Data from calibration3_FLMT105791__0__17-25-28-069.txt Node

Date: Mon Mar 20 17:25:28 GMT 2023
User: antho
Spectrometer: FLMT10579
Trigger mode: 0
Integration Time (sec): 1.000000E-1
Scans to average: 10
Electric dark correction enabled: true
Nonlinearity correction enabled: false
Boxcar width: 0
XAxis mode: Wavelengths
Number of Pixels in Spectrum: 3648
>>>>>Begin Spectral Data<<<<<
345.248	-163.12
345.464	-163.12
345.681	-163.12
345.898	-145.88
346.114	-157.69
346.331	-26.91
346.548	27.14
346.764	-6.96
346.981	-16.26
347.197	-14.9
347.414	18.42
347.631	-17.61
347.847	43.42
348.064	3.5
348.28	38.18
348.497	-49.2
348.713	1.18
348.93	21.13
349.146	119.95
349.363	102.9
349.579	135.64
349.796	108.32
350.012	121.69
350.229	173.03
350.445	110.65
350.661	129.25
350.878	141.45
351.094	131.38
351.311	152.69
351.527	159.47
351.743	131.76
351.96	188.34
352.176	175.55
352.392	160.83
352.609	157.34
352.825	129.83
353.041	148.23
353.257	160.25
353.474	165.28
353.69	175.74
353.906	173.61
354.122	163.54
354.339	249.56
354.555	199.38
354.771	180.2
354.987	241.81
355.203	244.33
355.42	175.16
355.636	160.05
355.852	170.13
356.068	167.03
356.284	162.76
356.5	261.77
356.716	200.16
356.932	178.26
357.148	246.66
357.364	191.24
357.58	205.97
357.796	253.83
358.012	214.3
358.228	194.93
358.444	135.06
358.66	221.66
358.876	176.33
359.092	144.16
359.308	196.86
359.524	236.58
359.74	223.41
359.956	214.88
360.172	287.34
360.388	302.07
360.604	248.01
360.819	335.39
361.035	267.97
361.251	273.59
361.467	218.56
361.683	267.58
361.898	255.57
362.114	281.53
362.33	236
362.546	305.75
362.762	267
362.977	317.37
363.193	236.39
363.409	314.86
363.624	306.33
363.84	284.44
364.056	292.77
364.271	339.85
364.487	314.27
364.703	310.4
364.918	278.04
365.134	319.89
365.35	330.55
365.565	458.23
365.781	379.18
365.996	404.37
366.212	496.78
366.427	410.95
366.643	384.8
366.858	380.54
367.074	389.06
367.289	466.17
367.505	507.63
367.72	380.34
367.936	383.44
368.151	456.1
368.367	420.84
368.582	436.14
368.798	391.97
369.013	463.07
369.228	436.92
369.444	459.2
369.659	512.28
369.874	461.52
370.09	508.6
370.305	422.19
370.52	474.5
370.736	532.82
370.951	458.81
371.166	501.63
371.381	524.3
371.597	479.93
371.812	437.11
372.027	448.54
372.242	453.58
372.458	513.06
372.673	428.59
372.888	406.69
373.103	453.77
373.318	539.99
373.533	446.8
373.749	435.37
373.964	345.47
374.179	430.91
374.394	382.67
374.609	458.42
374.824	387.9
375.039	445.25
375.254	414.64
375.469	471.98
375.684	455.71
375.899	559.36
376.114	517.51
376.329	530.88
376.544	502.6
376.759	514.61
376.974	495.04
377.189	540.76
377.404	546.38
377.619	599.66
377.834	547.35
378.049	560.72
378.264	620.01
378.478	682.39
378.693	640.74
378.908	657.79
379.123	645.78
379.338	655.27
379.553	569.44
379.767	560.33
379.982	579.9
380.197	573.7
380.412	587.65
380.626	635.89
380.841	752.92
381.056	670.58
381.271	753.69
381.485	675.81
381.7	629.31
381.915	657.21
382.129	600.05
382.344	560.91
382.559	530.3
382.773	559.75
382.988	452.22
383.202	490.58
383.417	426.65
383.632	561.11
383.846	466.17
384.061	487.87
384.275	477.22
384.49	585.13
384.704	644.81
384.919	676.39
385.133	708.36
385.348	764.93
385.562	669.22
385.777	746.14
385.991	695.76
386.206	702.35
386.42	676.97
386.634	756.6
386.849	759.89
387.063	764.93
387.277	725.41
387.492	733.74
387.706	717.66
387.92	713.01
388.135	787.4
388.349	783.72
388.563	768.22
388.778	751.56
388.992	799.03
389.206	818.21
389.42	924.38
389.635	861.61
389.849	961.2
390.063	1034.43
390.277	1025.33
390.491	1059.43
390.706	1025.33
390.92	1040.44
391.134	1040.44
391.348	1115.42
391.562	1070.66
391.776	1153.01
391.99	1128.01
392.205	1167.92
392.419	1088.29
392.633	1017.77
392.847	1007.89
393.061	859.48
393.275	834.29
393.489	657.21
393.703	618.46
393.917	605.86
394.131	613.61
394.345	737.03
394.559	876.72
394.773	907.72
394.986	1093.53
395.2	1154.75
395.414	1255.89
395.628	1261.12
395.842	1321.18
396.056	1284.95
396.27	1230.5
396.484	1179.55
396.697	1028.43
396.911	900.75
397.125	802.32
397.339	799.8
397.553	785.66
397.766	962.16
397.98	1131.5
398.194	1291.34
398.408	1425.8
398.621	1548.44
398.835	1629.04
399.049	1686.2
399.262	1749.75
399.476	1816.01
399.69	1806.71
399.903	1879.75
400.117	1828.6
400.331	1914.24
400.544	1850.69
400.758	2017.51
400.971	1903.97
401.185	1962.68
401.398	1930.71
401.612	2050.06
401.826	2088.22
402.039	2072.14
402.253	2124.84
402.466	2167.66
402.68	2145.77
402.893	2175.22
403.106	2149.06
403.32	2092.29
403.533	2128.14
403.747	2045.02
403.96	2163.01
404.174	2201.37
404.387	2173.28
404.6	2192.85
404.814	2240.51
405.027	2163.4
405.24	2140.73
405.454	2126.2
405.667	2278.48
405.88	2213.97
406.094	2202.73
406.307	2251.94
406.52	2159.33
406.733	2105.08
406.947	2141.89
407.16	2250
407.373	2302.7
407.586	2299.6
407.799	2303.48
408.012	2317.04
408.226	2295.53
408.439	2441.23
408.652	2406.74
408.865	2560.77
409.078	2625.48
409.291	2622.38
409.504	2582.86
409.717	2624.13
409.93	2601.65
410.143	2429.41
410.357	2308.51
410.57	2213.58
410.783	2279.26
410.996	2333.51
411.209	2475.91
411.421	2692.52
411.634	2725.07
411.847	2704.92
412.06	2770.41
412.273	2841.32
412.486	2802.96
412.699	2827.37
412.912	2826.79
413.125	2805.86
413.338	2782.61
413.55	2763.24
413.763	2740.76
413.976	2807.8
414.189	2791.72
414.402	2877.94
414.615	2930.64
414.827	2839.38
415.04	2875.23
415.253	2907.39
415.466	2931.41
415.678	2954.66
415.891	2869.61
416.104	2869.41
416.316	2912.42
416.529	3002.9
416.742	3157.51
416.954	3140.46
417.167	3040.49
417.38	3028.48
417.592	2968.22
417.805	2872.51
418.017	2892.27
418.23	2948.66
418.442	2885.88
418.655	2986.63
418.868	2932.19
419.08	2998.25
419.293	3037.78
419.505	3090.87
419.718	3088.54
419.93	3111.02
420.142	3051.92
420.355	3037.78
420.567	3006.2
420.78	3131.94
420.992	3106.75
421.205	3269.89
421.417	3332.86
421.629	3346.03
421.842	3329.95
422.054	3329.56
422.266	3368.89
422.479	3337.12
422.691	3155.38
422.903	3194.91
423.115	3086.02
423.328	3095.71
423.54	3134.85
423.752	3136.2
423.964	3274.54
424.177	3317.36
424.389	3293.53
424.601	3463.64
424.813	3409.97
425.025	3402.8
425.238	3441.74
425.45	3352.23
425.662	3317.16
425.874	3653.7
426.086	3377.81
426.298	3472.35
426.51	3402.41
426.722	3413.07
426.934	3482.62
427.146	3469.64
427.358	3477
427.57	3409.39
427.782	3281.51
427.994	3305.93
428.206	3334.99
428.418	3531.64
428.63	3606.81
428.842	3627.93
429.054	3483.4
429.266	3433.8
429.478	3388.46
429.69	3267.18
429.902	3283.64
430.114	3265.24
430.325	3038.94
430.537	2930.83
430.749	2806.06
430.961	2642.73
431.173	2721.39
431.384	2812.64
431.596	2871.35
431.808	3339.06
432.02	3714.73
432.231	3925.53
432.443	4192.32
432.655	3988.11
432.867	3927.47
433.078	3945.48
433.29	4055.92
433.502	4203.75
433.713	4230.29
433.925	4286.09
434.136	4128.19
434.348	3881.35
434.56	3830.79
434.771	4031.31
434.983	3874.77
435.194	4174.88
435.406	4342.47
435.617	4348.87
435.829	4498.83
436.04	4519.56
436.252	4462.98
436.463	4671.07
436.675	4858.23
436.886	4967.7
437.098	4928.36
437.309	4935.92
437.521	4738.1
437.732	4650.14
437.943	4646.66
438.155	4569.93
438.366	4505.61
438.578	4639.29
438.789	4382.77
439	4371.34
439.211	4376.57
439.423	4411.06
439.634	4648.98
439.845	4791.97
440.057	4828
440.268	4984.74
440.479	4929.14
440.69	4972.93
440.902	4796.81
441.113	4849.51
441.324	4949.68
441.535	5120.76
441.746	5308.11
441.957	5239.33
442.168	5371.85
442.38	5386
442.591	5408.66
442.802	5329.42
443.013	5549.52
443.224	5586.72
443.435	5460.01
443.646	5394.71
443.857	5388.32
444.068	5482.09
444.279	5412.15
444.49	5711.1
444.701	5573.54
444.912	5804.3
445.123	5818.44
445.334	5582.46
445.545	5722.73
445.756	5578.77
445.967	5432.11
446.178	5401.88
446.388	5373.79
446.599	5409.83
446.81	5498.76
447.021	5474.73
447.232	5635.93
447.443	5728.35
447.653	5916.48
447.864	6024.39
448.075	6005.6
448.286	5978.67
448.496	5913.38
448.707	6062.56
448.918	5859.9
449.129	5980.41
449.339	6002.89
449.55	6072.64
449.761	6018.77
449.971	6007.15
450.182	6161.95
450.393	6203.41
450.603	6209.42
450.814	6488.8
451.024	6454.71
451.235	6667.63
451.446	6577.93
451.656	6566.11
451.867	6523.49
452.077	6339.04
452.288	6495.39
452.498	6366.16
452.709	6371.2
452.919	6130.95
453.13	6089.1
453.34	6031.56
453.55	5784.15
453.761	6169.51
453.971	6058.3
454.182	6217.56
454.392	6216.78
454.602	6540.73
454.813	6509.54
455.023	6360.35
455.233	6335.74
455.444	6424.29
455.654	6131.73
455.864	6356.48
456.075	6479.12
456.285	6445.99
456.495	6545.38
456.705	6564.95
456.916	6765.67
457.126	6813.14
457.336	6755.79
457.546	6571.53
457.756	6713.55
457.967	6803.26
458.177	6629.47
458.387	6692.05
458.597	6519.8
458.807	6661.05
459.017	6534.53
459.227	6553.9
459.437	6589.36
459.647	6726.14
459.857	6707.74
460.068	6878.24
460.278	6818.95
460.488	6833.87
460.698	6843.56
460.908	6894.51
461.117	7047.38
461.327	7125.65
461.537	7180.09
461.747	7182.81
461.957	7182.61
462.167	7306.81
462.377	7257.21
462.587	7258.56
462.797	7407.75
463.007	7285.3
463.216	7480.6
463.426	7621.64
463.636	7424.02
463.846	7238.61
464.056	7286.66
464.265	7270.19
464.475	7319.98
464.685	7439.91
464.895	7369.39
465.104	7205.09
465.314	7410.46
465.524	7333.93
465.733	7335.09
465.943	7616.41
466.153	7730.72
466.362	7761.53
466.572	7745.45
466.782	7583.86
466.991	7709.8
467.201	7597.04
467.41	7487.96
467.62	7766.18
467.829	7729.17
468.039	7921.37
468.249	7855.11
468.458	8051.38
468.668	7930.87
468.877	8189.91
469.086	8146.89
469.296	8424.92
469.505	8459.6
469.715	8357.11
469.924	8254.23
470.134	8416.78
470.343	8171.5
470.552	8214.12
470.762	8205.02
470.971	8229.62
471.18	8365.83
471.39	8498.74
471.599	8347.03
471.808	8545.24
472.018	8735.3
472.227	8953.08
472.436	9239.24
472.645	9228.2
472.855	9135.59
473.064	9484.33
473.273	9510.29
473.482	9119.89
473.691	9366.92
473.901	9212.89
474.11	9157.09
474.319	9468.06
474.528	9434.34
474.737	9923.36
474.946	9781.73
475.155	9881.12
475.364	10010.55
475.573	9901.86
475.783	10129.51
475.992	10017.72
476.201	9999.12
476.41	10133.58
476.619	9932.27
476.828	9910.77
477.037	9883.64
477.245	9978.19
477.454	10205.26
477.663	10498.02
477.872	10772.56
478.081	10905.66
478.29	10768.68
478.499	11004.08
478.708	11198.02
478.917	11080.61
479.125	10846.76
479.334	10989.75
479.543	11297.03
479.752	11460.75
479.961	11362.71
480.169	11683.17
480.378	11742.45
480.587	12011.96
480.796	11883.11
481.004	11872.46
481.213	11987.54
481.422	12102.44
481.63	12353.92
481.839	12426.19
482.048	12590.29
482.256	12510.27
482.465	12911.91
482.674	12785.01
482.882	12803.61
483.091	12895.44
483.299	12667.21
483.508	13058
483.716	13147.12
483.925	13208.93
484.134	12797.02
484.342	13109.73
484.551	13146.93
484.759	13084.93
484.967	13469.13
485.176	13298.44
485.384	13436.58
485.593	13228.69
485.801	13039.79
486.01	12634.85
486.218	11994.52
486.426	11511.51
486.635	11241.81
486.843	11367.94
487.051	11782.95
487.26	12033.27
487.468	12296.18
487.676	12684.26
487.885	13113.41
488.093	13395.7
488.301	13832.02
488.509	13826.4
488.717	13992.83
488.926	14113.34
489.134	13894.99
489.342	13979.07
489.55	13792.49
489.758	14143.37
489.967	14622.89
490.175	14582.21
490.383	15054.56
490.591	15319.8
490.799	15169.07
491.007	15130.71
491.215	15228.35
491.423	15043.13
491.631	15072.78
491.839	14931.73
492.047	14858.88
492.255	14566.13
492.463	14560.9
492.671	14303.21
492.879	14784.67
493.087	14993.53
493.295	15151.24
493.503	15303.14
493.711	15769.3
493.919	15606.74
494.127	15556.56
494.334	15463.95
494.542	15639.29
494.75	16068.83
494.958	15873.73
495.166	16273.23
495.374	16363.91
495.581	16377.47
495.789	16349.38
495.997	16450.9
496.205	15840.01
496.412	16100.02
496.62	16483.26
496.828	16232.16
497.035	16476.09
497.243	16575.29
497.451	16491.97
497.658	16546.42
497.866	16553
498.074	16724.86
498.281	16379.99
498.489	16470.47
498.696	16172.29
498.904	15975.06
499.112	15995.21
499.319	16338.53
499.527	16526.27
499.734	16592.34
499.942	16534.79
500.149	16525.3
500.357	16582.45
500.564	16222.08
500.771	16250.56
500.979	16019.81
501.186	15821.8
501.394	16284.28
501.601	15683.08
501.808	15898.14
502.016	15961.3
502.223	15804.75
502.43	15981.84
502.638	16061.86
502.845	16319.35
503.052	16480.35
503.26	16436.95
503.467	16600.47
503.674	16708.39
503.881	16617.91
504.089	16441.41
504.296	16357.13
504.503	16219.76
504.71	16079.87
504.917	16360.03
505.125	16444.7
505.332	16747.72
505.539	16653.56
505.746	17113.13
505.953	17268.13
506.16	17365.39
506.367	17412.66
506.574	17703.86
506.781	17621.52
506.988	17504.5
507.195	17311.72
507.402	17373.14
507.609	17327.99
507.816	17062.75
508.023	17013.74
508.23	16890.9
508.437	16697.73
508.644	16787.83
508.851	17049.77
509.058	17383.02
509.265	17454.51
509.472	17574.83
509.679	17739.12
509.885	17662.4
510.092	17685.65
510.299	17611.83
510.506	17280.53
510.713	17444.44
510.92	17384.37
511.126	17521.74
511.333	17697.86
511.54	17901.68
511.746	17845.1
511.953	17952.05
512.16	18134.37
512.367	18066.17
512.573	17844.14
512.78	17747.46
512.987	17816.04
513.193	17432.42
513.4	17322.76
513.606	17438.82
513.813	17441.92
514.02	17298.35
514.226	17290.99
514.433	17345.43
514.639	17246.04
514.846	17228.41
515.052	17218.33
515.259	17307.84
515.465	17408.01
515.672	17518.25
515.878	17555.65
516.085	17806.36
516.291	17631.79
516.497	17570.76
516.704	17026.52
516.91	16602.22
517.117	15939.99
517.323	15463.76
517.529	15395.56
517.736	15325.42
517.942	15519.36
518.148	15949.29
518.354	16107
518.561	16115.72
518.767	16003.92
518.973	16079.68
519.179	16462.14
519.386	16656.85
519.592	16620.23
519.798	16692.5
520.004	17398.13
520.21	17304.16
520.417	17505.85
520.623	17619.2
520.829	17659.49
521.035	17732.73
521.241	17554.29
521.447	17673.83
521.653	18052.61
521.859	17835.03
522.065	17994.29
522.271	18065.2
522.477	18066.17
522.683	18153.94
522.889	17785.04
523.095	17659.49
523.301	17693.98
523.507	17563.98
523.713	17694.76
523.919	17629.27
524.125	18130.69
524.331	18225.82
524.537	18650.32
524.742	18604.59
524.948	18577.47
525.154	18723.75
525.36	18560.03
525.566	18295.57
525.772	18640.44
525.977	18518.18
526.183	18283.94
526.389	18344
526.595	17769.54
526.8	17541.89
527.006	16995.52
527.212	16644.65
527.417	16546.22
527.623	16571.22
527.829	16866.29
528.034	17222.98
528.24	17321.6
528.446	17824.18
528.651	18147.54
528.857	18234.34
529.062	18306.22
529.268	18630.17
529.473	18815.97
529.679	18935.71
529.884	18959.15
530.09	18752.04
530.295	18325.99
530.501	18623.19
530.706	18634.82
530.912	18845.23
531.117	18867.31
531.323	18899.09
531.528	19174.6
531.733	19153.29
531.939	19007.78
532.144	18979.3
532.35	18858.79
532.555	18784.97
532.76	18256.04
532.966	18191.52
533.171	17981.89
533.376	17882.5
533.581	17867.97
533.787	18179.32
533.992	18518.57
534.197	18132.04
534.402	18613.12
534.607	18690.23
534.813	18577.66
535.018	18614.67
535.223	18836.51
535.428	18783.23
535.633	19013.79
535.838	19246.28
536.043	19458.63
536.249	19571.78
536.454	19295.3
536.659	19359.43
536.864	19233.5
537.069	18980.85
537.274	18820.23
537.479	18850.27
537.684	18744.67
537.889	18609.24
538.094	19243.18
538.299	19008.94
538.504	19357.69
538.708	19103.88
538.913	19401.09
539.118	19363.7
539.323	19248.61
539.528	18946.36
539.733	18792.72
539.938	18907.42
540.142	18768.89
540.347	18620.67
540.552	18591.03
540.757	18273.67
540.962	18558.68
541.166	18244.61
541.371	18224.46
541.576	18285.1
541.781	18444.36
541.985	18917.69
542.19	18569.91
542.395	19110.08
542.599	19076.17
542.804	18824.3
543.008	19110.86
543.213	18922.15
543.418	18759.59
543.622	19009.72
543.827	18665.62
544.031	19046.92
544.236	19204.24
544.44	19370.86
544.645	19300.53
544.849	19247.45
545.054	19349.16
545.258	19487.69
545.463	19474.13
545.667	19158.71
545.872	19393.53
546.076	19286.97
546.281	19365.83
546.485	19175.37
546.689	19262.17
546.894	19267.98
547.098	19476.07
547.302	19322.04
547.507	19298.6
547.711	19386.36
547.915	19228.07
548.119	19064.16
548.324	18957.21
548.528	19076.76
548.732	19102.14
548.936	19273.8
549.141	19309.25
549.345	19261.2
549.549	19376.1
549.753	19522.18
549.957	19471.42
550.161	19613.82
550.366	19615.95
550.57	19444.68
550.774	19315.45
550.978	19498.16
551.182	19352.46
551.386	19237.57
551.59	19428.79
551.794	19263.14
551.998	19490.79
552.202	19466.58
552.406	19469.68
552.61	19628.35
552.814	19532.06
553.018	19403.41
553.222	19166.46
553.426	19185.45
553.63	19450.11
553.833	19422.79
554.037	19193.2
554.241	19209.28
554.445	19561.12
554.649	19448.36
554.853	19255.2
555.056	19571
555.26	19660.52
555.464	19426.08
555.668	19572.55
555.871	19436.93
556.075	19615.57
556.279	19322.43
556.483	19267.4
556.686	19120.93
556.89	19228.46
557.094	19087.02
557.297	18847.55
557.501	19050.6
557.704	18703.79
557.908	18934.16
558.112	18845.03
558.315	18921.37
558.519	18876.61
558.722	18650.9
558.926	18690.23
559.129	18195.98
559.333	18437.39
559.536	18373.07
559.74	18276.97
559.943	18007.85
560.147	18274.84
560.35	18165.56
560.553	18521.67
560.757	18437.78
560.96	18502.49
561.164	18774.51
561.367	18835.73
561.57	18767.15
561.774	18684.22
561.977	18500.36
562.18	18529.42
562.384	18572.24
562.587	18455.6
562.79	18615.25
562.993	18533.88
563.197	18422.08
563.4	18648.19
563.603	18706.7
563.806	18693.33
564.009	18561
564.212	18700.69
564.416	18446.69
564.619	18356.02
564.822	18321.92
565.025	18489.12
565.228	18415.3
565.431	18538.14
565.634	18274.64
565.837	18192.69
566.04	17971.82
566.243	17897.42
566.446	17655.04
566.649	18028.58
566.852	17741.26
567.055	18048.73
567.258	18027.03
567.461	18226.79
567.664	18189.01
567.867	18224.85
568.07	18089.23
568.273	18158.59
568.475	18288.01
568.678	17787.17
568.881	17909.62
569.084	17482.8
569.287	17376.82
569.489	17631.79
569.692	17624.62
569.895	17715.68
570.098	17464.78
570.3	17493.45
570.503	17364.42
570.706	17402.39
570.909	17358.99
571.111	17036.6
571.314	16937.21
571.516	16983.32
571.719	17116.23
571.922	17094.14
572.124	17253.79
572.327	17375.27
572.529	17416.15
572.732	17538.79
572.935	17511.47
573.137	17904.59
573.34	17491.9
573.542	17733.89
573.745	17652.52
573.947	17649.42
574.15	17572.31
574.352	17487.64
574.554	17759.08
574.757	17425.25
574.959	17199.35
575.162	17456.84
575.364	17182.1
575.566	17323.54
575.769	17076.51
575.971	17165.25
576.173	16705.68
576.376	17004.63
576.578	17173.19
576.78	17103.63
576.982	16992.62
577.185	17200.12
577.387	17137.35
577.589	17283.04
577.791	17156.91
577.993	17095.69
578.196	17142
578.398	16997.46
578.6	16934.88
578.802	16802.94
579.004	16689.21
579.206	16884.7
579.408	17128.24
579.61	16884.12
579.812	17286.92
580.014	17015.67
580.216	17062.56
580.418	17321.02
580.62	17327.99
580.822	17348.53
581.024	17415.18
581.226	17476.21
581.428	17432.81
581.63	17755.4
581.832	17595.17
582.034	17614.74
582.236	17628.69
582.438	17816.24
582.64	17912.14
582.841	17995.65
583.043	18183.77
583.245	17855.57
583.447	18041.76
583.649	17994.87
583.85	18022.38
584.052	18023.35
584.254	17894.32
584.456	17968.52
584.657	17912.33
584.859	18114.41
585.061	17835.8
585.262	17874.55
585.464	17747.07
585.666	17811.59
585.867	17535.69
586.069	17478.92
586.27	17437.07
586.472	17470.98
586.674	17470.4
586.875	17541.5
587.077	17594.59
587.278	17564.95
587.48	17534.14
587.681	17692.04
587.883	17706.77
588.084	17375.66
588.285	17405.49
588.487	17059.85
588.688	17027.69
588.89	16454.39
589.091	16139.55
589.292	15702.26
589.494	15371.15
589.695	15138.26
589.896	14917.97
590.098	15181.27
590.299	15196
590.5	15354.29
590.702	15715.24
590.903	15920.81
591.104	16084.72
591.305	16307.33
591.507	16358.68
591.708	16419.13
591.909	16360.61
592.11	16370.49
592.311	16510.19
592.512	16193.22
592.714	16279.43
592.915	16443.73
593.116	16355.58
593.317	16599.89
593.518	16651.62
593.719	16743.26
593.92	16671.19
594.121	16616.75
594.322	16578
594.523	16445.47
594.724	16225.77
594.925	16355.19
595.126	16196.32
595.327	16143.81
595.528	16344.73
595.729	16347.44
595.929	16393.55
596.13	16509.02
596.331	16651.82
596.532	16591.75
596.733	16717.88
596.934	16784.53
597.135	16795.77
597.335	16765.74
597.536	16762.83
597.737	16712.85
597.938	16532.85
598.138	16681.27
598.339	16760.9
598.54	16715.56
598.74	16505.73
598.941	16537.89
599.142	16774.84
599.342	16674.48
599.543	16648.13
599.744	16713.81
599.944	16696.57
600.145	16804.29
600.345	16707.61
600.546	16676.42
600.746	16739.39
600.947	16960.65
601.147	16569.09
601.348	16852.93
601.548	16671.97
601.749	16621.98
601.949	16421.45
602.15	16583.81
602.35	16272.26
602.551	16463.49
602.751	16526.46
602.951	16690.18
603.152	16485.39
603.352	16718.08
603.552	16619.07
603.753	16775.81
603.953	16932.75
604.153	16828.9
604.354	16986.03
604.554	16958.13
604.754	16928.68
604.954	16889.16
605.155	17107.51
605.355	16879.47
605.555	16866.29
605.755	16943.41
605.955	16822.89
606.155	16816.89
606.356	16859.9
606.556	16848.28
606.756	16813.79
606.956	16838.2
607.156	16884.51
607.356	16703.74
607.556	16876.56
607.756	16809.53
607.956	16861.84
608.156	16837.04
608.356	16565.99
608.556	16727.38
608.756	16534.4
608.956	16639.03
609.156	16546.8
609.356	16533.44
609.556	16509.6
609.755	16573.74
609.955	16404.79
610.155	16448.77
610.355	16497.01
610.555	16231.77
610.755	16141.87
610.954	16206.2
611.154	16440.05
611.354	16432.3
611.554	16310.82
611.753	16462.14
611.953	16327.68
612.153	16383.67
612.352	16386.96
612.552	16105.64
612.752	16125.6
612.951	16338.14
613.151	16164.54
613.351	16188.76
613.55	16220.34
613.75	16190.7
613.949	15928.56
614.149	15956.26
614.348	15947.16
614.548	16002.18
614.747	15909.96
614.947	16052.75
615.146	15900.27
615.346	16181.4
615.545	16172.48
615.745	16037.64
615.944	15990.94
616.144	15933.98
616.343	15793.32
616.542	15767.36
616.742	15510.45
616.941	15533.7
617.14	15435.66
617.34	15616.24
617.539	15541.06
617.738	15686.76
617.938	15797.97
618.137	15743.14
618.336	15843.11
618.535	16004.7
618.734	15918.29
618.934	15856.1
619.133	15928.75
619.332	16114.75
619.531	15791.77
619.73	16029.5
619.929	15985.52
620.128	16001.21
620.328	16015.55
620.527	15965.56
620.726	16094.99
620.925	15876.25
621.124	16151.37
621.323	15911.12
621.522	15723.96
621.721	15919.64
621.92	15735.97
622.119	15838.27
622.318	15701.1
622.517	15661.38
622.715	15656.73
622.914	15536.22
623.113	15715.05
623.312	15267.69
623.511	15580.97
623.71	15463.18
623.909	15246.57
624.107	15499.6
624.306	15332.4
624.505	15258.39
624.704	15203.55
624.902	15058.83
625.101	15214.02
625.3	15010.39
625.499	15028.21
625.697	15073.16
625.896	14943.93
626.095	14817.61
626.293	14744.76
626.492	14951.68
626.69	14909.45
626.889	15213.44
627.088	15086.34
627.286	14982.1
627.485	14731.78
627.683	14667.26
627.882	14489.21
628.08	14292.56
628.279	14077.3
628.477	14146.08
628.676	13962.6
628.874	14143.18
629.073	14024.8
629.271	14159.26
629.469	14166.81
629.668	14141.24
629.866	14116.25
630.065	14126.13
630.263	14225.33
630.461	14097.84
630.66	14181.15
630.858	14155.77
631.056	14298.76
631.254	14431.47
631.453	14184.25
631.651	14310.57
631.849	14258.84
632.047	14138.53
632.245	14110.43
632.444	14242.76
632.642	14488.05
632.84	14576.4
633.038	14403.57
633.236	14398.73
633.434	14592.86
633.632	14592.28
633.83	14420.43
634.028	14661.64
634.227	14461.5
634.425	14729.26
634.623	14404.15
634.821	14626.38
635.019	14670.75
635.216	14819.35
635.414	14785.64
635.612	14492.5
635.81	14628.71
636.008	14738.37
636.206	14755.81
636.404	14627.74
636.602	14736.43
636.8	14586.08
636.997	14763.75
637.195	14727.52
637.393	14625.03
637.591	14877.48
637.789	14873.22
637.986	14898.21
638.184	14817.61
638.382	14980.94
638.58	14837.18
638.777	14991.98
638.975	14911.19
639.173	14948
639.37	14812.19
639.568	14856.55
639.765	14840.47
639.963	14786.61
640.161	14591.7
640.358	14848.61
640.556	14562.83
640.753	14669.39
640.951	14505.68
641.148	14563.41
641.346	14601.39
641.543	14450.27
641.741	14580.27
641.938	14412.1
642.136	14604.88
642.333	14402.99
642.531	14647.69
642.728	14567.68
642.925	14621.34
643.123	14657.96
643.32	14647.89
643.517	14501.03
643.715	14491.34
643.912	14594.8
644.109	14577.17
644.306	14587.05
644.504	14521.76
644.701	14502.58
644.898	14523.7
645.095	14447.36
645.293	14485.14
645.49	14365.6
645.687	14365.21
645.884	14427.79
646.081	14099.78
646.278	14133.1
646.475	14040.68
646.672	14011.04
646.87	13913.2
647.067	13871.74
647.264	13813.42
647.461	13742.89
647.658	13571.82
647.855	13710.73
648.052	13566.78
648.249	13469.52
648.446	13581.31
648.642	13645.44
648.839	13330.21
649.036	13504.2
649.233	13404.61
649.43	13403.64
649.627	13127.36
649.824	13261.05
650.021	13139.76
650.217	13425.73
650.414	13498.19
650.611	13533.07
650.808	13763.24
651.004	13686.51
651.201	13755.68
651.398	13778.74
651.595	13624.51
651.791	13456.15
651.988	13600.49
652.185	13258.33
652.381	13596.03
652.578	13438.13
652.775	13510.59
652.971	13722.94
653.168	13537.52
653.364	13883.75
653.561	13609.21
653.757	13637.88
653.954	13847.91
654.15	13490.64
654.347	13717.13
654.543	13683.8
654.74	13472.62
654.936	13457.5
655.133	13307.54
655.329	13363.34
655.525	13131.82
655.722	13099.07
655.918	12771.64
656.115	12271.77
656.311	12033.08
656.507	11634.34
656.704	11475.86
656.9	11595.98
657.096	11857.15
657.292	11796.12
657.489	12110.77
657.685	12275.65
657.881	12352.95
658.077	12599.59
658.273	12750.52
658.47	13014.99
658.666	12916.76
658.862	13158.55
659.058	13229.85
659.254	13188.58
659.45	13409.07
659.646	13173.08
659.842	13259.3
660.038	13469.52
660.234	13262.6
660.43	13408.49
660.626	13562.13
660.822	13464.09
661.018	13560.19
661.214	13573.75
661.41	13413.72
661.606	13580.15
661.802	13696.78
661.998	13598.94
662.194	13512.14
662.39	13633.62
662.586	13649.51
662.781	13608.05
662.977	13755.29
663.173	13522.99
663.369	13583.25
663.564	13544.88
663.76	13644.86
663.956	13506.14
664.152	13372.45
664.347	13345.91
664.543	13542.75
664.739	13390.47
664.934	13260.66
665.13	13510.98
665.326	13472.42
665.521	13543.92
665.717	13406.74
665.912	13503.42
666.108	13245.35
666.304	13467.19
666.499	13327.89
666.695	13129.3
666.89	13346.1
667.086	13321.69
667.281	13338.54
667.477	13415.07
667.672	13292.04
667.867	13216.48
668.063	13287.98
668.258	13156.42
668.454	13300.18
668.649	13303.86
668.844	13349.59
669.04	13404.22
669.235	13256.78
669.43	13278.48
669.626	13124.84
669.821	13160.68
670.016	13107.98
670.211	13234.31
670.407	13006.66
670.602	13285.07
670.797	13024.29
670.992	13303.86
671.187	13038.04
671.382	13209.12
671.578	12873.16
671.773	13042.89
671.968	12776.87
672.163	13003.75
672.358	12961.12
672.553	12797.6
672.748	13007.24
672.943	12999.1
673.138	12955.51
673.333	13072.53
673.528	12786.17
673.723	12964.81
673.918	12874.71
674.113	12817.75
674.308	12938.26
674.503	12882.66
674.698	12879.17
674.892	12711.19
675.087	12770.09
675.282	12769.7
675.477	12848.17
675.672	12844.1
675.867	12769.51
676.061	12723.4
676.256	12641.64
676.451	12723.98
676.646	12765.83
676.84	12605.99
677.035	12634.47
677.23	12667.79
677.424	12685.03
677.619	12576.15
677.814	12820.66
678.008	12649.19
678.203	12690.85
678.397	12577.7
678.592	12532.36
678.787	12676.9
678.981	12532.36
679.176	12579.44
679.37	12528.87
679.565	12554.06
679.759	12570.34
679.954	12536.04
680.148	12421.54
680.342	12614.7
680.537	12459.13
680.731	12402.55
680.926	12500.2
681.12	12415.53
681.314	12340.36
681.509	12368.65
681.703	12472.49
681.897	12213.45
682.092	12318.85
682.286	12309.55
682.48	12292.7
682.674	12281.85
682.869	12239.8
683.063	12306.26
683.257	12208.22
683.451	12125.11
683.645	12271.77
683.839	12101.27
684.034	11986.38
684.228	12005.76
684.422	11886.21
684.616	11943.37
684.81	11963.52
685.004	11862.58
685.198	11941.05
685.392	11890.28
685.586	11968.56
685.78	11820.53
685.974	11797.48
686.168	11762.02
686.362	11717.85
686.556	10984.32
686.75	10621.24
686.944	9954.75
687.138	9240.79
687.331	8703.72
687.525	8414.26
687.719	8199.21
687.913	8246.09
688.107	8450.3
688.301	8401.09
688.494	8579.53
688.688	8522.38
688.882	8473.16
689.076	8537.1
689.269	8575.07
689.463	8668.46
689.657	8677.76
689.85	8671.75
690.044	8841.67
690.238	8963.93
690.431	8986.98
690.625	9077.27
690.818	9206.11
691.012	9236.53
691.205	9513.97
691.399	9545.94
691.593	9597.48
691.786	9628.87
691.98	9904.57
692.173	9934.41
692.366	9935.96
692.56	10095.6
692.753	9937.7
692.947	9918.91
693.14	9885.19
693.333	9938.86
693.527	9855.74
693.72	9909.22
693.914	9858.07
694.107	9718.38
694.3	9680.98
694.493	9552.14
694.687	9855.16
694.88	9678.27
695.073	9854.58
695.266	9771.27
695.46	9825.91
695.653	9834.82
695.846	9774.56
696.039	9893.14
696.232	9969.47
696.425	10116.72
696.618	10174.07
696.812	10307.17
697.005	10377.89
697.198	10581.91
697.391	10405.6
697.584	10677.23
697.777	10586.17
697.97	10455.97
698.163	10520.88
698.356	10435.24
698.549	10531.53
698.742	10403.47
698.935	10295.94
699.127	10221.54
699.32	10064.8
699.513	10059.76
699.706	9929.76
699.899	10120.4
700.092	9984.59
700.285	9900.11
700.477	9823
700.67	9860.39
700.863	9798.39
701.056	9895.85
701.248	9868.14
701.441	9826.1
701.634	9782.51
701.826	9956.3
702.019	9602.71
702.212	9732.13
702.404	9749.38
702.597	9623.05
702.79	9622.86
702.982	9671.3
703.175	9835.4
703.367	9763.52
703.56	9823.58
703.752	9940.8
703.945	9915.03
704.137	9851.29
704.33	9980.52
704.522	10005.51
704.715	9959.01
704.907	10072.16
705.1	10082.23
705.292	10011.13
705.484	9947.19
705.677	9960.95
705.869	9992.72
706.061	9974.51
706.254	10016.75
706.446	9885.97
706.638	9865.43
706.831	10036.9
707.023	9959.59
707.215	10054.72
707.407	10087.47
707.599	9908.06
707.792	10072.35
707.984	10057.24
708.176	10039.8
708.368	9964.05
708.56	10000.47
708.752	10006.67
708.944	9892.94
709.136	10042.32
709.329	9922.78
709.521	10043.87
709.713	9890.04
709.905	9968.5
710.097	10097.35
710.289	9875.31
710.481	9972.38
710.672	9864.85
710.864	9954.75
711.056	9920.46
711.248	9899.14
711.44	9925.3
711.632	9856.33
711.824	9930.14
712.016	9849.35
712.207	9836.76
712.399	9787.16
712.591	9919.1
712.783	9831.14
712.975	9747.83
713.166	9818.74
713.358	9683.7
713.55	9797.04
713.741	9727.29
713.933	9743.37
714.125	9608.91
714.316	9540.32
714.508	9670.13
714.7	9495.37
714.891	9490.34
715.083	9565.9
715.274	9369.05
715.466	9420.39
715.657	9383.78
715.849	9239.43
716.04	9150.89
716.232	9082.3
716.423	8918.98
716.615	8688.22
716.806	8402.64
716.998	8111.83
717.189	7840.58
717.381	7637.73
717.572	7440.68
717.763	7343.62
717.955	7172.34
718.146	6969.3
718.337	6828.83
718.528	6668.8
718.72	6412.86
718.911	6418.28
719.102	6288.47
719.293	6300.09
719.485	6228.02
719.676	6078.64
719.867	6009.09
720.058	6076.7
720.249	6039.5
720.44	6110.22
720.632	6189.27
720.823	6272.2
721.014	6591.88
721.205	6817.79
721.396	6941.2
721.587	7176.99
721.778	7283.56
721.969	7420.92
722.16	7518.38
722.351	7687.13
722.542	7810.74
722.733	7818.88
722.924	7605.95
723.115	7611.18
723.305	7362.41
723.496	7438.55
723.687	7154.91
723.878	7094.26
724.069	7072.37
724.26	7050.48
724.45	6782.14
724.641	6761.21
724.832	6733.51
725.023	6662.21
725.213	6612.8
725.404	6591.49
725.595	6505.27
725.785	6528.72
725.976	6595.37
726.167	6545.38
726.357	6624.04
726.548	6688.56
726.739	6537.63
726.929	6745.13
727.12	6627.33
727.31	6735.64
727.501	6492.68
727.691	6472.14
727.882	6501.01
728.072	6541.5
728.263	6594.2
728.453	6684.68
728.644	6743.19
728.834	6617.84
729.024	6549.25
729.215	6490.16
729.405	6513.6
729.596	6584.71
729.786	6567.08
729.976	6622.88
730.167	6625.98
730.357	6545.19
730.547	6658.53
730.737	6680.03
730.928	6678.68
731.118	6684.68
731.308	6555.45
731.498	6659.3
731.688	6807.13
731.879	6791.63
732.069	6838.91
732.259	6953.41
732.449	7035.95
732.639	7128.95
732.829	7152
733.019	7245.19
733.209	7377.14
733.399	7350.98
733.589	7531.55
733.779	7562.75
733.969	7591.03
734.159	7730.34
734.349	7739.44
734.539	7803.38
734.729	7833.8
734.919	7800.28
735.109	7890.95
735.299	7734.41
735.488	7772.38
735.678	7728.4
735.868	7767.54
736.058	7642.57
736.248	7669.31
736.437	7601.11
736.627	7573.6
736.817	7720.46
737.007	7601.88
737.196	7702.44
737.386	7699.92
737.576	7666.21
737.765	7751.65
737.955	7650.13
738.144	7882.82
738.334	7764.44
738.524	7670.28
738.713	7715.61
738.903	7598.59
739.092	7714.84
739.282	7674.54
739.471	7665.43
739.661	7610.99
739.85	7734.41
740.04	7684.42
740.229	7753.59
740.419	7788.65
740.608	7821.2
740.797	7701.27
740.987	7803.57
741.176	7775.29
741.365	7711.93
741.555	7633.46
741.744	7806.67
741.933	7656.71
742.123	7781.29
742.312	7802.41
742.501	7767.15
742.69	7838.06
742.88	7713.48
743.069	7840
743.258	7784.97
743.447	7824.89
743.636	7810.74
743.825	7744.29
744.014	7793.3
744.204	7867.12
744.393	7695.46
744.582	7866.35
744.771	7934.55
744.96	7761.34
745.149	7809.58
745.338	7768.12
745.527	7825.47
745.716	7701.27
745.905	7705.92
746.094	7839.03
746.283	7794.47
746.471	7691.59
746.66	7817.52
746.849	7832.05
747.038	7815
747.227	7682.29
747.416	7803.19
747.604	7673.57
747.793	7675.89
747.982	7685.39
748.171	7799.5
748.359	7626.29
748.548	7670.28
748.737	7636.37
748.926	7614.86
749.114	7469.55
749.303	7603.04
749.491	7564.3
749.68	7416.66
749.869	7529.81
750.057	7595.29
750.246	7512.95
750.434	7506.17
750.623	7418.4
750.811	7366.29
751	7457.15
751.188	7360.86
751.377	7350.59
751.565	7377.52
751.754	7316.49
751.942	7275.22
752.131	7429.25
752.319	7255.66
752.507	7342.07
752.696	7277.74
752.884	7300.61
753.072	7304.29
753.261	7292.86
753.449	7332.77
753.637	7156.26
753.825	7319.79
754.014	7289.37
754.202	7258.37
754.39	7268.64
754.578	7294.41
754.766	7190.75
754.955	7069.08
755.143	7234.93
755.331	7108.99
755.519	7168.66
755.707	7142.7
755.895	7100.46
756.083	7072.95
756.271	6973.37
756.459	7033.23
756.647	7012.12
756.835	6955.35
757.023	6989.45
757.211	6996.23
757.399	6938.69
757.587	6969.69
757.775	6856.15
757.963	6914.08
758.151	6913.5
758.339	6787.76
758.526	6834.06
758.714	6797.25
758.902	6594.01
759.09	6405.88
759.278	6006.57
759.465	5526.27
759.653	4864.43
759.841	4322.71
760.028	3728.68
760.216	3251.68
760.404	2984.3
760.591	2530.35
760.779	2113.6
760.967	1824.73
761.154	1576.54
761.342	1573.44
761.529	1599.79
761.717	1657.52
761.905	1660.43
762.092	1780.17
762.28	1712.16
762.467	1662.75
762.655	1593.01
762.842	1646.29
763.029	1647.84
763.217	1668.37
763.404	1612.38
763.592	1700.34
763.779	1655.97
763.966	1708.48
764.154	1792.37
764.341	1898.93
764.528	1906.68
764.716	2020.8
764.903	2158.55
765.09	2292.82
765.277	2399.77
765.465	2637.88
765.652	2813.23
765.839	2961.06
766.026	3193.75
766.213	3307.67
766.4	3520.98
766.588	3823.23
766.775	3928.63
766.962	4081.69
767.149	4289.19
767.336	4477.9
767.523	4604.23
767.71	4775.5
767.897	4988.43
768.084	5124.05
768.271	5224.22
768.458	5254.63
768.645	5417.96
768.832	5410.6
769.019	5539.44
769.206	5586.52
769.392	5655.69
769.579	5808.36
769.766	5766.13
769.953	5791.12
770.14	5869.01
770.327	5838.59
770.513	5933.14
770.7	6010.06
770.887	5873.27
771.073	5929.26
771.26	5949.22
771.447	5951.54
771.634	5964.72
771.82	6045.12
772.007	5915.51
772.193	6063.53
772.38	6011.02
772.567	5927.71
772.753	5934.11
772.94	6044.35
773.126	5979.25
773.313	5976.54
773.499	5968.98
773.686	6016.45
773.872	5946.51
774.059	5953.09
774.245	5941.47
774.432	5951.74
774.618	5840.33
774.804	5868.04
774.991	5824.06
775.177	5857.58
775.363	5886.25
775.55	5926.55
775.736	5803.13
775.922	5875.21
776.109	5832.78
776.295	5830.84
776.481	5923.84
776.667	5844.21
776.853	5834.71
777.04	5788.6
777.226	5780.08
777.412	5844.6
777.598	5761.67
777.784	5767.68
777.97	5728.35
778.156	5693.28
778.342	5773.68
778.528	5695.8
778.715	5587.88
778.901	5673.71
779.087	5621.4
779.272	5657.82
779.458	5618.49
779.644	5640
779.83	5600.09
780.016	5701.61
780.202	5577.81
780.388	5664.02
780.574	5489.65
780.76	5524.91
780.946	5564.24
781.131	5540.61
781.317	5464.46
781.503	5481.51
781.689	5447.03
781.874	5616.55
782.06	5473.18
782.246	5526.85
782.432	5471.83
782.617	5453.42
782.803	5489.46
782.989	5416.99
783.174	5351.51
783.36	5379.6
783.545	5371.08
783.731	5361.97
783.916	5241.85
784.102	5312.18
784.288	5359.84
784.473	5313.92
784.659	5293
784.844	5312.18
785.029	5248.24
785.215	5261.03
785.4	5181.4
785.586	5309.08
785.771	5179.65
785.956	5203.68
786.142	5132.38
786.327	5170.16
786.512	5090.92
786.698	5115.52
786.883	5088.59
787.068	5127.73
787.254	5120.17
787.439	5015.74
787.624	5008.38
787.809	5015.16
787.994	4966.15
788.18	5065.54
788.365	4934.76
788.55	4947.74
788.735	4977.38
788.92	4909.38
789.105	4863.46
789.29	4912.28
789.475	4784.41
789.66	4862.1
789.845	4762.52
790.03	4775.5
790.215	4804.37
790.4	4856.87
790.585	4828.39
790.77	4753.41
790.955	4727.45
791.14	4791.19
791.325	4832.65
791.51	4666.81
791.695	4766
791.879	4777.63
792.064	4679.98
792.249	4828.58
792.434	4717.37
792.618	4693.74
792.803	4747.99
792.988	4723.19
793.173	4735.97
793.357	4783.44
793.542	4698
793.727	4763.49
793.911	4778.6
794.096	4749.34
794.281	4871.02
794.465	4880.12
794.65	4778.21
794.834	4864.23
795.019	4835.37
795.203	4857.45
795.388	4860.75
795.572	4913.45
795.757	4859.39
795.941	4814.05
796.126	4736.55
796.31	4689.09
796.494	4780.15
796.679	4742.17
796.863	4719.12
797.048	4793.9
797.232	4753.99
797.416	4822.77
797.601	4818.7
797.785	4846.99
797.969	4861.13
798.153	4800.3
798.338	4871.6
798.522	4914.41
798.706	4894.46
798.89	4853.77
799.074	5026.59
799.258	4925.07
799.443	4910.93
799.627	4851.06
799.811	4935.73
799.995	4818.9
800.179	4828.58
800.363	4766.59
800.547	4877.02
800.731	4883.61
800.915	4722.41
801.099	4797.97
801.283	4778.99
801.467	4789.45
801.651	4783.05
801.835	4870.63
802.019	4815.22
802.202	4781.7
802.386	4729
802.57	4675.14
802.754	4746.24
802.938	4709.82
803.121	4770.85
803.305	4814.83
803.489	4762.71
803.673	4831.1
803.856	4811.53
804.04	4779.37
804.224	4782.28
804.407	4784.8
804.591	4725.32
804.775	4766.78
804.958	4750.5
805.142	4913.64
805.326	4800.1
805.509	4818.7
805.693	4895.62
805.876	4805.72
806.06	4824.32
806.243	4859.58
806.427	4899.88
806.61	4888.26
806.794	4842.15
806.977	4892.91
807.16	4847.77
807.344	4880.32
807.527	4781.31
807.71	4825.48
807.894	4797.2
808.077	4855.13
808.26	4738.1
808.444	4724.93
808.627	4834.4
808.81	4686.57
808.993	4632.9
809.177	4654.41
809.36	4632.71
809.543	4640.46
809.726	4502.31
809.909	4523.24
810.092	4464.73
810.276	4479.26
810.459	4548.23
810.642	4501.73
810.825	4421.52
811.008	4399.43
811.191	4318.64
811.374	4325.62
811.557	4322.32
811.74	4339.95
811.923	4250.06
812.106	4236.49
812.289	4161.32
812.472	4168.68
812.654	4100.87
812.837	4084.79
813.02	3998.18
813.203	3925.33
813.386	3791.46
813.569	3731.2
813.751	3640.53
813.934	3682.76
814.117	3643.24
814.3	3528.15
814.482	3470.03
814.665	3399.89
814.848	3349.71
815.03	3297.79
815.213	3284.81
815.396	3246.44
815.578	3189.68
815.761	3142.79
815.943	3178.83
816.126	3086.8
816.309	3038.94
816.491	2931.61
816.674	2828.92
816.856	2916.69
817.039	2898.67
817.221	2999.8
817.403	2950.21
817.586	2977.33
817.768	2919.59
817.951	2839.96
818.133	2829.31
818.315	2847.13
818.498	2946.33
818.68	2987.02
818.862	3003.49
819.045	3003.1
819.227	2999.03
819.409	2984.11
819.591	3018.02
819.774	2963.19
819.956	2947.3
820.138	3061.61
820.32	3023.05
820.502	3190.06
820.684	3263.11
820.866	3303.79
821.048	3381.87
821.231	3396.6
821.413	3354.17
821.595	3359.01
821.777	3428.76
821.959	3365.41
822.141	3424.5
822.323	3226.49
822.505	3096.48
822.686	3022.28
822.868	2817.1
823.05	2686.13
823.232	2597.59
823.414	2538.3
823.596	2617.93
823.778	2635.37
823.96	2711.9
824.141	2696.2
824.323	2760.91
824.505	2853.14
824.687	2938.58
824.868	3045.34
825.05	3167.98
825.232	3287.91
825.413	3367.54
825.595	3258.65
825.777	3197.43
825.958	3246.64
826.14	3245.09
826.321	3257.88
826.503	3259.04
826.685	3278.41
826.866	3339.44
827.048	3338.09
827.229	3229.98
827.411	3163.52
827.592	3069.94
827.773	3083.7
827.955	2972.29
828.136	2989.34
828.318	2976.17
828.499	2976.36
828.68	2925.21
828.862	2933.93
829.043	2951.56
829.224	2879.1
829.406	2872.13
829.587	2922.69
829.768	2931.41
829.949	2926.96
830.131	2934.32
830.312	2979.65
830.493	2940.13
830.674	2950.59
830.855	2941.49
831.036	2930.06
831.218	3006.39
831.399	3044.75
831.58	2984.69
831.761	2902.35
831.942	2961.64
832.123	2961.44
832.304	2920.56
832.485	2920.56
832.666	2917.07
832.847	2956.79
833.028	2933.54
833.209	2926.18
833.389	2908.55
833.57	2835.31
833.751	2819.23
833.932	2960.09
834.113	2930.06
834.294	2916.69
834.475	2961.06
834.655	3003.68
834.836	3004.65
835.017	2996.7
835.198	2973.84
835.378	3005.04
835.559	3053.67
835.74	2996.51
835.92	3007.36
836.101	2962.22
836.281	3073.82
836.462	3040.1
836.643	3057.73
836.823	3087.96
837.004	3094.55
837.184	3111.6
837.365	3118.18
837.545	3089.9
837.726	3070.33
837.906	3116.44
838.087	3069.36
838.267	3063.93
838.448	3025.57
838.628	3073.82
838.808	3040.1
838.989	3144.73
839.169	3047.08
839.349	3089.7
839.53	3101.33
839.71	3132.52
839.89	3052.5
840.07	3106.75
840.251	3044.56
840.431	3078.66
840.611	3043.4
840.791	3058.9
840.971	3075.56
841.151	3066.84
841.332	2979.65
841.512	3080.4
841.692	2975.59
841.872	3030.61
842.052	3012.98
842.232	3057.73
842.412	3007.36
842.592	3012.01
842.772	3049.6
842.952	3053.47
843.132	2967.64
843.312	2989.73
843.492	3012.98
843.672	3034.49
843.851	2964.54
844.031	2942.46
844.211	2946.72
844.391	2950.79
844.571	2948.07
844.751	2994.38
844.93	2956.41
845.11	2933.35
845.29	2911.26
845.47	2990.31
845.649	2968.22
845.829	3002.32
846.009	2946.33
846.188	2985.08
846.368	2975.39
846.547	2945.36
846.727	2975.78
846.907	2872.71
847.086	2930.64
847.266	3002.32
847.445	2890.72
847.625	2879.87
847.804	2861.86
847.984	2906.03
848.163	2902.74
848.343	2861.28
848.522	2871.35
848.701	2865.73
848.881	2861.28
849.06	2860.69
849.239	2844.61
849.419	2849.26
849.598	2775.06
849.777	2725.85
849.957	2688.45
850.136	2658.62
850.315	2614.83
850.494	2609.4
850.674	2626.65
850.853	2682.45
851.032	2659.97
851.211	2725.26
851.39	2689.62
851.569	2585.96
851.748	2597.78
851.927	2706.28
852.107	2640.98
852.286	2601.65
852.465	2644.28
852.644	2711.31
852.823	2680.9
853.002	2669.08
853.181	2672.95
853.359	2652.22
853.538	2580.92
853.717	2638.08
853.896	2490.25
854.075	2364.51
854.254	2332.35
854.433	2227.14
854.611	2282.75
854.79	2179.28
854.969	2251.75
855.148	2344.36
855.327	2287.78
855.505	2389.89
855.684	2371.68
855.863	2378.26
856.041	2417.4
856.22	2460.41
856.399	2437.94
856.577	2563.68
856.756	2535.39
856.934	2628.58
857.113	2630.52
857.291	2597.2
857.47	2501.68
857.648	2585.57
857.827	2575.89
858.005	2574.14
858.184	2485.99
858.362	2613.47
858.541	2539.07
858.719	2505.36
858.898	2505.56
859.076	2528.22
859.254	2560.39
859.433	2497.42
859.611	2485.41
859.789	2435.42
859.967	2578.21
860.146	2563.87
860.324	2415.46
860.502	2443.56
860.68	2411.39
860.859	2422.83
861.037	2434.64
861.215	2487.34
861.393	2440.84
861.571	2435.23
861.749	2410.04
861.927	2456.15
862.105	2445.3
862.283	2401.13
862.461	2389.31
862.639	2371.29
862.817	2380.39
862.995	2414.3
863.173	2371.68
863.351	2362.76
863.529	2432.71
863.707	2435.81
863.885	2413.72
864.063	2284.68
864.241	2339.32
864.418	2411.78
864.596	2335.83
864.774	2302.31
864.952	2317.43
865.129	2318.98
865.307	2312.2
865.485	2216.48
865.663	2288.17
865.84	2202.92
866.018	2195.37
866.196	2044.63
866.373	2052.57
866.551	1999.29
866.728	1946.79
866.906	2007.62
867.084	1988.06
867.261	2096.75
867.439	2089
867.616	2128.14
867.794	2116.9
867.971	2110.5
868.149	2151.58
868.326	2224.04
868.503	2192.27
868.681	2149.06
868.858	2160.3
869.035	2113.41
869.213	2157.97
869.39	2142.47
869.567	2215.71
869.745	2145.77
869.922	2143.25
870.099	2190.13
870.276	2177.93
870.454	2131.04
870.631	2152.94
870.808	2158.17
870.985	2196.14
871.162	2174.83
871.339	2175.99
871.517	2075.44
871.694	2085.71
871.871	2135.89
872.048	2093.65
872.225	2132.01
872.402	2111.28
872.579	2078.92
872.756	2091.32
872.933	2054.51
873.11	2079.51
873.287	2079.89
873.463	2030.68
873.64	2021.96
873.817	2058.19
873.994	2065.56
874.171	2001.23
874.348	2031.26
874.524	1997.74
874.701	2005.88
874.878	1953.96
875.055	2008.79
875.231	2008.21
875.408	1999.49
875.585	1954.73
875.762	1947.95
875.938	1974.88
876.115	1949.89
876.291	1953.76
876.468	1957.44
876.645	1912.11
876.821	1947.18
876.998	1974.3
877.174	1913.85
877.351	1916.95
877.527	1871.61
877.704	1931.87
877.88	1909.4
878.057	1913.46
878.233	1949.5
878.409	1880.33
878.586	1929.93
878.762	1903.39
878.938	1867.74
879.115	1829.18
879.291	1873.16
879.467	1822.4
879.644	1853.01
879.82	1877.04
879.996	1839.45
880.172	1790.05
880.349	1829.18
880.525	1841
880.701	1781.13
880.877	1778.62
881.053	1815.04
881.229	1744.32
881.405	1852.82
881.581	1746.84
881.757	1800.7
881.933	1825.31
882.109	1819.69
882.285	1829.96
882.461	1782.1
882.637	1814.07
882.813	1768.15
882.989	1807.48
883.165	1859.41
883.341	1760.98
883.517	1861.93
883.693	1826.47
883.869	1853.6
884.044	1790.24
884.22	1828.6
884.396	1847.01
884.572	1806.32
884.747	1871.23
884.923	1821.43
885.099	1842.36
885.275	1844.49
885.45	1766.41
885.626	1770.87
885.801	1774.55
885.977	1765.25
886.153	1701.5
886.328	1782.1
886.504	1786.37
886.679	1780.55
886.855	1755.37
887.03	1773.77
887.206	1791.79
887.381	1766.22
887.557	1791.98
887.732	1786.56
887.908	1783.07
888.083	1814.65
888.258	1743.16
888.434	1748.78
888.609	1784.62
888.784	1824.53
888.96	1764.08
889.135	1735.8
889.31	1786.17
889.485	1791.4
889.661	1791.02
889.836	1777.65
890.011	1791.21
890.186	1768.15
890.361	1772.8
890.537	1783.07
890.712	1805.16
890.887	1801.87
891.062	1781.52
891.237	1847.4
891.412	1764.47
891.587	1792.57
891.762	1759.63
891.937	1792.57
892.112	1742
892.287	1736.77
892.462	1678.64
892.637	1659.46
892.812	1660.43
892.987	1654.04
893.161	1609.09
893.336	1627.88
893.511	1643.38
893.686	1611.02
893.861	1636.02
894.035	1602.5
894.21	1623.23
894.385	1573.44
894.56	1561.62
894.734	1491.68
894.909	1492.06
895.084	1466.49
895.258	1457.38
895.433	1439.56
895.608	1389.96
895.782	1332.22
895.957	1360.12
896.131	1367.29
896.306	1298.32
896.48	1286.69
896.655	1267.32
896.829	1198.92
897.004	1184.78
897.178	1202.61
897.353	1195.44
897.527	1208.03
897.701	1202.61
897.876	1154.75
898.05	1255.5
898.224	1245.04
898.399	1272.94
898.573	1157.46
898.747	1008.08
898.921	1062.53
899.096	959.06
899.27	1000.91
899.444	961
899.618	1018.16
899.792	1060.01
899.967	1067.18
900.141	1094.3
900.315	1036.18
900.489	1004.98
900.663	1025.71
900.837	1033.27
901.011	987.55
901.185	1077.06
901.359	1028.23
901.533	1043.73
901.707	1031.33
901.881	1047.8
902.055	989.68
902.229	1025.52
902.403	1088.29
902.576	1024.55
902.75	1068.92
902.924	1159.98
903.098	1160.17
903.272	1187.88
903.446	1250.46
903.619	1257.82
903.793	1293.67
903.967	1284.95
904.14	1350.82
904.314	1346.56
904.488	1295.22
904.661	1333.38
904.835	1289.02
905.009	1339.2
905.182	1387.05
905.356	1335.52
905.529	1330.09
905.703	1276.04
905.876	1267.51
906.05	1217.33
906.223	1172.96
906.397	1094.49
906.57	1094.11
906.744	1053.81
906.917	1020.1
907.09	1051.09
907.264	1043.54
907.437	979.8
907.61	965.07
907.784	967.78
907.957	983.28
908.13	911.4
908.304	993.16
908.477	922.83
908.65	930.78
908.823	914.5
908.996	981.15
909.17	933.3
909.343	914.12
909.516	900.55
909.689	908.69
909.862	919.73
910.035	909.27
910.208	886.99
910.381	877.5
910.554	979.21
910.727	890.67
910.9	869.75
911.073	874.98
911.246	981.73
911.419	991.81
911.592	961.78
911.765	928.26
911.938	897.84
912.11	919.93
912.283	921.67
912.456	977.86
912.629	925.16
912.802	844.37
912.974	818.4
913.147	762.02
913.32	710.49
913.493	752.92
913.665	804.45
913.838	805.62
914.01	805.81
914.183	818.21
914.356	843.98
914.528	873.82
914.701	874.01
914.873	890.28
915.046	787.99
915.218	732.19
915.391	675.61
915.563	682.98
915.736	713.78
915.908	774.42
916.081	786.44
916.253	780.04
916.425	821.12
916.598	831.58
916.77	778.11
916.942	776.36
917.115	677.74
917.287	740.32
917.459	733.93
917.632	694.02
917.804	614.58
917.976	735.48
918.148	746.52
918.32	757.57
918.493	806.97
918.665	820.73
918.837	804.07
919.009	844.56
919.181	875.17
919.353	851.92
919.525	818.79
919.697	828.29
919.869	823.64
920.041	894.16
920.213	960.23
920.385	911.4
920.557	876.72
920.729	889.7
920.901	887.18
921.073	831.97
921.244	836.62
921.416	872.46
921.588	835.84
921.76	820.92
921.932	871.88
922.103	844.95
922.275	869.55
922.447	844.75
922.619	789.15
922.79	833.71
922.962	816.47
923.134	837.39
923.305	746.33
923.477	720.56
923.648	725.99
923.82	756.41
923.991	681.23
924.163	712.62
924.335	710.87
924.506	740.32
924.677	790.89
924.849	709.13
925.02	718.24
925.192	726.37
925.363	697.31
925.535	751.76
925.706	679.68
925.877	756.79
926.049	657.98
926.22	714.36
926.391	738.39
926.562	797.87
926.734	712.81
926.905	733.16
927.076	673.09
927.247	674.64
927.419	634.34
927.59	595.79
927.761	594.43
927.932	562.66
928.103	564.98
928.274	531.27
928.445	519.84
928.616	524.68
928.787	529.53
928.958	526.23
929.129	512.67
929.3	482.83
929.471	428.2
929.642	392.16
929.813	322.61
929.984	419.67
930.155	304.2
930.326	392.74
930.496	326.48
930.667	278.62
930.838	325.32
931.009	241.81
931.18	287.34
931.35	258.09
931.521	269.91
931.692	216.43
931.863	170.13
932.033	231.93
932.204	203.84
932.374	207.52
932.545	160.44
932.716	191.05
932.886	211.78
933.057	116.26
933.227	106.77
933.398	211.39
933.568	79.45
933.739	83.13
933.909	65.31
934.08	155.6
934.25	52.33
934.421	69.57
934.591	149.4
934.761	102.7
934.932	62.79
935.102	101.93
935.272	84.49
935.443	90.11
935.613	102.9
935.783	98.25
935.953	57.37
936.123	242.98
936.294	78.29
936.464	98.25
936.634	95.92
936.804	68.02
936.974	16.29
937.144	95.53
937.314	85.46
937.484	85.85
937.655	49.42
937.825	133.31
937.995	81
938.165	141.26
938.334	98.63
938.504	154.43
938.674	122.85
938.844	124.01
939.014	212.56
939.184	219.34
939.354	274.36
939.524	245.69
939.694	174.39
939.863	164.7
940.033	232.9
940.203	230.96
940.373	190.28
940.542	216.63
940.712	180.2
940.882	197.83
941.051	211.78
941.221	214.3
941.391	244.33
941.56	178.65
941.73	162.38
941.899	272.23
942.069	163.93
942.238	230.19
942.408	156.95
942.577	173.23
942.747	169.54
942.916	121.11
943.086	130.41
943.255	199.96
943.425	167.99
943.594	131.96
943.763	57.95
943.933	82.75
944.102	64.15
944.271	128.47
944.441	162.18
944.61	92.24
944.779	117.43
944.948	243.94
945.117	113.36
945.287	137.58
945.456	81.58
945.625	100.18
945.794	117.23
945.963	108.71
946.132	151.53
946.301	121.11
946.47	137.58
946.639	84.49
946.808	118.2
946.977	160.44
947.146	177.68
947.315	112.58
947.484	163.54
947.653	155.21
947.822	105.22
947.991	116.07
948.16	209.07
948.329	166.25
948.498	116.65
948.666	143.2
948.835	182.91
949.004	107.93
949.173	98.25
949.341	155.98
949.51	144.94
949.679	186.98
949.847	143.78
950.016	200.16
950.185	182.91
950.353	123.82
950.522	141.45
950.69	197.06
950.859	124.01
951.028	207.33
951.196	156.76
951.365	104.83
951.533	126.53
951.701	129.83
951.87	139.32
952.038	84.49
952.207	129.44
952.375	167.61
952.543	134.67
952.712	127.5
952.88	103.28
953.048	182.91
953.217	173.61
953.385	135.06
953.553	182.14
953.721	102.31
953.89	144.55
954.058	109.68
954.226	136.41
954.394	151.91
954.562	86.43
954.73	135.06
954.898	121.88
955.067	173.23
955.235	100.38
955.403	164.7
955.571	226.12
955.739	181.36
955.907	100.96
956.075	133.51
956.243	86.81
956.41	157.92
956.578	62.21
956.746	109.29
956.914	109.48
957.082	174.58
957.25	171.48
957.418	138.16
957.585	164.31
957.753	178.46
957.921	127.31
958.089	137.38
958.256	163.73
958.424	165.86
958.592	144.55
958.759	106
958.927	188.34
959.095	122.85
959.262	101.15
959.43	140.48
959.597	102.31
959.765	133.12
959.932	100.18
960.1	146.3
960.267	137.38
960.435	132.35
960.602	163.73
960.77	143.2
960.937	113.55
961.104	135.83
961.272	83.33
961.439	117.23
961.606	161.8
961.774	190.66
961.941	142.42
962.108	169.74
962.275	150.75
962.443	184.66
962.61	157.53
962.777	238.13
962.944	196.48
963.111	195.7
963.278	181.94
963.446	176.33
963.613	166.45
963.78	180.2
963.947	214.88
964.114	176.52
964.281	271.07
964.448	186.98
964.615	160.44
964.782	197.83
964.949	192.21
965.116	192.99
965.282	219.53
965.449	174.58
965.616	140.87
965.783	208.49
965.95	172.26
966.117	121.5
966.283	185.63
966.45	168.19
966.617	192.99
966.784	243.36
966.95	215.27
967.117	235.03
967.284	198.8
967.45	180.2
967.617	248.79
967.784	236.97
967.95	251.11
968.117	215.27
968.283	251.11
968.45	300.91
968.616	207.71
968.783	250.53
968.949	250.53
969.116	250.73
969.282	223.21
969.449	236.78
969.615	214.49
969.781	170.32
969.948	222.24
970.114	193.38
970.28	285.21
970.447	228.06
970.613	266.61
970.779	230.96
970.945	229.99
971.112	223.21
971.278	206.16
971.444	198.41
971.61	262.54
971.776	203.06
971.942	222.44
972.108	217.4
972.275	221.28
972.441	240.26
972.607	273.78
972.773	187.76
972.939	222.44
973.105	185.24
973.271	140.68
973.437	180.2
973.602	148.81
973.768	196.09
973.934	200.35
974.1	211.01
974.266	137.38
974.432	214.88
974.598	176.52
974.763	212.17
974.929	189.31
975.095	213.14
975.261	160.44
975.426	136.61
975.592	181.94
975.758	229.41
975.923	150.95
976.089	171.09
976.255	189.5
976.42	184.85
976.586	188.53
976.751	168.58
976.917	287.92
977.082	203.64
977.248	138.55
977.413	126.15
977.579	155.98
977.744	193.76
977.91	118.98
978.075	151.14
978.24	198.22
978.406	166.83
978.571	168.77
978.736	148.81
978.902	201.51
979.067	140.87
979.232	126.73
979.397	169.54
979.563	232.32
979.728	164.9
979.893	172.64
980.058	148.81
980.223	219.92
980.388	193.57
980.554	179.23
980.719	162.57
980.884	188.73
981.049	236.39
981.214	158.31
981.379	197.64
981.544	154.63
981.709	164.31
981.874	160.83
982.039	177.49
982.204	194.15
982.368	161.6
982.533	186.79
982.698	216.82
982.863	207.91
983.028	155.01
983.193	192.02
983.357	176.33
983.522	164.9
983.687	187.95
983.852	164.12
984.016	200.54
984.181	199.58
984.346	201.71
984.51	210.04
984.675	196.09
984.839	205.97
985.004	188.92
985.168	240.46
985.333	189.11
985.498	159.47
985.662	211.78
985.827	178.46
985.991	204.42
986.155	159.47
986.32	193.76
986.484	242.59
986.649	183.88
986.813	129.25
986.977	169.74
987.142	206.55
987.306	141.84
987.47	156.56
987.634	183.49
987.799	184.27
987.963	209.07
988.127	161.6
988.291	257.51
988.455	170.32
988.62	158.89
988.784	198.8
988.948	207.33
989.112	139.32
989.276	171.48
989.44	164.31
989.604	137.38
989.768	161.41
989.932	214.69
990.096	130.21
990.26	154.05
990.424	118.98
990.588	166.45
990.752	225.54
990.915	218.18
991.079	154.05
991.243	143.78
991.407	162.76
991.571	149.98
991.734	180.98
991.898	183.88
992.062	254.79
992.226	143.58
992.389	141.84
992.553	107.74
992.717	140.29
992.88	155.01
993.044	138.93
993.207	143.97
993.371	182.72
993.535	174.97
993.698	173.61
993.862	174.58
994.025	187.76
994.189	136.8
994.352	170.9
994.515	158.7
994.679	177.29
994.842	135.06
995.006	194.34
995.169	134.48
995.332	124.98
995.496	176.71
995.659	109.68
995.822	165.86
995.985	156.95
996.149	198.41
996.312	162.38
996.475	232.71
996.638	132.15
996.801	199.96
996.964	218.56
997.128	115.68
997.291	143.78
997.454	142.81
997.617	85.46
997.78	169.54
997.943	121.3
998.106	162.18
998.269	114.33
998.432	143
998.595	142.03
998.758	71.7
998.92	107.16
999.083	77.52
999.246	133.12
999.409	92.24
999.572	75.77
999.735	114.13
999.897	151.33
1000.06	106.58
1000.223	104.83
1000.386	151.33
1000.548	127.5
1000.711	180.98
1000.874	129.25
1001.036	69.77
1001.199	143.2
1001.361	92.24
1001.524	129.83
1001.687	140.1
1001.849	89.91
1002.012	130.41
1002.174	121.5
1002.337	146.3
1002.499	123.63
1002.661	162.38
1002.824	61.63
1002.986	74.03
1003.149	139.13
1003.311	73.83
1003.473	176.71
1003.636	82.94
1003.798	128.86
1003.96	155.21
1004.123	118.4
1004.285	89.91
1004.447	85.07
1004.609	88.95
1004.771	166.25
1004.933	54.65
1005.096	64.53
1005.258	62.98
1005.42	83.13
1005.582	131.38
1005.744	111.42
1005.906	52.33
1006.068	78.29
1006.23	75.58
1006.392	43.03
1006.554	58.72
1006.716	138.16
1006.878	108.51
1007.04	55.23
1007.202	81.2
1007.363	110.65
1007.525	100.76
1007.687	127.89
1007.849	163.15
1008.011	38.18
1008.172	83.13
1008.334	56.78
1008.496	95.73
1008.658	50.58
1008.819	64.73
1008.981	60.85
1009.143	47.68
1009.304	69.96
1009.466	102.31
1009.627	123.43
1009.789	194.54
1009.95	92.43
1010.112	47.29
1010.273	105.41
1010.435	66.47
1010.596	57.56
1010.758	59.5
1010.919	99.21
1011.081	50.78
1011.242	73.64
1011.403	110.84
1011.565	81.78
1011.726	89.91
1011.887	36.83
1012.049	64.34
1012.21	112.2
1012.371	130.21
1012.532	17.26
1012.693	89.14
1012.855	65.12
1013.016	73.06
1013.177	102.7
1013.338	59.69
1013.499	125.56
1013.66	75.19
1013.821	91.27
1013.982	73.83
1014.143	87.98
1014.304	74.03
1014.465	77.9
1014.626	89.53
1014.787	70.93
1014.948	140.87
1015.109	-7.93
1015.27	78.1
1015.431	65.7
1015.592	30.82
1015.752	118.98
1015.913	69.18
1016.074	93.01
1016.235	63.95
1016.395	59.11
1016.556	84.68
1016.717	47.1
1016.877	121.88
1017.038	53.49
1017.199	88.56
1017.359	58.14
1017.52	56.2
1017.681	46.71
1017.841	45.35
1018.002	50.39
1018.162	57.17
1018.323	87.4
1018.483	46.13
1018.644	41.87
1018.804	14.74
1018.964	27.33
1019.125	29.66
1019.285	69.77
1019.446	38.18
1019.606	69.38
1019.766	13.38
1019.926	49.81
1020.087	85.65
1020.247	29.08
1020.407	82.75
1020.567	98.44
1020.728	34.7
1020.888	7.38
1021.048	26.95
1021.208	25.78
1021.368	31.21
1021.528	80.03
1021.688	85.46
1021.848	80.23
1022.008	75.77
1022.168	46.13
1022.328	67.83
1022.488	71.7
1022.648	17.84
1022.808	38.57
1022.968	76.93
1023.128	51.94
1023.288	38.38
1023.448	42.45
1023.608	85.85
1023.767	64.73
1023.927	36.25
1024.087	-14.13
1024.247	20.94
1024.406	27.14
1024.566	-12.77
1024.726	26.95
1024.885	31.02
1025.045	49.42
1025.205	67.63
1025.364	15.13
1025.524	76.55
1025.683	25.98
1025.843	78.48
1026.003	36.83
1026.162	93.6
1026.321	85.65
1026.481	17.07
1026.64	14.93
1026.8	34.12
1026.959	35.08
1027.119	46.52
1027.278	27.33
1027.437	49.03
1027.597	41.67
1027.756	63.37
1027.915	67.44
1028.074	39.54
1028.234	21.72
1028.393	60.66
1028.552	55.04
1028.711	-51.33
1028.87	94.76
1029.03	-8.31
1029.189	29.08
1029.348	-10.06
1029.507	12.8
1029.666	49.62
1029.825	33.34
1029.984	13.38
1030.143	38.18
1030.302	25.78
1030.461	-23.62
1030.62	37.99
1030.779	50.78
1030.938	-15.68
1031.097	-3.08
1031.255	62.98
1031.414	110.45
1031.573	62.4
1031.732	8.54
1031.891	15.9
1032.049	78.1
1032.208	35.67
1032.367	15.71
1032.525	18.23
1032.684	27.92
1032.843	31.79
1033.001	-28.66
1033.16	153.66
1033.319	87.01
1033.477	22.49
1033.636	-22.07
1033.794	-18.2
1033.953	48.07
1034.111	67.44
1034.27	-6.96
1034.428	18.62
1034.587	-8.31
1034.745	22.88
1034.903	15.9
1035.062	31.6
1035.22	-4.63
1035.378	50.58
1035.537	-14.71
1035.695	37.41
1035.853	19.39
1036.011	43.42
1036.17	27.33
1036.328	-23.23
1036.486	31.21
1036.644	36.44
1036.802	-46.48
1036.96	6.8
1037.119	7.77
1037.277	-16.65
1037.435	-13.35
1037.593	-2.12
1037.751	4.47
1037.909	11.83
1038.067	11.83
