Data from calibration3_FLMT105791__4__17-25-32-069.txt Node

Date: Mon Mar 20 17:25:32 GMT 2023
User: antho
Spectrometer: FLMT10579
Trigger mode: 0
Integration Time (sec): 1.000000E-1
Scans to average: 10
Electric dark correction enabled: true
Nonlinearity correction enabled: false
Boxcar width: 0
XAxis mode: Wavelengths
Number of Pixels in Spectrum: 3648
>>>>>Begin Spectral Data<<<<<
345.248	-140.47
345.464	-140.47
345.681	-140.47
345.898	-164.69
346.114	-147.44
346.331	-26.35
346.548	25.38
346.764	-21.31
346.981	-0.39
347.197	-9.3
347.414	13.76
347.631	-13.95
347.847	70.91
348.064	20.92
348.28	21.51
348.497	-64.71
348.713	-16.47
348.93	27.9
349.146	90.29
349.363	102.69
349.579	110.24
349.796	110.05
350.012	95.32
350.229	139.69
350.445	128.45
350.661	138.72
350.878	159.65
351.094	148.8
351.311	172.05
351.527	166.24
351.743	122.64
351.96	142.6
352.176	186.77
352.392	182.7
352.609	173.79
352.825	141.44
353.041	134.07
353.257	125.74
353.474	160.04
353.69	179.02
353.906	176.5
354.122	115.09
354.339	237.15
354.555	181.93
354.771	195.88
354.987	247.42
355.203	240.25
355.42	171.47
355.636	169.72
355.852	180.57
356.068	212.93
356.284	153.64
356.5	242.57
356.716	188.52
356.932	199.37
357.148	189.29
357.364	164.3
357.58	197.82
357.796	248
358.012	236.57
358.228	162.55
358.444	133.1
358.66	229.2
358.876	168.75
359.092	150.93
359.308	190.45
359.524	227.07
359.74	204.6
359.956	249.16
360.172	234.63
360.388	287.91
360.604	243.93
360.819	321.81
361.035	253.42
361.251	251.68
361.467	202.85
361.683	293.14
361.898	240.63
362.114	283.65
362.33	278.03
362.546	277.45
362.762	265.43
362.977	310.58
363.193	272.41
363.409	313.29
363.624	277.64
363.84	237.34
364.056	281.51
364.271	321.23
364.487	364.63
364.703	317.36
364.918	281.71
365.134	287.71
365.35	302.63
365.565	462.47
365.781	364.83
365.996	421.01
366.212	426.83
366.427	440.58
366.643	401.44
366.858	407.64
367.074	380.33
367.289	480.69
367.505	526.41
367.72	396.6
367.936	408.61
368.151	464.99
368.367	443.87
368.582	426.24
368.798	376.06
369.013	456.86
369.228	428.96
369.444	466.54
369.659	512.46
369.874	500.26
370.09	488.05
370.305	398.34
370.52	473.71
370.736	510.72
370.951	440
371.166	506.46
371.381	484.37
371.597	500.26
371.812	451.43
372.027	425.08
372.242	456.08
372.458	518.27
372.673	395.05
372.888	436.32
373.103	438.45
373.318	531.25
373.533	442.91
373.749	429.34
373.964	346.61
374.179	427.02
374.394	360.37
374.609	438.84
374.824	388.27
375.039	471.97
375.254	373.54
375.469	493.28
375.684	459.96
375.899	552.95
376.114	514.4
376.329	523.12
376.544	515.17
376.759	526.41
376.974	482.24
377.189	508.39
377.404	494.06
377.619	581.82
377.834	541.14
378.049	567.68
378.264	589.19
378.478	671.92
378.693	654.48
378.908	686.06
379.123	622.12
379.338	633.75
379.553	592.29
379.767	584.92
379.982	549.47
380.197	593.84
380.412	565.55
380.626	629.48
380.841	714.93
381.056	672.5
381.271	756.39
381.485	683.35
381.7	601.78
381.915	690.13
382.129	578.92
382.344	570.2
382.559	544.43
382.773	545.79
382.988	444.65
383.202	522.73
383.417	450.46
383.632	549.27
383.846	480.88
384.061	468.09
384.275	508.59
384.49	557.02
384.704	623.09
384.919	686.06
385.133	709.7
385.348	747.86
385.562	688.97
385.777	735.66
385.991	676.18
386.206	699.81
386.42	663.39
386.634	719.77
386.849	729.65
387.063	766.46
387.277	720.93
387.492	723.06
387.706	704.27
387.92	708.92
388.135	799.59
388.349	759.68
388.563	781.77
388.778	771.89
388.992	789.13
389.206	802.5
389.42	879.81
389.635	861.98
389.849	915.46
390.063	1020.08
390.277	1024.92
390.491	1075.1
390.706	1017.37
390.92	1041
391.134	1052.82
391.348	1069.48
391.562	1096.03
391.776	1140.2
391.99	1118.89
392.205	1131.29
392.419	1060.57
392.633	1039.07
392.847	1004.77
393.061	860.43
393.275	864.69
393.489	685.87
393.703	553.54
393.917	622.32
394.131	620.77
394.345	714.73
394.559	905.96
394.773	937.54
394.986	1075.3
395.2	1128.97
395.414	1223.51
395.628	1214.41
395.842	1286.87
396.056	1276.02
396.27	1161.51
396.484	1136.52
396.697	1027.64
396.911	913.52
397.125	852.49
397.339	781.38
397.553	829.63
397.766	988.11
397.98	1112.69
398.194	1308.38
398.408	1404.47
398.621	1499.6
398.835	1615.66
399.049	1635.03
399.262	1753.61
399.476	1769.69
399.69	1853.39
399.903	1832.85
400.117	1825.68
400.331	1907.05
400.544	1913.45
400.758	2021.17
400.971	1924.3
401.185	1987.65
401.398	1905.89
401.612	2012.45
401.826	2075.61
402.039	2102.16
402.253	2088.21
402.466	2149.24
402.68	2107.39
402.893	2235.07
403.106	2127.73
403.32	2100.61
403.533	2150.01
403.747	2036.09
403.96	2142.46
404.174	2176.56
404.387	2155.24
404.6	2185.08
404.814	2199.03
405.027	2117.66
405.24	2121.73
405.454	2164.93
405.667	2249.41
405.88	2181.98
406.094	2223.83
406.307	2257.54
406.52	2182.56
406.733	2126.96
406.947	2183.14
407.16	2274.01
407.373	2270.33
407.586	2318.96
407.799	2249.79
408.012	2293.19
408.226	2295.13
408.439	2420.68
408.652	2404.6
408.865	2505.93
409.078	2602.41
409.291	2614.23
409.504	2570.83
409.717	2598.73
409.93	2593.5
410.143	2428.23
410.357	2290.67
410.57	2183.53
410.783	2272.07
410.996	2342.99
411.209	2485.39
411.421	2682.04
411.634	2710.33
411.847	2679.72
412.06	2775.04
412.273	2819.02
412.486	2831.81
412.699	2852.93
412.912	2845.76
413.125	2809.53
413.338	2816.7
413.55	2736.68
413.763	2712.65
413.976	2793.64
414.189	2793.06
414.402	2845.76
414.615	2983.71
414.827	2811.08
415.04	2845.95
415.253	2914.54
415.466	2954.45
415.678	2933.91
415.891	2885.09
416.104	2853.32
416.316	2904.08
416.529	3029.04
416.742	3069.92
416.954	3153.04
417.167	3049.97
417.38	2997.46
417.592	2998.24
417.805	2879.47
418.017	2911.25
418.23	2938.76
418.442	2921.13
418.655	2932.95
418.868	2974.41
419.08	3014.71
419.293	3070.89
419.505	3082.52
419.718	3037.96
419.93	3137.54
420.142	3049.78
420.355	3026.91
420.567	3015.29
420.78	3085.42
420.992	3078.84
421.205	3230.15
421.417	3305.13
421.629	3346.79
421.842	3360.16
422.054	3340.01
422.266	3414.99
422.479	3339.23
422.691	3179.39
422.903	3196.05
423.115	3045.71
423.328	3053.26
423.54	3128.82
423.752	3160.02
423.964	3285.76
424.177	3332.26
424.389	3315.98
424.601	3449.67
424.813	3415.38
425.025	3459.55
425.238	3414.21
425.45	3388.06
425.662	3348.15
425.874	3641.29
426.086	3384.96
426.298	3432.04
426.51	3413.44
426.722	3407.05
426.934	3487.64
427.146	3443.08
427.358	3380.89
427.57	3408.21
427.782	3306.49
427.994	3326.64
428.206	3295.25
428.418	3543.44
428.63	3610.48
428.842	3637.22
429.054	3466.53
429.266	3435.72
429.478	3374.3
429.69	3342.91
429.902	3248.75
430.114	3215.43
430.325	3048.81
430.537	2830.07
430.749	2791.7
430.961	2649.3
431.173	2700.26
431.384	2792.87
431.596	2916.67
431.808	3317.73
432.02	3699.02
432.231	3950.31
432.443	4163.24
432.655	4029.75
432.867	3923.38
433.078	3926.87
433.29	4027.23
433.502	4128.37
433.713	4188.43
433.925	4255.66
434.136	4097.37
434.348	3871.26
434.56	3795.51
434.771	4016.19
434.983	3875.14
435.194	4177.19
435.406	4365.51
435.617	4382.37
435.829	4491.25
436.04	4528.84
436.252	4444.37
436.463	4692.17
436.675	4861.51
436.886	4890.96
437.098	4931.84
437.309	4926.99
437.521	4774.71
437.732	4654
437.943	4583.67
438.155	4616.8
438.366	4540.85
438.578	4653.03
438.789	4383.14
439	4348.46
439.211	4348.85
439.423	4455.02
439.634	4596.65
439.845	4788.85
440.057	4811.52
440.268	4956.64
440.479	4931.25
440.69	4962.64
440.902	4817.14
441.113	4824.31
441.324	4943.27
441.535	5075.01
441.746	5309.06
441.957	5232.14
442.168	5317.01
442.38	5380.17
442.591	5440.23
442.802	5325.72
443.013	5494.48
443.224	5532.45
443.435	5513.08
443.646	5447.78
443.857	5364.67
444.068	5389.66
444.279	5424.53
444.49	5691.91
444.701	5547.95
444.912	5797.89
445.123	5800.4
445.334	5593.29
445.545	5650.25
445.756	5532.45
445.967	5483.63
446.178	5367.19
446.388	5321.27
446.599	5433.83
446.81	5477.23
447.021	5473.36
447.232	5606.85
447.443	5732.21
447.653	5882.75
447.864	5968.77
448.075	6016.24
448.286	5998.03
448.496	5947.46
448.707	6026.31
448.918	5834.7
449.129	5956.18
449.339	5957.73
449.55	6071.65
449.761	6000.16
449.971	6005.97
450.182	6127.64
450.393	6153.41
450.603	6167.17
450.814	6474.26
451.024	6403.54
451.235	6648.63
451.446	6603.49
451.656	6630.03
451.867	6469.61
452.077	6326.82
452.288	6486.27
452.498	6315.97
452.709	6345.8
452.919	6186.35
453.13	6036.58
453.34	6014.88
453.55	5767.47
453.761	6126.29
453.971	6048.21
454.182	6192.94
454.392	6252.61
454.602	6588.96
454.813	6508.36
455.023	6356.07
455.233	6315.97
455.444	6418.07
455.654	6185.57
455.864	6378.55
456.075	6456.05
456.285	6461.47
456.495	6562.41
456.705	6571.71
456.916	6749.18
457.126	6799.75
457.336	6731.36
457.546	6575.97
457.756	6746.86
457.967	6893.33
458.177	6600.77
458.387	6723.03
458.597	6530.25
458.807	6647.66
459.017	6559.31
459.227	6592.83
459.437	6592.25
459.647	6700.75
459.857	6712.18
460.068	6816.61
460.278	6888.68
460.488	6818.35
460.698	6843.73
460.908	6954.94
461.117	7093.86
461.327	7074.87
461.537	7207.4
461.747	7167.48
461.957	7144.82
462.167	7333.14
462.377	7251.96
462.587	7168.84
462.797	7407.54
463.007	7295.75
463.216	7486.59
463.426	7645.85
463.636	7548.39
463.846	7254.67
464.056	7324.23
464.265	7263
464.475	7290.13
464.685	7523.01
464.895	7390.1
465.104	7234.72
465.314	7490.46
465.524	7333.91
465.733	7261.84
465.943	7609.23
466.153	7742.14
466.362	7771.78
466.572	7680.92
466.782	7494.14
466.991	7738.46
467.201	7586.95
467.41	7392.04
467.62	7715.21
467.829	7720.63
468.039	7900.04
468.249	7810.53
468.458	8023.07
468.668	7951.19
468.877	8103.67
469.086	8160.25
469.296	8380.54
469.505	8470.82
469.715	8368.14
469.924	8238.33
470.134	8379.37
470.343	8180.59
470.552	8216.82
470.762	8175.75
470.971	8256.54
471.18	8351.47
471.39	8447.19
471.599	8361.94
471.808	8528.75
472.018	8826.74
472.227	8963.33
472.436	9198.15
472.645	9160.95
472.855	9148.16
473.064	9511.05
473.273	9448.08
473.482	9108.83
473.691	9298.12
473.901	9253.56
474.11	9112.32
474.319	9459.9
474.528	9432.2
474.737	9856.5
474.946	9680.19
475.155	9845.46
475.364	10004.72
475.573	9840.23
475.783	10041.14
475.992	10008.21
476.201	9988.25
476.41	10114.38
476.619	9950.86
476.828	9976.63
477.037	9914.05
477.245	10002.78
477.454	10164.56
477.663	10441.81
477.872	10747.35
478.081	10876.58
478.29	10768.47
478.499	10942.65
478.708	11076.34
478.917	11095.52
479.125	10836.86
479.334	10981.21
479.543	11265.24
479.752	11409.77
479.961	11376.84
480.169	11615.73
480.378	11715.7
480.587	12062.12
480.796	11835.05
481.004	11910.22
481.213	11993.53
481.422	12064.06
481.63	12319.42
481.839	12417.45
482.048	12555.4
482.256	12561.99
482.465	12886.9
482.674	12702.84
482.882	12744.5
483.091	12848.73
483.299	12671.07
483.508	13045.19
483.716	13145.56
483.925	13181.4
484.134	12802.62
484.342	13059.73
484.551	13087.04
484.759	12906.28
484.967	13470.08
485.176	13353.83
485.384	13367.59
485.593	13176.94
485.801	13042.87
486.01	12594.54
486.218	12036.16
486.426	11537.84
486.635	11244.12
486.843	11400.28
487.051	11797.66
487.26	11991.02
487.468	12310.51
487.676	12642.01
487.885	13100.22
488.093	13417.19
488.301	13834.13
488.509	13818.25
488.717	14032.53
488.926	14047.84
489.134	13871.14
489.342	13903.3
489.55	13853.12
489.758	14149.75
489.967	14655.43
490.175	14555.84
490.383	15038.66
490.591	15350.01
490.799	15216.33
491.007	15100.47
491.215	15207.03
491.423	15010.18
491.631	14975.89
491.839	14918.92
492.047	14878.82
492.255	14487.45
492.463	14587.23
492.671	14282.46
492.879	14825.54
493.087	14945.85
493.295	15086.9
493.503	15355.24
493.711	15694.3
493.919	15702.05
494.127	15519.15
494.334	15562.36
494.542	15536.4
494.75	16036.46
494.958	15801.44
495.166	16216.64
495.374	16392.18
495.581	16392.18
495.789	16407.1
495.997	16452.05
496.205	15783.81
496.412	16124.03
496.62	16424.15
496.828	16187.19
497.035	16474.91
497.243	16576.04
497.451	16557.25
497.658	16542.53
497.866	16554.73
498.074	16708.95
498.281	16348.39
498.489	16419.3
498.696	16104.85
498.904	15977.56
499.112	16024.83
499.319	16364.86
499.527	16471.03
499.734	16621.96
499.942	16578.37
500.149	16589.03
500.357	16583.6
500.564	16312.74
500.771	16220.32
500.979	15949.66
501.186	15800.28
501.394	16157.94
501.601	15753.2
501.808	15841.35
502.016	15887.08
502.223	15804.35
502.43	15950.24
502.638	15954.7
502.845	16278.84
503.052	16450.69
503.26	16453.21
503.467	16669.82
503.674	16736.08
503.881	16584.18
504.089	16432.48
504.296	16347.03
504.503	16197.07
504.71	16116.28
504.917	16356.33
505.125	16466.19
505.332	16674.27
505.539	16690.35
505.746	17117.18
505.953	17327.01
506.16	17343.28
506.367	17415.36
506.574	17601.74
506.781	17690.09
506.988	17490.53
507.195	17358.98
507.402	17329.53
507.609	17327.98
507.816	17071.84
508.023	16976.71
508.23	16760.69
508.437	16739.95
508.644	16852.13
508.851	17030.96
509.058	17399.08
509.265	17456.04
509.472	17590.12
509.679	17794.13
509.885	17692.8
510.092	17607.94
510.299	17616.08
510.506	17228.78
510.713	17385.52
510.92	17365.56
511.126	17529.67
511.333	17616.47
511.54	17826.1
511.746	17859.62
511.953	17895.66
512.16	18144.82
512.367	17943.51
512.573	17889.46
512.78	17828.04
512.987	17694.93
513.193	17404.31
513.4	17354.33
513.606	17483.17
513.813	17512.81
514.02	17292.13
514.226	17236.92
514.433	17333.21
514.639	17133.26
514.846	17205.53
515.052	17218.32
515.259	17340.57
515.465	17474.06
515.672	17507.39
515.878	17562.99
516.085	17718.96
516.291	17660.06
516.497	17556.21
516.704	17012.17
516.91	16582.44
517.117	15982.02
517.323	15535.82
517.529	15361.83
517.736	15336.84
517.942	15531.17
518.148	15838.45
518.354	16052.93
518.561	16152.32
518.767	15929.9
518.973	16067.46
519.179	16379.97
519.386	16643.47
519.592	16591.35
519.798	16739.57
520.004	17394.82
520.21	17377
520.417	17447.91
520.623	17583.14
520.829	17704.04
521.035	17601.16
521.241	17644.37
521.447	17763.71
521.653	17989.43
521.859	17793.16
522.065	18038.84
522.271	18057.82
522.477	18096.18
522.683	18135.32
522.889	17826.88
523.095	17568.42
523.301	17642.43
523.507	17560.86
523.713	17624.8
523.919	17686.41
524.125	18134.16
524.331	18241.5
524.537	18634.8
524.742	18657.47
524.948	18530.18
525.154	18690.21
525.36	18580.94
525.566	18365.69
525.772	18492.2
525.977	18355.81
526.183	18259.32
526.389	18323.64
526.595	17812.15
526.8	17512.04
527.006	16991.44
527.212	16570.62
527.417	16531.09
527.623	16610.92
527.829	16867.83
528.034	17233.82
528.24	17290.78
528.446	17725.16
528.651	18054.53
528.857	18291.68
529.062	18352.12
529.268	18548.2
529.473	18813.44
529.679	18921.94
529.884	18857.81
530.09	18763.26
530.295	18365.88
530.501	18688.28
530.706	18649.33
530.912	18861.49
531.117	18942.47
531.323	18826.42
531.528	19117.23
531.733	19163.34
531.939	19054.26
532.144	18940.92
532.35	18834.75
532.555	18772.17
532.76	18320.35
532.966	18170.78
533.171	18015.59
533.376	17852.84
533.581	17943.12
533.787	18097.35
533.992	18481.16
534.197	18117.3
534.402	18510.42
534.607	18623.76
534.813	18537.15
535.018	18583.85
535.223	18872.34
535.428	18719.66
535.633	18968.82
535.838	19292.77
536.043	19328.8
536.249	19561.3
536.454	19205.19
536.659	19311.75
536.864	19228.06
537.069	18899.07
537.274	18783.41
537.479	18793.87
537.684	18776.82
537.889	18667.55
538.094	19145.71
538.299	18974.25
538.504	19220.89
538.708	19093.79
538.913	19368.33
539.118	19350.12
539.323	19174.78
539.528	18921.74
539.733	18778.37
539.938	18838.24
540.142	18647.78
540.347	18627.44
540.552	18537.54
540.757	18257.77
540.962	18498.02
541.166	18255.45
541.371	18277.92
541.576	18296.13
541.781	18505.19
541.985	18927.94
542.19	18589.27
542.395	19152.88
542.599	19055.23
542.804	18823.32
543.008	19115.68
543.213	19018.42
543.418	18783.6
543.622	19022.1
543.827	18675.88
544.031	18946.54
544.236	19121.69
544.44	19327.84
544.645	19293.54
544.849	19220.11
545.054	19375.69
545.258	19490.2
545.463	19441.57
545.667	19114.52
545.872	19494.65
546.076	19352.44
546.281	19257.7
546.485	19238.32
546.689	19215.46
546.894	19272.81
547.098	19392.55
547.302	19204.81
547.507	19274.56
547.711	19332.68
547.915	19222.83
548.119	18943.83
548.324	18999.82
548.528	19002.34
548.732	19008.73
548.936	19305.36
549.141	19294.9
549.345	19340.43
549.549	19397.2
549.753	19603.73
549.957	19432.07
550.161	19529.91
550.366	19530.88
550.57	19427.23
550.774	19357.29
550.978	19415.8
551.182	19373.56
551.386	19198.61
551.59	19348.57
551.794	19174.39
551.998	19414.63
552.202	19362.32
552.406	19383.64
552.61	19628.14
552.814	19556.65
553.018	19340.04
553.222	19117.43
553.426	19308.46
553.63	19409.4
553.833	19372.59
554.037	19238.91
554.241	19221.08
554.445	19450.28
554.649	19397.59
554.853	19359.8
555.056	19493.3
555.26	19651.39
555.464	19494.65
555.668	19583.97
555.871	19537.08
556.075	19587.84
556.279	19323.38
556.483	19310.01
556.686	19155.79
556.89	19145.91
557.094	19092.43
557.297	18829.52
557.501	18908.18
557.704	18657.28
557.908	18843.86
558.112	18914.96
558.315	19006.99
558.519	18815.18
558.722	18595.67
558.926	18600.51
559.129	18123.89
559.333	18354.26
559.536	18388.74
559.74	18183.37
559.943	18084.17
560.147	18262.03
560.35	18156.25
560.553	18521.46
560.757	18442.02
560.96	18604.58
561.164	18720.05
561.367	18831.65
561.57	18756.67
561.774	18627.44
561.977	18447.45
562.18	18511.58
562.384	18549.94
562.587	18508.29
562.79	18598.18
562.993	18379.83
563.197	18436.02
563.4	18636.74
563.603	18634.03
563.806	18653.4
564.009	18621.82
564.212	18708.23
564.416	18345.34
564.619	18303.88
564.822	18177.17
565.025	18495.5
565.228	18387.39
565.431	18479.03
565.634	18214.18
565.837	18151.4
566.04	17939.06
566.243	17915.61
566.446	17669.75
566.649	18045.23
566.852	17769.53
567.055	18008.22
567.258	17947.97
567.461	18199.26
567.664	18251.76
567.867	18194.8
568.07	18034.57
568.273	18165.55
568.475	18256.8
568.678	17835.59
568.881	17805.56
569.084	17536.06
569.287	17331.46
569.489	17608.52
569.692	17665.48
569.895	17716.44
570.098	17528.51
570.3	17499.83
570.503	17473.68
570.706	17456.24
570.909	17290.58
571.111	16999.19
571.314	16958.11
571.516	17023.79
571.719	17095.29
571.922	17069.32
572.124	17192.74
572.327	17341.73
572.529	17354.91
572.732	17458.56
572.935	17452.56
573.137	17815.83
573.34	17497.89
573.542	17782.7
573.745	17623.05
573.947	17630.61
574.15	17530.06
574.352	17594.57
574.554	17678.66
574.757	17410.51
574.959	17191.19
575.162	17512.04
575.364	17149.54
575.566	17336.5
575.769	17048.59
575.971	17112.92
576.173	16757.39
576.376	16991.83
576.578	17201.85
576.78	17109.62
576.982	17024.38
577.185	17161.94
577.387	17080.56
577.589	17240.02
577.791	17141.59
577.993	17204.17
578.196	17202.43
578.398	16964.51
578.6	16910.06
578.802	16882.75
579.004	16759.33
579.206	16907.55
579.408	17115.05
579.61	16876.74
579.812	17194.29
580.014	16964.7
580.216	17115.05
580.418	17407.03
580.62	17331.08
580.822	17297.75
581.024	17319.45
581.226	17411.09
581.428	17426.21
581.63	17728.07
581.832	17548.66
582.034	17585.66
582.236	17608.91
582.438	17864.46
582.64	17879.96
582.841	17846.64
583.043	18190.73
583.245	17823.39
583.447	18055.69
583.649	17959.21
583.85	18013.45
584.052	17876.86
584.254	17978.77
584.456	17981.87
584.657	17960.95
584.859	18041.16
585.061	17921.23
585.262	17842.96
585.464	17773.79
585.666	17799.56
585.867	17582.17
586.069	17603.1
586.27	17466.89
586.472	17474.45
586.674	17488.79
586.875	17507.58
587.077	17512.04
587.278	17618.99
587.48	17538.97
587.681	17685.83
587.883	17592.64
588.084	17361.69
588.285	17290
588.487	17020.31
588.688	16978.46
588.89	16410
589.091	16106.79
589.292	15765.02
589.494	15290.92
589.695	15154.91
589.896	14941.59
590.098	15111.32
590.299	15232.99
590.5	15302.54
590.702	15702.05
590.903	15834.38
591.104	16114.93
591.305	16338.9
591.507	16363.31
591.708	16457.86
591.909	16442.36
592.11	16292.2
592.311	16549.31
592.512	16252.68
592.714	16182.16
592.915	16477.23
593.116	16322.24
593.317	16592.32
593.518	16567.33
593.719	16707.21
593.92	16696.55
594.121	16623.9
594.322	16605.11
594.523	16400.32
594.724	16290.65
594.925	16356.53
595.126	16129.46
595.327	16119.96
595.528	16358.85
595.729	16322.04
595.929	16332.7
596.13	16486.92
596.331	16744.6
596.532	16478.59
596.733	16804.28
596.934	16798.27
597.135	16837.22
597.335	16754.68
597.536	16616.92
597.737	16592.51
597.938	16550.28
598.138	16558.41
598.339	16683.77
598.54	16709.34
598.74	16360.02
598.941	16601.43
599.142	16691.13
599.342	16697.91
599.543	16567.91
599.744	16695.2
599.944	16655.48
600.145	16848.07
600.345	16724.45
600.546	16726.2
600.746	16721.94
600.947	16956.37
601.147	16543.11
601.348	16795.56
601.548	16604.52
601.749	16566.74
601.949	16476.85
602.15	16559.96
602.35	16350.72
602.551	16448.17
602.751	16424.73
602.951	16615.76
603.152	16541.94
603.352	16658
603.552	16657.42
603.753	16735.69
603.953	16939.71
604.153	16715.35
604.354	16835.86
604.554	16810.09
604.754	16920.72
604.954	16902.9
605.155	17021.47
605.355	16842.06
605.555	16898.25
605.755	16825.59
605.955	16731.04
606.155	16803.12
606.356	16790.52
606.556	16760.1
606.756	16811.83
606.956	16684.93
607.156	16889.14
607.356	16653.54
607.556	16764.75
607.756	16768.24
607.956	16842.06
608.156	16746.15
608.356	16512.11
608.556	16783.93
608.756	16599.1
608.956	16556.48
609.156	16550.08
609.356	16514.43
609.556	16456.89
609.755	16501.65
609.955	16396.25
610.155	16377.45
610.355	16485.56
610.555	16314.29
610.755	16083.34
610.954	16219.55
611.154	16408.07
611.354	16411.17
611.554	16279.22
611.753	16514.24
611.953	16276.51
612.153	16416.01
612.352	16284.45
612.552	16095.55
612.752	16198.24
612.951	16338.12
613.151	16078.69
613.351	16296.08
613.55	16219.74
613.75	16193.39
613.949	15906.07
614.149	15958.38
614.348	16009.53
614.548	15928.54
614.747	15921.37
614.947	16106.59
615.146	15912.65
615.346	16255
615.545	16176.92
615.745	16029.29
615.944	15973.49
616.144	15889.79
616.343	15660.2
616.542	15804.16
616.742	15484.08
616.941	15647.99
617.14	15395.35
617.34	15546.67
617.539	15595.49
617.738	15680.35
617.938	15777.22
618.137	15752.62
618.336	15810.16
618.535	15971.36
618.734	15898.51
618.934	15813.84
619.133	15833.41
619.332	16112.02
619.531	15723.56
619.73	16009.14
619.929	15864.02
620.128	15976.98
620.328	15967.48
620.527	15970.78
620.726	16031.42
620.925	16053.31
621.124	16131.2
621.323	15919.82
621.522	15715.81
621.721	15913.62
621.92	15754.36
622.119	15817.14
622.318	15628.23
622.517	15679.58
622.715	15635.21
622.914	15519.35
623.113	15664.08
623.312	15264.57
623.511	15475.56
623.71	15412.4
623.909	15224.08
624.107	15476.53
624.306	15322.89
624.505	15309.71
624.704	15078.96
624.902	15055.71
625.101	15138.63
625.3	15005.72
625.499	14953.22
625.697	14988.87
625.896	14910.21
626.095	14799.96
626.293	14750.95
626.492	14967.36
626.69	14882.5
626.889	15072.18
627.088	15012.31
627.286	15060.17
627.485	14753.27
627.683	14656.2
627.882	14464.97
628.08	14253.98
628.279	14050.55
628.477	14127.66
628.676	13996.88
628.874	14247.59
629.073	14123.98
629.271	14190.43
629.469	14250.88
629.668	14149.94
629.866	14066.05
630.065	14141.61
630.263	14174.55
630.461	14054.42
630.66	14187.92
630.858	14243.91
631.056	14298.35
631.254	14371.59
631.453	14184.82
631.651	14259.8
631.849	14260.76
632.047	14208.07
632.245	14127.08
632.444	14247.78
632.642	14458.77
632.84	14617.84
633.038	14420.61
633.236	14291.57
633.434	14520.19
633.632	14549.25
633.83	14388.06
634.028	14660.27
634.227	14493.26
634.425	14683.91
634.623	14501.98
634.821	14703.67
635.019	14681
635.216	14799.38
635.414	14823.21
635.612	14609.51
635.81	14626.75
636.008	14722.85
636.206	14702.51
636.404	14549.45
636.602	14656.59
636.8	14530.27
636.997	14708.32
637.195	14717.04
637.393	14701.73
637.591	14829.41
637.789	14807.52
637.986	14876.11
638.184	14834.64
638.382	14951.09
638.58	14810.81
638.777	15003.79
638.975	14924.35
639.173	14990.42
639.37	14774
639.568	14880.56
639.765	14825.93
639.963	14739.13
640.161	14572.12
640.358	14784.27
640.556	14510.7
640.753	14572.5
640.951	14564.56
641.148	14620.94
641.346	14602.92
641.543	14454.9
641.741	14500.43
641.938	14413.63
642.136	14489.97
642.333	14368.88
642.531	14577.15
642.728	14582.58
642.925	14696.89
643.123	14508.95
643.32	14564.95
643.517	14511.67
643.715	14455.29
643.912	14634.7
644.109	14556.62
644.306	14563.4
644.504	14466.14
644.701	14601.57
644.898	14455.09
645.095	14458
645.293	14387.09
645.49	14446.57
645.687	14351.24
645.884	14380.11
646.081	14099.95
646.278	14169.51
646.475	13973.44
646.672	13983.51
646.87	13841.88
647.067	13872.88
647.264	13813.79
647.461	13757.02
647.658	13549.91
647.855	13640.77
648.052	13490.23
648.249	13363.72
648.446	13536.93
648.642	13589.24
648.839	13389.68
649.036	13390.84
649.233	13481.32
649.43	13417.19
649.627	13138.77
649.824	13264.13
650.021	13160.09
650.217	13397.04
650.414	13414.28
650.611	13535.38
650.808	13718.08
651.004	13616.56
651.201	13687.08
651.398	13815.34
651.595	13562.5
651.791	13369.53
651.988	13618.11
652.185	13237.59
652.381	13637.09
652.578	13360.81
652.775	13524.53
652.971	13688.63
653.168	13462.14
653.364	13800.42
653.561	13602.99
653.757	13620.24
653.954	13839.75
654.15	13543.71
654.347	13771.17
654.543	13677.78
654.74	13421.26
654.936	13501.86
655.133	13391.42
655.329	13336.59
655.525	13093.44
655.722	13019.62
655.918	12728.81
656.115	12309.15
656.311	12014.07
656.507	11666.68
656.704	11452.79
656.9	11621.15
657.096	11788.74
657.292	11909.45
657.489	12090.21
657.685	12328.72
657.881	12348.48
658.077	12549.59
658.273	12747.41
658.47	12890.2
658.666	12990.36
658.862	13187.02
659.058	13201.35
659.254	13192.44
659.45	13392.39
659.646	13218.6
659.842	13290.09
660.038	13532.86
660.234	13278.27
660.43	13350.54
660.626	13557.07
660.822	13465.24
661.018	13517.94
661.214	13532.66
661.41	13415.64
661.606	13526.66
661.802	13726.6
661.998	13609.58
662.194	13601.25
662.39	13653.37
662.586	13617.33
662.781	13536.15
662.977	13740.94
663.173	13599.12
663.369	13568.7
663.564	13518.52
663.76	13545.06
663.956	13557.66
664.152	13414.86
664.347	13282.15
664.543	13462.53
664.739	13409.05
664.934	13313.92
665.13	13493.33
665.326	13410.99
665.521	13572.57
665.717	13377.66
665.912	13457.68
666.108	13196.9
666.304	13491.39
666.499	13350.35
666.695	13136.64
666.89	13324.97
667.086	13353.25
667.281	13293.97
667.477	13447.8
667.672	13321.48
667.867	13258.32
668.063	13232.94
668.258	13124.44
668.454	13279.05
668.649	13250.37
668.844	13284.47
669.04	13335.43
669.235	13204.07
669.43	13378.25
669.626	13118.04
669.821	13141.1
670.016	13131.8
670.211	13222.86
670.407	12988.04
670.602	13335.23
670.797	13002.96
670.992	13251.15
671.187	13010.51
671.382	13197.67
671.578	12837.89
671.773	13015.75
671.968	12823.16
672.163	12961.88
672.358	12942.7
672.553	12831.1
672.748	12994.24
672.943	12940.96
673.138	12948.32
673.333	13069.41
673.528	12790.42
673.723	12987.85
673.918	12808.82
674.113	12883.03
674.308	12933.98
674.503	12874.89
674.698	12966.92
674.892	12787.51
675.087	12822.97
675.282	12822
675.477	12834.79
675.672	12876.83
675.867	12663.71
676.061	12800.88
676.256	12693.93
676.451	12817.35
676.646	12819.48
676.84	12675.33
677.035	12609.07
677.23	12694.71
677.424	12728.42
677.619	12629.41
677.814	12757.48
678.008	12629.03
678.203	12654.02
678.397	12597.25
678.592	12560.44
678.787	12711.37
678.981	12569.93
679.176	12561.6
679.37	12525.95
679.565	12606.55
679.759	12594.93
679.954	12558.11
680.148	12488.17
680.342	12619.53
680.537	12462.79
680.731	12383.16
680.926	12552.3
681.12	12417.45
681.314	12360.3
681.509	12397.3
681.703	12467.44
681.897	12330.46
682.092	12316.71
682.286	12423.07
682.48	12281.25
682.674	12263.42
682.869	12177.98
683.063	12325.62
683.257	12273.5
683.451	12206.27
683.645	12214.99
683.839	12144.08
684.034	12065.61
684.228	11990.05
684.422	11914.68
684.616	11999.54
684.81	12055.15
685.004	11872.64
685.198	12006.9
685.392	11887.75
685.586	11985.78
685.78	11745.93
685.974	11809.86
686.168	11788.16
686.362	11686.25
686.556	11023.05
686.75	10639.63
686.944	9992.71
687.138	9195.24
687.331	8695.38
687.525	8362.32
687.719	8196.09
687.913	8275.33
688.107	8451.84
688.301	8432.07
688.494	8605.48
688.688	8572.35
688.882	8467.53
689.076	8520.81
689.269	8541.54
689.463	8718.82
689.657	8654.88
689.85	8707.19
690.044	8871.3
690.238	8949.77
690.431	9019.9
690.625	9117.16
690.818	9298.7
691.012	9307.04
691.205	9513.38
691.399	9536.04
691.593	9572.28
691.786	9646.67
691.98	9852.43
692.173	9916.56
692.366	9850.69
692.56	10117.29
692.753	9940.2
692.947	9915.01
693.14	9965.19
693.333	9919.47
693.527	9914.43
693.72	9938.46
693.914	9796.05
694.107	9734.25
694.3	9789.66
694.493	9596.49
694.687	9842.94
694.88	9690.46
695.073	9864.45
695.266	9826.28
695.46	9771.45
695.653	9858.63
695.846	9822.21
696.039	9921.6
696.232	9874.91
696.425	10127.94
696.618	10202.73
696.812	10334.86
697.005	10365.67
697.198	10515.24
697.391	10432.51
697.584	10594.49
697.777	10591.39
697.97	10411.78
698.163	10522.02
698.356	10451.31
698.549	10496.26
698.742	10450.53
698.935	10228.69
699.127	10232.37
699.32	10116.32
699.513	10093.65
699.706	9964.23
699.899	10058.77
700.092	10011.69
700.285	9901.26
700.477	9713.9
700.67	9879.36
700.863	9768.74
701.056	9919.66
701.248	9838.87
701.441	9812.91
701.634	9732.12
701.826	9855.53
702.019	9607.54
702.212	9742.39
702.404	9683.29
702.597	9595.53
702.79	9678.64
702.982	9637.76
703.175	9783.85
703.367	9785.98
703.56	9811.36
703.752	9969.84
703.945	9911.14
704.137	9896.61
704.33	9951.63
704.522	9935.36
704.715	9986.7
704.907	10015.18
705.1	10068.46
705.292	9971.2
705.484	9838.87
705.677	10020.8
705.869	10006.85
706.061	10027
706.254	10041.73
706.446	9918.7
706.638	9926.45
706.831	10021.58
707.023	9996.97
707.215	10164.37
707.407	10121.94
707.599	9949.5
707.792	10101.79
707.984	10008.4
708.176	10057.22
708.368	10049.86
708.56	10050.64
708.752	9967.52
708.944	9880.72
709.136	10013.83
709.329	9915.98
709.521	10049.09
709.713	9945.63
709.905	9946.4
710.097	10115.74
710.289	9861.73
710.481	9938.65
710.672	9888.86
710.864	9934.2
711.056	9913.85
711.248	9903.78
711.44	9925.86
711.632	9939.81
711.824	9959.77
712.016	9852.05
712.207	9918.11
712.399	9825.89
712.591	9908.43
712.783	9946.79
712.975	9814.46
713.166	9774.55
713.358	9772.03
713.55	9721.27
713.741	9740.45
713.933	9804.19
714.125	9644.74
714.316	9546.89
714.508	9741.22
714.7	9556.97
714.891	9548.64
715.083	9498.07
715.274	9361.28
715.466	9528.49
715.657	9443.24
715.849	9238.06
716.04	9158.82
716.232	9085.97
716.423	8935.04
716.615	8707.78
716.806	8431.49
716.998	8153.46
717.189	7883.57
717.381	7566.22
717.572	7417.23
717.763	7269.78
717.955	7114.59
718.146	6988.66
718.337	6836.95
718.528	6733.88
718.72	6406.06
718.911	6397.92
719.102	6297.17
719.293	6326.62
719.485	6256.68
719.676	6173.76
719.867	6048.79
720.058	6057.89
720.249	6057.51
720.44	6031.54
720.632	6247.77
720.823	6337.28
721.014	6646.5
721.205	6782.51
721.396	6901.47
721.587	7196.74
721.778	7326.94
721.969	7446.29
722.16	7517
722.351	7687.7
722.542	7846.18
722.733	7749.11
722.924	7670.84
723.115	7648.56
723.305	7438.92
723.496	7503.25
723.687	7136.49
723.878	7099.29
724.069	7084.37
724.26	6997.96
724.45	6819.32
724.641	6763.33
724.832	6754.22
725.023	6636.42
725.213	6677.11
725.404	6583.72
725.595	6500.8
725.785	6516.69
725.976	6641.85
726.167	6537.61
726.357	6572.68
726.548	6689.12
726.739	6541.88
726.929	6761.97
727.12	6715.28
727.31	6677.11
727.501	6514.56
727.691	6532.77
727.882	6533.93
728.072	6598.26
728.263	6611.24
728.453	6739.3
728.644	6679.24
728.834	6590.51
729.024	6521.34
729.215	6477.55
729.405	6538.97
729.596	6625.19
729.786	6649.6
729.976	6610.07
730.167	6631
730.357	6585.66
730.547	6629.26
730.737	6660.06
730.928	6682.15
731.118	6656.77
731.308	6628.87
731.498	6648.82
731.688	6808.67
731.879	6818.93
732.069	6856.71
732.259	6960.76
732.449	7074.87
732.639	7176.2
732.829	7196.35
733.019	7259.32
733.209	7402.31
733.399	7446.48
733.589	7499.37
733.779	7617.56
733.969	7566.02
734.159	7765.39
734.349	7743.5
734.539	7809.76
734.729	7835.53
734.919	7806.27
735.109	7952.35
735.299	7707.85
735.488	7833.98
735.678	7801.62
735.868	7802.01
736.058	7663.87
736.248	7668.9
736.437	7602.25
736.627	7598.77
736.817	7725.86
737.007	7614.07
737.196	7736.13
737.386	7691.38
737.576	7649.14
737.765	7724.7
737.955	7707.65
738.144	7876.21
738.334	7747.95
738.524	7649.33
738.713	7729.16
738.903	7640.42
739.092	7721.8
739.282	7655.53
739.471	7700.29
739.661	7646.82
739.85	7820.99
740.04	7732.65
740.229	7767.52
740.419	7774.3
740.608	7789.8
740.797	7741.95
740.987	7830.68
741.176	7807.63
741.365	7734.39
741.555	7671.03
741.744	7833.2
741.933	7682.85
742.123	7766.75
742.312	7803.56
742.501	7880.28
742.69	7844.83
742.88	7639.07
743.069	7880.09
743.258	7769.46
743.447	7829.91
743.636	7874.27
743.825	7811.5
744.014	7872.14
744.204	7842.89
744.393	7699.13
744.582	7927.36
744.771	7858.39
744.96	7770.23
745.149	7809.18
745.338	7737.68
745.527	7840.56
745.716	7743.88
745.905	7673.36
746.094	7824.87
746.283	7832.23
746.471	7715.79
746.66	7838.24
746.849	7782.44
747.038	7801.43
747.227	7705.33
747.416	7772.36
747.604	7716.95
747.793	7685.37
747.982	7734
748.171	7772.95
748.359	7646.23
748.548	7681.5
748.737	7684.02
748.926	7633.45
749.114	7473.61
749.303	7623.76
749.491	7527.85
749.68	7470.12
749.869	7602.64
750.057	7548.2
750.246	7465.08
750.434	7504.41
750.623	7484.84
750.811	7397.66
751	7496.86
751.188	7409.48
751.377	7411.03
751.565	7335.08
751.754	7313.76
751.942	7291.87
752.131	7462.95
752.319	7308.53
752.507	7325.39
752.696	7368.98
752.884	7329.46
753.072	7257.96
753.261	7318.22
753.449	7293.03
753.637	7231.81
753.825	7365.3
754.014	7250.8
754.202	7264.75
754.39	7295.16
754.578	7272.5
754.766	7154.7
754.955	7101.03
755.143	7272.88
755.331	7192.28
755.519	7191.9
755.707	7151.21
755.895	7104.13
756.083	7162.45
756.271	6964.63
756.459	7097.35
756.647	7086.89
756.835	7003.19
757.023	6994.08
757.211	7071.97
757.399	6956.11
757.587	7001.06
757.775	6848.19
757.963	6889.65
758.151	6932.08
758.339	6796.85
758.526	6814.28
758.714	6799.17
758.902	6576.36
759.09	6334.57
759.278	6024.18
759.465	5518.11
759.653	4880.11
759.841	4364.54
760.028	3778.07
760.216	3272.2
760.404	2975.18
760.591	2517.55
760.779	2120.95
760.967	1824.32
761.154	1578.26
761.342	1550.75
761.529	1549.98
761.717	1659.83
761.905	1699.16
762.092	1785.96
762.28	1667.58
762.467	1704.2
762.655	1565.09
762.842	1628.83
763.029	1643.56
763.217	1667.19
763.404	1673.01
763.592	1667.19
763.779	1656.93
763.966	1756.32
764.154	1805.34
764.341	1850.67
764.528	1927.4
764.716	2063.6
764.903	2129.09
765.09	2308.5
765.277	2449.16
765.465	2668.67
765.652	2799.84
765.839	2939.92
766.026	3195.09
766.213	3324.9
766.4	3575.99
766.588	3804.61
766.775	3911.56
766.962	4122.75
767.149	4263.99
767.336	4557.32
767.523	4534.65
767.71	4814.81
767.897	4933.19
768.084	5072.88
768.271	5174.6
768.458	5302.28
768.645	5474.91
768.832	5481.5
769.019	5543.5
769.206	5557.06
769.392	5714.19
769.579	5818.62
769.766	5731.62
769.953	5762.43
770.14	5875.97
770.327	5877.32
770.513	5950.75
770.7	5980.78
770.887	5954.05
771.073	5946.68
771.26	6004.61
771.447	5968.58
771.634	5926.15
771.82	6078.24
772.007	5921.5
772.193	6017.98
772.38	5992.99
772.567	5975.55
772.753	5870.93
772.94	6041.62
773.126	6012.36
773.313	6053.63
773.499	5956.56
773.686	6016.43
773.872	5911.23
774.059	5989.11
774.245	5944.75
774.432	5918.01
774.618	5816.87
774.804	5852.33
774.991	5864.92
775.177	5880.62
775.363	5879.84
775.55	5940.29
775.736	5726.59
775.922	5887.4
776.109	5873.25
776.295	5837.41
776.481	5895.15
776.667	5868.6
776.853	5814.35
777.04	5779.87
777.226	5809.51
777.412	5851.55
777.598	5749.64
777.784	5770.57
777.97	5701.59
778.156	5735.11
778.342	5770.76
778.528	5689.58
778.715	5621.38
778.901	5651.22
779.087	5724.65
779.272	5609.37
779.458	5609.56
779.644	5651.99
779.83	5637.66
780.016	5711.67
780.202	5630.49
780.388	5626.23
780.574	5536.33
780.76	5558.41
780.946	5555.51
781.131	5535.75
781.317	5536.52
781.503	5484.79
781.689	5491.77
781.874	5634.17
782.06	5451.85
782.246	5542.33
782.432	5472.2
782.617	5446.43
782.803	5515.98
782.989	5418.33
783.174	5387.34
783.36	5365.83
783.545	5333.09
783.731	5335.41
783.916	5290.66
784.102	5365.25
784.288	5276.12
784.473	5350.52
784.659	5219.94
784.844	5330.57
785.029	5248.22
785.215	5220.71
785.4	5186.23
785.586	5276.9
785.771	5201.73
785.956	5233.31
786.142	5157.36
786.327	5206.38
786.512	5144.18
786.698	5155.81
786.883	5017.47
787.068	5085.67
787.254	5113.38
787.439	5071.91
787.624	5043.82
787.809	5021.73
787.994	5033.75
788.18	5069.01
788.365	4940.36
788.55	4947.14
788.735	4946.17
788.92	4938.23
789.105	4865.19
789.29	4932.22
789.475	4811.91
789.66	4869.84
789.845	4795.44
790.03	4746.42
790.215	4807.64
790.4	4854.72
790.585	4841.16
790.77	4759.4
790.955	4681.71
791.14	4783.81
791.325	4842.52
791.51	4632.5
791.695	4752.04
791.879	4771.99
792.064	4716.58
792.249	4795.44
792.434	4695.08
792.618	4723.17
792.803	4786.53
792.988	4725.11
793.173	4775.87
793.357	4734.21
793.542	4674.15
793.727	4738.09
793.911	4802.8
794.096	4729.18
794.281	4837.87
794.465	4883.01
794.65	4740.99
794.834	4823.92
795.019	4866.93
795.203	4919.82
795.388	4880.49
795.572	4874.49
795.757	4861.31
795.941	4830.31
796.126	4802.03
796.31	4759.01
796.494	4769.67
796.679	4730.73
796.863	4744.68
797.048	4820.82
797.232	4761.34
797.416	4798.93
797.601	4870.03
797.785	4851.04
797.969	4885.72
798.153	4802.03
798.338	4910.72
798.522	4897.74
798.706	4933.58
798.89	4912.85
799.074	5035.1
799.258	4937.84
799.443	4912.85
799.627	4894.05
799.811	4930.29
799.995	4838.26
800.179	4796.6
800.363	4823.34
800.547	4837.87
800.731	4882.24
800.915	4774.9
801.099	4734.6
801.283	4781.49
801.467	4844.26
801.651	4773.35
801.835	4836.32
802.019	4859.37
802.202	4858.41
802.386	4749.33
802.57	4761.34
802.754	4812.29
802.938	4759.21
803.121	4770.44
803.305	4876.81
803.489	4782.65
803.673	4788.08
803.856	4819.66
804.04	4759.98
804.224	4790.21
804.407	4730.34
804.591	4727.24
804.775	4757.46
804.958	4831.47
805.142	4911.1
805.326	4781.49
805.509	4770.25
805.693	4847.75
805.876	4801.44
806.06	4800.09
806.243	4866.16
806.427	4919.63
806.61	4898.9
806.794	4812.1
806.977	4891.73
807.16	4879.72
807.344	4846.78
807.527	4810.36
807.71	4793.69
807.894	4777.81
808.077	4835.93
808.26	4795.63
808.444	4746.42
808.627	4799.89
808.81	4706.12
808.993	4674.93
809.177	4656.91
809.36	4653.61
809.543	4649.74
809.726	4549.57
809.909	4506.17
810.092	4502.49
810.276	4546.08
810.459	4462.58
810.642	4550.93
810.825	4384.89
811.008	4462.19
811.191	4336.45
811.374	4341.49
811.557	4310.29
811.74	4419.57
811.923	4252.17
812.106	4214.97
812.289	4212.65
812.472	4173.9
812.654	4141.35
812.837	4079.35
813.02	4001.66
813.203	3956.51
813.386	3804.81
813.569	3802.68
813.751	3625.59
813.934	3712.97
814.117	3670.54
814.3	3576.77
814.482	3477.38
814.665	3393.1
814.848	3331.87
815.03	3278.01
815.213	3250.69
815.396	3196.64
815.578	3189.66
815.761	3174.74
815.943	3206.52
816.126	3042.41
816.309	3043.96
816.491	2942.44
816.674	2848.28
816.856	2917.25
817.039	2935.27
817.221	3002.11
817.403	2948.83
817.586	2955.03
817.768	2954.06
817.951	2863.39
818.133	2850.6
818.315	2878.12
818.498	2960.65
818.68	2997.85
818.862	2997.08
819.045	3032.92
819.227	3037.57
819.409	2950.19
819.591	2987
819.774	2999.79
819.956	2951.16
820.138	3113.32
820.32	3063.14
820.502	3194.5
820.684	3285.76
820.866	3284.21
821.048	3392.9
821.231	3386.9
821.413	3390.96
821.595	3321.02
821.777	3393.87
821.959	3403.36
822.141	3439.4
822.323	3203.61
822.505	3132.7
822.686	3017.23
822.868	2856.03
823.05	2710.52
823.232	2670.61
823.414	2539.06
823.596	2617.53
823.778	2653.95
823.96	2679.91
824.141	2734.74
824.323	2756.25
824.505	2861.45
824.687	2984.29
824.868	3042.99
825.05	3148.59
825.232	3262.9
825.413	3351.44
825.595	3296.42
825.777	3210.59
825.958	3246.23
826.14	3255.73
826.321	3310.56
826.503	3238.68
826.685	3308.82
826.866	3298.16
827.048	3299.9
827.229	3196.44
827.411	3123.4
827.592	3100.15
827.773	3030.01
827.955	2958.13
828.136	2975.96
828.318	2958.33
828.499	3009.28
828.68	2965.3
828.862	2973.44
829.043	2996.3
829.224	2919.58
829.406	2879.28
829.587	2843.43
829.768	2921.13
829.949	2909.31
830.131	2945.93
830.312	3031.95
830.493	2970.92
830.674	2980.41
830.855	2945.93
831.036	2942.44
831.218	3031.56
831.399	3071.47
831.58	2969.37
831.761	3003.08
831.942	2987.58
832.123	2942.25
832.304	2888.96
832.485	2895.94
832.666	2975.18
832.847	2976.54
833.028	2974.02
833.209	2925.78
833.389	2892.45
833.57	2841.11
833.751	2833.55
833.932	2930.23
834.113	2926.75
834.294	2924.61
834.475	2984.68
834.655	3024.98
834.836	3012.58
835.017	3024.78
835.198	2967.24
835.378	3004.83
835.559	3113.13
835.74	2986.81
835.92	2984.87
836.101	2985.06
836.281	3063.53
836.462	3027.49
836.643	3106.35
836.823	3088.91
837.004	3095.31
837.184	3147.23
837.365	3121.46
837.545	3109.84
837.726	3056.36
837.906	3120.49
838.087	3093.17
838.267	3095.5
838.448	3040.67
838.628	3067.02
838.808	3062.17
838.989	3090.66
839.169	3042.8
839.349	3102.47
839.53	3109.06
839.71	3109.64
839.89	3048.03
840.07	3143.74
840.251	3102.47
840.431	3104.41
840.611	3069.15
840.791	3044.16
840.971	3097.82
841.151	3019.36
841.332	3009.48
841.512	3113.91
841.692	2987.97
841.872	3077.09
842.052	3030.01
842.232	3097.05
842.412	2966.08
842.592	3016.64
842.772	3026.14
842.952	3018
843.132	3004.63
843.312	2981.58
843.492	2980.22
843.672	3013.93
843.851	2895.36
844.031	2948.45
844.211	2926.75
844.391	2918.22
844.571	2968.21
844.751	2979.06
844.93	2952.9
845.11	2931.4
845.29	2949.61
845.47	3036.02
845.649	2966.46
845.829	3005.41
846.009	2999.98
846.188	3010.06
846.368	2958.13
846.547	2931.01
846.727	2994.36
846.907	2904.08
847.086	2921.51
847.266	2992.81
847.445	2921.71
847.625	2896.33
847.804	2883.35
847.984	2906.79
848.163	2886.25
848.343	2903.69
848.522	2893.23
848.701	2856.42
848.881	2888.77
849.06	2838.2
849.239	2837.04
849.419	2857.77
849.598	2772.91
849.777	2739.78
849.957	2706.46
850.136	2630.31
850.315	2629.73
850.494	2636.32
850.674	2643.87
850.853	2723.7
851.032	2703.16
851.211	2701.03
851.39	2658.21
851.569	2623.14
851.748	2603.96
851.927	2686.5
852.107	2676.62
852.286	2621.4
852.465	2637.87
852.644	2702.19
852.823	2705.1
853.002	2674.68
853.181	2661.12
853.359	2630.12
853.538	2562.89
853.717	2612.68
853.896	2512.9
854.075	2389.1
854.254	2325.94
854.433	2307.72
854.611	2277.5
854.79	2228.09
854.969	2302.49
855.148	2355.58
855.327	2276.34
855.505	2389.68
855.684	2361.39
855.863	2429.01
856.041	2393.75
856.22	2465.05
856.399	2443.93
856.577	2580.91
856.756	2554.17
856.934	2673.91
857.113	2640.97
857.291	2563.28
857.47	2506.7
857.648	2548.36
857.827	2554.36
858.005	2619.08
858.184	2518.13
858.362	2634.19
858.541	2533.25
858.719	2562.5
858.898	2527.63
859.076	2477.25
859.254	2553.59
859.433	2493.72
859.611	2489.07
859.789	2438.7
859.967	2484.61
860.146	2526.08
860.324	2448.96
860.502	2472.41
860.68	2449.16
860.859	2402.47
861.037	2408.08
861.215	2457.88
861.393	2460.98
861.571	2449.16
861.749	2403.43
861.927	2457.68
862.105	2432.11
862.283	2387.93
862.461	2375.73
862.639	2333.49
862.817	2384.06
862.995	2391.23
863.173	2388.71
863.351	2394.72
863.529	2389.68
863.707	2462.14
863.885	2413.32
864.063	2306.75
864.241	2342.79
864.418	2437.34
864.596	2358.68
864.774	2283.7
864.952	2318.96
865.129	2348.22
865.307	2270.14
865.485	2226.74
865.663	2314.89
865.84	2195.93
866.018	2196.51
866.196	2021.36
866.373	2046.36
866.551	2018.85
866.728	1931.85
866.906	1991.53
867.084	2044.81
867.261	2076.2
867.439	2102.35
867.616	2109.13
867.794	2110.1
867.971	2126.38
868.149	2112.81
868.326	2198.45
868.503	2182.18
868.681	2189.73
868.858	2158.73
869.035	2138.39
869.213	2187.6
869.39	2153.11
869.567	2199.22
869.745	2150.98
869.922	2197.67
870.099	2149.04
870.276	2163.19
870.454	2182.37
870.631	2159.31
870.808	2140.91
870.985	2179.85
871.162	2200.19
871.339	2158.93
871.517	2086.85
871.694	2075.03
871.871	2135.68
872.048	2116.88
872.225	2118.63
872.402	2113.98
872.579	2056.43
872.756	2088.21
872.933	2036.86
873.11	2081.23
873.287	2120.76
873.463	2064.76
873.64	2019.62
873.817	2064.38
873.994	2038.61
874.171	2050.62
874.348	2066.51
874.524	1961.11
874.701	2013.42
874.878	1934.37
875.055	2038.61
875.231	2003.73
875.408	2012.06
875.585	1934.18
875.762	1996.18
875.938	1973.51
876.115	1948.71
876.291	1937.67
876.468	1949.68
876.645	1908.41
876.821	1920.62
876.998	1955.1
877.174	1939.22
877.351	1936.12
877.527	1901.63
877.704	1952.97
877.88	1915.39
878.057	1933.79
878.233	1954.13
878.409	1912.87
878.586	1944.64
878.762	1903.18
878.938	1900.85
879.115	1773.76
879.291	1913.84
879.467	1806.5
879.644	1852.61
879.82	1894.46
879.996	1849.51
880.172	1813.28
880.349	1841.37
880.525	1877.99
880.701	1793.52
880.877	1767.56
881.053	1815.41
881.229	1824.91
881.405	1829.94
881.581	1794.49
881.757	1833.62
881.933	1835.37
882.109	1868.69
882.285	1811.92
882.461	1761.74
882.637	1830.52
882.813	1756.32
882.989	1809.41
883.165	1832.46
883.341	1753.8
883.517	1828.2
883.693	1794.29
883.869	1842.73
884.044	1768.14
884.22	1801.27
884.396	1839.82
884.572	1811.73
884.747	1876.25
884.923	1791.77
885.099	1854.35
885.275	1864.04
885.45	1781.51
885.626	1750.7
885.801	1747.41
885.977	1793.71
886.153	1740.82
886.328	1777.63
886.504	1719.31
886.679	1798.75
886.855	1728.42
887.03	1787.32
887.206	1821.61
887.381	1800.3
887.557	1808.82
887.732	1796.81
887.908	1801.27
888.083	1805.92
888.258	1754.96
888.434	1795.65
888.609	1797.2
888.784	1856.29
888.96	1795.07
889.135	1761.16
889.31	1741.79
889.485	1801.46
889.661	1789.64
889.836	1781.31
890.011	1792.55
890.186	1792.36
890.361	1759.81
890.537	1803.79
890.712	1798.56
890.887	1806.89
891.062	1766.78
891.237	1876.64
891.412	1759.61
891.587	1793.91
891.762	1807.66
891.937	1825.1
892.112	1747.79
892.287	1758.45
892.462	1711.95
892.637	1699.55
892.812	1642.59
892.987	1631.93
893.161	1627.86
893.336	1644.91
893.511	1631.35
893.686	1655.96
893.861	1620.7
894.035	1620.31
894.21	1618.56
894.385	1537.38
894.56	1556.76
894.734	1517.43
894.909	1500.38
895.084	1482.94
895.258	1430.82
895.433	1465.31
895.608	1425.79
895.782	1330.85
895.957	1389.75
896.131	1346.35
896.306	1283.19
896.48	1280.28
896.655	1261.49
896.829	1189.61
897.004	1164.23
897.178	1222.35
897.353	1178.76
897.527	1248.89
897.701	1188.83
897.876	1183.8
898.05	1268.66
898.224	1226.61
898.399	1233.98
898.573	1137.88
898.747	1019.5
898.921	1078.4
899.096	955.17
899.27	962.92
899.444	955.56
899.618	1020.85
899.792	1083.63
899.967	1078.98
900.141	1101.45
900.315	1031.9
900.489	1011.94
900.663	1045.07
900.837	1051.27
901.011	980.55
901.185	1090.99
901.359	1019.11
901.533	1078.01
901.707	1097.19
901.881	1015.82
902.055	997.02
902.229	1025.31
902.403	1107.46
902.576	1047.4
902.75	1036.94
902.924	1174.88
903.098	1141.36
903.272	1206.85
903.446	1240.37
903.619	1239.98
903.793	1312.06
903.967	1285.13
904.14	1335.31
904.314	1348.67
904.488	1306.24
904.661	1319.61
904.835	1319.22
905.009	1381.81
905.182	1378.12
905.356	1326.78
905.529	1333.56
905.703	1265.56
905.876	1259.16
906.05	1247.73
906.223	1214.8
906.397	1149.89
906.57	1101.45
906.744	1066.97
906.917	1058.63
907.09	1052.43
907.264	1041.39
907.437	984.24
907.61	943.55
907.784	974.94
907.957	995.28
908.13	939.67
908.304	989.66
908.477	921.07
908.65	942.19
908.823	891.43
908.996	971.25
909.17	929.21
909.343	928.05
909.516	945.49
909.689	889.69
909.862	869.93
910.035	887.56
910.208	839.51
910.381	845.9
910.554	966.41
910.727	906.74
910.9	895.5
911.073	874.38
911.246	977.45
911.419	985.98
911.592	977.65
911.765	875.74
911.938	912.74
912.11	919.33
912.283	917.2
912.456	973
912.629	917.59
912.802	874.57
912.974	788.16
913.147	739.73
913.32	700.59
913.493	732.95
913.665	776.73
913.838	793.2
914.01	777.31
914.183	826.72
914.356	837.76
914.528	849.78
914.701	884.84
914.873	850.94
915.046	762.59
915.218	736.24
915.391	651.38
915.563	674.63
915.736	740.7
915.908	774.21
916.081	747.67
916.253	802.89
916.425	829.24
916.598	836.02
916.77	783.32
916.942	746.51
917.115	686.83
917.287	729.26
917.459	702.14
917.632	672.88
917.804	613.02
917.976	733.33
918.148	756.97
918.32	760.85
918.493	813.16
918.665	858.49
918.837	803.47
919.009	866.83
919.181	884.84
919.353	838.34
919.525	828.85
919.697	839.89
919.869	839.31
920.041	942.77
920.213	992.95
920.385	927.08
920.557	883.1
920.729	912.55
920.901	885.62
921.073	817.23
921.244	835.83
921.416	882.91
921.588	814.32
921.76	839.7
921.932	876.32
922.103	840.86
922.275	864.31
922.447	909.26
922.619	777.9
922.79	787.39
922.962	802.31
923.134	837.57
923.305	788.74
923.477	727.91
923.648	730.81
923.82	739.92
923.991	697.68
924.163	669.98
924.335	714.35
924.506	703.3
924.677	768.21
924.849	722.87
925.02	731.78
925.192	744.57
925.363	725
925.535	741.47
925.706	707.76
925.877	784.68
926.049	705.63
926.22	739.15
926.391	727.71
926.562	764.91
926.734	708.53
926.905	765.5
927.076	627.35
927.247	691.1
927.419	607.59
927.59	631.81
927.761	571.36
927.932	578.34
928.103	569.04
928.274	523.12
928.445	519.63
928.616	534.16
928.787	506.46
928.958	547.34
929.129	500.64
929.3	503.94
929.471	417.14
929.642	379.55
929.813	337.9
929.984	429.54
930.155	330.73
930.326	374.13
930.496	336.93
930.667	277.83
930.838	340.41
931.009	277.64
931.18	263.5
931.35	270.86
931.521	266.01
931.692	214.28
931.863	164.88
932.033	205.37
932.204	204.98
932.374	195.88
932.545	156.35
932.716	213.9
932.886	194.13
933.057	110.82
933.227	155.58
933.398	218.16
933.568	95.32
933.739	87.38
933.909	83.89
934.08	163.91
934.25	55.99
934.421	75.95
934.591	111.02
934.761	119.93
934.932	56.77
935.102	121.67
935.272	94.35
935.443	93.58
935.613	83.7
935.783	98.04
935.953	79.24
936.123	227.27
936.294	92.61
936.464	95.9
936.634	91.84
936.804	83.31
936.974	55.41
937.144	124.58
937.314	88.93
937.484	87.38
937.655	76.34
937.825	104.04
937.995	79.63
938.165	137.95
938.334	115.47
938.504	138.53
938.674	147.25
938.844	172.05
939.014	204.02
939.184	190.84
939.354	268.73
939.524	262.72
939.694	211.38
939.863	179.8
940.033	235.79
940.203	225.33
940.373	204.98
940.542	224.94
940.712	189.87
940.882	219.32
941.051	235.98
941.221	200.33
941.391	246.06
941.56	161
941.73	145.89
941.899	332.66
942.069	167.79
942.238	182.7
942.408	147.83
942.577	185.03
942.747	161
942.916	115.47
943.086	154.61
943.255	209.63
943.425	159.45
943.594	160.04
943.763	68.97
943.933	97.07
944.102	59.09
944.271	133.1
944.441	153.45
944.61	150.54
944.779	149.19
944.948	206.73
945.117	120.32
945.287	110.05
945.456	80.21
945.625	112.37
945.794	137.95
945.963	96.29
946.132	157.13
946.301	118.57
946.47	182.32
946.639	58.12
946.808	135.24
946.977	143.37
947.146	182.9
947.315	105.2
947.484	172.63
947.653	135.43
947.822	108.11
947.991	100.75
948.16	225.91
948.329	163.33
948.498	135.62
948.666	136.4
948.835	185.03
949.004	86.99
949.173	94.16
949.341	141.05
949.51	131.94
949.679	170.89
949.847	151.12
950.016	210.99
950.185	198.59
950.353	122.84
950.522	163.72
950.69	186.38
950.859	142.4
951.028	185.22
951.196	203.05
951.365	111.21
951.533	139.11
951.701	171.27
951.87	177.47
952.038	91.84
952.207	116.44
952.375	185.8
952.543	99.78
952.712	127.87
952.88	86.22
953.048	203.05
953.217	159.84
953.385	127.68
953.553	174.95
953.721	107.53
953.89	142.99
954.058	98.62
954.226	107.92
954.394	143.76
954.562	104.24
954.73	127.49
954.898	138.92
955.067	167.01
955.235	106.75
955.403	169.53
955.571	205.57
955.739	129.23
955.907	100.75
956.075	127.1
956.243	106.95
956.41	153.06
956.578	99.39
956.746	87.19
956.914	134.46
957.082	181.93
957.25	190.26
957.418	101.72
957.585	166.62
957.753	191.62
957.921	143.18
958.089	126.9
958.256	163.91
958.424	186.77
958.592	142.99
958.759	95.52
958.927	165.85
959.095	117.22
959.262	134.85
959.43	162.55
959.597	104.24
959.765	148.8
959.932	88.35
960.1	160.23
960.267	165.46
960.435	140.85
960.602	170.3
960.77	110.63
960.937	105.98
961.104	149.96
961.272	101.14
961.439	171.66
961.606	177.67
961.774	171.27
961.941	131.75
962.108	161.59
962.275	134.07
962.443	203.05
962.61	171.47
962.777	240.63
962.944	201.88
963.111	185.61
963.278	191.42
963.446	186.19
963.613	179.8
963.78	173.21
963.947	192.39
964.114	165.46
964.281	262.91
964.448	216.22
964.615	164.49
964.782	174.76
964.949	203.82
965.116	184.45
965.282	214.67
965.449	186.19
965.616	132.33
965.783	198.4
965.95	179.99
966.117	108.69
966.283	150.74
966.45	188.52
966.617	157.13
966.784	235.98
966.95	227.27
967.117	209.25
967.284	188.9
967.45	179.6
967.617	252.84
967.784	221.45
967.95	253.42
968.117	213.9
968.283	245.67
968.45	323.56
968.616	205.57
968.783	249.93
968.949	221.45
969.116	256.52
969.282	223.97
969.449	227.27
969.615	237.34
969.781	176.89
969.948	201.69
970.114	190.07
970.28	292.36
970.447	204.02
970.613	286.16
970.779	226.3
970.945	238.7
971.112	242.38
971.278	227.85
971.444	241.99
971.61	259.62
971.776	204.21
971.942	244.51
972.108	271.83
972.275	205.37
972.441	236.95
972.607	287.52
972.773	179.41
972.939	229.2
973.105	207.89
973.271	162.36
973.437	198.78
973.602	173.4
973.768	208.28
973.934	164.88
974.1	220.29
974.266	132.33
974.432	194.52
974.598	182.9
974.763	206.34
974.929	168.37
975.095	256.52
975.261	143.37
975.426	139.69
975.592	181.73
975.758	248.77
975.923	116.44
976.089	141.05
976.255	203.82
976.42	178.44
976.586	219.52
976.751	204.21
976.917	246.25
977.082	181.73
977.248	127.68
977.413	128.26
977.579	180.57
977.744	194.33
977.91	137.75
978.075	169.72
978.24	195.3
978.406	179.6
978.571	156.94
978.736	157.13
978.902	198.78
979.067	145.5
979.232	149.38
979.397	184.25
979.563	219.52
979.728	152.09
979.893	176.5
980.058	166.04
980.223	199.95
980.388	172.63
980.554	181.15
980.719	188.71
980.884	166.62
981.049	237.15
981.214	168.37
981.379	190.07
981.544	170.11
981.709	162.17
981.874	169.34
982.039	170.69
982.204	200.92
982.368	214.28
982.533	167.79
982.698	213.51
982.863	240.05
983.028	179.02
983.193	197.43
983.357	164.88
983.522	185.42
983.687	176.89
983.852	174.37
984.016	179.6
984.181	197.43
984.346	169.53
984.51	207.31
984.675	162.75
984.839	196.85
985.004	196.85
985.168	214.09
985.333	193.55
985.498	173.21
985.662	215.83
985.827	181.93
985.991	179.22
986.155	174.37
986.32	212.35
986.484	234.82
986.649	190.84
986.813	135.24
986.977	173.4
987.142	211.18
987.306	121.48
987.47	139.89
987.634	183.48
987.799	178.44
987.963	182.12
988.127	208.08
988.291	239.86
988.455	205.37
988.62	195.88
988.784	183.28
988.948	191.03
989.112	167.59
989.276	176.7
989.44	185.03
989.604	124
989.768	155.19
989.932	251.87
990.096	118.96
990.26	161.97
990.424	126.13
990.588	154.22
990.752	233.66
990.915	180.57
991.079	168.17
991.243	168.56
991.407	211.38
991.571	147.05
991.734	173.6
991.898	165.85
992.062	252.07
992.226	184.06
992.389	123.8
992.553	106.37
992.717	144.73
992.88	133.49
993.044	150.35
993.207	142.6
993.371	191.03
993.535	155.39
993.698	154.42
993.862	189.1
994.025	176.31
994.189	167.2
994.352	162.94
994.515	166.24
994.679	180.38
994.842	144.73
995.006	198.01
995.169	134.85
995.332	129.62
995.496	183.28
995.659	103.65
995.822	142.02
995.985	143.37
996.149	170.69
996.312	144.54
996.475	203.24
996.638	127.87
996.801	177.08
996.964	204.21
997.128	153.64
997.291	145.7
997.454	171.47
997.617	70.72
997.78	168.37
997.943	149.19
998.106	168.75
998.269	121.87
998.432	135.04
998.595	113.73
998.758	89.9
998.92	95.52
999.083	92.42
999.246	115.47
999.409	97.84
999.572	73.82
999.735	98.62
999.897	150.35
1000.06	133.3
1000.223	99.59
1000.386	127.29
1000.548	176.31
1000.711	124.77
1000.874	116.44
1001.036	95.71
1001.199	181.93
1001.361	109.66
1001.524	137.17
1001.687	169.53
1001.849	109.85
1002.012	125.55
1002.174	116.05
1002.337	145.7
1002.499	105.98
1002.661	151.32
1002.824	78.86
1002.986	100.55
1003.149	128.45
1003.311	94.94
1003.473	157.32
1003.636	94.94
1003.798	153.84
1003.96	131.75
1004.123	119.15
1004.285	81.96
1004.447	126.13
1004.609	119.54
1004.771	163.91
1004.933	71.3
1005.096	90.87
1005.258	50.57
1005.42	83.31
1005.582	149.77
1005.744	123.03
1005.906	67.04
1006.068	95.71
1006.23	82.34
1006.392	20.92
1006.554	65.68
1006.716	147.44
1006.878	125.55
1007.04	58.9
1007.202	64.71
1007.363	105.59
1007.525	102.49
1007.687	120.51
1007.849	148.41
1008.011	32.55
1008.172	57.54
1008.334	58.9
1008.496	123.22
1008.658	50.18
1008.819	60.06
1008.981	58.71
1009.143	69.56
1009.304	88.93
1009.466	104.82
1009.627	106.17
1009.789	181.54
1009.95	124.97
1010.112	91.06
1010.273	102.88
1010.435	64.91
1010.596	72.46
1010.758	48.82
1010.919	55.41
1011.081	32.94
1011.242	68.78
1011.403	93.39
1011.565	102.69
1011.726	95.32
1011.887	57.16
1012.049	69.94
1012.21	110.24
1012.371	116.05
1012.532	14.34
1012.693	77.31
1012.855	62
1013.016	58.32
1013.177	107.34
1013.338	75.37
1013.499	140.47
1013.66	107.53
1013.821	94.74
1013.982	87.38
1014.143	62.19
1014.304	72.07
1014.465	73.62
1014.626	92.03
1014.787	61.22
1014.948	154.8
1015.109	-7.17
1015.27	93
1015.431	48.82
1015.592	21.7
1015.752	105.79
1015.913	80.41
1016.074	80.6
1016.235	54.06
1016.395	43.01
1016.556	66.26
1016.717	67.81
1016.877	119.74
1017.038	34.29
1017.199	77.11
1017.359	88.15
1017.52	51.73
1017.681	50.18
1017.841	79.44
1018.002	61.22
1018.162	59.09
1018.323	104.43
1018.483	65.49
1018.644	44.37
1018.804	14.53
1018.964	40.3
1019.125	41.07
1019.285	49.02
1019.446	41.46
1019.606	55.61
1019.766	2.71
1019.926	86.02
1020.087	80.02
1020.247	13.56
1020.407	60.64
1020.567	86.02
1020.728	59.48
1020.888	34.87
1021.048	47.47
1021.208	17.44
1021.368	46.89
1021.528	105.79
1021.688	83.89
1021.848	92.61
1022.008	73.43
1022.168	37.39
1022.328	68.39
1022.488	62.58
1022.648	40.69
1022.808	41.27
1022.968	66.84
1023.128	25.19
1023.288	9.3
1023.448	51.34
1023.608	69.56
1023.767	45.53
1023.927	23.25
1024.087	8.91
1024.247	22.47
1024.406	36.04
1024.566	6.97
1024.726	31.77
1024.885	26.16
1025.045	69.75
1025.205	30.22
1025.364	42.43
1025.524	49.99
1025.683	39.33
1025.843	43.79
1026.003	37.39
1026.162	103.07
1026.321	90.48
1026.481	50.96
1026.64	21.89
1026.8	50.37
1026.959	48.63
1027.119	53.09
1027.278	44.95
1027.437	39.14
1027.597	18.6
1027.756	42.62
1027.915	73.82
1028.074	55.61
1028.234	18.79
1028.393	45.72
1028.552	45.14
1028.711	-32.74
1028.87	74.21
1029.03	12.21
1029.189	30.22
1029.348	-12.79
1029.507	14.72
1029.666	21.7
1029.825	13.95
1029.984	13.76
1030.143	46.11
1030.302	27.51
1030.461	-24.61
1030.62	32.94
1030.779	59.48
1030.938	4.65
1031.097	-12.98
1031.255	49.02
1031.414	93
1031.573	77.11
1031.732	-9.69
1031.891	55.8
1032.049	61.42
1032.208	46.31
1032.367	1.94
1032.525	21.89
1032.684	14.72
1032.843	57.35
1033.001	-1.94
1033.16	154.42
1033.319	64.91
1033.477	47.27
1033.636	-1.36
1033.794	-7.56
1033.953	48.24
1034.111	45.14
1034.27	17.82
1034.428	60.06
1034.587	8.14
1034.745	21.12
1034.903	18.79
1035.062	34.87
1035.22	5.04
1035.378	54.83
1035.537	-7.75
1035.695	56.57
1035.853	30.03
1036.011	37.78
1036.17	27.9
1036.328	-9.88
1036.486	54.25
1036.644	36.04
1036.802	-36.04
1036.96	-11.04
1037.119	-5.62
1037.277	1.74
1037.435	-36.42
1037.593	-3.29
1037.751	55.41
1037.909	48.05
1038.067	48.05
