Data from calibration3_FLMT105791__8__17-25-36-069.txt Node

Date: Mon Mar 20 17:25:36 GMT 2023
User: antho
Spectrometer: FLMT10579
Trigger mode: 0
Integration Time (sec): 1.000000E-1
Scans to average: 10
Electric dark correction enabled: true
Nonlinearity correction enabled: false
Boxcar width: 0
XAxis mode: Wavelengths
Number of Pixels in Spectrum: 3648
>>>>>Begin Spectral Data<<<<<
345.248	-174.58
345.464	-174.58
345.681	-174.58
345.898	-170.9
346.114	-140.1
346.331	-37.22
346.548	28.08
346.764	5.6
346.981	6.96
347.197	-49.23
347.414	0.18
347.631	-20.36
347.847	52.88
348.064	10.25
348.28	42.8
348.497	-32.95
348.713	-6.99
348.93	39.31
349.146	81.94
349.363	116.04
349.579	132.7
349.796	121.46
350.012	94.73
350.229	157.11
350.445	166.99
350.661	94.73
350.878	136.77
351.094	137.54
351.311	149.56
351.527	144.71
351.743	121.85
351.96	165.06
352.176	175.33
352.392	161.57
352.609	175.13
352.825	127.66
353.041	166.41
353.257	113.52
353.474	148.78
353.69	188.89
353.906	191.41
354.122	114.29
354.339	224.15
354.555	200.9
354.771	149.75
354.987	255.15
355.203	264.64
355.42	195.86
355.636	203.03
355.852	173.78
356.068	203.03
356.284	151.88
356.5	243.72
356.716	210.2
356.932	182.3
357.148	213.11
357.364	181.91
357.58	217.56
357.796	227.44
358.012	231.12
358.228	219.69
358.444	123.79
358.66	214.07
358.876	204.39
359.092	165.25
359.308	204.19
359.524	230.16
359.74	224.92
359.956	250.31
360.172	228.8
360.388	303.78
360.604	262.71
360.819	309.98
361.035	244.3
361.251	263.87
361.467	212.33
361.683	266.58
361.898	263.29
362.114	290.41
362.33	259.8
362.546	304.75
362.762	270.65
362.977	309.59
363.193	274.33
363.409	371.01
363.624	257.67
363.84	295.06
364.056	313.08
364.271	316.95
364.487	332.65
364.703	324.9
364.918	318.12
365.134	319.67
365.35	321.02
365.565	443.67
365.781	392.9
365.996	389.22
366.212	481.83
366.427	432.43
366.643	382.44
366.858	441.34
367.074	408.4
367.289	465.95
367.505	520.58
367.72	381.28
367.936	400.27
368.151	483
368.367	426.81
368.582	440.18
368.798	405.69
369.013	459.36
369.228	475.63
369.444	434.37
369.659	474.86
369.874	457.61
370.09	531.05
370.305	427.97
370.52	461.3
370.736	507.8
370.951	440.57
371.166	526.4
371.381	518.84
371.597	477.38
371.812	452
372.027	456.84
372.242	472.34
372.458	507.8
372.673	400.65
372.888	434.56
373.103	462.26
373.318	496.17
373.533	461.49
373.749	448.51
373.964	352.99
374.179	433.78
374.394	391.93
374.609	448.31
374.824	389.42
375.039	474.47
375.254	373.92
375.469	508.57
375.684	477.76
375.899	531.43
376.114	546.35
376.329	539.57
376.544	555.84
376.759	529.11
376.974	495.78
377.189	508.18
377.404	536.86
377.619	597.11
377.834	538.21
378.049	595.18
378.264	628.5
378.478	692.44
378.693	646.32
378.908	671.12
379.123	624.43
379.338	675.97
379.553	607.19
379.767	620.94
379.982	584.13
380.197	585.49
380.412	598.28
380.626	662.21
380.841	710.26
381.056	729.25
381.271	746.1
381.485	663.37
381.7	627.53
381.915	640.32
382.129	584.91
382.344	568.83
382.559	564.56
382.773	571.54
382.988	457.81
383.202	496.56
383.417	450.06
383.632	540.34
383.846	495.59
384.061	518.84
384.275	479.9
384.49	582.58
384.704	643.03
384.919	691.08
385.133	742.42
385.348	771.49
385.562	702.32
385.777	737.19
385.991	687.79
386.206	701.54
386.42	688.56
386.634	761.22
386.849	754.82
387.063	749.01
387.277	732.35
387.492	739.71
387.706	708.71
387.92	727.7
388.135	796.67
388.349	813.14
388.563	799.38
388.778	776.14
388.992	775.94
389.206	829.22
389.42	910.98
389.635	832.13
389.849	972.21
390.063	1001.27
390.277	1020.84
390.491	1076.83
390.706	1031.69
390.92	1050.29
391.134	1036.92
391.348	1122.94
391.562	1069.86
391.776	1196.37
391.99	1145.03
392.205	1167.31
392.419	1066.95
392.633	1039.44
392.847	1012.7
393.061	859.06
393.275	882.11
393.489	672.87
393.703	588.01
393.917	609.32
394.131	619.01
394.345	739.52
394.559	882.5
394.773	977.44
394.986	1095.62
395.2	1158.01
395.414	1264.77
395.628	1233.57
395.842	1324.25
396.056	1270.58
396.27	1171.38
396.484	1193.47
396.697	1039.83
396.911	909.43
397.125	761.99
397.339	792.8
397.553	810.04
397.766	986.54
397.98	1146
398.194	1350.21
398.408	1415.11
398.621	1556.36
398.835	1643.15
399.049	1681.13
399.262	1760.56
399.476	1794.28
399.69	1833.8
399.903	1880.69
400.117	1817.72
400.331	1891.93
400.544	1874.1
400.758	2020.96
400.971	1913.04
401.185	1971.94
401.398	1952.18
401.612	2079.86
401.826	2056.03
402.039	2097.49
402.253	2102.92
402.466	2172.67
402.68	2183.13
402.893	2263.15
403.106	2150
403.32	2122.48
403.533	2119
403.747	2112.22
403.96	2174.41
404.174	2194.56
404.387	2189.52
404.6	2176.73
404.814	2231.18
405.027	2153.48
405.24	2146.12
405.454	2179.64
405.667	2280.78
405.88	2209.48
406.094	2253.26
406.307	2278.84
406.52	2177.51
406.733	2120.55
406.947	2157.94
407.16	2243
407.373	2318.17
407.586	2287.75
407.799	2273.8
408.012	2299.76
408.226	2308.09
408.439	2476.46
408.652	2442.17
408.865	2574.69
409.078	2603.95
409.291	2626.62
409.504	2567.91
409.717	2643.28
409.93	2579.73
410.143	2451.86
410.357	2310.61
410.57	2217.23
410.783	2292.59
410.996	2350.33
411.209	2493.12
411.421	2672.92
411.634	2736.28
411.847	2757.59
412.06	2805.64
412.273	2825.79
412.486	2837.22
412.699	2870.16
412.912	2865.89
413.125	2844.39
413.338	2812.81
413.55	2758.75
413.763	2721.94
413.976	2818.04
414.189	2779.87
414.402	2836.06
414.615	2976.14
414.827	2848.07
415.04	2881.78
415.253	2943
415.466	2966.06
415.678	3004.62
415.891	2949.4
416.104	2891.08
416.316	2923.82
416.529	3014.3
416.742	3148.76
416.954	3152.06
417.167	3096.06
417.38	3045.69
417.592	2992.22
417.805	2905.8
418.017	2914.14
418.23	2976.72
418.442	2974.97
418.655	2991.83
418.868	2966.25
419.08	3015.08
419.293	3114.86
419.505	3102.46
419.718	3091.22
419.93	3107.69
420.142	3060.42
420.355	3054.8
420.567	3013.53
420.78	3137.53
420.992	3126.29
421.205	3296.01
421.417	3381.07
421.629	3422.53
421.842	3345.42
422.054	3354.33
422.266	3383.2
422.479	3384.55
422.691	3186.74
422.903	3203.21
423.115	3111.18
423.328	3093.35
423.54	3152.06
423.752	3218.9
423.964	3307.64
424.177	3331.27
424.389	3272.76
424.601	3461.86
424.813	3448.68
425.025	3443.45
425.238	3466.7
425.45	3399.28
425.662	3361.89
425.874	3687.19
426.086	3417.3
426.298	3483.56
426.51	3434.73
426.722	3479.88
426.934	3492.86
427.146	3443.45
427.358	3464.96
427.57	3373.51
427.782	3316.16
427.994	3360.14
428.206	3335.34
428.418	3583.34
428.63	3638.75
428.842	3642.04
429.054	3534.51
429.266	3472.13
429.478	3411.29
429.69	3301.05
429.902	3278.96
430.114	3307.64
430.325	3081.34
430.537	2903.29
430.749	2788.01
430.961	2678.54
431.173	2728.33
431.384	2791.49
431.596	2940.49
431.808	3354.91
432.02	3761.01
432.231	4021.98
432.443	4236.07
432.655	4028.38
432.867	3962.11
433.078	4002.03
433.29	4091.73
433.502	4207.79
433.713	4221.15
433.925	4336.24
434.136	4170.2
434.348	3902.83
434.56	3816.8
434.771	4030.31
434.983	3941.38
435.194	4159.74
435.406	4370.34
435.617	4416.26
435.829	4500.73
436.04	4549.75
436.252	4494.34
436.463	4719.86
436.675	4853.16
436.886	4913.61
437.098	4966.31
437.309	4975.99
437.521	4826.61
437.732	4673.75
437.943	4697.97
438.155	4597.8
438.366	4568.16
438.578	4659.02
438.789	4422.26
439	4371.7
439.211	4446.87
439.423	4454.43
439.634	4690.99
439.845	4827.58
440.057	4832.43
440.268	5040.12
440.479	4955.46
440.69	4992.66
440.902	4828.55
441.113	4870.79
441.324	4979.87
441.535	5165.48
441.746	5318.15
441.957	5217.02
442.168	5364.46
442.38	5419.68
442.591	5486.13
442.802	5374.92
443.013	5522.55
443.224	5617.49
443.435	5533.99
443.646	5471.99
443.857	5441.18
444.068	5506.86
444.279	5515.39
444.49	5791.86
444.701	5565.95
444.912	5839.33
445.123	5841.27
445.334	5660.12
445.545	5723.47
445.756	5582.23
445.967	5513.84
446.178	5414.44
446.388	5370.66
446.599	5398.36
446.81	5531.08
447.021	5512.29
447.232	5648.88
447.443	5812.59
447.653	5964.3
447.864	6048.58
448.075	6084.03
448.286	6046.06
448.496	5997.43
448.707	6027.65
448.918	5917.99
449.129	6033.85
449.339	5994.14
449.55	6125.3
449.761	6048.38
449.971	6015.25
450.182	6236.9
450.393	6253.76
450.603	6166.96
450.814	6494.39
451.024	6454.67
451.235	6723.98
451.446	6663.53
451.656	6596.69
451.867	6504.08
452.077	6347.53
452.288	6483.93
452.498	6402.55
452.709	6382.79
452.919	6221.01
453.13	6117.17
453.34	6034.82
453.55	5816.28
453.761	6192.34
453.971	6116.58
454.182	6233.41
454.392	6316.53
454.602	6587.78
454.813	6582.16
455.023	6457.77
455.233	6337.07
455.444	6461.45
455.654	6205.32
455.864	6449.05
456.075	6564.14
456.285	6452.15
456.495	6595.91
456.705	6605.6
456.916	6856.89
457.126	6878.98
457.336	6718.17
457.546	6631.95
457.756	6761.37
457.967	6934
458.177	6684.26
458.387	6711.97
458.597	6606.18
458.807	6741.61
459.017	6566.08
459.227	6581
459.437	6616.65
459.647	6748.59
459.857	6794.89
460.068	6867.16
460.278	6869.87
460.488	6866.19
460.698	6908.82
460.908	6970.04
461.117	7080.86
461.327	7152.16
461.537	7258.14
461.747	7242.64
461.957	7205.44
462.167	7386.79
462.377	7275.97
462.587	7289.72
462.797	7436.58
463.007	7356.95
463.216	7524.93
463.426	7743.48
463.636	7496.84
463.846	7342.81
464.056	7339.13
464.265	7278.87
464.475	7357.15
464.685	7480.56
464.895	7427.67
465.104	7323.44
465.314	7556.9
465.524	7396.09
465.733	7392.02
465.943	7638.86
466.153	7785.91
466.362	7812.26
466.572	7839
466.782	7640.79
466.991	7756.27
467.201	7711.51
467.41	7487.15
467.62	7769.83
467.829	7788.43
468.039	7979.85
468.249	7901.96
468.458	8065.49
468.668	7952.15
468.877	8141.63
469.086	8241.41
469.296	8437.48
469.505	8525.44
469.715	8399.89
469.924	8277.06
470.134	8444.26
470.343	8198.79
470.552	8242.38
470.762	8186
470.971	8362.89
471.18	8416.75
471.39	8513.62
471.599	8435.74
471.808	8592.87
472.018	8819.36
472.227	9022.21
472.436	9259.55
472.645	9277.76
472.855	9233.01
473.064	9496.5
473.273	9492.44
473.482	9247.93
473.691	9420.56
473.901	9323.49
474.11	9196.78
474.319	9554.24
474.528	9497.28
474.737	10000.44
474.946	9798.36
475.155	9987.65
475.364	10119.79
475.573	9872.18
475.783	10249.41
475.992	10044.62
476.201	10055.66
476.41	10167.84
476.619	10033.18
476.828	10020.2
477.037	10006.25
477.245	10097.51
477.454	10283.51
477.663	10518.13
477.872	10825.22
478.081	10979.25
478.29	10860.48
478.499	11113.13
478.708	11310.75
478.917	11278.59
479.125	11012.19
479.334	11097.63
479.543	11375.08
479.752	11497.33
479.961	11457.61
480.169	11720.53
480.378	11904.59
480.587	12135.73
480.796	11993.32
481.004	11949.15
481.213	12121.59
481.422	12180.48
481.63	12488.74
481.839	12519.74
482.048	12700.11
482.256	12598.4
482.465	12949.85
482.674	12863.64
482.882	12933
483.091	12940.94
483.299	12751.26
483.508	13121.9
483.716	13341.03
483.925	13307.51
484.134	12931.26
484.342	13177.7
484.551	13209.48
484.759	13093.03
484.967	13583.41
485.176	13476.07
485.384	13503.2
485.593	13336.96
485.801	13221.29
486.01	12691.01
486.218	12046.8
486.426	11612.03
486.635	11355.7
486.843	11462.26
487.051	11909.04
487.26	12063.27
487.468	12382.76
487.676	12796.41
487.885	13205.6
488.093	13536.33
488.301	13906.77
488.509	13884.3
488.717	14163.49
488.926	14157.48
489.134	13991.83
489.342	14015.27
489.55	13968.19
489.758	14276.64
489.967	14708.5
490.175	14645.53
490.383	15213.02
490.591	15519.72
490.799	15356.78
491.007	15209.34
491.215	15276.76
491.423	15139.78
491.631	15177.75
491.839	15044.26
492.047	14962.31
492.255	14628.09
492.463	14681.96
492.671	14445.2
492.879	14943.32
493.087	15052.98
493.295	15206.82
493.503	15443.77
493.711	15876.79
493.919	15690.41
494.127	15721.8
494.334	15766.16
494.542	15735.55
494.75	16099.8
494.958	15987.62
495.166	16445.25
495.374	16523.52
495.581	16545.22
495.789	16514.42
495.997	16585.72
496.205	15922.91
496.412	16242.4
496.62	16622.14
496.828	16369.3
497.035	16584.17
497.243	16699.44
497.451	16725.02
497.658	16676.58
497.866	16685.5
498.074	16806.01
498.281	16495.04
498.489	16550.07
498.696	16241.43
498.904	16138.35
499.112	16158.12
499.319	16481.67
499.527	16655.66
499.734	16772.29
499.942	16692.86
500.149	16690.73
500.357	16675.42
500.564	16426.26
500.771	16277.27
500.979	16142.42
501.186	16008.35
501.394	16403.59
501.601	15847.15
501.808	15944.61
502.016	16044
502.223	15932.21
502.43	16081.97
502.638	16091.66
502.845	16420.45
503.052	16570.8
503.26	16550.45
503.467	16775.01
503.674	16813.37
503.881	16708.55
504.089	16513.25
504.296	16473.73
504.503	16346.24
504.71	16179.81
504.917	16456.68
505.125	16645.78
505.332	16846.5
505.539	16896.68
505.746	17314.79
505.953	17478.12
506.16	17487.03
506.367	17560.85
506.574	17848.56
506.781	17789.08
506.988	17626.72
507.195	17472.3
507.402	17470.75
507.609	17493.03
507.816	17238.26
508.023	17225.47
508.23	17047.22
508.437	16822.09
508.644	17058.65
508.851	17201.64
509.058	17615.29
509.265	17588.74
509.472	17762.15
509.679	17890.8
509.885	17844.88
510.092	17778.23
510.299	17765.05
510.506	17439.37
510.713	17523.65
510.92	17517.64
511.126	17719.14
511.333	17819.3
511.54	17972.17
511.746	17995.03
511.953	18100.62
512.16	18308.13
512.367	18128.72
512.573	18000.46
512.78	17992.51
512.987	17836.93
513.193	17617.81
513.4	17378.72
513.606	17480.05
513.813	17588.16
514.02	17383.37
514.226	17471.53
514.433	17528.88
514.639	17298.12
514.846	17385.7
515.052	17328.74
515.259	17515.7
515.465	17613.93
515.672	17638.93
515.878	17715.26
516.085	17852.82
516.291	17829.57
516.497	17743.55
516.704	17128.21
516.91	16720.56
517.117	16021.72
517.323	15672.2
517.529	15544.13
517.736	15488.91
517.942	15657.67
518.148	16125.37
518.354	16213.91
518.561	16200.93
518.767	16042.84
518.973	16168
519.179	16631.44
519.386	16789.34
519.592	16666.51
519.798	16848.63
520.004	17520.35
520.21	17505.05
520.417	17659.46
520.623	17733.28
520.829	17799.35
521.035	17778.81
521.241	17731.15
521.447	17837.32
521.653	18165.34
521.859	17965.78
522.065	18237.6
522.271	18295.73
522.477	18205.25
522.683	18445.69
522.889	18001.23
523.095	17770.67
523.301	17856.7
523.507	17758.08
523.713	17804
523.919	17842.17
524.125	18340.48
524.331	18420.31
524.537	18707.05
524.742	18810.71
524.948	18816.71
525.154	18856.63
525.36	18793.08
525.566	18518.54
525.772	18721
525.977	18594.49
526.183	18409.07
526.389	18506.72
526.595	17859.41
526.8	17696.08
527.006	17084.03
527.212	16702.35
527.417	16662.05
527.623	16695.18
527.829	17042.57
528.034	17397.32
528.24	17504.46
528.446	17908.43
528.651	18306.58
528.857	18407.52
529.062	18531.71
529.268	18751.23
529.473	18840.16
529.679	19135.82
529.884	19074.79
530.09	18826.4
530.295	18564.65
530.501	18810.51
530.706	18829.89
530.912	18919.59
531.117	19065.68
531.323	19012.98
531.528	19321.62
531.733	19321.04
531.939	19121.67
532.144	19086.41
532.35	19027.71
532.555	19010.46
532.76	18488.89
532.966	18305.61
533.171	18268.41
533.376	18020.8
533.581	18065.36
533.787	18340.1
533.992	18674.12
534.197	18374
534.402	18741.73
534.607	18711.32
534.813	18744.06
535.018	18749.87
535.223	19085.44
535.428	18998.64
535.633	19147.25
535.838	19457.24
536.043	19548.3
536.249	19738.76
536.454	19409.58
536.659	19449.3
536.864	19321.43
537.069	19010.27
537.274	19022.28
537.479	18930.64
537.684	18964.16
537.889	18877.75
538.094	19301.66
538.299	19084.67
538.504	19324.53
538.708	19274.35
538.913	19568.45
539.118	19462.86
539.323	19344.29
539.528	19181.54
539.733	18993.8
539.938	19040.11
540.142	18962.41
540.347	18826.01
540.552	18738.05
540.757	18394.35
540.962	18619.67
541.166	18421.08
541.371	18438.71
541.576	18482.69
541.781	18636.72
541.985	19094.55
542.19	18721.2
542.395	19292.75
542.599	19226.3
542.804	18952.53
543.008	19277.64
543.213	19157.32
543.418	18960.86
543.622	19200.92
543.827	18886.46
544.031	19192.97
544.236	19289.07
544.44	19531.06
544.645	19527.77
544.849	19493.86
545.054	19494.05
545.258	19626
545.463	19625.03
545.667	19263.69
545.872	19613.4
546.076	19509.94
546.281	19516.14
546.485	19387.49
546.689	19396.79
546.894	19433.8
547.098	19603.13
547.302	19521.37
547.507	19490.76
547.711	19500.45
547.915	19396.41
548.119	19230.37
548.324	19157.9
548.528	19261.75
548.732	19283.65
548.936	19509.55
549.141	19391.95
549.345	19572.72
549.549	19522.34
549.753	19763.75
549.957	19657.58
550.161	19790.88
550.366	19743.6
550.57	19588.41
550.774	19540.55
550.978	19669.01
551.182	19580.66
551.386	19322.01
551.59	19461.89
551.794	19442.91
551.998	19658.16
552.202	19574.46
552.406	19558.38
552.61	19834.08
552.814	19734.5
553.018	19561.09
553.222	19318.91
553.426	19398.34
553.63	19595.38
553.833	19584.92
554.037	19360.95
554.241	19433.22
554.445	19631.03
554.649	19567.49
554.853	19448.14
555.056	19696.33
555.26	19816.26
555.464	19640.53
555.668	19657.77
555.871	19601.97
556.075	19747.48
556.279	19518.85
556.483	19379.36
556.686	19241.41
556.89	19384.98
557.094	19281.9
557.297	18953.31
557.501	19114.89
557.704	18867.48
557.908	19034.87
558.112	19101.91
558.315	19152.28
558.519	19059.67
558.722	18810.9
558.926	18891.31
559.129	18393.38
559.333	18664.82
559.536	18572.98
559.74	18317.04
559.943	18256.79
560.147	18467.58
560.35	18350.37
560.553	18713.83
560.757	18610.57
560.96	18742.32
561.164	18754.13
561.367	18939.16
561.57	18943.43
561.774	18798.89
561.977	18665.4
562.18	18592.36
562.384	18725.27
562.587	18553.61
562.79	18872.32
562.993	18510.01
563.197	18558.45
563.4	18870.19
563.603	18773.32
563.806	18892.86
564.009	18786.88
564.212	18704.92
564.416	18576.27
564.619	18520.48
564.822	18382.14
565.025	18664.43
565.228	18542.17
565.431	18733.02
565.634	18375.55
565.837	18299.99
566.04	18206.22
566.243	17994.45
566.446	17918.89
566.649	18165.53
566.852	18017.51
567.055	18136.66
567.258	18133.95
567.461	18357.15
567.664	18403.26
567.867	18393.18
568.07	18175.02
568.273	18382.14
568.475	18453.44
568.678	17944.08
568.881	17956.67
569.084	17687.17
569.287	17467.65
569.489	17784.82
569.692	17871.03
569.895	17880.14
570.098	17646.09
570.3	17795.09
570.503	17588.36
570.706	17527.13
570.909	17459.32
571.111	17295.61
571.314	17137.31
571.516	17208.81
571.719	17365.94
571.922	17317.5
572.124	17356.05
572.327	17485.86
572.529	17536.63
572.732	17638.34
572.935	17735.61
573.137	17918.7
573.34	17690.07
573.542	17930.51
573.745	17827.44
573.947	17839.07
574.15	17726.69
574.352	17675.16
574.554	17907.85
574.757	17612.96
574.959	17388.99
575.162	17698.21
575.364	17298.12
575.566	17496.91
575.769	17180.91
575.971	17322.92
576.173	16881.18
576.376	17200.67
576.578	17351.02
576.78	17281.46
576.982	17227.21
577.185	17339.2
577.387	17349.27
577.589	17376.98
577.791	17365.94
577.993	17322.34
578.196	17368.65
578.398	17135.76
578.6	17113.48
578.802	17022.03
579.004	16977.28
579.206	17012.54
579.408	17286.5
579.61	17058.07
579.812	17395.39
580.014	17174.9
580.216	17236.71
580.418	17475.4
580.62	17406.43
580.822	17486.64
581.024	17589.91
581.226	17631.18
581.428	17589.91
581.63	17992.9
581.832	17636.99
582.034	17836.74
582.236	17870.26
582.438	18105.27
582.64	18059.55
582.841	18131.04
583.043	18303.87
583.245	18026.23
583.447	18223.65
583.649	18224.62
583.85	18176.96
584.052	18144.8
584.254	18052.38
584.456	18167.86
584.657	18024.09
584.859	18367.61
585.061	18057.23
585.262	18141.51
585.464	17919.28
585.666	17960.55
585.867	17690.27
586.069	17779.97
586.27	17628.85
586.472	17674.96
586.674	17658.88
586.875	17586.03
587.077	17738.12
587.278	17739.67
587.48	17691.82
587.681	17959
587.883	17800.12
588.084	17566.27
588.285	17589.71
588.487	17206.68
588.688	17178.39
588.89	16494.85
589.091	16173.61
589.292	15852.77
589.494	15487.36
589.695	15303.5
589.896	15086.11
590.098	15214.57
590.299	15274.63
590.5	15609.42
590.702	15786.31
590.903	16073.25
591.104	16288.7
591.305	16464.24
591.507	16452.8
591.708	16473.92
591.909	16495.82
592.11	16452.8
592.311	16609.35
592.512	16419.87
592.714	16383.44
592.915	16639
593.116	16485.74
593.317	16834.68
593.518	16692.66
593.719	16773.65
593.92	16813.56
594.121	16738.97
594.322	16714.94
594.523	16597.73
594.724	16397.59
594.925	16525.07
595.126	16206.55
595.327	16276.88
595.528	16473.73
595.729	16514.22
595.929	16558.4
596.13	16627.95
596.331	16830.42
596.532	16672.9
596.733	16945.89
596.934	16908.89
597.135	16944.54
597.335	16864.13
597.536	16800
597.737	16790.12
597.938	16688.98
598.138	16746.53
598.339	16842.04
598.54	16834.68
598.74	16599.08
598.941	16628.73
599.142	16853.86
599.342	16830.22
599.543	16779.27
599.744	16795.93
599.944	16914.89
600.145	16925.55
600.345	16938.92
600.546	16843.79
600.746	16980.57
600.947	17052.84
601.147	16699.44
601.348	17018.74
601.548	16854.64
601.749	16773.65
601.949	16624.46
602.15	16666.12
602.35	16500.47
602.551	16565.57
602.751	16656.24
602.951	16714.75
603.152	16672.71
603.352	16789.73
603.552	16733.93
603.753	16998.59
603.953	17145.45
604.153	17025.33
604.354	17113.29
604.554	16965.65
604.754	17096.43
604.954	17050.51
605.155	17215.01
605.355	17010.8
605.555	16994.72
605.755	17054
605.955	16949.38
606.155	16994.72
606.356	16961.78
606.556	16915.67
606.756	16968.56
606.956	16919.35
607.156	17031.53
607.356	16888.74
607.556	16989.29
607.756	16967.2
607.956	17045.09
608.156	16973.6
608.356	16717.08
608.556	16955.77
608.756	16720.95
608.956	16782.95
609.156	16709.91
609.356	16699.25
609.556	16533.6
609.755	16646.94
609.955	16607.03
610.155	16535.15
610.355	16596.76
610.555	16415.61
610.755	16293.16
610.954	16367.17
611.154	16566.15
611.354	16522.36
611.554	16419.87
611.753	16593.47
611.953	16467.34
612.153	16548.52
612.352	16389.06
612.552	16282.5
612.752	16247.63
612.951	16570.02
613.151	16248.98
613.351	16338.49
613.55	16343.34
613.75	16343.53
613.949	16086.43
614.149	16121.3
614.348	16095.15
614.548	16125.37
614.747	16111.23
614.947	16232.71
615.146	16095.73
615.346	16306.53
615.545	16235.23
615.745	16194.54
615.944	16121.11
616.144	16092.24
616.343	15844.83
616.542	15938.6
616.742	15683.82
616.941	15730.13
617.14	15594.31
617.34	15805.3
617.539	15710.17
617.738	15775.66
617.938	15959.91
618.137	15906.83
618.336	15964.37
618.535	16124.21
618.734	16121.11
618.934	15888.03
619.133	16092.05
619.332	16252.86
619.531	15898.88
619.73	16217.98
619.929	16132.54
620.128	16207.13
620.328	16157.34
620.527	16178.07
620.726	16267.78
620.925	16155.98
621.124	16366.78
621.323	16107.55
621.522	15929.49
621.721	16128.28
621.92	15908.57
622.119	15990.91
622.318	15794.84
622.517	15870.98
622.715	15785.15
622.914	15714.24
623.113	15832.81
623.312	15336.82
623.511	15697.97
623.71	15539.87
623.909	15468.57
624.107	15649.92
624.306	15465.28
624.505	15354.45
624.704	15346.31
624.902	15188.6
625.101	15348.25
625.3	15167.29
625.499	15176.79
625.697	15188.22
625.896	14964.63
626.095	14932.47
626.293	14857.3
626.492	15157.6
626.69	15058.79
626.889	15286.45
627.088	15165.94
627.286	15243.82
627.485	14930.92
627.683	14746.67
627.882	14538.19
628.08	14363.82
628.279	14197.2
628.477	14297.95
628.676	14124.54
628.874	14299.3
629.073	14204.76
629.271	14272.76
629.469	14378.16
629.668	14369.63
629.866	14241.57
630.065	14189.06
630.263	14321.97
630.461	14252.8
630.66	14363.05
630.858	14253.39
631.056	14487.82
631.254	14582.18
631.453	14440.35
631.651	14445.39
631.849	14332.24
632.047	14308.41
632.245	14336.7
632.444	14334.95
632.642	14550.21
632.84	14718.38
633.038	14591.48
633.236	14441.13
633.434	14720.9
633.632	14781.73
633.83	14507
634.028	14872.41
634.227	14667.81
634.425	14904.38
634.623	14639.72
634.821	14788.13
635.019	14774.18
635.216	14851.68
635.414	14987.49
635.612	14815.45
635.81	14739.11
636.008	14921.62
636.206	14861.75
636.404	14767.4
636.602	14775.53
636.8	14648.24
636.997	14829.2
637.195	14837.73
637.393	14815.25
637.591	15006.48
637.789	14915.42
637.986	15006.68
638.184	14980.33
638.382	15043.49
638.58	14934.99
638.777	15203.33
638.975	14977.81
639.173	15026.63
639.37	15014.04
639.568	15030.31
639.765	14965.79
639.963	14905.73
640.161	14648.44
640.358	15026.44
640.556	14648.05
640.753	14745.89
640.951	14638.94
641.148	14790.45
641.346	14806.53
641.543	14682.54
641.741	14728.84
641.938	14556.6
642.136	14751.51
642.333	14504.48
642.531	14809.25
642.728	14686.8
642.925	14753.25
643.123	14782.12
643.32	14749.19
643.517	14559.7
643.715	14599.61
643.912	14769.72
644.109	14722.25
644.306	14658.9
644.504	14581.01
644.701	14712.37
644.898	14711.02
645.095	14574.81
645.293	14638.56
645.49	14525.99
645.687	14467.86
645.884	14519.4
646.081	14250.29
646.278	14234.4
646.475	14171.62
646.672	14148.76
646.87	14004.23
647.067	13964.7
647.264	13987.18
647.461	13850.78
647.658	13656.26
647.855	13809.12
648.052	13639.21
648.249	13516.76
648.446	13602.98
648.642	13791.49
648.839	13415.62
649.036	13569.65
649.233	13546.79
649.43	13517.53
649.627	13272.06
649.824	13344.13
650.021	13274.19
650.217	13455.73
650.414	13650.64
650.611	13575.46
650.808	13854.46
651.004	13748.09
651.201	13799.63
651.398	14001.9
651.595	13699.66
651.791	13539.23
651.988	13715.54
652.185	13452.24
652.381	13757.39
652.578	13535.75
652.775	13707.02
652.971	13825.98
653.168	13622.16
653.364	13964.7
653.561	13649.48
653.757	13750.81
653.954	13966.25
654.15	13665.17
654.347	13876.35
654.543	13826.37
654.74	13566.75
654.936	13625.06
655.133	13444.69
655.329	13472.39
655.525	13178.67
655.722	13171.7
655.918	12880.88
656.115	12412.01
656.311	12141.15
656.507	11698.83
656.704	11614.55
656.9	11766.83
657.096	12027.42
657.292	11965.62
657.489	12189.98
657.685	12367.45
657.881	12484.28
658.077	12611.57
658.273	12930.09
658.47	13150.77
658.666	13100.2
658.862	13305.19
659.058	13354.01
659.254	13368.16
659.45	13487.7
659.646	13348.01
659.842	13413.3
660.038	13619.64
660.234	13349.17
660.43	13524.32
660.626	13642.11
660.822	13608.79
661.018	13655.87
661.214	13614.41
661.41	13521.02
661.606	13713.22
661.802	13828.3
661.998	13714.19
662.194	13733.17
662.39	13808.16
662.586	13761.66
662.781	13772.12
662.977	13848.84
663.173	13646.96
663.369	13669.63
663.564	13698.3
663.76	13687.26
663.956	13682.8
664.152	13539.82
664.347	13515.02
664.543	13632.62
664.739	13592.51
664.934	13467.55
665.13	13669.04
665.326	13557.25
665.521	13642.11
665.717	13514.63
665.912	13634.95
666.108	13355.56
666.304	13638.63
666.499	13442.94
666.695	13245.9
666.89	13523.93
667.086	13396.44
667.281	13426.47
667.477	13614.41
667.672	13350.33
667.867	13333.28
668.063	13375.71
668.258	13285.04
668.454	13419.89
668.649	13325.14
668.844	13409.23
669.04	13435
669.235	13418.53
669.43	13383.85
669.626	13121.9
669.821	13291.82
670.016	13275.93
670.211	13379
670.407	13074.82
670.602	13407.49
670.797	13093.81
670.992	13380.75
671.187	13150.58
671.382	13292.4
671.578	13022.32
671.773	13186.03
671.968	12930.09
672.163	13120.93
672.358	13037.04
672.553	12898.51
672.748	13117.06
672.943	13165.5
673.138	13075.98
673.333	13107.95
673.528	12846.01
673.723	13035.68
673.918	12944.43
674.113	12909.94
674.308	13047.31
674.503	13026
674.698	13106.4
674.892	12790.01
675.087	12910.72
675.282	12905.1
675.477	12904.13
675.672	12970.2
675.867	12819.27
676.061	12914.01
676.256	12752.23
676.451	12891.15
676.646	12908.59
676.84	12799.31
677.035	12664.66
677.23	12812.88
677.424	12780.13
677.619	12750.1
677.814	12876.81
678.008	12815.01
678.203	12806.87
678.397	12666.98
678.592	12626.68
678.787	12809
678.981	12708.45
679.176	12758.43
679.37	12673.77
679.565	12683.06
679.759	12659.04
679.954	12650.52
680.148	12612.93
680.342	12736.54
680.537	12564.88
680.731	12480.02
680.926	12629.4
681.12	12498.62
681.314	12521.48
681.509	12489.51
681.703	12539.3
681.897	12352.53
682.092	12400
682.286	12526.32
682.48	12489.32
682.674	12407.17
682.869	12304.68
683.063	12527.68
683.257	12400.39
683.451	12291.89
683.645	12367.84
683.839	12242.87
684.034	12207.61
684.228	12130.3
684.422	11937.72
684.616	12067.92
684.81	12114.8
685.004	11982.67
685.198	12086.32
685.392	11977.24
685.586	12041.96
685.78	11900.52
685.974	11988.48
686.168	11861
686.362	11833.87
686.556	11073.8
686.75	10690.76
686.944	10125.21
687.138	9329.11
687.331	8735.08
687.525	8476.81
687.719	8342.16
687.913	8362.5
688.107	8507.04
688.301	8527.96
688.494	8720.74
688.688	8638.01
688.882	8510.52
689.076	8569.62
689.269	8598.68
689.463	8783.71
689.657	8766.08
689.85	8783.9
690.044	8925.53
690.238	9016.79
690.431	9097.38
690.625	9111.72
690.818	9313.03
691.012	9400.79
691.205	9598.61
691.399	9609.07
691.593	9655.76
691.786	9757.68
691.98	9916.55
692.173	9998.12
692.366	10034.35
692.56	10188.38
692.753	10088.79
692.947	10073.48
693.14	9942.12
693.333	10033.18
693.527	9969.44
693.72	10038.61
693.914	9883.22
694.107	9750.31
694.3	9862.69
694.493	9638.71
694.687	9967.31
694.88	9739.66
695.073	9900.08
695.266	9888.65
695.46	9917.9
695.653	9880.12
695.846	9951.42
696.039	9962.47
696.232	9961.3
696.425	10169.39
696.618	10248.24
696.812	10424.36
697.005	10431.14
697.198	10684.95
697.391	10542.93
697.584	10653.37
697.777	10677.78
697.97	10557.85
698.163	10626.05
698.356	10506.12
698.549	10563.66
698.742	10512.9
698.935	10304.04
699.127	10296.49
699.32	10198.06
699.513	10166.87
699.706	10122.7
699.899	10245.34
700.092	10078.91
700.285	10063.41
700.477	9802.04
700.67	9910.54
700.863	9895.43
701.056	10021.56
701.248	9983.39
701.441	9904.15
701.634	9875.47
701.826	9959.75
702.019	9734.23
702.212	9856.68
702.404	9757.87
702.597	9780.54
702.79	9760
702.982	9748.76
703.175	9889.23
703.367	9934.18
703.56	9957.43
703.752	10046.36
703.945	9961.69
704.137	9955.69
704.33	10023.88
704.522	10001.41
704.715	10011.87
704.907	10087.24
705.1	10186.05
705.292	10096.93
705.484	10047.91
705.677	10046.94
705.869	10105.26
706.061	10058.37
706.254	10100.41
706.446	9991.92
706.638	10007.22
706.831	10121.34
707.023	10009.35
707.215	10208.53
707.407	10154.28
707.599	10053.92
707.792	10141.49
707.984	10181.4
708.176	10171.91
708.368	10097.7
708.56	10093.25
708.752	10058.95
708.944	10016.91
709.136	10113.98
709.329	10000.44
709.521	10147.69
709.713	10044.62
709.905	10089.76
710.097	10110.1
710.289	10008
710.481	10020.4
710.672	9987.65
710.864	10115.72
711.056	10030.47
711.248	10001.02
711.44	9967.89
711.632	9961.89
711.824	10061.08
712.016	9959.95
712.207	10039.77
712.399	9914.8
712.591	9978.93
712.783	9961.3
712.975	9848.93
713.166	9862.11
713.358	9830.33
713.55	9872.76
713.741	9773.76
713.933	9860.75
714.125	9742.76
714.316	9671.26
714.508	9770.66
714.7	9606.55
714.891	9677.46
715.083	9617.79
715.274	9440.32
715.466	9652.47
715.657	9512.59
715.849	9293.84
716.04	9229.52
716.232	9123.93
716.423	8996.25
716.615	8735.27
716.806	8534.74
716.998	8200.92
717.189	7893.83
717.381	7770.41
717.572	7505.95
717.763	7331.77
717.955	7232.37
718.146	7111.28
718.337	6910.56
718.528	6697.44
718.72	6433.94
718.911	6449.44
719.102	6405.85
719.293	6359.54
719.485	6318.66
719.676	6208.03
719.867	6119.3
720.058	6136.15
720.249	6113.1
720.44	6133.44
720.632	6229.54
720.823	6347.92
721.014	6648.23
721.205	6842.75
721.396	6970.62
721.587	7208.16
721.778	7365.48
721.969	7520.86
722.16	7589.45
722.351	7764.21
722.542	7843.07
722.733	7872.71
722.924	7720.23
723.115	7740.77
723.305	7465.45
723.496	7533.46
723.687	7128.33
723.878	7155.46
724.069	7102.18
724.26	7047.93
724.45	6883.24
724.641	6838.49
724.832	6831.32
725.023	6717.39
725.213	6733.09
725.404	6643.19
725.595	6512.41
725.785	6604.25
725.976	6715.46
726.167	6601.53
726.357	6624.78
726.548	6768.54
726.739	6598.24
726.929	6760.79
727.12	6740.84
727.31	6766.61
727.501	6612.38
727.691	6567.43
727.882	6587.78
728.072	6713.52
728.263	6638.73
728.453	6779.59
728.644	6735.41
728.834	6665.66
729.024	6570.15
729.215	6529.46
729.405	6605.8
729.596	6670.31
729.786	6700.73
729.976	6750.14
730.167	6736.96
730.357	6628.66
730.547	6662.37
730.737	6711.97
730.928	6724.95
731.118	6725.92
731.308	6702.48
731.498	6676.9
731.688	6737.93
731.879	6853.21
732.069	6932.65
732.259	7008.01
732.449	7121.16
732.639	7245.16
732.829	7210.48
733.019	7311.62
733.209	7400.35
733.399	7448.4
733.589	7594.1
733.779	7641.37
733.969	7667.14
734.159	7766.54
734.349	7773.32
734.539	7819.43
734.729	7840.93
734.919	7838.61
735.109	7975.39
735.299	7796.57
735.488	7832.8
735.678	7809.74
735.868	7867.48
736.058	7690.78
736.248	7778.74
736.437	7679.54
736.627	7613.86
736.817	7813.42
737.007	7620.06
737.196	7740.19
737.386	7787.07
737.576	7708.6
737.765	7833.77
737.955	7660.56
738.144	7898.28
738.334	7823.69
738.524	7719.65
738.713	7822.14
738.903	7712.87
739.092	7767.31
739.282	7704.54
739.471	7713.06
739.661	7709.77
739.85	7791.72
740.04	7762.85
740.229	7782.42
740.419	7838.8
740.608	7886.46
740.797	7791.33
740.987	7879.68
741.176	7756.07
741.365	7801.22
741.555	7673.73
741.744	7899.45
741.933	7791.72
742.123	7852.17
742.312	7791.72
742.501	7834.15
742.69	7839
742.88	7777
743.069	7902.35
743.258	7852.75
743.447	7913.4
743.636	7865.73
743.825	7823.11
744.014	7859.73
744.204	7929.28
744.393	7808.38
744.582	7948.27
744.771	7923.66
744.96	7844.62
745.149	7860.7
745.338	7806.06
745.527	7919.98
745.716	7817.3
745.905	7760.14
746.094	7918.82
746.283	7887.82
746.471	7775.25
746.66	7873.87
746.849	7838.42
747.038	7824.08
747.227	7802.38
747.416	7803.35
747.604	7728.75
747.793	7722.36
747.982	7758.4
748.171	7788.23
748.359	7739.6
748.548	7798.12
748.737	7728.56
748.926	7687.87
749.114	7536.75
749.303	7616.77
749.491	7578.99
749.68	7516.6
749.869	7691.17
750.057	7546.44
750.246	7531.52
750.434	7502.07
750.623	7517.57
750.811	7444.72
751	7504.98
751.188	7458.28
751.377	7460.41
751.565	7397.64
751.754	7402.48
751.942	7381.75
752.131	7466.81
752.319	7379.43
752.507	7358.89
752.696	7374.78
752.884	7368
753.072	7376.33
753.261	7392.99
753.449	7403.07
753.637	7272.29
753.825	7327.31
754.014	7298.64
754.202	7293.21
754.39	7332.54
754.578	7340.87
754.766	7266.67
754.955	7187.81
755.143	7262.4
755.331	7286.62
755.519	7260.08
755.707	7257.95
755.895	7171.93
756.083	7145.19
756.271	7055.48
756.459	7166.31
756.647	7101.79
756.835	7055.1
757.023	7086.87
757.211	7037.46
757.399	6956.09
757.587	7027.58
757.775	6977.98
757.963	6954.73
758.151	6956.67
758.339	6897.97
758.526	6836.94
758.714	6889.05
758.902	6662.95
759.09	6444.02
759.278	6078.61
759.465	5571.77
759.653	4901.01
759.841	4372.86
760.028	3768.56
760.216	3318.49
760.404	3018.57
760.591	2522.96
760.779	2139.15
760.967	1850.08
761.154	1602.47
761.342	1602.47
761.529	1559.65
761.717	1648.19
761.905	1712.71
762.092	1780.52
762.28	1724.14
762.467	1725.5
762.655	1579.22
762.842	1648
763.029	1617.39
763.217	1652.45
763.404	1702.25
763.592	1700.89
763.779	1686.94
763.966	1733.83
764.154	1830.9
764.341	1873.71
764.528	1960.51
764.716	2043.24
764.903	2180.03
765.09	2297.05
765.277	2393.92
765.465	2690.55
765.652	2799.24
765.839	2937.77
766.026	3194.1
766.213	3333.79
766.4	3557.76
766.588	3840.64
766.775	3954.75
766.962	4179.5
767.149	4305.63
767.336	4585.4
767.523	4622.99
767.71	4861.1
767.897	5047.68
768.084	5089.34
768.271	5235.42
768.458	5371.63
768.645	5467.34
768.832	5453.39
769.019	5561.69
769.206	5634.93
769.392	5722.7
769.579	5897.65
769.766	5830.42
769.953	5804.65
770.14	5967.01
770.327	5893
770.513	6015.25
770.7	6037.15
770.887	5981.35
771.073	5965.85
771.26	6059.04
771.447	6005.37
771.634	5949.57
771.82	6133.63
772.007	6002.08
772.193	6128.6
772.38	6083.84
772.567	6040.83
772.753	6024.75
772.94	6080.16
773.126	6063.11
773.313	6109.22
773.499	6012.15
773.686	6103.6
773.872	5945.31
774.059	6056.52
774.245	6012.54
774.432	5961.97
774.618	5861.23
774.804	5909.08
774.991	5962.55
775.177	5953.84
775.363	5944.92
775.55	5954.03
775.736	5827.71
775.922	5951.9
776.109	5901.14
776.295	5881.96
776.481	5974.76
776.667	5905.98
776.853	5855.61
777.04	5793.03
777.226	5859.68
777.412	5940.08
777.598	5779.85
777.784	5842.24
777.97	5794.77
778.156	5795.35
778.342	5739.75
778.528	5764.93
778.715	5661.86
778.901	5747.11
779.087	5775.2
779.272	5684.72
779.458	5674.07
779.644	5654.11
779.83	5696.93
780.016	5777.33
780.202	5693.44
780.388	5651.4
780.574	5540.57
780.76	5565.95
780.946	5645.58
781.131	5650.62
781.317	5515.97
781.503	5501.05
781.689	5549.87
781.874	5651.78
782.06	5472.76
782.246	5568.47
782.432	5550.07
782.617	5513.06
782.803	5517.9
782.989	5423.16
783.174	5391.19
783.36	5411.54
783.545	5452.81
783.731	5436.53
783.916	5288.9
784.102	5365.62
784.288	5329.58
784.473	5381.51
784.659	5313.89
784.844	5367.75
785.029	5352.64
785.215	5246.08
785.4	5197.64
785.586	5337.53
785.771	5209.27
785.956	5320.67
786.142	5210.43
786.327	5203.07
786.512	5194.35
786.698	5193.38
786.883	5130.41
787.068	5151.34
787.254	5173.81
787.439	5106.39
787.624	5052.91
787.809	5094.95
787.994	5041.29
788.18	5134.09
788.365	4999.63
788.55	4944.99
788.735	4996.34
788.92	4961.46
789.105	4953.33
789.29	5001.18
789.475	4865.17
789.66	4899.66
789.845	4829.13
790.03	4872.34
790.215	4917.09
790.4	4915.54
790.585	4850.06
790.77	4826.81
790.955	4768.1
791.14	4796.58
791.325	4920.78
791.51	4704.75
791.695	4781.86
791.879	4772.75
792.064	4751.25
792.249	4825.45
792.434	4791.16
792.618	4778.57
792.803	4837.85
792.988	4782.05
793.173	4774.3
793.357	4837.46
793.542	4721.22
793.727	4823.13
793.911	4839.6
794.096	4793.29
794.281	4877.57
794.465	4903.53
794.65	4801.82
794.834	4864.01
795.019	4921.55
795.203	4915.54
795.388	4884.74
795.572	4933.18
795.757	4909.34
795.941	4873.31
796.126	4852.77
796.31	4772.75
796.494	4809.95
796.679	4814.21
796.863	4743.5
797.048	4876.6
797.232	4808.98
797.416	4890.75
797.601	4848.51
797.785	4901.59
797.969	4917.68
798.153	4859.36
798.338	4926.98
798.522	4977.93
798.706	4946.93
798.89	4978.32
799.074	5004.47
799.258	5051.36
799.443	4940.93
799.627	4957.01
799.811	4994.21
799.995	4853.74
800.179	4866.91
800.363	4851.03
800.547	4909.93
800.731	4926.2
800.915	4817.31
801.099	4832.23
801.283	4852.58
801.467	4886.48
801.651	4783.22
801.835	4858.58
802.019	4873.5
802.202	4941.12
802.386	4782.05
802.57	4778.18
802.754	4796.58
802.938	4706.49
803.121	4777.02
803.305	4879.31
803.489	4763.84
803.673	4813.05
803.856	4808.79
804.04	4793.1
804.224	4814.6
804.407	4817.31
804.591	4737.68
804.775	4771.01
804.958	4781.86
805.142	4947.13
805.326	4821.77
805.509	4844.83
805.693	4890.55
805.876	4873.11
806.06	4821.96
806.243	4925.04
806.427	4925.43
806.61	4959.33
806.794	4872.53
806.977	4889.2
807.16	4914.38
807.344	4893.26
807.527	4894.23
807.71	4873.31
807.894	4800.07
808.077	4875.44
808.26	4786.12
808.444	4753.18
808.627	4852
808.81	4748.34
808.993	4696.8
809.177	4668.52
809.36	4686.92
809.543	4696.03
809.726	4560.21
809.909	4575.13
810.092	4541.23
810.276	4527.66
810.459	4518.36
810.642	4518.17
810.825	4436.8
811.008	4472.83
811.191	4342.83
811.374	4355.03
811.557	4322.29
811.74	4403.28
811.923	4264.75
812.106	4263.59
812.289	4202.55
812.472	4217.67
812.654	4193.45
812.837	4130.67
813.02	4018.3
813.203	4024.89
813.386	3813.32
813.569	3848.39
813.751	3717.99
813.934	3757.52
814.117	3659.09
814.3	3584.5
814.482	3510.3
814.665	3451.4
814.848	3405.67
815.03	3282.84
815.213	3301.44
815.396	3267.53
815.578	3206.5
815.761	3167.17
815.943	3209.41
816.126	3086.76
816.309	3040.85
816.491	2970.9
816.674	2859.11
816.856	2956.18
817.039	2965.48
817.221	3007.52
817.403	3009.85
817.586	2998.8
817.768	3005.58
817.951	2885.85
818.133	2888.37
818.315	2878.68
818.498	2976.14
818.68	3016.43
818.862	2995.32
819.045	3026.51
819.227	3035.03
819.409	3003.07
819.591	3050.15
819.774	3039.88
819.956	3006.75
820.138	3062.93
820.32	3084.25
820.502	3221.61
820.684	3349.1
820.866	3340.96
821.048	3400.83
821.231	3427.95
821.413	3417.3
821.595	3366.34
821.777	3437.64
821.959	3416.33
822.141	3422.92
822.323	3287.1
822.505	3153.61
822.686	3008.88
822.868	2881.2
823.05	2714.58
823.232	2633.98
823.414	2567.33
823.596	2683.58
823.778	2638.05
823.96	2716.71
824.141	2730.85
824.323	2805.83
824.505	2939.13
824.687	3001.13
824.868	3083.28
825.05	3212.31
825.232	3263.85
825.413	3370.6
825.595	3288.07
825.777	3241.57
825.958	3292.91
826.14	3237.69
826.321	3335.92
826.503	3278.38
826.685	3314.22
826.866	3382.42
827.048	3318.68
827.229	3253
827.411	3199.33
827.592	3145.08
827.773	3116.6
827.955	2984.08
828.136	3014.5
828.318	2982.72
828.499	3031.93
828.68	2952.69
828.862	2986.98
829.043	2987.37
829.224	2966.06
829.406	2892.63
829.587	2937.19
829.768	2944.17
829.949	2949.2
830.131	2945.14
830.312	2984.08
830.493	2974
830.674	2984.85
830.855	2950.17
831.036	2945.14
831.218	3095.1
831.399	3083.66
831.58	3011.4
831.761	3005.58
831.942	2991.83
832.123	2976.14
832.304	2902.32
832.485	2967.42
832.666	2944.55
832.847	2978.46
833.028	2990.08
833.209	2939.13
833.389	2936.8
833.57	2879.84
833.751	2871.32
833.932	3000.93
834.113	2939.9
834.294	2919.17
834.475	2993.18
834.655	3044.92
834.836	3060.03
835.017	3008.1
835.198	2976.33
835.378	3043.75
835.559	3080.37
835.74	3024.96
835.92	3011.01
836.101	2987.37
836.281	3077.46
836.462	3079.6
836.643	3072.04
836.823	3074.36
837.004	3123.19
837.184	3145.47
837.365	3136.75
837.545	3164.65
837.726	3057.12
837.906	3155.35
838.087	3122.22
838.267	3075.91
838.448	3117.57
838.628	3082.7
838.808	3056.15
838.989	3160.78
839.169	3064.87
839.349	3145.08
839.53	3130.94
839.71	3118.54
839.89	3106.91
840.07	3129.58
840.251	3074.36
840.431	3183.44
840.611	3115.05
840.791	3054.8
840.971	3116.21
841.151	3090.25
841.332	3027.28
841.512	3088.9
841.692	2991.63
841.872	3093.55
842.052	3037.55
842.232	3054.6
842.412	2969.74
842.592	3035.42
842.772	3079.21
842.952	3093.74
843.132	3053.25
843.312	3004.62
843.492	3023.41
843.672	3043.75
843.851	2958.5
844.031	2979.43
844.211	3007.13
844.391	2954.24
844.571	2990.67
844.751	2967.03
844.93	3002.68
845.11	2932.74
845.29	2986.98
845.47	2982.53
845.649	2993.38
845.829	3020.31
846.009	2969.74
846.188	3008.49
846.368	2984.85
846.547	2955.4
846.727	2996.48
846.907	2910.26
847.086	2955.6
847.266	2980.98
847.445	2929.05
847.625	2932.93
847.804	2881.97
847.984	2950.75
848.163	2926.34
848.343	2875
848.522	2911.42
848.701	2902.7
848.881	2903.29
849.06	2890.31
849.239	2872.48
849.419	2871.51
849.598	2765.92
849.777	2766.5
849.957	2718.45
850.136	2639.79
850.315	2631.07
850.494	2659.94
850.674	2666.53
850.853	2702.76
851.032	2711.28
851.211	2779.68
851.39	2693.46
851.569	2643.08
851.748	2630.3
851.927	2758.75
852.107	2688.61
852.286	2651.8
852.465	2665.56
852.644	2713.8
852.823	2728.53
853.002	2685.32
853.181	2701.79
853.359	2693.65
853.538	2604.53
853.717	2624.1
853.896	2482.08
854.075	2396.64
854.254	2350.91
854.433	2268.18
854.611	2304.61
854.79	2217.42
854.969	2323.4
855.148	2379.39
855.327	2321.27
855.505	2399.54
855.684	2371.84
855.863	2446.24
856.041	2412.14
856.22	2498.55
856.399	2443.52
856.577	2565.78
856.756	2553.38
856.934	2652.96
857.113	2703.34
857.291	2574.3
857.47	2552.02
857.648	2574.11
857.827	2574.3
858.005	2586.9
858.184	2533.62
858.362	2652.58
858.541	2493.9
858.719	2530.71
858.898	2572.56
859.076	2560.35
859.254	2612.67
859.433	2528.39
859.611	2525.67
859.789	2455.15
859.967	2555.12
860.146	2575.08
860.324	2417.76
860.502	2501.65
860.68	2426.09
860.859	2448.17
861.037	2441.78
861.215	2443.33
861.393	2504.36
861.571	2471.42
861.749	2421.63
861.927	2463.09
862.105	2443.14
862.283	2430.93
862.461	2383.27
862.639	2370.29
862.817	2436.16
862.995	2402.06
863.173	2392.37
863.351	2438.29
863.529	2421.05
863.707	2439.65
863.885	2429.77
864.063	2323.01
864.241	2374.94
864.418	2442.56
864.596	2384.24
864.774	2334.64
864.952	2327.28
865.129	2341.23
865.307	2332.12
865.485	2278.45
865.663	2331.34
865.84	2214.51
866.018	2232.15
866.196	2061.26
866.373	2079.86
866.551	2007.79
866.728	1971.56
866.906	2007.21
867.084	2026.77
867.261	2074.24
867.439	2081.8
867.616	2148.06
867.794	2131.01
867.971	2173.63
868.149	2154.26
868.326	2197.27
868.503	2187.97
868.681	2175.57
868.858	2170.73
869.035	2123.65
869.213	2207.54
869.39	2197.27
869.567	2233.11
869.745	2169.18
869.922	2196.3
870.099	2190.3
870.276	2204.05
870.454	2200.76
870.631	2177.7
870.808	2143.99
870.985	2232.53
871.162	2235.25
871.339	2159.49
871.517	2084.51
871.694	2108.34
871.871	2164.33
872.048	2125.97
872.225	2120.16
872.402	2130.23
872.579	2099.62
872.756	2148.64
872.933	2071.72
873.11	2091.68
873.287	2094.78
873.463	2087.8
873.64	2040.34
873.817	2076.57
873.994	2093.23
874.171	2065.14
874.348	2074.63
874.524	1957.61
874.701	2040.34
874.878	1938.81
875.055	2035.49
875.231	2022.12
875.408	2013.21
875.585	1969.62
875.762	1986.67
875.938	2011.66
876.115	1985.12
876.291	1965.16
876.468	1989.57
876.645	1908.39
876.821	1954.31
876.998	1966.91
877.174	1986.47
877.351	1951.79
877.527	1911.11
877.704	1943.07
877.88	1932.22
878.057	1934.55
878.233	1972.91
878.409	1915.95
878.586	1938.04
878.762	1920.41
878.938	1905.88
879.115	1804.74
879.291	1912.46
879.467	1841.55
879.644	1878.17
879.82	1886.11
879.996	1837.29
880.172	1807.26
880.349	1863.64
880.525	1871.78
880.701	1821.4
880.877	1808.81
881.053	1808.81
881.229	1846.39
881.405	1879.14
881.581	1770.64
881.757	1822.37
881.933	1809.97
882.109	1857.05
882.285	1835.35
882.461	1800.09
882.637	1816.56
882.813	1787.3
882.989	1819.46
883.165	1877.78
883.341	1822.18
883.517	1890.57
883.693	1860.15
883.869	1878.36
884.044	1788.08
884.22	1838.06
884.396	1893.09
884.572	1822.76
884.747	1837.87
884.923	1846.01
885.099	1866.16
885.275	1875.07
885.45	1800.67
885.626	1824.89
885.801	1798.73
885.977	1764.05
886.153	1707.67
886.328	1808.03
886.504	1804.16
886.679	1803.96
886.855	1776.06
887.03	1796.6
887.206	1817.53
887.381	1804.93
887.557	1812.68
887.732	1817.91
887.908	1797.96
888.083	1844.26
888.258	1795.44
888.434	1807.26
888.609	1773.93
888.784	1829.35
888.96	1774.13
889.135	1795.83
889.31	1786.53
889.485	1792.92
889.661	1796.6
889.836	1820.82
890.011	1820.43
890.186	1835.35
890.361	1784.78
890.537	1793.7
890.712	1778.58
890.887	1827.41
891.062	1806.68
891.237	1894.06
891.412	1770.83
891.587	1822.95
891.762	1801.25
891.937	1820.05
892.112	1747.78
892.287	1726.47
892.462	1726.66
892.637	1690.62
892.812	1663.5
892.987	1685.58
893.161	1656.14
893.336	1649.16
893.511	1647.42
893.686	1632.5
893.861	1633.47
894.035	1602.85
894.21	1637.73
894.385	1547.83
894.56	1619.71
894.734	1490.48
894.909	1480.99
895.084	1530.01
895.258	1451.73
895.433	1449.79
895.608	1399.61
895.782	1342.85
895.957	1368.81
896.131	1364.16
896.306	1319.98
896.48	1286.08
896.655	1243.84
896.829	1228.15
897.004	1209.94
897.178	1232.02
897.353	1176.8
897.527	1209.94
897.701	1197.34
897.876	1164.99
898.05	1276.78
898.224	1237.06
898.399	1267.48
898.573	1161.11
898.747	1057.84
898.921	1067.53
899.096	964.26
899.27	957.48
899.444	1005.53
899.618	1027.81
899.792	1075.47
899.967	1096.21
900.141	1138.25
900.315	1032.27
900.489	1026.07
900.663	1068.11
900.837	1045.06
901.011	989.26
901.185	1110.54
901.359	1066.17
901.533	1082.64
901.707	1094.66
901.881	1053.19
902.055	991.97
902.229	1039.24
902.403	1081.09
902.576	1068.31
902.75	1088.26
902.924	1198.31
903.098	1151.04
903.272	1201.02
903.446	1239.77
903.619	1270.97
903.793	1327.73
903.967	1306.03
904.14	1376.36
904.314	1346.33
904.488	1306.03
904.661	1356.02
904.835	1323.08
905.009	1371.33
905.182	1389.93
905.356	1393.22
905.529	1352.92
905.703	1302.35
905.876	1279.68
906.05	1254.11
906.223	1216.91
906.397	1134.76
906.57	1112.48
906.744	1097.37
906.917	1083.03
907.09	1073.92
907.264	1018.13
907.437	1004.76
907.61	948.38
907.784	992.16
907.957	1012.31
908.13	945.28
908.304	1003.79
908.477	913.31
908.65	975.11
908.823	928.42
908.996	992.74
909.17	956.13
909.343	919.9
909.516	936.36
909.689	912.73
909.862	901.1
910.035	889.67
910.208	867.39
910.381	894.32
910.554	971.82
910.727	912.15
910.9	939.66
911.073	917.18
911.246	976.28
911.419	999.53
911.592	969.69
911.765	913.31
911.938	946.05
912.11	927.06
912.283	912.15
912.456	988.68
912.629	943.92
912.802	876.3
912.974	821.67
913.147	756.18
913.32	733.9
913.493	736.42
913.665	771.1
913.838	793.57
914.01	782.53
914.183	847.82
914.356	852.67
914.528	864.48
914.701	912.73
914.873	861.97
915.046	804.81
915.218	742.04
915.391	627.72
915.563	675.39
915.736	746.1
915.908	777.1
916.081	789.89
916.253	816.24
916.425	810.62
916.598	840.85
916.77	803.45
916.942	740.49
917.115	711.04
917.287	742.62
917.459	709.1
917.632	695.34
917.804	657.37
917.976	718.2
918.148	738.55
918.32	784.27
918.493	823.02
918.665	861.97
918.837	804.62
919.009	870.3
919.181	879.21
919.353	840.65
919.525	829.22
919.697	854.02
919.869	831.93
920.041	916.21
920.213	971.04
920.385	915.25
920.557	845.69
920.729	899.55
920.901	884.05
921.073	837.17
921.244	829.8
921.416	901.68
921.588	862.35
921.76	852.86
921.932	899.75
922.103	874.17
922.275	867.58
922.447	883.47
922.619	787.37
922.79	819.73
922.962	830.77
923.134	825.93
923.305	748.82
923.477	737.58
923.648	752.11
923.82	783.5
923.991	703.87
924.163	680.62
924.335	744.94
924.506	716.07
924.677	751.72
924.849	691.86
925.02	747.27
925.192	764.9
925.363	731.77
925.535	730.02
925.706	705.42
925.877	795.12
926.049	691.47
926.22	726.73
926.391	726.73
926.562	780.79
926.734	718.2
926.905	749.79
927.076	645.36
927.247	713.36
927.419	624.24
927.59	604.48
927.761	622.49
927.932	580.06
928.103	587.43
928.274	501.79
928.445	542.86
928.616	498.11
928.787	535.89
928.958	543.83
929.129	501.21
929.3	485.13
929.471	406.85
929.642	363.84
929.813	342.14
929.984	417.51
930.155	330.52
930.326	399.49
930.496	346.99
930.667	286.34
930.838	313.08
931.009	263.48
931.18	279.95
931.35	258.06
931.521	280.14
931.692	220.27
931.863	150.14
932.033	177.84
932.204	219.89
932.374	214.66
932.545	150.53
932.716	216.21
932.886	211.36
933.057	135.41
933.227	128.63
933.398	213.11
933.568	109.84
933.739	67.41
933.909	59.08
934.08	113.71
934.25	54.43
934.421	76.13
934.591	131.93
934.761	108.48
934.932	59.27
935.102	120.69
935.272	111.39
935.443	102.48
935.613	91.43
935.783	144.33
935.953	66.83
936.123	237.52
936.294	60.43
936.464	77.48
936.634	77.48
936.804	73.03
936.974	49.39
937.144	116.62
937.314	90.46
937.484	61.4
937.655	55.01
937.825	123.01
937.995	55.01
938.165	130.76
938.334	113.71
938.504	146.84
938.674	130.57
938.844	151.3
939.014	220.08
939.184	218.14
939.354	238.68
939.524	241.2
939.694	179.2
939.863	207.1
940.033	246.04
940.203	235.58
940.373	206.32
940.542	223.57
940.712	192.96
940.882	235.39
941.051	236.16
941.221	229.19
941.391	256.7
941.56	181.53
941.73	168.54
941.899	282.47
942.069	193.15
942.238	193.54
942.408	168.54
942.577	198.19
942.747	171.84
942.916	110.61
943.086	140.26
943.255	176.68
943.425	187.53
943.594	145.29
943.763	50.36
943.933	98.79
944.102	61.79
944.271	118.75
944.441	136.19
944.61	143.16
944.779	140.26
944.948	231.32
945.117	79.61
945.287	136.96
945.456	44.55
945.625	91.05
945.794	123.79
945.963	79.81
946.132	153.63
946.301	99.38
946.47	140.84
946.639	76.71
946.808	121.66
946.977	161.96
947.146	192.96
947.315	136.58
947.484	173
947.653	140.06
947.822	117.78
947.991	109.64
948.16	207.68
948.329	193.15
948.498	146.07
948.666	145.68
948.835	180.75
949.004	110.03
949.173	105.58
949.341	130.57
949.51	128.05
949.679	153.63
949.847	148.39
950.016	197.02
950.185	203.81
950.353	134.83
950.522	171.26
950.69	209.62
950.859	149.75
951.028	166.61
951.196	142.97
951.365	131.34
951.533	142.19
951.701	188.31
951.87	179.78
952.038	63.15
952.207	116.43
952.375	190.05
952.543	90.46
952.712	103.64
952.88	134.44
953.048	204.97
953.217	129.79
953.385	160.21
953.553	185.01
953.721	107.51
953.89	150.33
954.058	107.9
954.226	111.19
954.394	146.65
954.562	82.13
954.73	105.96
954.898	116.43
955.067	169.32
955.235	123.4
955.403	178.81
955.571	214.85
955.739	166.03
955.907	108.48
956.075	135.61
956.243	133.67
956.41	143.94
956.578	82.91
956.746	92.21
956.914	130.18
957.082	186.76
957.25	170.48
957.418	134.83
957.585	154.59
957.753	173.39
957.921	106.93
958.089	147.23
958.256	133.28
958.424	172.03
958.592	123.01
958.759	120.3
958.927	155.95
959.095	110.61
959.262	157.69
959.43	158.28
959.597	121.27
959.765	141.81
959.932	108.87
960.1	187.92
960.267	146.65
960.435	139.68
960.602	182.88
960.77	127.66
960.937	93.56
961.104	178.43
961.272	107.51
961.439	144.13
961.606	155.56
961.774	171.06
961.941	143.74
962.108	175.33
962.275	161.18
962.443	202.26
962.61	167.77
962.777	246.62
962.944	200.71
963.111	166.41
963.278	201.87
963.446	199.74
963.613	173.58
963.78	171.06
963.947	166.61
964.114	170.09
964.281	248.56
964.448	193.54
964.615	169.9
964.782	166.22
964.949	206.71
965.116	214.27
965.282	241.97
965.449	160.21
965.616	156.34
965.783	181.91
965.95	182.88
966.117	128.05
966.283	169.32
966.45	206.13
966.617	189.27
966.784	215.82
966.95	206.91
967.117	241.01
967.284	202.64
967.45	192.57
967.617	244.49
967.784	220.27
967.95	267.16
968.117	191.41
968.283	269.29
968.45	337.49
968.616	229.96
968.783	275.1
968.949	253.41
969.116	260.19
969.282	216.98
969.449	236.94
969.615	227.06
969.781	188.89
969.948	228.61
970.114	210.59
970.28	285.76
970.447	241.97
970.613	274.52
970.779	228.99
970.945	232.29
971.112	244.69
971.278	223.76
971.444	239.46
971.61	249.53
971.776	217.56
971.942	264.64
972.108	259.22
972.275	208.84
972.441	230.74
972.607	302.81
972.773	196.25
972.939	229.96
973.105	219.69
973.271	172.42
973.437	184.82
973.602	176.29
973.768	197.99
973.934	205.55
974.1	210.39
974.266	112.94
974.432	213.11
974.598	174.94
974.763	195.86
974.929	167.38
975.095	265.03
975.261	164.28
975.426	152.46
975.592	169.13
975.758	248.95
975.923	137.16
976.089	168.93
976.255	235.97
976.42	192.96
976.586	188.89
976.751	175.52
976.917	265.81
977.082	201.48
977.248	132.7
977.413	136.19
977.579	179.01
977.744	204.77
977.91	155.37
978.075	151.88
978.24	200.32
978.406	148.2
978.571	174.55
978.736	146.07
978.902	191.02
979.067	147.23
979.232	130.96
979.397	191.02
979.563	223.18
979.728	165.06
979.893	164.67
980.058	157.5
980.223	202.26
980.388	185.4
980.554	182.3
980.719	186.76
980.884	196.06
981.049	210.01
981.214	165.64
981.379	191.99
981.544	151.11
981.709	176.88
981.874	149.17
982.039	185.21
982.204	195.67
982.368	201.67
982.533	165.83
982.698	214.27
982.863	224.54
983.028	165.64
983.193	212.91
983.357	160.21
983.522	169.13
983.687	165.44
983.852	164.86
984.016	179.01
984.181	206.71
984.346	201.29
984.51	204.58
984.675	184.04
984.839	181.33
985.004	200.71
985.168	230.74
985.333	221.82
985.498	173.58
985.662	202.45
985.827	194.12
985.991	175.13
986.155	179.2
986.32	201.29
986.484	219.89
986.649	194.89
986.813	136.77
986.977	161.76
987.142	210.59
987.306	132.51
987.47	165.25
987.634	169.71
987.799	163.12
987.963	176.88
988.127	186.56
988.291	243.33
988.455	179.78
988.62	173.78
988.784	205.36
988.948	193.73
989.112	168.35
989.276	163.31
989.44	158.47
989.604	143.55
989.768	142.78
989.932	229.77
990.096	145.68
990.26	145.29
990.424	150.72
990.588	184.24
990.752	237.91
990.915	208.65
991.079	145.1
991.243	126.69
991.407	197.41
991.571	155.95
991.734	192.18
991.898	196.25
992.062	258.06
992.226	160.99
992.389	140.84
992.553	131.93
992.717	144.71
992.88	138.32
993.044	185.01
993.207	150.53
993.371	184.24
993.535	184.62
993.698	186.76
993.862	162.73
994.025	208.65
994.189	173.58
994.352	193.54
994.515	159.63
994.679	198.57
994.842	139.68
995.006	174.16
995.169	117.2
995.332	125.34
995.496	178.43
995.659	127.86
995.822	142.97
995.985	155.18
996.149	206.13
996.312	142.78
996.475	199.54
996.638	154.79
996.801	186.56
996.964	204.58
997.128	122.24
997.291	157.69
997.454	145.29
997.617	98.99
997.78	175.71
997.943	127.08
998.106	174.36
998.269	111.58
998.432	135.8
998.595	147.62
998.758	104.03
998.92	102.48
999.083	78.06
999.246	122.43
999.409	112.36
999.572	61.79
999.735	104.8
999.897	149.94
1000.06	135.99
1000.223	97.63
1000.386	139.29
1000.548	159.05
1000.711	162.93
1000.874	129.79
1001.036	98.6
1001.199	130.38
1001.361	103.83
1001.524	128.83
1001.687	154.21
1001.849	115.07
1002.012	150.72
1002.174	108.29
1002.337	154.21
1002.499	111.39
1002.661	140.26
1002.824	74
1002.986	89.88
1003.149	126.89
1003.311	88.33
1003.473	180.36
1003.636	80.58
1003.798	126.69
1003.96	125.92
1004.123	118.94
1004.285	94.15
1004.447	72.83
1004.609	99.76
1004.771	160.6
1004.933	78.84
1005.096	90.46
1005.258	71.28
1005.42	66.83
1005.582	141.03
1005.744	121.66
1005.906	67.99
1006.068	90.66
1006.23	90.66
1006.392	52.88
1006.554	91.05
1006.716	158.08
1006.878	109.84
1007.04	61.6
1007.202	81.36
1007.363	112.55
1007.525	120.49
1007.687	117.2
1007.849	118.36
1008.011	47.45
1008.172	59.27
1008.334	89.5
1008.496	108.48
1008.658	30.4
1008.819	63.53
1008.981	54.81
1009.143	77.87
1009.304	67.21
1009.466	124.56
1009.627	161.76
1009.789	166.03
1009.95	103.64
1010.112	71.86
1010.273	104.41
1010.435	79.61
1010.596	59.46
1010.758	51.71
1010.919	71.09
1011.081	39.7
1011.242	64.31
1011.403	103.25
1011.565	70.12
1011.726	99.18
1011.887	74.77
1012.049	67.8
1012.21	108.48
1012.371	114.1
1012.532	25.56
1012.693	98.79
1012.855	63.53
1013.016	78.45
1013.177	113.52
1013.338	76.51
1013.499	140.06
1013.66	92.79
1013.821	117.98
1013.982	89.3
1014.143	80.78
1014.304	54.43
1014.465	86.59
1014.626	91.63
1014.787	54.62
1014.948	155.18
1015.109	18.97
1015.27	110.23
1015.431	51.91
1015.592	51.33
1015.752	125.34
1015.913	63.92
1016.074	71.86
1016.235	63.34
1016.395	70.9
1016.556	46.1
1016.717	69.54
1016.877	109.26
1017.038	37.38
1017.199	86.78
1017.359	67.21
1017.52	84.65
1017.681	54.81
1017.841	58.69
1018.002	44.74
1018.162	46.68
1018.323	116.23
1018.483	52.49
1018.644	48.81
1018.804	44.93
1018.964	50.36
1019.125	39.12
1019.285	54.81
1019.446	30.79
1019.606	-1.76
1019.766	8.7
1019.926	84.26
1020.087	82.91
1020.247	2.12
1020.407	59.85
1020.567	110.03
1020.728	52.3
1020.888	22.46
1021.048	32.73
1021.208	31.37
1021.368	27.69
1021.528	121.46
1021.688	91.24
1021.848	50.75
1022.008	57.14
1022.168	29.82
1022.328	51.71
1022.488	65.47
1022.648	60.24
1022.808	40.28
1022.968	83.68
1023.128	19.75
1023.288	23.81
1023.448	65.28
1023.608	73.61
1023.767	44.35
1023.927	42.41
1024.087	4.44
1024.247	15.87
1024.406	13.55
1024.566	12.77
1024.726	16.45
1024.885	41.45
1025.045	79.61
1025.205	68.96
1025.364	31.76
1025.524	63.73
1025.683	52.68
1025.843	75.93
1026.003	33.31
1026.162	82.91
1026.321	83.3
1026.481	46.29
1026.64	28.27
1026.8	30.21
1026.959	36.8
1027.119	39.31
1027.278	2.12
1027.437	26.14
1027.597	56.17
1027.756	60.82
1027.915	15.1
1028.074	67.41
1028.234	48.03
1028.393	74.19
1028.552	39.9
1028.711	-22.1
1028.87	70.7
1029.03	9.48
1029.189	40.09
1029.348	-21.52
1029.507	20.52
1029.666	28.85
1029.825	-8.35
1029.984	11.61
1030.143	52.88
1030.302	15.29
1030.461	-8.15
1030.62	43
1030.779	72.45
1030.938	8.51
1031.097	-5.44
1031.255	46.48
1031.414	105.38
1031.573	69.15
1031.732	9.09
1031.891	20.52
1032.049	42.03
1032.208	52.49
1032.367	-4.47
1032.525	45.32
1032.684	22.46
1032.843	34.66
1033.001	-19.78
1033.16	162.93
1033.319	89.69
1033.477	53.65
1033.636	19.94
1033.794	-28.88
1033.953	62.95
1034.111	59.66
1034.27	21.3
1034.428	60.63
1034.587	7.15
1034.745	55.59
1034.903	28.08
1035.062	58.5
1035.22	-29.08
1035.378	84.26
1035.537	-7.57
1035.695	59.85
1035.853	42.22
1036.011	51.52
1036.17	39.9
1036.328	-36.25
1036.486	16.84
1036.644	55.01
1036.802	-50.2
1036.96	26.72
1037.119	21.88
1037.277	-2.92
1037.435	-16.48
1037.593	13.93
1037.751	44.93
1037.909	19.94
1038.067	19.94
