Data from calibration3_FLMT105791__1__17-25-29-069.txt Node

Date: Mon Mar 20 17:25:29 GMT 2023
User: antho
Spectrometer: FLMT10579
Trigger mode: 0
Integration Time (sec): 1.000000E-1
Scans to average: 10
Electric dark correction enabled: true
Nonlinearity correction enabled: false
Boxcar width: 0
XAxis mode: Wavelengths
Number of Pixels in Spectrum: 3648
>>>>>Begin Spectral Data<<<<<
345.248	-170.17
345.464	-170.17
345.681	-170.17
345.898	-162.81
346.114	-159.52
346.331	-12.85
346.548	14.27
346.764	-27
346.981	-7.04
347.197	-5.49
347.414	19.12
347.631	-27.19
347.847	66.39
348.064	5.94
348.28	2.84
348.497	-26.41
348.713	-2.58
348.93	29.19
349.146	73.75
349.363	102.23
349.579	116.38
349.796	104.56
350.012	107.08
350.229	153.96
350.445	113.28
350.661	122.58
350.878	120.45
351.094	147.76
351.311	141.18
351.527	130.71
351.743	128
351.96	152.8
352.176	206.66
352.392	172.56
352.609	160.36
352.825	129.16
353.041	152.22
353.257	131.3
353.474	160.55
353.69	174.5
353.906	159.2
354.122	163.07
354.339	237.28
354.555	187.48
354.771	170.82
354.987	252.78
355.203	240.96
355.42	165.59
355.636	176.25
355.852	186.13
356.068	181.48
356.284	156.87
356.5	225.65
356.716	203.95
356.932	167.53
357.148	221.78
357.364	176.25
357.58	195.43
357.796	255.68
358.012	227.98
358.228	170.63
358.444	142.92
358.66	202.4
358.876	184.38
359.092	139.63
359.308	200.85
359.524	224.1
359.74	220.23
359.956	240.38
360.172	247.93
360.388	300.24
360.604	237.86
360.819	341.51
361.035	236.11
361.251	272.54
361.467	195.04
361.683	259.94
361.898	254.33
362.114	257.23
362.33	300.44
362.546	263.04
362.762	288.23
362.977	302.76
363.193	261.69
363.409	353.52
363.624	271.57
363.84	269.24
364.056	277.96
364.271	338.61
364.487	326.79
364.703	308.57
364.918	303.34
365.134	290.56
365.35	329.31
365.565	444.39
365.781	364.96
365.996	421.53
366.212	455.82
366.427	435.48
366.643	396.92
366.858	403.7
367.074	390.53
367.289	449.04
367.505	528.28
367.72	372.12
367.936	424.24
368.151	451.37
368.367	456.02
368.582	421.92
368.798	374.06
369.013	454.27
369.228	453.3
369.444	435.67
369.659	457.76
369.874	467.64
370.09	511.43
370.305	424.44
370.52	445.36
370.736	501.55
370.951	435.87
371.166	480.62
371.381	502.13
371.597	495.54
371.812	427.54
372.027	438.19
372.242	442.45
372.458	520.73
372.673	408.94
372.888	404.09
373.103	474.62
373.318	514.72
373.533	464.54
373.749	402.93
373.964	357.01
374.179	456.99
374.394	350.04
374.609	462.02
374.824	390.53
375.039	437.22
375.254	380.84
375.469	463.38
375.684	454.47
375.899	537.97
376.114	540.1
376.329	508.52
376.544	534.1
376.759	556.57
376.974	467.06
377.189	511.04
377.404	519.18
377.619	580.21
377.834	554.25
378.049	576.72
378.264	598.03
378.478	664.68
378.693	653.44
378.908	692.78
379.123	622.25
379.338	645.69
379.553	614.5
379.767	582.53
379.982	573.81
380.197	586.02
380.412	578.08
380.626	631.94
380.841	725.13
381.056	719.51
381.271	749.54
381.485	633.1
381.7	629.42
381.915	651.31
382.129	542.82
382.344	549.98
382.559	542.82
382.773	571.1
382.988	444.97
383.202	509.3
383.417	445.75
383.632	563.35
383.846	494.38
384.061	478.68
384.275	482.95
384.49	574.2
384.704	643.56
384.919	673.4
385.133	684.64
385.348	769.31
385.562	675.14
385.777	739.86
385.991	669.91
386.206	680.38
386.42	652.48
386.634	767.95
386.849	721.26
387.063	764.66
387.277	739.08
387.492	725.91
387.706	711.57
387.92	716.8
388.135	776.09
388.349	821.81
388.563	794.3
388.778	750.32
388.992	798.56
389.206	818.13
389.42	872.19
389.635	845.45
389.849	953.37
390.063	1017.5
390.277	1005.1
390.491	1082.98
390.706	1022.92
390.92	1040.36
391.134	1038.03
391.348	1088.21
391.562	1058.57
391.776	1135.29
391.99	1167.07
392.205	1142.08
392.419	1047.91
392.633	1015.17
392.847	980.68
393.061	862.89
393.275	816.58
393.489	651.7
393.703	622.06
393.917	618.76
394.131	581.18
394.345	735.21
394.559	887.49
394.773	918.88
394.986	1107.59
395.2	1125.22
395.414	1237.4
395.628	1235.85
395.842	1317.61
396.056	1244.57
396.27	1176.95
396.484	1170.75
396.697	1017.5
396.911	918.68
397.125	781.12
397.339	771.63
397.553	789.26
397.766	968.28
397.98	1147.69
398.194	1313.35
398.408	1443.74
398.621	1546.43
398.835	1617.53
399.049	1650.86
399.262	1755.29
399.476	1783.96
399.69	1804.3
399.903	1852.55
400.117	1829.88
400.331	1874.44
400.544	1880.83
400.758	1992.82
400.971	1921.71
401.185	1960.85
401.398	1873.66
401.612	2025.37
401.826	2059.47
402.039	2056.37
402.253	2066.25
402.466	2128.64
402.68	2135.8
402.893	2208.65
403.106	2141.42
403.32	2070.9
403.533	2134.84
403.747	2083.49
403.96	2115.46
404.174	2199.35
404.387	2205.75
404.6	2184.44
404.814	2216.4
405.027	2111.2
405.24	2120.89
405.454	2142
405.667	2201.87
405.88	2198.19
406.094	2235.39
406.307	2220.67
406.52	2139.68
406.733	2093.18
406.947	2138.9
407.16	2222.22
407.373	2274.33
407.586	2289.64
407.799	2266.58
408.012	2297.39
408.226	2314.83
408.439	2427.98
408.652	2383.61
408.865	2546.94
409.078	2607.39
409.291	2629.67
409.504	2549.84
409.717	2581.23
409.93	2569.22
410.143	2418.09
410.357	2273.95
410.57	2176.88
410.783	2294.1
410.996	2364.43
411.209	2407.63
411.421	2667.25
411.634	2683.92
411.847	2689.34
412.06	2750.37
412.273	2793.19
412.486	2778.66
412.699	2815.47
412.912	2877.66
413.125	2749.98
413.338	2796.48
413.55	2735.84
413.763	2713.37
413.976	2785.44
414.189	2761.61
414.402	2839.49
414.615	2935.01
414.827	2809.85
415.04	2856.35
415.253	2878.24
415.466	2926.49
415.678	2993.33
415.891	2890.26
416.104	2840.08
416.316	2920.48
416.529	3000.5
416.742	3113.45
416.954	3063.27
417.167	3065.02
417.38	2958.26
417.592	2980.35
417.805	2880.76
418.017	2899.36
418.23	2896.65
418.442	2903.82
418.655	2953.42
418.868	2896.07
419.08	3014.64
419.293	3064.05
419.505	3089.43
419.718	3049.9
419.93	3111.13
420.142	3042.74
420.355	3022.39
420.567	3006.7
420.78	3083.42
420.992	3119.85
421.205	3282.4
421.417	3302.16
421.629	3339.36
421.842	3307.2
422.054	3311.46
422.266	3367.07
422.479	3319.21
422.691	3108.61
422.903	3184.56
423.115	3067.34
423.328	3092.92
423.54	3100.28
423.752	3162.86
423.964	3252.95
424.177	3287.24
424.389	3294.99
424.601	3449.02
424.813	3384.31
425.025	3426.74
425.238	3434.3
425.45	3348.86
425.662	3322.7
425.874	3683.85
426.086	3318.44
426.298	3451.74
426.51	3413.57
426.722	3394.97
426.934	3431.59
427.146	3443.02
427.358	3397.87
427.57	3402.72
427.782	3260.9
427.994	3328.13
428.206	3291.7
428.418	3508.31
428.63	3611.96
428.842	3623.01
429.054	3472.47
429.266	3458.13
429.478	3342.08
429.69	3346.92
429.902	3233.38
430.114	3189.79
430.325	3036.34
430.537	2853.25
430.749	2791.83
430.961	2631.6
431.173	2722.47
431.384	2786.41
431.596	2851.7
431.808	3305.07
432.02	3698.96
432.231	3945.02
432.443	4150.97
432.655	4025.81
432.867	3895.03
433.078	3934.94
433.29	4042.28
433.502	4161.04
433.713	4246.87
433.925	4264.89
434.136	4134.7
434.348	3854.92
434.56	3724.73
434.771	3988.22
434.983	3869.46
435.194	4158.33
435.406	4331.54
435.617	4331.74
435.829	4496.42
436.04	4497
436.252	4421.05
436.463	4674.28
436.675	4810.1
436.886	4879.65
437.098	4897.67
437.309	4933.13
437.521	4773.67
437.732	4656.07
437.943	4623.13
438.155	4589.81
438.366	4469.49
438.578	4606.08
438.789	4362.54
439	4313.14
439.211	4323.02
439.423	4425.32
439.634	4601.04
439.845	4751.97
440.057	4814.75
440.268	4975.17
440.479	4904.07
440.69	4834.9
440.902	4811.07
441.113	4798.86
441.324	4948.82
441.535	5154.39
441.746	5257.46
441.957	5230.72
442.168	5321.4
442.38	5349.68
442.591	5373.13
442.802	5286.91
443.013	5489.57
443.224	5525.8
443.435	5455.08
443.646	5400.83
443.857	5376.03
444.068	5413.43
444.279	5378.94
444.49	5721.87
444.701	5577.72
444.912	5846.84
445.123	5755.39
445.334	5535.87
445.545	5676.34
445.756	5539.94
445.967	5442.88
446.178	5352.59
446.388	5295.43
446.599	5383.78
446.81	5447.91
447.021	5475.43
447.232	5622.87
447.443	5727.68
447.653	5874.55
447.864	5981.11
448.075	6020.63
448.286	5985.37
448.496	5934.41
448.707	5963.86
448.918	5886.36
449.129	5953.4
449.339	5968.71
449.55	6074.3
449.761	6006.49
449.971	5991.57
450.182	6141.53
450.393	6177.57
450.603	6155.87
450.814	6467.61
451.024	6394.95
451.235	6564.48
451.446	6576.69
451.656	6565.25
451.867	6465.47
452.077	6303.5
452.288	6472.84
452.498	6331.98
452.709	6313.58
452.919	6145.79
453.13	6009.97
453.34	5965.8
453.55	5765.08
453.761	6082.24
453.971	5971.22
454.182	6157.03
454.392	6203.53
454.602	6447.26
454.813	6502.87
455.023	6329.66
455.233	6273.28
455.444	6375.38
455.654	6153.15
455.864	6274.63
456.075	6425.76
456.285	6394.37
456.495	6437.38
456.705	6525.54
456.916	6732.65
457.126	6752.41
457.336	6687.51
457.546	6554.21
457.756	6710.76
457.967	6772.95
458.177	6608.27
458.387	6685.38
458.597	6498.8
458.807	6632.29
459.017	6470.12
459.227	6503.64
459.437	6541.62
459.647	6721.41
459.857	6649.92
460.068	6812.67
460.278	6843.09
460.488	6809.38
460.698	6842.51
460.908	6912.84
461.117	7061.05
461.327	7032.57
461.537	7164.13
461.747	7127.7
461.957	7123.83
462.167	7293.74
462.377	7286.77
462.587	7144.56
462.797	7355.36
463.007	7210.43
463.216	7429.75
463.426	7577.58
463.636	7458.43
463.846	7218.57
464.056	7247.83
464.265	7216.63
464.475	7284.83
464.685	7482.07
464.895	7367.95
465.104	7210.43
465.314	7410.57
465.524	7308.66
465.733	7339.47
465.943	7544.45
466.153	7715.73
466.362	7775.21
466.572	7608.78
466.782	7515.39
466.991	7656.44
467.201	7568.09
467.41	7401.66
467.62	7698.48
467.829	7679.49
468.039	7895.52
468.249	7797.29
468.458	7945.32
468.668	7911.22
468.877	8047.61
469.086	8173.94
469.296	8347.34
469.505	8379.5
469.715	8301.04
469.924	8219.47
470.134	8359.16
470.343	8148.36
470.552	8164.83
470.762	8110.58
470.971	8190.79
471.18	8301.42
471.39	8433.56
471.599	8358.58
471.808	8470.76
472.018	8753.44
472.227	8934.4
472.436	9215.72
472.645	9175.8
472.855	9092.69
473.064	9398.03
473.273	9391.25
473.482	9110.12
473.691	9254.27
473.901	9166.5
474.11	9048.32
474.319	9448.41
474.528	9387.18
474.737	9858.96
474.946	9697.18
475.155	9783.98
475.364	9994.19
475.573	9798.12
475.783	10099.59
475.992	9915.53
476.201	9961.84
476.41	10076.15
476.619	9852.37
476.828	9875.04
477.037	9872.13
477.245	9957.19
477.454	10148.8
477.663	10434.77
477.872	10678.31
478.081	10824.4
478.29	10751.16
478.499	10916.24
478.708	11095.84
478.917	11117.73
479.125	10769.96
479.334	10896.86
479.543	11197.17
479.752	11302.18
479.961	11304.5
480.169	11573.23
480.378	11625.16
480.587	11976.42
480.796	11761.17
481.004	11872.38
481.213	11927.21
481.422	12031.44
481.63	12257.94
481.839	12376.51
482.048	12491.21
482.256	12475.13
482.465	12814.57
482.674	12686.5
482.882	12708.2
483.091	12812.25
483.299	12610.94
483.508	12951.74
483.716	13130.57
483.925	13152.66
484.134	12783.57
484.342	13067.8
484.551	13099.77
484.759	12957.36
484.967	13470.41
485.176	13319.48
485.384	13315.21
485.593	13142.39
485.801	13106.74
486.01	12513.68
486.218	11909.77
486.426	11478.3
486.635	11264.79
486.843	11325.24
487.051	11662.36
487.26	11976.03
487.468	12309.47
487.676	12663.06
487.885	12973.06
488.093	13290.22
488.301	13814.11
488.509	13769.36
488.717	14044.09
488.926	14096.02
489.134	13823.41
489.342	13858.67
489.55	13711.62
489.758	14135.54
489.967	14531.75
490.175	14449.99
490.383	14959.35
490.591	15275.35
490.799	15118.23
491.007	15037.05
491.215	15046.54
491.423	14922.73
491.631	14887.28
491.839	14816.95
492.047	14742.74
492.255	14450.77
492.463	14461.42
492.671	14261.09
492.879	14643.74
493.087	14885.34
493.295	15060.29
493.503	15216.07
493.711	15649.29
493.919	15525.29
494.127	15528.19
494.334	15436.94
494.542	15523.54
494.75	16006.17
494.958	15664.21
495.166	16180.35
495.374	16222.78
495.581	16401.41
495.789	16320.81
495.997	16346.78
496.205	15723.3
496.412	16014.69
496.62	16401.03
496.828	16159.62
497.035	16368.86
497.243	16461.28
497.451	16556.99
497.658	16521.73
497.866	16504.1
498.074	16606.59
498.281	16275.09
498.489	16335.35
498.696	16099.17
498.904	15969.94
499.112	15961.99
499.319	16295.63
499.527	16393.28
499.734	16597.29
499.942	16468.26
500.149	16549.05
500.357	16514.95
500.564	16215.22
500.771	16207.86
500.979	15965.68
501.186	15811.45
501.394	16135.01
501.601	15658.39
501.808	15752.36
502.016	15799.25
502.223	15756.24
502.43	15943.39
502.638	15870.35
502.845	16204.57
503.052	16398.31
503.26	16382.81
503.467	16587.02
503.674	16617.25
503.881	16528.32
504.089	16393.66
504.296	16252.23
504.503	16139.85
504.71	16049.37
504.917	16277.42
505.125	16417.88
505.332	16636.62
505.539	16652.9
505.746	17114.98
505.953	17165.36
506.16	17254.09
506.367	17267.08
506.574	17596.06
506.781	17510.81
506.988	17413.74
507.195	17276.38
507.402	17304.47
507.609	17227.36
507.816	16961.34
508.023	17004.94
508.23	16773.6
508.437	16562.61
508.644	16759.26
508.851	16888.69
509.058	17312.8
509.265	17344.57
509.472	17564.09
509.679	17640.23
509.885	17563.12
510.092	17564.48
510.299	17538.13
510.506	17174.46
510.713	17331.79
510.92	17305.83
511.126	17386.81
511.333	17613.88
511.54	17745.63
511.746	17789.22
511.953	17797.56
512.16	18080.62
512.367	17924.07
512.573	17708.63
512.78	17717.54
512.987	17596.25
513.193	17368.02
513.4	17245.18
513.606	17333.92
513.813	17398.05
514.02	17233.95
514.226	17261.07
514.433	17257.58
514.639	17137.46
514.846	17179.89
515.052	17128.93
515.259	17312.8
515.465	17347.67
515.672	17389.72
515.878	17516.82
516.085	17713.66
516.291	17651.86
516.497	17501.7
516.704	16938.48
516.91	16565.9
517.117	15785.68
517.323	15339.48
517.529	15363.9
517.736	15332.9
517.942	15447.21
518.148	15845.55
518.354	16023.99
518.561	16022.25
518.767	15857.56
518.973	15982.14
519.179	16364.41
519.386	16545.17
519.592	16537.23
519.798	16569.97
520.004	17256.81
520.21	17314.93
520.417	17410.84
520.623	17577.07
520.829	17500.35
521.035	17623.38
521.241	17464.7
521.447	17636.75
521.653	17923.49
521.859	17785.54
522.065	17943.83
522.271	17973.09
522.477	17945
522.683	18151.92
522.889	17766.17
523.095	17505.19
523.301	17643.14
523.507	17427.69
523.713	17603.23
523.919	17501.9
524.125	18046.33
524.331	18220.7
524.537	18487.68
524.742	18561.11
524.948	18486.33
525.154	18657.79
525.36	18476.83
525.566	18286.57
525.772	18477.41
525.977	18335.98
526.183	18234.26
526.389	18269.72
526.595	17661.16
526.8	17424.59
527.006	16893.53
527.212	16430.28
527.417	16469.81
527.623	16522.12
527.829	16816.61
528.034	17244.21
528.24	17254.87
528.446	17665.81
528.651	18041.68
528.857	18107.16
529.062	18272.04
529.268	18579.13
529.473	18666.32
529.679	18916.06
529.884	18876.34
530.09	18713.59
530.295	18248.99
530.501	18578.74
530.706	18573.9
530.912	18764.94
531.117	18825.97
531.323	18666.71
531.528	19153.79
531.733	19124.72
531.939	18930.01
532.144	18952.29
532.35	18732.39
532.555	18688.02
532.76	18232.91
532.966	18053.3
533.171	17917.87
533.376	17822.36
533.581	17809.96
533.787	18005.06
533.992	18283.28
534.197	17977.55
534.402	18528.56
534.607	18566.54
534.813	18462.88
535.018	18469.28
535.223	18684.53
535.428	18750.4
535.633	18937.37
535.838	19194.86
536.043	19204.55
536.249	19434.53
536.454	19191.37
536.659	19243.49
536.864	19090.24
537.069	18863.55
537.274	18702.36
537.479	18810.08
537.684	18613.23
537.889	18574.48
538.094	19029.21
538.299	18828.1
538.504	19189.44
538.708	19001.11
538.913	19294.64
539.118	19169.87
539.323	19058.08
539.528	18851.35
539.733	18768.23
539.938	18812.21
540.142	18656.05
540.347	18617.3
540.552	18499.89
540.757	18126.34
540.962	18359.23
541.166	18151.34
541.371	18193.58
541.576	18227.48
541.781	18427.23
541.985	18742.07
542.19	18537.48
542.395	19057.11
542.599	18964.3
542.804	18693.83
543.008	18919.55
543.213	18862
543.418	18678.91
543.622	18942.6
543.827	18567.31
544.031	18909.86
544.236	19022.43
544.44	19249.11
544.645	19186.14
544.849	19172.77
545.054	19245.82
545.258	19300.84
545.463	19389.96
545.667	19006.54
545.872	19376.21
546.076	19224.12
546.281	19248.92
546.485	19123.56
546.689	19151.66
546.894	19200.29
547.098	19354.9
547.302	19230.9
547.507	19171.8
547.711	19252.4
547.915	19156.89
548.119	18857.74
548.324	18934.08
548.528	18921.48
548.732	19013.71
548.936	19275.46
549.141	19155.14
549.345	19215.2
549.549	19301.81
549.753	19412.44
549.957	19354.12
550.161	19476.18
550.366	19498.27
550.57	19303.17
550.774	19221.6
550.978	19397.71
551.182	19276.04
551.386	19077.06
551.59	19207.45
551.794	19204.55
551.998	19321.18
552.202	19414.57
552.406	19346.18
552.61	19617.62
552.814	19444.41
553.018	19347.15
553.222	19070.86
553.426	19183.82
553.63	19339.98
553.833	19269.45
554.037	18992.78
554.241	19103.99
554.445	19376.21
554.649	19281.08
554.853	19188.66
555.056	19413.41
555.26	19553.49
555.464	19352.96
555.668	19447.7
555.871	19515.9
556.075	19458.16
556.279	19261.12
556.483	19162.89
556.686	19054.2
556.89	19135.57
557.094	19066.02
557.297	18706.81
557.501	18731.03
557.704	18527.01
557.908	18839.14
558.112	18816.28
558.315	18895.72
558.519	18733.94
558.722	18462.69
558.926	18684.53
559.129	18136.03
559.333	18266.42
559.536	18238.33
559.74	18126.73
559.943	18099.61
560.147	18269.91
560.35	18148.43
560.553	18432.27
560.757	18452.03
560.96	18464.63
561.164	18549.3
561.367	18797.1
561.57	18670
561.774	18553.94
561.977	18360.39
562.18	18425.88
562.384	18559.76
562.587	18340.63
562.79	18540
562.993	18486.91
563.197	18385.38
563.4	18632.41
563.603	18543.29
563.806	18560.14
564.009	18541.93
564.212	18520.81
564.416	18254.8
564.619	18233.87
564.822	18174.78
565.025	18443.9
565.228	18401.08
565.431	18433.24
565.634	18156.57
565.837	18059.5
566.04	17943.45
566.243	17777.6
566.446	17709.79
566.649	17913.22
566.852	17606.71
567.055	17943.06
567.258	17858.78
567.461	18063.57
567.664	18076.16
567.867	18130.41
568.07	17916.13
568.273	18086.82
568.475	18200.55
568.678	17717.93
568.881	17803.17
569.084	17466.05
569.287	17381.58
569.489	17495.89
569.692	17568.93
569.895	17609.04
570.098	17452.3
570.3	17475.94
570.503	17355.23
570.706	17243.63
570.909	17142.69
571.111	17020.05
571.314	16941
571.516	16903.41
571.719	17005.52
571.922	17017.34
572.124	17116.34
572.327	17270.37
572.529	17227.55
572.732	17372.86
572.935	17440.87
573.137	17718.12
573.34	17399.02
573.542	17699.91
573.745	17521.47
573.947	17591.6
574.15	17362.79
574.352	17455.59
574.554	17624.73
574.757	17360.66
574.959	17045.24
575.162	17470.51
575.364	17187.06
575.566	17229.3
575.769	16960.76
575.971	17091.54
576.173	16709.08
576.376	16857.69
576.578	17100.07
576.78	17085.34
576.982	16982.65
577.185	17103.75
577.387	17042.14
577.589	17213.02
577.791	17065.58
577.993	17088.83
578.196	17120.99
578.398	16945.65
578.6	16844.51
578.802	16769.34
579.004	16748.61
579.206	16753.65
579.408	16972
579.61	16898.37
579.812	17156.83
580.014	16930.92
580.216	17010.94
580.418	17247.31
580.62	17274.83
580.822	17280.44
581.024	17262.62
581.226	17320.74
581.428	17324.04
581.63	17661.93
581.832	17472.45
582.034	17527.86
582.236	17548.4
582.438	17756.48
582.64	17811.51
582.841	17802.59
583.043	18059.5
583.245	17858
583.447	17930.47
583.649	17890.55
583.85	17933.37
584.052	17996.34
584.254	17811.12
584.456	17901.6
584.657	17820.03
584.859	18013.39
585.061	17737.88
585.262	17892.49
585.464	17641.78
585.666	17766.17
585.867	17452.3
586.069	17493.37
586.27	17445.32
586.472	17422.65
586.674	17488.92
586.875	17371.51
587.077	17454.43
587.278	17517.98
587.48	17524.95
587.681	17624.93
587.883	17552.08
588.084	17321.13
588.285	17309.7
588.487	16940.22
588.688	16861.18
588.89	16386.88
589.091	16062.16
589.292	15652.19
589.494	15234.28
589.695	15089.55
589.896	14827.6
590.098	15028.71
590.299	15047.31
590.5	15278.26
590.702	15582.06
590.903	15841.87
591.104	16023.99
591.305	16298.34
591.507	16268.7
591.708	16298.53
591.909	16297.76
592.11	16302.41
592.311	16362.47
592.512	16154
592.714	16137.53
592.915	16415.94
593.116	16322.17
593.317	16577.72
593.518	16539.94
593.719	16602.72
593.92	16622.67
594.121	16517.08
594.322	16517.08
594.523	16351.04
594.724	16210.57
594.925	16285.36
595.126	16030.39
595.327	16175.89
595.528	16336.31
595.729	16275.09
595.929	16291.36
596.13	16473.49
596.331	16628.49
596.532	16453.53
596.733	16722.45
596.934	16658.13
597.135	16703.27
597.335	16708.12
597.536	16645.34
597.737	16678.67
597.938	16556.99
598.138	16531.03
598.339	16658.9
598.54	16660.84
598.74	16345.03
598.941	16453.92
599.142	16629.45
599.342	16553.89
599.543	16559.9
599.744	16591.67
599.944	16688.16
600.145	16797.43
600.345	16659.29
600.546	16682.93
600.746	16661.62
600.947	16887.33
601.147	16445.59
601.348	16836.57
601.548	16545.56
601.749	16495.38
601.949	16414.78
602.15	16390.18
602.35	16226.46
602.551	16312.87
602.751	16415.17
602.951	16495.77
603.152	16477.56
603.352	16514.37
603.552	16617.05
603.753	16797.63
603.953	16897.02
604.153	16802.08
604.354	16821.07
604.554	16828.24
604.754	16910.97
604.954	16882.29
605.155	17003.19
605.355	16834.63
605.555	16792.78
605.755	16859.43
605.955	16744.54
606.155	16783.48
606.356	16834.24
606.556	16774.76
606.756	16770.5
606.956	16701.53
607.156	16865.24
607.356	16737.95
607.556	16729.81
607.756	16737.56
607.956	16791.04
608.156	16718.19
608.356	16515.34
608.556	16690.48
608.756	16477.36
608.956	16504.87
609.156	16469.42
609.356	16521.34
609.556	16470
609.755	16429.89
609.955	16341.16
610.155	16462.44
610.355	16440.55
610.555	16197.78
610.755	16128.42
610.954	16180.74
611.154	16335.15
611.354	16371.58
611.554	16139.85
611.753	16396.57
611.953	16169.11
612.153	16359.95
612.352	16315.97
612.552	16080.76
612.752	16062.74
612.951	16297.18
613.151	16005.39
613.351	16279.93
613.55	16160.78
613.75	16096.46
613.949	15896.31
614.149	15906.78
614.348	15951.34
614.548	15922.86
614.747	15849.23
614.947	16014.5
615.146	15849.04
615.346	16022.83
615.545	16103.04
615.745	15962.38
615.944	15946.49
616.144	15855.05
616.343	15652
616.542	15738.99
616.742	15529.74
616.941	15551.06
617.14	15286.01
617.34	15552.8
617.539	15555.51
617.738	15589.61
617.938	15808.74
618.137	15689.39
618.336	15800.99
618.535	15885.66
618.734	15895.73
618.934	15747.71
619.133	15826.37
619.332	16060.22
619.531	15675.25
619.73	15994.74
619.929	15873.26
620.128	15888.37
620.328	15975.75
620.527	15906
620.726	15945.53
620.925	15957.73
621.124	16061.19
621.323	15905.81
621.522	15578.57
621.721	15921.7
621.92	15606.27
622.119	15713.22
622.318	15620.61
622.517	15609.76
622.715	15565.59
622.914	15505.53
623.113	15627.59
623.312	15212.19
623.511	15405.75
623.71	15333.09
623.909	15244.94
624.107	15429.58
624.306	15137.79
624.505	15255.01
624.704	15155.04
624.902	15011.86
625.101	15110.28
625.3	14991.71
625.499	14964.58
625.697	14977.37
625.896	14887.86
626.095	14776.46
626.293	14703.22
626.492	14943.66
626.69	14842.33
626.889	15047.7
627.088	14979.5
627.286	15007.79
627.485	14681.13
627.683	14588.91
627.882	14380.24
628.08	14168.09
628.279	14043.9
628.477	14115.2
628.676	13924.35
628.874	14097.56
629.073	14033.82
629.271	14162.28
629.469	14158.98
629.668	14210.13
629.866	14013.87
630.065	14032.08
630.263	14119.65
630.461	13972.99
630.66	14232.22
630.858	14155.69
631.056	14357.57
631.254	14379.27
631.453	14208.19
631.651	14263.41
631.849	14167.31
632.047	14231.64
632.245	14048.93
632.444	14268.84
632.642	14330.26
632.84	14560.23
633.038	14302.94
633.236	14267.09
633.434	14413.37
633.632	14478.47
633.83	14331.81
634.028	14643.16
634.227	14439.34
634.425	14624.36
634.623	14417.83
634.821	14631.34
635.019	14633.66
635.216	14767.93
635.414	14798.74
635.612	14604.21
635.81	14646.84
636.008	14659.82
636.206	14695.86
636.404	14536.79
636.602	14582.51
636.8	14433.14
636.997	14602.28
637.195	14710.39
637.393	14667.57
637.591	14803.19
637.789	14844.27
637.986	14833.03
638.184	14808.23
638.382	14937.65
638.58	14845.04
638.777	14888.05
638.975	14782.07
639.173	14818.11
639.37	14810.17
639.568	14759.6
639.765	14739.64
639.963	14742.74
640.161	14437.2
640.358	14708.45
640.556	14536.01
640.753	14551.71
640.951	14515.09
641.148	14514.12
641.346	14533.88
641.543	14436.62
641.741	14494.36
641.938	14401.94
642.136	14456.19
642.333	14442.44
642.531	14592.4
642.728	14525.75
642.925	14645.09
643.123	14541.25
643.32	14589.49
643.517	14409.69
643.715	14417.25
643.912	14588.52
644.109	14487.97
644.306	14499.78
644.504	14451.35
644.701	14513.93
644.898	14460.07
645.095	14444.57
645.293	14402.14
645.49	14344.21
645.687	14280.07
645.884	14406.59
646.081	14049.9
646.278	14059.4
646.475	13969.89
646.672	13934.04
646.87	13847.05
647.067	13809.08
647.264	13784.47
647.461	13700.77
647.658	13426.23
647.855	13610.29
648.052	13480.29
648.249	13387.87
648.446	13484.94
648.642	13574.06
648.839	13273.75
649.036	13367.14
649.233	13355.32
649.43	13282.47
649.627	13071.29
649.824	13155.18
650.021	13080.59
650.217	13378.57
650.414	13422.74
650.611	13493.65
650.808	13742.23
651.004	13642.65
651.201	13631.02
651.398	13714.72
651.595	13526.4
651.791	13357.26
651.988	13500.82
652.185	13222.02
652.381	13578.32
652.578	13341.56
652.775	13490.94
652.971	13632.18
653.168	13444.44
653.364	13753.86
653.561	13415.77
653.757	13620.37
653.954	13761.41
654.15	13488.23
654.347	13655.82
654.543	13632.18
654.74	13465.76
654.936	13386.13
655.133	13235.58
655.329	13285.96
655.525	13022.85
655.722	13058.3
655.918	12772.33
656.115	12254.45
656.311	11972.55
656.507	11675.92
656.704	11418.62
656.9	11619.93
657.096	11770.27
657.292	11831.5
657.489	12048.69
657.685	12212.99
657.881	12267.62
658.077	12429.01
658.273	12720.6
658.47	12956.01
658.666	12902.34
658.862	13168.16
659.058	13177.27
659.254	13126.89
659.45	13312.69
659.646	13199.74
659.842	13229
660.038	13427.01
660.234	13271.62
660.43	13314.05
660.626	13485.32
660.822	13461.49
661.018	13510.51
661.214	13499.66
661.41	13414.61
661.606	13509.15
661.802	13615.72
661.998	13518.84
662.194	13543.25
662.39	13600.22
662.586	13555.85
662.781	13613.78
662.977	13712.98
663.173	13450.45
663.369	13573.67
663.564	13510.32
663.76	13491.52
663.956	13457.04
664.152	13293.71
664.347	13266
664.543	13470.79
664.739	13263.48
664.934	13299.52
665.13	13426.04
665.326	13362.88
665.521	13463.62
665.717	13328.39
665.912	13427.01
666.108	13137.93
666.304	13468.66
666.499	13254.76
666.695	13088.14
666.89	13303.78
667.086	13241.98
667.281	13258.64
667.477	13472.92
667.672	13282.47
667.867	13291.19
668.063	13212.14
668.258	13161.38
668.454	13224.54
668.649	13193.54
668.844	13321.22
669.04	13289.25
669.235	13207.68
669.43	13270.46
669.626	13154.98
669.821	13160.41
670.016	13119.14
670.211	13213.5
670.407	12976.74
670.602	13223.76
670.797	13091.05
670.992	13282.08
671.187	13025.95
671.382	13118.37
671.578	12852.16
671.773	12965.89
671.968	12783.38
672.163	12920.74
672.358	12881.61
672.553	12826.39
672.748	12970.73
672.943	13045.52
673.138	12843.44
673.333	12980.42
673.528	12788.8
673.723	12967.24
673.918	12797.71
674.113	12856.03
674.308	12963.17
674.503	12732.42
674.698	12841.31
674.892	12597.96
675.087	12819.61
675.282	12708.78
675.477	12734.55
675.672	12804.69
675.867	12608.23
676.061	12665
676.256	12583.82
676.451	12721.96
676.646	12701.23
676.84	12597.96
677.035	12480.16
677.23	12661.12
677.424	12664.22
677.619	12592.54
677.814	12664.03
678.008	12514.07
678.203	12589.24
678.397	12476.48
678.592	12497.02
678.787	12634.58
678.981	12506.13
679.176	12538.48
679.37	12522.4
679.565	12496.83
679.759	12557.08
679.954	12435.41
680.148	12450.13
680.342	12556.69
680.537	12418.94
680.731	12343.18
680.926	12464.47
681.12	12316.45
681.314	12344.93
681.509	12361.01
681.703	12325.55
681.897	12186.44
682.092	12275.76
682.286	12316.83
682.48	12293.97
682.674	12240.3
682.869	12171.72
683.063	12369.73
683.257	12220.35
683.451	12090.73
683.645	12250.96
683.839	12042.29
684.034	12033.38
684.228	11952.98
684.422	11859.59
684.616	11982.62
684.81	11992.11
685.004	11800.89
685.198	11956.27
685.392	11791
685.586	11891.75
685.78	11726.49
685.974	11747.6
686.168	11774.15
686.362	11638.14
686.556	10962.54
686.75	10528.55
686.944	9909.72
687.138	9189.75
687.331	8712.75
687.525	8333
687.719	8180.91
687.913	8235.74
688.107	8389.58
688.301	8443.25
688.494	8561.82
688.688	8544.19
688.882	8448.28
689.076	8441.31
689.269	8419.8
689.463	8572.67
689.657	8619.56
689.85	8641.45
690.044	8878.79
690.238	8897.39
690.431	8944.47
690.625	9031.85
690.818	9236.06
691.012	9263.77
691.205	9498.2
691.399	9513.89
691.593	9547.99
691.786	9571.63
691.98	9856.24
692.173	9871.94
692.366	9917.66
692.56	10006.01
692.753	9851.21
692.947	9853.34
693.14	9894.41
693.333	9898.29
693.527	9896.74
693.72	9849.85
693.914	9779.33
694.107	9686.33
694.3	9699.12
694.493	9555.74
694.687	9808.78
694.88	9640.99
695.073	9792.11
695.266	9763.83
695.46	9823.69
695.653	9834.35
695.846	9808.2
696.039	9864.77
696.232	9867.09
696.425	10081.57
696.618	10116.83
696.812	10283.26
697.005	10400.29
697.198	10520.6
697.391	10409.39
697.584	10538.62
697.777	10506.65
697.97	10456.67
698.163	10475.27
698.356	10353.59
698.549	10409.01
698.742	10373.36
698.935	10213.32
699.127	10162.17
699.32	10053.29
699.513	10033.91
699.706	9949.24
699.899	10027.32
700.092	9884.53
700.285	9816.14
700.477	9700.08
700.67	9814.78
700.863	9735.35
701.056	9867.29
701.248	9805.87
701.441	9802.19
701.634	9683.42
701.826	9833.19
702.019	9569.69
702.212	9752.2
702.404	9579.96
702.597	9599.92
702.79	9636.34
702.982	9689.43
703.175	9753.36
703.367	9794.44
703.56	9800.64
703.752	9895.96
703.945	9843.07
704.137	9781.26
704.33	9866.71
704.522	9921.34
704.715	9960.48
704.907	9955.64
705.1	10070.53
705.292	9973.66
705.484	9875.43
705.677	9920.18
705.869	9983.73
706.061	9927.16
706.254	10024.22
706.446	9865.16
706.638	9848.88
706.831	9951.37
707.023	9924.64
707.215	10067.82
707.407	10013.37
707.599	9930.06
707.792	10143.96
707.984	9963
708.176	9933.36
708.368	9921.54
708.56	9948.08
708.752	9964.16
708.944	9845.78
709.136	9931.42
709.329	9894.03
709.521	10031.97
709.713	9873.49
709.905	9957.96
710.097	10018.41
710.289	9857.02
710.481	9929.48
710.672	9945.95
710.864	9987.41
711.056	9960.67
711.248	9790.37
711.44	9872.33
711.632	9909.91
711.824	9947.5
712.016	9919.41
712.207	9873.1
712.399	9812.46
712.591	9802.96
712.783	9809.75
712.975	9749.3
713.166	9708.61
713.358	9652.23
713.55	9735.15
713.741	9663.27
713.933	9758.21
714.125	9624.33
714.316	9535.98
714.508	9603.6
714.7	9473.01
714.891	9516.61
715.083	9502.07
715.274	9341.65
715.466	9417.21
715.657	9405.78
715.849	9242.26
716.04	9145.97
716.232	9040.18
716.423	8899.71
716.615	8687.95
716.806	8373.3
716.998	8136.54
717.189	7816.28
717.381	7626.21
717.572	7399.14
717.763	7241.43
717.955	7154.05
718.146	6974.45
718.337	6799.11
718.528	6636.17
718.72	6420.14
718.911	6359.49
719.102	6303.89
719.293	6277.93
719.485	6196.55
719.676	6092.51
719.867	6052.6
720.058	6023.92
720.249	5992.34
720.44	6022.76
720.632	6185.32
720.823	6305.05
721.014	6548.01
721.205	6747.76
721.396	6918.26
721.587	7122.28
721.778	7294.32
721.969	7391
722.16	7509.97
722.351	7601.61
722.542	7805.24
722.733	7693.64
722.924	7559.56
723.115	7640.55
723.305	7418.13
723.496	7387.71
723.687	7058.53
723.878	7079.46
724.069	7003.12
724.26	7024.43
724.45	6790.78
724.641	6746.8
724.832	6719.48
725.023	6636.75
725.213	6623.77
725.404	6506.74
725.595	6502.48
725.785	6497.25
725.976	6599.35
726.167	6525.92
726.357	6531.15
726.548	6683.63
726.739	6467.8
726.929	6691
727.12	6602.45
727.31	6643.33
727.501	6500.35
727.691	6466.06
727.882	6491.05
728.072	6588.31
728.263	6591.6
728.453	6673.95
728.644	6743.7
728.834	6579.59
729.024	6448.81
729.215	6468.77
729.405	6439.32
729.596	6589.86
729.786	6574.17
729.976	6657.48
730.167	6590.63
730.357	6572.23
730.547	6565.64
730.737	6563.7
730.928	6630.16
731.118	6664.07
731.308	6633.45
731.498	6565.45
731.688	6745.63
731.879	6766.56
732.069	6821.19
732.259	6947.9
732.449	6999.44
732.639	7157.93
732.829	7079.65
733.019	7240.46
733.209	7341.21
733.399	7342.57
733.589	7448.55
733.779	7577.58
733.969	7484.97
734.159	7718.24
734.349	7715.53
734.539	7777.14
734.729	7756.99
734.919	7750.6
735.109	7890.49
735.299	7680.66
735.488	7720.57
735.678	7763.58
735.868	7676.59
736.058	7594.83
736.248	7568.67
736.437	7569.06
736.627	7494.27
736.817	7670.19
737.007	7545.03
737.196	7707.39
737.386	7621.37
737.576	7651.01
737.765	7710.11
737.955	7648.11
738.144	7837.4
738.334	7713.98
738.524	7632.99
738.713	7703.52
738.903	7657.02
739.092	7644.04
739.282	7620.4
739.471	7694.61
739.661	7602.58
739.85	7729.29
740.04	7690.93
740.229	7709.14
740.419	7755.06
740.608	7792.06
740.797	7698.68
740.987	7771.72
741.176	7724.06
741.365	7720.57
741.555	7646.56
741.744	7761.45
741.933	7688.41
742.123	7729.48
742.312	7729.09
742.501	7802.33
742.69	7732.19
742.88	7626.6
743.069	7847.67
743.258	7807.17
743.447	7833.52
743.636	7801.56
743.825	7750.02
744.014	7746.53
744.204	7815.31
744.393	7676.78
744.582	7812.21
744.771	7800.78
744.96	7734.91
745.149	7767.84
745.338	7714.95
745.527	7828.1
745.716	7705.84
745.905	7692.48
746.094	7774.82
746.283	7794.97
746.471	7710.69
746.66	7755.44
746.849	7797.29
747.038	7760.67
747.227	7699.26
747.416	7672.71
747.604	7701.19
747.793	7681.04
747.982	7619.24
748.171	7733.94
748.359	7646.75
748.548	7642.29
748.737	7599.09
748.926	7621.95
749.114	7407.86
749.303	7585.14
749.491	7485.94
749.68	7364.27
749.869	7541.55
750.057	7488.07
750.246	7439.44
750.434	7438.47
750.623	7394.69
750.811	7356.32
751	7423.75
751.188	7371.82
751.377	7325.71
751.565	7349.93
751.754	7329.78
751.942	7264.49
752.131	7410.96
752.319	7289.09
752.507	7290.64
752.696	7313.12
752.884	7304.4
753.072	7224.96
753.261	7311.37
753.449	7235.04
753.637	7185.05
753.825	7337.92
754.014	7234.84
754.202	7174.01
754.39	7281.92
754.578	7252.09
754.766	7159.48
754.955	7080.62
755.143	7131.96
755.331	7127.7
755.519	7122.28
755.707	7110.07
755.895	7036.45
756.083	7087.4
756.271	6957.4
756.459	7026.95
756.647	7064.73
756.835	6986.46
757.023	6950.81
757.211	6945.77
757.399	6933.76
757.587	6957.59
757.775	6814.99
757.963	6870.21
758.151	6861.3
758.339	6830.69
758.526	6745.05
758.714	6762.1
758.902	6562.15
759.09	6322.29
759.278	5988.86
759.465	5476.2
759.653	4826.95
759.841	4336.77
760.028	3744.68
760.216	3259.73
760.404	2976.09
760.591	2465.95
760.779	2088.14
760.967	1811.67
761.154	1535.58
761.342	1549.33
761.529	1543.13
761.717	1660.35
761.905	1665.77
762.092	1805.47
762.28	1697.94
762.467	1679.34
762.655	1553.98
762.842	1617.53
763.029	1625.67
763.217	1652.02
763.404	1624.31
763.592	1695.22
763.779	1634.97
763.966	1713.44
764.154	1768.07
764.341	1880.45
764.528	1905.63
764.716	2049.2
764.903	2124.18
765.09	2285.18
765.277	2377.02
765.465	2665.51
765.652	2722.67
765.839	2940.44
766.026	3161.5
766.213	3270.58
766.4	3486.42
766.588	3796.41
766.775	3895.22
766.962	4124.04
767.149	4282.14
767.336	4496.61
767.523	4589.42
767.71	4724.27
767.897	4974.01
768.084	5030.58
768.271	5201.47
768.458	5295.82
768.645	5420.4
768.832	5386.11
769.019	5561.45
769.206	5578.69
769.392	5620.74
769.579	5714.51
769.766	5781.55
769.953	5752.87
770.14	5838.9
770.327	5850.13
770.513	5891.98
770.7	5957.66
770.887	5845.48
771.073	5915.81
771.26	5950.3
771.447	5941.19
771.634	5904.77
771.82	6024.12
772.007	5914.84
772.193	5969.68
772.38	5993.31
772.567	5977.42
772.753	5900.51
772.94	6006.87
773.126	6019.27
773.313	6038.65
773.499	5953.79
773.686	6029.54
773.872	5887.14
774.059	5982.27
774.245	5873.77
774.432	5932.67
774.618	5785.81
774.804	5925.11
774.991	5800.15
775.177	5845.29
775.363	5887.72
775.55	5854.01
775.736	5775.15
775.922	5836.38
776.109	5802.08
776.295	5822.04
776.481	5876.68
776.667	5881.71
776.853	5830.56
777.04	5769.53
777.226	5779.61
777.412	5857.69
777.598	5720.71
777.784	5786
777.97	5692.81
778.156	5686.42
778.342	5724.97
778.528	5672.08
778.715	5609.89
778.901	5603.88
779.087	5680.41
779.272	5579.47
779.458	5593.42
779.644	5548.27
779.83	5589.35
780.016	5670.92
780.202	5596.71
780.388	5625.77
780.574	5491.7
780.76	5534.91
780.946	5562.61
781.131	5530.64
781.317	5513.21
781.503	5457.21
781.689	5505.26
781.874	5601.94
782.06	5419.82
782.246	5494.99
782.432	5478.72
782.617	5445.01
782.803	5490.73
782.989	5378.36
783.174	5397.35
783.36	5290.01
783.545	5371.58
783.731	5318.49
783.916	5218.32
784.102	5304.54
784.288	5273.54
784.473	5269.67
784.659	5243.9
784.844	5276.45
785.029	5291.37
785.215	5229.56
785.4	5170.47
785.586	5294.08
785.771	5144.7
785.956	5236.34
786.142	5114.09
786.327	5175.7
786.512	5075.92
786.698	5086.38
786.883	5049.96
787.068	5063.52
787.254	5057.71
787.439	5042.59
787.624	4987.76
787.809	4986.6
787.994	4994.16
788.18	4999.58
788.365	4881.01
788.55	4918.4
788.735	4929.25
788.92	4886.63
789.105	4891.47
789.29	4899.61
789.475	4782.78
789.66	4831.02
789.845	4785.3
790.03	4763.99
790.215	4799.44
790.4	4829.86
790.585	4848.46
790.77	4788.2
790.955	4713.42
791.14	4740.35
791.325	4797.7
791.51	4683.39
791.695	4727.37
791.879	4763.02
792.064	4653.16
792.249	4759.53
792.434	4684.74
792.618	4722.33
792.803	4738.22
792.988	4732.02
793.173	4739.77
793.357	4783.55
793.542	4681.84
793.727	4788.4
793.911	4769.02
794.096	4769.22
794.281	4847.88
794.465	4827.92
794.65	4771.35
794.834	4815.91
795.019	4827.73
795.203	4882.95
795.388	4852.14
795.572	4897.09
795.757	4834.7
795.941	4830.83
796.126	4749.65
796.31	4693.07
796.494	4783.36
796.679	4724.66
796.863	4701.6
797.048	4800.41
797.232	4765.15
797.416	4805.84
797.601	4825.79
797.785	4856.4
797.969	4845.94
798.153	4765.34
798.338	4881.2
798.522	4899.61
798.706	4874.23
798.89	4913.75
799.074	5005.2
799.258	4922.86
799.443	4887.02
799.627	4921.31
799.811	4926.54
799.995	4834.12
800.179	4806.42
800.363	4811.84
800.547	4804.87
800.731	4837.42
800.915	4710.9
801.099	4758.17
801.283	4801.38
801.467	4757.4
801.651	4761.85
801.835	4839.35
802.019	4794.4
802.202	4794.99
802.386	4706.25
802.57	4698.31
802.754	4712.45
802.938	4703.15
803.121	4713.03
803.305	4801.77
803.489	4731.44
803.673	4761.85
803.856	4760.3
804.04	4759.92
804.224	4766.5
804.407	4742.67
804.591	4723.11
804.775	4704.7
804.958	4793.63
805.142	4875.39
805.326	4751.2
805.509	4782.2
805.693	4823.08
805.876	4829.47
806.06	4831.6
806.243	4883.53
806.427	4867.64
806.61	4884.5
806.794	4799.64
806.977	4871.71
807.16	4897.28
807.344	4846.72
807.527	4789.95
807.71	4838
807.894	4768.25
808.077	4765.34
808.26	4697.34
808.444	4710.71
808.627	4813.59
808.81	4714.58
808.993	4633.21
809.177	4621.39
809.36	4672.54
809.543	4634.37
809.726	4585.35
809.909	4542.73
810.092	4499.52
810.276	4522.19
810.459	4451.86
810.642	4472.4
810.825	4369.32
811.008	4428.22
811.191	4312.94
811.374	4300.74
811.557	4302.09
811.74	4356.34
811.923	4215.88
812.106	4201.15
812.289	4156.01
812.472	4118.23
812.654	4115.9
812.837	4133.73
813.02	3988.22
813.203	3968.07
813.386	3805.52
813.569	3767.35
813.751	3608.48
813.934	3670.09
814.117	3591.43
814.3	3560.82
814.482	3443.6
814.665	3372.88
814.848	3270
815.03	3270.19
815.213	3254.5
815.396	3203.16
815.578	3205.68
815.761	3138.06
815.943	3227.96
816.126	3062.3
816.309	2977.64
816.491	2936.56
816.674	2859.06
816.856	2899.17
817.039	2913.12
817.221	2958.46
817.403	2917.19
817.586	2924.94
817.768	2935.79
817.951	2854.22
818.133	2821.48
818.315	2875.34
818.498	2907.31
818.68	2978.02
818.862	2999.92
819.045	2958.07
819.227	2972.02
819.409	2960.39
819.591	2993.33
819.774	2963.88
819.956	2926.87
820.138	3033.44
820.32	3026.07
820.502	3188.43
820.684	3235.13
820.866	3281.24
821.048	3376.17
821.231	3400.59
821.413	3364.55
821.595	3341.3
821.777	3369.2
821.959	3388.19
822.141	3363.97
822.323	3230.67
822.505	3120.23
822.686	2964.46
822.868	2853.83
823.05	2689.73
823.232	2615.52
823.414	2531.63
823.596	2642.45
823.778	2601.77
823.96	2666.67
824.141	2729.06
824.323	2718.6
824.505	2917.57
824.687	2948.77
824.868	3063.85
825.05	3169.25
825.232	3207.42
825.413	3352.34
825.595	3267.09
825.777	3179.91
825.958	3245.01
826.14	3237.06
826.321	3317.28
826.503	3256.05
826.685	3351.57
826.866	3363
827.048	3302.74
827.229	3221.56
827.411	3104.15
827.592	3076.06
827.773	3010.77
827.955	2985.58
828.136	2924.74
828.318	2973.57
828.499	2991.78
828.68	2892
828.862	2908.66
829.043	2947.61
829.224	2912.34
829.406	2885.22
829.587	2887.16
829.768	2940.44
829.949	2946.25
830.131	2910.41
830.312	3013.87
830.493	2942.57
830.674	2905.76
830.855	2904.01
831.036	2943.73
831.218	3003.79
831.399	3019.87
831.58	2974.15
831.761	2944.31
831.942	2923
832.123	2945.67
832.304	2846.66
832.485	2923
832.666	2934.82
832.847	2954.97
833.028	2912.54
833.209	2911.96
833.389	2901.11
833.57	2820.31
833.751	2860.81
833.932	2961.94
834.113	2936.17
834.294	2879.79
834.475	2968.53
834.655	2976.09
834.836	3020.84
835.017	3003.6
835.198	2975.7
835.378	2964.85
835.559	3024.33
835.74	2989.46
835.92	2955.55
836.101	2996.43
836.281	3036.15
836.462	3030.34
836.643	3074.12
836.823	3046.42
837.004	3076.84
837.184	3050.87
837.365	3072.19
837.545	3103.57
837.726	3021.81
837.906	3100.08
838.087	3079.16
838.267	3041.19
838.448	3019.1
838.628	3048.55
838.808	3041.19
838.989	3058.04
839.169	3037.31
839.349	3087.88
839.53	3082.84
839.71	3102.99
839.89	3049.32
840.07	3096.98
840.251	3070.05
840.431	3143.48
840.611	3056.1
840.791	3027.82
840.971	3058.24
841.151	3022.2
841.332	2965.43
841.512	3055.14
841.692	3000.5
841.872	3065.99
842.052	2997.01
842.232	3049.71
842.412	2966.79
842.592	2999.34
842.772	3037.31
842.952	3038.67
843.132	2958.65
843.312	2973.96
843.492	2953.22
843.672	3034.02
843.851	2942.57
844.031	2956.91
844.211	2964.07
844.391	2905.95
844.571	2963.49
844.751	2969.89
844.93	2924.94
845.11	2930.17
845.29	2968.72
845.47	2978.02
845.649	2932.3
845.829	2961.56
846.009	2937.72
846.188	2958.65
846.368	2970.27
846.547	2936.56
846.727	2946.25
846.907	2880.96
847.086	2899.75
847.266	2949.54
847.445	2906.14
847.625	2877.47
847.804	2833.49
847.984	2873.59
848.163	2820.9
848.343	2836.39
848.522	2856.74
848.701	2851.7
848.881	2769.16
849.06	2878.05
849.239	2836.2
849.419	2815.28
849.598	2768.97
849.777	2737.58
849.957	2702.52
850.136	2590.53
850.315	2594.6
850.494	2637.8
850.674	2638.58
850.853	2718.6
851.032	2663.77
851.211	2682.95
851.39	2680.43
851.569	2625.99
851.748	2572.51
851.927	2696.7
852.107	2620.75
852.286	2666.67
852.465	2585.3
852.644	2647.69
852.823	2648.85
853.002	2628.12
853.181	2640.13
853.359	2666.87
853.538	2534.54
853.717	2605.45
853.896	2485.52
854.075	2371.79
854.254	2296.42
854.433	2211.95
854.611	2289.06
854.79	2198.39
854.969	2308.05
855.148	2310.18
855.327	2283.83
855.505	2373.73
855.684	2333.62
855.863	2363.85
856.041	2377.21
856.22	2447.54
856.399	2434.56
856.577	2569.02
856.756	2525.04
856.934	2627.15
857.113	2600.8
857.291	2534.54
857.47	2489.59
857.648	2575.61
857.827	2543.26
858.005	2594.4
858.184	2518.65
858.362	2634.7
858.541	2522.91
858.719	2514.19
858.898	2498.31
859.076	2528.72
859.254	2559.72
859.433	2491.91
859.611	2468.28
859.789	2436.11
859.967	2477.77
860.146	2525.04
860.324	2421.39
860.502	2465.76
860.68	2401.04
860.859	2398.72
861.037	2432.04
861.215	2432.24
861.393	2431.27
861.571	2436.69
861.749	2430.3
861.927	2412.48
862.105	2401.04
862.283	2387.1
862.461	2411.7
862.639	2377.6
862.817	2370.43
862.995	2399.11
863.173	2395.04
863.351	2351.64
863.529	2366.17
863.707	2404.92
863.885	2376.44
864.063	2312.89
864.241	2323.55
864.418	2372.37
864.596	2338.66
864.774	2290.03
864.952	2329.36
865.129	2307.85
865.307	2279.37
865.485	2220.86
865.663	2310.37
865.84	2157.5
866.018	2212.72
866.196	2014.91
866.373	2045.32
866.551	2016.84
866.728	1950.39
866.906	2024.59
867.084	2017.04
867.261	2048.62
867.439	2099.96
867.616	2111.39
867.794	2100.74
867.971	2120.31
868.149	2150.72
868.326	2217.18
868.503	2173.39
868.681	2136.58
868.858	2169.71
869.035	2103.64
869.213	2135.03
869.39	2099.57
869.567	2235.39
869.745	2156.34
869.922	2134.84
870.099	2202.45
870.276	2165.64
870.454	2124.57
870.631	2167.58
870.808	2119.53
870.985	2148.98
871.162	2205.55
871.339	2176.88
871.517	2077.29
871.694	2101.32
871.871	2131.15
872.048	2080.78
872.225	2089.31
872.402	2130.57
872.579	2080.78
872.756	2109.84
872.933	2007.35
873.11	2077.49
873.287	2081.36
873.463	2027.11
873.64	2019.75
873.817	2061.6
873.994	2045.32
874.171	1994.56
874.348	2042.03
874.524	1989.91
874.701	1999.6
874.878	1909.7
875.055	2012
875.231	1956.2
875.408	2011.23
875.585	1951.55
875.762	2007.74
875.938	1949.23
876.115	1941.09
876.291	1954.84
876.468	1965.89
876.645	1904.28
876.821	1938.76
876.998	1909.51
877.174	1937.8
877.351	1916.29
877.527	1891.49
877.704	1923.65
877.88	1908.54
878.057	1874.05
878.233	1950.58
878.409	1875.6
878.586	1903.89
878.762	1894.4
878.938	1853.9
879.115	1791.13
879.291	1880.25
879.467	1802.75
879.644	1837.63
879.82	1867.85
879.996	1807.4
880.172	1775.44
880.349	1817.48
880.525	1822.52
880.701	1776.6
880.877	1715.37
881.053	1770.4
881.229	1802.37
881.405	1847.51
881.581	1772.34
881.757	1810.5
881.933	1817.87
882.109	1801.4
882.285	1802.37
882.461	1742.69
882.637	1824.84
882.813	1760.52
882.989	1824.84
883.165	1832.01
883.341	1781.44
883.517	1862.43
883.693	1822.9
883.869	1852.74
884.044	1769.24
884.22	1850.42
884.396	1856.23
884.572	1813.6
884.747	1831.23
884.923	1789.38
885.099	1852.16
885.275	1821.74
885.45	1787.64
885.626	1773.3
885.801	1772.72
885.977	1765.94
886.153	1739.2
886.328	1779.12
886.504	1724.67
886.679	1793.84
886.855	1712.08
887.03	1783.96
887.206	1795.39
887.381	1776.4
887.557	1795.97
887.732	1786.09
887.908	1822.71
888.083	1834.53
888.258	1758.58
888.434	1762.26
888.609	1775.82
888.784	1833.56
888.96	1784.73
889.135	1763.42
889.31	1738.62
889.485	1779.7
889.661	1771.95
889.836	1790.74
890.011	1818.25
890.186	1769.24
890.361	1745.21
890.537	1792.29
890.712	1813.99
890.887	1809.73
891.062	1739.2
891.237	1831.82
891.412	1730.68
891.587	1788.8
891.762	1790.55
891.937	1807.21
892.112	1733.39
892.287	1745.02
892.462	1725.45
892.637	1683.21
892.812	1640.01
892.987	1629.16
893.161	1633.81
893.336	1596.22
893.511	1601.64
893.686	1627.41
893.861	1624.31
894.035	1605.13
894.21	1615.01
894.385	1550.88
894.56	1569.29
894.734	1482.49
894.909	1485.4
895.084	1497.02
895.258	1404.8
895.433	1410.22
895.608	1394.53
895.782	1354.62
895.957	1337.76
896.131	1377.48
896.306	1285.45
896.48	1233.72
896.655	1242.44
896.829	1171.72
897.004	1174.04
897.178	1220.74
897.353	1160.29
897.527	1203.11
897.701	1206.59
897.876	1157.96
898.05	1250.57
898.224	1220.54
898.399	1248.06
898.573	1166.1
898.747	1035.51
898.921	1029.51
899.096	919.46
899.27	949.49
899.444	1002.77
899.618	1035.32
899.792	1056.83
899.967	1089.38
900.141	1122.89
900.315	1014.4
900.489	1035.71
900.663	1050.43
900.837	1038.61
901.011	1001.8
901.185	1088.02
901.359	1028.54
901.533	1019.43
901.707	1050.24
901.881	1052.76
902.055	1011.1
902.229	1014.78
902.403	1079.69
902.576	1031.45
902.75	1042.49
902.924	1155.44
903.098	1162.61
903.272	1207.17
903.446	1260.26
903.619	1266.85
903.793	1284.87
903.967	1299.79
904.14	1322.45
904.314	1314.7
904.488	1303.66
904.661	1317.03
904.835	1337.57
905.009	1366.82
905.182	1380
905.356	1342.99
905.529	1325.94
905.703	1326.33
905.876	1252.7
906.05	1212.02
906.223	1170.17
906.397	1106.23
906.57	1102.74
906.744	1061.67
906.917	1062.83
907.09	1040.16
907.264	1043.85
907.437	988.63
907.61	940
907.784	966.93
907.957	967.12
908.13	898.73
908.304	988.24
908.477	908.03
908.65	930.5
908.823	888.65
908.996	958.21
909.17	899.12
909.343	893.11
909.516	914.81
909.689	888.27
909.862	835.95
910.035	937.48
910.208	883.62
910.381	864.24
910.554	969.64
910.727	896.79
910.9	883.42
911.073	926.63
911.246	977.2
911.419	995.41
911.592	957.82
911.765	878.39
911.938	878.39
912.11	933.6
912.283	917.13
912.456	973.52
912.629	890.98
912.802	869.86
912.974	775.12
913.147	771.05
913.32	712.73
913.493	716.61
913.665	759.04
913.838	781.51
914.01	801.86
914.183	831.69
914.356	827.82
914.528	840.22
914.701	902.41
914.873	818.52
915.046	771.82
915.218	746.83
915.391	641.63
915.563	666.23
915.736	726.29
915.908	769.5
916.081	800.69
916.253	775.31
916.425	798.37
916.598	825.88
916.77	801.47
916.942	740.05
917.115	689.29
917.287	726.29
917.459	687.16
917.632	672.24
917.804	643.37
917.976	735.01
918.148	737.72
918.32	747.22
918.493	789.65
918.665	843.7
918.837	850.1
919.009	867.92
919.181	867.15
919.353	834.6
919.525	816.58
919.697	841.77
919.869	839.83
920.041	941.55
920.213	968.67
920.385	921.2
920.557	878.39
920.729	896.99
920.901	884.59
921.073	841.77
921.244	832.66
921.416	868.89
921.588	813.48
921.76	782.29
921.932	890.98
922.103	835.95
922.275	851.07
922.447	847
922.619	805.92
922.79	797.21
922.962	784.61
923.134	833.24
923.305	751.67
923.477	725.33
923.648	724.55
923.82	757.1
923.991	698.59
924.163	691.03
924.335	715.44
924.506	698.01
924.677	750.51
924.849	706.34
925.02	727.07
925.192	769.89
925.363	737.53
925.535	752.64
925.706	686.77
925.877	765.82
926.049	692
926.22	718.35
926.391	705.95
926.562	776.67
926.734	690.64
926.905	758.26
927.076	652.48
927.247	680.57
927.419	614.5
927.59	610.05
927.761	611.21
927.932	574.2
928.103	564.13
928.274	568
928.445	505.62
928.616	503.68
928.787	487.21
928.958	551.15
929.129	493.22
929.3	466.67
929.471	414.94
929.642	369.41
929.813	322.33
929.984	388.59
930.155	301.79
930.326	373.09
930.496	340.93
930.667	282.61
930.838	344.42
931.009	303.92
931.18	272.54
931.35	256.07
931.521	288.04
931.692	235.34
931.863	156.1
932.033	232.04
932.204	229.53
932.374	224.49
932.545	177.8
932.716	225.46
932.886	203.18
933.057	131.49
933.227	142.92
933.398	185.16
933.568	127.42
933.739	58.64
933.909	91
934.08	157.45
934.25	64.07
934.421	63.1
934.591	136.91
934.761	100.68
934.932	64.07
935.102	94.29
935.272	105.92
935.443	120.64
935.613	60.97
935.783	118.12
935.953	80.34
936.123	252.97
936.294	67.94
936.464	73.95
936.634	90.42
936.804	54.57
936.974	42.37
937.144	92.16
937.314	98.36
937.484	84.8
937.655	50.89
937.825	136.33
937.995	88.09
938.165	131.88
938.334	118.31
938.504	144.86
938.674	122.38
938.844	161.71
939.014	200.66
939.184	231.08
939.354	269.05
939.524	225.07
939.694	178.76
939.863	184.38
940.033	221.58
940.203	237.47
940.373	206.86
940.542	215.77
940.712	182.45
940.882	213.44
941.051	230.3
941.221	221.97
941.391	225.07
941.56	181.48
941.73	149.51
941.899	309.35
942.069	156.87
942.238	213.83
942.408	154.93
942.577	188.84
942.747	160.94
942.916	111.15
943.086	159
943.255	208.6
943.425	157.06
943.594	139.05
943.763	80.73
943.933	101.85
944.102	45.85
944.271	125.68
944.441	162.1
944.61	124.9
944.779	163.46
944.948	226.04
945.117	105.14
945.287	119.86
945.456	80.73
945.625	89.45
945.794	130.52
945.963	88.48
946.132	140.98
946.301	108.82
946.47	138.27
946.639	73.75
946.808	119.09
946.977	154.74
947.146	176.63
947.315	125.48
947.484	142.34
947.653	116.57
947.822	114.25
947.991	108.63
948.16	211.51
948.329	164.81
948.498	149.12
948.666	152.8
948.835	187.29
949.004	102.23
949.173	91.19
949.341	120.06
949.51	124.71
949.679	180.31
949.847	148.93
950.016	219.06
950.185	201.05
950.353	159.2
950.522	149.12
950.69	191.36
950.859	141.37
951.028	191.36
951.196	171.4
951.365	122.58
951.533	118.7
951.701	153.96
951.87	157.84
952.038	61.93
952.207	110.37
952.375	194.46
952.543	143.5
952.712	142.73
952.88	103.59
953.048	212.67
953.217	146.6
953.385	135.75
953.553	190.97
953.721	115.02
953.89	141.37
954.058	117.35
954.226	118.9
954.394	168.3
954.562	67.55
954.73	149.31
954.898	126.65
955.067	164.23
955.235	112.31
955.403	208.6
955.571	211.31
955.739	140.21
955.907	107.27
956.075	103.78
956.243	116.18
956.41	163.85
956.578	86.73
956.746	99.52
956.914	123.35
957.082	189.23
957.25	176.83
957.418	106.5
957.585	150.28
957.753	200.85
957.921	116.38
958.089	148.35
958.256	159.2
958.424	141.37
958.592	158.42
958.759	116.96
958.927	165.4
959.095	107.66
959.262	156.1
959.43	141.56
959.597	95.26
959.765	160.75
959.932	124.51
960.1	181.09
960.267	147.38
960.435	128.39
960.602	188.65
960.77	138.66
960.937	115.8
961.104	161.91
961.272	121.22
961.439	134.2
961.606	184.38
961.774	181.86
961.941	135.95
962.108	151.83
962.275	141.95
962.443	195.04
962.61	179.54
962.777	236.11
962.944	175.28
963.111	185.16
963.278	199.3
963.446	157.84
963.613	172.56
963.78	180.9
963.947	176.25
964.114	171.79
964.281	253.74
964.448	170.82
964.615	164.23
964.782	203.56
964.949	195.43
965.116	194.85
965.282	214.03
965.449	170.43
965.616	142.92
965.783	217.13
965.95	186.51
966.117	109.21
966.283	175.47
966.45	199.3
966.617	185.74
966.784	222.74
966.95	216.74
967.117	221.78
967.284	171.98
967.45	185.55
967.617	239.41
967.784	229.91
967.95	258.2
968.117	200.46
968.283	260.33
968.45	304.89
968.616	250.64
968.783	267.11
968.949	246.58
969.116	262.66
969.282	218.68
969.449	243.48
969.615	231.66
969.781	170.63
969.948	211.89
970.114	186.9
970.28	278.93
970.447	245.41
970.613	270.99
970.779	232.24
970.945	242.7
971.112	240.18
971.278	230.88
971.444	211.12
971.61	265.76
971.776	205.69
971.942	217.32
972.108	280.09
972.275	189.42
972.441	227.01
972.607	266.53
972.773	176.05
972.939	223.71
973.105	219.84
973.271	184.96
973.437	203.56
973.602	198.72
973.768	197.17
973.934	188.65
974.1	200.66
974.266	132.26
974.432	183.61
974.598	174.89
974.763	214.99
974.929	182.83
975.095	248.32
975.261	147.76
975.426	156.29
975.592	181.86
975.758	219.06
975.923	131.88
976.089	132.26
976.255	231.46
976.42	222.36
976.586	202.98
976.751	189.42
976.917	273.31
977.082	210.54
977.248	140.98
977.413	132.85
977.579	166.95
977.744	208.99
977.91	132.46
978.075	151.25
978.24	194.46
978.406	182.83
978.571	158.61
978.736	127.03
978.902	226.23
979.067	133.62
979.232	130.52
979.397	190.39
979.563	230.3
979.728	166.36
979.893	175.28
980.058	155.71
980.223	201.05
980.388	197.95
980.554	181.28
980.719	146.41
980.884	190.39
981.049	224.29
981.214	167.72
981.379	196.4
981.544	148.93
981.709	180.9
981.874	182.83
982.039	162.49
982.204	226.04
982.368	171.01
982.533	141.95
982.698	221.97
982.863	212.86
983.028	177.02
983.193	208.41
983.357	196.78
983.522	212.86
983.687	157.26
983.852	166.95
984.016	175.47
984.181	192.71
984.346	215.96
984.51	213.83
984.675	183.03
984.839	182.64
985.004	165.01
985.168	225.07
985.333	205.5
985.498	179.54
985.662	221.39
985.827	169.27
985.991	153
986.155	174.89
986.32	213.06
986.484	248.51
986.649	197.17
986.813	124.13
986.977	202.21
987.142	167.72
987.306	148.15
987.47	150.09
987.634	183.61
987.799	194.07
987.963	180.51
988.127	192.71
988.291	265.18
988.455	182.64
988.62	179.54
988.784	197.17
988.948	226.43
989.112	127.81
989.276	183.61
989.44	187.87
989.604	154.93
989.768	143.5
989.932	260.14
990.096	130.52
990.26	141.37
990.424	127.81
990.588	158.03
990.752	217.9
990.915	191.55
991.079	170.43
991.243	142.34
991.407	189.42
991.571	175.08
991.734	184
991.898	178.18
992.062	240.18
992.226	176.44
992.389	149.9
992.553	105.53
992.717	161.52
992.88	155.13
993.044	149.9
993.207	148.93
993.371	186.32
993.535	137.5
993.698	150.86
993.862	180.51
994.025	191.75
994.189	176.83
994.352	161.52
994.515	195.62
994.679	165.98
994.842	143.5
995.006	191.75
995.169	112.12
995.332	145.63
995.496	205.5
995.659	110.18
995.822	159.2
995.985	143.89
996.149	182.45
996.312	150.67
996.475	197.56
996.638	153
996.801	215.77
996.964	200.66
997.128	126.06
997.291	150.09
997.454	144.66
997.617	98.94
997.78	171.01
997.943	140.4
998.106	190
998.269	99.33
998.432	130.13
998.595	131.88
998.758	59.8
998.92	104.17
999.083	71.62
999.246	123.74
999.409	90.8
999.572	67.55
999.735	108.43
999.897	149.7
1000.06	92.16
1000.223	106.69
1000.386	148.54
1000.548	165.98
1000.711	112.31
1000.874	142.53
1001.036	66.2
1001.199	166.36
1001.361	106.69
1001.524	109.02
1001.687	141.56
1001.849	95.84
1002.012	115.02
1002.174	109.79
1002.337	117.54
1002.499	106.69
1002.661	156.1
1002.824	74.92
1002.986	89.83
1003.149	135.56
1003.311	81.7
1003.473	160.94
1003.636	92.55
1003.798	116.18
1003.96	140.4
1004.123	108.43
1004.285	96.42
1004.447	106.88
1004.609	99.13
1004.771	142.15
1004.933	34.03
1005.096	75.5
1005.258	72.2
1005.42	79.95
1005.582	118.51
1005.744	100.49
1005.906	39.65
1006.068	102.62
1006.23	73.56
1006.392	68.33
1006.554	76.27
1006.716	138.46
1006.878	128.97
1007.04	33.65
1007.202	99.33
1007.363	89.64
1007.525	88.09
1007.687	118.31
1007.849	157.06
1008.011	47.98
1008.172	53.99
1008.334	69.1
1008.496	110.18
1008.658	41.98
1008.819	65.42
1008.981	50.31
1009.143	40.82
1009.304	79.18
1009.466	110.18
1009.627	118.7
1009.789	191.75
1009.95	97.39
1010.112	51.67
1010.273	120.45
1010.435	54.18
1010.596	79.57
1010.758	72.2
1010.919	82.47
1011.081	35.97
1011.242	78.02
1011.403	108.63
1011.565	69.3
1011.726	104.75
1011.887	61.35
1012.049	77.82
1012.21	117.54
1012.371	127.42
1012.532	8.46
1012.693	60.19
1012.855	41.4
1013.016	84.41
1013.177	126.06
1013.338	60.77
1013.499	128.78
1013.66	98.55
1013.821	84.22
1013.982	99.13
1014.143	76.85
1014.304	52.63
1014.465	93.9
1014.626	87.9
1014.787	69.88
1014.948	130.91
1015.109	8.65
1015.27	104.37
1015.431	47.02
1015.592	67.17
1015.752	108.63
1015.913	73.95
1016.074	78.79
1016.235	75.69
1016.395	59.8
1016.556	48.18
1016.717	63.68
1016.877	117.15
1017.038	18.92
1017.199	60.97
1017.359	72.4
1017.52	83.25
1017.681	46.63
1017.841	52.25
1018.002	60.77
1018.162	57.67
1018.323	114.25
1018.483	56.12
1018.644	44.5
1018.804	30.35
1018.964	29.77
1019.125	28.03
1019.285	51.28
1019.446	27.84
1019.606	24.15
1019.766	-6.46
1019.926	65.42
1020.087	71.04
1020.247	12.53
1020.407	98.94
1020.567	106.88
1020.728	40.43
1020.888	21.25
1021.048	40.04
1021.208	12.14
1021.368	45.08
1021.528	111.34
1021.688	83.63
1021.848	91.58
1022.008	55.54
1022.168	47.02
1022.328	65.81
1022.488	69.49
1022.648	33.65
1022.808	44.3
1022.968	81.12
1023.128	18.34
1023.288	30.74
1023.448	48.95
1023.608	73.75
1023.767	69.49
1023.927	23.57
1024.087	15.44
1024.247	-4.52
1024.406	18.15
1024.566	-2
1024.726	7.49
1024.885	73.56
1025.045	98.94
1025.205	37.13
1025.364	33.84
1025.524	67.55
1025.683	6.14
1025.843	48.76
1026.003	40.04
1026.162	77.82
1026.321	64.26
1026.481	58.25
1026.64	33.65
1026.8	65.62
1026.959	39.65
1027.119	37.33
1027.278	4
1027.437	14.27
1027.597	34.03
1027.756	40.04
1027.915	57.48
1028.074	51.67
1028.234	21.44
1028.393	48.95
1028.552	35.97
1028.711	-27.58
1028.87	51.08
1029.03	-13.05
1029.189	24.15
1029.348	-15.95
1029.507	1.29
1029.666	42.37
1029.825	19.12
1029.984	-8.01
1030.143	37.72
1030.302	6.91
1030.461	-4.91
1030.62	30.16
1030.779	58.25
1030.938	0.32
1031.097	-10.53
1031.255	45.08
1031.414	52.25
1031.573	60
1031.732	4
1031.891	33.84
1032.049	74.33
1032.208	56.51
1032.367	11.95
1032.525	12.34
1032.684	4.2
1032.843	32.68
1033.001	-33.2
1033.16	175.66
1033.319	75.11
1033.477	57.87
1033.636	27.64
1033.794	-33.78
1033.953	71.82
1034.111	75.88
1034.27	24.74
1034.428	62.71
1034.587	3.62
1034.745	66
1034.903	46.24
1035.062	35.78
1035.22	-17.7
1035.378	63.48
1035.537	-22.35
1035.695	53.41
1035.853	15.05
1036.011	30.35
1036.17	20.28
1036.328	-5.88
1036.486	43.72
1036.644	27.06
1036.802	-60.51
1036.96	-10.72
1037.119	25.7
1037.277	29.19
1037.435	-18.47
1037.593	-7.43
1037.751	14.85
1037.909	48.37
1038.067	48.37
