Data from gum_old_FLMT105791__34__15-42-56-259.txt Node

Date: Mon Mar 20 15:42:56 GMT 2023
User: antho
Spectrometer: FLMT10579
Trigger mode: 0
Integration Time (sec): 1.000000E-1
Scans to average: 10
Electric dark correction enabled: true
Nonlinearity correction enabled: false
Boxcar width: 0
XAxis mode: Wavelengths
Number of Pixels in Spectrum: 3648
>>>>>Begin Spectral Data<<<<<
345.248	-161.76
345.464	-161.76
345.681	-161.76
345.898	-183.85
346.114	-177.07
346.331	-24.01
346.548	24.04
346.764	9.9
346.981	5.25
347.197	-39.12
347.414	22.49
347.631	-41.45
347.847	62.79
348.064	-14.51
348.28	54.46
348.497	-55.59
348.713	-4.25
348.93	29.66
349.146	22.1
349.363	8.35
349.579	61.05
349.796	6.22
350.012	21.33
350.229	61.05
350.445	44.38
350.661	17.65
350.878	24.43
351.094	47.29
351.311	36.44
351.527	41.87
351.743	18.23
351.96	68.02
352.176	69.77
352.392	63.18
352.609	70.35
352.825	36.05
353.041	41.09
353.257	18.23
353.474	29.08
353.69	32.37
353.906	48.84
354.122	10.87
354.339	83.91
354.555	35.47
354.771	33.73
354.987	99.41
355.203	102.31
355.42	22.49
355.636	43.42
355.852	7.38
356.068	33.34
356.284	9.51
356.5	127.31
356.716	73.64
356.932	38.18
357.148	92.82
357.364	42.83
357.58	103.28
357.796	94.76
358.012	97.28
358.228	38.96
358.444	-61.21
358.66	84.3
358.876	34.7
359.092	23.07
359.308	40.7
359.524	52.13
359.74	42.45
359.956	37.6
360.172	67.25
360.388	84.88
360.604	75.38
360.819	132.73
361.035	64.34
361.251	81.78
361.467	44.38
361.683	106.77
361.898	71.9
362.114	87.2
362.33	56.4
362.546	97.86
362.762	58.92
362.977	79.26
363.193	14.74
363.409	90.69
363.624	47.1
363.84	43.8
364.056	70.15
364.271	86.23
364.487	99.8
364.703	54.85
364.918	44.38
365.134	65.89
365.35	85.65
365.565	182.72
365.781	104.83
365.996	108.13
366.212	134.67
366.427	108.9
366.643	67.44
366.858	105.03
367.074	47.1
367.289	159.08
367.505	188.53
367.72	47.1
367.936	65.89
368.151	124.21
368.367	131.96
368.582	93.21
368.798	94.76
369.013	139.32
369.228	103.09
369.444	94.95
369.659	178.07
369.874	121.3
370.09	149.59
370.305	57.56
370.52	101.54
370.736	135.06
370.951	113.75
371.166	158.89
371.381	166.83
371.597	119.36
371.812	96.5
372.027	111.61
372.242	95.73
372.458	182.72
372.673	63.18
372.888	93.21
373.103	99.41
373.318	167.03
373.533	123.43
373.749	137.38
373.964	61.24
374.179	137.96
374.394	69.18
374.609	150.17
374.824	72.67
375.039	157.15
375.254	75
375.469	146.49
375.684	110.65
375.899	145.13
376.114	119.17
376.329	119.75
376.544	158.31
376.759	164.7
376.974	101.73
377.189	118.2
377.404	132.73
377.619	161.6
377.834	102.51
378.049	80.42
378.264	106.38
378.478	133.12
378.693	141.26
378.908	170.9
379.123	136.61
379.338	172.45
379.553	166.25
379.767	115.3
379.982	157.15
380.197	168.19
380.412	135.06
380.626	157.53
380.841	220.11
381.056	172.45
381.271	197.44
381.485	135.25
381.7	107.35
381.915	162.76
382.129	129.05
382.344	154.24
382.559	145.71
382.773	158.31
382.988	72.48
383.202	131.57
383.417	69.57
383.632	175.55
383.846	109.48
384.061	128.28
384.275	101.73
384.49	128.86
384.704	156.95
384.919	142.42
385.133	152.88
385.348	173.03
385.562	151.33
385.777	184.85
385.991	137.77
386.206	156.37
386.42	146.3
386.634	201.13
386.849	188.92
387.063	189.31
387.277	132.35
387.492	143.39
387.706	116.85
387.92	134.09
388.135	165.28
388.349	179.62
388.563	169.93
388.778	172.06
388.992	162.76
389.206	186.21
389.42	269.13
389.635	187.37
389.849	234.26
390.063	249.56
390.277	219.92
390.491	271.26
390.706	248.21
390.92	245.11
391.134	225.93
391.348	228.64
391.562	189.69
391.776	245.11
391.99	218.56
392.205	259.25
392.419	192.02
392.633	226.7
392.847	246.46
393.061	181.56
393.275	255.37
393.489	124.01
393.703	134.86
393.917	160.63
394.131	117.81
394.345	175.55
394.559	205.58
394.773	181.75
394.986	212.17
395.2	213.53
395.414	268.55
395.628	235.03
395.842	257.89
396.056	268.16
396.27	203.26
396.484	239.88
396.697	264.87
396.911	241.04
397.125	201.32
397.339	203.26
397.553	167.99
397.766	257.51
397.98	253.63
398.194	305.17
398.408	232.51
398.621	301.87
398.835	347.4
399.049	366.39
399.262	400.49
399.476	386.15
399.69	406.89
399.903	451.06
400.117	362.9
400.331	379.95
400.544	365.81
400.758	517.51
400.971	378.4
401.185	415.02
401.398	341.01
401.612	455.32
401.826	429.36
402.039	428.39
402.253	377.82
402.466	486.52
402.68	433.43
402.893	462.1
403.106	447.18
403.32	405.34
403.533	428.39
403.747	409.99
403.96	435.56
404.174	479.54
404.387	415.02
404.6	435.95
404.814	498.92
405.027	429.36
405.24	452.42
405.454	417.54
405.667	499.3
405.88	414.44
406.094	447.96
406.307	479.73
406.52	445.83
406.733	424.32
406.947	391.19
407.16	492.91
407.373	491.55
407.586	452.61
407.799	468.11
408.012	505.7
408.226	491.17
408.439	534.95
408.652	454.35
408.865	521
409.078	543.86
409.291	515.58
409.504	470.24
409.717	528.36
409.93	533.98
410.143	514.03
410.357	432.07
410.57	414.83
410.783	456.87
410.996	501.05
411.209	483.03
411.421	545.03
411.634	540.57
411.847	510.73
412.06	543.67
412.273	563.05
412.486	564.01
412.699	641.71
412.912	580.48
413.125	573.9
413.338	579.71
413.55	566.34
413.763	553.55
413.976	546.19
414.189	535.34
414.402	552
414.615	609.93
414.827	520.61
415.04	583.58
415.253	584.36
415.466	606.44
415.678	631.05
415.891	577.58
416.104	602.96
416.316	581.45
416.529	592.88
416.742	622.33
416.954	628.73
417.167	601.02
417.38	590.36
417.592	639.58
417.805	563.82
418.017	530.69
418.23	621.17
418.442	570.8
418.655	573.9
418.868	623.3
419.08	621.75
419.293	626.59
419.505	646.16
419.718	614.58
419.93	664.76
420.142	566.53
420.355	644.03
420.567	637.06
420.78	608.19
420.992	607.03
421.205	711.84
421.417	624.08
421.629	649.65
421.842	634.15
422.054	621.94
422.266	647.71
422.479	701.57
422.691	618.65
422.903	645.97
423.115	590.36
423.328	587.46
423.54	623.11
423.752	607.22
423.964	616.33
424.177	671.35
424.389	672.32
424.601	746.33
424.813	672.71
425.025	712.04
425.238	688.98
425.45	643.64
425.662	676.58
425.874	944.53
426.086	669.8
426.298	691.11
426.51	675.03
426.722	642.09
426.934	640.35
427.146	679.1
427.358	637.44
427.57	699.44
427.782	643.84
427.994	656.43
428.206	652.75
428.418	654.88
428.63	704.09
428.842	717.66
429.054	707.77
429.266	697.12
429.478	620.39
429.69	673.87
429.902	626.4
430.114	633.76
430.325	621.56
430.537	582.03
430.749	567.31
430.961	478.18
431.173	543.67
431.384	575.45
431.596	469.85
431.808	591.72
432.02	676
432.231	734.71
432.443	842.62
432.655	786.44
432.867	722.31
433.078	780.04
433.29	819.37
433.502	794.38
433.713	865.29
433.925	840.69
434.136	823.64
434.348	718.82
434.56	696.73
434.771	825.77
434.983	665.93
435.194	767.64
435.406	783.53
435.617	852.7
435.829	922.83
436.04	873.23
436.252	859.48
436.463	892.22
436.675	954.8
436.886	938.53
437.098	957.13
437.309	983.28
437.521	891.45
437.732	897.45
437.943	874.78
438.155	882.15
438.366	833.71
438.578	917.8
438.789	837.78
439	872.46
439.211	823.44
439.423	824.22
439.634	897.45
439.845	889.9
440.057	901.91
440.268	948.41
440.479	886.6
440.69	944.34
440.902	887.77
441.113	933.68
441.324	874.2
441.535	986
441.746	1055.16
441.957	931.94
442.168	982.31
442.38	1015.83
442.591	1038.31
442.802	997.62
443.013	1028.04
443.224	1037.92
443.435	1002.85
443.646	1008.08
443.857	1014.09
444.068	998.01
444.279	975.34
444.49	1107.09
444.701	1026.88
444.912	1149.71
445.123	1093.91
445.334	1051.68
445.545	1069.11
445.756	1007.89
445.967	1019.71
446.178	1012.93
446.388	1014.09
446.599	1084.81
446.81	1033.08
447.021	985.8
447.232	1080.35
447.443	1113.29
447.653	1056.33
447.864	1136.34
448.075	1089.26
448.286	1136.15
448.496	1129.95
448.707	1141.96
448.918	1063.3
449.129	1194.08
449.339	1065.63
449.55	1153.78
449.761	1090.62
449.971	1161.53
450.182	1124.72
450.393	1154.94
450.603	1146.61
450.814	1215.01
451.024	1188.27
451.235	1225.08
451.446	1258.02
451.656	1241.35
451.867	1171.8
452.077	1194.86
452.288	1207.26
452.498	1218.3
452.709	1168.51
452.919	1174.71
453.13	1090.43
453.34	1167.73
453.55	1054.58
453.761	1160.17
453.971	1104.57
454.182	1152.42
454.392	1155.72
454.602	1223.72
454.813	1193.69
455.023	1195.63
455.233	1136.54
455.444	1155.72
455.654	1055.74
455.864	1163.66
456.075	1166.96
456.285	1144.09
456.495	1168.7
456.705	1185.17
456.916	1227.4
457.126	1266.93
457.336	1215.78
457.546	1127.43
457.756	1187.88
457.967	1273.9
458.177	1198.73
458.387	1220.43
458.597	1139.44
458.807	1201.25
459.017	1148.94
459.227	1189.62
459.437	1178.39
459.647	1202.61
459.857	1220.82
460.068	1198.34
460.278	1264.99
460.488	1223.92
460.698	1242.13
460.908	1200.67
461.117	1211.13
461.327	1202.99
461.537	1299.09
461.747	1252.01
461.957	1250.27
462.167	1390.15
462.377	1299.87
462.587	1258.79
462.797	1324.28
463.007	1262.28
463.216	1322.73
463.426	1364.38
463.636	1341.91
463.846	1229.54
464.056	1266.15
464.265	1258.6
464.475	1244.65
464.685	1298.9
464.895	1306.45
465.104	1268.87
465.314	1332.42
465.524	1266.15
465.733	1265.77
465.943	1372.33
466.153	1409.14
466.362	1351.98
466.572	1359.15
466.782	1297.54
466.991	1341.13
467.201	1402.16
467.41	1255.69
467.62	1340.55
467.829	1332.03
468.039	1374.46
468.249	1312.07
468.458	1379.11
468.668	1385.7
468.877	1391.7
469.086	1435.1
469.296	1458.55
469.505	1434.91
469.715	1506.98
469.924	1438.78
470.134	1511.83
470.343	1484.7
470.552	1415.73
470.762	1422.31
470.971	1386.86
471.18	1406.04
471.39	1454.48
471.599	1417.66
471.808	1499.43
472.018	1483.54
472.227	1539.53
472.436	1586.22
472.645	1554.64
472.855	1562.78
473.064	1626.33
473.273	1644.35
473.482	1578.67
473.691	1638.73
473.901	1604.44
474.11	1593.78
474.319	1697.63
474.528	1628.07
474.737	1717.78
474.946	1698.02
475.155	1684.45
475.364	1777.26
475.573	1732.89
475.783	1762.53
475.992	1766.8
476.201	1760.79
476.41	1748.58
476.619	1690.85
476.828	1724.37
477.037	1699.76
477.245	1718.17
477.454	1784.62
477.663	1790.24
477.872	1821.24
478.081	1892.35
478.29	1820.27
478.499	1901.65
478.708	1866
478.917	1977.21
479.125	1891.96
479.334	1898.55
479.543	1892.35
479.752	1947.18
479.961	1953.76
480.169	2006.27
480.378	2004.91
480.587	2139.57
480.796	2013.63
481.004	2001.62
481.213	2015.96
481.422	2056.64
481.63	2116.7
481.839	2064.59
482.048	2085.9
482.256	2117.29
482.465	2150.8
482.674	2117.09
482.882	2179.67
483.091	2201.76
483.299	2111.28
483.508	2198.85
483.716	2199.24
483.925	2203.89
484.134	2097.72
484.342	2159.91
484.551	2169.6
484.759	2165.53
484.967	2265.89
485.176	2232.76
485.384	2242.25
485.593	2245.16
485.801	2193.82
486.01	2151.19
486.218	2037.66
486.426	1926.64
486.635	1899.9
486.843	1884.01
487.051	1922.38
487.26	1959.96
487.468	2057.03
487.676	2096.75
487.885	2123.68
488.093	2182.77
488.301	2259.88
488.509	2272.48
488.717	2312.78
488.926	2328.47
489.134	2262.98
489.342	2261.24
489.55	2261.43
489.758	2296.5
489.967	2384.08
490.175	2452.47
490.383	2442.39
490.591	2521.25
490.799	2450.53
491.007	2526.87
491.215	2490.06
491.423	2467.97
491.631	2485.21
491.839	2454.99
492.047	2473.78
492.255	2378.65
492.463	2355.98
492.671	2354.04
492.879	2442.97
493.087	2438.71
493.295	2443.94
493.503	2476.3
493.711	2586.15
493.919	2594.1
494.127	2550.7
494.334	2543.14
494.542	2475.14
494.75	2598.75
494.958	2591.19
495.166	2695.23
495.374	2705.7
495.581	2682.45
495.789	2704.73
495.997	2713.83
496.205	2605.53
496.412	2640.79
496.62	2648.35
496.828	2650.28
497.035	2680.32
497.243	2696.4
497.451	2716.93
497.658	2682.64
497.866	2707.63
498.074	2789.39
498.281	2658.23
498.489	2724.49
498.696	2661.52
498.904	2624.32
499.112	2619.67
499.319	2729.33
499.527	2667.72
499.734	2751.42
499.942	2648.35
500.149	2711.7
500.357	2740.76
500.564	2618.12
500.771	2660.94
500.979	2635.17
501.186	2629.36
501.394	2659
501.601	2562.71
501.808	2593.32
502.016	2589.84
502.223	2581.7
502.43	2588.67
502.638	2572.79
502.845	2615.41
503.052	2735.73
503.26	2671.21
503.467	2717.9
503.674	2717.9
503.881	2709.57
504.089	2815.36
504.296	2724.68
504.503	2653
504.71	2669.85
504.917	2687.29
505.125	2663.46
505.332	2748.32
505.539	2788.43
505.746	2838.99
505.953	2810.71
506.16	2831.63
506.367	2878.13
506.574	2918.24
506.781	2909.52
506.988	2859.92
507.195	2815.36
507.402	2799.47
507.609	2869.8
507.816	2777.77
508.023	2786.1
508.23	2734.37
508.437	2734.37
508.644	2742.31
508.851	2876.77
509.058	2844.42
509.265	2832.6
509.472	2913.2
509.679	2970.35
509.885	2874.45
510.092	2885.49
510.299	2876.58
510.506	2849.07
510.713	2863.6
510.92	2887.04
511.126	2882.2
511.333	2964.15
511.54	2883.94
511.746	2956.21
511.953	3009.49
512.16	3056.18
512.367	2961.06
512.573	2934.51
512.78	2948.07
512.987	2921.53
513.193	2862.63
513.4	2829.5
513.606	2879.68
513.813	2895.96
514.02	2841.32
514.226	2913.01
514.433	2949.82
514.639	2857.01
514.846	2833.96
515.052	2843.06
515.259	2855.85
515.465	2867.28
515.672	2882.97
515.878	2985.66
516.085	2947.49
516.291	2971.9
516.497	2953.31
516.704	2853.53
516.91	2819.43
517.117	2720.23
517.323	2606.11
517.529	2588.29
517.736	2603.98
517.942	2599.14
518.148	2652.22
518.354	2721.97
518.561	2717.13
518.767	2722.75
518.973	2715.38
519.179	2774.86
519.386	2770.8
519.592	2849.65
519.798	2814.58
520.004	2959.51
520.21	2896.73
520.417	2968.8
520.623	3002.52
520.829	3029.45
521.035	3009.69
521.241	2987.6
521.447	3039.52
521.653	3129.81
521.859	3029.84
522.065	3070.13
522.271	3125.74
522.477	3143.56
522.683	3166.04
522.889	3100.36
523.095	3035.65
523.301	3030.42
523.507	2978.1
523.713	3045.53
523.919	3021.12
524.125	3155.77
524.331	3125.93
524.537	3281.9
524.742	3234.82
524.948	3287.71
525.154	3273.76
525.36	3340.99
525.566	3276.67
525.772	3294.88
525.977	3228.04
526.183	3264.85
526.389	3312.51
526.595	3155.19
526.8	3181.73
527.006	3041.85
527.212	2975.97
527.417	2970.94
527.623	2961.64
527.829	3059.48
528.034	3084.08
528.24	3155.77
528.446	3185.41
528.651	3304.57
528.857	3280.16
529.062	3372.57
529.268	3341.96
529.473	3387.88
529.679	3429.15
529.884	3529.51
530.09	3456.85
530.295	3441.74
530.501	3438.64
530.706	3462.28
530.912	3416.55
531.117	3485.34
531.323	3430.89
531.528	3524.67
531.733	3536.68
531.939	3524.08
532.144	3548.5
532.35	3473.13
532.555	3543.07
532.76	3463.64
532.966	3398.92
533.171	3382.65
533.376	3345.45
533.581	3302.05
533.787	3358.43
533.992	3441.94
534.197	3431.09
534.402	3450.85
534.607	3466.74
534.813	3532.8
535.018	3495.22
535.223	3497.35
535.428	3479.91
535.633	3516.53
535.838	3603.52
536.043	3586.47
536.249	3694.78
536.454	3576.59
536.659	3607.59
536.864	3571.75
537.069	3549.66
537.274	3555.86
537.479	3510.72
537.684	3489.21
537.889	3450.07
538.094	3657.38
538.299	3507.23
538.504	3551.6
538.708	3569.03
538.913	3622.7
539.118	3561.67
539.323	3595.96
539.528	3526.6
539.733	3509.36
539.938	3563.8
540.142	3556.25
540.347	3448.91
540.552	3468.29
540.757	3443.1
540.962	3435.54
541.166	3348.74
541.371	3384.78
541.576	3396.79
541.781	3316.19
541.985	3489.79
542.19	3483.79
542.395	3583.37
542.599	3595.58
542.804	3542.1
543.008	3605.07
543.213	3499.28
543.418	3494.25
543.622	3614.37
543.827	3533.97
544.031	3615.53
544.236	3573.3
544.44	3653.51
544.645	3676.18
544.849	3553.53
545.054	3645.18
545.258	3670.17
545.463	3642.85
545.667	3544.82
545.872	3661.84
546.076	3645.37
546.281	3652.35
546.485	3593.83
546.689	3656.03
546.894	3652.93
547.098	3622.51
547.302	3597.9
547.507	3620.18
547.711	3636.26
547.915	3655.25
548.119	3567.48
548.324	3563.42
548.528	3648.47
548.732	3581.82
548.936	3684.7
549.141	3647.5
549.345	3602.36
549.549	3616.11
549.753	3613.4
549.957	3702.91
550.161	3706.21
550.366	3664.94
550.57	3657.58
550.774	3659.13
550.978	3676.18
551.182	3671.91
551.386	3561.87
551.59	3610.88
551.794	3611.27
551.998	3637.04
552.202	3639.36
552.406	3586.47
552.61	3705.04
552.814	3665.91
553.018	3694.78
553.222	3625.22
553.426	3646.53
553.63	3712.99
553.833	3565.93
554.037	3564.77
554.241	3574.46
554.445	3598.29
554.649	3606.04
554.853	3579.11
555.056	3679.86
555.26	3703.3
555.464	3662.03
555.668	3694.19
555.871	3651.96
556.075	3704.08
556.279	3596.35
556.483	3552.76
556.686	3560.32
556.89	3594.61
557.094	3593.64
557.297	3494.44
557.501	3547.92
557.704	3446.97
557.908	3561.67
558.112	3493.08
558.315	3612.05
558.519	3526.41
558.722	3529.32
558.926	3490.18
559.129	3371.61
559.333	3414.42
559.536	3412.29
559.74	3357.07
559.943	3324.14
560.147	3384.59
560.35	3332.86
560.553	3410.35
560.757	3324.33
560.96	3462.86
561.164	3409.77
561.367	3499.09
561.57	3461.5
561.774	3441.16
561.977	3409.97
562.18	3356.11
562.384	3518.47
562.587	3392.92
562.79	3380.32
562.993	3371.41
563.197	3437.87
563.4	3489.4
563.603	3460.73
563.806	3509.94
564.009	3379.94
564.212	3427.02
564.416	3326.85
564.619	3411.13
564.822	3332.86
565.025	3408.03
565.228	3411.52
565.431	3403.38
565.634	3280.93
565.837	3288.1
566.04	3287.52
566.243	3258.65
566.446	3160.61
566.649	3305.15
566.852	3203.05
567.055	3238.5
567.258	3280.16
567.461	3388.27
567.664	3376.06
567.867	3236.76
568.07	3282.87
568.273	3310.96
568.475	3314.26
568.678	3195.88
568.881	3220.87
569.084	3210.8
569.287	3090.09
569.489	3158.1
569.692	3219.13
569.895	3188.51
570.098	3127.68
570.3	3155.38
570.503	3055.6
570.706	3106.95
570.909	3082.73
571.111	3023.64
571.314	3000.77
571.516	3026.54
571.719	3056.18
571.922	3003.29
572.124	3025.38
572.327	3057.54
572.529	3021.89
572.732	3040.1
572.935	3057.54
573.137	3146.47
573.34	3035.26
573.542	3152.48
573.745	3105.98
573.947	3091.64
574.15	3113.53
574.352	3071.1
574.554	3148.41
574.757	3022.86
574.959	3002.9
575.162	3037.97
575.364	2993.8
575.566	3057.35
575.769	2937.42
575.971	2983.53
576.173	2884.33
576.376	2948.85
576.578	2962.61
576.78	3011.24
576.982	2866.12
577.185	2964.93
577.387	2915.72
577.589	2919.79
577.791	2979.85
577.993	2983.92
578.196	2919.4
578.398	2916.3
578.6	2943.04
578.802	2884.33
579.004	2859.34
579.206	2853.33
579.408	2864.57
579.61	2822.72
579.812	2931.22
580.014	2827.18
580.216	2835.7
580.418	2889.17
580.62	2884.91
580.822	2807.41
581.024	2892.86
581.226	2900.02
581.428	2858.18
581.63	2950.98
581.832	2874.84
582.034	2883.36
582.236	2878.71
582.438	2955.63
582.64	2923.86
582.841	2931.99
583.043	2993.02
583.245	2888.01
583.447	2958.73
583.649	2868.64
583.85	2871.54
584.052	2926.37
584.254	2884.72
584.456	2929.09
584.657	2823.3
584.859	2919.79
585.061	2831.63
585.262	2861.47
585.464	2800.83
585.666	2913.39
585.867	2807.61
586.069	2888.21
586.27	2824.27
586.472	2798.69
586.674	2788.81
586.875	2774.09
587.077	2743.48
587.278	2821.75
587.48	2789.98
587.681	2894.21
587.883	2834.34
588.084	2753.36
588.285	2741.93
588.487	2757.43
588.688	2780.29
588.89	2713.64
589.091	2578.99
589.292	2569.1
589.494	2555.93
589.695	2488.51
589.896	2416.63
590.098	2434.45
590.299	2487.92
590.5	2459.83
590.702	2496.45
590.903	2566.59
591.104	2633.82
591.305	2638.08
591.507	2669.08
591.708	2658.42
591.909	2637.11
592.11	2726.23
592.311	2652.03
592.512	2574.92
592.714	2587.9
592.915	2583.05
593.116	2621.8
593.317	2605.34
593.518	2609.02
593.719	2623.16
593.92	2668.11
594.121	2684.58
594.322	2630.72
594.523	2685.74
594.724	2588.09
594.925	2606.69
595.126	2611.92
595.327	2587.12
595.528	2620.06
595.729	2633.04
595.929	2633.43
596.13	2574.92
596.331	2645.05
596.532	2620.64
596.733	2677.99
596.934	2660.94
597.135	2650.28
597.335	2659.58
597.536	2588.67
597.737	2653.77
597.938	2611.92
598.138	2660.94
598.339	2625.1
598.54	2616.96
598.74	2552.05
598.941	2562.9
599.142	2664.23
599.342	2589.45
599.543	2562.52
599.744	2596.23
599.944	2591.19
600.145	2559.03
600.345	2553.99
600.546	2613.67
600.746	2600.69
600.947	2659.58
601.147	2592.16
601.348	2647.18
601.548	2562.9
601.749	2592.74
601.949	2521.83
602.15	2549.92
602.35	2516.99
602.551	2578.4
602.751	2461.57
602.951	2518.15
603.152	2468.94
603.352	2628.78
603.552	2554.96
603.753	2606.69
603.953	2555.74
604.153	2581.12
604.354	2578.4
604.554	2572.01
604.754	2606.11
604.954	2513.89
605.155	2616.38
605.355	2550.5
605.555	2592.35
605.755	2622.38
605.955	2600.1
606.155	2607.85
606.356	2574.53
606.556	2588.09
606.756	2584.6
606.956	2560
607.156	2601.85
607.356	2530.94
607.556	2571.43
607.756	2550.12
607.956	2578.99
608.156	2569.1
608.356	2507.49
608.556	2586.15
608.756	2517.37
608.956	2535.59
609.156	2556.7
609.356	2458.67
609.556	2453.24
609.755	2481.53
609.955	2470.29
610.155	2452.86
610.355	2511.56
610.555	2482.89
610.755	2424.18
610.954	2415.08
611.154	2461.57
611.354	2485.41
611.554	2482.31
611.753	2452.86
611.953	2409.07
612.153	2449.76
612.352	2451.89
612.552	2425.15
612.752	2388.34
612.951	2454.02
613.151	2420.69
613.351	2429.61
613.55	2446.46
613.75	2464.09
613.949	2392.02
614.149	2411.2
614.348	2383.69
614.548	2363.93
614.747	2327.31
614.947	2348.23
615.146	2316.65
615.346	2442.97
615.545	2458.09
615.745	2423.6
615.944	2392.02
616.144	2369.93
616.343	2390.28
616.542	2341.84
616.742	2312.2
616.941	2367.22
617.14	2282.36
617.34	2337.77
617.539	2318.4
617.738	2346.68
617.938	2367.99
618.137	2304.25
618.336	2278.68
618.535	2356.18
618.734	2350.95
618.934	2359.86
619.133	2343.2
619.332	2401.71
619.531	2288.75
619.73	2374.58
619.929	2415.27
620.128	2384.85
620.328	2407.13
620.527	2346.68
620.726	2383.3
620.925	2359.47
621.124	2360.05
621.323	2304.83
621.522	2289.33
621.721	2291.85
621.92	2280.61
622.119	2311.23
622.318	2251.17
622.517	2274.22
622.715	2274.22
622.914	2250.58
623.113	2288.95
623.312	2164.95
623.511	2320.33
623.71	2253.88
623.909	2215.32
624.107	2301.93
624.306	2191.1
624.505	2210.87
624.704	2226.37
624.902	2205.05
625.101	2270.54
625.3	2225.59
625.499	2188.97
625.697	2224.23
625.896	2163.98
626.095	2169.79
626.293	2134.72
626.492	2195.17
626.69	2214.35
626.889	2167.66
627.088	2237.8
627.286	2182.38
627.485	2203.89
627.683	2179.87
627.882	2213.58
628.08	2107.21
628.279	2128.33
628.477	2228.11
628.676	2123.68
628.874	2149.06
629.073	2065.56
629.271	2083.77
629.469	2182.19
629.668	2097.33
629.866	2096.36
630.065	2066.52
630.263	2126.39
630.461	2064.2
630.66	2114.77
630.858	2127.75
631.056	2146.15
631.254	2125.62
631.453	2084.93
631.651	2156.42
631.849	2108.37
632.047	2114.96
632.245	2088.61
632.444	2070.01
632.642	2087.64
632.84	2133.17
633.038	2062.65
633.236	2063.42
633.434	2092.87
633.632	2102.75
633.83	2081.64
634.028	2147.32
634.227	2109.92
634.425	2156.81
634.623	2079.12
634.821	2120.19
635.019	2077.37
635.216	2137.05
635.414	2106.82
635.612	2082.99
635.81	2074.27
636.008	2164.95
636.206	2096.75
636.404	2094.81
636.602	2056.64
636.8	2085.71
636.997	2071.95
637.195	2104.69
637.393	2057.81
637.591	2151
637.789	2126.39
637.986	2062.65
638.184	2093.84
638.382	2156.42
638.58	2115.74
638.777	2163.59
638.975	2095
639.173	2054.9
639.37	2050.06
639.568	2063.04
639.765	2069.62
639.963	2027.39
640.161	2077.18
640.358	2066.72
640.556	1996.39
640.753	1977.98
640.951	1964.23
641.148	1999.49
641.346	2014.41
641.543	1991.54
641.741	2031.07
641.938	1893.51
642.136	1960.16
642.333	1924.31
642.531	2042.5
642.728	2053.35
642.925	2049.28
643.123	1977.21
643.32	2008.79
643.517	1978.37
643.715	2005.49
643.912	1959.96
644.109	1986.51
644.306	2002.2
644.504	1991.74
644.701	1992.51
644.898	1994.26
645.095	1951.24
645.293	1978.95
645.49	2005.88
645.687	1978.37
645.884	1990.19
646.081	1910.75
646.278	1894.28
646.475	1888.08
646.672	1931.68
646.87	1952.6
647.067	1904.16
647.264	1896.41
647.461	1883.24
647.658	1848.95
647.855	1936.91
648.052	1869.87
648.249	1790.05
648.446	1866
648.642	1894.86
648.839	1884.21
649.036	1818.92
649.233	1850.3
649.43	1788.3
649.627	1836.93
649.824	1810.97
650.021	1795.86
650.217	1813.68
650.414	1815.82
650.611	1854.37
650.808	1853.01
651.004	1887.7
651.201	1890.99
651.398	1964.23
651.595	1876.46
651.791	1851.66
651.988	1922.38
652.185	1816.2
652.381	1883.63
652.578	1828.8
652.775	1891.18
652.971	1860.38
653.168	1854.76
653.364	1899.13
653.561	1810.97
653.757	1855.34
653.954	1864.25
654.15	1847.59
654.347	1925.09
654.543	1868.71
654.74	1788.3
654.936	1802.45
655.133	1801.48
655.329	1830.15
655.525	1794.5
655.722	1817.17
655.918	1736.96
656.115	1739.09
656.311	1647.45
656.507	1557.36
656.704	1535.27
656.9	1616.64
657.096	1600.37
657.292	1580.8
657.489	1677.29
657.685	1698.79
657.881	1686
658.077	1656.17
658.273	1707.51
658.47	1792.18
658.666	1731.54
658.862	1763.12
659.058	1748.97
659.254	1788.3
659.45	1755.75
659.646	1773
659.842	1741.03
660.038	1834.8
660.234	1730.18
660.43	1766.8
660.626	1862.51
660.822	1820.08
661.018	1847.78
661.214	1796.83
661.41	1754.4
661.606	1830.15
661.802	1881.3
661.998	1779.97
662.194	1752.65
662.39	1811.94
662.586	1828.6
662.781	1830.35
662.977	1861.15
663.173	1830.15
663.369	1791.4
663.564	1807.29
663.76	1840.81
663.956	1789.66
664.152	1828.41
664.347	1715.26
664.543	1815.82
664.739	1733.28
664.934	1688.33
665.13	1676.51
665.326	1752.85
665.521	1781.33
665.717	1685.23
665.912	1734.05
666.108	1669.92
666.304	1732.7
666.499	1751.68
666.695	1660.24
666.89	1729.79
667.086	1736.77
667.281	1719.91
667.477	1800.9
667.672	1720.1
667.867	1724.56
668.063	1732.89
668.258	1644.54
668.454	1710.42
668.649	1786.95
668.844	1719.33
669.04	1750.72
669.235	1699.95
669.43	1676.7
669.626	1658.49
669.821	1685.81
670.016	1675.54
670.211	1713.9
670.407	1606.57
670.602	1709.64
670.797	1677.48
670.992	1747.42
671.187	1661.98
671.382	1712.74
671.578	1641.25
671.773	1668.18
671.968	1603.66
672.163	1656.75
672.358	1670.89
672.553	1637.76
672.748	1641.83
672.943	1735.22
673.138	1658.3
673.333	1688.91
673.528	1639.12
673.723	1692.79
673.918	1708.67
674.113	1661.59
674.308	1743.55
674.503	1656.75
674.698	1694.14
674.892	1670.7
675.087	1692.01
675.282	1661.59
675.477	1653.26
675.672	1665.27
675.867	1629.62
676.061	1617.61
676.256	1605.79
676.451	1647.84
676.646	1679.22
676.84	1618
677.035	1580.61
677.23	1597.07
677.424	1652.49
677.619	1667.02
677.814	1659.85
678.008	1662.56
678.203	1606.37
678.397	1577.31
678.592	1637.37
678.787	1696.27
678.981	1592.42
679.176	1664.5
679.37	1627.3
679.565	1626.52
679.759	1652.1
679.954	1676.51
680.148	1648.03
680.342	1703.64
680.537	1631.37
680.731	1605.99
680.926	1654.81
681.12	1642.61
681.314	1611.99
681.509	1619.55
681.703	1599.4
681.897	1642.02
682.092	1588.94
682.286	1580.02
682.48	1669.34
682.674	1626.14
682.869	1606.37
683.063	1627.3
683.257	1660.24
683.451	1598.62
683.645	1634.66
683.839	1584.29
684.034	1578.47
684.228	1619.16
684.422	1529.84
684.616	1559.88
684.81	1580.61
685.004	1560.46
685.198	1573.05
685.392	1607.54
685.586	1572.86
685.78	1577.31
685.974	1586.42
686.168	1597.66
686.362	1601.72
686.556	1499.04
686.75	1407.01
686.944	1432
687.138	1383.57
687.331	1295.8
687.525	1273.52
687.719	1190.59
687.913	1276.23
688.107	1306.84
688.301	1243.68
688.494	1279.33
688.688	1241.94
688.882	1216.17
689.076	1257.05
689.269	1268.87
689.463	1367.68
689.657	1265.57
689.85	1295.99
690.044	1307.62
690.238	1290.76
690.431	1304.13
690.625	1270.03
690.818	1360.51
691.012	1335.9
691.205	1404.1
691.399	1299.48
691.593	1383.95
691.786	1381.63
691.98	1424.64
692.173	1430.65
692.366	1422.31
692.56	1419.99
692.753	1443.24
692.947	1384.53
693.14	1452.93
693.333	1475.21
693.527	1370.97
693.72	1407.2
693.914	1397.9
694.107	1390.93
694.3	1426.58
694.493	1362.64
694.687	1456.8
694.88	1375.04
695.073	1463.39
695.266	1460.68
695.46	1434.33
695.653	1463.97
695.846	1459.9
696.039	1377.75
696.232	1404.49
696.425	1508.53
696.618	1485.09
696.812	1486.25
697.005	1530.62
697.198	1642.61
697.391	1542.05
697.584	1571.69
697.777	1631.17
697.97	1574.6
698.163	1599.98
698.356	1556.97
698.549	1676.9
698.742	1671.86
698.935	1585.06
699.127	1614.51
699.32	1591.26
699.513	1618
699.706	1618.39
699.899	1653.84
700.092	1618.77
700.285	1650.94
700.477	1566.66
700.67	1654.62
700.863	1655.97
701.056	1746.65
701.248	1734.64
701.441	1732.89
701.634	1658.69
701.826	1797.41
702.019	1689.88
702.212	1756.33
702.404	1707.12
702.597	1694.92
702.79	1731.15
702.982	1742.97
703.175	1823.57
703.367	1809.42
703.56	1796.63
703.752	1897
703.945	1840.42
704.137	1878.98
704.33	1921.79
704.522	1917.92
704.715	1941.17
704.907	1969.65
705.1	1985.34
705.292	1991.35
705.484	1998.33
705.677	2009.56
705.869	2015.57
706.061	2076.02
706.254	2088.42
706.446	2054.71
706.638	2031.07
706.831	2143.83
707.023	2088.42
707.215	2200.21
707.407	2162.43
707.599	2153.9
707.792	2222.3
707.984	2186.65
708.176	2270.54
708.368	2202.53
708.56	2249.23
708.752	2292.24
708.944	2247.87
709.136	2323.43
709.329	2276.74
709.521	2396.28
709.713	2348.04
709.905	2392.41
710.097	2483.47
710.289	2406.74
710.481	2395.89
710.672	2436
710.864	2479.79
711.056	2504.59
711.248	2508.46
711.44	2505.17
711.632	2495.29
711.824	2525.9
712.016	2562.32
712.207	2631.1
712.399	2608.05
712.591	2678.96
712.783	2663.27
712.975	2639.05
713.166	2616.57
713.358	2676.83
713.55	2706.47
713.741	2725.85
713.933	2728.36
714.125	2712.48
714.316	2737.47
714.508	2822.91
714.7	2822.33
714.891	2817.49
715.083	2830.28
715.274	2811.29
715.466	2865.73
715.657	2899.25
715.849	2751.03
716.04	2831.63
716.232	2822.91
716.423	2888.79
716.615	2828.14
716.806	2753.36
716.998	2724.68
717.189	2677.02
717.381	2630.52
717.572	2539.07
717.763	2603.4
717.955	2565.04
718.146	2516.99
718.337	2474.56
718.528	2449.95
718.72	2353.08
718.911	2439.68
719.102	2388.92
719.293	2423.6
719.485	2436.19
719.676	2414.49
719.867	2330.6
720.058	2375.74
720.249	2405.39
720.44	2449.17
720.632	2504.01
720.823	2530.16
721.014	2645.83
721.205	2738.05
721.396	2797.53
721.587	2920.37
721.778	2970.35
721.969	2950.59
722.16	3068
722.351	3069.17
722.542	3173.98
722.733	3267.18
722.924	3133.88
723.115	3209.44
723.305	3168.56
723.496	3211.38
723.687	3031.19
723.878	3089.7
724.069	3129.23
724.26	3098.23
724.45	3026.35
724.641	3028.09
724.832	3074.59
725.023	3070.33
725.213	3075.56
725.404	3038.55
725.595	3019.95
725.785	3025.96
725.976	3164.3
726.167	3137.75
726.357	3133.1
726.548	3303.6
726.739	3140.66
726.929	3260.59
727.12	3295.85
727.31	3360.37
727.501	3282.09
727.691	3282.68
727.882	3280.74
728.072	3340.22
728.263	3319.49
728.453	3414.42
728.644	3444.07
728.834	3384.2
729.024	3368.7
729.215	3351.46
729.405	3398.34
729.596	3499.28
729.786	3491.15
729.976	3576.01
730.167	3538.62
730.357	3526.02
730.547	3555.28
730.737	3581.63
730.928	3598.29
731.118	3660.87
731.308	3632.58
731.498	3661.26
731.688	3748.64
731.879	3721.71
732.069	3778.47
732.259	3815.09
732.449	3864.3
732.639	3979
732.829	3973.58
733.019	4047.2
733.209	4097.58
733.399	4082.08
733.589	4181.47
733.779	4212.27
733.969	4154.73
734.159	4261.68
734.349	4314.38
734.539	4379.28
734.729	4436.05
734.919	4349.45
735.109	4494.18
735.299	4372.12
735.488	4419.78
735.678	4446.52
735.868	4427.53
736.058	4452.91
736.248	4399.24
736.437	4401.95
736.627	4407.18
736.817	4567.41
737.007	4438.57
737.196	4527.31
737.386	4505.61
737.576	4469.96
737.765	4623.99
737.955	4565.28
738.144	4676.3
738.334	4635.42
738.524	4561.99
738.713	4610.81
738.903	4633.87
739.092	4651.5
739.282	4642.59
739.471	4694.71
739.661	4592.99
739.85	4705.17
740.04	4639.68
740.229	4741.79
740.419	4779.57
740.608	4755.54
740.797	4765.62
740.987	4815.99
741.176	4805.33
741.365	4779.57
741.555	4747.99
741.744	4824.9
741.933	4741.01
742.123	4821.03
742.312	4810.76
742.501	4884.38
742.69	4859.97
742.88	4803.59
743.069	4917.9
743.258	4890
743.447	4870.24
743.636	4924.1
743.825	4959.36
744.014	4901.05
744.204	4942.31
744.393	4853.58
744.582	5008.58
744.771	5061.27
744.96	4960.72
745.149	5011.29
745.338	4995.21
745.527	5066.7
745.716	5008.38
745.905	4971.96
746.094	5035.89
746.283	5054.11
746.471	5014.58
746.66	5096.54
746.849	5076.58
747.038	5069.99
747.227	5107.58
747.416	5096.34
747.604	5014.39
747.793	5036.48
747.982	5076.39
748.171	5097.51
748.359	5058.56
748.548	5039.96
748.737	5064.18
748.926	5094.21
749.114	4970.41
749.303	5001.6
749.491	5020.78
749.68	4904.15
749.869	5037.83
750.057	4966.73
750.246	4944.06
750.434	5007.41
750.623	4974.09
750.811	4913.45
751	5064.37
751.188	4960.14
751.377	4971.18
751.565	4926.04
751.754	4928.95
751.942	4906.08
752.131	4980.09
752.319	4903.37
752.507	4880.7
752.696	4963.24
752.884	5029.89
753.072	4919.45
753.261	4971.57
753.449	4902.21
753.637	4847.96
753.825	5019.43
754.014	4957.23
754.202	4939.02
754.39	5008.58
754.578	4976.61
754.766	4883.03
754.955	4860.94
755.143	4977.19
755.331	4879.15
755.519	4884.58
755.707	4902.01
755.895	4873.15
756.083	4909.38
756.271	4821.22
756.459	4845.83
756.647	4863.07
756.835	4814.25
757.023	4836.33
757.211	4807.85
757.399	4813.47
757.587	4821.22
757.775	4733.26
757.963	4831.68
758.151	4824.13
758.339	4733.45
758.526	4781.12
758.714	4728.8
758.902	4661.19
759.09	4575.36
759.278	4357.78
759.465	4107.65
759.653	3680.24
759.841	3360.95
760.028	2963.96
760.216	2618.51
760.404	2444.72
760.591	2169.6
760.779	1885.56
760.967	1691.24
761.154	1493.81
761.342	1543.79
761.529	1540.89
761.717	1635.05
761.905	1646.87
762.092	1752.07
762.28	1763.89
762.467	1827.83
762.655	1718.17
762.842	1746.26
763.029	1806.13
763.217	1818.33
763.404	1832.86
763.592	1859.6
763.779	1847.01
763.966	1937.1
764.154	1928.96
764.341	1995.42
764.528	2020.02
764.716	2089.97
764.903	2171.54
765.09	2273.45
765.277	2301.15
765.465	2510.01
765.652	2547.99
765.839	2695.04
766.026	2802.18
766.213	2867.28
766.4	2985.27
766.588	3147.44
766.775	3215.06
766.962	3279.77
767.149	3363.66
767.336	3567.68
767.523	3520.4
767.71	3666.68
767.897	3756.19
768.084	3837.18
768.271	3912.35
768.458	3991.79
768.645	4028.21
768.832	3997.02
769.019	4055.15
769.206	4092.54
769.392	4149.5
769.579	4234.94
769.766	4199.29
769.953	4202.78
770.14	4275.05
770.327	4214.21
770.513	4269.62
770.7	4256.06
770.887	4249.28
771.073	4297.91
771.26	4270.4
771.447	4247.92
771.634	4178.18
771.82	4313.02
772.007	4205.88
772.193	4271.37
772.38	4250.64
772.567	4281.25
772.753	4246.76
772.94	4290.74
773.126	4275.24
773.313	4347.12
773.499	4231.46
773.686	4282.02
773.872	4239.21
774.059	4250.06
774.245	4206.66
774.432	4200.84
774.618	4109.39
774.804	4213.82
774.991	4127.22
775.177	4230.49
775.363	4160.35
775.55	4197.74
775.736	4099.51
775.922	4152.21
776.109	4126.44
776.295	4161.32
776.481	4161.9
776.667	4146.59
776.853	4148.53
777.04	4094.28
777.226	4127.61
777.412	4168.49
777.598	4074.71
777.784	4067.93
777.97	4072.58
778.156	4068.51
778.342	4066
778.528	4007.68
778.715	3975.9
778.901	4059.41
779.087	4025.89
779.272	3977.26
779.458	3964.67
779.644	4007.29
779.83	3969.7
780.016	4085.95
780.202	3987.53
780.388	3955.95
780.574	3866.63
780.76	3908.87
780.946	3950.72
781.131	3918.36
781.317	3919.72
781.503	3874.57
781.689	3909.84
781.874	4032.48
782.06	3875.35
782.246	3917
782.432	3887.94
782.617	3906.74
782.803	3897.24
782.989	3829.82
783.174	3870.12
783.36	3786.22
783.545	3845.51
783.731	3848.42
783.916	3722.68
784.102	3807.34
784.288	3764.33
784.473	3812.19
784.659	3711.63
784.844	3798.82
785.029	3780.02
785.215	3728.49
785.4	3661.65
785.586	3798.24
785.771	3691.48
785.956	3796.88
786.142	3674.82
786.327	3676.95
786.512	3679.08
786.698	3707.37
786.883	3610.11
787.068	3654.28
787.254	3636.65
787.439	3612.63
787.624	3559.15
787.809	3630.26
787.994	3573.68
788.18	3649.83
788.365	3531.83
788.55	3539.97
788.735	3594.22
788.92	3544.62
789.105	3523.7
789.29	3559.93
789.475	3508.58
789.66	3517.88
789.845	3478.55
790.03	3456.27
790.215	3521.18
790.4	3513.43
790.585	3499.67
790.77	3488.82
790.955	3418.88
791.14	3436.12
791.325	3503.74
791.51	3387.88
791.695	3478.55
791.879	3426.63
792.064	3388.66
792.249	3502.77
792.434	3406.29
792.618	3372.57
792.803	3452.59
792.988	3388.46
793.173	3420.24
793.357	3447.17
793.542	3383.04
793.727	3396.21
793.911	3451.62
794.096	3432.64
794.281	3451.04
794.465	3486.89
794.65	3395.05
794.834	3435.15
795.019	3503.55
795.203	3480.3
795.388	3474.29
795.572	3548.5
795.757	3470.42
795.941	3496.96
796.126	3424.89
796.31	3360.76
796.494	3425.47
796.679	3437.09
796.863	3396.41
797.048	3494.63
797.232	3481.07
797.416	3454.72
797.601	3464.02
797.785	3500.45
797.969	3555.67
798.153	3427.21
798.338	3496.38
798.522	3532.22
798.706	3510.13
798.89	3502.38
799.074	3588.02
799.258	3566.71
799.443	3491.92
799.627	3495.41
799.811	3582.01
799.995	3457.63
800.179	3474.87
800.363	3462.86
800.547	3520.02
800.731	3503.35
800.915	3443.87
801.099	3449.88
801.283	3464.6
801.467	3511.1
801.651	3484.56
801.835	3526.02
802.019	3525.83
802.202	3536.48
802.386	3413.45
802.57	3436.7
802.754	3453.17
802.938	3424.69
803.121	3453.56
803.305	3549.27
803.489	3461.31
803.673	3453.17
803.856	3545.98
804.04	3402.6
804.224	3438.84
804.407	3439.42
804.591	3422.17
804.775	3439.42
804.958	3441.94
805.142	3557.41
805.326	3460.15
805.509	3472.35
805.693	3470.03
805.876	3510.72
806.06	3496.18
806.243	3497.73
806.427	3515.75
806.61	3488.82
806.794	3482.62
806.977	3467.51
807.16	3486.69
807.344	3519.43
807.527	3452.2
807.71	3466.35
807.894	3432.05
808.077	3501.42
808.26	3410.94
808.444	3386.91
808.627	3458.79
808.81	3382.07
808.993	3350.68
809.177	3331.11
809.36	3373.16
809.543	3342.93
809.726	3270.86
809.909	3259.62
810.092	3257.68
810.276	3227.07
810.459	3295.85
810.642	3254
810.825	3210.21
811.008	3253.81
811.191	3121.67
811.374	3180.38
811.557	3184.06
811.74	3235.21
811.923	3125.93
812.106	3067.23
812.289	3096.29
812.472	3071.68
812.654	3097.84
812.837	3053.86
813.02	2977.52
813.203	2938.39
813.386	2862.24
813.569	2826.98
813.751	2774.48
813.934	2811.09
814.117	2760.33
814.3	2707.63
814.482	2673.34
814.665	2633.43
814.848	2580.73
815.03	2544.69
815.213	2542.37
815.396	2517.37
815.578	2475.14
815.761	2413.14
815.943	2485.41
816.126	2368.38
816.309	2362.18
816.491	2283.33
816.674	2213.19
816.856	2294.76
817.039	2268.21
817.221	2357.92
817.403	2287.4
817.586	2278.87
817.768	2308.13
817.951	2233.34
818.133	2218.23
818.315	2215.32
818.498	2273.83
818.68	2351.72
818.862	2305.22
819.045	2351.91
819.227	2306.58
819.409	2285.07
819.591	2323.05
819.774	2312.58
819.956	2275.77
820.138	2361.41
820.32	2308.71
820.502	2394.73
820.684	2446.27
820.866	2481.72
821.048	2528.22
821.231	2512.53
821.413	2514.27
821.595	2516.41
821.777	2527.64
821.959	2476.11
822.141	2560.19
822.323	2411.39
822.505	2356.76
822.686	2314.91
822.868	2224.04
823.05	2089.39
823.232	2070.79
823.414	2003.94
823.596	2035.14
823.778	2058
823.96	2086.87
824.141	2072.53
824.323	2084.54
824.505	2223.65
824.687	2237.6
824.868	2296.7
825.05	2382.72
825.232	2427.09
825.413	2510.01
825.595	2445.88
825.777	2391.83
825.958	2435.42
826.14	2418.18
826.321	2469.32
826.503	2439.49
826.685	2496.45
826.866	2479.98
827.048	2489.86
827.229	2368.19
827.411	2366.64
827.592	2287.2
827.773	2315.49
827.955	2272.86
828.136	2247.48
828.318	2226.95
828.499	2261.63
828.68	2194.98
828.862	2251.75
829.043	2233.53
829.224	2193.43
829.406	2183.16
829.587	2204.28
829.768	2184.52
829.949	2210.28
830.131	2205.25
830.312	2299.6
830.493	2203.7
830.674	2207.77
830.855	2204.08
831.036	2184.13
831.218	2227.92
831.399	2306.77
831.58	2239.93
831.761	2231.79
831.942	2201.95
832.123	2223.85
832.304	2143.64
832.485	2144.22
832.666	2185.48
832.847	2202.34
833.028	2157.2
833.209	2183.74
833.389	2203.5
833.57	2089.77
833.751	2156.62
833.932	2192.27
834.113	2180.06
834.294	2152.35
834.475	2175.99
834.655	2227.72
834.836	2247.48
835.017	2188.2
835.198	2136.08
835.378	2212.42
835.559	2228.3
835.74	2183.74
835.92	2196.72
836.101	2162.24
836.281	2226.56
836.462	2251.55
836.643	2267.83
836.823	2260.66
837.004	2250.58
837.184	2273.45
837.365	2267.83
837.545	2260.47
837.726	2247.68
837.906	2299.6
838.087	2260.08
838.267	2227.92
838.448	2206.22
838.628	2218.62
838.808	2223.07
838.989	2300.96
839.169	2190.13
839.349	2252.91
839.53	2243.22
839.71	2258.53
839.89	2211.06
840.07	2292.05
840.251	2227.72
840.431	2270.35
840.611	2185.1
840.791	2202.34
840.971	2215.32
841.151	2221.91
841.332	2202.92
841.512	2267.25
841.692	2162.24
841.872	2217.45
842.052	2202.34
842.232	2234.89
842.412	2126.78
842.592	2133.75
842.772	2197.11
842.952	2172.31
843.132	2183.93
843.312	2187.23
843.492	2175.22
843.672	2224.62
843.851	2119.8
844.031	2117.09
844.211	2120.39
844.391	2131.82
844.571	2114.38
844.751	2160.69
844.93	2189.17
845.11	2122.52
845.29	2121.55
845.47	2169.02
845.649	2103.92
845.829	2145.57
846.009	2114.57
846.188	2172.31
846.368	2095.78
846.547	2118.64
846.727	2173.86
846.907	2068.07
847.086	2099.46
847.266	2152.16
847.445	2083.19
847.625	2086.09
847.804	2050.44
847.984	2081.44
848.163	2052.77
848.343	2065.17
848.522	2083.38
848.701	2053.54
848.881	2052.38
849.06	2081.44
849.239	2072.53
849.419	2073.31
849.598	1967.52
849.777	1964.42
849.957	1959.58
850.136	1872.78
850.315	1852.63
850.494	1875.49
850.674	1876.07
850.853	1940.98
851.032	1910.75
851.211	1961.32
851.39	1959.38
851.569	1897.19
851.748	1878.98
851.927	1938.65
852.107	1894.67
852.286	1868.32
852.465	1868.32
852.644	1988.44
852.823	1952.41
853.002	1930.32
853.181	1921.02
853.359	1904.36
853.538	1844.68
853.717	1907.85
853.896	1798.38
854.075	1691.82
854.254	1708.09
854.433	1579.25
854.611	1666.24
854.79	1577.7
854.969	1661.79
855.148	1663.34
855.327	1645.71
855.505	1687.36
855.684	1707.32
855.863	1699.18
856.041	1711.97
856.22	1764.67
856.399	1713.13
856.577	1822.98
856.756	1780.75
856.934	1891.96
857.113	1934.19
857.291	1826.47
857.47	1774.93
857.648	1840.81
857.827	1799.93
858.005	1851.46
858.184	1779.78
858.362	1878.2
858.541	1817.17
858.719	1818.14
858.898	1839.26
859.076	1776.29
859.254	1851.85
859.433	1795.86
859.611	1774.35
859.789	1714.87
859.967	1837.51
860.146	1824.53
860.324	1724.56
860.502	1741.8
860.68	1671.28
860.859	1731.73
861.037	1744.71
861.215	1750.91
861.393	1719.14
861.571	1740.83
861.749	1720.49
861.927	1743.35
862.105	1760.02
862.283	1726.5
862.461	1701.5
862.639	1675.74
862.817	1692.2
862.995	1696.85
863.173	1682.71
863.351	1696.27
863.529	1699.76
863.707	1732.89
863.885	1720.1
864.063	1608.12
864.241	1669.54
864.418	1758.27
864.596	1647.26
864.774	1618.58
864.952	1630.59
865.129	1698.79
865.307	1639.89
865.485	1587
865.663	1652.29
865.84	1584.87
866.018	1592.62
866.196	1420.57
866.373	1484.31
866.551	1420.57
866.728	1351.6
866.906	1433.55
867.084	1458.74
867.261	1479.86
867.439	1499.62
867.616	1556.19
867.794	1521.32
867.971	1520.93
868.149	1550.77
868.326	1567.82
868.503	1576.15
868.681	1546.51
868.858	1569.76
869.035	1516.09
869.213	1573.44
869.39	1529.07
869.567	1629.62
869.745	1549.03
869.922	1555.42
870.099	1556
870.276	1570.14
870.454	1571.89
870.631	1557.16
870.808	1527.71
870.985	1574.02
871.162	1593.97
871.339	1568.21
871.517	1487.99
871.694	1479.66
871.871	1509.5
872.048	1511.05
872.225	1477.34
872.402	1519.38
872.579	1463.39
872.756	1507.56
872.933	1447.5
873.11	1469.78
873.287	1487.03
873.463	1450.21
873.64	1462.23
873.817	1521.51
873.994	1479.66
874.171	1432.58
874.348	1484.51
874.524	1423.86
874.701	1439.17
874.878	1398.1
875.055	1460.68
875.231	1420.57
875.408	1456.41
875.585	1351.4
875.762	1427.93
875.938	1409.72
876.115	1408.75
876.291	1405.07
876.468	1373.49
876.645	1394.03
876.821	1408.95
876.998	1376.01
877.174	1437.81
877.351	1366.52
877.527	1327.57
877.704	1392.86
877.88	1388.22
878.057	1346.95
878.233	1378.72
878.409	1341.72
878.586	1348.3
878.762	1368.45
878.938	1355.67
879.115	1292.12
879.291	1345.4
879.467	1293.28
879.644	1315.75
879.82	1310.91
879.996	1316.53
880.172	1278.94
880.349	1318.66
880.525	1313.43
880.701	1268.09
880.877	1305.87
881.053	1304.9
881.229	1284.95
881.405	1339.39
881.581	1251.04
881.757	1277
881.933	1329.7
882.109	1334.93
882.285	1314.2
882.461	1216.75
882.637	1298.9
882.813	1272.74
882.989	1297.15
883.165	1353.92
883.341	1240.19
883.517	1317.3
883.693	1322.73
883.869	1342.1
884.044	1247.94
884.22	1299.48
884.396	1341.33
884.572	1293.67
884.747	1357.22
884.923	1314.98
885.099	1370.2
885.275	1326.8
885.45	1310.33
885.626	1281.46
885.801	1239.8
885.977	1290.76
886.153	1222.75
886.328	1281.85
886.504	1264.99
886.679	1279.72
886.855	1258.6
887.03	1303.35
887.206	1311.49
887.381	1283.2
887.557	1296.19
887.732	1297.93
887.908	1312.27
888.083	1299.09
888.258	1275.45
888.434	1263.05
888.609	1278.17
888.784	1321.18
888.96	1281.46
889.135	1253.17
889.31	1256.85
889.485	1287.47
889.661	1274.1
889.836	1303.55
890.011	1320.6
890.186	1264.02
890.361	1250.07
890.537	1298.32
890.712	1277
890.887	1277
891.062	1270.03
891.237	1348.5
891.412	1270.22
891.587	1283.59
891.762	1309.55
891.937	1310.52
892.112	1249.1
892.287	1280.49
892.462	1231.67
892.637	1228.57
892.812	1198.54
892.987	1216.75
893.161	1199.12
893.336	1183.42
893.511	1177.03
893.686	1189.24
893.861	1181.87
894.035	1192.53
894.21	1204.93
894.385	1115.61
894.56	1160.17
894.734	1103.21
894.909	1092.94
895.084	1125.3
895.258	1100.5
895.433	1107.67
895.608	1059.81
895.782	1017.77
895.957	1064.27
896.131	1037.53
896.306	965.65
896.48	981.73
896.655	979.6
896.829	914.89
897.004	912.37
897.178	922.83
897.353	927.29
897.527	967.98
897.701	939.88
897.876	882.92
898.05	962.16
898.224	946.47
898.399	992.78
898.573	938.53
898.747	806.78
898.921	883.31
899.096	741.49
899.27	769.77
899.444	764.35
899.618	793.99
899.792	827.51
899.967	829.64
900.141	875.75
900.315	772.87
900.489	799.42
900.663	829.84
900.837	810.46
901.011	737.03
901.185	884.86
901.359	772.68
901.533	829.84
901.707	809.49
901.881	836.42
902.055	804.65
902.229	811.82
902.403	864.32
902.576	823.05
902.75	820.34
902.924	942.4
903.098	893.97
903.272	899.2
903.446	958.68
903.619	938.72
903.793	968.75
903.967	909.66
904.14	966.23
904.314	997.62
904.488	961.39
904.661	1027.07
904.835	1008.86
905.009	998.78
905.182	1029.98
905.356	990.06
905.529	998.2
905.703	975.73
905.876	938.33
906.05	949.18
906.223	915.08
906.397	852.12
906.57	834.49
906.744	820.73
906.917	818.6
907.09	864.13
907.264	789.54
907.437	781.59
907.61	731.99
907.784	789.34
907.957	751.95
908.13	730.44
908.304	788.95
908.477	735.29
908.65	716.3
908.823	714.17
908.996	781.59
909.17	719.21
909.343	724.24
909.516	734.12
909.689	739.36
909.862	686.66
910.035	684.72
910.208	649.46
910.381	677.16
910.554	809.88
910.727	727.34
910.9	696.73
911.073	674.64
911.246	753.31
911.419	789.54
911.592	751.76
911.765	708.36
911.938	694.6
912.11	727.15
912.283	709.71
912.456	711.07
912.629	707
912.802	663.02
912.974	663.79
913.147	627.56
913.32	573.12
913.493	583
913.665	609.35
913.838	659.53
914.01	636.48
914.183	650.23
914.356	651.98
914.528	686.08
914.701	754.47
914.873	677.55
915.046	613.23
915.218	601.8
915.391	555.49
915.563	548.9
915.736	582.61
915.908	643.64
916.081	612.26
916.253	617.68
916.425	627.95
916.598	664.18
916.77	625.63
916.942	596.95
917.115	546.58
917.287	604.51
917.459	577.58
917.632	537.66
917.804	503.57
917.976	585.52
918.148	586.68
918.32	595.01
918.493	629.89
918.665	690.34
918.837	601.21
919.009	688.4
919.181	663.21
919.353	657.4
919.525	649.46
919.697	618.84
919.869	625.82
920.041	703.71
920.213	748.27
920.385	682.59
920.557	651.78
920.729	665.15
920.901	657.98
921.073	658.37
921.244	619.04
921.416	661.66
921.588	633.96
921.76	637.06
921.932	675.81
922.103	629.5
922.275	622.33
922.447	639.38
922.619	578.35
922.79	638.41
922.962	577.19
923.134	654.3
923.305	583.58
923.477	569.25
923.648	559.95
923.82	609.35
923.991	534.18
924.163	512.67
924.335	547.74
924.506	546.77
924.677	582.03
924.849	560.91
925.02	578.74
925.192	608.77
925.363	581.84
925.535	557.62
925.706	548.32
925.877	603.73
926.049	544.64
926.22	544.64
926.391	545.41
926.562	594.82
926.734	558.78
926.905	555.49
927.076	468.88
927.247	509.96
927.419	463.07
927.59	501.82
927.761	478.18
927.932	483.8
928.103	478.77
928.274	405.34
928.445	396.62
928.616	414.05
928.787	427.04
928.958	444.28
929.129	407.47
929.3	402.24
929.471	374.14
929.642	341.01
929.813	301.87
929.984	361.94
930.155	291.8
930.326	341.4
930.496	332.87
930.667	259.44
930.838	296.26
931.009	234.26
931.18	258.09
931.35	245.11
931.521	261.38
931.692	227.48
931.863	135.25
932.033	202.48
932.204	176.91
932.374	213.72
932.545	155.21
932.716	229.61
932.886	228.44
933.057	95.53
933.227	150.56
933.398	220.11
933.568	111.03
933.739	75.97
933.909	92.05
934.08	130.02
934.25	58.72
934.421	82.94
934.591	116.26
934.761	99.6
934.932	30.24
935.102	91.66
935.272	78.1
935.443	106.77
935.613	75.58
935.783	118.78
935.953	71.7
936.123	250.34
936.294	46.32
936.464	93.98
936.634	92.43
936.804	77.71
936.974	38.96
937.144	95.73
937.314	90.5
937.484	65.5
937.655	46.13
937.825	155.6
937.995	68.22
938.165	146.49
938.334	108.9
938.504	118.98
938.674	132.73
938.844	123.24
939.014	199.96
939.184	170.9
939.354	238.33
939.524	205.58
939.694	181.36
939.863	170.71
940.033	241.23
940.203	212.75
940.373	195.7
940.542	213.72
940.712	164.9
940.882	193.76
941.051	216.04
941.221	187.95
941.391	207.13
941.56	162.57
941.73	154.05
941.899	272.23
942.069	177.1
942.238	195.12
942.408	135.64
942.577	184.27
942.747	177.29
942.916	103.09
943.086	106
943.255	153.85
943.425	157.92
943.594	119.36
943.763	73.45
943.933	87.78
944.102	70.15
944.271	99.8
944.441	134.48
944.61	134.28
944.779	133.51
944.948	236.78
945.117	89.91
945.287	102.51
945.456	58.53
945.625	74.22
945.794	140.68
945.963	88.95
946.132	145.71
946.301	118.59
946.47	147.07
946.639	74.22
946.808	111.03
946.977	146.88
947.146	159.28
947.315	101.54
947.484	155.4
947.653	129.63
947.822	99.41
947.991	87.4
948.16	184.08
948.329	190.66
948.498	143.58
948.666	118.4
948.835	176.71
949.004	106
949.173	89.33
949.341	136.8
949.51	134.86
949.679	155.4
949.847	134.09
950.016	190.08
950.185	185.43
950.353	101.93
950.522	124.01
950.69	208.1
950.859	103.86
951.028	149.98
951.196	171.87
951.365	113.16
951.533	153.08
951.701	140.29
951.87	155.79
952.038	72.09
952.207	117.62
952.375	167.03
952.543	88.56
952.712	127.31
952.88	110.26
953.048	159.86
953.217	123.24
953.385	137.19
953.553	163.73
953.721	41.09
953.89	105.41
954.058	54.07
954.226	91.08
954.394	100.76
954.562	65.31
954.73	123.05
954.898	75.97
955.067	164.51
955.235	120.72
955.403	144.16
955.571	174.19
955.739	138.93
955.907	81.39
956.075	156.76
956.243	99.6
956.41	127.7
956.578	76.74
956.746	72.28
956.914	99.99
957.082	158.89
957.25	150.95
957.418	92.05
957.585	117.62
957.753	174.19
957.921	98.63
958.089	126.92
958.256	145.52
958.424	149.59
958.592	119.56
958.759	101.35
958.927	128.08
959.095	108.32
959.262	159.47
959.43	118.4
959.597	72.67
959.765	128.86
959.932	95.73
960.1	126.34
960.267	110.45
960.435	110.84
960.602	165.09
960.77	106.38
960.937	59.88
961.104	115.1
961.272	89.53
961.439	98.25
961.606	118.78
961.774	143.97
961.941	116.46
962.108	127.5
962.275	116.85
962.443	167.61
962.61	136.03
962.777	192.02
962.944	143.2
963.111	138.16
963.278	161.8
963.446	137
963.613	127.11
963.78	156.56
963.947	167.03
964.114	119.95
964.281	219.14
964.448	169.74
964.615	116.65
964.782	132.73
964.949	189.5
965.116	162.18
965.282	187.95
965.449	120.14
965.616	111.03
965.783	152.69
965.95	159.47
966.117	84.68
966.283	126.53
966.45	164.12
966.617	142.81
966.784	180.2
966.95	171.87
967.117	172.64
967.284	124.01
967.45	141.84
967.617	196.86
967.784	151.14
967.95	211.59
968.117	119.17
968.283	203.84
968.45	265.26
968.616	163.35
968.783	229.8
968.949	164.31
969.116	167.22
969.282	171.87
969.449	181.94
969.615	140.68
969.781	112.58
969.948	143
970.114	89.72
970.28	212.56
970.447	122.08
970.613	205.58
970.779	150.17
970.945	177.29
971.112	183.69
971.278	146.49
971.444	150.56
971.61	176.13
971.776	140.68
971.942	201.32
972.108	177.1
972.275	153.27
972.441	175.74
972.607	201.13
972.773	139.71
972.939	150.36
973.105	162.38
973.271	136.41
973.437	130.8
973.602	108.13
973.768	172.84
973.934	166.83
974.1	158.7
974.266	88.56
974.432	148.23
974.598	107.74
974.763	180.2
974.929	115.1
975.095	187.37
975.261	130.99
975.426	112.97
975.592	127.7
975.758	199.96
975.923	76.74
976.089	91.66
976.255	178.07
976.42	153.66
976.586	138.74
976.751	152.88
976.917	232.51
977.082	159.66
977.248	80.03
977.413	82.75
977.579	113.36
977.744	144.16
977.91	98.44
978.075	109.87
978.24	166.25
978.406	133.7
978.571	99.99
978.736	95.73
978.902	149.01
979.067	99.99
979.232	71.51
979.397	123.05
979.563	159.66
979.728	111.42
979.893	151.91
980.058	95.34
980.223	155.01
980.388	138.93
980.554	127.5
980.719	134.28
980.884	148.23
981.049	161.99
981.214	108.13
981.379	130.6
981.544	129.83
981.709	126.53
981.874	91.66
982.039	92.82
982.204	167.41
982.368	116.85
982.533	127.11
982.698	132.35
982.863	181.75
983.028	119.17
983.193	123.82
983.357	118.01
983.522	104.64
983.687	104.06
983.852	115.1
984.016	108.9
984.181	152.11
984.346	144.16
984.51	145.52
984.675	137
984.839	157.34
985.004	128.28
985.168	155.21
985.333	146.49
985.498	104.25
985.662	143.78
985.827	136.8
985.991	121.88
986.155	112
986.32	191.44
986.484	172.84
986.649	153.08
986.813	56.01
986.977	134.86
987.142	134.86
987.306	94.37
987.47	95.34
987.634	109.48
987.799	112.58
987.963	118.01
988.127	144.55
988.291	167.99
988.455	135.06
988.62	99.99
988.784	129.25
988.948	135.45
989.112	82.75
989.276	155.01
989.44	113.75
989.604	134.48
989.768	79.65
989.932	169.54
990.096	108.51
990.26	87.01
990.424	77.13
990.588	94.37
990.752	216.04
990.915	137.38
991.079	89.33
991.243	88.75
991.407	135.83
991.571	81.78
991.734	136.41
991.898	112.97
992.062	195.89
992.226	108.32
992.389	104.45
992.553	63.37
992.717	98.44
992.88	66.28
993.044	93.6
993.207	73.64
993.371	125.56
993.535	127.7
993.698	102.9
993.862	125.37
994.025	140.29
994.189	108.9
994.352	126.92
994.515	113.94
994.679	135.06
994.842	68.22
995.006	121.5
995.169	55.82
995.332	86.62
995.496	117.23
995.659	63.18
995.822	97.66
995.985	88.17
996.149	143.97
996.312	97.28
996.475	179.04
996.638	94.37
996.801	127.31
996.964	154.82
997.128	86.62
997.291	63.95
997.454	92.63
997.617	53.88
997.78	120.91
997.943	53.68
998.106	114.91
998.269	50.39
998.432	64.73
998.595	92.63
998.758	48.07
998.92	46.13
999.083	19.2
999.246	86.23
999.409	40.32
999.572	38.57
999.735	53.88
999.897	108.71
1000.06	63.95
1000.223	80.03
1000.386	94.18
1000.548	106.96
1000.711	95.53
1000.874	94.95
1001.036	44.19
1001.199	144.16
1001.361	64.15
1001.524	78.68
1001.687	77.9
1001.849	43.61
1002.012	99.6
1002.174	71.7
1002.337	105.61
1002.499	54.46
1002.661	116.65
1002.824	31.4
1002.986	42.06
1003.149	93.21
1003.311	44.19
1003.473	134.48
1003.636	60.47
1003.798	110.45
1003.96	106.96
1004.123	88.56
1004.285	66.08
1004.447	76.93
1004.609	73.06
1004.771	129.44
1004.933	4.67
1005.096	35.47
1005.258	31.21
1005.42	38.57
1005.582	107.93
1005.744	59.5
1005.906	7.96
1006.068	67.83
1006.23	5.63
1006.392	14.35
1006.554	49.42
1006.716	117.04
1006.878	90.5
1007.04	27.92
1007.202	49.23
1007.363	77.32
1007.525	85.85
1007.687	81.78
1007.849	93.79
1008.011	31.02
1008.172	23.07
1008.334	42.25
1008.496	64.34
1008.658	0.6
1008.819	45.74
1008.981	22.88
1009.143	35.08
1009.304	57.95
1009.466	74.22
1009.627	112.78
1009.789	148.23
1009.95	77.9
1010.112	57.75
1010.273	99.6
1010.435	32.57
1010.596	53.1
1010.758	60.66
1010.919	49.42
1011.081	25.59
1011.242	40.51
1011.403	63.57
1011.565	32.57
1011.726	69.77
1011.887	29.66
1012.049	58.72
1012.21	63.76
1012.371	123.82
1012.532	-13.74
1012.693	47.1
1012.855	12.8
1013.016	37.22
1013.177	91.85
1013.338	52.13
1013.499	115.49
1013.66	76.55
1013.821	80.23
1013.982	54.07
1014.143	35.08
1014.304	17.45
1014.465	68.22
1014.626	57.17
1014.787	23.46
1014.948	132.93
1015.109	-39.31
1015.27	81.78
1015.431	22.1
1015.592	23.65
1015.752	101.54
1015.913	46.32
1016.074	69.57
1016.235	36.25
1016.395	44.19
1016.556	29.85
1016.717	23.65
1016.877	72.87
1017.038	21.91
1017.199	44.58
1017.359	29.85
1017.52	72.48
1017.681	35.86
1017.841	60.27
1018.002	23.65
1018.162	16.48
1018.323	93.01
1018.483	12.61
1018.644	27.33
1018.804	-6.18
1018.964	14.93
1019.125	22.88
1019.285	53.68
1019.446	5.05
1019.606	-10.83
1019.766	-28.66
1019.926	45.74
1020.087	79.07
1020.247	-20.13
1020.407	37.41
1020.567	77.9
1020.728	21.52
1020.888	-6.38
1021.048	-0.37
1021.208	-1.92
1021.368	-4.63
1021.528	61.43
1021.688	54.85
1021.848	33.73
1022.008	25.2
1022.168	7.96
1022.328	52.52
1022.488	9.12
1022.648	20.94
1022.808	62.79
1022.968	58.53
1023.128	-4.83
1023.288	23.65
1023.448	35.86
1023.608	58.33
1023.767	37.02
1023.927	20.94
1024.087	-2.89
1024.247	6.22
1024.406	10.28
1024.566	-11.41
1024.726	12.8
1024.885	39.15
1025.045	69.77
1025.205	22.1
1025.364	27.72
1025.524	25.98
1025.683	10.67
1025.843	32.18
1026.003	17.45
1026.162	82.55
1026.321	62.79
1026.481	32.18
1026.64	9.32
1026.8	23.85
1026.959	18.23
1027.119	37.8
1027.278	34.5
1027.437	-17.03
1027.597	31.98
1027.756	48.45
1027.915	53.49
1028.074	42.06
1028.234	-4.05
1028.393	39.93
1028.552	16.29
1028.711	-51.71
1028.87	60.85
1029.03	-11.41
1029.189	6.99
1029.348	-39.9
1029.507	-26.14
1029.666	28.69
1029.825	-17.23
1029.984	-6.77
1030.143	19.97
1030.302	27.14
1030.461	-52.1
1030.62	49.62
1030.779	34.12
1030.938	-24.59
1031.097	-23.04
1031.255	68.02
1031.414	81.58
1031.573	68.41
1031.732	-53.85
1031.891	-11.03
1032.049	91.46
1032.208	28.88
1032.367	0.6
1032.525	4.28
1032.684	11.64
1032.843	31.98
1033.001	-22.65
1033.16	188.92
1033.319	75.58
1033.477	49.42
1033.636	2.73
1033.794	-32.53
1033.953	55.62
1034.111	77.9
1034.27	10.67
1034.428	50.2
1034.587	-10.45
1034.745	15.13
1034.903	39.73
1035.062	45.16
1035.22	-55.78
1035.378	37.8
1035.537	-14.71
1035.695	48.45
1035.853	11.45
1036.011	37.41
1036.17	22.88
1036.328	-45.9
1036.486	22.88
1036.644	27.14
1036.802	-73.61
1036.96	-7.15
1037.119	-3.08
1037.277	-14.51
1037.435	-23.43
1037.593	-13.35
1037.751	9.7
1037.909	43.22
1038.067	43.22
