Data from gum_old_FLMT105791__148__15-46-37-252.txt Node

Date: Mon Mar 20 15:46:37 GMT 2023
User: antho
Spectrometer: FLMT10579
Trigger mode: 0
Integration Time (sec): 1.000000E-1
Scans to average: 10
Electric dark correction enabled: true
Nonlinearity correction enabled: false
Boxcar width: 0
XAxis mode: Wavelengths
Number of Pixels in Spectrum: 3648
>>>>>Begin Spectral Data<<<<<
345.248	-188.58
345.464	-188.58
345.681	-188.58
345.898	-211.64
346.114	-181.22
346.331	-61.87
346.548	45.85
346.764	-9.17
346.981	-19.63
347.197	-10.33
347.414	10.2
347.631	-22.93
347.847	58.06
348.064	29.38
348.28	61.55
348.497	-61.87
348.713	-19.25
348.93	25.12
349.146	55.35
349.363	-7.23
349.579	30.35
349.796	2.84
350.012	-43.46
350.229	51.08
350.445	21.25
350.661	7.49
350.878	-7.81
351.094	4
351.311	22.8
351.527	22.6
351.743	11.75
351.96	16.79
352.176	41.98
352.392	21.64
352.609	20.09
352.825	8.85
353.041	3.23
353.257	8.07
353.474	9.62
353.69	12.53
353.906	6.52
354.122	-20.41
354.339	70.85
354.555	35.97
354.771	-21.38
354.987	77.82
355.203	61.93
355.42	-0.84
355.636	-7.23
355.852	21.64
356.068	43.33
356.284	-43.46
356.5	70.27
356.716	10.4
356.932	24.15
357.148	45.27
357.364	6.14
357.58	58.45
357.796	79.76
358.012	61.74
358.228	54.77
358.444	-53.73
358.66	47.02
358.876	33.26
359.092	-13.24
359.308	34.23
359.524	45.27
359.74	0.9
359.956	12.53
360.172	16.02
360.388	84.02
360.604	24.93
360.819	82.28
361.035	39.85
361.251	32.48
361.467	5.17
361.683	49.53
361.898	32.87
362.114	64.45
362.33	45.66
362.546	76.47
362.762	47.21
362.977	39.46
363.193	-7.43
363.409	77.24
363.624	4.97
363.84	27.84
364.056	5.17
364.271	43.53
364.487	44.5
364.703	21.44
364.918	-14.4
365.134	6.91
365.35	12.53
365.565	133.81
365.781	35
365.996	45.27
366.212	97.78
366.427	72.59
366.643	2.84
366.858	23.38
367.074	6.72
367.289	93.32
367.505	134.78
367.72	-13.05
367.936	27.84
368.151	41.78
368.367	57.48
368.582	45.47
368.798	29.97
369.013	101.46
369.228	40.82
369.444	39.65
369.659	104.95
369.874	68.33
370.09	117.54
370.305	-17.5
370.52	27.84
370.736	84.8
370.951	60.19
371.166	75.3
371.381	112.31
371.597	66
371.812	3.23
372.027	12.72
372.242	39.85
372.458	114.05
372.673	7.49
372.888	25.7
373.103	84.6
373.318	120.06
373.533	66.97
373.749	50.7
373.964	-14.21
374.179	94.68
374.394	14.85
374.609	78.4
374.824	30.35
375.039	78.02
375.254	21.64
375.469	100.3
375.684	58.83
375.899	97.2
376.114	53.6
376.329	52.05
376.544	79.57
376.759	83.83
376.974	44.5
377.189	33.45
377.404	46.43
377.619	125.1
377.834	2.84
378.049	13.89
378.264	12.34
378.478	70.85
378.693	37.91
378.908	58.45
379.123	25.12
379.338	101.27
379.553	61.74
379.767	57.09
379.982	82.86
380.197	62.71
380.412	63.1
380.626	91.97
380.841	136.72
381.056	61.16
381.271	112.31
381.485	42.75
381.7	26.29
381.915	72.2
382.129	48.37
382.344	49.73
382.559	33.45
382.773	96.62
382.988	11.37
383.202	79.76
383.417	16.02
383.632	155.51
383.846	40.43
384.061	65.42
384.275	22.02
384.49	93.71
384.704	92.55
384.919	74.72
385.133	50.31
385.348	79.76
385.562	50.12
385.777	96.23
385.991	69.68
386.206	55.35
386.42	56.32
386.634	120.83
386.849	112.31
387.063	73.17
387.277	30.35
387.492	44.88
387.706	28.42
387.92	55.73
388.135	67.94
388.349	86.15
388.563	87.9
388.778	67.36
388.992	65.42
389.206	85.18
389.42	151.25
389.635	91.19
389.849	99.33
390.063	121.41
390.277	97.97
390.491	147.18
390.706	103.98
390.92	132.07
391.134	79.57
391.348	110.18
391.562	33.45
391.776	83.25
391.99	51.47
392.205	121.41
392.419	68.91
392.633	68.52
392.847	137.5
393.061	66
393.275	126.84
393.489	68.13
393.703	63.48
393.917	111.34
394.131	58.06
394.345	97.58
394.559	117.35
394.773	78.02
394.986	101.07
395.2	80.53
395.414	158.23
395.628	69.49
395.842	101.07
396.056	88.48
396.27	37.13
396.484	109.6
396.697	106.11
396.911	131.88
397.125	117.54
397.339	123.74
397.553	66.97
397.766	154.16
397.98	134.4
398.194	131.1
398.408	94.1
398.621	141.18
398.835	137.3
399.049	115.22
399.262	180.12
399.476	180.12
399.69	174.11
399.903	216.35
400.117	146.99
400.331	171.6
400.544	153.19
400.758	264.4
400.971	177.41
401.185	208.99
401.398	125.48
401.612	199.5
401.826	190.97
402.039	202.21
402.253	168.88
402.466	211.51
402.68	170.05
402.893	165.01
403.106	208.6
403.32	165.4
403.533	202.4
403.747	146.02
403.96	198.33
404.174	209.96
404.387	130.33
404.6	158.42
404.814	232.43
405.027	183.61
405.24	181.09
405.454	145.44
405.667	209.76
405.88	128.78
406.094	176.63
406.307	236.89
406.52	204.14
406.733	150.09
406.947	140.01
407.16	220.61
407.373	248.9
407.586	149.31
407.799	155.71
408.012	233.01
408.226	175.08
408.439	228.17
408.652	148.15
408.865	203.76
409.078	253.36
409.291	243.48
409.504	155.51
409.717	260.33
409.93	231.27
410.143	232.43
410.357	145.63
410.57	141.95
410.783	184.38
410.996	196.59
411.209	162.3
411.421	237.86
411.634	235.34
411.847	181.28
412.06	222.16
412.273	190.39
412.486	241.73
412.699	307.02
412.912	217.71
413.125	240.76
413.338	239.6
413.55	245.8
413.763	216.35
413.976	236.11
414.189	192.91
414.402	229.91
414.615	280.09
414.827	204.53
415.04	276.41
415.253	216.16
415.466	310.12
415.678	324.27
415.891	230.11
416.104	240.38
416.316	235.34
416.529	202.4
416.742	253.74
416.954	259.75
417.167	252
417.38	226.81
417.592	274.67
417.805	223.52
418.017	171.79
418.23	250.26
418.442	229.53
418.655	205.89
418.868	247.16
419.08	268.66
419.293	269.63
419.505	241.93
419.718	264.01
419.93	306.25
420.142	226.23
420.355	283.19
420.567	293.07
420.78	273.7
420.992	235.53
421.205	294.82
421.417	212.67
421.629	245.03
421.842	230.3
422.054	204.14
422.266	275.06
422.479	311.09
422.691	243.48
422.903	272.93
423.115	226.23
423.328	237.66
423.54	252.39
423.752	254.33
423.964	256.46
424.177	270.79
424.389	238.83
424.601	380.84
424.813	278.93
425.025	294.04
425.238	300.82
425.45	229.33
425.662	231.08
425.874	608.3
426.086	268.47
426.298	285.91
426.51	284.36
426.722	276.8
426.934	254.13
427.146	294.43
427.358	218.09
427.57	284.36
427.782	290.75
427.994	254.33
428.206	265.56
428.418	235.53
428.63	312.26
428.842	319.62
429.054	286.49
429.266	315.16
429.478	237.66
429.69	256.84
429.902	201.05
430.114	273.7
430.325	279.71
430.537	239.79
430.749	232.63
430.961	208.79
431.173	223.71
431.384	264.21
431.596	151.64
431.808	206.66
432.02	260.72
432.231	311.29
432.443	334.34
432.655	344.03
432.867	258.78
433.078	300.24
433.29	358.37
433.502	338.22
433.713	361.47
433.925	318.07
434.136	354.49
434.348	271.96
434.56	226.62
434.771	384.14
434.983	264.01
435.194	296.17
435.406	290.75
435.617	343.84
435.829	416.88
436.04	371.16
436.252	346.36
436.463	372.12
436.675	380.65
436.886	376.77
437.098	353.33
437.309	430.25
437.521	354.11
437.732	346.55
437.943	346.55
438.155	359.72
438.366	305.47
438.578	406.22
438.789	318.26
439	345.77
439.211	319.04
439.423	364.18
439.634	371.16
439.845	352.94
440.057	370.57
440.268	397.31
440.479	355.66
440.69	388.2
440.902	336.28
441.113	338.22
441.324	339.77
441.535	394.02
441.746	415.72
441.957	346.16
442.168	348.68
442.38	418.04
442.591	407.77
442.802	361.47
443.013	381.04
443.224	421.34
443.435	377.55
443.646	383.75
443.857	390.34
444.068	349.07
444.279	357.98
444.49	469.97
444.701	390.14
444.912	488.57
445.123	448.46
445.334	409.13
445.545	432.38
445.756	396.15
445.967	343.06
446.178	410.1
446.388	435.29
446.599	450.2
446.81	440.32
447.021	404.29
447.232	443.81
447.443	453.89
447.653	371.54
447.864	487.98
448.075	430.44
448.286	455.05
448.496	455.05
448.707	457.18
448.918	409.9
449.129	518.02
449.339	435.67
449.55	450.4
449.761	432.77
449.971	492.25
450.182	416.69
450.393	460.09
450.603	433.54
450.814	461.83
451.024	494.96
451.235	471.13
451.446	525.18
451.656	531.38
451.867	456.02
452.077	477.52
452.288	525.77
452.498	527.51
452.709	409.52
452.919	485.85
453.13	453.5
453.34	507.36
453.55	424.24
453.761	497.09
453.971	491.28
454.182	476.55
454.392	453.89
454.602	558.51
454.813	479.46
455.023	493.22
455.233	418.04
455.444	451.75
455.654	407
455.864	448.46
456.075	435.09
456.285	460.09
456.495	462.8
456.705	508.91
456.916	543.98
457.126	535.45
457.336	480.04
457.546	417.46
457.756	427.54
457.967	517.63
458.177	482.17
458.387	489.34
458.597	457.18
458.807	474.42
459.017	456.79
459.227	480.04
459.437	444.39
459.647	512.59
459.857	503.68
460.068	459.12
460.278	545.53
460.488	487.02
460.698	531.38
460.908	478.3
461.117	450.4
461.327	488.95
461.537	519.95
461.747	498.64
461.957	497.87
462.167	596.29
462.377	550.95
462.587	533.71
462.797	579.05
463.007	501.74
463.216	577.5
463.426	591.06
463.636	548.82
463.846	472.1
464.056	506
464.265	550.76
464.475	502.32
464.685	511.23
464.895	553.47
465.104	499.22
465.314	546.69
465.524	518.79
465.733	479.65
465.943	614.5
466.153	604.04
466.362	564.13
466.572	540.68
466.782	513.17
466.991	543.01
467.201	570.71
467.41	470.35
467.62	563.55
467.829	526.73
468.039	543.01
468.249	526.54
468.458	553.47
468.668	586.99
468.877	571.3
469.086	613.92
469.296	603.26
469.505	546.5
469.715	660.42
469.924	590.09
470.134	659.45
470.343	634.26
470.552	556.57
470.762	550.76
470.971	527.9
471.18	575.75
471.39	574.98
471.599	544.75
471.808	619.15
472.018	583.89
472.227	654.61
472.436	657.51
472.645	600.94
472.855	600.55
473.064	677.86
473.273	654.8
473.482	637.36
473.691	680.18
473.901	648.02
474.11	631.36
474.319	712.73
474.528	639.88
474.737	720.68
474.946	654.41
475.155	674.56
475.364	741.6
475.573	660.61
475.783	686.58
475.992	711.38
476.201	734.24
476.41	676.69
476.619	662.36
476.828	682.7
477.037	664.68
477.245	667.01
477.454	716.8
477.663	691.23
477.872	676.69
478.081	793.33
478.29	680.18
478.499	822.2
478.708	736.56
478.917	824.33
479.125	746.06
479.334	737.34
479.543	743.54
479.752	760.59
479.961	785.19
480.169	791.39
480.378	755.36
480.587	892.14
480.796	824.72
481.004	773.76
481.213	790.81
481.422	787.13
481.63	803.79
481.839	824.33
482.048	878.97
482.256	816.77
482.465	847.58
482.674	846.61
482.882	866.76
483.091	895.44
483.299	857.85
483.508	864.63
483.716	833.82
483.925	835.18
484.134	825.69
484.342	845.84
484.551	896.21
484.759	858.62
484.967	861.72
485.176	912.29
485.384	889.82
485.593	911.71
485.801	858.24
486.01	868.12
486.218	803.21
486.426	755.94
486.635	773.18
486.843	773.76
487.051	773.96
487.26	774.54
487.468	828.2
487.676	838.86
487.885	817.35
488.093	831.5
488.301	871.22
488.509	892.72
488.717	946.97
488.926	879.74
489.134	904.35
489.342	906.09
489.55	857.65
489.758	893.11
489.967	899.7
490.175	1002.19
490.383	905.9
490.591	1036.68
490.799	930.89
491.007	996.76
491.215	985.14
491.423	972.35
491.631	945.81
491.839	957.05
492.047	1015.95
492.255	942.32
492.463	899.7
492.671	896.99
492.879	973.32
493.087	952.78
493.295	974.68
493.503	963.83
493.711	1022.73
493.919	1023.31
494.127	1043.65
494.334	1067.68
494.542	950.85
494.75	1011.49
494.958	1021.56
495.166	1051.21
495.374	1062.64
495.581	1037.65
495.789	1057.21
495.997	1118.83
496.205	1011.68
496.412	1026.02
496.62	1017.11
496.828	1054.89
497.035	1025.83
497.243	1085.5
497.451	1045.59
497.658	1037.45
497.866	1062.06
498.074	1124.83
498.281	1016.33
498.489	1139.56
498.696	1052.18
498.904	1014.98
499.112	1034.74
499.319	1140.91
499.527	1039.39
499.734	1107.98
499.942	1017.69
500.149	1062.06
500.357	1080.27
500.564	1048.69
500.771	1077.75
500.979	1022.92
501.186	995.41
501.394	1065.93
501.601	1059.35
501.808	1073.68
502.016	1046.75
502.223	1024.28
502.43	1079.49
502.638	1034.16
502.845	996.96
503.052	1126.19
503.26	1060.9
503.467	1140.72
503.674	1071.36
503.881	1090.54
504.089	1175.4
504.296	1101.78
504.503	1039.39
504.71	1077.56
504.917	1043.07
505.125	1127.35
505.332	1076.78
505.539	1109.91
505.746	1187.22
505.953	1139.17
506.16	1122.7
506.367	1200.97
506.574	1220.93
506.781	1218.22
506.988	1125.41
507.195	1146.92
507.402	1112.43
507.609	1194.58
507.816	1133.16
508.023	1131.61
508.23	1116.69
508.437	1084.92
508.644	1161.26
508.851	1193.42
509.058	1186.64
509.265	1158.54
509.472	1178.69
509.679	1271.11
509.885	1146.34
510.092	1179.08
510.299	1162.03
510.506	1138.59
510.713	1195.16
510.92	1166.29
511.126	1201.75
511.333	1229.07
511.54	1215.31
511.746	1255.22
511.953	1271.11
512.16	1267.82
512.367	1198.84
512.573	1211.24
512.78	1237.4
512.987	1217.44
513.193	1176.37
513.4	1144.4
513.606	1176.37
513.813	1245.15
514.02	1221.12
514.226	1268.01
514.433	1234.49
514.639	1155.64
514.846	1220.93
515.052	1178.89
515.259	1205.04
515.465	1220.74
515.672	1223.45
515.878	1342.22
516.085	1227.52
516.291	1323.42
516.497	1259.29
516.704	1214.34
516.91	1201.56
517.117	1138.39
517.323	1125.61
517.529	1114.18
517.736	1152.93
517.942	1149.05
518.148	1138.59
518.354	1201.17
518.561	1193.61
518.767	1214.34
518.973	1240.69
519.179	1257.16
519.386	1217.06
519.592	1209.69
519.798	1217.06
520.004	1351.13
520.21	1274.99
520.417	1324.97
520.623	1350.35
520.829	1354.03
521.035	1330.79
521.241	1348.61
521.447	1379.8
521.653	1480.36
521.859	1336.21
522.065	1404.99
522.271	1482.88
522.477	1439.48
522.683	1490.05
522.889	1402.67
523.095	1442
523.301	1413.52
523.507	1387.36
523.713	1436.57
523.919	1410.61
524.125	1479.2
524.331	1471.64
524.537	1529.57
524.742	1529.38
524.948	1553.4
525.154	1546.62
525.36	1630.32
525.566	1539.64
525.772	1573.16
525.977	1503.03
526.183	1555.92
526.389	1615.59
526.595	1541.19
526.8	1520.46
527.006	1459.63
527.212	1441.03
527.417	1399.76
527.623	1432.11
527.829	1498.38
528.034	1517.36
528.24	1491.6
528.446	1538.29
528.651	1611.33
528.857	1590.6
529.062	1645.04
529.268	1602.22
529.473	1633.03
529.679	1648.53
529.884	1700.26
530.09	1689.02
530.295	1681.27
530.501	1685.15
530.706	1676.04
530.912	1656.09
531.117	1670.04
531.323	1687.09
531.528	1717.7
531.733	1752.19
531.939	1693.29
532.144	1761.68
532.35	1721.38
532.555	1803.72
532.76	1732.04
532.966	1754.32
533.171	1689.8
533.376	1664.22
533.581	1611.14
533.787	1688.64
533.992	1711.89
534.197	1760.52
534.402	1699.68
534.607	1725.45
534.813	1841.31
535.018	1730.29
535.223	1746.37
535.428	1766.33
535.633	1775.63
535.838	1794.42
536.043	1812.05
536.249	1890.33
536.454	1809.73
536.659	1843.63
536.864	1779.7
537.069	1766.33
537.274	1822.32
537.479	1802.75
537.684	1824.07
537.889	1742.69
538.094	1872.7
538.299	1771.37
538.504	1799.27
538.708	1813.41
538.913	1877.73
539.118	1779.5
539.323	1846.35
539.528	1792.68
539.733	1800.43
539.938	1827.75
540.142	1864.75
540.347	1804.3
540.552	1770.2
540.757	1807.02
540.962	1771.17
541.166	1725.06
541.371	1701.04
541.576	1738.43
541.781	1711.3
541.985	1823.87
542.19	1774.47
542.395	1873.47
542.599	1928.5
542.804	1825.23
543.008	1918.23
543.213	1852.35
543.418	1799.46
543.622	1879.09
543.827	1767.49
544.031	1922.3
544.236	1943.8
544.44	1877.93
544.645	1963.95
544.849	1865.53
545.054	1911.45
545.258	1968.6
545.463	1938.96
545.667	1845.96
545.872	1940.51
546.076	1921.91
546.281	1913
546.485	1870.18
546.689	1906.6
546.894	1925.4
547.098	1896.14
547.302	1852.74
547.507	1889.36
547.711	1897.11
547.915	1944.77
548.119	1848.09
548.324	1845.77
548.528	1944.58
548.732	1852.35
548.936	1958.14
549.141	1923.85
549.345	1906.21
549.549	1914.55
549.753	1881.03
549.957	2029.63
550.161	1990.3
550.366	1964.92
550.57	1873.28
550.774	1920.16
550.978	1907.96
551.182	1907.18
551.386	1861.65
551.59	1883.35
551.794	1885.29
551.998	1898.46
552.202	1898.27
552.406	1892.07
552.61	1950.2
552.814	1878.12
553.018	2012.58
553.222	1891.1
553.426	1910.09
553.63	2000.18
553.833	1865.14
554.037	1852.55
554.241	1917.26
554.445	1918.81
554.649	1931.21
554.853	1852.93
555.056	1957.17
555.26	1951.94
555.464	1926.75
555.668	1942.83
555.871	1929.46
556.075	1947.48
556.279	1892.85
556.483	1869.01
556.686	1925.01
556.89	1884.71
557.094	1930.82
557.297	1826
557.501	1915.51
557.704	1813.41
557.908	1883.16
558.112	1848.87
558.315	1922.1
558.519	1843.25
558.722	1860.1
558.926	1824.26
559.129	1767.49
559.333	1742.3
559.536	1803.53
559.74	1754.12
559.943	1756.84
560.147	1748.5
560.35	1769.82
560.553	1768.85
560.757	1725.64
560.96	1865.53
561.164	1770.59
561.367	1893.81
561.57	1793.65
561.774	1836.66
561.977	1740.95
562.18	1752.38
562.384	1861.07
562.587	1771.37
562.79	1726.61
562.993	1737.65
563.197	1765.17
563.4	1849.06
563.603	1811.47
563.806	1866.69
564.009	1756.84
564.212	1773.11
564.416	1693.29
564.619	1779.12
564.822	1688.25
565.025	1801.2
565.228	1712.08
565.431	1726.42
565.634	1649.11
565.837	1654.73
566.04	1705.69
566.243	1668.1
566.446	1570.06
566.649	1692.9
566.852	1615.98
567.055	1631.67
567.258	1701.42
567.461	1744.82
567.664	1718.67
567.867	1615.98
568.07	1671.97
568.273	1657.44
568.475	1720.22
568.678	1625.28
568.881	1614.24
569.084	1620.44
569.287	1522.98
569.489	1546.81
569.692	1621.79
569.895	1620.82
570.098	1564.25
570.3	1543.91
570.503	1497.99
570.706	1524.53
570.909	1494.11
571.111	1457.5
571.314	1487.53
571.516	1509.81
571.719	1500.9
571.922	1490.24
572.124	1498.76
572.327	1513.1
572.529	1467.18
572.732	1461.76
572.935	1531.89
573.137	1568.13
573.34	1474.74
573.542	1559.99
573.745	1526.08
573.947	1499.73
574.15	1475.9
574.352	1420.1
574.554	1506.71
574.757	1452.85
574.959	1445.1
575.162	1461.18
575.364	1431.73
575.566	1544.88
575.769	1435.99
575.971	1430.95
576.173	1352.48
576.376	1431.15
576.578	1456.91
576.78	1499.93
576.982	1361.2
577.185	1431.34
577.387	1394.92
577.589	1346.48
577.791	1434.05
577.993	1468.15
578.196	1380.58
578.398	1432.89
578.6	1456.72
578.802	1341.83
579.004	1340.86
579.206	1336.4
579.408	1363.53
579.61	1355.78
579.812	1418.17
580.014	1312.77
580.216	1371.08
580.418	1367.21
580.62	1321.68
580.822	1293.78
581.024	1358.3
581.226	1372.05
581.428	1324.39
581.63	1440.06
581.832	1326.52
582.034	1395.11
582.236	1337.37
582.438	1378.45
582.64	1399.76
582.841	1409.45
583.043	1451.88
583.245	1385.81
583.447	1369.34
583.649	1333.3
583.85	1378.83
584.052	1405.38
584.254	1318.39
584.456	1359.85
584.657	1297.27
584.859	1337.57
585.061	1330.79
585.262	1304.24
585.464	1289.71
585.666	1359.46
585.867	1295.14
586.069	1359.07
586.27	1321.29
586.472	1290.68
586.674	1295.91
586.875	1296.3
587.077	1282.74
587.278	1295.52
587.48	1292.23
587.681	1394.72
587.883	1281.38
588.084	1214.92
588.285	1253.29
588.487	1265.69
588.688	1299.2
588.89	1197.49
589.091	1200.2
589.292	1220.16
589.494	1194
589.695	1158.74
589.896	1088.41
590.098	1078.14
590.299	1184.89
590.5	1092.48
590.702	1163.19
590.903	1153.12
591.104	1248.25
591.305	1196.52
591.507	1267.04
591.708	1212.21
591.909	1181.41
592.11	1258.71
592.311	1187.61
592.512	1181.41
592.714	1144.4
592.915	1142.27
593.116	1156.22
593.317	1186.64
593.518	1172.69
593.719	1178.89
593.92	1203.3
594.121	1214.15
594.322	1190.9
594.523	1163
594.724	1142.27
594.925	1187.99
595.126	1205.04
595.327	1183.92
595.528	1228.49
595.729	1155.25
595.929	1140.14
596.13	1146.34
596.331	1188.19
596.532	1186.83
596.733	1220.54
596.934	1204.85
597.135	1233.52
597.335	1207.56
597.536	1160.29
597.737	1165.71
597.938	1158.16
598.138	1165.91
598.339	1161.84
598.54	1181.21
598.74	1162.61
598.941	1176.56
599.142	1228.68
599.342	1188.77
599.543	1143.04
599.744	1116.69
599.944	1144.21
600.145	1140.72
600.345	1182.37
600.546	1237.79
600.746	1234.69
600.947	1249.22
601.147	1168.23
601.348	1229.65
601.548	1160.87
601.749	1186.06
601.949	1101.39
602.15	1116.11
602.35	1162.81
602.551	1200.78
602.751	1113.01
602.951	1136.46
603.152	1078.33
603.352	1185.47
603.552	1143.04
603.753	1174.82
603.953	1161.26
604.153	1149.05
604.354	1144.01
604.554	1109.14
604.754	1141.88
604.954	1129.48
605.155	1154.67
605.355	1144.98
605.555	1188.38
605.755	1212.21
605.955	1147.5
606.155	1199.04
606.356	1140.14
606.556	1169.78
606.756	1162.23
606.956	1085.31
607.156	1189.35
607.356	1088.99
607.556	1127.35
607.756	1127.74
607.956	1157.19
608.156	1147.89
608.356	1085.69
608.556	1137.23
608.756	1148.08
608.956	1055.47
609.156	1112.82
609.356	1080.66
609.556	1059.35
609.755	1103.33
609.955	1096.74
610.155	1102.36
610.355	1081.43
610.555	1104.68
610.755	1087.05
610.954	1001.61
611.154	1080.85
611.354	1123.67
611.554	1074.46
611.753	1056.05
611.953	993.86
612.153	1094.41
612.352	1097.51
612.552	1023.11
612.752	965.18
612.951	1047.72
613.151	1042.68
613.351	1012.26
613.55	1036.29
613.75	1057.99
613.949	1041.33
614.149	1047.33
614.348	1010.91
614.548	1014.98
614.747	989.98
614.947	976.81
615.146	958.21
615.346	1061.48
615.545	1050.05
615.745	1003.93
615.944	1057.99
616.144	1028.15
616.343	1072.71
616.542	1006.65
616.742	1007.61
616.941	971.77
617.14	958.98
617.34	989.6
617.539	986.88
617.738	971.38
617.938	1079.88
618.137	1019.05
618.336	928.18
618.535	989.21
618.734	987.27
618.934	1026.99
619.133	983.2
619.332	1021.56
619.531	971.38
619.73	973.71
619.929	1033.96
620.128	993.28
620.328	1054.11
620.527	940.77
620.726	967.12
620.925	990.76
621.124	992.5
621.323	980.68
621.522	938.25
621.721	935.35
621.92	947.94
622.119	993.28
622.318	925.85
622.517	947.94
622.715	947.36
622.914	887.49
623.113	929.34
623.312	899.89
623.511	948.91
623.71	931.47
623.909	917.13
624.107	996.18
624.306	863.85
624.505	891.95
624.704	924.11
624.902	929.15
625.101	1015.17
625.3	958.98
625.499	910.16
625.697	893.69
625.896	904.73
626.095	921.78
626.293	873.74
626.492	880.9
626.69	913.65
626.889	898.34
627.088	961.7
627.286	853.39
627.485	873.15
627.683	892.34
627.882	938.06
628.08	828.4
628.279	898.54
628.477	963.83
628.676	867.92
628.874	935.54
629.073	866.95
629.271	809.41
629.469	904.54
629.668	878.97
629.866	905.32
630.065	857.85
630.263	899.89
630.461	827.04
630.66	850.87
630.858	896.99
631.056	895.24
631.254	914.03
631.453	841.19
631.651	925.27
631.849	883.23
632.047	882.84
632.245	876.06
632.444	879.55
632.642	900.67
632.84	895.44
633.038	838.28
633.236	833.82
633.434	806.89
633.632	825.1
633.83	852.23
634.028	869.28
634.227	854.75
634.425	939.22
634.623	881.29
634.821	862.69
635.019	832.08
635.216	838.09
635.414	893.69
635.612	871.6
635.81	844.09
636.008	929.92
636.206	843.51
636.404	871.02
636.602	797.98
636.8	825.3
636.997	880.9
637.195	871.6
637.393	845.06
637.591	908.22
637.789	867.15
637.986	845.25
638.184	862.89
638.382	905.7
638.58	893.11
638.777	933.02
638.975	860.75
639.173	829.56
639.37	858.62
639.568	853.59
639.765	903.38
639.963	828.2
640.161	878.77
640.358	883.42
640.556	786.55
640.753	784.61
640.951	781.9
641.148	828.2
641.346	814.84
641.543	787.13
641.741	848.74
641.938	794.3
642.136	801.27
642.333	771.44
642.531	868.5
642.728	897.76
642.925	815.61
643.123	829.75
643.32	821.23
643.517	773.57
643.715	844.87
643.912	788.49
644.109	795.85
644.306	801.27
644.504	757.29
644.701	805.92
644.898	826.46
645.095	761.17
645.293	803.79
645.49	795.46
645.687	779.38
645.884	834.99
646.081	725.52
646.278	766.21
646.475	756.71
646.672	732.69
646.87	797.79
647.067	766.59
647.264	760.39
647.461	725.13
647.658	712.15
647.855	777.25
648.052	742.57
648.249	698.98
648.446	757.49
648.642	718.35
648.839	704.01
649.036	722.03
649.233	682.12
649.43	701.11
649.627	661
649.824	726.29
650.021	669.33
650.217	689.68
650.414	682.31
650.611	719.71
650.808	725.52
651.004	710.21
651.201	746.25
651.398	794.3
651.595	735.79
651.791	710.21
651.988	756.71
652.185	685.41
652.381	717.38
652.578	688.71
652.775	691.42
652.971	694.33
653.168	698.78
653.364	745.86
653.561	663.71
653.757	665.65
653.954	733.46
654.15	699.94
654.347	794.49
654.543	707.69
654.74	655.19
654.936	635.62
655.133	673.01
655.329	683.67
655.525	689.68
655.722	721.84
655.918	654.99
656.115	694.13
656.311	607.72
656.507	592.22
656.704	559.48
656.9	571.1
657.096	581.56
657.292	561.8
657.489	651.12
657.685	617.6
657.881	625.55
658.077	618.76
658.273	640.27
658.47	728.04
658.666	644.34
658.862	672.63
659.058	649.76
659.254	700.72
659.45	626.51
659.646	671.08
659.842	678.83
660.038	726.68
660.234	638.33
660.43	691.23
660.626	736.17
660.822	701.11
661.018	717.19
661.214	686.58
661.41	651.31
661.606	699.17
661.802	721.45
661.998	678.24
662.194	651.7
662.39	690.06
662.586	692.39
662.781	695.1
662.977	684.44
663.173	702.08
663.369	685.61
663.564	677.28
663.76	724.36
663.956	685.99
664.152	718.74
664.347	624.58
664.543	668.36
664.739	665.84
664.934	593.58
665.13	635.23
665.326	693.36
665.521	687.93
665.717	655.96
665.912	645.11
666.108	588.73
666.304	660.23
666.499	647.44
666.695	577.88
666.89	655.96
667.086	684.44
667.281	668.36
667.477	707.31
667.672	692.78
667.867	652.48
668.063	630
668.258	601.13
668.454	641.04
668.649	733.85
668.844	654.03
669.04	691.23
669.235	662.36
669.43	624.19
669.626	601.91
669.821	652.09
670.016	605.59
670.211	629.61
670.407	582.53
670.602	661.19
670.797	636.78
670.992	667.78
671.187	593
671.382	697.43
671.578	623.8
671.773	679.99
671.968	565.29
672.163	628.26
672.358	651.31
672.553	641.63
672.748	605.98
672.943	704.59
673.138	634.26
673.333	669.53
673.528	589.31
673.723	636.4
673.918	628.06
674.113	580.79
674.308	708.86
674.503	663.71
674.698	678.83
674.892	661.78
675.087	654.03
675.282	660.03
675.477	615.47
675.672	655.19
675.867	607.53
676.061	601.33
676.256	571.3
676.451	592.41
676.646	617.02
676.84	607.72
677.035	554.05
677.23	575.36
677.424	668.17
677.619	673.59
677.814	683.09
678.008	669.53
678.203	595.32
678.397	573.62
678.592	618.96
678.787	638.33
678.981	606.17
679.176	616.44
679.37	617.02
679.565	593.19
679.759	602.1
679.954	648.79
680.148	705.18
680.342	679.6
680.537	625.74
680.731	618.18
680.926	629.23
681.12	633.3
681.314	611.98
681.509	593.58
681.703	633.3
681.897	647.44
682.092	622.45
682.286	595.51
682.48	693.74
682.674	664.49
682.869	659.06
683.063	618.96
683.257	677.08
683.451	590.86
683.645	653.44
683.839	599
684.034	624.38
684.228	647.24
684.422	569.75
684.616	586.8
684.81	631.16
685.004	600.94
685.198	633.68
685.392	652.09
685.586	578.66
685.78	617.41
685.974	621.67
686.168	631.55
686.362	672.24
686.556	623.41
686.75	545.53
686.944	541.27
687.138	603.07
687.331	520.15
687.525	545.92
687.719	460.09
687.913	527.12
688.107	538.17
688.301	518.02
688.494	552.31
688.688	485.47
688.882	488.37
689.076	487.79
689.269	534.29
689.463	590.67
689.657	516.27
689.85	539.72
690.044	528.28
690.238	543.98
690.431	504.45
690.625	531.97
690.818	546.69
691.012	558.12
691.205	588.35
691.399	531.97
691.593	543.2
691.786	625.16
691.98	596.48
692.173	636.78
692.366	605.78
692.56	628.06
692.753	649.96
692.947	568.58
693.14	651.7
693.333	673.4
693.527	560.45
693.72	622.06
693.914	581.56
694.107	601.13
694.3	639.11
694.493	602.49
694.687	694.52
694.88	600.16
695.073	677.08
695.266	653.25
695.46	616.83
695.653	703.04
695.846	702.46
696.039	606.56
696.232	646.28
696.425	719.13
696.618	705.76
696.812	674.18
697.005	773.57
697.198	827.82
697.391	729.01
697.584	766.4
697.777	839.83
697.97	825.69
698.163	815.42
698.356	779.77
698.549	887.1
698.742	839.44
698.935	804.18
699.127	841.96
699.32	816
699.513	810.96
699.706	866.57
699.899	853
700.092	864.24
700.285	896.99
700.477	840.02
700.67	900.28
700.863	907.25
701.056	987.47
701.248	979.91
701.441	956.47
701.634	945.03
701.826	1042.3
702.019	947.17
702.212	1007.03
702.404	989.6
702.597	991.73
702.79	1014.78
702.982	1027.76
703.175	1102.94
703.367	1076.01
703.56	1114.76
703.752	1174.04
703.945	1118.24
704.137	1138.39
704.33	1180.63
704.522	1181.79
704.715	1214.34
704.907	1212.99
705.1	1224.81
705.292	1249.61
705.484	1234.11
705.677	1271.11
705.869	1282.15
706.061	1326.91
706.254	1383.48
706.446	1321.1
706.638	1302.11
706.831	1374.18
707.023	1334.27
707.215	1457.3
707.407	1463.7
707.599	1427.66
707.792	1515.43
707.984	1456.91
708.176	1529.96
708.368	1422.23
708.56	1506.71
708.752	1547.78
708.944	1504.38
709.136	1570.84
709.329	1567.93
709.521	1678.37
709.713	1637.1
709.905	1669.26
710.097	1746.95
710.289	1624.7
710.481	1681.86
710.672	1702.59
710.864	1704.33
711.056	1762.07
711.248	1770.98
711.44	1804.5
711.632	1775.63
711.824	1781.05
712.016	1843.05
712.207	1864.56
712.399	1849.64
712.591	1951.74
712.783	1890.91
712.975	1951.55
713.166	1874.44
713.358	1905.63
713.55	1990.69
713.741	2018.59
713.933	1978.68
714.125	1991.27
714.316	1982.94
714.508	2111.59
714.7	2052.49
714.891	2049.78
715.083	2151.3
715.274	2115.46
715.466	2118.37
715.657	2145.49
715.849	2095.7
716.04	2133.29
716.232	2097.06
716.423	2174.94
716.615	2101.12
716.806	2097.06
716.998	2046.1
717.189	2004.25
717.381	1956.39
717.572	1952.71
717.763	1975.19
717.955	1935.66
718.146	1920.75
718.337	1864.17
718.528	1857
718.72	1774.08
718.911	1865.14
719.102	1845.57
719.293	1883.93
719.485	1850.61
719.676	1857
719.867	1822.52
720.058	1822.9
720.249	1836.27
720.44	1907.38
720.632	1907.57
720.823	1949.61
721.014	2102.29
721.205	2084.27
721.396	2161.57
721.587	2207.3
721.778	2280.53
721.969	2304.95
722.16	2323.74
722.351	2367.53
722.542	2492.69
722.733	2518.84
722.924	2395.81
723.115	2491.52
723.305	2499.27
723.496	2511.29
723.687	2392.33
723.878	2424.49
724.069	2380.7
724.26	2453.94
724.45	2344.28
724.641	2386.32
724.832	2405.11
725.023	2402.4
725.213	2371.21
725.404	2386.71
725.595	2392.91
725.785	2375.47
725.976	2442.31
726.167	2471.96
726.357	2465.18
726.548	2571.35
726.739	2483.39
726.929	2563.21
727.12	2604.48
727.31	2610.68
727.501	2563.6
727.691	2582.39
727.882	2590.92
728.072	2623.85
728.263	2629.28
728.453	2700.19
728.644	2709.49
728.834	2718.21
729.024	2618.82
729.215	2673.07
729.405	2733.13
729.596	2764.32
729.786	2769.36
729.976	2828.84
730.167	2811.98
730.357	2772.26
730.547	2822.45
730.737	2799
730.928	2853.44
731.118	2931.91
731.308	2845.31
731.498	2895.29
731.688	2986.94
731.879	2959.04
732.069	3040.8
732.259	3073.54
732.449	3020.65
732.639	3137.28
732.829	3152.78
733.019	3186.3
733.209	3273.68
733.399	3287.24
733.589	3331.23
733.779	3338.2
733.969	3349.82
734.159	3422.87
734.349	3520.52
734.539	3504.44
734.729	3504.05
734.919	3553.65
735.109	3572.25
735.299	3526.91
735.488	3604.41
735.678	3577.87
735.868	3560.04
736.058	3541.63
736.248	3564.11
736.437	3515.67
736.627	3505.79
736.817	3675.9
737.007	3595.5
737.196	3651.3
737.386	3604.22
737.576	3588.72
737.765	3651.49
737.955	3626.11
738.144	3786.92
738.334	3721.82
738.524	3644.32
738.713	3701.48
738.903	3694.7
739.092	3745.84
739.282	3756.5
739.471	3751.46
739.661	3706.13
739.85	3803.58
740.04	3779.17
740.229	3848.72
740.419	3832.26
740.608	3815.21
740.797	3809.78
740.987	3891.15
741.176	3884.37
741.365	3887.67
741.555	3792.54
741.744	3887.67
741.933	3862.09
742.123	3918.67
742.312	3889.6
742.501	3951.22
742.69	3921.57
742.88	3872.56
743.069	4004.11
743.258	3944.82
743.447	4017.28
743.636	3977.95
743.825	4002.37
744.014	3972.92
744.204	4017.09
744.393	3923.12
744.582	4054.48
744.771	4069.98
744.96	3987.64
745.149	4060.3
745.338	3987.25
745.527	4053.32
745.716	4008.57
745.905	3973.3
746.094	4115.71
746.283	4082.96
746.471	4116.87
746.66	4125.78
746.849	4090.71
747.038	4128.11
747.227	4052.35
747.416	4126.56
747.604	4084.51
747.793	4041.5
747.982	4090.33
748.171	4083.35
748.359	4113.77
748.548	4119.39
748.737	4097.3
748.926	4106.99
749.114	3987.25
749.303	4059.91
749.491	4062.81
749.68	3979.12
749.869	4084.13
750.057	4054.87
750.246	4014.96
750.434	4030.07
750.623	4044.6
750.811	4036.27
751	4083.93
751.188	4037.43
751.377	4020.97
751.565	4028.33
751.754	4003.53
751.942	3933.59
752.131	4040.34
752.319	3996.75
752.507	3946.18
752.696	4020.77
752.884	4006.43
753.072	3967.1
753.261	4014.57
753.449	4024.07
753.637	3966.13
753.825	4039.37
754.014	3974.08
754.202	3989.97
754.39	4080.64
754.578	4039.18
754.766	3972.92
754.955	3928.16
755.143	4054.87
755.331	3975.24
755.519	4017.48
755.707	3971.75
755.895	3924.09
756.083	3977.57
756.271	3916.15
756.459	3936.49
756.647	3991.52
756.835	3968.27
757.023	3897.94
757.211	3897.16
757.399	3921.19
757.587	3951.6
757.775	3833.42
757.963	3895.61
758.151	3869.65
758.339	3874.1
758.526	3874.1
758.714	3891.74
758.902	3795.64
759.09	3754.37
759.278	3549.38
759.465	3371.33
759.653	2997.98
759.841	2804.23
760.028	2456.07
760.216	2148.01
760.404	2033.51
760.591	1736.88
760.779	1464.86
760.967	1360.04
761.154	1188.38
761.342	1246.12
761.529	1267.82
761.717	1334.85
761.905	1311.22
762.092	1438.51
762.28	1418.94
762.467	1480.36
762.655	1387.94
762.842	1429.21
763.029	1450.71
763.217	1447.03
763.404	1436.76
763.592	1518.72
763.779	1465.25
763.966	1535.77
764.154	1595.06
764.341	1630.12
764.528	1628.77
764.716	1709.37
764.903	1754.7
765.09	1824.84
765.277	1868.82
765.465	2014.91
765.652	2108.87
765.839	2132.9
766.026	2270.07
766.213	2354.35
766.4	2409.96
766.588	2596.92
766.775	2620.17
766.962	2700.77
767.149	2760.06
767.336	2913.89
767.523	2827.48
767.71	2944.12
767.897	3076.06
768.084	3155.3
768.271	3116.36
768.458	3245.59
768.645	3329.87
768.832	3254.7
769.019	3280.46
769.206	3318.24
769.392	3381.6
769.579	3466.07
769.766	3418.61
769.953	3396.71
770.14	3434.3
770.327	3412.6
770.513	3485.64
770.7	3532.72
770.887	3472.47
771.073	3471.5
771.26	3520.52
771.447	3479.05
771.634	3453.48
771.82	3598.02
772.007	3472.66
772.193	3525.17
772.38	3518.39
772.567	3476.54
772.753	3449.02
772.94	3556.94
773.126	3529.43
773.313	3520.9
773.499	3495.14
773.686	3552.68
773.872	3453.48
774.059	3507.73
774.245	3410.08
774.432	3457.55
774.618	3349.44
774.804	3425.58
774.991	3386.64
775.177	3442.82
775.363	3421.51
775.55	3439.92
775.736	3344.01
775.922	3351.57
776.109	3368.04
776.295	3417.44
776.481	3453.29
776.667	3427.91
776.853	3347.89
777.04	3346.73
777.226	3381.21
777.412	3430.42
777.598	3340.91
777.784	3340.33
777.97	3306.62
778.156	3319.6
778.342	3384.12
778.528	3313.4
778.715	3229.31
778.901	3267.48
779.087	3300.03
779.272	3268.26
779.458	3248.69
779.644	3304.88
779.83	3227.18
780.016	3375.4
780.202	3273.1
780.388	3294.8
780.574	3133.99
780.76	3184.75
780.946	3267.68
781.131	3243.46
781.317	3235.13
781.503	3170.22
781.689	3224.08
781.874	3338.2
782.06	3228.93
782.246	3218.66
782.432	3197.35
782.617	3221.56
782.803	3230.28
782.989	3156.66
783.174	3139.8
783.36	3099.12
783.545	3148.72
783.731	3132.05
783.916	2995.85
784.102	3125.66
784.288	3062.5
784.473	3098.73
784.659	3086.14
784.844	3104.35
785.029	3068.31
785.215	3074.7
785.4	3003.21
785.586	3158.02
785.771	3026.46
785.956	3033.44
786.142	3061.14
786.327	3039.64
786.512	3017.35
786.698	3038.09
786.883	2923
787.068	2972.6
787.254	2994.69
787.439	2985.58
787.624	2942.18
787.809	2966.01
787.994	2953.03
788.18	3019.29
788.365	2880.57
788.55	2947.22
788.735	2946.25
788.92	2921.84
789.105	2900.72
789.29	2987.13
789.475	2857.13
789.66	2867.78
789.845	2839.11
790.03	2853.25
790.215	2923.77
790.4	2897.04
790.585	2923.19
790.77	2907.69
790.955	2770.71
791.14	2804.23
791.325	2906.73
791.51	2718.21
791.695	2846.47
791.879	2833.1
792.064	2803.26
792.249	2892.78
792.434	2797.65
792.618	2788.93
792.803	2818.57
792.988	2802.68
793.173	2836.59
793.357	2855.77
793.542	2776.91
793.727	2772.65
793.911	2854.8
794.096	2794.74
794.281	2803.46
794.465	2910.02
794.65	2851.12
794.834	2813.92
795.019	2872.24
795.203	2849.38
795.388	2829.42
795.572	2899.17
795.757	2901.69
795.941	2887.74
796.126	2857.32
796.31	2809.66
796.494	2892.19
796.679	2847.05
796.863	2820.51
797.048	2919.51
797.232	2886.96
797.416	2848.6
797.601	2854.99
797.785	2945.09
797.969	2931.33
798.153	2841.24
798.338	2891.42
798.522	2971.63
798.706	2913.51
798.89	2912.15
799.074	2975.51
799.258	2973.96
799.443	2903.24
799.627	2879.02
799.811	2934.62
799.995	2881.73
800.179	2845.11
800.363	2848.79
800.547	2866.23
800.731	2891.81
800.915	2805.2
801.099	2864.68
801.283	2898.59
801.467	2864.29
801.651	2840.66
801.835	2938.89
802.019	2900.72
802.202	2871.27
802.386	2801.52
802.57	2830
802.754	2854.22
802.938	2849.18
803.121	2823.03
803.305	2904.4
803.489	2845.5
803.673	2884.64
803.856	2896.84
804.04	2848.02
804.224	2892.19
804.407	2850.73
804.591	2854.03
804.775	2850.34
804.958	2839.88
805.142	2986.94
805.326	2843.37
805.509	2879.02
805.693	2897.81
805.876	2890.45
806.06	2888.9
806.243	2888.9
806.427	2903.04
806.61	2942.18
806.794	2884.64
806.977	2895.88
807.16	2866.04
807.344	2905.37
807.527	2842.59
807.71	2833.1
807.894	2872.04
808.077	2885.61
808.26	2822.45
808.444	2843.95
808.627	2882.12
808.81	2816.05
808.993	2755.6
809.177	2746.3
809.36	2794.35
809.543	2839.69
809.726	2673.07
809.909	2717.05
810.092	2697.67
810.276	2710.27
810.459	2679.07
810.642	2708.13
810.825	2675
811.008	2680.62
811.191	2596.54
811.374	2565.92
811.557	2636.06
811.74	2688.18
811.923	2562.24
812.106	2574.25
812.289	2560.5
812.472	2581.04
812.654	2566.5
812.837	2531.05
813.02	2499.08
813.203	2463.24
813.386	2373.92
813.569	2354.93
813.751	2302.23
813.934	2347.38
814.117	2299.33
814.3	2208.46
814.482	2247.98
814.665	2217.37
814.848	2161.19
815.03	2106.94
815.213	2103.45
815.396	2100.16
815.578	2081.75
815.761	2018.39
815.943	2094.73
816.126	1984.29
816.309	1966.08
816.491	1893.62
816.674	1871.73
816.856	1878.31
817.039	1855.65
817.221	1961.82
817.403	1929.66
817.586	1903.89
817.768	1930.82
817.951	1849.45
818.133	1836.66
818.315	1867.85
818.498	1947.87
818.68	1916.48
818.862	1927.91
819.045	1977.9
819.227	1949.61
819.409	1935.08
819.591	1947.29
819.774	1902.15
819.956	1884.9
820.138	1964.14
820.32	1969.38
820.502	1932.95
820.684	2045.52
820.866	2033.12
821.048	2132.51
821.231	2079.62
821.413	2113.33
821.595	2085.82
821.777	2093.37
821.959	2068.19
822.141	2136.58
822.323	2045.13
822.505	1942.25
822.686	1917.45
822.868	1831.43
823.05	1723.9
823.232	1703.36
823.414	1609.97
823.596	1714.4
823.778	1683.21
823.96	1716.54
824.141	1720.8
824.323	1736.3
824.505	1788.42
824.687	1851.97
824.868	1878.9
825.05	1987.98
825.232	2008.9
825.413	2082.91
825.595	2065.67
825.777	1949.03
825.958	2000.96
826.14	2012.39
826.321	2057.53
826.503	1997.28
826.685	2051.33
826.866	2037.38
827.048	2049.39
827.229	1970.34
827.411	1932.76
827.592	1909.12
827.773	1901.95
827.955	1856.62
828.136	1889.75
828.318	1845.38
828.499	1845.57
828.68	1833.56
828.862	1865.14
829.043	1905.83
829.224	1833.75
829.406	1801.78
829.587	1795.97
829.768	1806.82
829.949	1813.8
830.131	1809.92
830.312	1891.88
830.493	1823.48
830.674	1873.08
830.855	1819.03
831.036	1839.76
831.218	1873.66
831.399	1911.64
831.58	1850.42
831.761	1832.78
831.942	1810.31
832.123	1831.43
832.304	1798.1
832.485	1804.11
832.666	1826
832.847	1796.55
833.028	1834.33
833.209	1838.98
833.389	1802.56
833.57	1738.24
833.751	1759.55
833.932	1818.64
834.113	1810.12
834.294	1767.3
834.475	1821.74
834.655	1897.69
834.836	1874.05
835.017	1882.58
835.198	1806.82
835.378	1832.98
835.559	1864.95
835.74	1790.93
835.92	1817.28
836.101	1808.18
836.281	1859.91
836.462	1848.87
836.643	1845.38
836.823	1907.76
837.004	1906.21
837.184	1923.07
837.365	1886.26
837.545	1906.6
837.726	1845.77
837.906	1921.13
838.087	1871.53
838.267	1873.28
838.448	1813.22
838.628	1864.75
838.808	1849.45
838.989	1917.45
839.169	1815.73
839.349	1877.54
839.53	1857.97
839.71	1874.05
839.89	1824.26
840.07	1911.06
840.251	1840.34
840.431	1868.43
840.611	1862.04
840.791	1813.41
840.971	1846.15
841.151	1808.37
841.332	1856.03
841.512	1908.93
841.692	1760.32
841.872	1813.6
842.052	1809.53
842.232	1860.49
842.412	1774.66
842.592	1789.77
842.772	1812.63
842.952	1836.47
843.132	1787.83
843.312	1767.3
843.492	1746.37
843.672	1811.86
843.851	1718.09
844.031	1813.22
844.211	1789.58
844.391	1779.5
844.571	1808.76
844.751	1797.13
844.93	1791.32
845.11	1763.81
845.29	1732.23
845.47	1782.6
845.649	1781.44
845.829	1811.86
846.009	1759.94
846.188	1812.63
846.368	1747.54
846.547	1781.44
846.727	1790.16
846.907	1686.7
847.086	1743.08
847.266	1745.02
847.445	1745.21
847.625	1769.43
847.804	1688.06
847.984	1711.89
848.163	1719.25
848.343	1681.66
848.522	1708.01
848.701	1734.75
848.881	1683.21
849.06	1720.22
849.239	1721.19
849.419	1713.44
849.598	1671.2
849.777	1635.16
849.957	1639.04
850.136	1551.08
850.315	1545.46
850.494	1539.84
850.674	1556.31
850.853	1615.98
851.032	1591.96
851.211	1642.14
851.39	1616.76
851.569	1545.07
851.748	1548.17
851.927	1623.34
852.107	1584.01
852.286	1598.35
852.465	1562.89
852.644	1610.94
852.823	1602.81
853.002	1575.49
853.181	1591.96
853.359	1616.37
853.538	1517.75
853.717	1624.12
853.896	1476.1
854.075	1441.22
854.254	1415.07
854.433	1343.57
854.611	1380.19
854.79	1283.9
854.969	1375.93
855.148	1405.38
855.327	1381.16
855.505	1411.38
855.684	1377.09
855.863	1429.21
856.041	1450.71
856.22	1476.29
856.399	1443.93
856.577	1509.23
856.756	1523.18
856.934	1640.97
857.113	1622.18
857.291	1514.84
857.47	1490.05
857.648	1519.49
857.827	1513.3
858.005	1558.05
858.184	1478.23
858.362	1598.16
858.541	1531.7
858.719	1501.86
858.898	1472.8
859.076	1490.82
859.254	1579.56
859.433	1474.35
859.611	1481.91
859.789	1395.5
859.967	1530.15
860.146	1538.87
860.324	1409.45
860.502	1469.51
860.68	1391.62
860.859	1422.43
861.037	1441.03
861.215	1440.25
861.393	1446.84
861.571	1444.71
861.749	1388.52
861.927	1470.86
862.105	1476.68
862.283	1447.81
862.461	1386.58
862.639	1356.36
862.817	1412.35
862.995	1443.74
863.173	1427.46
863.351	1450.52
863.529	1390.85
863.707	1471.83
863.885	1451.68
864.063	1367.98
864.241	1397.82
864.418	1487.14
864.596	1360.23
864.774	1341.44
864.952	1366.63
865.129	1418.55
865.307	1356.36
865.485	1299.98
865.663	1357.72
865.84	1298.62
866.018	1321.29
866.196	1176.17
866.373	1255.42
866.551	1174.04
866.728	1120.57
866.906	1183.34
867.084	1196.52
867.261	1223.26
867.439	1249.99
867.616	1285.64
867.794	1262.59
867.971	1269.95
868.149	1270.72
868.326	1359.65
868.503	1306.37
868.681	1282.93
868.858	1270.72
869.035	1244.96
869.213	1313.93
869.39	1260.65
869.567	1349.77
869.745	1283.12
869.922	1323.04
870.099	1318.58
870.276	1305.79
870.454	1277.7
870.631	1310.44
870.808	1283.9
870.985	1326.14
871.162	1372.63
871.339	1304.82
871.517	1224.61
871.694	1215.89
871.871	1287.19
872.048	1226.74
872.225	1241.86
872.402	1292.42
872.579	1213.57
872.756	1245.34
872.933	1195.74
873.11	1229.26
873.287	1234.3
873.463	1183.34
873.64	1206.59
873.817	1246.31
873.994	1222.87
874.171	1170.94
874.348	1211.82
874.524	1148.66
874.701	1210.47
874.878	1155.25
875.055	1213.57
875.231	1175.79
875.408	1214.15
875.585	1124.83
875.762	1174.04
875.938	1204.66
876.115	1168.04
876.291	1153.89
876.468	1146.73
876.645	1152.15
876.821	1143.82
876.998	1135.29
877.174	1153.89
877.351	1146.73
877.527	1145.37
877.704	1183.15
877.88	1145.95
878.057	1121.93
878.233	1175.4
878.409	1121.34
878.586	1168.81
878.762	1124.25
878.938	1100.81
879.115	1067.87
879.291	1101.78
879.467	1062.25
879.644	1072.13
879.82	1127.93
879.996	1109.72
880.172	1010.71
880.349	1148.47
880.525	1129.29
880.701	1056.44
880.877	1054.31
881.053	1090.73
881.229	1061.28
881.405	1145.18
881.581	1062.83
881.757	1090.15
881.933	1106.23
882.109	1119.21
882.285	1094.22
882.461	1023.89
882.637	1090.93
882.813	1028.15
882.989	1058.96
883.165	1125.03
883.341	1034.93
883.517	1118.83
883.693	1081.04
883.869	1100.81
884.044	1045.01
884.22	1085.89
884.396	1119.79
884.572	1086.28
884.747	1118.83
884.923	1110.11
885.099	1135.68
885.275	1096.93
885.45	1085.89
885.626	1081.82
885.801	1037.65
885.977	1059.35
886.153	1020.98
886.328	1112.04
886.504	1039.78
886.679	1087.24
886.855	1030.67
887.03	1075.04
887.206	1117.08
887.381	1084.14
887.557	1069.03
887.732	1105.26
887.908	1084.92
888.083	1129.87
888.258	1057.6
888.434	1014.4
888.609	1087.83
888.784	1113.01
888.96	1047.72
889.135	1033.77
889.31	1064.38
889.485	1088.21
889.661	1062.25
889.836	1113.98
890.011	1109.14
890.186	1093.25
890.361	1065.16
890.537	1074.26
890.712	1071.16
890.887	1059.15
891.062	1064.96
891.237	1144.01
891.412	1050.43
891.587	1102.74
891.762	1076.2
891.937	1094.41
892.112	1031.64
892.287	1050.24
892.462	1038.42
892.637	1027.38
892.812	992.5
892.987	1000.83
893.161	991.53
893.336	1004.32
893.511	993.08
893.686	1006.06
893.861	996.76
894.035	998.31
894.21	1018.08
894.385	958.02
894.56	1007.23
894.734	923.33
894.909	914.23
895.084	919.65
895.258	910.55
895.433	933.41
895.608	895.24
895.782	862.89
895.957	881.87
896.131	876.25
896.306	839.25
896.48	812.32
896.655	828.2
896.829	763.49
897.004	763.69
897.178	809.8
897.353	754.58
897.527	821.42
897.701	792.75
897.876	719.51
898.05	805.34
898.224	787.52
898.399	828.2
898.573	785
898.747	686.77
898.921	732.49
899.096	649.57
899.27	639.3
899.444	625.16
899.618	674.76
899.792	703.43
899.967	711.96
900.141	715.06
900.315	641.63
900.489	658.87
900.663	710.6
900.837	692.39
901.011	647.83
901.185	722.03
901.359	686.38
901.533	730.17
901.707	695.1
901.881	716.8
902.055	643.56
902.229	659.06
902.403	739.27
902.576	676.69
902.75	706.14
902.924	802.05
903.098	729.97
903.272	801.08
903.446	797.98
903.619	759.42
903.793	809.99
903.967	794.88
904.14	851.26
904.314	834.02
904.488	819.87
904.661	856.49
904.835	811.74
905.009	884.2
905.182	900.09
905.356	864.82
905.529	807.47
905.703	809.8
905.876	803.21
906.05	806.12
906.223	745.67
906.397	717.58
906.57	702.85
906.744	689.87
906.917	681.15
907.09	670.49
907.264	679.99
907.437	652.28
907.61	635.62
907.784	658.87
907.957	658.09
908.13	619.35
908.304	642.01
908.477	592.03
908.65	630.78
908.823	579.82
908.996	656.74
909.17	592.61
909.343	597.26
909.516	612.76
909.689	608.88
909.862	568.78
910.035	594.74
910.208	540.3
910.381	558.31
910.554	678.63
910.727	594.16
910.9	586.99
911.073	596.29
911.246	643.18
911.419	660.81
911.592	633.49
911.765	590.28
911.938	606.17
912.11	600.16
912.283	591.25
912.456	646.66
912.629	599
912.802	568.97
912.974	569.16
913.147	503.48
913.32	477.72
913.493	483.33
913.665	499.8
913.838	563.74
914.01	508.91
914.183	518.6
914.356	528.09
914.528	574.01
914.701	624.77
914.873	570.71
915.046	525.38
915.218	497.87
915.391	450.01
915.563	434.7
915.736	517.05
915.908	532.55
916.081	531.97
916.253	511.82
916.425	523.63
916.598	535.45
916.77	514.33
916.942	509.49
917.115	419.2
917.287	540.49
917.459	483.92
917.632	452.34
917.804	393.82
917.976	475
918.148	493.02
918.32	514.72
918.493	520.92
918.665	575.56
918.837	532.35
919.009	576.14
919.181	586.99
919.353	531.38
919.525	557.54
919.697	536.81
919.869	535.65
920.041	571.49
920.213	641.43
920.385	569.75
920.557	559.48
920.729	544.75
920.901	535.26
921.073	545.14
921.244	533.71
921.416	579.63
921.588	550.95
921.76	536.03
921.932	572.85
922.103	509.3
922.275	535.45
922.447	548.43
922.619	447.88
922.79	537.39
922.962	506.78
923.134	540.88
923.305	458.54
923.477	461.83
923.648	428.31
923.82	501.16
923.991	439.94
924.163	424.44
924.335	469.77
924.506	431.6
924.677	531.77
924.849	415.91
925.02	459.12
925.192	521.12
925.363	480.23
925.535	458.54
925.706	450.2
925.877	495.54
926.049	445.94
926.22	447.69
926.391	478.88
926.562	497.28
926.734	445.55
926.905	491.08
927.076	429.28
927.247	448.07
927.419	416.49
927.59	379.1
927.761	382
927.932	353.14
928.103	409.71
928.274	371.16
928.445	303.15
928.616	358.56
928.787	343.06
928.958	374.26
929.129	347.71
929.3	335.12
929.471	300.05
929.642	276.22
929.813	223.13
929.984	325.43
930.155	229.91
930.326	282.81
930.496	237.86
930.667	181.67
930.838	227.01
931.009	194.07
931.18	205.69
931.35	204.92
931.521	209.96
931.692	160.75
931.863	119.86
932.033	181.09
932.204	187.29
932.374	191.55
932.545	122.38
932.716	218.09
932.886	183.03
933.057	61.16
933.227	114.63
933.398	193.68
933.568	91.58
933.739	62.71
933.909	70.85
934.08	151.64
934.25	32.68
934.421	81.31
934.591	95.84
934.761	58.25
934.932	29.58
935.102	106.69
935.272	60.19
935.443	68.33
935.613	69.68
935.783	75.5
935.953	34.42
936.123	235.34
936.294	74.33
936.464	71.23
936.634	91.58
936.804	24.93
936.974	5.55
937.144	65.81
937.314	95.26
937.484	51.67
937.655	61.74
937.825	123.74
937.995	68.13
938.165	125.68
938.334	90.8
938.504	102.43
938.674	74.72
938.844	88.87
939.014	149.31
939.184	141.56
939.354	204.53
939.524	173.92
939.694	142.15
939.863	127.03
940.033	179.54
940.203	187.29
940.373	164.43
940.542	185.16
940.712	143.31
940.882	171.98
941.051	175.08
941.221	167.53
941.391	184.77
941.56	142.53
941.73	106.11
941.899	241.54
942.069	135.36
942.238	156.87
942.408	118.12
942.577	155.51
942.747	122.96
942.916	69.68
943.086	119.28
943.255	159.97
943.425	153.38
943.594	91.97
943.763	56.9
943.933	96.03
944.102	49.53
944.271	80.92
944.441	128.2
944.61	76.27
944.779	104.75
944.948	189.81
945.117	77.24
945.287	107.08
945.456	55.35
945.625	67.36
945.794	104.95
945.963	59.03
946.132	123.55
946.301	66.78
946.47	108.82
946.639	40.04
946.808	67.36
946.977	127.03
947.146	144.66
947.315	99.13
947.484	152.03
947.653	78.4
947.822	80.15
947.991	86.93
948.16	177.99
948.329	144.28
948.498	98.36
948.666	98.17
948.835	135.56
949.004	69.88
949.173	55.93
949.341	105.72
949.51	116.96
949.679	137.11
949.847	150.86
950.016	182.45
950.185	147.18
950.353	65.03
950.522	94.48
950.69	176.05
950.859	84.99
951.028	143.5
951.196	100.68
951.365	84.6
951.533	80.34
951.701	138.08
951.87	122.96
952.038	37.13
952.207	106.5
952.375	173.73
952.543	87.51
952.712	104.95
952.88	53.99
953.048	150.48
953.217	109.98
953.385	99.13
953.553	159.97
953.721	83.83
953.89	72.2
954.058	42.17
954.226	57.87
954.394	86.35
954.562	35.2
954.73	96.03
954.898	89.83
955.067	153.96
955.235	85.38
955.403	147.96
955.571	167.91
955.739	117.35
955.907	82.86
956.075	77.24
956.243	84.6
956.41	126.84
956.578	63.68
956.746	43.33
956.914	57.09
957.082	132.46
957.25	127.81
957.418	75.5
957.585	83.25
957.753	151.25
957.921	57.48
958.089	84.8
958.256	133.04
958.424	109.98
958.592	119.86
958.759	69.3
958.927	106.11
959.095	90.03
959.262	99.72
959.43	92.16
959.597	73.75
959.765	74.53
959.932	88.67
960.1	130.91
960.267	89.25
960.435	121.61
960.602	163.65
960.77	82.08
960.937	52.83
961.104	121.22
961.272	49.73
961.439	89.45
961.606	110.37
961.774	122.96
961.941	99.33
962.108	117.73
962.275	118.9
962.443	139.82
962.61	121.03
962.777	180.31
962.944	152.61
963.111	110.95
963.278	108.24
963.446	118.7
963.613	105.53
963.78	135.95
963.947	135.75
964.114	120.64
964.281	220.03
964.448	133.62
964.615	96.03
964.782	113.08
964.949	154.55
965.116	140.98
965.282	162.1
965.449	90.8
965.616	84.8
965.783	134.2
965.95	112.31
966.117	68.52
966.283	85.57
966.45	109.6
966.617	106.3
966.784	160.55
966.95	158.61
967.117	129.36
967.284	66
967.45	86.35
967.617	177.99
967.784	137.3
967.95	171.01
968.117	107.66
968.283	154.16
968.45	246.58
968.616	150.48
968.783	184.19
968.949	138.66
969.116	155.32
969.282	134.98
969.449	152.41
969.615	133.62
969.781	89.25
969.948	101.85
970.114	60.19
970.28	189.81
970.447	135.17
970.613	166.95
970.779	100.3
970.945	136.14
971.112	144.47
971.278	115.41
971.444	118.31
971.61	163.46
971.776	100.3
971.942	159.58
972.108	136.53
972.275	109.6
972.441	149.51
972.607	207.24
972.773	85.18
972.939	134.2
973.105	125.87
973.271	83.05
973.437	118.31
973.602	103.01
973.768	151.83
973.934	108.82
974.1	101.27
974.266	58.45
974.432	136.14
974.598	94.87
974.763	134.98
974.929	101.65
975.095	169.46
975.261	76.85
975.426	83.83
975.592	115.41
975.758	173.92
975.923	84.22
976.089	92.74
976.255	148.73
976.42	120.64
976.586	147.96
976.751	137.69
976.917	208.41
977.082	143.5
977.248	52.05
977.413	51.86
977.579	91.77
977.744	101.07
977.91	57.87
978.075	92.55
978.24	164.62
978.406	98.36
978.571	97.39
978.736	101.46
978.902	117.15
979.067	56.7
979.232	31.32
979.397	102.62
979.563	173.34
979.728	49.92
979.893	89.64
980.058	81.89
980.223	136.72
980.388	120.83
980.554	109.6
980.719	102.23
980.884	126.06
981.049	144.66
981.214	94.48
981.379	116.57
981.544	69.68
981.709	81.12
981.874	85.38
982.039	92.16
982.204	142.92
982.368	89.64
982.533	97.58
982.698	117.54
982.863	155.13
983.028	91
983.193	103.59
983.357	103.98
983.522	119.28
983.687	80.34
983.852	101.27
984.016	75.5
984.181	126.26
984.346	126.84
984.51	152.61
984.675	75.5
984.839	122.19
985.004	121.22
985.168	151.83
985.333	95.26
985.498	99.52
985.662	132.65
985.827	128.58
985.991	102.82
986.155	93.9
986.32	144.08
986.484	158.61
986.649	128.39
986.813	36.94
986.977	81.12
987.142	132.26
987.306	59.8
987.47	53.99
987.634	97.39
987.799	114.25
987.963	115.22
988.127	122.58
988.291	170.24
988.455	98.94
988.62	68.33
988.784	106.69
988.948	120.06
989.112	83.05
989.276	85.96
989.44	94.68
989.604	79.37
989.768	53.99
989.932	171.4
990.096	62.52
990.26	62.9
990.424	58.45
990.588	83.05
990.752	145.05
990.915	123.74
991.079	88.87
991.243	80.73
991.407	138.27
991.571	83.05
991.734	114.44
991.898	116.18
992.062	179.93
992.226	81.5
992.389	67.55
992.553	36.36
992.717	56.32
992.88	65.42
993.044	96.03
993.207	89.06
993.371	132.46
993.535	121.41
993.698	91.38
993.862	116.76
994.025	139.05
994.189	67.17
994.352	116.76
994.515	67.36
994.679	103.2
994.842	73.75
995.006	111.53
995.169	39.27
995.332	90.03
995.496	110.95
995.659	29.19
995.822	83.83
995.985	109.21
996.149	119.67
996.312	58.64
996.475	143.7
996.638	50.89
996.801	141.76
996.964	123.35
997.128	59.22
997.291	46.63
997.454	101.85
997.617	29
997.78	103.4
997.943	62.9
998.106	121.03
998.269	54.77
998.432	57.87
998.595	85.77
998.758	11.37
998.92	50.5
999.083	5.75
999.246	60.97
999.409	26.48
999.572	16.99
999.735	54.57
999.897	72.98
1000.06	60.58
1000.223	90.61
1000.386	101.85
1000.548	109.21
1000.711	66.2
1000.874	74.72
1001.036	47.21
1001.199	103.98
1001.361	42.95
1001.524	73.17
1001.687	102.62
1001.849	46.43
1002.012	82.67
1002.174	52.05
1002.337	75.3
1002.499	67.94
1002.661	108.05
1002.824	29.19
1002.986	37.72
1003.149	61.35
1003.311	31.71
1003.473	103.59
1003.636	43.33
1003.798	95.07
1003.96	84.02
1004.123	61.55
1004.285	45.47
1004.447	52.83
1004.609	60.58
1004.771	117.35
1004.933	6.72
1005.096	30.74
1005.258	18.92
1005.42	60.58
1005.582	85.18
1005.744	65.42
1005.906	16.99
1006.068	60.97
1006.23	0.32
1006.392	-1.42
1006.554	6.33
1006.716	87.12
1006.878	59.61
1007.04	0.9
1007.202	25.51
1007.363	53.8
1007.525	60
1007.687	79.95
1007.849	99.33
1008.011	-12.46
1008.172	-11.3
1008.334	47.98
1008.496	64.07
1008.658	-2.2
1008.819	16.4
1008.981	9.82
1009.143	11.56
1009.304	41.98
1009.466	73.17
1009.627	105.33
1009.789	152.8
1009.95	67.75
1010.112	35.78
1010.273	81.12
1010.435	1.87
1010.596	43.14
1010.758	44.69
1010.919	26.48
1011.081	3.42
1011.242	46.43
1011.403	76.27
1011.565	47.4
1011.726	60.77
1011.887	6.91
1012.049	33.26
1012.21	87.51
1012.371	97.2
1012.532	-35.13
1012.693	37.91
1012.855	12.14
1013.016	20.86
1013.177	65.62
1013.338	48.18
1013.499	124.9
1013.66	51.47
1013.821	66.78
1013.982	57.87
1014.143	62.13
1014.304	26.48
1014.465	77.82
1014.626	50.31
1014.787	15.05
1014.948	116.96
1015.109	-37.65
1015.27	85.77
1015.431	9.04
1015.592	18.92
1015.752	95.45
1015.913	53.99
1016.074	34.03
1016.235	47.02
1016.395	42.56
1016.556	14.66
1016.717	42.95
1016.877	83.44
1017.038	17.37
1017.199	42.56
1017.359	36.94
1017.52	47.02
1017.681	13.5
1017.841	38.88
1018.002	57.67
1018.162	13.89
1018.323	70.85
1018.483	57.09
1018.644	22.22
1018.804	-2.78
1018.964	0.71
1019.125	-6.46
1019.285	24.54
1019.446	3.23
1019.606	4.78
1019.766	-45.21
1019.926	62.71
1020.087	19.12
1020.247	-15.18
1020.407	41.4
1020.567	56.7
1020.728	26.48
1020.888	-6.46
1021.048	26.29
1021.208	7.49
1021.368	15.24
1021.528	66.58
1021.688	79.57
1021.848	82.47
1022.008	41.4
1022.168	17.37
1022.328	33.84
1022.488	37.13
1022.648	-2.97
1022.808	-5.49
1022.968	41.01
1023.128	-1.03
1023.288	10.59
1023.448	9.62
1023.608	43.53
1023.767	60.38
1023.927	-4.13
1024.087	-13.82
1024.247	-26.8
1024.406	24.74
1024.566	-15.56
1024.726	-12.27
1024.885	36.17
1025.045	41.98
1025.205	19.89
1025.364	10.79
1025.524	36.94
1025.683	6.52
1025.843	20.47
1026.003	50.5
1026.162	101.07
1026.321	44.88
1026.481	34.62
1026.64	2.07
1026.8	29.77
1026.959	12.53
1027.119	22.99
1027.278	7.3
1027.437	14.66
1027.597	27.64
1027.756	21.44
1027.915	32.48
1028.074	58.06
1028.234	-22.54
1028.393	22.02
1028.552	8.85
1028.711	-70.39
1028.87	56.51
1029.03	-36.3
1029.189	29.77
1029.348	-40.17
1029.507	8.27
1029.666	-23.12
1029.825	-27
1029.984	-17.7
1030.143	14.66
1030.302	8.27
1030.461	-49.47
1030.62	23.77
1030.779	53.99
1030.938	-17.5
1031.097	24.93
1031.255	18.15
1031.414	78.02
1031.573	64.65
1031.732	-36.88
1031.891	-3.75
1032.049	45.47
1032.208	40.62
1032.367	-0.26
1032.525	-8.98
1032.684	-7.43
1032.843	27.06
1033.001	-46.37
1033.16	169.66
1033.319	54.38
1033.477	40.43
1033.636	7.3
1033.794	-63.42
1033.953	21.83
1034.111	40.62
1034.27	2.07
1034.428	35.58
1034.587	-24.67
1034.745	28.61
1034.903	7.69
1035.062	53.8
1035.22	-9.95
1035.378	66
1035.537	19.31
1035.695	28.8
1035.853	-15.76
1036.011	7.69
1036.17	54.38
1036.328	-39.59
1036.486	20.09
1036.644	31.52
1036.802	-76.01
1036.96	4.78
1037.119	14.08
1037.277	-13.82
1037.435	-42.88
1037.593	-35.52
1037.751	31.52
1037.909	55.35
1038.067	55.35
