Data from gum_old_FLMT105791__100__15-45-49-253.txt Node

Date: Mon Mar 20 15:45:49 GMT 2023
User: antho
Spectrometer: FLMT10579
Trigger mode: 0
Integration Time (sec): 1.000000E-1
Scans to average: 10
Electric dark correction enabled: true
Nonlinearity correction enabled: false
Boxcar width: 0
XAxis mode: Wavelengths
Number of Pixels in Spectrum: 3648
>>>>>Begin Spectral Data<<<<<
345.248	-170.5
345.464	-170.5
345.681	-170.5
345.898	-184.83
346.114	-158.49
346.331	-43.79
346.548	37.2
346.764	-7.75
346.981	-20.73
347.197	14.14
347.414	36.23
347.631	-17.05
347.847	67.62
348.064	-2.52
348.28	-2.52
348.497	-64.52
348.713	3.68
348.93	41.85
349.146	31.97
349.363	5.42
349.579	41.66
349.796	38.17
350.012	-7.36
350.229	27.71
350.445	9.69
350.661	0.97
350.878	9.49
351.094	19.37
351.311	-3.1
351.527	54.25
351.743	-6.39
351.96	40.88
352.176	35.46
352.392	21.12
352.609	45.34
352.825	14.72
353.041	33.91
353.257	7.75
353.474	39.52
353.69	19.57
353.906	8.52
354.122	-4.46
354.339	64.52
354.555	32.55
354.771	18.6
354.987	91.45
355.203	111.79
355.42	16.47
355.636	0
355.852	-17.82
356.068	40.49
356.284	-20.73
356.5	62.97
356.716	46.31
356.932	21.51
357.148	31.77
357.364	10.66
357.58	47.08
357.796	69.75
358.012	93.39
358.228	27.12
358.444	-37.97
358.66	69.36
358.876	43.21
359.092	6.2
359.308	30.61
359.524	28.09
359.74	-0.97
359.956	-6.01
360.172	13.37
360.388	60.84
360.604	22.67
360.819	96.49
361.035	51.73
361.251	68.39
361.467	-3.49
361.683	78.66
361.898	54.06
362.114	39.52
362.33	2.71
362.546	50.76
362.762	14.92
362.977	49.41
363.193	-12.4
363.409	71.69
363.624	-7.56
363.84	31
364.056	18.21
364.271	50.37
364.487	13.76
364.703	2.13
364.918	-1.55
365.134	26.16
365.35	29.06
365.565	125.35
365.781	50.18
365.996	37.2
366.212	118.57
366.427	52.12
366.643	24.02
366.858	41.07
367.074	12.79
367.289	93.58
367.505	165.65
367.72	-9.88
367.936	38.75
368.151	87.38
368.367	52.31
368.582	62
368.798	6.97
369.013	89.7
369.228	47.08
369.444	51.73
369.659	99.59
369.874	63.16
370.09	142.79
370.305	-35.07
370.52	46.89
370.736	100.36
370.951	22.28
371.166	82.15
371.381	102.69
371.597	73.62
371.812	24.99
372.027	11.82
372.242	39.33
372.458	116.05
372.673	33.52
372.888	50.37
373.103	62.58
373.318	111.99
373.533	65.29
373.749	86.61
373.964	15.69
374.179	85.06
374.394	8.72
374.609	82.73
374.824	14.72
375.039	89.7
375.254	39.91
375.469	96.68
375.684	50.37
375.899	89.51
376.114	56.96
376.329	55.99
376.544	81.57
376.759	98.23
376.974	29.26
377.189	60.06
377.404	40.3
377.619	75.37
377.834	-14.34
378.049	4.84
378.264	12.21
378.478	77.11
378.693	30.42
378.908	97.26
379.123	58.9
379.338	85.64
379.553	81.18
379.767	71.69
379.982	88.93
380.197	89.7
380.412	79.63
380.626	80.6
380.841	148.22
381.056	80.02
381.271	118.77
381.485	69.56
381.7	52.31
381.915	70.33
382.129	28.48
382.344	87.96
382.559	57.35
382.773	91.64
382.988	22.86
383.202	75.17
383.417	21.7
383.632	155.58
383.846	46.89
384.061	67.62
384.275	37.01
384.49	69.75
384.704	73.04
384.919	101.52
385.133	45.92
385.348	93.97
385.562	30.61
385.777	115.09
385.991	64.52
386.206	58.51
386.42	54.06
386.634	126.71
386.849	86.02
387.063	74.79
387.277	49.79
387.492	38.36
387.706	39.14
387.92	34.1
388.135	104.43
388.349	105.2
388.563	89.51
388.778	50.18
388.992	91.84
389.206	115.09
389.42	149.57
389.635	88.54
389.849	130.39
390.063	127.87
390.277	80.21
390.491	175.73
390.706	125.55
390.92	122.45
391.134	88.93
391.348	111.4
391.562	47.66
391.776	82.34
391.99	43.98
392.205	110.05
392.419	51.54
392.633	73.82
392.847	158.68
393.061	59.87
393.275	111.6
393.489	86.02
393.703	74.59
393.917	108.89
394.131	47.47
394.345	111.02
394.559	121.87
394.773	71.69
394.986	109.47
395.2	108.11
395.414	142.99
395.628	63.94
395.842	123.22
396.056	95.9
396.27	49.99
396.484	83.31
396.697	136.79
396.911	157.32
397.125	107.92
397.339	120.51
397.553	93.58
397.766	173.02
397.98	111.4
398.194	150.15
398.408	116.64
398.621	152.67
398.835	178.05
399.049	163.52
399.262	196.27
399.476	174.18
399.69	167.4
399.903	250.52
400.117	136.01
400.331	195.88
400.544	141.44
400.758	276.86
400.971	190.26
401.185	203.05
401.398	157.52
401.612	211.96
401.826	183.09
402.039	216.22
402.253	135.82
402.466	229.4
402.68	190.07
402.893	220.87
403.106	202.08
403.32	193.17
403.533	217.38
403.747	162.75
403.96	179.99
404.174	218.55
404.387	151.12
404.6	182.12
404.814	234.24
405.027	197.82
405.24	186.58
405.454	159.07
405.667	223.78
405.88	116.64
406.094	203.05
406.307	231.33
406.52	218.35
406.733	178.44
406.947	149.38
407.16	265.24
407.373	244.7
407.586	160.23
407.799	176.89
408.012	222.81
408.226	210.41
408.439	268.34
408.652	138.72
408.865	235.98
409.078	241.41
409.291	252.07
409.504	177.67
409.717	236.57
409.93	241.99
410.143	237.15
410.357	161.2
410.57	159.45
410.783	179.6
410.996	197.82
411.209	216.03
411.421	261.37
411.634	227.65
411.847	206.53
412.06	211.96
412.273	237.15
412.486	231.33
412.699	341.19
412.912	234.63
413.125	275.12
413.338	235.21
413.55	259.62
413.763	239.28
413.976	252.07
414.189	212.15
414.402	211.77
414.615	313.87
414.827	193.17
415.04	288.88
415.253	280.93
415.466	293.14
415.678	321.04
415.891	235.21
416.104	247.61
416.316	244.12
416.529	249.74
416.742	283.84
416.954	303.21
417.167	260.4
417.38	255.94
417.592	283.45
417.805	209.25
418.017	188.13
418.23	278.41
418.442	218.74
418.655	231.14
418.868	259.82
419.08	292.95
419.293	311.35
419.505	264.66
419.718	282.87
419.93	310.38
420.142	254.97
420.355	308.45
420.567	280.93
420.78	256.72
420.992	249.74
421.205	338.86
421.417	245.09
421.629	278.8
421.842	231.53
422.054	211.96
422.266	312.71
422.479	304.96
422.691	257.3
422.903	265.82
423.115	242.77
423.328	249.16
423.54	266.6
423.752	274.93
423.964	248.77
424.177	290.81
424.389	266.98
424.601	383.04
424.813	299.53
425.025	318.91
425.238	300.7
425.45	281.9
425.662	267.95
425.874	546.56
426.086	290.23
426.298	298.37
426.51	312.71
426.722	278.03
426.934	276.48
427.146	333.83
427.358	281.32
427.57	333.63
427.782	283.84
427.994	279
428.206	268.92
428.418	248
428.63	300.31
428.842	341.58
429.054	302.83
429.266	322.2
429.478	259.43
429.69	291.4
429.902	233.47
430.114	279.96
430.325	286.16
430.537	241.22
430.749	254
430.961	199.37
431.173	216.42
431.384	253.62
431.596	172.24
431.808	268.73
432.02	265.63
432.231	354.75
432.443	341
432.655	320.46
432.867	316.58
433.078	357.85
433.29	381.68
433.502	351.26
433.713	377.23
433.925	340.8
434.136	389.04
434.348	283.06
434.56	241.8
434.771	412.68
434.983	256.33
435.194	295.66
435.406	342.16
435.617	350.68
435.829	416.56
436.04	366.18
436.252	397.18
436.463	423.53
436.675	431.67
436.886	375.48
437.098	388.08
437.309	441.94
437.521	368.7
437.732	359.79
437.943	360.37
438.155	376.45
438.366	314.65
438.578	429.15
438.789	357.46
439	358.82
439.211	349.33
439.423	384.78
439.634	387.88
439.845	378.19
440.057	389.82
440.268	408.23
440.479	362.69
440.69	385.56
440.902	359.98
441.113	375.48
441.324	365.02
441.535	375.48
441.746	436.13
441.957	359.4
442.168	381.49
442.38	433.22
442.591	448.52
442.802	391.76
443.013	402.41
443.224	424.5
443.435	435.54
443.646	383.23
443.857	392.14
444.068	399.31
444.279	407.64
444.49	497.35
444.701	433.22
444.912	569.81
445.123	455.69
445.334	460.34
445.545	454.72
445.756	428.96
445.967	406.87
446.178	444.46
446.388	472.16
446.599	441.94
446.81	479.91
447.021	382.65
447.232	461.89
447.443	472.16
447.653	423.34
447.864	482.43
448.075	447.17
448.286	486.5
448.496	474.1
448.707	518.66
448.918	431.67
449.129	536.49
449.339	431.48
449.55	477.2
449.761	467.12
449.971	516.92
450.182	490.57
450.393	490.18
450.603	447.17
450.814	532.22
451.024	503.16
451.235	516.72
451.446	555.86
451.656	563.8
451.867	460.54
452.077	533.19
452.288	581.63
452.498	558.77
452.709	473.71
452.919	509.56
453.13	467.9
453.34	512.07
453.55	450.46
453.761	496.77
453.971	493.67
454.182	542.3
454.392	478.94
454.602	574.07
454.813	520.6
455.023	537.65
455.233	457.63
455.444	523.7
455.654	410.16
455.864	486.5
456.075	500.26
456.285	477.2
456.495	497.54
456.705	486.89
456.916	544.43
457.126	592.67
457.336	514.4
457.546	420.04
457.756	498.12
457.967	537.07
458.177	508.2
458.387	515.17
458.597	494.64
458.807	480.11
459.017	489.41
459.227	478.75
459.437	487.08
459.647	539.97
459.857	540.75
460.068	491.73
460.278	572.72
460.488	536.1
460.698	597.32
460.908	536.29
461.117	493.86
461.327	484.17
461.537	522.92
461.747	550.05
461.957	558.38
462.167	620.38
462.377	576.2
462.587	553.54
462.797	591.9
463.007	529.7
463.216	595
463.426	612.05
463.636	598.49
463.846	527.38
464.056	528.54
464.265	580.66
464.475	516.92
464.685	596.74
464.895	568.65
465.104	540.55
465.314	576.4
465.524	531.25
465.733	530.09
465.943	616.5
466.153	657.38
466.362	615.34
466.572	588.02
466.782	573.69
466.991	578.72
467.201	644.6
467.41	558.57
467.62	587.44
467.829	568.07
468.039	579.3
468.249	558.19
468.458	576.4
468.668	608.56
468.877	592.87
469.086	628.9
469.296	647.12
469.505	567.68
469.715	673.08
469.924	632.58
470.134	642.27
470.343	659.13
470.552	643.82
470.762	589.57
470.971	596.35
471.18	621.35
471.39	595.58
471.599	584.15
471.808	663.78
472.018	609.53
472.227	693.42
472.436	692.65
472.645	660.1
472.855	637.23
473.064	708.53
473.273	660.1
473.482	703.11
473.691	717.45
473.901	712.41
474.11	676.57
474.319	776.93
474.528	678.31
474.737	741.47
474.946	742.44
475.155	726.16
475.364	800.56
475.573	745.54
475.783	728.49
475.992	744.18
476.201	800.37
476.41	714.35
476.619	717.25
476.828	742.05
477.037	696.52
477.245	721.32
477.454	754.06
477.663	743.6
477.872	725.78
478.081	824.98
478.29	734.3
478.499	895.89
478.708	772.86
478.917	848.81
479.125	792.43
479.334	812.38
479.543	763.36
479.752	834.86
479.961	807.34
480.169	876.12
480.378	832.34
480.587	954.98
480.796	890.66
481.004	830.21
481.213	868.96
481.422	859.66
481.63	853.26
481.839	849.97
482.048	925.72
482.256	865.86
482.465	912.36
482.674	916.04
482.882	929.21
483.091	988.89
483.299	908.09
483.508	912.74
483.716	886.59
483.925	924.95
484.134	868.57
484.342	897.63
484.551	967.57
484.759	946.26
484.967	956.14
485.176	983.07
485.384	942.97
485.593	980.94
485.801	957.89
486.01	933.09
486.218	894.53
486.426	814.9
486.635	806.18
486.843	804.24
487.051	867.6
487.26	821.1
487.468	892.21
487.676	913.91
487.885	906.16
488.093	918.17
488.301	954.79
488.509	965.83
488.717	1007.1
488.926	962.34
489.134	984.24
489.342	944.91
489.55	916.04
489.758	957.11
489.967	973.97
490.175	1091.18
490.383	1009.04
490.591	1113.85
490.799	1011.75
491.007	1082.27
491.215	1050.3
491.423	1055.92
491.631	1033.45
491.839	1020.47
492.047	1055.15
492.255	1005.35
492.463	994.89
492.671	954.01
492.879	1052.24
493.087	1021.82
493.295	1049.53
493.503	1057.28
493.711	1124.7
493.919	1123.15
494.127	1102.23
494.334	1122.57
494.542	1029.19
494.75	1096.61
494.958	1066.77
495.166	1149.7
495.374	1137.68
495.581	1155.51
495.789	1129.93
495.997	1196.2
496.205	1075.3
496.412	1076.46
496.62	1104.75
496.828	1136.33
497.035	1128.38
497.243	1162.87
497.451	1118.7
497.658	1163.06
497.866	1123.15
498.074	1233.39
498.281	1117.73
498.489	1210.15
498.696	1136.91
498.904	1090.6
499.112	1104.55
499.319	1196
499.527	1140.01
499.734	1147.76
499.942	1086.53
500.149	1117.92
500.357	1166.36
500.564	1082.66
500.771	1121.8
500.979	1133.81
501.186	1089.25
501.394	1147.56
501.601	1102.03
501.808	1140.01
502.016	1126.64
502.223	1093.32
502.43	1116.57
502.638	1097
502.845	1102.42
503.052	1211.89
503.26	1123.73
503.467	1231.46
503.674	1207.63
503.881	1201.04
504.089	1256.45
504.296	1207.24
504.503	1095.64
504.71	1150.08
504.917	1114.05
505.125	1172.17
505.332	1182.25
505.539	1207.05
505.746	1257.81
505.953	1271.56
506.16	1244.63
506.367	1247.34
506.574	1303.53
506.781	1283.19
506.988	1197.94
507.195	1240.56
507.402	1198.33
507.609	1265.17
507.816	1219.83
508.023	1247.73
508.23	1221
508.437	1171.2
508.644	1235.53
508.851	1284.54
509.058	1254.71
509.265	1263.81
509.472	1249.09
509.679	1327.36
509.885	1271.76
510.092	1292.68
510.299	1250.83
510.506	1271.95
510.713	1294.62
510.92	1262.84
511.126	1286.68
511.333	1310.7
511.54	1332.01
511.746	1332.01
511.953	1367.08
512.16	1349.06
512.367	1328.52
512.573	1311.09
512.78	1341.51
512.987	1315.74
513.193	1279.31
513.4	1234.17
513.606	1273.89
513.813	1308.18
514.02	1295.2
514.226	1385.1
514.433	1355.26
514.639	1249.86
514.846	1310.31
515.052	1271.18
515.259	1291.13
515.465	1295.01
515.672	1357.01
515.878	1425.01
516.085	1332.4
516.291	1385.68
516.497	1317.67
516.704	1329.49
516.91	1249.67
517.117	1238.63
517.323	1182.44
517.529	1213.63
517.736	1196.2
517.942	1205.11
518.148	1253.93
518.354	1311.09
518.561	1271.18
518.767	1302.76
518.973	1340.15
519.179	1307.41
519.386	1276.02
519.592	1334.14
519.798	1317.29
520.004	1395.95
520.21	1347.51
520.417	1425.01
520.623	1416.87
520.829	1499.6
521.035	1456.59
521.241	1420.75
521.447	1491.47
521.653	1563.54
521.859	1463.76
522.065	1478.68
522.271	1575.75
522.477	1535.06
522.683	1574.39
522.889	1549.01
523.095	1511.03
523.301	1491.47
523.507	1470.15
523.713	1493.98
523.919	1484.49
524.125	1595.12
524.331	1538.55
524.537	1600.16
524.742	1641.62
524.948	1637.94
525.154	1592.99
525.36	1742.37
525.566	1612.56
525.772	1675.53
525.977	1605.78
526.183	1667.78
526.389	1698.39
526.595	1599.58
526.8	1617.21
527.006	1508.13
527.212	1522.85
527.417	1489.92
527.623	1491.08
527.829	1586.4
528.034	1578.46
528.24	1594.15
528.446	1582.91
528.651	1658.67
528.857	1696.06
529.062	1759.42
529.268	1690.64
529.473	1705.56
529.679	1700.52
529.884	1804.95
530.09	1762.91
530.295	1805.34
530.501	1805.14
530.706	1787.71
530.912	1714.28
531.117	1774.72
531.323	1779.57
531.528	1830.52
531.733	1868.89
531.939	1799.72
532.144	1861.52
532.35	1829.75
532.555	1855.9
532.76	1833.62
532.966	1838.27
533.171	1761.16
533.376	1769.3
533.581	1700.91
533.787	1800.49
533.992	1820.64
534.197	1847.96
534.402	1805.72
534.607	1812.31
534.813	1910.93
535.018	1784.22
535.223	1801.46
535.428	1846.41
535.633	1925.65
535.838	1913.06
536.043	1896.4
536.249	2004.51
536.454	1925.46
536.659	1929.72
536.864	1907.64
537.069	1864.24
537.274	1916.16
537.479	1903.37
537.684	1923.33
537.889	1835.17
538.094	1985.33
538.299	1888.45
538.504	1900.47
538.708	1918.68
538.913	1927.2
539.118	1903.95
539.323	1932.24
539.528	1906.28
539.733	1909.19
539.938	1900.08
540.142	1946.77
540.347	1880.12
540.552	1884.77
540.757	1863.27
540.962	1845.64
541.166	1802.62
541.371	1825.1
541.576	1877.8
541.781	1754.96
541.985	1907.64
542.19	1867.53
542.395	1957.23
542.599	1986.88
542.804	1951.42
543.008	1991.14
543.213	1894.07
543.418	1862.3
543.622	1970.8
543.827	1893.3
544.031	1980.87
544.236	1978.35
544.44	1974.67
544.645	2053.14
544.849	1941.35
545.054	1998.89
545.258	2063.99
545.463	2041.71
545.667	1896.4
545.872	2005.48
546.076	2004.51
546.281	1979.71
546.485	1935.15
546.689	1995.02
546.894	2013.42
547.098	1986.49
547.302	1939.22
547.507	1962.08
547.711	1984.55
547.915	2037.83
548.119	1900.85
548.324	1948.71
548.528	2016.91
548.732	1966.73
548.936	2020.4
549.141	2009.35
549.345	2020.2
549.549	1983
549.753	1969.25
549.957	2070.77
550.161	2051.59
550.366	2019.23
550.57	1961.88
550.774	2014.97
550.978	1977.19
551.182	2039.19
551.386	1992.11
551.59	1993.85
551.794	1958.4
551.998	2031.83
552.202	1966.15
552.406	1959.37
552.61	2034.73
552.814	2030.66
553.018	2078.52
553.222	1980.1
553.426	1974.67
553.63	2077.94
553.833	1983.58
554.037	1977.19
554.241	1998.12
554.445	1998.12
554.649	2000.25
554.853	1995.98
555.056	2044.03
555.26	2078.33
555.464	2004.32
555.668	2022.14
555.871	2082.78
556.075	2049.07
556.279	1988.82
556.483	1950.84
556.686	1996.95
556.89	1981.84
557.094	2003.54
557.297	1907.44
557.501	2046.94
557.704	1903.76
557.908	1999.28
558.112	1930.69
558.315	1992.88
558.519	1970.22
558.722	1930.11
558.926	1933.79
559.129	1852.8
559.333	1854.74
559.536	1850.09
559.74	1852.8
559.943	1831.49
560.147	1814.44
560.35	1863.27
560.553	1889.23
560.757	1815.02
560.96	1928.37
561.164	1828.01
561.367	1956.46
561.57	1853
561.774	1896.4
561.977	1813.09
562.18	1823.36
562.384	1919.26
562.587	1827.81
562.79	1828.59
562.993	1829.36
563.197	1891.94
563.4	1933.02
563.603	1895.62
563.806	1931.85
564.009	1841.37
564.212	1865.01
564.416	1782.09
564.619	1863.85
564.822	1792.55
565.025	1861.14
565.228	1810.18
565.431	1815.8
565.634	1717.38
565.837	1786.74
566.04	1749.73
566.243	1737.72
566.446	1681.34
566.649	1798.94
566.852	1686.38
567.055	1747.21
567.258	1785.38
567.461	1803.01
567.664	1812.89
567.867	1705.94
568.07	1776.66
568.273	1772.4
568.475	1813.28
568.678	1715.05
568.881	1712.14
569.084	1740.63
569.287	1599.96
569.489	1634.06
569.692	1693.16
569.895	1698
570.098	1621.28
570.3	1656.73
570.503	1561.8
570.706	1589.7
570.909	1574.39
571.111	1577.49
571.314	1537.38
571.516	1575.94
571.719	1579.04
571.922	1561.6
572.124	1548.62
572.327	1597.64
572.529	1506.19
572.732	1549.78
572.935	1607.71
573.137	1648.01
573.34	1541.26
573.542	1608.68
573.745	1617.01
573.947	1590.86
574.15	1572.26
574.352	1544.94
574.554	1634.84
574.757	1531.77
574.959	1489.33
575.162	1499.41
575.364	1548.62
575.566	1622.25
575.769	1493.4
575.971	1523.24
576.173	1420.55
576.376	1451.36
576.578	1531.18
576.78	1582.53
576.982	1403.12
577.185	1499.99
577.387	1458.53
577.589	1453.49
577.791	1476.35
577.993	1512.97
578.196	1477.9
578.398	1495.73
578.6	1508.52
578.802	1404.28
579.004	1437.02
579.206	1407.96
579.408	1445.16
579.61	1416.87
579.812	1506
580.014	1428.3
580.216	1398.27
580.418	1404.47
580.62	1414.94
580.822	1403.31
581.024	1427.72
581.226	1498.83
581.428	1421.14
581.63	1523.43
581.832	1372.12
582.034	1473.64
582.236	1429.47
582.438	1458.72
582.64	1494.95
582.841	1488.75
583.043	1528.08
583.245	1440.7
583.447	1457.95
583.649	1400.6
583.85	1439.35
584.052	1469.38
584.254	1419
584.456	1484.3
584.657	1370.18
584.859	1384.91
585.061	1397.11
585.262	1396.92
585.464	1369.02
585.666	1433.92
585.867	1370.57
586.069	1427.92
586.27	1399.63
586.472	1380.84
586.674	1345.19
586.875	1323.1
587.077	1330.66
587.278	1396.14
587.48	1323.68
587.681	1474.8
587.883	1376.57
588.084	1305.86
588.285	1385.49
588.487	1316.51
588.688	1381.22
588.89	1283.38
589.091	1268.27
589.292	1266.72
589.494	1217.9
589.695	1198.91
589.896	1162.48
590.098	1132.65
590.299	1222.93
590.5	1185.35
590.702	1170.81
590.903	1207.63
591.104	1252.96
591.305	1283.58
591.507	1321.94
591.708	1306.05
591.909	1257.61
592.11	1338.79
592.311	1297.53
592.512	1269.43
592.714	1216.15
592.915	1256.64
593.116	1242.5
593.317	1288.61
593.518	1224.29
593.719	1264.2
593.92	1292.29
594.121	1308.18
594.322	1291.13
594.523	1258.58
594.724	1228.36
594.925	1249.28
595.126	1263.81
595.327	1295.2
595.528	1271.18
595.729	1258.19
595.929	1254.32
596.13	1269.04
596.331	1255.87
596.532	1268.85
596.733	1307.79
596.934	1307.99
597.135	1258.78
597.335	1266.53
597.536	1214.6
597.737	1281.44
597.938	1240.18
598.138	1287.26
598.339	1227
598.54	1284.35
598.74	1248.31
598.941	1275.63
599.142	1290.36
599.342	1277.96
599.543	1212.28
599.744	1223.13
599.944	1252.58
600.145	1201.04
600.345	1275.05
600.546	1322.32
600.746	1300.43
600.947	1316.12
601.147	1236.88
601.348	1267.69
601.548	1195.42
601.749	1248.31
601.949	1202.01
602.15	1196.39
602.35	1205.5
602.551	1258.78
602.751	1150.66
602.951	1214.8
603.152	1121.22
603.352	1266.14
603.552	1185.15
603.753	1269.24
603.953	1259.16
604.153	1230.88
604.354	1229.71
604.554	1224.09
604.754	1203.56
604.954	1169.46
605.155	1252.96
605.355	1198.52
605.555	1258
605.755	1263.43
605.955	1206.46
606.155	1231.26
606.356	1200.65
606.556	1215.76
606.756	1203.36
606.956	1176.63
607.156	1250.44
607.356	1185.35
607.556	1211.31
607.756	1236.11
607.956	1237.85
608.156	1188.06
608.356	1162.1
608.556	1224.87
608.756	1172.95
608.956	1144.08
609.156	1189.8
609.356	1154.54
609.556	1135.55
609.755	1163.65
609.955	1139.81
610.155	1168.3
610.355	1167.33
610.555	1129.16
610.755	1191.16
610.954	1098.55
611.154	1162.87
611.354	1196.2
611.554	1128.97
611.753	1114.24
611.953	1111.53
612.153	1148.92
612.352	1158.8
612.552	1098.16
612.752	1071.42
612.951	1112.3
613.151	1133.42
613.351	1077.04
613.55	1090.99
613.75	1140.98
613.949	1098.93
614.149	1159.19
614.348	1095.45
614.548	1064.25
614.747	1032.09
614.947	1093.7
615.146	1001.67
615.346	1118.12
615.545	1098.16
615.745	1094.67
615.944	1114.24
616.144	1061.54
616.343	1085.18
616.542	1053.79
616.742	1057.86
616.941	1058.05
617.14	968.74
617.34	1054.37
617.539	1062.9
617.738	1018.53
617.938	1139.23
618.137	1043.72
618.336	1015.04
618.535	1097
618.734	1085.57
618.934	1077.04
619.133	1075.68
619.332	1061.54
619.531	1037.13
619.73	1017.17
619.929	1103.78
620.128	1076.85
620.328	1109.01
620.527	1044.88
620.726	1045.65
620.925	1042.75
621.124	1058.83
621.323	1064.06
621.522	990.24
621.721	1019.5
621.92	996.44
622.119	1062.32
622.318	1026.47
622.517	1008.45
622.715	1049.33
622.914	958.27
623.113	1033.45
623.312	941.22
623.511	1025.31
623.71	1014.85
623.909	976.1
624.107	1070.26
624.306	968.74
624.505	958.08
624.704	983.07
624.902	991.6
625.101	1042.55
625.3	991.6
625.499	955.56
625.697	985.98
625.896	958.08
626.095	1024.34
626.293	935.22
626.492	953.24
626.69	1002.84
626.889	955.56
627.088	1003.03
627.286	968.74
627.485	980.94
627.683	927.27
627.882	988.89
628.08	907.9
628.279	923.79
628.477	1020.27
628.676	929.21
628.874	968.93
629.073	927.27
629.271	919.52
629.469	957.11
629.668	937.74
629.866	937.35
630.065	944.71
630.263	967.77
630.461	902.67
630.66	916.81
630.858	960.79
631.056	982.49
631.254	980.94
631.453	884.46
631.651	962.15
631.849	955.37
632.047	967.77
632.245	939.29
632.444	927.47
632.642	938.12
632.84	980.75
633.038	898.6
633.236	901.89
633.434	902.09
633.632	909.06
633.83	917.78
634.028	949.36
634.227	933.09
634.425	1005.55
634.623	935.61
634.821	935.22
635.019	933.86
635.216	929.21
635.414	996.64
635.612	945.29
635.81	919.91
636.008	976.68
636.206	943.94
636.404	966.8
636.602	882.71
636.8	910.61
636.997	941.03
637.195	957.89
637.393	912.74
637.591	968.54
637.789	921.46
637.986	948.59
638.184	942.77
638.382	967.19
638.58	976.49
638.777	977.84
638.975	940.64
639.173	933.28
639.37	945.49
639.568	937.16
639.765	911.58
639.963	919.72
640.161	943.94
640.358	940.26
640.556	898.41
640.753	880
640.951	882.91
641.148	910.61
641.346	865.86
641.543	874.57
641.741	913.13
641.938	866.05
642.136	857.91
642.333	834.86
642.531	932.51
642.728	930.76
642.925	888.91
643.123	881.74
643.32	897.24
643.517	865.47
643.715	906.93
643.912	861.79
644.109	881.16
644.306	868.18
644.504	846.48
644.701	883.49
644.898	894.34
645.095	835.44
645.293	828.08
645.49	890.27
645.687	891.04
645.884	886.01
646.081	796.88
646.278	846.87
646.475	838.93
646.672	836.99
646.87	855.01
647.067	839.7
647.264	852.68
647.461	796.3
647.658	776.35
647.855	832.92
648.052	811.8
648.249	721.71
648.446	797.66
648.642	784.29
648.839	772.47
649.036	792.43
649.233	777.9
649.43	727.91
649.627	749.41
649.824	779.06
650.021	751.55
650.217	747.67
650.414	758.71
650.611	786.23
650.808	802.31
651.004	777.9
651.201	804.44
651.398	836.6
651.595	787.97
651.791	761.23
651.988	854.62
652.185	751.74
652.381	783.9
652.578	715.7
652.775	805.99
652.971	752.13
653.168	770.73
653.364	791.46
653.561	712.02
653.757	756
653.954	778.86
654.15	743.21
654.347	845.13
654.543	765.5
654.74	737.98
654.936	749.22
655.133	778.86
655.329	780.61
655.525	759.49
655.722	793.39
655.918	732.75
656.115	778.67
656.311	679.47
656.507	635.68
656.704	629.48
656.9	670.56
657.096	664.94
657.292	617.67
657.489	696.72
657.685	689.16
657.881	671.72
658.077	712.6
658.273	725.58
658.47	781.38
658.666	725
658.862	755.42
659.058	689.16
659.254	798.04
659.45	718.61
659.646	765.3
659.842	743.41
660.038	785.26
660.234	718.61
660.43	737.21
660.626	810.25
660.822	763.95
661.018	754.06
661.214	738.56
661.41	710.47
661.606	756.58
661.802	761.23
661.998	770.92
662.194	720.55
662.39	730.04
662.586	768.4
662.781	761.43
662.977	783.9
663.173	780.8
663.369	724.61
663.564	758.13
663.76	774.99
663.956	720.55
664.152	757.55
664.347	691.29
664.543	748.83
664.739	717.64
664.934	669.78
665.13	661.84
665.326	763.56
665.521	739.34
665.717	709.11
665.912	669.4
666.108	650.02
666.304	707.18
666.499	712.21
666.695	648.47
666.89	724.03
667.086	756.97
667.281	713.76
667.477	812.96
667.672	724.23
667.867	692.65
668.063	738.18
668.258	692.65
668.454	724.42
668.649	797.08
668.844	728.49
669.04	740.89
669.235	706.21
669.43	700.78
669.626	673.66
669.821	713.18
670.016	656.42
670.211	750.58
670.407	649.25
670.602	742.44
670.797	702.72
670.992	751.74
671.187	663.58
671.382	731.4
671.578	673.66
671.773	695.75
671.968	669.78
672.163	698.46
672.358	725.78
672.553	685.28
672.748	668.43
672.943	776.15
673.138	707.76
673.333	750.77
673.528	673.27
673.723	690.71
673.918	689.93
674.113	645.57
674.308	751.93
674.503	748.06
674.698	704.85
674.892	701.75
675.087	730.23
675.282	737.6
675.477	670.56
675.672	723.84
675.867	684.9
676.061	657.58
676.256	637.04
676.451	678.12
676.646	692.26
676.84	635.1
677.035	643.43
677.23	654.48
677.424	711.83
677.619	720.55
677.814	738.37
678.008	706.4
678.203	603.33
678.397	641.88
678.592	677.73
678.787	737.01
678.981	668.04
679.176	677.53
679.37	671.53
679.565	672.11
679.759	633.75
679.954	695.75
680.148	738.95
680.342	744.96
680.537	704.85
680.731	639.95
680.926	719.77
681.12	704.08
681.314	663.97
681.509	660.48
681.703	676.95
681.897	697.88
682.092	693.03
682.286	672.3
682.48	747.28
682.674	690.13
682.869	666.88
683.063	647.5
683.257	713.18
683.451	645.76
683.645	683.54
683.839	655.83
684.034	681.22
684.228	676.37
684.422	628.32
684.616	613.02
684.81	697.3
685.004	654.28
685.198	651.38
685.392	669.98
685.586	641.69
685.78	663
685.974	692.45
686.168	709.7
686.362	735.08
686.556	632.39
686.75	606.62
686.944	607.79
687.138	666.88
687.331	539.97
687.525	571.75
687.719	518.27
687.913	587.44
688.107	585.5
688.301	528.35
688.494	605.46
688.688	547.53
688.882	559.93
689.076	504.52
689.269	580.47
689.463	663
689.657	558.57
689.85	594.61
690.044	570
690.238	569.62
690.431	554.31
690.625	569.23
690.818	617.28
691.012	615.73
691.205	631.42
691.399	561.87
691.593	620.38
691.786	655.25
691.98	655.06
692.173	673.66
692.366	641.5
692.56	650.99
692.753	717.06
692.947	611.08
693.14	704.27
693.333	684.9
693.527	616.5
693.72	655.64
693.914	661.26
694.107	647.31
694.3	706.4
694.493	658.16
694.687	712.6
694.88	632.39
695.073	720.35
695.266	703.88
695.46	679.08
695.653	699.43
695.846	724.61
696.039	625.22
696.232	673.66
696.425	722.48
696.618	717.83
696.812	688.77
697.005	780.8
697.198	870.51
697.391	768.21
697.584	795.91
697.777	843.19
697.97	793.01
698.163	877.67
698.356	818.97
698.549	908.67
698.742	852.49
698.935	853.46
699.127	903.25
699.32	827.11
699.513	819.36
699.706	892.98
699.899	889.3
700.092	863.92
700.285	888.14
700.477	845.71
700.67	896.86
700.863	963.31
701.056	1031.12
701.248	984.82
701.441	1009.42
701.634	965.25
701.826	1054.37
702.019	931.73
702.212	1026.47
702.404	958.66
702.597	974.74
702.79	1023.57
702.982	1010.97
703.175	1084.6
703.367	1067.16
703.56	1078.2
703.752	1225.26
703.945	1144.08
704.137	1133.62
704.33	1180.31
704.522	1201.04
704.715	1175.85
704.907	1232.23
705.1	1246.96
705.292	1274.28
705.484	1232.23
705.677	1298.88
705.869	1290.36
706.061	1326.59
706.254	1351
706.446	1317.48
706.638	1318.64
706.831	1395.76
707.023	1345.57
707.215	1478.68
707.407	1441.67
707.599	1417.65
707.792	1479.65
707.984	1517.82
708.176	1502.12
708.368	1496.5
708.56	1506.97
708.752	1530.6
708.944	1518.98
709.136	1572.45
709.329	1574.97
709.521	1683.66
709.713	1632.9
709.905	1670.1
710.097	1695.87
710.289	1653.63
710.481	1688.51
710.672	1704.98
710.864	1745.47
711.056	1812.51
711.248	1790.03
711.44	1763.1
711.632	1824.91
711.824	1815.8
712.016	1881.09
712.207	1874.12
712.399	1893.69
712.591	1964.79
712.783	1950.26
712.975	1953.17
713.166	1922.75
713.358	1942.51
713.55	2036.48
713.741	2023.11
713.933	2038.22
714.125	2014.78
714.316	1991.14
714.508	2087.24
714.7	2104.68
714.891	2107.78
715.083	2148.66
715.274	2103.32
715.466	2125.21
715.657	2206.97
715.849	2088.98
716.04	2175.59
716.232	2126.76
716.423	2202.13
716.615	2151.37
716.806	2119.59
716.998	2082.98
717.189	2042.68
717.381	1967.5
717.572	1985.52
717.763	1999.86
717.955	1989.4
718.146	1974.67
718.337	1926.62
718.528	1892.72
718.72	1808.63
718.911	1920.81
719.102	1836.72
719.293	1943.48
719.485	1953.17
719.676	1912.29
719.867	1854.35
720.058	1895.62
720.249	1883.22
720.44	1921.59
720.632	1997.53
720.823	2016.33
721.014	2073.29
721.205	2136.06
721.396	2206.59
721.587	2340.66
721.778	2327.87
721.969	2349.19
722.16	2426.68
722.351	2416.03
722.542	2580.33
722.733	2593.31
722.924	2519.68
723.115	2566.38
723.305	2609.58
723.496	2583.04
723.687	2474.73
723.878	2500.5
724.069	2476.09
724.26	2529.76
724.45	2474.93
724.641	2477.06
724.832	2514.84
725.023	2455.75
725.213	2492.56
725.404	2490.62
725.595	2512.51
725.785	2448.19
725.976	2549.71
726.167	2573.74
726.357	2567.54
726.548	2666.93
726.739	2584.78
726.929	2653.56
727.12	2708.01
727.31	2740.75
727.501	2655.5
727.691	2695.99
727.882	2719.24
728.072	2769.62
728.263	2727.19
728.453	2807.4
728.644	2828.71
728.834	2828.9
729.024	2771.94
729.215	2739.78
729.405	2792.29
729.596	2919.96
729.786	2933.53
729.976	2917.64
730.167	2980.41
730.357	2945.35
730.547	2892.65
730.737	2936.63
730.928	2981.96
731.118	3070.12
731.308	3023.23
731.498	2992.04
731.688	3076.71
731.879	3149.55
732.069	3183.07
732.259	3146.65
732.449	3200.9
732.639	3287.31
732.829	3289.63
733.019	3360.16
733.209	3442.31
733.399	3401.23
733.589	3541.12
733.779	3520
733.969	3526.59
734.159	3572.51
734.349	3649.42
734.539	3659.3
734.729	3681.39
734.919	3747.85
735.109	3773.23
735.299	3688.17
735.488	3748.04
735.678	3720.33
735.868	3759.47
736.058	3752.88
736.248	3734.28
736.437	3729.05
736.627	3686.82
736.817	3819.92
737.007	3785.82
737.196	3841.62
737.386	3776.13
737.576	3769.55
737.765	3857.89
737.955	3790.66
738.144	3911.95
738.334	3912.14
738.524	3846.27
738.713	3892.58
738.903	3895.09
739.092	3913.69
739.282	3963.68
739.471	3929
739.661	3940.24
739.85	3962.71
740.04	3976.86
740.229	4003.79
740.419	3990.81
740.608	4018.51
740.797	3995.65
740.987	4107.83
741.176	4090.59
741.365	4001.85
741.555	3998.17
741.744	4115.19
741.933	4073.34
742.123	4079.74
742.312	4113.45
742.501	4098.14
742.69	4158.78
742.88	4059.39
743.069	4184.94
743.258	4141.54
743.447	4215.75
743.636	4178.93
743.825	4182.42
744.014	4201.02
744.204	4235.51
744.393	4160.53
744.582	4206.45
744.771	4258.76
744.96	4199.28
745.149	4248.1
745.338	4203.54
745.527	4265.54
745.716	4207.8
745.905	4244.03
746.094	4281.23
746.283	4330.06
746.471	4266.9
746.66	4350.4
746.849	4322.89
747.038	4361.06
747.227	4232.21
747.416	4312.23
747.604	4289.37
747.793	4267.67
747.982	4320.37
748.171	4331.03
748.359	4325.21
748.548	4262.25
748.737	4314.36
748.926	4299.64
749.114	4202.76
749.303	4280.46
749.491	4274.65
749.68	4226.79
749.869	4297.7
750.057	4262.63
750.246	4251.78
750.434	4232.8
750.623	4250.81
750.811	4210.32
751	4303.71
751.188	4231.44
751.377	4245
751.565	4270
751.754	4220.2
751.942	4204.12
752.131	4266.31
752.319	4197.15
752.507	4180.1
752.696	4263.6
752.884	4259.34
753.072	4172.15
753.261	4227.76
753.449	4222.33
753.637	4202.18
753.825	4270.19
754.014	4225.43
754.202	4213.61
754.39	4261.08
754.578	4246.75
754.766	4202.96
754.955	4170.6
755.143	4251.98
755.331	4156.65
755.519	4189.4
755.707	4208.96
755.895	4169.44
756.083	4232.41
756.271	4096.79
756.459	4154.13
756.647	4149.29
756.835	4132.24
757.023	4106.09
757.211	4142.51
757.399	4136.7
757.587	4102.21
757.775	4060.75
757.963	4091.75
758.151	4114.8
758.339	4041.76
758.526	4045.64
758.714	4096.98
758.902	3995.26
759.09	3956.9
759.278	3752.69
759.465	3567.08
759.653	3167.57
759.841	2960.07
760.028	2565.21
760.216	2266.84
760.404	2131.8
760.591	1828.78
760.779	1595.9
760.967	1411.06
761.154	1266.33
761.342	1307.6
761.529	1330.85
761.717	1375.99
761.905	1398.47
762.092	1508.13
762.28	1471.51
762.467	1549.2
762.655	1469.38
762.842	1496.12
763.029	1531.38
763.217	1555.79
763.404	1575.36
763.592	1630.19
763.779	1540.68
763.966	1613.72
764.154	1664.87
764.341	1766.78
764.528	1744.31
764.716	1832.27
764.903	1856.68
765.09	1928.17
765.277	1991.14
765.465	2148.27
765.652	2184.69
765.839	2276.92
766.026	2427.85
766.213	2439.47
766.4	2535.18
766.588	2704.71
766.775	2744.24
766.962	2880.83
767.149	2906.21
767.336	3045.71
767.523	3030.4
767.71	3112.74
767.897	3253.4
768.084	3304.17
768.271	3322.96
768.458	3406.66
768.645	3487.84
768.832	3427.78
769.019	3489.39
769.206	3510.89
769.392	3590.14
769.579	3653.88
769.766	3615.32
769.953	3568.63
770.14	3657.75
770.327	3598.47
770.513	3667.05
770.7	3741.84
770.887	3606.6
771.073	3640.12
771.26	3727.31
771.447	3649.04
771.634	3638.96
771.82	3738.93
772.007	3628.11
772.193	3687.98
772.38	3675.19
772.567	3675.19
772.753	3651.36
772.94	3678.29
773.126	3718.98
773.313	3737.97
773.499	3710.26
773.686	3697.67
773.872	3611.25
774.059	3707.35
774.245	3611.84
774.432	3629.85
774.618	3533.56
774.804	3611.84
774.991	3571.54
775.177	3606.22
775.363	3622.49
775.55	3621.33
775.736	3566.5
775.922	3571.15
776.109	3610.29
776.295	3601.95
776.481	3605.83
776.667	3608.54
776.853	3575.99
777.04	3516.9
777.226	3553.71
777.412	3667.05
777.598	3524.46
777.784	3540.92
777.97	3515.35
778.156	3513.99
778.342	3485.71
778.528	3490.55
778.715	3436.49
778.901	3471.95
779.087	3507.41
779.272	3418.28
779.458	3453.93
779.644	3458.19
779.83	3462.07
780.016	3529.11
780.202	3407.82
780.388	3432.62
780.574	3329.93
780.76	3394.65
780.946	3423.9
781.131	3391.16
781.317	3343.88
781.503	3333.61
781.689	3381.08
781.874	3480.48
782.06	3377.98
782.246	3375.46
782.432	3344.27
782.617	3373.14
782.803	3421.58
782.989	3290.8
783.174	3309.4
783.36	3256.89
783.545	3343.11
783.731	3304.17
783.916	3214.65
784.102	3320.44
784.288	3226.28
784.473	3248.75
784.659	3203.03
784.844	3315.79
785.029	3261.35
785.215	3228.22
785.4	3166.22
785.586	3268.52
785.771	3139.87
785.956	3207.49
786.142	3188.89
786.327	3199.35
786.512	3178.81
786.698	3166.8
786.883	3082.52
787.068	3164.67
787.254	3173
787.439	3133.28
787.624	3144.13
787.809	3093.95
787.994	3119.72
788.18	3179.2
788.365	3064.31
788.55	3044.93
788.735	3087.94
788.92	3108.87
789.105	3070.31
789.29	3091.04
789.475	3047.64
789.66	3060.24
789.845	2998.43
790.03	3031.18
790.215	3039.31
790.4	3035.83
790.585	3079.42
790.77	3037.96
790.955	2928.88
791.14	2981.19
791.325	3077.09
791.51	2915.9
791.695	2981.77
791.879	2967.05
792.064	2912.8
792.249	3023.81
792.434	2926.16
792.618	2950.77
792.803	2997.85
792.988	2931.78
793.173	3000.95
793.357	3035.63
793.542	2905.05
793.727	2929.85
793.911	3001.14
794.096	2940.11
794.281	3015.87
794.465	3070.7
794.65	2954.06
794.834	2982.35
795.019	3058.49
795.203	3017.23
795.388	3010.06
795.572	3058.69
795.757	3016.06
795.941	3020.13
796.126	3017.03
796.31	2965.69
796.494	3012.19
796.679	2986.03
796.863	2968.6
797.048	3070.31
797.232	3026.14
797.416	3052.1
797.601	3007.73
797.785	3081.16
797.969	3070.89
798.153	2992.04
798.338	3042.99
798.522	3078.84
798.706	3072.44
798.89	3064.11
799.074	3197.02
799.258	3122.04
799.443	3067.6
799.627	3081.55
799.811	3114.68
799.995	3068.96
800.179	3015.68
800.363	3010.06
800.547	3050.55
800.731	3092.59
800.915	2952.9
801.099	3027.49
801.283	3011.03
801.467	3042.41
801.651	3002.89
801.835	3082.52
802.019	3082.32
802.202	3076.51
802.386	2997.08
802.57	2967.24
802.754	2990.49
802.938	2980.41
803.121	2992.23
803.305	3065.47
803.489	2999.59
803.673	3041.44
803.856	3022.07
804.04	3030.01
804.224	3038.34
804.407	2978.28
804.591	2975.38
804.775	3007.15
804.958	3012.96
805.142	3141.22
805.326	3004.44
805.509	3013.93
805.693	3061.01
805.876	3035.44
806.06	3030.98
806.243	3026.33
806.427	3055.2
806.61	3113.91
806.794	3027.88
806.977	3057.33
807.16	3037.38
807.344	3044.35
807.527	3018.39
807.71	3015.48
807.894	3022.84
808.077	3007.93
808.26	2987.58
808.444	2961.23
808.627	3056.17
808.81	2981.58
808.993	2900.59
809.177	2919
809.36	2931.78
809.543	2941.66
809.726	2863.2
809.909	2834.13
810.092	2853.9
810.276	2814.95
810.459	2863.58
810.642	2851.57
810.825	2758.96
811.008	2862.23
811.191	2764.19
811.374	2751.79
811.557	2782.02
811.74	2834.72
811.923	2722.34
812.106	2674.87
812.289	2636.9
812.472	2677.97
812.654	2694.44
812.837	2646.39
813.02	2629.73
813.203	2595.44
813.386	2444.12
813.569	2455.55
813.751	2391.62
813.934	2456.33
814.117	2424.36
814.3	2419.71
814.482	2378.05
814.665	2310.24
814.848	2265.1
815.03	2203.87
815.213	2199.22
815.396	2186.05
815.578	2163.77
815.761	2119.21
815.943	2181.98
816.126	2101.19
816.309	2056.24
816.491	1994.63
816.674	1964.4
816.856	1954.33
817.039	1946.19
817.221	2063.21
817.403	2003.35
817.586	1987.27
817.768	2020.4
817.951	1932.63
818.133	1953.94
818.315	1926.04
818.498	1986.3
818.68	2069.41
818.862	2022.72
819.045	2076.78
819.227	2039.19
819.409	1979.71
819.591	2026.01
819.774	1964.4
819.956	1965.18
820.138	2056.24
820.32	2022.91
820.502	2069.8
820.684	2169.58
820.866	2135.87
821.048	2223.44
821.231	2205.62
821.413	2214.34
821.595	2163.77
821.777	2176.75
821.959	2190.31
822.141	2303.65
822.323	2120.56
822.505	2064.38
822.686	2021.17
822.868	1964.79
823.05	1866.75
823.232	1772.4
823.414	1740.63
823.596	1789.45
823.778	1786.35
823.96	1795.84
824.141	1817.74
824.323	1837.89
824.505	1872.37
824.687	1925.65
824.868	2024.85
825.05	2090.73
825.232	2121.92
825.413	2202.71
825.595	2151.37
825.777	2075.23
825.958	2127.34
826.14	2129.67
826.321	2126.96
826.503	2136.64
826.685	2127.34
826.866	2152.92
827.048	2206.39
827.229	2094.02
827.411	2065.54
827.592	2012.06
827.773	2001.02
827.955	1967.12
828.136	1976.61
828.318	1942.9
828.499	1954.33
828.68	1895.04
828.862	1927.2
829.043	1949.68
829.224	1936.89
829.406	1880.51
829.587	1852.8
829.768	1915.19
829.949	1877.22
830.131	1921.59
830.312	2008.58
830.493	1912.67
830.674	1923.91
830.855	1903.37
831.036	1937.08
831.218	1961.88
831.399	1982.23
831.58	1944.25
831.761	1944.83
831.942	1926.62
832.123	1945.03
832.304	1856.87
832.485	1903.37
832.666	1886.9
832.847	1917.9
833.028	1924.3
833.209	1935.15
833.389	1917.9
833.57	1834.4
833.751	1846.02
833.932	1893.88
834.113	1901.24
834.294	1851.06
834.475	1909.38
834.655	1946
834.836	1961.69
835.017	1939.8
835.198	1860.75
835.378	1941.54
835.559	1965.95
835.74	1931.66
835.92	1917.13
836.101	1882.06
836.281	1943.28
836.462	1912.29
836.643	1961.5
836.823	1953.55
837.004	1960.72
837.184	2012.84
837.365	1996.76
837.545	1974.67
837.726	1922.36
837.906	2029.31
838.087	1949.29
838.267	1946.38
838.448	1932.43
838.628	1930.3
838.808	1941.54
838.989	2020.59
839.169	1918.87
839.349	1954.52
839.53	1968.67
839.71	1990.56
839.89	1906.47
840.07	2028.34
840.251	1887.1
840.431	1942.32
840.611	1939.41
840.791	1919.84
840.971	1959.56
841.151	1921
841.332	1876.05
841.512	1931.66
841.692	1879.54
841.872	1937.47
842.052	1913.25
842.232	1921.97
842.412	1841.76
842.592	1871.99
842.772	1983.39
842.952	1918.68
843.132	1879.93
843.312	1870.24
843.492	1846.41
843.672	1913.84
843.851	1806.89
844.031	1857.26
844.211	1875.09
844.391	1832.66
844.571	1841.57
844.751	1912.48
844.93	1865.98
845.11	1832.66
845.29	1825.87
845.47	1879.74
845.649	1857.26
845.829	1902.02
846.009	1833.43
846.188	1846.99
846.368	1850.29
846.547	1831.88
846.727	1875.28
846.907	1823.74
847.086	1863.65
847.266	1882.45
847.445	1845.05
847.625	1834.59
847.804	1804.37
847.984	1809.21
848.163	1806.89
848.343	1757.87
848.522	1803.21
848.701	1817.54
848.881	1787.12
849.06	1782.86
849.239	1831.88
849.419	1786.93
849.598	1740.82
849.777	1704.01
849.957	1708.27
850.136	1664.48
850.315	1644.72
850.494	1653.83
850.674	1649.95
850.853	1712.92
851.032	1679.4
851.211	1736.56
851.39	1684.83
851.569	1655.76
851.748	1641.62
851.927	1694.71
852.107	1674.56
852.286	1672.43
852.465	1629.22
852.644	1682.31
852.823	1703.23
853.002	1669.91
853.181	1679.4
853.359	1697.81
853.538	1632.71
853.717	1702.65
853.896	1574.78
854.075	1534.09
854.254	1471.32
854.433	1416.1
854.611	1444
854.79	1442.64
854.969	1453.1
855.148	1475
855.327	1408.74
855.505	1507.74
855.684	1460.47
855.863	1514.91
856.041	1452.91
856.22	1519.56
856.399	1506.97
856.577	1615.46
856.756	1596.28
856.934	1701.1
857.113	1679.59
857.291	1592.6
857.47	1575.16
857.648	1566.64
857.827	1609.07
858.005	1646.27
858.184	1522.08
858.362	1650.92
858.541	1574.97
858.719	1593.38
858.898	1567.61
859.076	1566.64
859.254	1657.12
859.433	1547.65
859.611	1554.43
859.789	1527.5
859.967	1572.65
860.146	1615.66
860.324	1525.37
860.502	1531.96
860.68	1486.04
860.859	1539.13
861.037	1509.87
861.215	1546.68
861.393	1534.48
861.571	1510.65
861.749	1488.95
861.927	1539.71
862.105	1536.42
862.283	1522.47
862.461	1489.53
862.639	1481
862.817	1491.47
862.995	1510.65
863.173	1461.82
863.351	1492.82
863.529	1490.5
863.707	1542.42
863.885	1511.81
864.063	1411.64
864.241	1429.66
864.418	1545.33
864.596	1475.39
864.774	1401.76
864.952	1470.93
865.129	1485.07
865.307	1434.5
865.485	1393.43
865.663	1460.47
865.84	1382.39
866.018	1417.26
866.196	1243.28
866.373	1278.15
866.551	1275.63
866.728	1169.07
866.906	1234.36
867.084	1298.3
867.261	1309.15
867.439	1331.43
867.616	1310.51
867.794	1305.08
867.971	1337.44
868.149	1331.82
868.326	1369.21
868.503	1377.74
868.681	1349.64
868.858	1351.97
869.035	1322.52
869.213	1372.7
869.39	1357.39
869.567	1437.8
869.745	1338.6
869.922	1394.01
870.099	1392.46
870.276	1376.38
870.454	1336.27
870.631	1381.61
870.808	1348.09
870.985	1382.77
871.162	1413.39
871.339	1355.26
871.517	1316.51
871.694	1316.9
871.871	1349.84
872.048	1331.82
872.225	1318.84
872.402	1300.04
872.579	1288.81
872.756	1326.97
872.933	1241.34
873.11	1291.71
873.287	1315.93
873.463	1255.68
873.64	1277.18
873.817	1317.67
873.994	1281.83
874.171	1259.94
874.348	1259.36
874.524	1190
874.701	1246.57
874.878	1229.91
875.055	1297.33
875.231	1250.64
875.408	1298.88
875.585	1199.3
875.762	1262.07
875.938	1219.25
876.115	1239.21
876.291	1198.33
876.468	1243.08
876.645	1172.17
876.821	1180.11
876.998	1216.93
877.174	1224.68
877.351	1236.49
877.527	1185.54
877.704	1240.18
877.88	1206.46
878.057	1197.55
878.233	1241.73
878.409	1202.01
878.586	1226.61
878.762	1140.4
878.938	1165.58
879.115	1115.02
879.291	1205.11
879.467	1112.5
879.644	1159.96
879.82	1199.49
879.996	1174.88
880.172	1089.44
880.349	1155.7
880.525	1167.13
880.701	1135.36
880.877	1139.04
881.053	1143.3
881.229	1118.5
881.405	1169.07
881.581	1117.15
881.757	1114.63
881.933	1135.36
882.109	1168.3
882.285	1135.55
882.461	1086.92
882.637	1154.93
882.813	1111.33
882.989	1143.11
883.165	1169.46
883.341	1103.58
883.517	1201.23
883.693	1149.89
883.869	1160.16
884.044	1100.1
884.22	1159.77
884.396	1192.32
884.572	1141.75
884.747	1189.22
884.923	1175.85
885.099	1148.73
885.275	1199.1
885.45	1122.77
885.626	1151.63
885.801	1078.01
885.977	1117.53
886.153	1085.76
886.328	1165.2
886.504	1080.14
886.679	1110.75
886.855	1102.81
887.03	1141.75
887.206	1107.85
887.381	1147.76
887.557	1134.78
887.732	1158.22
887.908	1163.26
888.083	1140.59
888.258	1075.68
888.434	1116.57
888.609	1126.83
888.784	1183.99
888.96	1090.02
889.135	1067.74
889.31	1102.81
889.485	1122.77
889.661	1089.05
889.836	1123.93
890.011	1169.07
890.186	1128.77
890.361	1106.88
890.537	1135.55
890.712	1131.1
890.887	1136.91
891.062	1120.44
891.237	1193.48
891.412	1093.12
891.587	1119.47
891.762	1148.53
891.937	1181.47
892.112	1060.57
892.287	1118.12
892.462	1089.44
892.637	1056.5
892.812	1052.63
892.987	1067.74
893.161	1059.6
893.336	1051.85
893.511	1059.02
893.686	1035.19
893.861	1041
894.035	1072.78
894.21	1060.96
894.385	1015.43
894.56	1019.5
894.734	989.47
894.909	971.06
895.084	964.09
895.258	970.67
895.433	983.27
895.608	947.42
895.782	891.24
895.957	909.06
896.131	901.12
896.306	864.31
896.48	870.89
896.655	885.42
896.829	788.94
897.004	824.59
897.178	813.74
897.353	815.87
897.527	870.7
897.701	815.68
897.876	792.62
898.05	878.64
898.224	818.78
898.399	877.48
898.573	831.76
898.747	711.63
898.921	759.88
899.096	683.73
899.27	668.23
899.444	686.64
899.618	704.85
899.792	726.36
899.967	732.95
900.141	752.32
900.315	693.42
900.489	697.68
900.663	742.63
900.837	737.21
901.011	696.33
901.185	794.94
901.359	712.6
901.533	749.41
901.707	736.63
901.881	724.03
902.055	679.28
902.229	733.53
902.403	768.01
902.576	737.98
902.75	745.35
902.924	844.35
903.098	774.6
903.272	805.6
903.446	845.71
903.619	809.48
903.793	870.89
903.967	833.69
904.14	877.67
904.314	887.75
904.488	872.64
904.661	895.11
904.835	860.43
905.009	928.44
905.182	928.63
905.356	901.31
905.529	863.53
905.703	814.32
905.876	813.35
906.05	823.81
906.223	813.54
906.397	742.25
906.57	713.96
906.744	692.84
906.917	705.82
907.09	708.15
907.264	716.28
907.437	673.47
907.61	641.11
907.784	672.3
907.957	722.68
908.13	602.75
908.304	689.16
908.477	653.32
908.65	628.32
908.823	596.35
908.996	704.27
909.17	646.15
909.343	603.91
909.516	626.97
909.689	643.24
909.862	613.6
910.035	625.42
910.208	590.74
910.381	581.44
910.554	693.42
910.727	624.25
910.9	618.44
911.073	588.41
911.246	671.33
911.419	675.79
911.592	652.35
911.765	598.68
911.938	609.92
912.11	612.43
912.283	635.88
912.456	673.47
912.629	665.91
912.802	605.46
912.974	613.4
913.147	554.31
913.32	515.95
913.493	514.4
913.665	551.4
913.838	560.7
914.01	526.02
914.183	563.03
914.356	560.12
914.528	610.89
914.701	641.11
914.873	626.19
915.046	582.99
915.218	514.98
915.391	454.14
915.563	490.37
915.736	571.55
915.908	560.7
916.081	553.34
916.253	545.59
916.425	543.65
916.598	564.77
916.77	587.44
916.942	535.9
917.115	481.27
917.287	541.91
917.459	508.2
917.632	498.51
917.804	418.11
917.976	525.83
918.148	506.26
918.32	509.17
918.493	550.44
918.665	619.02
918.837	559.93
919.009	593.06
919.181	593.64
919.353	595.19
919.525	561.48
919.697	562.64
919.869	567.1
920.041	601
920.213	636.65
920.385	584.54
920.557	547.14
920.729	595.58
920.901	598.1
921.073	561.67
921.244	548.5
921.416	600.04
921.588	536.1
921.76	533
921.932	597.52
922.103	536.68
922.275	561.67
922.447	565.35
922.619	483.21
922.79	531.25
922.962	515.56
923.134	559.15
923.305	481.07
923.477	479.33
923.648	498.9
923.82	510.72
923.991	477.39
924.163	448.72
924.335	494.44
924.506	437.87
924.677	541.33
924.849	448.52
925.02	488.05
925.192	519.24
925.363	496.38
925.535	496.38
925.706	445.81
925.877	522.54
926.049	452.98
926.22	513.43
926.391	503.36
926.562	531.06
926.734	466.74
926.905	518.08
927.076	436.9
927.247	448.91
927.419	452.01
927.59	416.75
927.761	387.49
927.932	402.8
928.103	415.39
928.274	392.92
928.445	358.43
928.616	390.01
928.787	390.79
928.958	379.36
929.129	395.05
929.3	365.21
929.471	318.71
929.642	267.56
929.813	215.83
929.984	318.71
930.155	248.58
930.326	294.3
930.496	291.2
930.667	208.47
930.838	261.17
931.009	207.31
931.18	243.93
931.35	232.11
931.521	226.49
931.692	156.55
931.863	139.3
932.033	186
932.204	196.27
932.374	190.84
932.545	154.03
932.716	199.17
932.886	181.73
933.057	104.24
933.227	104.82
933.398	187.16
933.568	109.85
933.739	80.21
933.909	76.72
934.08	120.7
934.25	34.49
934.421	61.42
934.591	109.47
934.761	76.92
934.932	40.88
935.102	84.09
935.272	85.83
935.443	76.14
935.613	73.43
935.783	87.77
935.953	47.47
936.123	217.77
936.294	54.83
936.464	73.82
936.634	110.24
936.804	57.54
936.974	28.87
937.144	99.2
937.314	72.27
937.484	66.84
937.655	74.4
937.825	124.39
937.995	53.86
938.165	124.97
938.334	81.76
938.504	117.22
938.674	98.42
938.844	93.58
939.014	144.54
939.184	171.27
939.354	204.02
939.524	186.38
939.694	129.04
939.863	135.04
940.033	198.78
940.203	215.06
940.373	186.58
940.542	195.3
940.712	147.64
940.882	173.4
941.051	194.13
941.221	172.82
941.391	158.87
941.56	106.75
941.73	142.4
941.899	271.83
942.069	111.99
942.238	162.55
942.408	116.44
942.577	178.83
942.747	101.72
942.916	89.12
943.086	133.3
943.255	158.1
943.425	132.14
943.594	103.07
943.763	31
943.933	60.84
944.102	26.74
944.271	101.52
944.441	130.2
944.61	106.17
944.779	82.92
944.948	208.47
945.117	47.86
945.287	92.8
945.456	28.09
945.625	77.69
945.794	116.44
945.963	89.9
946.132	125.16
946.301	54.44
946.47	119.35
946.639	40.88
946.808	106.75
946.977	117.22
947.146	157.32
947.315	73.62
947.484	121.29
947.653	89.12
947.822	64.32
947.991	47.66
948.16	191.81
948.329	147.25
948.498	118.19
948.666	121.67
948.835	177.67
949.004	86.22
949.173	89.7
949.341	111.21
949.51	134.46
949.679	136.2
949.847	131.17
950.016	162.36
950.185	153.06
950.353	89.32
950.522	77.11
950.69	198.98
950.859	103.65
951.028	152.48
951.196	123.42
951.365	107.34
951.533	87.96
951.701	139.11
951.87	127.49
952.038	77.89
952.207	75.56
952.375	172.44
952.543	98.62
952.712	97.45
952.88	75.76
953.048	153.64
953.217	118.38
953.385	97.65
953.553	176.89
953.721	94.16
953.89	112.57
954.058	49.21
954.226	62.39
954.394	94.35
954.562	36.04
954.73	112.57
954.898	100.75
955.067	135.82
955.235	100.17
955.403	114.89
955.571	187.93
955.739	108.89
955.907	89.9
956.075	78.66
956.243	68.39
956.41	109.85
956.578	58.32
956.746	63.94
956.914	89.12
957.082	123.03
957.25	120.12
957.418	78.47
957.585	102.49
957.753	174.57
957.921	72.46
958.089	105.79
958.256	120.12
958.424	130.78
958.592	114.5
958.759	75.37
958.927	138.34
959.095	84.67
959.262	101.33
959.43	95.52
959.597	67.23
959.765	113.15
959.932	70.72
960.1	144.73
960.267	80.41
960.435	88.93
960.602	143.95
960.77	66.26
960.937	37.97
961.104	115.28
961.272	65.1
961.439	95.52
961.606	132.72
961.774	136.59
961.941	97.07
962.108	127.68
962.275	113.73
962.443	141.24
962.61	163.72
962.777	177.86
962.944	98.81
963.111	131.55
963.278	147.25
963.446	103.65
963.613	97.65
963.78	142.99
963.947	143.18
964.114	104.62
964.281	178.25
964.448	131.94
964.615	110.24
964.782	132.14
964.949	159.65
965.116	137.37
965.282	152.67
965.449	99.39
965.616	99.2
965.783	113.92
965.95	123.22
966.117	99.59
966.283	116.25
966.45	133.1
966.617	116.83
966.784	184.45
966.95	145.7
967.117	179.99
967.284	83.12
967.45	98.81
967.617	183.28
967.784	161.59
967.95	206.53
968.117	148.8
968.283	178.83
968.45	236.76
968.616	152.09
968.783	193.36
968.949	164.69
969.116	163.33
969.282	108.3
969.449	153.06
969.615	138.92
969.781	89.9
969.948	116.25
970.114	74.21
970.28	209.05
970.447	145.31
970.613	176.5
970.779	139.5
970.945	144.34
971.112	132.14
971.278	130.39
971.444	131.17
971.61	179.41
971.776	122.84
971.942	167.59
972.108	179.02
972.275	152.48
972.441	163.33
972.607	213.9
972.773	115.09
972.939	157.13
973.105	115.86
973.271	92.61
973.437	123.42
973.602	99.59
973.768	137.95
973.934	106.37
974.1	127.87
974.266	62.77
974.432	134.27
974.598	110.24
974.763	150.93
974.929	93.58
975.095	180.18
975.261	115.47
975.426	94.74
975.592	135.24
975.758	190.26
975.923	68.78
976.089	70.52
976.255	132.91
976.42	110.24
976.586	132.91
976.751	120.51
976.917	213.9
977.082	144.15
977.248	64.32
977.413	47.66
977.579	101.52
977.744	122.84
977.91	82.54
978.075	92.22
978.24	135.43
978.406	77.69
978.571	110.82
978.736	76.14
978.902	130
979.067	76.34
979.232	62
979.397	92.61
979.563	154.22
979.728	83.7
979.893	98.42
980.058	81.37
980.223	151.51
980.388	113.15
980.554	123.8
980.719	69.36
980.884	104.24
981.049	155
981.214	96.49
981.379	135.62
981.544	101.14
981.709	90.67
981.874	76.92
982.039	118.77
982.204	120.9
982.368	112.37
982.533	75.17
982.698	143.37
982.863	136.2
983.028	103.65
983.193	156.94
983.357	117.8
983.522	116.25
983.687	105.4
983.852	65.87
984.016	86.8
984.181	104.04
984.346	150.35
984.51	149.96
984.675	92.03
984.839	124.39
985.004	111.6
985.168	155
985.333	117.8
985.498	95.13
985.662	127.29
985.827	122.84
985.991	114.89
986.155	69.56
986.32	154.22
986.484	173.02
986.649	118.38
986.813	44.17
986.977	117.6
987.142	110.63
987.306	88.74
987.47	89.51
987.634	86.41
987.799	121.09
987.963	83.7
988.127	130.2
988.291	175.15
988.455	122.45
988.62	81.76
988.784	134.65
988.948	125.55
989.112	64.91
989.276	131.94
989.44	103.07
989.604	82.54
989.768	69.75
989.932	182.12
990.096	60.06
990.26	44.95
990.424	54.64
990.588	78.27
990.752	153.45
990.915	134.85
991.079	86.22
991.243	76.14
991.407	140.47
991.571	106.17
991.734	127.49
991.898	120.32
992.062	166.24
992.226	90.67
992.389	68.39
992.553	13.17
992.717	52.12
992.88	64.71
993.044	104.24
993.207	93.97
993.371	109.85
993.535	101.52
993.698	106.17
993.862	119.35
994.025	136.01
994.189	108.5
994.352	95.71
994.515	91.06
994.679	123.42
994.842	82.34
995.006	129.62
995.169	40.49
995.332	70.72
995.496	107.34
995.659	46.89
995.822	86.41
995.985	87.57
996.149	134.46
996.312	90.48
996.475	137.75
996.638	60.84
996.801	124.77
996.964	124.19
997.128	91.45
997.291	86.61
997.454	84.67
997.617	33.71
997.78	113.54
997.943	69.36
998.106	104.62
998.269	59.87
998.432	66.07
998.595	96.29
998.758	42.62
998.92	42.24
999.083	13.37
999.246	80.41
999.409	38.56
999.572	23.64
999.735	48.05
999.897	84.67
1000.06	49.02
1000.223	84.09
1000.386	83.51
1000.548	106.56
1000.711	82.15
1000.874	92.8
1001.036	18.21
1001.199	113.92
1001.361	48.24
1001.524	79.63
1001.687	111.6
1001.849	55.61
1002.012	67.23
1002.174	81.57
1002.337	80.79
1002.499	46.31
1002.661	116.64
1002.824	35.84
1002.986	42.43
1003.149	81.96
1003.311	38.94
1003.473	141.05
1003.636	62.58
1003.798	79.44
1003.96	72.07
1004.123	68.39
1004.285	73.62
1004.447	67.04
1004.609	48.82
1004.771	103.07
1004.933	34.49
1005.096	41.66
1005.258	17.44
1005.42	35.65
1005.582	96.49
1005.744	62.97
1005.906	16.27
1006.068	47.66
1006.23	7.94
1006.392	-11.62
1006.554	23.25
1006.716	81.96
1006.878	91.06
1007.04	21.89
1007.202	22.86
1007.363	83.89
1007.525	44.56
1007.687	44.17
1007.849	77.11
1008.011	-6.59
1008.172	21.51
1008.334	47.27
1008.496	71.3
1008.658	12.59
1008.819	32.94
1008.981	10.85
1009.143	15.31
1009.304	59.48
1009.466	85.25
1009.627	94.94
1009.789	141.05
1009.95	50.37
1010.112	43.79
1010.273	51.54
1010.435	37.59
1010.596	31.97
1010.758	15.69
1010.919	59.09
1011.081	28.87
1011.242	62
1011.403	78.86
1011.565	32.94
1011.726	64.91
1011.887	-12.79
1012.049	27.51
1012.21	96.49
1012.371	100.36
1012.532	-37.59
1012.693	37.2
1012.855	16.47
1013.016	38.36
1013.177	73.82
1013.338	13.76
1013.499	116.64
1013.66	75.95
1013.821	84.86
1013.982	62.39
1014.143	49.02
1014.304	38.17
1014.465	73.04
1014.626	41.46
1014.787	32.36
1014.948	111.99
1015.109	-45.14
1015.27	92.03
1015.431	-13.76
1015.592	36.04
1015.752	74.59
1015.913	37.59
1016.074	46.5
1016.235	38.75
1016.395	41.66
1016.556	26.74
1016.717	41.27
1016.877	90.29
1017.038	14.72
1017.199	62.97
1017.359	47.08
1017.52	48.82
1017.681	20.73
1017.841	23.06
1018.002	42.04
1018.162	2.91
1018.323	87.96
1018.483	30.81
1018.644	13.76
1018.804	-16.27
1018.964	-9.49
1019.125	18.79
1019.285	43.79
1019.446	12.21
1019.606	-18.21
1019.766	-16.86
1019.926	49.79
1020.087	43.79
1020.247	-4.07
1020.407	45.92
1020.567	58.9
1020.728	49.6
1020.888	0.19
1021.048	1.94
1021.208	8.52
1021.368	7.75
1021.528	88.93
1021.688	64.32
1021.848	49.02
1022.008	24.8
1022.168	19.37
1022.328	32.55
1022.488	49.99
1022.648	30.61
1022.808	36.81
1022.968	6.59
1023.128	19.18
1023.288	6.01
1023.448	22.09
1023.608	56.96
1023.767	57.35
1023.927	-4.65
1024.087	1.55
1024.247	-12.59
1024.406	6.2
1024.566	2.32
1024.726	-5.04
1024.885	28.09
1025.045	41.27
1025.205	7.36
1025.364	11.04
1025.524	38.17
1025.683	5.81
1025.843	59.87
1026.003	24.41
1026.162	66.26
1026.321	76.72
1026.481	31.77
1026.64	13.76
1026.8	6.78
1026.959	31
1027.119	47.08
1027.278	9.88
1027.437	-3.1
1027.597	24.02
1027.756	46.31
1027.915	29.45
1028.074	54.64
1028.234	3.29
1028.393	20.73
1028.552	16.08
1028.711	-51.92
1028.87	67.81
1029.03	-20.92
1029.189	-11.62
1029.348	-29.45
1029.507	7.94
1029.666	15.11
1029.825	-11.43
1029.984	19.76
1030.143	30.03
1030.302	21.89
1030.461	-27.9
1030.62	-0
1030.779	43.01
1030.938	-12.4
1031.097	-0.58
1031.255	54.64
1031.414	84.86
1031.573	49.6
1031.732	-39.14
1031.891	0.58
1032.049	85.06
1032.208	43.59
1032.367	-0.19
1032.525	19.96
1032.684	-10.07
1032.843	28.67
1033.001	-50.96
1033.16	170.5
1033.319	56.77
1033.477	23.44
1033.636	2.13
1033.794	-41.07
1033.953	62.39
1034.111	46.69
1034.27	-17.24
1034.428	45.34
1034.587	-1.74
1034.745	22.47
1034.903	3.87
1035.062	21.51
1035.22	-6.97
1035.378	38.17
1035.537	-23.83
1035.695	43.98
1035.853	23.25
1036.011	36.81
1036.17	23.06
1036.328	-49.79
1036.486	35.26
1036.644	29.45
1036.802	-74.59
1036.96	-21.31
1037.119	12.59
1037.277	-2.91
1037.435	-37.01
1037.593	10.07
1037.751	13.37
1037.909	63.16
1038.067	63.16
