Data from gum_old_FLMT105791__122__15-46-11-253.txt Node

Date: Mon Mar 20 15:46:11 GMT 2023
User: antho
Spectrometer: FLMT10579
Trigger mode: 0
Integration Time (sec): 1.000000E-1
Scans to average: 10
Electric dark correction enabled: true
Nonlinearity correction enabled: false
Boxcar width: 0
XAxis mode: Wavelengths
Number of Pixels in Spectrum: 3648
>>>>>Begin Spectral Data<<<<<
345.248	-172.14
345.464	-172.14
345.681	-172.14
345.898	-196.17
346.114	-195.2
346.331	-40.98
346.548	23.15
346.764	10.37
346.981	-13.27
347.197	-27.42
347.414	32.84
347.631	-27.8
347.847	58.41
348.064	-13.27
348.28	43.88
348.497	-52.6
348.713	6.68
348.93	39.82
349.146	27.42
349.363	7.85
349.579	22.57
349.796	2.81
350.012	-14.24
350.229	36.52
350.445	-0.68
350.661	-22.57
350.878	22.57
351.094	27.03
351.311	17.15
351.527	26.25
351.743	10.37
351.96	52.6
352.176	44.27
352.392	54.93
352.609	31.68
352.825	-9.2
353.041	36.52
353.257	2.23
353.474	17.34
353.69	31.29
353.906	47.18
354.122	-5.72
354.339	95.61
354.555	8.82
354.771	12.11
354.987	82.63
355.203	71.4
355.42	15.79
355.636	5.52
355.852	5.72
356.068	34.78
356.284	-8.23
356.5	56.67
356.716	56.48
356.932	11.92
357.148	67.13
357.364	6.3
357.58	58.22
357.796	84.38
358.012	63.26
358.228	42.53
358.444	-56.67
358.66	68.3
358.876	49.89
359.092	-11.92
359.308	17.15
359.524	51.25
359.74	8.04
359.956	8.43
360.172	37.88
360.388	57.45
360.604	-5.13
360.819	118.28
361.035	39.43
361.251	80.5
361.467	1.65
361.683	47.76
361.898	36.91
362.114	80.5
362.33	36.72
362.546	56.48
362.762	22.96
362.977	30.13
363.193	0.48
363.409	81.86
363.624	17.53
363.84	9.2
364.056	11.72
364.271	42.14
364.487	10.37
364.703	21.6
364.918	-3.2
365.134	34.78
365.35	18.31
365.565	110.73
365.781	77.01
365.996	60.55
366.212	105.5
366.427	49.5
366.643	31.29
366.858	26.25
367.074	9.98
367.289	85.93
367.505	155.68
367.72	-14.24
367.936	38.27
368.151	59.77
368.367	73.53
368.582	72.36
368.798	9.01
369.013	122.35
369.228	33.42
369.444	66.55
369.659	91.55
369.874	61.71
370.09	95.61
370.305	-16.57
370.52	21.41
370.736	102.4
370.951	34.78
371.166	86.12
371.381	131.65
371.597	82.05
371.812	17.92
372.027	3.58
372.242	48.15
372.458	128.94
372.673	39.23
372.888	53.76
373.103	64.61
373.318	148.12
373.533	76.43
373.749	40.78
373.964	-25.67
374.179	84.38
374.394	32.84
374.609	100.46
374.824	16.76
375.039	81.47
375.254	32.65
375.469	104.14
375.684	75.85
375.899	106.27
376.114	53.38
376.329	96.2
376.544	100.07
376.759	83.6
376.974	36.33
377.189	28.58
377.404	34.2
377.619	85.15
377.834	-4.55
378.049	32.65
378.264	32.45
378.478	70.43
378.693	49.89
378.908	94.45
379.123	44.08
379.338	118.09
379.553	54.15
379.767	89.8
379.982	65.2
380.197	81.28
380.412	64.61
380.626	84.96
380.841	155.48
381.056	83.6
381.271	163.23
381.485	53.96
381.7	26.25
381.915	53.76
382.129	50.28
382.344	60.55
382.559	64.61
382.773	95.81
382.988	14.82
383.202	44.08
383.417	22.77
383.632	138.82
383.846	66.36
384.061	79.92
384.275	25.67
384.49	64.03
384.704	71.98
384.919	71.01
385.133	65.2
385.348	120.61
385.562	48.73
385.777	129.52
385.991	77.21
386.206	51.25
386.42	58.22
386.634	108.4
386.849	85.93
387.063	68.88
387.277	57.45
387.492	53.38
387.706	39.62
387.92	25.67
388.135	127
388.349	72.95
388.563	94.45
388.778	68.88
388.992	132.62
389.206	102.4
389.42	158.78
389.635	40.4
389.849	115.18
390.063	114.21
390.277	124.68
390.491	177.57
390.706	130.3
390.92	143.28
391.134	112.47
391.348	121.58
391.562	46.4
391.776	87.09
391.99	102.98
392.205	130.3
392.419	82.44
392.633	75.66
392.847	170.98
393.061	53.57
393.275	143.28
393.489	62.1
393.703	76.82
393.917	131.26
394.131	44.66
394.345	110.53
394.559	126.42
394.773	65.2
394.986	116.15
395.2	116.35
395.414	128.55
395.628	97.36
395.842	121.38
396.056	105.3
396.27	60.55
396.484	126.23
396.697	152.77
396.911	155.29
397.125	98.13
397.339	139.4
397.553	96.97
397.766	146.38
397.98	135.14
398.194	159.74
398.408	112.47
398.621	150.44
398.835	167.11
399.049	157.81
399.262	192.88
399.476	187.64
399.69	173.5
399.903	238.41
400.117	154.9
400.331	195.59
400.544	133.78
400.758	291.49
400.971	174.47
401.185	205.66
401.398	145.21
401.612	206.05
401.826	194.81
402.039	205.66
402.253	143.28
402.466	220.39
402.68	173.31
402.893	198.11
403.106	182.8
403.32	176.99
403.533	201.59
403.747	167.49
403.96	206.83
404.174	224.84
404.387	159.94
404.6	177.76
404.814	252.55
405.027	201.59
405.24	189.19
405.454	182.41
405.667	226.97
405.88	110.73
406.094	226.59
406.307	230.07
406.52	219.03
406.733	184.54
406.947	151.22
407.16	256.62
407.373	226.2
407.586	183.96
407.799	154.32
408.012	244.02
408.226	194.23
408.439	251.39
408.652	167.49
408.865	221.36
409.078	278.12
409.291	236.86
409.504	186.29
409.717	244.41
409.93	273.86
410.143	210.89
410.357	150.25
410.57	137.85
410.783	184.93
410.996	218.64
411.209	221.16
411.421	251
411.634	238.6
411.847	210.12
412.06	240.92
412.273	237.44
412.486	244.99
412.699	330.24
412.912	240.92
413.125	278.51
413.338	265.34
413.55	251.19
413.763	244.99
413.976	235.69
414.189	234.72
414.402	238.41
414.615	320.36
414.827	215.35
415.04	298.08
415.253	271.34
415.466	291.88
415.678	328.89
415.891	259.33
416.104	267.27
416.316	257.59
416.529	231.62
416.742	308.93
416.954	301.18
417.167	254.29
417.38	269.21
417.592	318.23
417.805	235.11
418.017	212.25
418.23	279.67
418.442	260.69
418.655	251.39
418.868	252.55
419.08	292.66
419.293	335.09
419.505	286.84
419.718	260.49
419.93	315.32
420.142	274.64
420.355	320.75
420.567	315.9
420.78	294.4
420.992	284.52
421.205	337.41
421.417	278.12
421.629	287.81
421.842	248.67
422.054	231.24
422.266	335.28
422.479	322.3
422.691	274.06
422.903	313.39
423.115	249.64
423.328	252.74
423.54	267.86
423.752	297.11
423.964	248.09
424.177	304.86
424.389	290.33
424.601	395.73
424.813	308.74
425.025	329.66
425.238	349.42
425.45	308.93
425.662	296.72
425.874	624.93
426.086	293.43
426.298	316.87
426.51	297.69
426.722	320.55
426.934	291.3
427.146	321.33
427.358	259.52
427.57	345.94
427.782	262.62
427.994	301.96
428.206	284.32
428.418	268.05
428.63	338.38
428.842	354.07
429.054	311.45
429.266	348.84
429.478	267.47
429.69	317.26
429.902	279.29
430.114	313.77
430.325	290.72
430.537	287.62
430.749	270.18
430.961	202.37
431.173	261.46
431.384	285.29
431.596	184.93
431.808	267.08
432.02	322.3
432.231	358.92
432.443	389.34
432.655	333.54
432.867	314.35
433.078	351.55
433.29	409.68
433.502	400.77
433.713	376.74
433.925	355.04
434.136	399.8
434.348	295.76
434.56	254.1
434.771	426.53
434.983	288.59
435.194	314.55
435.406	343.61
435.617	374.8
435.829	442.03
436.04	398.05
436.252	405.42
436.463	419.95
436.675	428.08
436.886	398.44
437.098	393.21
437.309	456.95
437.521	391.47
437.732	399.02
437.943	385.07
438.155	364.73
438.366	347.68
438.578	422.08
438.789	375
439	415.49
439.211	358.34
439.423	385.65
439.634	422.66
439.845	444.17
440.057	377.52
440.268	422.66
440.479	390.69
440.69	425.76
440.902	393.79
441.113	398.05
441.324	407.16
441.535	412.78
441.746	485.63
441.957	395.15
442.168	404.25
442.38	444.17
442.591	472.26
442.802	410.45
443.013	424.98
443.224	467.22
443.435	393.21
443.646	445.33
443.857	427.7
444.068	434.67
444.279	408.71
444.49	509.07
444.701	444.17
444.912	536.78
445.123	510.81
445.334	506.36
445.545	448.23
445.756	458.5
445.967	418.59
446.178	457.34
446.388	489.11
446.599	484.46
446.81	458.5
447.021	422.85
447.232	502.68
447.443	507.71
447.653	459.47
447.864	498.8
448.075	508.68
448.286	521.08
448.496	500.35
448.707	534.45
448.918	471.48
449.129	575.91
449.339	475.36
449.55	483.88
449.761	462.18
449.971	557.12
450.182	483.5
450.393	498.41
450.603	487.76
450.814	535.42
451.024	534.06
451.235	567.39
451.446	579.79
451.656	572.43
451.867	509.65
452.077	534.06
452.288	563.32
452.498	575.53
452.709	483.5
452.919	538.33
453.13	461.99
453.34	547.43
453.55	463.15
453.761	536.39
453.971	544.33
454.182	515.46
454.392	527.28
454.602	606.53
454.813	565.84
455.023	547.43
455.233	486.79
455.444	523.99
455.654	440.29
455.864	528.45
456.075	504.81
456.285	492.21
456.495	499.96
456.705	536
456.916	574.56
457.126	605.36
457.336	579.21
457.546	474.2
457.756	496.48
457.967	590.64
458.177	527.48
458.387	548.01
458.597	511.98
458.807	524.76
459.017	554.41
459.227	515.66
459.437	510.04
459.647	579.4
459.857	570.49
460.068	491.44
460.278	613.69
460.488	566.42
460.698	613.31
460.908	547.63
461.117	501.71
461.327	533.48
461.537	585.02
461.747	566.61
461.957	566.03
462.167	659.22
462.377	618.93
462.587	562.93
462.797	595.87
463.007	577.46
463.216	601.49
463.426	648.76
463.636	598.97
463.846	541.62
464.056	569.71
464.265	582.31
464.475	535.42
464.685	596.45
464.895	613.69
465.104	568.74
465.314	624.93
465.524	563.71
465.733	571.26
465.943	668.91
466.153	673.37
466.362	633.07
466.572	621.64
466.782	598.19
466.991	631.33
467.201	660.39
467.41	541.23
467.62	588.7
467.829	588.51
468.039	621.44
468.249	617.96
468.458	618.73
468.668	632.1
468.877	642.95
469.086	693.71
469.296	669.69
469.505	630.94
469.715	699.52
469.924	665.23
470.134	693.71
470.343	677.63
470.552	644.69
470.762	629
470.971	607.88
471.18	649.93
471.39	652.64
471.599	602.07
471.808	687.12
472.018	634.04
472.227	718.51
472.436	731.49
472.645	692.55
472.855	671.04
473.064	754.55
473.273	736.92
473.482	734.98
473.691	759
473.901	723.94
474.11	695.65
474.319	811.9
474.528	738.86
474.737	767.34
474.946	745.44
475.155	778.96
475.364	789.42
475.573	751.06
475.783	776.83
475.992	785.94
476.201	806.86
476.41	755.71
476.619	737.11
476.828	765.98
477.037	753.97
477.245	755.32
477.454	800.47
477.663	768.3
477.872	778.77
478.081	872.73
478.29	785.35
478.499	927.56
478.708	854.33
478.917	900.83
479.125	836.89
479.334	828.56
479.543	843.48
479.752	863.63
479.961	849.48
480.169	887.65
480.378	874.87
480.587	991.7
480.796	882.81
481.004	879.9
481.213	892.11
481.422	900.83
481.63	908.58
481.839	922.72
482.048	973.87
482.256	931.25
482.465	976.78
482.674	943.06
482.882	943.65
483.091	1006.03
483.299	946.94
483.508	998.28
483.716	951.4
483.925	961.66
484.134	899.47
484.342	917.3
484.551	990.92
484.759	964.96
484.967	1004.1
485.176	1009.91
485.384	1041.1
485.593	1002.55
485.801	987.05
486.01	965.15
486.218	906.45
486.426	851.03
486.635	869.83
486.843	846.97
487.051	895.4
487.26	858.2
487.468	944.81
487.676	972.13
487.885	925.82
488.093	961.08
488.301	988.98
488.509	984.33
488.717	1042.46
488.926	1015.33
489.134	982.2
489.342	1021.92
489.55	969.61
489.758	1031.61
489.967	1012.81
490.175	1092.83
490.383	1030.06
490.591	1143.21
490.799	1033.54
491.007	1128.09
491.215	1083.14
491.423	1088.76
491.631	1089.15
491.839	1083.14
492.047	1143.79
492.255	1039.74
492.463	999.64
492.671	1037.81
492.879	1125.19
493.087	1044.78
493.295	1109.11
493.503	1123.83
493.711	1146.5
493.919	1135.46
494.127	1142.43
494.334	1157.74
494.542	1074.04
494.75	1131.19
494.958	1095.93
495.166	1176.34
495.374	1160.64
495.581	1139.72
495.789	1164.13
495.997	1263.14
496.205	1124.02
496.412	1142.82
496.62	1156.38
496.828	1209.66
497.035	1170.14
497.243	1216.64
497.451	1205.01
497.658	1187.19
497.866	1182.73
498.074	1266.62
498.281	1172.07
498.489	1268.37
498.696	1195.9
498.904	1157.54
499.112	1121.7
499.319	1273.79
499.527	1171.69
499.734	1236.98
499.942	1142.43
500.149	1204.82
500.357	1225.55
500.564	1138.36
500.771	1213.54
500.979	1166.46
501.186	1141.46
501.394	1209.85
501.601	1150.76
501.808	1210.44
502.016	1190.09
502.223	1178.08
502.43	1171.69
502.638	1172.66
502.845	1140.49
503.052	1255.19
503.26	1201.52
503.467	1269.33
503.674	1215.86
503.881	1233.88
504.089	1301.5
504.296	1241.44
504.503	1185.44
504.71	1227.49
504.917	1169.36
505.125	1214.7
505.332	1229.81
505.539	1251.51
505.746	1317.19
505.953	1299.17
506.16	1303.05
506.367	1355.16
506.574	1324.55
506.781	1346.06
506.988	1283.87
507.195	1282.7
507.402	1272.24
507.609	1321.65
507.816	1279.41
508.023	1270.88
508.23	1249.96
508.437	1256.16
508.644	1294.72
508.851	1328.43
509.058	1334.63
509.265	1328.43
509.472	1317.58
509.679	1394.88
509.885	1338.89
510.092	1325.33
510.299	1322.03
510.506	1302.85
510.713	1329.98
510.92	1330.37
511.126	1312.73
511.333	1357.1
511.54	1379.96
511.746	1419.88
511.953	1365.43
512.16	1425.5
512.367	1357.68
512.573	1372.02
512.78	1353.23
512.987	1337.34
513.193	1332.88
513.4	1271.66
513.606	1379.38
513.813	1342.77
514.02	1338.89
514.226	1434.02
514.433	1407.86
514.639	1306.34
514.846	1359.43
515.052	1296.27
515.259	1355.55
515.465	1380.55
515.672	1360.78
515.878	1450.49
516.085	1377.25
516.291	1439.45
516.497	1391.01
516.704	1369.31
516.91	1351.48
517.117	1298.59
517.323	1209.27
517.529	1263.14
517.736	1248.99
517.942	1276.7
518.148	1286.77
518.354	1345.67
518.561	1337.92
518.767	1339.28
518.973	1378.03
519.179	1341.6
519.386	1347.61
519.592	1358.26
519.798	1338.5
520.004	1472.38
520.21	1421.23
520.417	1473.35
520.623	1507.64
520.829	1501.64
521.035	1502.22
521.241	1512.29
521.447	1528.38
521.653	1654.5
521.859	1498.93
522.065	1552.79
522.271	1625.64
522.477	1623.31
522.683	1652.37
522.889	1570.81
523.095	1569.06
523.301	1596.38
523.507	1530.89
523.713	1550.66
523.919	1565.77
524.125	1640.36
524.331	1621.37
524.537	1701.97
524.742	1677.37
524.948	1683.76
525.154	1706.62
525.36	1781.99
525.566	1676.59
525.772	1757.38
525.977	1630.29
526.183	1710.88
526.389	1780.44
526.595	1680.66
526.8	1663.42
527.006	1582.62
527.212	1586.89
527.417	1583.98
527.623	1547.36
527.829	1615.37
528.034	1665.16
528.24	1639.39
528.446	1652.76
528.651	1778.5
528.857	1772.69
529.062	1800.2
529.268	1809.5
529.473	1800.78
529.679	1807.37
529.884	1880.22
530.09	1812.21
530.295	1846.9
530.501	1862.59
530.706	1817.25
530.912	1799.04
531.117	1848.45
531.323	1844.38
531.528	1900.95
531.733	1882.54
531.939	1854.65
532.144	1908.89
532.35	1879.25
532.555	1955.2
532.76	1883.9
532.966	1905.6
533.171	1853.29
533.376	1801.95
533.581	1754.87
533.787	1837.21
533.992	1876.93
534.197	1889.71
534.402	1876.15
534.607	1898.63
534.813	1978.26
535.018	1878.09
535.223	1907.34
535.428	1908.7
535.633	1972.25
535.838	1969.73
536.043	1964.69
536.249	2069.32
536.454	1954.81
536.659	2027.27
536.864	1944.35
537.069	1957.14
537.274	1968.37
537.479	1968.96
537.684	1944.16
537.889	1860.26
538.094	2019.33
538.299	1990.85
538.504	1958.3
538.708	2001.51
538.913	2046.26
539.118	1982.52
539.323	2019.91
539.528	1969.73
539.733	1974.57
539.938	1998.99
540.142	2034.44
540.347	1955.78
540.552	1928.85
540.757	1953.65
540.962	1954.43
541.166	1889.33
541.371	1891.65
541.576	1925.56
541.781	1808.53
541.985	1958.69
542.19	1954.04
542.395	2030.96
542.599	2073.58
542.804	2044.32
543.008	2086.37
543.213	1975.16
543.418	1927.11
543.622	2017.59
543.827	1923.04
544.031	2026.89
544.236	2073
544.44	2046.07
544.645	2139.84
544.849	2010.22
545.054	2062.34
545.258	2100.12
545.463	2122.99
545.667	2012.36
545.872	2082.88
546.076	2043.55
546.281	2064.86
546.485	2029.79
546.689	2093.92
546.894	2120.85
547.098	2055.56
547.302	2044.52
547.507	2059.63
547.711	2101.87
547.915	2137.32
548.119	2017.97
548.324	2032.7
548.528	2090.44
548.732	2051.11
548.936	2122.21
549.141	2111.36
549.345	2053.82
549.549	2064.28
549.753	2064.09
549.957	2165.03
550.161	2171.23
550.366	2118.34
550.57	2063.12
550.774	2065.25
550.978	2099.15
551.182	2121.63
551.386	2062.15
551.59	2069.51
551.794	2054.01
551.998	2078.62
552.202	2069.12
552.406	2058.66
552.61	2141.2
552.814	2115.62
553.018	2195.64
553.222	2086.56
553.426	2065.44
553.63	2192.15
553.833	2093.73
554.037	2000.92
554.241	2113.88
554.445	2097.6
554.649	2102.64
554.853	2043.36
555.056	2170.07
555.26	2148.95
555.464	2121.82
555.668	2125.5
555.871	2150.69
556.075	2141.58
556.279	2070.29
556.483	2073.77
556.686	2042.19
556.89	2077.84
557.094	2068.74
557.297	2019.33
557.501	2118.34
557.704	1985.23
557.908	2083.07
558.112	1992.21
558.315	2136.94
558.519	2034.64
558.722	2030.96
558.926	2031.34
559.129	1945.13
559.333	1964.69
559.536	1933.69
559.74	1945.9
559.943	1926.53
560.147	1928.27
560.35	1957.14
560.553	1931.76
560.757	1918
560.96	2032.7
561.164	1919.55
561.367	2004.8
561.57	1967.41
561.774	1964.69
561.977	1960.24
562.18	1912.96
562.384	2036.57
562.587	1939.7
562.79	1899.4
562.993	1884.48
563.197	1962.37
563.4	1985.81
563.603	1989.88
563.806	2067.38
564.009	1911.61
564.212	1933.31
564.416	1872.28
564.619	1952.29
564.822	1821.71
565.025	1922.26
565.228	1887.78
565.431	1902.31
565.634	1818.41
565.837	1856.2
566.04	1833.53
566.243	1828.88
566.446	1726.77
566.649	1834.69
566.852	1761.84
567.055	1807.76
567.258	1817.45
567.461	1914.51
567.664	1885.06
567.867	1754.67
568.07	1843.41
568.273	1837.98
568.475	1866.08
568.678	1791.48
568.881	1761.45
569.084	1774.43
569.287	1718.63
569.489	1730.26
569.692	1739.37
569.895	1775.6
570.098	1666.71
570.3	1715.34
570.503	1642.88
570.706	1681.05
570.909	1681.44
571.111	1622.54
571.314	1591.15
571.516	1634.16
571.719	1627.38
571.922	1613.24
572.124	1660.32
572.327	1683.76
572.529	1603.36
572.732	1654.12
572.935	1642.88
573.137	1764.36
573.34	1663.8
573.542	1708.37
573.745	1686.86
573.947	1654.12
574.15	1647.14
574.352	1605.1
574.554	1696.16
574.757	1615.95
574.959	1573.91
575.162	1597.74
575.364	1589.79
575.566	1703.33
575.769	1551.24
575.971	1614.4
576.173	1477.42
576.376	1551.24
576.578	1622.34
576.78	1623.5
576.982	1484.39
577.185	1551.62
577.387	1532.44
577.589	1484.01
577.791	1566.35
577.993	1561.31
578.196	1547.75
578.398	1546.97
578.6	1589.21
578.802	1481.49
579.004	1470.06
579.206	1483.62
579.408	1555.31
579.61	1477.23
579.812	1529.73
580.014	1493.5
580.216	1473.74
580.418	1484.39
580.62	1485.75
580.822	1440.41
581.024	1478.19
581.226	1549.69
581.428	1466.18
581.63	1552.98
581.832	1475.29
582.034	1514.81
582.236	1464.44
582.438	1541.74
582.64	1527.02
582.841	1581.07
583.043	1603.16
583.245	1509.39
583.447	1518.49
583.649	1506.09
583.85	1485.94
584.052	1546.39
584.254	1445.06
584.456	1558.02
584.657	1470.64
584.859	1488.08
585.061	1450.1
585.262	1448.55
585.464	1421.04
585.666	1527.6
585.867	1428.21
586.069	1513.65
586.27	1440.8
586.472	1435.18
586.674	1396.43
586.875	1438.67
587.077	1419.68
587.278	1467.93
587.48	1427.43
587.681	1534.77
587.883	1449.91
588.084	1390.23
588.285	1406.9
588.487	1399.73
588.688	1426.27
588.89	1330.75
589.091	1309.25
589.292	1342.38
589.494	1279.02
589.695	1286.19
589.896	1200.17
590.098	1220.32
590.299	1253.45
590.5	1214.12
590.702	1255.58
590.903	1288.9
591.104	1340.63
591.305	1345.67
591.507	1372.99
591.708	1347.22
591.909	1313.7
592.11	1385
592.311	1373.96
592.512	1317.97
592.714	1259.07
592.915	1298.4
593.116	1298.2
593.317	1337.15
593.518	1311.96
593.719	1297.23
593.92	1372.41
594.121	1336.76
594.322	1363.3
594.523	1346.83
594.724	1275.53
594.925	1323
595.126	1328.04
595.327	1316.61
595.528	1289.48
595.729	1304.6
595.929	1316.03
596.13	1310.99
596.331	1349.55
596.532	1322.23
596.733	1356.71
596.934	1345.87
597.135	1344.32
597.335	1332.3
597.536	1298.2
597.737	1336.76
597.938	1295.49
598.138	1337.15
598.339	1282.7
598.54	1318.35
598.74	1299.56
598.941	1318.35
599.142	1355.16
599.342	1298.2
599.543	1268.95
599.744	1271.85
599.944	1270.11
600.145	1298.4
600.345	1315.83
600.546	1372.02
600.746	1342.38
600.947	1395.08
601.147	1297.82
601.348	1346.06
601.548	1279.6
601.749	1281.54
601.949	1245.5
602.15	1278.25
602.35	1275.34
602.551	1299.95
602.751	1271.66
602.951	1249.38
603.152	1195.13
603.352	1288.52
603.552	1257.9
603.753	1286.38
603.953	1282.12
604.153	1307.12
604.354	1263.14
604.554	1273.4
604.754	1248.8
604.954	1228.07
605.155	1268.56
605.355	1286.38
605.555	1319.32
605.755	1320.87
605.955	1273.02
606.155	1283.48
606.356	1257.71
606.556	1285.61
606.756	1270.3
606.956	1197.65
607.156	1310.99
607.356	1234.65
607.556	1272.05
607.756	1265.07
607.956	1307.5
608.156	1246.47
608.356	1225.55
608.556	1247.83
608.756	1239.69
608.956	1216.64
609.156	1260.42
609.356	1161.22
609.556	1195.71
609.755	1240.08
609.955	1202.69
610.155	1252.87
610.355	1204.62
610.555	1218.19
610.755	1220.32
610.954	1185.64
611.154	1199
611.354	1217.99
611.554	1156.96
611.753	1193.19
611.953	1132.74
612.153	1210.05
612.352	1205.98
612.552	1144.37
612.752	1092.06
612.951	1173.82
613.151	1213.92
613.351	1141.27
613.55	1174.01
613.75	1191.84
613.949	1157.16
614.149	1186.8
614.348	1167.23
614.548	1120.92
614.747	1090.7
614.947	1138.17
615.146	1059.51
615.346	1186.99
615.545	1151.15
615.745	1149.02
615.944	1149.41
616.144	1140.88
616.343	1147.08
616.542	1154.44
616.742	1106.39
616.941	1090.12
617.14	1040.33
617.34	1133.91
617.539	1102.71
617.738	1060.28
617.938	1164.71
618.137	1099.42
618.336	1060.67
618.535	1124.99
618.734	1096.51
618.934	1120.92
619.133	1112.98
619.332	1166.84
619.531	1072.88
619.73	1110.85
619.929	1165.1
620.128	1111.43
620.328	1181.95
620.527	1100.77
620.726	1066.09
620.925	1114.14
621.124	1076.94
621.323	1092.06
621.522	1048.85
621.721	1064.54
621.92	1056.99
622.119	1103.49
622.318	1062.8
622.517	1077.91
622.715	1061.83
622.914	1052.73
623.113	1047.69
623.312	998.09
623.511	1098.64
623.71	1080.24
623.909	1044.39
624.107	1117.44
624.306	1030.25
624.505	1038.39
624.704	1033.35
624.902	1038.19
625.101	1082.37
625.3	1059.89
625.499	1015.53
625.697	1007.58
625.896	991.11
626.095	1040.91
626.293	981.81
626.492	989.37
626.69	1060.09
626.889	978.91
627.088	1073.26
627.286	972.71
627.485	979.68
627.683	957.79
627.882	1019.4
628.08	940.55
628.279	997.31
628.477	1072.49
628.676	976.2
628.874	1021.34
629.073	971.16
629.271	974.06
629.469	1044.98
629.668	969.03
629.866	1001.19
630.065	965.35
630.263	1011.65
630.461	964.38
630.66	952.36
630.858	1012.43
631.056	1006.61
631.254	1013.98
631.453	955.08
631.651	1001.96
631.849	972.32
632.047	984.72
632.245	934.93
632.444	971.55
632.642	983.56
632.84	1002.16
633.038	936.28
633.236	932.41
633.434	946.55
633.632	903.15
633.83	959.53
634.028	976
634.227	966.12
634.425	1041.1
634.623	948.3
634.821	964.18
635.019	965.93
635.216	929.7
635.414	983.95
635.612	970.77
635.81	961.08
636.008	1019.59
636.206	955.46
636.404	984.14
636.602	915.75
636.8	932.8
636.997	975.03
637.195	995.76
637.393	933.57
637.591	1018.04
637.789	1011.26
637.986	936.48
638.184	971.16
638.382	1001
638.58	978.33
638.777	1024.83
638.975	972.9
639.173	973.1
639.37	964.18
639.568	990.15
639.765	965.73
639.963	912.45
640.161	994.41
640.358	976.97
640.556	901.6
640.753	916.72
640.951	906.45
641.148	953.14
641.346	924.46
641.543	922.91
641.741	914.2
641.938	889.78
642.136	919.62
642.333	869.05
642.531	952.17
642.728	1009.33
642.925	903.73
643.123	915.55
643.32	947.71
643.517	900.44
643.715	929.5
643.912	926.4
644.109	933.18
644.306	894.24
644.504	882.03
644.701	948.3
644.898	919.62
645.095	890.75
645.293	916.13
645.49	941.32
645.687	912.26
645.884	927.95
646.081	862.47
646.278	858.98
646.475	882.62
646.672	882.62
646.87	914.2
647.067	874.48
647.264	888.43
647.461	841.54
647.658	808.8
647.855	882.62
648.052	856.85
648.249	759.97
648.446	843.09
648.642	811.12
648.839	816.35
649.036	824.3
649.233	793.1
649.43	816.35
649.627	770.44
649.824	826.24
650.021	804.73
650.217	788.07
650.414	813.25
650.611	847.35
650.808	798.72
651.004	822.36
651.201	856.27
651.398	872.35
651.595	801.05
651.791	784.97
651.988	853.17
652.185	823.52
652.381	820.62
652.578	785.16
652.775	833.6
652.971	787.1
653.168	811.7
653.364	820.62
653.561	765.98
653.757	797.17
653.954	793.3
654.15	764.04
654.347	871.96
654.543	828.75
654.74	757.84
654.936	726.26
655.133	798.53
655.329	795.04
655.525	789.04
655.722	849.48
655.918	747.96
656.115	835.92
656.311	716.38
656.507	665.81
656.704	627.06
656.9	698.94
657.096	669.3
657.292	671.43
657.489	756.68
657.685	762.1
657.881	745.05
658.077	699.33
658.273	714.44
658.47	781.67
658.666	767.72
658.862	764.82
659.058	744.47
659.254	823.14
659.45	756.49
659.646	763.85
659.842	766.56
660.038	808.99
660.234	717.93
660.43	770.82
660.626	823.33
660.822	811.9
661.018	832.82
661.214	800.66
661.41	728.2
661.606	818.68
661.802	813.84
661.998	786.13
662.194	770.05
662.39	804.15
662.586	763.85
662.781	799.3
662.977	804.34
663.173	809.19
663.369	787.1
663.564	768.11
663.76	828.75
663.956	768.5
664.152	796.79
664.347	729.94
664.543	774.5
664.739	753.77
664.934	720.84
665.13	706.31
665.326	784.39
665.521	748.93
665.717	759.2
665.912	737.69
666.108	690.22
666.304	739.24
666.499	745.05
666.695	672.4
666.89	720.26
667.086	777.22
667.281	769.47
667.477	825.85
667.672	772.18
667.867	741.96
668.063	772.57
668.258	731.69
668.454	725.49
668.649	814.61
668.844	761.72
669.04	769.66
669.235	747.38
669.43	727.04
669.626	699.14
669.821	735.76
670.016	698.56
670.211	739.63
670.407	710.18
670.602	759.78
670.797	742.92
670.992	747.96
671.187	683.25
671.382	758.42
671.578	714.83
671.773	730.72
671.968	690.22
672.163	735.56
672.358	750.87
672.553	714.83
672.748	712.89
672.943	786.13
673.138	745.83
673.333	751.45
673.528	689.26
673.723	732.66
673.918	719.29
674.113	697.97
674.308	820.62
674.503	732.66
674.698	740.99
674.892	712.7
675.087	776.44
675.282	776.44
675.477	698.56
675.672	722.77
675.867	729.17
676.061	674.53
676.256	658.84
676.451	693.91
676.646	720.45
676.84	683.83
677.035	655.16
677.23	666.2
677.424	725.1
677.619	756.68
677.814	757.65
678.008	732.46
678.203	656.51
678.397	655.16
678.592	697.2
678.787	758.62
678.981	704.17
679.176	718.32
679.37	719.29
679.565	670.27
679.759	682.28
679.954	710.57
680.148	782.84
680.342	790.2
680.537	734.01
680.731	709.99
680.926	736.53
681.12	731.49
681.314	683.25
681.509	715.8
681.703	709.41
681.897	735.17
682.092	691.39
682.286	670.46
682.48	769.85
682.674	754.74
682.869	686.74
683.063	703.98
683.257	762.88
683.451	671.82
683.645	714.44
683.839	718.71
684.034	697.59
684.228	734.59
684.422	648.18
684.616	652.44
684.81	744.67
685.004	696.04
685.198	709.79
685.392	728.39
685.586	651.48
685.78	710.18
685.974	698.36
686.168	704.56
686.362	762.69
686.556	635.78
686.75	666.78
686.944	667.56
687.138	648.76
687.331	574.36
687.525	605.75
687.719	490.86
687.913	608.08
688.107	588.31
688.301	564.87
688.494	632.49
688.688	572.04
688.882	541.62
689.076	556.15
689.269	604.01
689.463	657.29
689.657	584.83
689.85	604.2
690.044	615.44
690.238	593.93
690.431	595.68
690.625	587.34
690.818	650.89
691.012	631.52
691.205	621.83
691.399	588.89
691.593	661.36
691.786	653.99
691.98	678.41
692.173	703.79
692.366	677.82
692.56	670.07
692.753	734.01
692.947	608.46
693.14	712.31
693.333	720.84
693.527	663.68
693.72	686.93
693.914	665.42
694.107	656.32
694.3	693.71
694.493	667.17
694.687	706.11
694.88	679.18
695.073	725.1
695.266	706.69
695.46	691.77
695.653	768.11
695.846	778.57
696.039	673.17
696.232	723.94
696.425	737.69
696.618	762.1
696.812	751.64
697.005	818.87
697.198	880.87
697.391	816.16
697.584	846.77
697.777	905.87
697.97	855.1
698.163	902.18
698.356	867.7
698.549	957.4
698.742	882.62
698.935	843.87
699.127	873.32
699.32	841.93
699.513	852.39
699.706	905.87
699.899	894.43
700.092	898.89
700.285	984.72
700.477	864.21
700.67	939.96
700.863	988.79
701.056	1075.59
701.248	1035.29
701.441	1025.99
701.634	981.04
701.826	1109.88
702.019	978.71
702.212	1065.51
702.404	1022.69
702.597	1002.74
702.79	1070.74
702.982	1091.09
703.175	1123.25
703.367	1154.83
703.56	1159.09
703.752	1239.3
703.945	1182.34
704.137	1201.91
704.33	1229.62
704.522	1220.51
704.715	1232.72
704.907	1283.09
705.1	1292.2
705.292	1336.37
705.484	1328.82
705.677	1351.29
705.869	1379.19
706.061	1383.26
706.254	1437.7
706.446	1395.08
706.638	1390.04
706.831	1491.95
707.023	1436.35
707.215	1595.61
707.407	1514.04
707.599	1530.7
707.792	1563.83
707.984	1513.46
708.176	1597.35
708.368	1606.46
708.56	1626.8
708.752	1616.14
708.944	1634.35
709.136	1669.42
709.329	1636.1
709.521	1785.87
709.713	1756.22
709.905	1759.9
710.097	1780.83
710.289	1764.55
710.481	1743.05
710.672	1782.57
710.864	1829.26
711.056	1863.17
711.248	1836.63
711.44	1881.96
711.632	1881.77
711.824	1880.03
712.016	1970.12
712.207	1945.9
712.399	1989.88
712.591	2053.82
712.783	2014.87
712.975	2050.14
713.166	2003.06
713.358	2017.01
713.55	2074.16
713.741	2112.72
713.933	2097.22
714.125	2112.52
714.316	2079.78
714.508	2203.2
714.7	2198.55
714.891	2193.51
715.083	2275.08
715.274	2251.05
715.466	2221.8
715.657	2304.53
715.849	2193.32
716.04	2254.54
716.232	2209.78
716.423	2322.54
716.615	2251.25
716.806	2196.03
716.998	2177.82
717.189	2125.7
717.381	2092.18
717.572	2035.8
717.763	2096.44
717.955	2072.03
718.146	2080.17
718.337	2006.54
718.528	1965.86
718.72	1907.93
718.911	2019.72
719.102	1934.28
719.293	1965.66
719.485	1998.99
719.676	1927.11
719.867	1931.76
720.058	1960.04
720.249	1979.22
720.44	1993.95
720.632	2028.44
720.823	2056.34
721.014	2217.15
721.205	2231.48
721.396	2313.05
721.587	2397.53
721.778	2412.83
721.969	2498.08
722.16	2514.55
722.351	2533.34
722.542	2659.47
722.733	2727.28
722.924	2608.9
723.115	2723.02
723.305	2646.88
723.496	2699.38
723.687	2582.55
723.878	2587.98
724.069	2594.57
724.26	2617.04
724.45	2543.03
724.641	2564.34
724.832	2609.68
725.023	2590.5
725.213	2533.92
725.404	2586.23
725.595	2581.78
725.785	2560.85
725.976	2650.95
726.167	2629.05
726.357	2682.33
726.548	2751.31
726.739	2649.2
726.929	2791.99
727.12	2820.28
727.31	2878.41
727.501	2753.83
727.691	2775.53
727.882	2803.43
728.072	2855.93
728.263	2859.61
728.453	2924.91
728.644	2942.34
728.834	2906.69
729.024	2890.81
729.215	2905.34
729.405	2923.94
729.596	2975.09
729.786	2993.69
729.976	3059.56
730.167	3065.18
730.357	2990.78
730.547	3043.28
730.737	3072.54
730.928	3086.49
731.118	3173.68
731.308	3138.03
731.498	3131.63
731.688	3192.08
731.879	3212.23
732.069	3252.53
732.259	3287.79
732.449	3344.95
732.639	3428.07
732.829	3394.94
733.019	3456.74
733.209	3567.37
733.399	3562.53
733.589	3640.03
733.779	3628.4
733.969	3596.82
734.159	3694.08
734.349	3718.69
734.539	3782.62
734.729	3818.08
734.919	3818.08
735.109	3910.3
735.299	3795.02
735.488	3846.75
735.678	3872.52
735.868	3860.9
736.058	3835.32
736.248	3833.19
736.437	3808.78
736.627	3780.3
736.817	3956.8
737.007	3863.22
737.196	3953.51
737.386	3932.2
737.576	3901.2
737.765	3971.14
737.955	3958.55
738.144	4099.21
738.334	4027.13
738.524	4016.48
738.713	4001.95
738.903	4004.85
739.092	4079.06
739.282	4076.34
739.471	4111.22
739.661	4047.09
739.85	4116.26
740.04	4098.24
740.229	4111.99
740.419	4137.96
740.608	4151.91
740.797	4151.71
740.987	4214.49
741.176	4180.19
741.365	4146.29
741.555	4101.14
741.744	4240.84
741.933	4188.72
742.123	4214.87
742.312	4321.05
742.501	4288.3
742.69	4309.23
742.88	4178.45
743.069	4334.8
743.258	4294.5
743.447	4339.65
743.636	4334.8
743.825	4313.49
744.014	4332.67
744.204	4384.4
744.393	4312.72
744.582	4410.17
744.771	4431.29
744.96	4383.24
745.149	4387.89
745.338	4364.06
745.527	4414.43
745.716	4384.4
745.905	4376.27
746.094	4423.93
746.283	4421.6
746.471	4427.61
746.66	4499.3
746.849	4443.3
747.038	4491.55
747.227	4409.01
747.416	4457.06
747.604	4382.66
747.793	4426.06
747.982	4396.61
748.171	4471.4
748.359	4484.57
748.548	4470.23
748.737	4472.17
748.926	4436.52
749.114	4329.96
749.303	4454.93
749.491	4424.7
749.68	4327.05
749.869	4469.85
750.057	4399.9
750.246	4376.65
750.434	4390.02
750.623	4377.04
750.811	4317.75
751	4433.81
751.188	4334.61
751.377	4433.81
751.565	4366.97
751.754	4375.3
751.942	4316.4
752.131	4444.27
752.319	4321.82
752.507	4286.56
752.696	4402.81
752.884	4374.52
753.072	4352.43
753.261	4377.23
753.449	4354.95
753.637	4290.63
753.825	4448.73
754.014	4373.55
754.202	4397.77
754.39	4425.28
754.578	4359.8
754.766	4331.12
754.955	4338.48
755.143	4401.65
755.331	4365.03
755.519	4373.94
755.707	4325.12
755.895	4316.01
756.083	4340.81
756.271	4301.09
756.459	4300.51
756.647	4347.4
756.835	4306.32
757.023	4262.92
757.211	4234.64
757.399	4256.72
757.587	4288.3
757.775	4208.48
757.963	4217.78
758.151	4245.49
758.339	4165.86
758.526	4225.92
758.714	4227.08
758.902	4123.43
759.09	4064.91
759.278	3899.07
759.465	3663.66
759.653	3259.51
759.841	3038.63
760.028	2669.74
760.216	2343.47
760.404	2186.73
760.591	1872.86
760.779	1682.99
760.967	1504.16
761.154	1323.78
761.342	1361.75
761.529	1359.04
761.717	1453.78
761.905	1451.46
762.092	1573.13
762.28	1512.29
762.467	1605.49
762.655	1495.05
762.842	1559.18
763.029	1606.46
763.217	1602.19
763.404	1588.24
763.592	1701.78
763.779	1607.23
763.966	1658.38
764.154	1742.66
764.341	1793.42
764.528	1769.2
764.716	1883.9
764.903	1936.21
765.09	1973.02
765.277	2037.93
765.465	2216.57
765.652	2299.68
765.839	2346.57
766.026	2474.44
766.213	2537.22
766.4	2630.8
766.588	2794.13
766.775	2849.92
766.962	2926.07
767.149	3042.51
767.336	3193.63
767.523	3055.88
767.71	3269.39
767.897	3406.17
768.084	3488.32
768.271	3486.97
768.458	3525.72
768.645	3611.55
768.832	3526.49
769.019	3583.06
769.206	3613.87
769.392	3687.3
769.579	3741.55
769.766	3720.04
769.953	3719.85
770.14	3744.65
770.327	3778.56
770.513	3811.3
770.7	3817.3
770.887	3762.28
771.073	3822.73
771.26	3802.97
771.447	3746.01
771.634	3714.23
771.82	3888.02
772.007	3743.1
772.193	3788.24
772.38	3854.31
772.567	3785.72
772.753	3729.73
772.94	3839.78
773.126	3856.83
773.313	3819.24
773.499	3839.39
773.686	3822.34
773.872	3764.22
774.059	3794.06
774.245	3661.92
774.432	3765.77
774.618	3647.19
774.804	3750.07
774.991	3676.26
775.177	3737.29
775.363	3719.66
775.55	3753.37
775.736	3660.76
775.922	3709.78
776.109	3700.48
776.295	3691.76
776.481	3737.09
776.667	3721.59
776.853	3677.81
777.04	3629.56
777.226	3662.89
777.412	3754.53
777.598	3638.28
777.784	3670.06
777.97	3579.38
778.156	3643.32
778.342	3608.83
778.528	3603.41
778.715	3497.23
778.901	3549.35
779.087	3607.67
779.272	3566.4
779.458	3584.61
779.644	3587.91
779.83	3562.53
780.016	3648.94
780.202	3588.88
780.388	3555.36
780.574	3452.09
780.76	3505.57
780.946	3557.3
781.131	3512.15
781.317	3443.95
781.503	3467.78
781.689	3471.47
781.874	3593.53
782.06	3458.48
782.246	3513.51
782.432	3464.68
782.617	3498.78
782.803	3532.11
782.989	3438.53
783.174	3398.42
783.36	3372.65
783.545	3397.65
783.731	3415.09
783.916	3308.91
784.102	3416.64
784.288	3333.52
784.473	3383.5
784.659	3393.39
784.844	3398.42
785.029	3347.66
785.215	3353.86
785.4	3291.09
785.586	3368.59
785.771	3283.72
785.956	3377.89
786.142	3289.54
786.327	3314.14
786.512	3297.87
786.698	3295.74
786.883	3202.35
787.068	3254.08
787.254	3272.49
787.439	3223.47
787.624	3244.39
787.809	3197.7
787.994	3242.46
788.18	3275.59
788.365	3163.02
788.55	3158.37
788.735	3198.86
788.92	3202.54
789.105	3174.26
789.29	3227.93
789.475	3112.84
789.66	3165.93
789.845	3121.36
790.03	3091.92
790.215	3177.94
790.4	3154.11
790.585	3212.23
790.77	3134.93
790.955	3042.12
791.14	3089.98
791.325	3202.74
791.51	2994.85
791.695	3060.14
791.879	3079.9
792.064	3006.67
792.249	3134.73
792.434	3059.17
792.618	3052.39
792.803	3125.63
792.988	2995.82
793.173	3064.02
793.357	3081.07
793.542	3019.65
793.727	3037.08
793.911	3067.12
794.096	3058.59
794.281	3069.83
794.465	3116.52
794.65	3081.26
794.834	3087.65
795.019	3131.05
795.203	3121.95
795.388	3126.79
795.572	3160.11
795.757	3091.92
795.941	3150.81
796.126	3176.97
796.31	3064.6
796.494	3128.15
796.679	3054.33
796.863	3055.68
797.048	3146.75
797.232	3114.78
797.416	3092.69
797.601	3120.01
797.785	3184.33
797.969	3188.01
798.153	3117.68
798.338	3155.66
798.522	3188.98
798.706	3193.63
798.89	3170.58
799.074	3268.03
799.258	3236.84
799.443	3152.75
799.627	3146.94
799.811	3202.16
799.995	3129.5
800.179	3102.57
800.363	3116.91
800.547	3169.22
800.731	3187.05
800.915	3081.84
801.099	3094.63
801.283	3123.3
801.467	3131.25
801.651	3115.55
801.835	3185.88
802.019	3117.1
802.202	3185.69
802.386	3129.5
802.57	3070.41
802.754	3125.63
802.938	3083.97
803.121	3075.25
803.305	3209.13
803.489	3105.48
803.673	3124.27
803.856	3143.65
804.04	3127.18
804.224	3133.57
804.407	3107.03
804.591	3058.01
804.775	3086.49
804.958	3147.91
805.142	3217.66
805.326	3113.81
805.509	3136.28
805.693	3165.15
805.876	3160.7
806.06	3115.36
806.243	3167.09
806.427	3210.29
806.61	3173.48
806.794	3097.73
806.977	3162.25
807.16	3116.52
807.344	3165.35
807.527	3094.43
807.71	3106.45
807.894	3115.16
808.077	3125.24
808.26	3085.33
808.444	3048.32
808.627	3162.25
808.81	3100.63
808.993	3008.02
809.177	2969.08
809.36	3052.97
809.543	3056.65
809.726	2936.34
809.909	2946.99
810.092	2940.02
810.276	2952.42
810.459	3027.98
810.642	2920.64
810.825	2869.88
811.008	2977.22
811.191	2822.61
811.374	2815.05
811.557	2864.46
811.74	2929.94
811.923	2813.89
812.106	2802.65
812.289	2766.61
812.472	2791.03
812.654	2788.7
812.837	2785.99
813.02	2691.25
813.203	2674
813.386	2584.3
813.569	2572.48
813.751	2481.42
813.934	2582.17
814.117	2509.9
814.3	2459.72
814.482	2406.44
814.665	2374.28
814.848	2302.98
815.03	2313.05
815.213	2273.91
815.396	2252.8
815.578	2247.18
815.761	2188.67
815.943	2245.63
816.126	2182.66
816.309	2147.01
816.491	2032.12
816.674	1983.29
816.856	2047.62
817.039	2068.35
817.221	2174.33
817.403	2081.91
817.586	2074.55
817.768	2139.45
817.951	2007.9
818.133	1975.35
818.315	1989.88
818.498	2097.02
818.68	2141.39
818.862	2067.96
819.045	2109.62
819.227	2077.07
819.409	2042.39
819.591	2116.2
819.774	2058.08
819.956	2072.61
820.138	2100.9
820.32	2116.01
820.502	2194.09
820.684	2228.38
820.866	2225.28
821.048	2278.76
821.231	2325.06
821.413	2300.46
821.595	2272.75
821.777	2251.83
821.959	2235.94
822.141	2314.99
822.323	2185.95
822.505	2138.68
822.686	2075.32
822.868	2042
823.05	1924.2
823.232	1848.06
823.414	1777.15
823.596	1856.97
823.778	1859.3
823.96	1866.66
824.141	1896.3
824.323	1910.25
824.505	1967.99
824.687	2032.51
824.868	2068.54
825.05	2114.85
825.232	2184.21
825.413	2230.9
825.595	2237.3
825.777	2163.48
825.958	2193.51
826.14	2147.98
826.321	2202.23
826.503	2206.88
826.685	2229.16
826.866	2208.62
827.048	2233.03
827.229	2163.28
827.411	2131.12
827.592	2068.74
827.773	2065.44
827.955	2019.72
828.136	2055.95
828.318	2017.97
828.499	2024.17
828.68	1993.17
828.862	2015.26
829.043	2033.67
829.224	2037.35
829.406	1930.59
829.587	1962.76
829.768	1991.62
829.949	2008.67
830.131	1980.39
830.312	2062.73
830.493	1981.16
830.674	2013.71
830.855	1960.24
831.036	1975.74
831.218	2036.38
831.399	2092.95
831.58	1992.98
831.761	2000.15
831.942	2046.26
832.123	1975.93
832.304	1925.36
832.485	1945.51
832.666	1963.14
832.847	1994.14
833.028	1990.46
833.209	2002.28
833.389	1976.12
833.57	1912.38
833.751	1927.88
833.932	2005.57
834.113	1979.61
834.294	1980.77
834.475	2003.06
834.655	2041.42
834.836	2014.87
835.017	1984.46
835.198	1959.46
835.378	1999.37
835.559	2062.54
835.74	1993.56
835.92	1993.56
836.101	1953.84
836.281	2022.04
836.462	2025.14
836.643	2061.18
836.823	2030.37
837.004	2018.94
837.184	2087.14
837.365	2074.55
837.545	2039.29
837.726	2027.47
837.906	2114.65
838.087	2051.3
838.267	1988.14
838.448	2024.95
838.628	2045.87
838.808	2048.01
838.989	2094.89
839.169	1945.13
839.349	2000.34
839.53	2049.36
839.71	2041.03
839.89	1980.19
840.07	2079.2
840.251	1986.97
840.431	2051.3
840.611	2005.77
840.791	1955.98
840.971	2005.77
841.151	1985.62
841.332	2001.51
841.512	2028.05
841.692	1915.87
841.872	2004.41
842.052	1992.98
842.232	2026.11
842.412	1924.59
842.592	1979.03
842.772	1992.4
842.952	2019.14
843.132	1953.46
843.312	1941.06
843.492	1939.31
843.672	2002.86
843.851	1882.93
844.031	1942.99
844.211	1913.35
844.391	1928.46
844.571	1962.95
844.751	1965.47
844.93	1971.47
845.11	1886.42
845.29	1924.59
845.47	1954.04
845.649	1910.44
845.829	1944.35
846.009	1884.68
846.188	1919.94
846.368	1914.32
846.547	1929.04
846.727	1979.81
846.907	1834.88
847.086	1920.91
847.266	1918.78
847.445	1905.79
847.625	1876.15
847.804	1886.42
847.984	1878.86
848.163	1863.56
848.343	1857.55
848.522	1866.46
848.701	1878.86
848.881	1878.28
849.06	1823.06
849.239	1861.81
849.419	1858.91
849.598	1787.22
849.777	1775.21
849.957	1774.05
850.136	1691.7
850.315	1668.45
850.494	1690.93
850.674	1690.54
850.853	1796.13
851.032	1722.9
851.211	1796.33
851.39	1750.02
851.569	1689.77
851.748	1707.98
851.927	1778.5
852.107	1720.38
852.286	1689.77
852.465	1684.15
852.644	1780.44
852.823	1759.13
853.002	1729.48
853.181	1717.86
853.359	1731.81
853.538	1670.78
853.717	1744.79
853.896	1649.27
854.075	1612.27
854.254	1510.74
854.433	1445.26
854.611	1514.43
854.79	1425.88
854.969	1504.54
855.148	1543.87
855.327	1501.64
855.505	1539.42
855.684	1555.5
855.863	1577.39
856.041	1537.29
856.22	1573.32
856.399	1561.89
856.577	1679.11
856.756	1620.99
856.934	1733.75
857.113	1765.33
857.291	1649.85
857.47	1645.98
857.648	1660.7
857.827	1648.5
858.005	1709.33
858.184	1618.66
858.362	1749.44
858.541	1669.23
858.719	1641.91
858.898	1647.34
859.076	1653.54
859.254	1697.52
859.433	1617.11
859.611	1590.37
859.789	1578.94
859.967	1662.25
860.146	1699.26
860.324	1581.07
860.502	1589.6
860.68	1588.82
860.859	1577.78
861.037	1594.06
861.215	1599.48
861.393	1604.91
861.571	1589.6
861.749	1594.83
861.927	1583.98
862.105	1635.9
862.283	1554.53
862.461	1513.84
862.639	1468.31
862.817	1554.53
862.995	1552.59
863.173	1534.77
863.351	1549.3
863.529	1565.19
863.707	1603.16
863.885	1571.58
864.063	1464.83
864.241	1491.37
864.418	1599.48
864.596	1521.79
864.774	1480.13
864.952	1502.22
865.129	1546.01
865.307	1472.19
865.485	1416.97
865.663	1531.09
865.84	1431.11
866.018	1441.77
866.196	1282.32
866.373	1352.07
866.551	1286
866.728	1249.77
866.906	1271.08
867.084	1308.08
867.261	1356.13
867.439	1376.67
867.616	1438.67
867.794	1361.56
867.971	1402.05
868.149	1375.12
868.326	1438.86
868.503	1431.11
868.681	1414.84
868.858	1391.98
869.035	1395.66
869.213	1417.36
869.39	1400.11
869.567	1486.72
869.745	1397.4
869.922	1411.35
870.099	1426.85
870.276	1448.94
870.454	1386.55
870.631	1406.31
870.808	1374.54
870.985	1407.48
871.162	1447.97
871.339	1403.41
871.517	1352.07
871.694	1346.25
871.871	1371.63
872.048	1357.49
872.225	1355.75
872.402	1391.2
872.579	1316.61
872.756	1367.18
872.933	1297.62
873.11	1341.8
873.287	1366.4
873.463	1355.16
873.64	1323.58
873.817	1367.95
873.994	1330.95
874.171	1294.33
874.348	1332.3
874.524	1297.82
874.701	1288.13
874.878	1242.4
875.055	1328.62
875.231	1293.75
875.408	1334.24
875.585	1256.55
875.762	1305.18
875.938	1266.04
876.115	1290.65
876.291	1259.26
876.468	1247.64
876.645	1232.52
876.821	1273.21
876.998	1265.65
877.174	1287.35
877.351	1229.81
877.527	1211.02
877.704	1274.95
877.88	1232.14
878.057	1232.14
878.233	1272.24
878.409	1222.45
878.586	1256.74
878.762	1245.12
878.938	1218.19
879.115	1149.21
879.291	1238.92
879.467	1169.56
879.644	1212.76
879.82	1190.09
879.996	1209.47
880.172	1146.11
880.349	1225.94
880.525	1203.65
880.701	1142.43
880.877	1140.69
881.053	1205.01
881.229	1141.27
881.405	1236.59
881.581	1146.31
881.757	1177.69
881.933	1194.16
882.109	1240.47
882.285	1219.54
882.461	1122.86
882.637	1162.19
882.813	1128.87
882.989	1163.94
883.165	1235.82
883.341	1132.16
883.517	1221.09
883.693	1166.84
883.869	1215.67
884.044	1129.64
884.22	1195.32
884.396	1216.05
884.572	1221.29
884.747	1224.19
884.923	1212.37
885.099	1214.12
885.275	1203.46
885.45	1156.57
885.626	1159.87
885.801	1151.92
885.977	1154.44
886.153	1102.13
886.328	1178.86
886.504	1134.29
886.679	1197.45
886.855	1154.06
887.03	1186.99
887.206	1163.94
887.381	1189.51
887.557	1199
887.732	1187.57
887.908	1207.53
888.083	1194.55
888.258	1178.86
888.434	1166.65
888.609	1152.7
888.784	1220.12
888.96	1163.16
889.135	1139.52
889.31	1112.21
889.485	1198.23
889.661	1189.32
889.836	1190.29
890.011	1198.62
890.186	1172.46
890.361	1147.08
890.537	1161.42
890.712	1176.92
890.887	1166.07
891.062	1150.76
891.237	1168.59
891.412	1136.62
891.587	1161.42
891.762	1222.84
891.937	1208.89
892.112	1114.34
892.287	1177.11
892.462	1082.76
892.637	1106.97
892.812	1099.42
892.987	1106.01
893.161	1108.14
893.336	1073.26
893.511	1070.55
893.686	1105.81
893.861	1100.58
894.035	1106.59
894.21	1138.36
894.385	1033.16
894.56	1081.4
894.734	1008.36
894.909	1010.49
895.084	1005.06
895.258	1006.03
895.433	1020.56
895.608	995.57
895.782	935.7
895.957	968.25
896.131	944.81
896.306	919.43
896.48	887.46
896.655	919.04
896.829	801.44
897.004	855.68
897.178	854.72
897.353	836.89
897.527	889.4
897.701	850.45
897.876	796.4
898.05	909.16
898.224	842.9
898.399	897.53
898.573	884.55
898.747	730.33
898.921	765.01
899.096	703.79
899.27	716.96
899.444	719.87
899.618	726.46
899.792	760.75
899.967	742.54
900.141	800.66
900.315	710.96
900.489	728.01
900.663	771.79
900.837	753.77
901.011	717.74
901.185	837.67
901.359	759.59
901.533	762.69
901.707	753.19
901.881	749.51
902.055	705.92
902.229	726.65
902.403	803.95
902.576	770.63
902.75	799.11
902.924	863.24
903.098	792.33
903.272	892.3
903.446	886.1
903.619	842.9
903.793	901.99
903.967	881.84
904.14	944.61
904.314	910.13
904.488	893.47
904.661	916.33
904.835	889.2
905.009	936.28
905.182	949.46
905.356	919.23
905.529	907.61
905.703	889.78
905.876	882.23
906.05	831.08
906.223	831.85
906.397	779.74
906.57	760.75
906.744	737.11
906.917	748.74
907.09	770.63
907.264	749.51
907.437	707.47
907.61	687.12
907.784	709.21
907.957	706.31
908.13	697.97
908.304	737.89
908.477	668.52
908.65	677.44
908.823	643.92
908.996	741.96
909.17	644.69
909.343	652.25
909.516	656.9
909.689	654.38
909.862	611.37
910.035	644.69
910.208	644.69
910.381	647.41
910.554	733.43
910.727	656.12
910.9	647.79
911.073	648.38
911.246	739.24
911.419	740.79
911.592	677.05
911.765	633.26
911.938	635.98
912.11	647.99
912.283	684.99
912.456	685.57
912.629	679.96
912.802	610.59
912.974	634.23
913.147	565.26
913.32	510.23
913.493	549.18
913.665	595.48
913.838	566.03
914.01	565.84
914.183	592.58
914.356	612.73
914.528	645.47
914.701	659.22
914.873	640.04
915.046	591.61
915.218	567.39
915.391	485.24
915.563	496.28
915.736	576.88
915.908	604.2
916.081	594.71
916.253	568.94
916.425	591.99
916.598	586.76
916.77	586.18
916.942	548.01
917.115	499.58
917.287	580.76
917.459	527.09
917.632	535.61
917.804	443
917.976	535.81
918.148	532.71
918.32	529.22
918.493	565.45
918.665	652.44
918.837	539.49
919.009	614.66
919.181	610.21
919.353	604.98
919.525	593.93
919.697	581.73
919.869	565.84
920.041	638.49
920.213	690.42
920.385	629.97
920.557	590.44
920.729	602.07
920.901	641.4
921.073	584.05
921.244	572.81
921.416	629.78
921.588	561
921.76	592.77
921.932	642.76
922.103	595.09
922.275	578.43
922.447	583.66
922.619	491.25
922.79	575.91
922.962	554.21
923.134	622.8
923.305	545.5
923.477	488.92
923.648	493.76
923.82	535.23
923.991	466.45
924.163	439.32
924.335	491.83
924.506	501.51
924.677	550.15
924.849	481.95
925.02	530.38
925.192	525.54
925.363	527.28
925.535	518.37
925.706	463.73
925.877	565.84
926.049	496.86
926.22	517.98
926.391	543.75
926.562	547.82
926.734	452.69
926.905	547.43
927.076	456.76
927.247	468.38
927.419	465.48
927.59	439.71
927.761	417.82
927.932	429.25
928.103	441.07
928.274	392.44
928.445	383.33
928.616	380.42
928.787	385.07
928.958	424.6
929.129	380.23
929.3	336.44
929.471	316.49
929.642	294.4
929.813	273.86
929.984	330.63
930.155	251.97
930.326	288.59
930.496	246.35
930.667	221.16
930.838	264.76
931.009	216.9
931.18	235.5
931.35	241.12
931.521	252.16
931.692	197.91
931.863	123.13
932.033	196.36
932.204	231.24
932.374	207.6
932.545	140.37
932.716	214.96
932.886	197.53
933.057	125.84
933.227	116.35
933.398	203.34
933.568	125.06
933.739	86.31
933.909	73.14
934.08	141.14
934.25	29.74
934.421	72.36
934.591	83.99
934.761	84.57
934.932	46.6
935.102	127.58
935.272	88.06
935.443	71.4
935.613	85.54
935.783	86.51
935.953	43.88
936.123	229.49
936.294	65
936.464	64.03
936.634	71.01
936.804	43.69
936.974	42.14
937.144	100.85
937.314	101.23
937.484	70.43
937.655	64.42
937.825	135.53
937.995	89.61
938.165	128.75
938.334	81.28
938.504	143.66
938.674	97.16
938.844	127
939.014	176.02
939.184	147.34
939.354	221.55
939.524	205.08
939.694	155.87
939.863	130.88
940.033	216.51
940.203	208.18
940.373	153.54
940.542	197.33
940.712	160.33
940.882	196.17
941.051	209.54
941.221	185.32
941.391	227.94
941.56	135.53
941.73	135.14
941.899	243.83
942.069	168.27
942.238	173.89
942.408	128.55
942.577	170.98
942.747	143.66
942.916	78.95
943.086	112.08
943.255	190.36
943.425	143.47
943.594	94.26
943.763	29.74
943.933	69.07
944.102	31.29
944.271	114.21
944.441	129.33
944.61	102.78
944.779	134.36
944.948	213.41
945.117	86.51
945.287	94.65
945.456	23.15
945.625	75.27
945.794	99.49
945.963	89.22
946.132	142.89
946.301	70.62
946.47	136.11
946.639	47.76
946.808	105.5
946.977	128.94
947.146	175.83
947.315	107.05
947.484	147.93
947.653	92.71
947.822	93.68
947.991	64.81
948.16	183.96
948.329	150.64
948.498	134.56
948.666	113.63
948.835	141.53
949.004	85.15
949.173	60.55
949.341	102.78
949.51	125.06
949.679	172.34
949.847	154.51
950.016	191.33
950.185	170.21
950.353	123.51
950.522	124.48
950.69	165.75
950.859	127.39
951.028	187.26
951.196	148.51
951.365	87.48
951.533	116.54
951.701	128.94
951.87	148.7
952.038	68.68
952.207	106.27
952.375	169.24
952.543	92.13
952.712	115.38
952.88	86.51
953.048	174.47
953.217	119.45
953.385	117.7
953.553	178.15
953.721	89.22
953.89	114.21
954.058	74.11
954.226	73.53
954.394	108.4
954.562	91.55
954.73	126.03
954.898	88.64
955.067	146.57
955.235	90.19
955.403	126.23
955.571	186.87
955.739	139.01
955.907	75.08
956.075	97.36
956.243	59.58
956.41	131.65
956.578	59.96
956.746	63.06
956.914	123.9
957.082	125.06
957.25	131.65
957.418	96.2
957.585	111.7
957.753	170.79
957.921	70.04
958.089	91.16
958.256	123.71
958.424	107.63
958.592	115.57
958.759	63.26
958.927	121.19
959.095	91.93
959.262	86.9
959.43	133.01
959.597	88.06
959.765	88.83
959.932	76.43
960.1	150.83
960.267	97.94
960.435	109.37
960.602	137.27
960.77	86.51
960.937	69.07
961.104	107.63
961.272	62.29
961.439	85.35
961.606	129.71
961.774	155.09
961.941	112.66
962.108	141.14
962.275	114.8
962.443	144.63
962.61	119.45
962.777	197.72
962.944	143.47
963.111	148.7
963.278	142.69
963.446	135.33
963.613	93.48
963.78	140.76
963.947	144.44
964.114	138.82
964.281	203.92
964.448	134.75
964.615	129.13
964.782	127.39
964.949	159.16
965.116	155.87
965.282	184.93
965.449	113.05
965.616	88.25
965.783	151.8
965.95	119.45
966.117	95.61
966.283	126.03
966.45	141.53
966.617	107.43
966.784	188.61
966.95	143.86
967.117	170.98
967.284	105.3
967.45	103.95
967.617	193.26
967.784	153.54
967.95	181.83
968.117	119.45
968.283	200.82
968.45	231.24
968.616	133.01
968.783	190.36
968.949	142.5
969.116	205.08
969.282	132.43
969.449	148.31
969.615	142.5
969.781	124.48
969.948	146.38
970.114	100.85
970.28	192.88
970.447	129.33
970.613	196.56
970.779	146.57
970.945	148.89
971.112	134.94
971.278	139.79
971.444	140.18
971.61	192.68
971.776	121.96
971.942	181.44
972.108	170.79
972.275	129.13
972.441	123.71
972.607	194.23
972.773	110.15
972.939	151.41
973.105	131.46
973.271	108.01
973.437	130.1
973.602	121
973.768	161.1
973.934	130.1
974.1	160.13
974.266	50.86
974.432	109.95
974.598	138.63
974.763	169.43
974.929	102.2
975.095	180.86
975.261	103.56
975.426	97.36
975.592	109.56
975.758	170.01
975.923	50.66
976.089	100.85
976.255	132.04
976.42	140.37
976.586	172.34
976.751	129.52
976.917	217.68
977.082	149.67
977.248	71.78
977.413	64.42
977.579	103.56
977.744	129.91
977.91	80.11
978.075	122.16
978.24	176.21
978.406	104.33
978.571	124.1
978.736	73.33
978.902	131.07
979.067	61.51
979.232	53.18
979.397	127.78
979.563	157.61
979.728	97.94
979.893	107.43
980.058	99.49
980.223	139.01
980.388	141.73
980.554	122.74
980.719	98.33
980.884	129.91
981.049	136.3
981.214	93.87
981.379	148.89
981.544	107.63
981.709	108.21
981.874	81.28
982.039	98.71
982.204	134.94
982.368	109.56
982.533	130.3
982.698	127.78
982.863	158.58
983.028	82.83
983.193	132.62
983.357	120.03
983.522	106.46
983.687	106.66
983.852	98.52
984.016	96.39
984.181	121.77
984.346	159.74
984.51	145.21
984.675	118.67
984.839	148.31
985.004	124.1
985.168	145.79
985.333	124.1
985.498	96
985.662	143.86
985.827	142.69
985.991	115.57
986.155	101.81
986.32	139.4
986.484	176.99
986.649	129.71
986.813	70.04
986.977	110.73
987.142	135.33
987.306	67.13
987.47	88.64
987.634	98.52
987.799	109.76
987.963	126.81
988.127	113.25
988.291	164.78
988.455	110.34
988.62	86.31
988.784	151.22
988.948	129.33
989.112	83.99
989.276	123.32
989.44	102.78
989.604	83.21
989.768	94.06
989.932	193.65
990.096	68.1
990.26	85.73
990.424	71.78
990.588	94.26
990.752	198.3
990.915	140.95
991.079	81.86
991.243	57.45
991.407	116.35
991.571	108.4
991.734	127.97
991.898	136.49
992.062	170.4
992.226	98.33
992.389	90.77
992.553	54.73
992.717	77.6
992.88	79.15
993.044	91.35
993.207	80.7
993.371	116.93
993.535	127.39
993.698	100.85
993.862	134.36
994.025	133.2
994.189	110.73
994.352	108.4
994.515	116.54
994.679	139.98
994.842	59.96
995.006	107.24
995.169	54.54
995.332	95.03
995.496	95.81
995.659	20.25
995.822	73.53
995.985	95.81
996.149	133.98
996.312	68.88
996.475	183.77
996.638	49.89
996.801	139.59
996.964	147.93
997.128	73.72
997.291	88.83
997.454	76.82
997.617	26.06
997.78	106.46
997.943	59.38
998.106	103.95
998.269	52.99
998.432	52.02
998.595	90.38
998.758	37.88
998.92	55.7
999.083	8.82
999.246	86.31
999.409	39.43
999.572	14.82
999.735	58.8
999.897	93.48
1000.06	64.03
1000.223	87.67
1000.386	87.09
1000.548	93.29
1000.711	82.05
1000.874	84.18
1001.036	20.83
1001.199	95.81
1001.361	51.44
1001.524	91.93
1001.687	95.42
1001.849	46.98
1002.012	95.03
1002.174	112.47
1002.337	82.25
1002.499	51.05
1002.661	98.33
1002.824	14.43
1002.986	29.16
1003.149	73.53
1003.311	28
1003.473	144.05
1003.636	37.3
1003.798	105.69
1003.96	85.54
1004.123	84.38
1004.285	53.38
1004.447	66.16
1004.609	59
1004.771	133.59
1004.933	8.04
1005.096	22.77
1005.258	-19.28
1005.42	54.93
1005.582	105.5
1005.744	60.93
1005.906	19.47
1006.068	92.9
1006.23	25.87
1006.392	4.36
1006.554	37.1
1006.716	96.2
1006.878	74.11
1007.04	20.05
1007.202	33.62
1007.363	68.49
1007.525	61.32
1007.687	76.24
1007.849	111.7
1008.011	1.26
1008.172	-8.62
1008.334	28.77
1008.496	80.31
1008.658	-10.56
1008.819	36.33
1008.981	13.27
1009.143	18.12
1009.304	42.72
1009.466	100.65
1009.627	123.51
1009.789	154.9
1009.95	49.31
1010.112	64.81
1010.273	64.23
1010.435	36.13
1010.596	39.23
1010.758	41.37
1010.919	49.11
1011.081	5.72
1011.242	28.77
1011.403	62.68
1011.565	41.95
1011.726	77.98
1011.887	23.35
1012.049	18.7
1012.21	81.08
1012.371	107.63
1012.532	-35.17
1012.693	38.85
1012.855	30.52
1013.016	49.89
1013.177	97.75
1013.338	55.7
1013.499	122.74
1013.66	52.21
1013.821	77.6
1013.982	39.62
1014.143	70.62
1014.304	38.46
1014.465	47.56
1014.626	52.6
1014.787	20.05
1014.948	146.18
1015.109	-44.27
1015.27	90
1015.431	31.29
1015.592	7.85
1015.752	87.67
1015.913	30.13
1016.074	44.27
1016.235	57.45
1016.395	36.91
1016.556	40.2
1016.717	19.08
1016.877	88.83
1017.038	17.15
1017.199	58.8
1017.359	25.09
1017.52	37.88
1017.681	48.34
1017.841	22.18
1018.002	42.14
1018.162	10.75
1018.323	96
1018.483	32.07
1018.644	-3.78
1018.804	12.3
1018.964	8.43
1019.125	48.34
1019.285	45.05
1019.446	9.01
1019.606	21.02
1019.766	-37.1
1019.926	58.8
1020.087	50.66
1020.247	3.58
1020.407	52.02
1020.567	67.33
1020.728	6.49
1020.888	-11.33
1021.048	16.95
1021.208	16.37
1021.368	36.33
1021.528	84.57
1021.688	80.31
1021.848	70.04
1022.008	43.11
1022.168	4.17
1022.328	52.41
1022.488	53.18
1022.648	-9.4
1022.808	38.27
1022.968	55.7
1023.128	22.77
1023.288	26.06
1023.448	35.94
1023.608	30.52
1023.767	41.56
1023.927	13.08
1024.087	-17.34
1024.247	-4.36
1024.406	-1.65
1024.566	-8.82
1024.726	6.88
1024.885	41.17
1025.045	68.88
1025.205	10.56
1025.364	38.85
1025.524	29.55
1025.683	3.39
1025.843	36.33
1026.003	9.78
1026.162	112.08
1026.321	68.1
1026.481	20.05
1026.64	-6.88
1026.8	38.65
1026.959	41.56
1027.119	26.06
1027.278	21.02
1027.437	-15.02
1027.597	-4.75
1027.756	41.37
1027.915	41.17
1028.074	45.05
1028.234	2.03
1028.393	34.39
1028.552	19.28
1028.711	-31.87
1028.87	48.53
1029.03	2.23
1029.189	38.65
1029.348	-48.15
1029.507	2.42
1029.666	18.5
1029.825	-9.2
1029.984	-7.46
1030.143	36.52
1030.302	13.27
1030.461	-31.48
1030.62	41.95
1030.779	66.55
1030.938	1.26
1031.097	0.68
1031.255	56.48
1031.414	85.35
1031.573	69.26
1031.732	-21.41
1031.891	12.3
1032.049	66.94
1032.208	40.2
1032.367	9.59
1032.525	-16.95
1032.684	29.16
1032.843	-11.33
1033.001	-44.66
1033.16	188.42
1033.319	66.55
1033.477	32.45
1033.636	-10.95
1033.794	-39.82
1033.953	55.51
1034.111	63.26
1034.27	2.23
1034.428	17.34
1034.587	-26.06
1034.745	21.41
1034.903	19.47
1035.062	47.37
1035.22	-34.39
1035.378	41.75
1035.537	0.48
1035.695	38.46
1035.853	19.08
1036.011	55.31
1036.17	46.01
1036.328	-34.39
1036.486	9.98
1036.644	19.86
1036.802	-50.66
1036.96	-11.92
1037.119	19.28
1037.277	5.33
1037.435	-37.3
1037.593	-36.52
1037.751	30.9
1037.909	51.05
1038.067	51.05
