Data from gum_old_FLMT105791__105__15-45-54-253.txt Node

Date: Mon Mar 20 15:45:54 GMT 2023
User: antho
Spectrometer: FLMT10579
Trigger mode: 0
Integration Time (sec): 1.000000E-1
Scans to average: 10
Electric dark correction enabled: true
Nonlinearity correction enabled: false
Boxcar width: 0
XAxis mode: Wavelengths
Number of Pixels in Spectrum: 3648
>>>>>Begin Spectral Data<<<<<
345.248	-181.91
345.464	-181.91
345.681	-181.91
345.898	-166.41
346.114	-189.86
346.331	-40.09
346.548	35.08
346.764	-0.37
346.981	-16.84
347.197	-10.83
347.414	16.87
347.631	-8.51
347.847	67.44
348.064	1.76
348.28	39.54
348.497	-63.92
348.713	-20.13
348.93	20.36
349.146	27.53
349.363	18.23
349.579	30.63
349.796	31.98
350.012	-20.71
350.229	33.73
350.445	-15.48
350.661	-30.98
350.878	27.53
351.094	17.07
351.311	20.55
351.527	27.14
351.743	-5.8
351.96	52.52
352.176	25.4
352.392	27.33
352.609	40.32
352.825	-13.93
353.041	33.34
353.257	-7.35
353.474	19.2
353.69	56.78
353.906	28.69
354.122	15.9
354.339	72.28
354.555	32.76
354.771	16.48
354.987	83.33
355.203	83.52
355.42	-8.31
355.636	-1.53
355.852	-5.8
356.068	22.1
356.284	-24.4
356.5	77.9
356.716	64.92
356.932	-5.22
357.148	30.82
357.364	15.71
357.58	76.55
357.796	56.78
358.012	55.82
358.228	59.5
358.444	-69.54
358.66	65.12
358.876	48.65
359.092	8.93
359.308	33.15
359.524	28.5
359.74	-9.48
359.956	11.25
360.172	25.98
360.388	72.48
360.604	15.32
360.819	99.8
361.035	33.73
361.251	46.52
361.467	-11.03
361.683	41.67
361.898	39.73
362.114	70.93
362.33	24.82
362.546	51.94
362.762	36.63
362.977	32.18
363.193	5.44
363.409	50
363.624	-15.1
363.84	27.72
364.056	7.96
364.271	42.64
364.487	17.26
364.703	27.33
364.918	-22.26
365.134	6.8
365.35	40.12
365.565	133.12
365.781	30.24
365.996	48.65
366.212	129.05
366.427	62.21
366.643	28.5
366.858	23.46
367.074	11.06
367.289	79.26
367.505	163.73
367.72	6.6
367.936	-3.86
368.151	73.06
368.367	60.85
368.582	39.35
368.798	29.27
369.013	93.01
369.228	41.48
369.444	40.7
369.659	90.5
369.874	65.89
370.09	95.73
370.305	-24.01
370.52	32.37
370.736	99.21
370.951	38.96
371.166	90.5
371.381	102.7
371.597	78.1
371.812	19.78
372.027	36.05
372.242	43.8
372.458	119.56
372.673	21.91
372.888	22.49
373.103	66.28
373.318	134.28
373.533	53.1
373.749	84.1
373.964	-17.61
374.179	102.51
374.394	-16.84
374.609	105.41
374.824	-1.92
375.039	71.12
375.254	0.98
375.469	104.25
375.684	95.53
375.899	81.78
376.114	48.45
376.329	52.72
376.544	105.22
376.759	79.07
376.974	34.31
377.189	32.76
377.404	56.4
377.619	113.94
377.834	-7.15
378.049	33.34
378.264	36.44
378.478	83.71
378.693	27.92
378.908	95.53
379.123	54.07
379.338	107.16
379.553	88.17
379.767	71.32
379.982	45.93
380.197	100.38
380.412	65.89
380.626	68.8
380.841	132.93
381.056	83.13
381.271	126.53
381.485	59.69
381.7	18.42
381.915	71.7
382.129	44
382.344	52.13
382.559	59.3
382.773	116.46
382.988	6.99
383.202	76.16
383.417	32.57
383.632	145.91
383.846	43.61
384.061	60.27
384.275	24.82
384.49	87.01
384.704	98.83
384.919	54.85
385.133	67.05
385.348	83.71
385.562	32.95
385.777	121.88
385.991	50
386.206	36.44
386.42	61.63
386.634	114.52
386.849	88.56
387.063	79.45
387.277	45.74
387.492	60.08
387.706	21.52
387.92	33.53
388.135	111.81
388.349	85.07
388.563	86.04
388.778	90.5
388.992	122.27
389.206	98.05
389.42	128.86
389.635	62.98
389.849	111.42
390.063	139.13
390.277	85.07
390.491	172.64
390.706	106.19
390.92	132.93
391.134	90.11
391.348	110.65
391.562	42.45
391.776	110.45
391.99	77.71
392.205	140.87
392.419	62.21
392.633	81.97
392.847	158.31
393.061	90.69
393.275	116.07
393.489	71.32
393.703	71.32
393.917	94.18
394.131	20.55
394.345	106.58
394.559	125.76
394.773	85.85
394.986	91.46
395.2	99.99
395.414	134.09
395.628	80.42
395.842	122.46
396.056	121.88
396.27	67.63
396.484	105.61
396.697	118.98
396.911	143
397.125	123.05
397.339	135.25
397.553	117.81
397.766	117.23
397.98	149.59
398.194	149.01
398.408	95.73
398.621	160.63
398.835	158.11
399.049	145.33
399.262	209.46
399.476	218.37
399.69	189.11
399.903	231.16
400.117	135.83
400.331	162.96
400.544	145.71
400.758	271.07
400.971	163.93
401.185	191.24
401.398	149.01
401.612	202.09
401.826	181.75
402.039	192.99
402.253	165.86
402.466	196.09
402.68	177.49
402.893	188.14
403.106	192.41
403.32	166.06
403.533	207.52
403.747	190.66
403.96	178.26
404.174	193.96
404.387	150.75
404.6	192.6
404.814	222.05
405.027	192.02
405.24	191.63
405.454	169.35
405.667	231.93
405.88	140.1
406.094	198.41
406.307	214.88
406.52	230.38
406.733	164.12
406.947	121.88
407.16	229.41
407.373	246.08
407.586	145.91
407.799	178.46
408.012	227.28
408.226	215.46
408.439	250.14
408.652	134.28
408.865	229.03
409.078	256.92
409.291	236.39
409.504	188.14
409.717	225.73
409.93	236.58
410.143	220.89
410.357	156.18
410.57	163.15
410.783	185.63
410.996	218.18
411.209	177.88
411.421	265.64
411.634	207.33
411.847	185.43
412.06	241.23
412.273	211.2
412.486	238.13
412.699	326.48
412.912	218.37
413.125	274.75
413.338	256.92
413.55	250.34
413.763	233.09
413.976	269.13
414.189	211.01
414.402	231.16
414.615	313.31
414.827	202.09
415.04	265.64
415.253	267.97
415.466	271.65
415.678	318.54
415.891	234.45
416.104	236.97
416.316	222.05
416.529	235.42
416.742	276.69
416.954	287.54
417.167	281.72
417.38	252.66
417.592	294.71
417.805	214.49
418.017	213.33
418.23	255.18
418.442	233.48
418.655	251.31
418.868	248.21
419.08	283.66
419.293	285.6
419.505	244.14
419.718	268.94
419.93	299.16
420.142	235.81
420.355	318.34
420.567	327.64
420.78	268.74
420.992	222.83
421.205	319.12
421.417	240.46
421.629	266.22
421.842	237.36
422.054	227.48
422.266	323.77
422.479	320.28
422.691	249.37
422.903	293.35
423.115	268.16
423.328	242.98
423.54	276.69
423.752	252.47
423.964	228.83
424.177	270.29
424.389	276.69
424.601	387.51
424.813	299.36
425.025	316.02
425.238	319.51
425.45	285.99
425.662	235.81
425.874	613.42
426.086	265.45
426.298	280.17
426.51	298
426.722	290.83
426.934	278.43
427.146	305.75
427.358	272.23
427.57	296.64
427.782	286.57
427.994	297.81
428.206	254.21
428.418	245.88
428.63	338.49
428.842	341.98
429.054	303.62
429.266	327.26
429.478	266.61
429.69	243.17
429.902	230.38
430.114	301.29
430.325	267.39
430.537	242.39
430.749	240.65
430.961	202.48
431.173	247.24
431.384	258.67
431.596	147.07
431.808	232.51
432.02	291.02
432.231	331.32
432.443	336.94
432.655	303.04
432.867	258.67
433.078	315.82
433.29	366.97
433.502	335.39
433.713	371.62
433.925	343.34
434.136	387.32
434.348	258.47
434.56	252.28
434.771	407.85
434.983	241.62
435.194	300.71
435.406	318.73
435.617	382.28
435.829	417.54
436.04	381.5
436.252	372.79
436.463	405.34
436.675	408.24
436.886	376.47
437.098	394.68
437.309	446.41
437.521	367.55
437.732	360.58
437.943	358.45
438.155	371.62
438.366	292.19
438.578	403.79
438.789	358.06
439	378.6
439.211	363.1
439.423	368.14
439.634	375.3
439.845	383.25
440.057	384.41
440.268	378.21
440.479	374.92
440.69	395.26
440.902	343.14
441.113	368.33
441.324	367.75
441.535	390.03
441.746	441.18
441.957	376.47
442.168	384.8
442.38	411.54
442.591	458.03
442.802	381.89
443.013	394.68
443.224	425.87
443.435	399.52
443.646	397.97
443.857	413.86
444.068	396.04
444.279	388.09
444.49	472.76
444.701	433.62
444.912	519.45
445.123	456.29
445.334	409.99
445.545	450.48
445.756	429.75
445.967	397.2
446.178	441.76
446.388	443.31
446.599	450.48
446.81	423.74
447.021	414.05
447.232	476.05
447.443	490
447.653	411.34
447.864	475.86
448.075	457.07
448.286	481.87
448.496	460.75
448.707	480.12
448.918	432.27
449.129	542.12
449.339	427.04
449.55	462.3
449.761	444.67
449.971	502.21
450.182	437.5
450.393	460.17
450.603	451.83
450.814	502.79
451.024	502.98
451.235	536.11
451.446	555.49
451.656	537.66
451.867	483.61
452.077	498.33
452.288	509.18
452.498	563.24
452.709	480.51
452.919	520.42
453.13	462.68
453.34	512.48
453.55	447.57
453.761	516.55
453.971	512.28
454.182	489.62
454.392	484.19
454.602	551.03
454.813	502.21
455.023	517.71
455.233	454.93
455.444	510.15
455.654	431.88
455.864	487.29
456.075	466.17
456.285	480.7
456.495	474.12
456.705	505.5
456.916	560.14
457.126	557.43
457.336	488.65
457.546	428.97
457.756	485.74
457.967	579.51
458.177	505.7
458.387	511.12
458.597	474.5
458.807	502.02
459.017	487.29
459.227	490.58
459.437	494.27
459.647	551.23
459.857	513.06
460.068	489.23
460.278	564.79
460.488	548.51
460.698	590.36
460.908	517.32
461.117	473.92
461.327	495.43
461.537	535.92
461.747	532.43
461.957	549.68
462.167	653.91
462.377	553.36
462.587	543.86
462.797	582.03
463.007	536.11
463.216	578.93
463.426	605.48
463.636	575.64
463.846	498.92
464.056	554.52
464.265	592.88
464.475	517.32
464.685	555.68
464.895	574.67
465.104	544.64
465.314	580.48
465.524	541.54
465.733	516.74
465.943	636.67
466.153	622.72
466.362	612.64
466.572	592.11
466.782	544.64
466.991	580.1
467.201	636.67
467.41	499.69
467.62	584.94
467.829	562.46
468.039	596.56
468.249	590.17
468.458	568.66
468.668	621.75
468.877	600.83
469.086	651.2
469.296	636.28
469.505	572.35
469.715	678.71
469.924	613.42
470.134	657.01
470.343	653.33
470.552	601.02
470.762	582.23
470.971	567.11
471.18	609.93
471.39	608.58
471.599	559.56
471.808	651.39
472.018	595.98
472.227	658.56
472.436	666.31
472.645	643.26
472.855	604.31
473.064	700.99
473.273	658.76
473.482	681.81
473.691	690.92
473.901	720.17
474.11	638.03
474.319	734.71
474.528	688.21
474.737	750.01
474.946	711.65
475.155	716.88
475.364	742.84
475.573	695.37
475.783	728.12
475.992	757.57
476.201	756.21
476.41	706.03
476.619	682.98
476.828	703.12
477.037	700.8
477.245	716.11
477.454	751.76
477.663	741.49
477.872	717.66
478.081	828.87
478.29	714.17
478.499	851.54
478.708	774.23
478.917	833.9
479.125	777.52
479.334	787.79
479.543	766.67
479.752	809.49
479.961	791.47
480.169	849.02
480.378	767.26
480.587	945.12
480.796	826.93
481.004	858.32
481.213	829.45
481.422	830.8
481.63	875.17
481.839	870.13
482.048	934.07
482.256	855.99
482.465	863.35
482.674	903.65
482.882	904.62
483.091	964.68
483.299	881.57
483.508	930
483.716	919.93
483.925	899.39
484.134	871.68
484.342	880.21
484.551	918.57
484.759	878.27
484.967	972.63
485.176	955.38
485.384	940.47
485.593	968.36
485.801	960.03
486.01	902.88
486.218	874.4
486.426	788.95
486.635	836.42
486.843	774.04
487.051	860.06
487.26	799.22
487.468	899.2
487.676	912.37
487.885	888.54
488.093	898.03
488.301	946.86
488.509	943.18
488.717	1008.47
488.926	960.03
489.134	942.98
489.342	969.53
489.55	922.45
489.758	942.02
489.967	952.28
490.175	1076.09
490.383	1006.34
490.591	1064.85
490.799	983.67
491.007	1022.81
491.215	1018.93
491.423	1024.94
491.631	1042.57
491.839	1047.03
492.047	1086.55
492.255	1010.6
492.463	958.48
492.671	984.64
492.879	1048.19
493.087	1033.08
493.295	1015.25
493.503	1032.3
493.711	1089.07
493.919	1096.43
494.127	1092.75
494.334	1098.37
494.542	1003.43
494.75	1084.03
494.958	1087.71
495.166	1125.49
495.374	1108.83
495.581	1142.54
495.789	1087.13
495.997	1152.62
496.205	1084.23
496.412	1081.71
496.62	1082.68
496.828	1118.13
497.035	1071.63
497.243	1134.99
497.451	1114.84
497.658	1108.83
497.866	1110.58
498.074	1195.82
498.281	1073.18
498.489	1227.4
498.696	1112.9
498.904	1086.94
499.112	1112.13
499.319	1194.86
499.527	1106.12
499.734	1148.55
499.942	1079.96
500.149	1077.06
500.357	1165.6
500.564	1099.34
500.771	1129.37
500.979	1094.3
501.186	1058.84
501.394	1080.54
501.601	1107.48
501.808	1114.84
502.016	1109.99
502.223	1083.06
502.43	1133.05
502.638	1082.68
502.845	1096.63
503.052	1184.39
503.26	1105.93
503.467	1221.59
503.674	1150.29
503.881	1165.79
504.089	1236.7
504.296	1181.1
504.503	1113.48
504.71	1118.71
504.917	1106.7
505.125	1127.24
505.332	1122.2
505.539	1186.52
505.746	1239.42
505.953	1195.44
506.16	1223.34
506.367	1264.22
506.574	1264.8
506.781	1289.99
506.988	1181.87
507.195	1217.72
507.402	1215.2
507.609	1258.4
507.816	1221.4
508.023	1189.82
508.23	1189.24
508.437	1161.92
508.644	1217.52
508.851	1244.84
509.058	1245.04
509.265	1212.29
509.472	1257.82
509.679	1323.89
509.885	1214.81
510.092	1278.75
510.299	1225.08
510.506	1228.37
510.713	1241.16
510.92	1239.22
511.126	1254.72
511.333	1285.34
511.54	1261.89
511.746	1305.68
511.953	1303.16
512.16	1291.34
512.367	1254.53
512.573	1261.89
512.78	1264.22
512.987	1262.28
513.193	1262.28
513.4	1199.12
513.606	1244.07
513.813	1282.04
514.02	1271.58
514.226	1343.27
514.433	1339.39
514.639	1216.75
514.846	1311.68
515.052	1219.46
515.259	1266.35
515.465	1281.65
515.672	1290.37
515.878	1393.45
516.085	1278.94
516.291	1368.07
516.497	1286.11
516.704	1278.36
516.91	1249.3
517.117	1202.61
517.323	1148.55
517.529	1176.06
517.736	1165.6
517.942	1202.41
518.148	1169.86
518.354	1240.77
518.561	1241.94
518.767	1256.66
518.973	1281.46
519.179	1280.49
519.386	1261.12
519.592	1257.24
519.798	1253.56
520.004	1392.09
520.21	1312.46
520.417	1365.93
520.623	1397.32
520.829	1442.46
521.035	1374.46
521.241	1414.95
521.447	1414.95
521.653	1519.58
521.859	1410.11
522.065	1443.05
522.271	1548.64
522.477	1498.46
522.683	1534.11
522.889	1493.42
523.095	1499.23
523.301	1482.18
523.507	1440.33
523.713	1469.59
523.919	1435.49
524.125	1526.55
524.331	1507.95
524.537	1579.44
524.742	1582.74
524.948	1591.84
525.154	1587.77
525.36	1686.2
525.566	1582.54
525.772	1614.12
525.977	1539.92
526.183	1613.74
526.389	1624.59
526.595	1561.04
526.8	1551.93
527.006	1484.89
527.212	1475.98
527.417	1427.35
527.623	1439.17
527.829	1562.78
528.034	1575.18
528.24	1550.58
528.446	1546.31
528.651	1669.92
528.857	1608.51
529.062	1654.04
529.268	1640.67
529.473	1649.77
529.679	1687.36
529.884	1770.87
530.09	1709.64
530.295	1735.6
530.501	1736.96
530.706	1742.38
530.912	1642.61
531.117	1716.04
531.323	1730.76
531.528	1757.11
531.733	1768.73
531.939	1773
532.144	1778.23
532.35	1753.43
532.555	1800.9
532.76	1776.48
532.966	1756.33
533.171	1757.11
533.376	1707.12
533.581	1669.73
533.787	1719.52
533.992	1755.56
534.197	1761.57
534.402	1773.19
534.607	1762.53
534.813	1881.11
535.018	1782.3
535.223	1769.51
535.428	1784.82
535.633	1870.45
535.838	1851.08
536.043	1810.58
536.249	1942.14
536.454	1835.58
536.659	1884.98
536.864	1830.73
537.069	1817.75
537.274	1848.95
537.479	1842.75
537.684	1824.34
537.889	1787.53
538.094	1912.88
538.299	1830.54
538.504	1809.62
538.708	1874.33
538.913	1894.28
539.118	1878.98
539.323	1840.42
539.528	1802.06
539.733	1842.55
539.938	1874.13
540.142	1910.95
540.347	1830.73
540.552	1786.56
540.757	1803.8
540.962	1840.61
541.166	1759.24
541.371	1776.48
541.576	1766.6
541.781	1723.2
541.985	1804.19
542.19	1850.3
542.395	1933.42
542.599	1912.69
542.804	1889.44
543.008	1905.33
543.213	1852.82
543.418	1812.52
543.622	1889.83
543.827	1838.87
544.031	1921.6
544.236	1918.89
544.44	1907.65
544.645	1984.76
544.849	1891.18
545.054	1964.61
545.258	2004.72
545.463	1997.36
545.667	1876.07
545.872	1915.21
546.076	1918.89
546.281	1933.23
546.485	1890.41
546.689	1928.19
546.894	1945.82
547.098	1919.66
547.302	1876.26
547.507	1929.16
547.711	1932.64
547.915	1988.83
548.119	1879.36
548.324	1889.05
548.528	1949.69
548.732	1905.33
548.936	1952.02
549.141	1980.5
549.345	1916.76
549.549	1962.68
549.753	1932.64
549.957	2029.32
550.161	2007.43
550.366	1960.74
550.57	1899.71
550.774	1920.24
550.978	1944.08
551.182	1973.14
551.386	1915.21
551.59	1928.38
551.794	1931.68
551.998	1961.9
552.202	1908.62
552.406	1903.97
552.61	1964.42
552.814	1958.61
553.018	2029.32
553.222	1933.23
553.426	1894.67
553.63	2039.98
553.833	1933.81
554.037	1887.7
554.241	1993.87
554.445	1950.86
554.649	1937.68
554.853	1945.43
555.056	1984.96
555.26	1971.59
555.464	1990.58
555.668	1943.11
555.871	1999.49
556.075	1998.13
556.279	1908.04
556.483	1897.38
556.686	1936.33
556.89	1952.41
557.094	1962.09
557.297	1853.01
557.501	1961.32
557.704	1837.71
557.908	1917.73
558.112	1898.16
558.315	1970.62
558.519	1869.68
558.722	1885.95
558.926	1853.79
559.129	1812.72
559.333	1820.85
559.536	1777.07
559.74	1785.4
559.943	1805.16
560.147	1803.8
560.35	1798.77
560.553	1786.95
560.757	1785.4
560.96	1875.68
561.164	1799.73
561.367	1900.1
561.57	1828.21
561.774	1849.91
561.977	1809.23
562.18	1789.08
562.384	1857.66
562.587	1810.39
562.79	1761.18
562.993	1792.95
563.197	1807.1
563.4	1851.27
563.603	1837.9
563.806	1903.39
564.009	1779
564.212	1812.52
564.416	1745.87
564.619	1778.23
564.822	1764.86
565.025	1835.96
565.228	1764.47
565.431	1768.35
565.634	1663.92
565.837	1718.55
566.04	1720.3
566.243	1717.97
566.446	1639.7
566.649	1725.53
566.852	1636.02
567.055	1697.63
567.258	1739.48
567.461	1749.94
567.664	1739.67
567.867	1649.39
568.07	1696.08
568.273	1714.1
568.475	1773
568.678	1663.34
568.881	1642.8
569.084	1672.83
569.287	1539.14
569.489	1612.96
569.692	1648.61
569.895	1656.94
570.098	1570.14
570.3	1577.31
570.503	1536.82
570.706	1540.11
570.909	1530.43
571.111	1521.51
571.314	1508.73
571.516	1536.24
571.719	1543.79
571.922	1498.07
572.124	1524.23
572.327	1552.51
572.529	1508.14
572.732	1486.83
572.935	1536.43
573.137	1629.62
573.34	1507.37
573.542	1576.92
573.745	1556.78
573.947	1549.99
574.15	1520.35
574.352	1503.49
574.554	1536.63
574.757	1496.13
574.959	1461.26
575.162	1468.04
575.364	1476.37
575.566	1587.77
575.769	1446.15
575.971	1462.42
576.173	1364.97
576.376	1483.15
576.578	1512.79
576.78	1519.19
576.982	1371.75
577.185	1439.75
577.387	1393.64
577.589	1406.81
577.791	1463.2
577.993	1477.73
578.196	1439.17
578.398	1448.86
578.6	1464.75
578.802	1367.68
579.004	1381.63
579.206	1391.31
579.408	1391.12
579.61	1384.53
579.812	1433.36
580.014	1369.23
580.216	1395.96
580.418	1377.95
580.62	1370.97
580.822	1312.27
581.024	1389.57
581.226	1450.41
581.428	1374.65
581.63	1473.46
581.832	1331.45
582.034	1442.08
582.236	1402.94
582.438	1408.95
582.64	1467.65
582.841	1471.33
583.043	1452.93
583.245	1408.36
583.447	1406.81
583.649	1390.54
583.85	1387.44
584.052	1405.26
584.254	1378.92
584.456	1448.66
584.657	1321.95
584.859	1345.78
585.061	1344.04
585.262	1351.98
585.464	1282.24
585.666	1418.63
585.867	1319.82
586.069	1416.11
586.27	1367.48
586.472	1360.12
586.674	1307.03
586.875	1317.11
587.077	1301.61
587.278	1328.15
587.48	1306.07
587.681	1434.91
587.883	1391.7
588.084	1268.29
588.285	1332.61
588.487	1308.58
588.688	1322.53
588.89	1308.2
589.091	1243.49
589.292	1255.3
589.494	1222.56
589.695	1181.68
589.896	1123.36
590.098	1104.57
590.299	1182.26
590.5	1150.68
590.702	1162.5
590.903	1186.52
591.104	1268.48
591.305	1244.26
591.507	1277.2
591.708	1280.49
591.909	1257.63
592.11	1303.16
592.311	1271
592.512	1227.79
592.714	1204.35
592.915	1193.69
593.116	1198.92
593.317	1245.04
593.518	1243.87
593.719	1202.22
593.92	1247.75
594.121	1286.69
594.322	1222.75
594.523	1247.94
594.724	1226.63
594.925	1246
595.126	1240.97
595.327	1234.19
595.528	1255.11
595.729	1243.87
595.929	1219.07
596.13	1209.39
596.331	1249.49
596.532	1258.6
596.733	1281.27
596.934	1299.67
597.135	1252.79
597.335	1246.78
597.536	1199.89
597.737	1219.07
597.938	1200.67
598.138	1272.35
598.339	1227.6
598.54	1223.53
598.74	1196.21
598.941	1226.63
599.142	1274.49
599.342	1265.57
599.543	1201.25
599.744	1217.33
599.944	1192.53
600.145	1215.01
600.345	1181.1
600.546	1278.36
600.746	1256.85
600.947	1299.67
601.147	1206.09
601.348	1251.43
601.548	1183.81
601.749	1220.62
601.949	1129.76
602.15	1178
602.35	1187.3
602.551	1272.55
602.751	1135.37
602.951	1153.59
603.152	1128.21
603.352	1173.93
603.552	1176.26
603.753	1237.29
603.953	1208.42
604.153	1205.71
604.354	1198.34
604.554	1192.92
604.754	1192.53
604.954	1166.18
605.155	1223.72
605.355	1181.87
605.555	1213.07
605.755	1255.89
605.955	1167.92
606.155	1208.42
606.356	1190.01
606.556	1229.15
606.756	1234.19
606.956	1138.67
607.156	1214.81
607.356	1157.46
607.556	1198.34
607.756	1194.47
607.956	1232.05
608.156	1186.72
608.356	1132.27
608.556	1191.56
608.756	1177.81
608.956	1113.29
609.156	1170.25
609.356	1122.59
609.556	1111.93
609.755	1148.36
609.955	1106.7
610.155	1169.47
610.355	1154.75
610.555	1124.14
610.755	1121.04
610.954	1059.04
611.154	1128.59
611.354	1151.07
611.554	1112.51
611.753	1095.08
611.953	1056.71
612.153	1134.41
612.352	1111.54
612.552	1060.2
612.752	1036.76
612.951	1077.06
613.151	1118.71
613.351	1060.98
613.55	1098.95
613.75	1110.38
613.949	1084.42
614.149	1073.18
614.348	1077.25
614.548	1050.32
614.747	999.56
614.947	1044.31
615.146	992
615.346	1081.9
615.545	1087.91
615.745	1070.08
615.944	1093.53
616.144	1050.32
616.343	1100.31
616.542	1018.16
616.742	1067.76
616.941	1059.04
617.14	1008.66
617.34	1069.5
617.539	1033.08
617.738	972.82
617.938	1101.47
618.137	1020.87
618.336	990.65
618.535	1061.56
618.734	1025.13
618.934	1059.81
619.133	1077.25
619.332	1062.53
619.531	1029.4
619.73	1050.32
619.929	1062.33
620.128	1056.52
620.328	1068.34
620.527	995.88
620.726	1040.05
620.925	1018.93
621.124	1048.58
621.323	1055.36
621.522	965.07
621.721	999.17
621.92	989.29
622.119	1023.97
622.318	981.35
622.517	964.68
622.715	996.65
622.914	947.05
623.113	979.99
623.312	932.91
623.511	1010.41
623.71	956.55
623.909	950.73
624.107	1047.99
624.306	969.33
624.505	918.38
624.704	947.25
624.902	972.82
625.101	1012.35
625.3	1007.31
625.499	931.94
625.697	945.7
625.896	916.83
626.095	974.76
626.293	913.15
626.492	921.09
626.69	952.87
626.889	917.8
627.088	988.71
627.286	939.11
627.485	942.6
627.683	951.51
627.882	976.31
628.08	876.72
628.279	934.65
628.477	1004.4
628.676	921.87
628.874	957.32
629.073	903.27
629.271	891.64
629.469	948.02
629.668	934.27
629.866	925.93
630.065	893.58
630.263	939.88
630.461	874.01
630.66	921.09
630.858	926.13
631.056	961.58
631.254	951.7
631.453	872.46
631.651	955
631.849	891.64
632.047	926.52
632.245	904.04
632.444	921.87
632.642	914.31
632.84	932.13
633.038	891.83
633.236	859.29
633.434	891.64
633.632	881.18
633.83	895.9
634.028	925.35
634.227	911.6
634.425	942.98
634.623	891.45
634.821	927.29
635.019	880.02
635.216	905.4
635.414	929.62
635.612	893.58
635.81	900.75
636.008	928.84
636.206	903.65
636.404	920.51
636.602	853.47
636.8	889.32
636.997	953.83
637.195	924.38
637.393	918.18
637.591	965.26
637.789	907.33
637.986	881.37
638.184	918.18
638.382	946.28
638.58	944.92
638.777	990.26
638.975	918.18
639.173	900.75
639.37	908.88
639.568	923.8
639.765	934.27
639.963	893.58
640.161	947.44
640.358	936.98
640.556	864.13
640.753	862.97
640.951	848.44
641.148	875.75
641.346	857.93
641.543	860.25
641.741	893.77
641.938	859.67
642.136	854.05
642.333	854.44
642.531	925.55
642.728	943.37
642.925	895.52
643.123	866.07
643.32	874.78
643.517	841.27
643.715	885.83
643.912	821.7
644.109	862.39
644.306	820.54
644.504	813.37
644.701	850.18
644.898	877.69
645.095	840.49
645.293	863.55
645.49	868.39
645.687	850.57
645.884	875.56
646.081	789.92
646.278	824.02
646.475	807.94
646.672	804.65
646.87	835.45
647.067	830.61
647.264	856.77
647.461	794.57
647.658	786.24
647.855	838.17
648.052	797.87
648.249	714.94
648.446	758.15
648.642	778.69
648.839	780.62
649.036	763.96
649.233	744.2
649.43	752.14
649.627	735.67
649.824	753.31
650.021	721.53
650.217	743.62
650.414	745.75
650.611	756.6
650.808	790.31
651.004	788.18
651.201	808.52
651.398	855.8
651.595	801.16
651.791	757.76
651.988	823.25
652.185	746.72
652.381	767.84
652.578	725.02
652.775	778.3
652.971	734.12
653.168	787.21
653.364	781.2
653.561	719.21
653.757	769.39
653.954	758.34
654.15	747.3
654.347	807.55
654.543	767.06
654.74	717.85
654.936	700.41
655.133	743.42
655.329	727.15
655.525	745.56
655.722	752.92
655.918	695.76
656.115	758.73
656.311	651.78
656.507	635.31
656.704	592.88
656.9	674.84
657.096	631.05
657.292	604.51
657.489	696.92
657.685	680.65
657.881	688.01
658.077	695.18
658.273	692.47
658.47	780.24
658.666	674.06
658.862	726.37
659.058	709.13
659.254	764.74
659.45	686.27
659.646	735.87
659.842	725.6
660.038	743.81
660.234	707.58
660.43	722.31
660.626	752.92
660.822	770.74
661.018	765.71
661.214	735.29
661.41	691.31
661.606	773.46
661.802	774.23
661.998	730.83
662.194	704.29
662.39	701.19
662.586	763.19
662.781	761.83
662.977	749.62
663.173	765.12
663.369	763.57
663.564	742.07
663.76	777.91
663.956	694.79
664.152	771.13
664.347	682.98
664.543	742.46
664.739	714.36
664.934	673.68
665.13	656.43
665.326	747.49
665.521	703.9
665.717	667.67
665.912	686.27
666.108	605.86
666.304	678.52
666.499	710.87
666.695	627.56
666.89	696.92
667.086	720.95
667.281	710.29
667.477	788.95
667.672	732.19
667.867	698.86
668.063	708.74
668.258	651.98
668.454	673.09
668.649	794.77
668.844	700.22
669.04	728.7
669.235	704.87
669.43	687.04
669.626	640.74
669.821	689.37
670.016	641.71
670.211	716.11
670.407	656.43
670.602	718.43
670.797	665.15
670.992	723.47
671.187	653.53
671.382	729.28
671.578	676.39
671.773	689.56
671.968	638.99
672.163	700.41
672.358	689.76
672.553	657.21
672.748	654.69
672.943	737.81
673.138	698.47
673.333	730.25
673.528	658.76
673.723	712.23
673.918	697.51
674.113	631.63
674.308	765.32
674.503	705.06
674.698	719.98
674.892	719.21
675.087	718.62
675.282	704.48
675.477	669.03
675.672	730.64
675.867	668.25
676.061	632.41
676.256	659.14
676.451	665.34
676.646	693.82
676.84	659.92
677.035	608.38
677.23	606.44
677.424	694.6
677.619	688.21
677.814	693.63
678.008	707.39
678.203	629.11
678.397	630.47
678.592	674.26
678.787	729.86
678.981	666.12
679.176	673.09
679.37	676.19
679.565	649.46
679.759	665.54
679.954	683.17
680.148	727.15
680.342	724.05
680.537	679.1
680.731	656.24
680.926	692.66
681.12	710.68
681.314	642.48
681.509	654.69
681.703	678.33
681.897	694.41
682.092	650.62
682.286	638.22
682.48	741.87
682.674	714.94
682.869	645
683.063	657.98
683.257	735.48
683.451	653.33
683.645	688.79
683.839	675.42
684.034	630.66
684.228	696.73
684.422	607.41
684.616	631.24
684.81	691.11
685.004	633.96
685.198	630.08
685.392	690.34
685.586	613.61
685.78	672.32
685.974	680.26
686.168	644.42
686.362	725.99
686.556	645
686.75	602.38
686.944	613.42
687.138	641.51
687.331	531.85
687.525	546.77
687.719	539.21
687.913	568.28
688.107	539.02
688.301	514.8
688.494	575.25
688.688	544.64
688.882	519.84
689.076	502.02
689.269	572.54
689.463	640.93
689.657	579.32
689.85	556.65
690.044	574.28
690.238	579.71
690.431	562.85
690.625	550.45
690.818	596.37
691.012	589.2
691.205	595.4
691.399	534.37
691.593	605.28
691.786	656.43
691.98	649.07
692.173	668.06
692.366	646.74
692.56	656.43
692.753	711.07
692.947	608.96
693.14	663.02
693.333	683.17
693.527	585.13
693.72	654.3
693.914	638.03
694.107	634.34
694.3	642.87
694.493	616.13
694.687	667.67
694.88	643.84
695.073	702.93
695.266	721.14
695.46	652.17
695.653	714.56
695.846	693.82
696.039	615.55
696.232	660.31
696.425	722.69
696.618	691.69
696.812	692.86
697.005	776.94
697.198	820.15
697.391	773.84
697.584	780.04
697.777	857.35
697.97	793.41
698.163	814.34
698.356	817.63
698.549	900.75
698.742	844.56
698.935	820.34
699.127	837.97
699.32	800.19
699.513	807.17
699.706	859.29
699.899	893.19
700.092	843.01
700.285	877.5
700.477	819.95
700.67	911.6
700.863	922.06
701.056	1014.09
701.248	952.09
701.441	971.66
701.634	940.47
701.826	1045.48
702.019	936.98
702.212	1035.6
702.404	973.98
702.597	939.11
702.79	979.21
702.982	1019.51
703.175	1055.94
703.367	1043.93
703.56	1114.64
703.752	1183.81
703.945	1147
704.137	1114.06
704.33	1172.38
704.522	1139.64
704.715	1165.6
704.907	1209.39
705.1	1228.76
705.292	1226.82
705.484	1211.91
705.677	1248.14
705.869	1250.85
706.061	1306.26
706.254	1328.93
706.446	1274.68
706.638	1283.59
706.831	1370.78
707.023	1326.99
707.215	1434.71
707.407	1408.75
707.599	1389.18
707.792	1481.99
707.984	1449.25
708.176	1476.37
708.368	1445.56
708.56	1490.51
708.752	1488.38
708.944	1485.67
709.136	1534.3
709.329	1496.52
709.521	1643.38
709.713	1605.99
709.905	1619.36
710.097	1672.05
710.289	1613.35
710.481	1635.44
710.672	1682.71
710.864	1693.95
711.056	1713.52
711.248	1731.34
711.44	1734.05
711.632	1751.88
711.824	1764.86
712.016	1825.12
712.207	1821.82
712.399	1838.68
712.591	1908.43
712.783	1902.03
712.975	1908.04
713.166	1850.11
713.358	1891.38
713.55	1963.45
713.741	1967.71
713.933	1971.98
714.125	1962.68
714.316	1963.45
714.508	2035.14
714.7	2060.13
714.891	2029.13
715.083	2130.85
715.274	2068.66
715.466	2108.57
715.657	2123.68
715.849	2021.19
716.04	2083.38
716.232	2092.49
716.423	2155.07
716.615	2104.69
716.806	2082.02
716.998	2058
717.189	2037.85
717.381	1911.72
717.572	1901.65
717.763	1954.54
717.955	1955.12
718.146	1931.29
718.337	1874.71
718.528	1829.76
718.72	1818.14
718.911	1848.95
719.102	1788.5
719.293	1866.58
719.485	1837.13
719.676	1866.58
719.867	1823.76
720.058	1833.06
720.249	1836.35
720.44	1838.1
720.632	1901.65
720.823	1967.71
721.014	2071.95
721.205	2092.68
721.396	2142.67
721.587	2240.7
721.778	2277.51
721.969	2341.65
722.16	2343.2
722.351	2397.64
722.542	2529.19
722.733	2543.72
722.924	2461.38
723.115	2523.19
723.305	2473.2
723.496	2535
723.687	2417.79
723.878	2450.72
724.069	2443.36
724.26	2472.42
724.45	2362.96
724.641	2406.74
724.832	2434.26
725.023	2413.72
725.213	2427.86
725.404	2426.51
725.595	2423.6
725.785	2423.99
725.976	2481.92
726.167	2494.51
726.357	2500.32
726.548	2606.69
726.739	2501.29
726.929	2597.2
727.12	2614.25
727.31	2661.52
727.501	2593.13
727.691	2647.77
727.882	2637.3
728.072	2692.33
728.263	2687.48
728.453	2714.8
728.644	2720.42
728.834	2733.21
729.024	2730.11
729.215	2722.16
729.405	2707.25
729.596	2783.78
729.786	2822.72
729.976	2871.35
730.167	2877.16
730.357	2820.59
730.547	2844.23
730.737	2874.45
730.928	2911.84
731.118	2998.06
731.308	2937.03
731.498	2892.08
731.688	3033.52
731.879	3026.54
732.069	3092.42
732.259	3119.35
732.449	3107.92
732.639	3205.76
732.829	3207.89
733.019	3226.29
733.209	3310.19
733.399	3341.19
733.589	3372.77
733.779	3435.35
733.969	3408.22
734.159	3465.19
734.349	3539.39
734.539	3537.65
734.729	3555.28
734.919	3618.44
735.109	3619.41
735.299	3575.43
735.488	3612.82
735.678	3606.43
735.868	3612.05
736.058	3646.73
736.248	3620.38
736.437	3564
736.627	3579.69
736.817	3722.87
737.007	3624.06
737.196	3697.29
737.386	3655.45
737.576	3638.2
737.765	3759.1
737.955	3740.89
738.144	3845.12
738.334	3802.69
738.524	3725.97
738.713	3752.12
738.903	3749.99
739.092	3849.39
739.282	3826.52
739.471	3784.67
739.661	3770.53
739.85	3838.73
740.04	3853.45
740.229	3863.14
740.419	3943.16
740.608	3935.41
740.797	3897.82
740.987	3954.98
741.176	3925.33
741.365	3926.3
741.555	3837.76
741.744	4014.65
741.933	3896.85
742.123	3954.98
742.312	3992.37
742.501	4012.33
742.69	4011.94
742.88	3956.72
743.069	4065.22
743.258	3942.97
743.447	4060.57
743.636	4072
743.825	4007.29
744.014	4054.56
744.204	4106.49
744.393	4019.11
744.582	4097.19
744.771	4188.25
744.96	4068.51
745.149	4094.09
745.338	4048.17
745.527	4175.85
745.716	4092.15
745.905	4083.24
746.094	4137.29
746.283	4166.16
746.471	4127.8
746.66	4201.23
746.849	4166.74
747.038	4171.39
747.227	4104.55
747.416	4172.94
747.604	4140.39
747.793	4179.34
747.982	4165.97
748.171	4183.6
748.359	4160.54
748.548	4161.51
748.737	4163.26
748.926	4180.69
749.114	4069.29
749.303	4180.69
749.491	4163.45
749.68	4079.17
749.869	4181.08
750.057	4102.61
750.246	4114.24
750.434	4110.94
750.623	4105.52
750.811	4110.94
751	4160.35
751.188	4119.28
751.377	4141.75
751.565	4133.42
751.754	4070.26
751.942	4033.45
752.131	4188.44
752.319	4110.36
752.507	4019.3
752.696	4090.99
752.884	4116.95
753.072	4068.32
753.261	4090.41
753.449	4054.37
753.637	4051.85
753.825	4183.6
754.014	4088.47
754.202	4069.48
754.39	4150.66
754.578	4164.81
754.766	4060.38
754.955	4027.05
755.143	4112.69
755.331	4053.01
755.519	4064.25
755.707	4075.49
755.895	3997.22
756.083	4072.78
756.271	4005.16
756.459	4049.91
756.647	4068.13
756.835	4019.69
757.023	4026.47
757.211	4029.38
757.399	3988.69
757.587	3991.02
757.775	3929.79
757.963	3972.03
758.151	3954.4
758.339	3955.75
758.526	3950.13
758.714	3959.82
758.902	3863.92
759.09	3786.22
759.278	3648.08
759.465	3442.13
759.653	3081.37
759.841	2883.36
760.028	2471.84
760.216	2212.61
760.404	2058.97
760.591	1771.25
760.779	1564.33
760.967	1419.6
761.154	1227.02
761.342	1250.46
761.529	1234.57
761.717	1343.27
761.905	1356.63
762.092	1465.52
762.28	1422.31
762.467	1433.36
762.655	1416.5
762.842	1434.52
763.029	1469.4
763.217	1482.96
763.404	1505.24
763.592	1552.51
763.779	1482.18
763.966	1581.57
764.154	1589.52
764.341	1688.72
764.528	1656.36
764.716	1739.87
764.903	1770.48
765.09	1903
765.277	1942.33
765.465	2101.01
765.652	2135.3
765.839	2186.26
766.026	2340.87
766.213	2347.07
766.4	2466.03
766.588	2656.29
766.775	2656.1
766.962	2750.65
767.149	2753.55
767.336	2938.19
767.523	2925.79
767.71	3062.97
767.897	3154.22
768.084	3219.71
768.271	3245.48
768.458	3268.14
768.645	3330.53
768.832	3303.02
769.019	3349.91
769.206	3374.9
769.392	3438.06
769.579	3533.97
769.766	3516.72
769.953	3452.4
770.14	3512.27
770.327	3522.15
770.513	3548.69
770.7	3621.54
770.887	3503.93
771.073	3584.53
771.26	3566.52
771.447	3551.02
771.634	3510.33
771.82	3635.68
772.007	3506.26
772.193	3554.7
772.38	3573.88
772.567	3526.6
772.753	3490.18
772.94	3594.61
773.126	3541.72
773.313	3575.23
773.499	3565.16
773.686	3565.74
773.872	3524.28
774.059	3530.48
774.245	3472.35
774.432	3484.37
774.618	3409.77
774.804	3511.88
774.991	3464.99
775.177	3494.63
775.363	3515.37
775.55	3513.23
775.736	3408.22
775.922	3472.16
776.109	3515.17
776.295	3513.62
776.481	3462.47
776.667	3474.87
776.853	3406.29
777.04	3432.25
777.226	3429.73
777.412	3489.21
777.598	3396.79
777.784	3406.87
777.97	3365.21
778.156	3404.35
778.342	3393.69
778.528	3377.81
778.715	3308.25
778.901	3356.49
779.087	3348.74
779.272	3323.56
779.458	3286.74
779.644	3350.1
779.83	3320.84
780.016	3448.52
780.202	3361.14
780.388	3287.91
780.574	3243.73
780.76	3280.54
780.946	3365.41
781.131	3283.64
781.317	3281.9
781.503	3227.46
781.689	3220.29
781.874	3380.52
782.06	3234.04
782.246	3251.29
782.432	3259.23
782.617	3233.85
782.803	3331.31
782.989	3195.68
783.174	3220.87
783.36	3138.14
783.545	3167.4
783.731	3181.15
783.916	3082.53
784.102	3181.54
784.288	3158.68
784.473	3122.06
784.659	3152.86
784.844	3175.15
785.029	3095.32
785.215	3117.02
785.4	3121.09
785.586	3156.55
785.771	3040.88
785.956	3088.15
786.142	3071.3
786.327	3105.01
786.512	3094.16
786.698	3086.99
786.883	2996.7
787.068	3010.07
787.254	3087.38
787.439	3064.52
787.624	3015.89
787.809	2978.1
787.994	2979.27
788.18	3060.25
788.365	2936.84
788.55	2979.07
788.735	3003.1
788.92	3002.52
789.105	2973.65
789.29	2944.01
789.475	2911.84
789.66	2936.45
789.845	2902.16
790.03	2927.15
790.215	2910.49
790.4	2978.88
790.585	2992.44
790.77	2903.71
790.955	2834.73
791.14	2905.06
791.325	2967.84
791.51	2785.33
791.695	2890.34
791.879	2864.38
792.064	2834.15
792.249	2907.97
792.434	2878.13
792.618	2859.53
792.803	2885.11
792.988	2875.03
793.173	2895.37
793.357	2870.38
793.542	2802.38
793.727	2848.1
793.911	2917.85
794.096	2814.58
794.281	2898.47
794.465	2983.72
794.65	2856.43
794.834	2908.74
795.019	2936.84
795.203	2930.44
795.388	2906.03
795.572	2966.09
795.757	2898.86
795.941	2919.79
796.126	2960.47
796.31	2874.64
796.494	2908.74
796.679	2872.71
796.863	2850.43
797.048	2944.97
797.232	2931.22
797.416	2928.7
797.601	2912.23
797.785	2972.1
797.969	2920.76
798.153	2883.17
798.338	2927.92
798.522	2966.29
798.706	2951.95
798.89	2955.24
799.074	3037.2
799.258	3034.49
799.443	2951.95
799.627	2927.73
799.811	3006.39
799.995	2941.68
800.179	2935.09
800.363	2930.44
800.547	2954.86
800.731	2981.59
800.915	2853.33
801.099	2910.68
801.283	2893.82
801.467	2950.01
801.651	2934.71
801.835	2964.54
802.019	2932.38
802.202	2956.21
802.386	2907.77
802.57	2911.07
802.754	2915.33
802.938	2893.63
803.121	2885.69
803.305	2954.27
803.489	2873.48
803.673	2926.18
803.856	2942.84
804.04	2891.69
804.224	2917.07
804.407	2908.55
804.591	2875.61
804.775	2912.04
804.958	2914.75
805.142	3010.85
805.326	2876.97
805.509	2966.48
805.693	2996.51
805.876	2938.19
806.06	2972.29
806.243	2948.27
806.427	2940.52
806.61	2958.92
806.794	2910.29
806.977	2961.44
807.16	2916.49
807.344	2930.83
807.527	2937.61
807.71	2895.96
807.894	2892.47
808.077	2931.41
808.26	2857.59
808.444	2835.12
808.627	2939.74
808.81	2832.99
808.993	2791.14
809.177	2792.69
809.36	2847.52
809.543	2823.49
809.726	2748.51
809.909	2772.54
810.092	2780.68
810.276	2756.46
810.459	2797.73
810.642	2741.35
810.825	2692.33
811.008	2738.44
811.191	2629.75
811.374	2660.17
811.557	2677.02
811.74	2734.56
811.923	2608.63
812.106	2608.63
812.289	2603.2
812.472	2588.48
812.654	2608.82
812.837	2560
813.02	2509.24
813.203	2520.47
813.386	2359.66
813.569	2390.66
813.751	2315.68
813.934	2376.71
814.117	2310.06
814.3	2308.9
814.482	2300.96
814.665	2262.02
814.848	2176.38
815.03	2119.61
815.213	2156.04
815.396	2109.92
815.578	2069.82
815.761	2028.36
815.943	2127.75
816.126	2000.46
816.309	1993.68
816.491	1922.76
816.674	1835
816.856	1911.33
817.039	1921.41
817.221	1976.24
817.403	1933.23
817.586	1945.63
817.768	1957.83
817.951	1889.05
818.133	1860.76
818.315	1895.06
818.498	1907.85
818.68	2001.43
818.862	1947.56
819.045	1964.61
819.227	1991.16
819.409	1930.32
819.591	1952.41
819.774	1918.69
819.956	1902.23
820.138	1990.96
820.32	1971.39
820.502	1985.54
820.684	2071.95
820.866	2089.97
821.048	2134.14
821.231	2160.88
821.413	2129.1
821.595	2092.29
821.777	2150.03
821.959	2090.55
822.141	2198.27
822.323	2054.9
822.505	1976.82
822.686	1937.49
822.868	1893.12
823.05	1757.11
823.232	1717.59
823.414	1657.91
823.596	1704.41
823.778	1699.95
823.96	1745.48
824.141	1773
824.323	1779.78
824.505	1823.18
824.687	1860.38
824.868	1951.05
825.05	2009.76
825.232	2053.54
825.413	2100.62
825.595	2086.29
825.777	2034.36
825.958	2060.13
826.14	2049.67
826.321	2055.09
826.503	2035.33
826.685	2066.52
826.866	2076.02
827.048	2051.02
827.229	2047.73
827.411	1992.9
827.592	1958.03
827.773	1950.47
827.955	1869.29
828.136	1911.53
828.318	1892.93
828.499	1881.11
828.68	1850.5
828.862	1886.34
829.043	1889.25
829.224	1871.03
829.406	1841
829.587	1824.53
829.768	1840.03
829.949	1843.13
830.131	1846.62
830.312	1936.13
830.493	1891.38
830.674	1880.72
830.855	1826.28
831.036	1847.4
831.218	1915.21
831.399	1924.89
831.58	1856.11
831.761	1853.01
831.942	1863.09
832.123	1861.93
832.304	1800.51
832.485	1834.61
832.666	1826.08
832.847	1861.15
833.028	1848.75
833.209	1866.19
833.389	1845.65
833.57	1764.67
833.751	1837.13
833.932	1865.22
834.113	1853.79
834.294	1824.34
834.475	1836.55
834.655	1882.85
834.836	1889.63
835.017	1868.71
835.198	1830.93
835.378	1866.38
835.559	1881.88
835.74	1884.6
835.92	1829.57
836.101	1769.32
836.281	1881.88
836.462	1881.11
836.643	1874.13
836.823	1904.75
837.004	1909.78
837.184	1936.91
837.365	1921.99
837.545	1916.95
837.726	1908.81
837.906	1934.97
838.087	1874.71
838.267	1900.29
838.448	1841.78
838.628	1909.98
838.808	1883.05
838.989	1933.23
839.169	1849.14
839.349	1886.73
839.53	1885.18
839.71	1924.89
839.89	1815.43
840.07	1918.31
840.251	1882.46
840.431	1879.75
840.611	1850.88
840.791	1831.7
840.971	1891.76
841.151	1851.46
841.332	1829.96
841.512	1907.85
841.692	1818.72
841.872	1863.67
842.052	1843.33
842.232	1858.44
842.412	1819.11
842.592	1834.03
842.772	1847.78
842.952	1870.84
843.132	1790.24
843.312	1809.42
843.492	1796.44
843.672	1870.26
843.851	1748
844.031	1805.55
844.211	1802.83
844.391	1786.75
844.571	1812.72
844.751	1799.93
844.93	1809.62
845.11	1775.71
845.29	1791.21
845.47	1831.51
845.649	1752.85
845.829	1819.69
846.009	1764.86
846.188	1786.17
846.368	1798.38
846.547	1784.43
846.727	1807.87
846.907	1750.13
847.086	1794.89
847.266	1850.69
847.445	1764.67
847.625	1733.86
847.804	1763.7
847.984	1802.06
848.163	1740.64
848.343	1732.89
848.522	1745.48
848.701	1763.31
848.881	1701.89
849.06	1765.63
849.239	1743.55
849.419	1715.26
849.598	1669.34
849.777	1650.16
849.957	1627.49
850.136	1594.56
850.315	1553.09
850.494	1583.51
850.674	1564.72
850.853	1652.87
851.032	1617.42
851.211	1673.41
851.39	1673.02
851.569	1562.2
851.748	1607.92
851.927	1621.1
852.107	1610.64
852.286	1547.86
852.465	1561.23
852.644	1638.15
852.823	1619.74
853.002	1609.28
853.181	1597.27
853.359	1618
853.538	1548.25
853.717	1616.26
853.896	1511.83
854.075	1457
854.254	1450.21
854.433	1361.48
854.611	1402.36
854.79	1305.29
854.969	1375.04
855.148	1426.96
855.327	1353.15
855.505	1432.39
855.684	1409.33
855.863	1431.03
856.041	1427.16
856.22	1471.33
856.399	1461.06
856.577	1532.17
856.756	1532.75
856.934	1634.86
857.113	1645.12
857.291	1519.19
857.47	1518.03
857.648	1546.89
857.827	1537.98
858.005	1599.01
858.184	1503.3
858.362	1603.08
858.541	1558.91
858.719	1512.79
858.898	1532.17
859.076	1518.41
859.254	1594.75
859.433	1497.68
859.611	1500.59
859.789	1481.02
859.967	1543.6
860.146	1570.14
860.324	1462.61
860.502	1465.52
860.68	1430.45
860.859	1430.06
861.037	1465.71
861.215	1500.39
861.393	1466.1
861.571	1481.6
861.749	1450.21
861.927	1478.69
862.105	1506.01
862.283	1470.17
862.461	1438.2
862.639	1390.93
862.817	1404.68
862.995	1412.24
863.173	1429.29
863.351	1447.31
863.529	1462.42
863.707	1505.63
863.885	1466.88
864.063	1366.9
864.241	1399.06
864.418	1461.84
864.596	1406.43
864.774	1341.13
864.952	1396.35
865.129	1418.83
865.307	1380.66
865.485	1328.73
865.663	1446.34
865.84	1337.84
866.018	1367.1
866.196	1201.83
866.373	1246
866.551	1225.66
866.728	1155.14
866.906	1171.02
867.084	1216.75
867.261	1294.25
867.439	1289.79
867.616	1291.54
867.794	1293.28
867.971	1275.45
868.149	1263.25
868.326	1362.45
868.503	1322.92
868.681	1310.33
868.858	1295.41
869.035	1282.62
869.213	1309.36
869.39	1280.1
869.567	1391.51
869.745	1282.43
869.922	1323.31
870.099	1343.85
870.276	1324.47
870.454	1326.8
870.631	1301.42
870.808	1280.49
870.985	1338.42
871.162	1384.53
871.339	1308.78
871.517	1225.27
871.694	1240.19
871.871	1302.39
872.048	1274.1
872.225	1295.6
872.402	1271.97
872.579	1242.52
872.756	1265.19
872.933	1228.37
873.11	1254.53
873.287	1270.03
873.463	1250.85
873.64	1215.01
873.817	1257.63
873.994	1239.22
874.171	1216.17
874.348	1269.45
874.524	1145.26
874.701	1212.29
874.878	1132.27
875.055	1212.68
875.231	1222.17
875.408	1235.35
875.585	1165.79
875.762	1200.67
875.938	1157.46
876.115	1165.99
876.291	1152.62
876.468	1191.37
876.645	1122.78
876.821	1156.11
876.998	1150.87
877.174	1186.72
877.351	1176.84
877.527	1145.06
877.704	1171.8
877.88	1150.49
878.057	1159.01
878.233	1211.52
878.409	1139.06
878.586	1185.75
878.762	1159.79
878.938	1154.75
879.115	1063.88
879.291	1151.65
879.467	1064.85
879.644	1106.51
879.82	1161.72
879.996	1119.29
880.172	1074.54
880.349	1127.82
880.525	1135.18
880.701	1062.91
880.877	1044.51
881.053	1133.82
881.229	1075.51
881.405	1123.75
881.581	1054.97
881.757	1116.78
881.933	1080.74
882.109	1142.54
882.285	1083.26
882.461	1021.06
882.637	1079.77
882.813	1041.79
882.989	1093.72
883.165	1162.11
883.341	1058.26
883.517	1140.02
883.693	1092.75
883.869	1119.29
884.044	1061.17
884.22	1076.28
884.396	1137.31
884.572	1133.82
884.747	1119.49
884.923	1112.71
885.099	1130.92
885.275	1117.74
885.45	1093.72
885.626	1055.74
885.801	1071.05
885.977	1080.74
886.153	1013.9
886.328	1085
886.504	1071.44
886.679	1123.75
886.855	1039.08
887.03	1094.88
887.206	1118.13
887.381	1094.11
887.557	1084.61
887.732	1116.97
887.908	1084.42
888.083	1117.74
888.258	1082.87
888.434	1052.26
888.609	1098.76
888.784	1124.72
888.96	1101.08
889.135	1067.76
889.31	1072.99
889.485	1090.43
889.661	1067.76
889.836	1135.57
890.011	1088.49
890.186	1083.84
890.361	1049.74
890.537	1117.74
890.712	1090.23
890.887	1125.11
891.062	1081.32
891.237	1171.02
891.412	1066.98
891.587	1056.33
891.762	1122.59
891.937	1155.72
892.112	1048.96
892.287	1062.53
892.462	1026.88
892.637	993.94
892.812	995.88
892.987	1002.46
893.161	1001.11
893.336	993.36
893.511	1029.98
893.686	1025.91
893.861	1029.2
894.035	984.83
894.21	989.87
894.385	961.97
894.56	996.46
894.734	931.36
894.909	940.85
895.084	947.63
895.258	950.54
895.433	951.51
895.608	941.63
895.782	854.44
895.957	904.04
896.131	904.82
896.306	827.51
896.48	826.54
896.655	868.78
896.829	752.92
897.004	790.7
897.178	771.71
897.353	792.83
897.527	810.27
897.701	791.86
897.876	734.12
898.05	805.23
898.224	773.26
898.399	849.79
898.573	788.18
898.747	688.01
898.921	749.82
899.096	633.38
899.27	623.69
899.444	659.73
899.618	667.28
899.792	712.04
899.967	684.33
900.141	743.42
900.315	676.19
900.489	661.47
900.663	714.75
900.837	692.27
901.011	648.88
901.185	721.92
901.359	681.04
901.533	694.41
901.707	674.45
901.881	680.46
902.055	667.28
902.229	675.23
902.403	736.26
902.576	708.74
902.75	704.09
902.924	821.31
903.098	729.28
903.272	800.77
903.446	813.95
903.619	780.04
903.793	838.36
903.967	796.51
904.14	845.34
904.314	875.37
904.488	826.15
904.661	836.04
904.835	823.25
905.009	885.63
905.182	891.64
905.356	851.92
905.529	847.27
905.703	805.04
905.876	806.78
906.05	766.48
906.223	781.2
906.397	714.94
906.57	704.29
906.744	679.1
906.917	694.02
907.09	688.79
907.264	688.59
907.437	646.74
907.61	611.48
907.784	647.13
907.957	654.69
908.13	627.95
908.304	674.84
908.477	611.87
908.65	606.64
908.823	586.1
908.996	669.03
909.17	616.52
909.343	612.26
909.516	628.34
909.689	626.01
909.862	603.15
910.035	615.16
910.208	592.11
910.381	572.15
910.554	695.76
910.727	613.42
910.9	609.16
911.073	595.79
911.246	680.46
911.419	673.29
911.592	629.69
911.765	612.84
911.938	591.53
912.11	595.01
912.283	603.15
912.456	654.11
912.629	648.68
912.802	569.44
912.974	584.94
913.147	545.03
913.32	487.48
913.493	507.83
913.665	530.69
913.838	521.2
914.01	533.4
914.183	537.08
914.356	537.86
914.528	572.35
914.701	605.48
914.873	595.98
915.046	545.61
915.218	487.29
915.391	438.08
915.563	476.83
915.736	544.06
915.908	545.8
916.081	527.4
916.253	506.67
916.425	547.74
916.598	552.2
916.77	542.31
916.942	530.3
917.115	441.95
917.287	528.56
917.459	492.13
917.632	471.21
917.804	428.2
917.976	503.95
918.148	485.93
918.32	497.75
918.493	529.91
918.665	572.35
918.837	545.61
919.009	561.5
919.181	581.06
919.353	555.88
919.525	544.64
919.697	517.71
919.869	574.48
920.041	612.84
920.213	652.17
920.385	561.5
920.557	529.33
920.729	596.37
920.901	548.51
921.073	573.31
921.244	533.4
921.416	588.04
921.588	558.01
921.76	525.65
921.932	593.66
922.103	524.88
922.275	552.2
922.447	547.55
922.619	477.22
922.79	528.75
922.962	516.35
923.134	535.34
923.305	512.48
923.477	450.09
923.648	461.52
923.82	470.82
923.991	434.78
924.163	435.75
924.335	480.32
924.506	443.31
924.677	537.28
924.849	433.04
925.02	485.74
925.192	503.37
925.363	479.15
925.535	460.75
925.706	439.24
925.877	517.9
926.049	474.12
926.22	480.12
926.391	480.12
926.562	503.57
926.734	459.78
926.905	482.45
927.076	435.56
927.247	422.77
927.419	403.98
927.59	402.04
927.761	421.8
927.932	394.68
928.103	418.32
928.274	368.91
928.445	338.3
928.616	363.87
928.787	337.33
928.958	394.68
929.129	372.79
929.3	364.07
929.471	310.98
929.642	264.29
929.813	205.19
929.984	305.94
930.155	247.82
930.326	278.62
930.496	249.37
930.667	192.99
930.838	243.56
931.009	207.13
931.18	233.87
931.35	213.33
931.521	230.38
931.692	188.34
931.863	130.21
932.033	185.82
932.204	175.74
932.374	204.81
932.545	130.8
932.716	194.34
932.886	172.84
933.057	92.24
933.227	109.29
933.398	202.29
933.568	82.16
933.739	57.37
933.909	56.78
934.08	133.12
934.25	53.49
934.421	71.51
934.591	104.45
934.761	72.48
934.932	31.98
935.102	95.34
935.272	93.01
935.443	56.01
935.613	78.1
935.783	109.68
935.953	72.28
936.123	217.59
936.294	39.93
936.464	71.7
936.634	93.21
936.804	44.38
936.974	32.37
937.144	105.41
937.314	91.85
937.484	82.94
937.655	66.08
937.825	136.61
937.995	67.05
938.165	105.41
938.334	67.05
938.504	86.43
938.674	64.73
938.844	126.53
939.014	165.86
939.184	146.49
939.354	198.61
939.524	189.5
939.694	129.05
939.863	149.98
940.033	212.36
940.203	198.22
940.373	158.89
940.542	183.49
940.712	141.65
940.882	169.54
941.051	181.17
941.221	166.45
941.391	197.44
941.56	134.28
941.73	145.71
941.899	249.37
942.069	136.22
942.238	186.79
942.408	120.14
942.577	180.01
942.747	96.11
942.916	77.13
943.086	90.3
943.255	162.76
943.425	135.25
943.594	120.33
943.763	45.74
943.933	66.47
944.102	39.15
944.271	90.88
944.441	119.36
944.61	90.5
944.779	111.61
944.948	196.09
945.117	40.32
945.287	95.34
945.456	50.2
945.625	63.18
945.794	123.24
945.963	69.77
946.132	116.85
946.301	58.92
946.47	114.71
946.639	53.49
946.808	67.63
946.977	132.93
947.146	162.76
947.315	73.45
947.484	138.74
947.653	89.72
947.822	82.75
947.991	71.51
948.16	193.18
948.329	165.67
948.498	109.48
948.666	91.46
948.835	130.8
949.004	91.46
949.173	71.12
949.341	101.54
949.51	124.01
949.679	139.71
949.847	122.27
950.016	181.75
950.185	173.61
950.353	104.83
950.522	106.38
950.69	155.01
950.859	87.98
951.028	146.1
951.196	124.4
951.365	69.96
951.533	78.29
951.701	142.81
951.87	140.29
952.038	56.59
952.207	120.14
952.375	175.74
952.543	89.53
952.712	89.72
952.88	98.25
953.048	155.6
953.217	100.76
953.385	106.19
953.553	165.28
953.721	70.54
953.89	102.51
954.058	42.25
954.226	70.35
954.394	148.81
954.562	47.1
954.73	85.07
954.898	119.36
955.067	124.6
955.235	78.29
955.403	163.73
955.571	178.46
955.739	113.55
955.907	59.11
956.075	81.2
956.243	81.39
956.41	136.22
956.578	41.87
956.746	47.1
956.914	95.53
957.082	119.56
957.25	119.75
957.418	76.35
957.585	110.65
957.753	146.68
957.921	80.81
958.089	103.67
958.256	124.21
958.424	129.05
958.592	112.78
958.759	77.9
958.927	111.03
959.095	50.58
959.262	121.69
959.43	99.21
959.597	63.18
959.765	82.16
959.932	69.38
960.1	124.01
960.267	117.23
960.435	114.91
960.602	166.64
960.77	103.28
960.937	71.9
961.104	107.93
961.272	17.07
961.439	88.95
961.606	119.56
961.774	151.53
961.941	86.81
962.108	105.61
962.275	106.77
962.443	126.15
962.61	126.15
962.777	175.74
962.944	138.35
963.111	124.98
963.278	116.85
963.446	128.66
963.613	110.84
963.78	144.94
963.947	132.73
964.114	126.15
964.281	216.24
964.448	130.6
964.615	110.45
964.782	113.36
964.949	133.9
965.116	150.75
965.282	189.11
965.449	109.68
965.616	81.2
965.783	144.16
965.95	144.36
966.117	69.96
966.283	151.91
966.45	111.23
966.617	141.26
966.784	160.44
966.95	136.41
967.117	177.88
967.284	95.15
967.45	121.11
967.617	171.48
967.784	124.6
967.95	150.75
968.117	106.77
968.283	180.39
968.45	219.53
968.616	129.63
968.783	175.55
968.949	165.67
969.116	165.28
969.282	123.82
969.449	154.63
969.615	131.57
969.781	86.43
969.948	105.03
970.114	79.65
970.28	184.85
970.447	137.96
970.613	180.59
970.779	131.18
970.945	158.7
971.112	137.38
971.278	145.52
971.444	127.89
971.61	188.53
971.776	85.26
971.942	161.6
972.108	194.73
972.275	139.51
972.441	134.28
972.607	198.41
972.773	122.46
972.939	164.12
973.105	129.63
973.271	80.23
973.437	101.35
973.602	91.85
973.768	158.89
973.934	111.23
974.1	145.71
974.266	30.43
974.432	133.51
974.598	107.93
974.763	159.47
974.929	97.66
975.095	190.47
975.261	99.99
975.426	91.27
975.592	113.16
975.758	176.71
975.923	83.33
976.089	77.71
976.255	163.35
976.42	126.73
976.586	118.2
976.751	138.93
976.917	232.51
977.082	127.11
977.248	81.2
977.413	51.17
977.579	111.42
977.744	143.78
977.91	76.16
978.075	85.46
978.24	150.95
978.406	117.43
978.571	93.6
978.736	100.76
978.902	110.26
979.067	73.45
979.232	33.53
979.397	118.59
979.563	173.03
979.728	78.48
979.893	123.05
980.058	67.44
980.223	150.95
980.388	129.44
980.554	114.33
980.719	95.34
980.884	122.46
981.049	152.3
981.214	75.77
981.379	121.88
981.544	70.35
981.709	88.36
981.874	99.8
982.039	98.63
982.204	127.89
982.368	102.9
982.533	100.57
982.698	119.36
982.863	184.27
983.028	92.05
983.193	104.25
983.357	116.65
983.522	100.18
983.687	91.66
983.852	109.68
984.016	92.05
984.181	111.61
984.346	107.93
984.51	132.15
984.675	111.61
984.839	128.47
985.004	113.36
985.168	149.4
985.333	95.92
985.498	88.75
985.662	110.45
985.827	93.4
985.991	99.99
986.155	97.28
986.32	136.03
986.484	143.78
986.649	103.86
986.813	56.98
986.977	123.82
987.142	115.49
987.306	51.36
987.47	63.95
987.634	83.71
987.799	134.28
987.963	123.82
988.127	131.96
988.291	184.85
988.455	87.98
988.62	80.03
988.784	103.28
988.948	117.81
989.112	76.16
989.276	123.43
989.44	100.96
989.604	83.71
989.768	104.25
989.932	184.08
990.096	65.12
990.26	40.7
990.424	62.02
990.588	70.73
990.752	143
990.915	100.96
991.079	100.96
991.243	71.32
991.407	105.41
991.571	95.92
991.734	99.8
991.898	114.91
992.062	177.29
992.226	108.9
992.389	59.11
992.553	24.04
992.717	59.69
992.88	78.68
993.044	98.63
993.207	69.96
993.371	114.52
993.535	126.53
993.698	101.93
993.862	111.23
994.025	152.3
994.189	101.35
994.352	110.06
994.515	99.02
994.679	115.49
994.842	102.31
995.006	115.3
995.169	54.65
995.332	60.27
995.496	106.38
995.659	22.1
995.822	72.28
995.985	89.14
996.149	132.73
996.312	91.85
996.475	148.62
996.638	58.72
996.801	135.83
996.964	143.97
997.128	77.9
997.291	73.45
997.454	91.66
997.617	4.47
997.78	112.58
997.943	41.48
998.106	121.5
998.269	54.85
998.432	57.37
998.595	76.74
998.758	24.43
998.92	60.66
999.083	18.23
999.246	86.81
999.409	54.27
999.572	18.81
999.735	30.05
999.897	93.6
1000.06	54.85
1000.223	74.8
1000.386	88.56
1000.548	105.41
1000.711	96.31
1000.874	114.33
1001.036	16.68
1001.199	73.06
1001.361	75.19
1001.524	63.37
1001.687	83.71
1001.849	30.63
1002.012	62.02
1002.174	92.05
1002.337	91.66
1002.499	68.02
1002.661	111.61
1002.824	7.77
1002.986	50.97
1003.149	61.82
1003.311	28.11
1003.473	88.56
1003.636	23.27
1003.798	69.18
1003.96	86.43
1004.123	71.51
1004.285	28.5
1004.447	59.5
1004.609	80.23
1004.771	141.45
1004.933	16.68
1005.096	33.92
1005.258	10.67
1005.42	36.05
1005.582	108.32
1005.744	85.46
1005.906	31.6
1006.068	48.65
1006.23	30.43
1006.392	14.55
1006.554	17.84
1006.716	96.7
1006.878	90.11
1007.04	15.13
1007.202	38.96
1007.363	62.79
1007.525	50.97
1007.687	56.01
1007.849	115.1
1008.011	-8.7
1008.172	33.92
1008.334	29.27
1008.496	59.88
1008.658	-4.44
1008.819	23.85
1008.981	-3.86
1009.143	22.1
1009.304	46.52
1009.466	78.87
1009.627	101.54
1009.789	190.66
1009.95	60.08
1010.112	48.26
1010.273	55.43
1010.435	31.79
1010.596	58.53
1010.758	26.75
1010.919	38.96
1011.081	11.45
1011.242	60.08
1011.403	81.78
1011.565	43.42
1011.726	46.13
1011.887	25.01
1012.049	46.13
1012.21	76.35
1012.371	105.41
1012.532	-29.63
1012.693	31.98
1012.855	37.02
1013.016	38.18
1013.177	94.18
1013.338	44.97
1013.499	132.35
1013.66	62.6
1013.821	77.52
1013.982	33.73
1014.143	63.37
1014.304	30.63
1014.465	57.56
1014.626	79.65
1014.787	15.13
1014.948	117.23
1015.109	-18.39
1015.27	86.43
1015.431	45.16
1015.592	9.7
1015.752	113.16
1015.913	28.5
1016.074	57.56
1016.235	48.26
1016.395	40.9
1016.556	41.48
1016.717	21.52
1016.877	80.81
1017.038	6.99
1017.199	53.68
1017.359	41.09
1017.52	41.28
1017.681	20.55
1017.841	62.02
1018.002	28.11
1018.162	17.45
1018.323	104.25
1018.483	32.95
1018.644	26.75
1018.804	22.49
1018.964	-0.76
1019.125	0.21
1019.285	61.24
1019.446	7.77
1019.606	-5.22
1019.766	-21.49
1019.926	71.32
1020.087	35.47
1020.247	-16.65
1020.407	42.64
1020.567	56.59
1020.728	43.03
1020.888	-25.36
1021.048	-8.31
1021.208	-4.83
1021.368	-6.96
1021.528	86.43
1021.688	93.01
1021.848	53.88
1022.008	42.06
1022.168	-0.37
1022.328	27.53
1022.488	31.4
1022.648	13.77
1022.808	24.04
1022.968	28.69
1023.128	6.99
1023.288	19.97
1023.448	31.02
1023.608	37.99
1023.767	38.57
1023.927	9.7
1024.087	3.7
1024.247	-15.1
1024.406	48.65
1024.566	-31.95
1024.726	-15.29
1024.885	24.23
1025.045	61.82
1025.205	6.41
1025.364	29.47
1025.524	28.88
1025.683	14.35
1025.843	42.25
1026.003	48.65
1026.162	78.1
1026.321	64.34
1026.481	35.67
1026.64	19.97
1026.8	40.12
1026.959	34.12
1027.119	16.29
1027.278	19
1027.437	24.82
1027.597	28.11
1027.756	33.15
1027.915	62.21
1028.074	31.4
1028.234	-17.23
1028.393	46.9
1028.552	25.98
1028.711	-51.91
1028.87	46.32
1029.03	-18.58
1029.189	-12.58
1029.348	-59.66
1029.507	0.4
1029.666	9.12
1029.825	-15.1
1029.984	-8.31
1030.143	22.1
1030.302	3.7
1030.461	-47.26
1030.62	1.37
1030.779	72.28
1030.938	-48.42
1031.097	-23.04
1031.255	50.2
1031.414	89.33
1031.573	65.31
1031.732	-29.43
1031.891	-8.31
1032.049	36.44
1032.208	45.55
1032.367	-26.91
1032.525	14.35
1032.684	-7.15
1032.843	15.32
1033.001	-66.25
1033.16	171.29
1033.319	62.02
1033.477	19.58
1033.636	12.61
1033.794	-23.43
1033.953	63.76
1034.111	42.06
1034.27	-13.93
1034.428	46.13
1034.587	-6.18
1034.745	39.93
1034.903	6.02
1035.062	19.39
1035.22	-20.71
1035.378	42.64
1035.537	-12.19
1035.695	35.86
1035.853	3.89
1036.011	34.5
1036.17	22.49
1036.328	-57.33
1036.486	12.42
1036.644	39.73
1036.802	-66.44
1036.96	0.98
1037.119	20.75
1037.277	-9.48
1037.435	-2.7
1037.593	-25.17
1037.751	25.4
1037.909	39.73
1038.067	39.73
