Data from gum_old_FLMT105791__65__15-43-53-257.txt Node

Date: Mon Mar 20 15:43:53 GMT 2023
User: antho
Spectrometer: FLMT10579
Trigger mode: 0
Integration Time (sec): 1.000000E-1
Scans to average: 10
Electric dark correction enabled: true
Nonlinearity correction enabled: false
Boxcar width: 0
XAxis mode: Wavelengths
Number of Pixels in Spectrum: 3648
>>>>>Begin Spectral Data<<<<<
345.248	-182.62
345.464	-182.62
345.681	-182.62
345.898	-180.49
346.114	-167.12
346.331	-60.76
346.548	38.06
346.764	2.21
346.981	8.99
347.197	7.25
347.414	27.79
347.631	-4.57
347.847	65.95
348.064	-1.66
348.28	-9.8
348.497	-58.24
348.713	-15.23
348.93	43.29
349.146	36.51
349.363	10.93
349.579	-18.71
349.796	16.16
350.012	16.94
350.229	21.97
350.445	8.99
350.661	-11.16
350.878	11.32
351.094	39.41
351.311	32.24
351.527	41.93
351.743	-13.09
351.96	39.02
352.176	52
352.392	49.29
352.609	61.89
352.825	19.84
353.041	28.95
353.257	2.99
353.474	39.61
353.69	39.99
353.906	39.02
354.122	-16
354.339	50.46
354.555	20.81
354.771	-12.51
354.987	91.92
355.203	60.72
355.42	30.89
355.636	11.51
355.852	9.57
356.068	46.58
356.284	-6.12
356.5	61.11
356.716	16.55
356.932	15.19
357.148	61.69
357.364	24.11
357.58	52
357.796	89.79
358.012	99.67
358.228	43.48
358.444	-35.38
358.66	65.57
358.876	44.45
359.092	-16.97
359.308	59.75
359.524	51.62
359.74	23.72
359.956	27.21
360.172	47.36
360.388	77.77
360.604	25.66
360.819	118.85
361.035	49.1
361.251	53.17
361.467	8.41
361.683	84.94
361.898	36.7
362.114	54.14
362.33	70.22
362.546	65.76
362.762	48.13
362.977	30.69
363.193	-2.63
363.409	77.58
363.624	21.2
363.84	46
364.056	12.87
364.271	71.57
364.487	57.04
364.703	11.32
364.918	21.78
365.134	36.7
365.35	38.44
365.565	127.37
365.781	77.58
365.996	76.42
366.212	109.35
366.427	53.75
366.643	52.59
366.858	54.33
367.074	38.06
367.289	110.13
367.505	155.66
367.72	22.94
367.936	52.59
368.151	73.32
368.367	81.65
368.582	66.92
368.798	32.24
369.013	108.58
369.228	81.65
369.444	77.19
369.659	133.96
369.874	94.82
370.09	118.65
370.305	22.36
370.52	60.72
370.736	109.74
370.951	54.91
371.166	78.94
371.381	106.84
371.597	90.75
371.812	37.47
372.027	56.46
372.242	65.76
372.458	125.24
372.673	38.25
372.888	58.01
373.103	92.11
373.318	145.39
373.533	76.42
373.749	81.26
373.964	1.63
374.179	110.52
374.394	11.12
374.609	114.39
374.824	34.96
375.039	87.27
375.254	39.22
375.469	124.08
375.684	79.9
375.899	80.29
376.114	77.39
376.329	79.71
376.544	87.27
376.759	113.62
376.974	38.64
377.189	59.95
377.404	68.28
377.619	87.65
377.834	24.69
378.049	39.02
378.264	56.46
378.478	81.07
378.693	57.04
378.908	116.72
379.123	83.39
379.338	133.77
379.553	105.87
379.767	68.09
379.982	100.83
380.197	112.84
380.412	81.07
380.626	88.04
380.841	133.57
381.056	83.2
381.271	164.38
381.485	71.96
381.7	52.78
381.915	83.2
382.129	88.04
382.344	103.35
382.559	86.88
382.773	120.4
382.988	30.11
383.202	95.21
383.417	53.75
383.632	142.48
383.846	88.82
384.061	106.25
384.275	50.46
384.49	77.39
384.704	124.85
384.919	127.95
385.133	101.8
385.348	125.24
385.562	74.29
385.777	119.62
385.991	82.23
386.206	70.6
386.42	47.16
386.634	157.6
386.849	102.57
387.063	130.09
387.277	66.54
387.492	89.79
387.706	46.97
387.92	59.17
388.135	118.65
388.349	91.53
388.563	143.65
388.778	99.09
388.992	96.76
389.206	132.8
389.42	191.5
389.635	107.8
389.849	152.75
390.063	145.78
390.277	126.99
390.491	187.63
390.706	152.37
390.92	179.68
391.134	136.48
391.348	182.4
391.562	85.91
391.776	140.35
391.99	127.57
392.205	171.35
392.419	104.9
392.633	110.13
392.847	172.32
393.061	124.47
393.275	191.5
393.489	120.79
393.703	97.15
393.917	123.69
394.131	72.74
394.345	107.61
394.559	131.25
394.773	106.64
394.986	142.87
395.2	145.78
395.414	199.25
395.628	127.18
395.842	180.27
396.056	161.47
396.27	108.97
396.484	169.8
396.697	170.77
396.911	179.68
397.125	104.51
397.339	156.24
397.553	117.3
397.766	180.07
397.98	169.8
398.194	205.45
398.408	142.1
398.621	235.68
398.835	213.59
399.049	193.83
399.262	249.43
399.476	251.76
399.69	243.81
399.903	296.71
400.117	213.2
400.331	258.73
400.544	213.2
400.758	364.91
400.971	217.08
401.185	267.84
401.398	225.6
401.612	300.2
401.826	285.47
402.039	310.66
402.253	231.41
402.466	291.86
402.68	263.96
402.893	298.65
403.106	257.76
403.32	287.21
403.533	286.44
403.747	259.12
403.96	292.06
404.174	280.43
404.387	272.49
404.6	286.05
404.814	317.63
405.027	264.16
405.24	270.75
405.454	241.68
405.667	328.09
405.88	224.44
406.094	279.27
406.307	309.5
406.52	266.87
406.733	242.85
406.947	236.65
407.16	328.87
407.373	335.07
407.586	263
407.799	251.95
408.012	300
408.226	306.01
408.439	357.16
408.652	276.56
408.865	322.67
409.078	384.28
409.291	329.26
409.504	291.09
409.717	353.28
409.93	338.94
410.143	319.76
410.357	258.93
410.57	250.21
410.783	296.13
410.996	299.61
411.209	294.77
411.421	390.29
411.634	324.03
411.847	312.01
412.06	339.53
412.273	329.84
412.486	343.21
412.699	419.93
412.912	348.44
413.125	361.81
413.338	355.61
413.55	371.3
413.763	336.81
413.976	376.73
414.189	317.63
414.402	360.84
414.615	429.04
414.827	337.2
415.04	392.03
415.253	395.33
415.466	403.85
415.678	447.25
415.891	384.48
416.104	382.15
416.316	361.23
416.529	363.74
416.742	408.89
416.954	401.52
417.167	404.04
417.38	351.34
417.592	430.59
417.805	351.54
418.017	331.78
418.23	415.47
418.442	359.09
418.655	384.28
418.868	393.58
419.08	407.34
419.293	430.59
419.505	412.57
419.718	374.59
419.93	408.11
420.142	389.9
420.355	407.92
420.567	434.85
420.78	413.54
420.992	397.26
421.205	456.74
421.417	382.54
421.629	394.94
421.842	380.21
422.054	384.67
422.266	433.69
422.479	437.37
422.691	382.34
422.903	437.56
423.115	393.97
423.328	375.76
423.54	372.27
423.752	432.33
423.964	414.12
424.177	423.22
424.389	434.27
424.601	518.55
424.813	448.61
425.025	471.66
425.238	441.82
425.45	436.79
425.662	422.64
425.874	724.11
426.086	434.85
426.298	451.9
426.51	447.06
426.722	440.86
426.934	412.76
427.146	467.59
427.358	404.62
427.57	472.44
427.782	436.4
427.994	407.34
428.206	416.06
428.418	389.9
428.63	461.97
428.842	493.55
429.054	435.24
429.266	469.92
429.478	378.47
429.69	413.73
429.902	371.69
430.114	421.87
430.325	433.49
430.537	389.32
430.749	347.66
430.961	289.73
431.173	346.11
431.384	355.61
431.596	319.76
431.808	373.63
432.02	439.31
432.231	504.6
432.443	509.44
432.655	497.62
432.867	452.48
433.078	496.46
433.29	517.39
433.502	518.55
433.713	538.7
433.925	530.37
434.136	532.11
434.348	452.87
434.56	413.73
434.771	583.26
434.983	429.04
435.194	492.39
435.406	497.43
435.617	544.9
435.829	605.54
436.04	564.85
436.252	564.85
436.463	584.42
436.675	574.74
436.886	592.56
437.098	597.79
437.309	640.03
437.521	607.87
437.732	580.74
437.943	574.35
438.155	530.75
438.366	494.52
438.578	591.59
438.789	536.76
439	544.7
439.211	513.51
439.423	555.75
439.634	581.9
439.845	579.77
440.057	570.67
440.268	631.31
440.479	549.16
440.69	607.28
440.902	559.04
441.113	570.28
441.324	536.95
441.535	592.37
441.746	654.75
441.957	577.25
442.168	604.38
442.38	646.03
442.591	660.95
442.802	595.27
443.013	626.08
443.224	662.12
443.435	626.08
443.646	629.18
443.857	634.22
444.068	654.56
444.279	615.42
444.49	709.58
444.701	639.64
444.912	793.86
445.123	701.83
445.334	664.83
445.545	671.41
445.756	650.49
445.967	618.33
446.178	625.5
446.388	693.31
446.599	674.32
446.81	657.27
447.021	650.1
447.232	708.81
447.443	723.73
447.653	636.93
447.864	709.58
448.075	708.61
448.286	709.58
448.496	694.08
448.707	725.66
448.918	678
449.129	758.6
449.339	678
449.55	734.58
449.761	703
449.971	749.5
450.182	710.36
450.393	750.46
450.603	689.43
450.814	784.95
451.024	757.83
451.235	770.23
451.446	824.67
451.656	822.93
451.867	740.97
452.077	727.6
452.288	801.81
452.498	783.59
452.709	739.42
452.919	736.51
453.13	714.23
453.34	758.79
453.55	705.51
453.761	712.49
453.971	749.11
454.182	760.73
454.392	724.89
454.602	827.58
454.813	778.75
455.023	781.85
455.233	707.26
455.444	740
455.654	670.06
455.864	717.14
456.075	748.91
456.285	723.92
456.495	756.66
456.705	786.5
456.916	839.97
457.126	836.68
457.336	769.84
457.546	712.1
457.756	745.23
457.967	847.92
458.177	744.46
458.387	784.95
458.597	753.76
458.807	776.04
459.017	764.99
459.227	758.6
459.437	741.94
459.647	808.01
459.857	791.15
460.068	778.94
460.278	828.74
460.488	815.18
460.698	869.23
460.908	795.22
461.117	773.52
461.327	782.43
461.537	811.3
461.747	830.68
461.957	806.84
462.167	928.52
462.377	839.01
462.587	804.71
462.797	882.21
463.007	851.99
463.216	895.97
463.426	884.15
463.636	867.49
463.846	763.25
464.056	849.47
464.265	857.99
464.475	790.96
464.685	857.41
464.895	870.59
465.104	807.23
465.314	847.14
465.524	821.38
465.733	803.16
465.943	919.99
466.153	912.44
466.362	886.86
466.572	874.27
466.782	860.51
466.991	860.9
467.201	922.51
467.41	791.15
467.62	858.96
467.829	856.25
468.039	900.23
468.249	876.98
468.458	870.59
468.668	900.42
468.877	915.54
469.086	973.27
469.296	952.74
469.505	887.25
469.715	988.19
469.924	940.72
470.134	968.04
470.343	954.67
470.552	928.9
470.762	917.67
470.971	918.83
471.18	945.57
471.39	944.4
471.599	887.06
471.808	964.75
472.018	928.13
472.227	986.64
472.436	1027.72
472.645	993.42
472.855	977.15
473.064	1093.98
473.273	1014.35
473.482	1017.45
473.691	1046.7
473.901	1040.5
474.11	1007.18
474.319	1109.67
474.528	1027.33
474.737	1113.55
474.946	1064.72
475.155	1062.4
475.364	1128.08
475.573	1087.58
475.783	1123.04
475.992	1114.51
476.201	1113.74
476.41	1123.62
476.619	1072.28
476.828	1100.56
477.037	1095.72
477.245	1082.16
477.454	1148.42
477.663	1101.73
477.872	1135.83
478.081	1201.7
478.29	1134.66
478.499	1249.56
478.708	1227.47
478.917	1293.34
479.125	1194.73
479.334	1189.88
479.543	1198.6
479.752	1238.71
479.961	1242.58
480.169	1291.99
480.378	1252.66
480.587	1395.45
480.796	1270.48
481.004	1299.16
481.213	1289.27
481.422	1308.26
481.63	1301.67
481.839	1341.78
482.048	1342.17
482.256	1301.87
482.465	1363.87
482.674	1369.29
482.882	1338.1
483.091	1422.38
483.299	1391.38
483.508	1403.78
483.716	1401.07
483.925	1429.94
484.134	1353.79
484.342	1370.84
484.551	1393.51
484.759	1417.15
484.967	1434.97
485.176	1430.13
485.384	1439.82
485.593	1414.44
485.801	1419.86
486.01	1349.14
486.218	1294.89
486.426	1234.44
486.635	1215.84
486.843	1206.93
487.051	1243.16
487.26	1298.19
487.468	1315.04
487.676	1353.6
487.885	1342.36
488.093	1409.2
488.301	1480.7
488.509	1447.57
488.717	1487.28
488.926	1488.06
489.134	1433.81
489.342	1451.05
489.55	1444.08
489.758	1465
489.967	1472.37
490.175	1588.42
490.383	1556.84
490.591	1630.27
490.799	1511.12
491.007	1563.04
491.215	1551.61
491.423	1552.38
491.631	1582.03
491.839	1551.03
492.047	1584.93
492.255	1524.1
492.463	1469.85
492.671	1479.53
492.879	1585.71
493.087	1518.48
493.295	1564.2
493.503	1588.81
493.711	1611.48
493.919	1621.94
494.127	1628.14
494.334	1628.14
494.542	1582.22
494.75	1588.23
494.958	1617.87
495.166	1689.36
495.374	1674.25
495.581	1711.64
495.789	1690.33
495.997	1727.72
496.205	1667.86
496.412	1656.04
496.62	1667.86
496.828	1710.29
497.035	1665.73
497.243	1738.77
497.451	1693.43
497.658	1715.32
497.866	1660.3
498.074	1772.09
498.281	1712.03
498.489	1787.59
498.696	1685.88
498.904	1641.89
499.112	1617.29
499.319	1734.51
499.527	1680.84
499.734	1770.35
499.942	1659.72
500.149	1646.54
500.357	1740.9
500.564	1634.53
500.771	1740.71
500.979	1671.15
501.186	1620.78
501.394	1692.08
501.601	1650.81
501.808	1677.54
502.016	1660.3
502.223	1677.54
502.43	1644.8
502.638	1674.83
502.845	1655.26
503.052	1784.3
503.26	1692.08
503.467	1780.23
503.674	1733.15
503.881	1736.64
504.089	1790.11
504.296	1754.66
504.503	1681.42
504.71	1697.11
504.917	1668.63
505.125	1739.16
505.332	1738.38
505.539	1801.93
505.746	1812.59
505.953	1817.24
506.16	1795.15
506.367	1865.67
506.574	1902.68
506.781	1870.9
506.988	1817.24
507.195	1809.87
507.402	1831.57
507.609	1858.12
507.816	1773.45
508.023	1800.19
508.23	1772.48
508.437	1732.96
508.644	1802.51
508.851	1854.82
509.058	1869.94
509.265	1863.54
509.472	1876.72
509.679	1960.42
509.885	1834.29
510.092	1861.99
510.299	1885.82
510.506	1836.61
510.713	1833.12
510.92	1820.53
511.126	1859.09
511.333	1900.16
511.54	1901.9
511.746	1885.05
511.953	1945.88
512.16	1978.82
512.367	1910.43
512.573	1924.38
512.78	1901.13
512.987	1882.72
513.193	1906.94
513.4	1785.07
513.606	1834.67
513.813	1912.95
514.02	1868.39
514.226	1952.86
514.433	1933.87
514.639	1823.63
514.846	1869.94
515.052	1832.93
515.259	1882.34
515.465	1882.72
515.672	1879.82
515.878	1996.84
516.085	1923.22
516.291	1971.27
516.497	1871.29
516.704	1895.9
516.91	1795.92
517.117	1757.56
517.323	1661.08
517.529	1694.79
517.736	1707.77
517.942	1707.19
518.148	1706.61
518.354	1806
518.561	1795.34
518.767	1786.82
518.973	1804.25
519.179	1805.61
519.386	1815.1
519.592	1831.19
519.798	1838.94
520.004	1933.68
520.21	1912.75
520.417	1952.86
520.623	1991.22
520.829	2006.53
521.035	2017.76
521.241	1985.8
521.447	1985.02
521.653	2150.09
521.859	2000.71
522.065	2015.44
522.271	2141.96
522.477	2081.7
522.683	2130.72
522.889	2082.67
523.095	2046.63
523.301	2039.46
523.507	2028.42
523.713	2018.35
523.919	2033.65
524.125	2132.66
524.331	2091.39
524.537	2177.41
524.742	2179.54
524.948	2176.64
525.154	2190.78
525.36	2286.3
525.566	2204.34
525.772	2239.8
525.977	2157.84
526.183	2193.11
526.389	2218.68
526.595	2137.31
526.8	2143.7
527.006	2035.59
527.212	2007.88
527.417	1988.31
527.623	1958.67
527.829	2066.01
528.034	2085.96
528.24	2087.13
528.446	2125.49
528.651	2215.39
528.857	2223.72
529.062	2280.1
529.268	2283.59
529.473	2283.2
529.679	2298.5
529.884	2380.65
530.09	2330.28
530.295	2353.92
530.501	2349.65
530.706	2327.76
530.912	2303.15
531.117	2298.7
531.323	2357.4
531.528	2385.3
531.733	2391.31
531.939	2370
532.144	2373.29
532.35	2380.46
532.555	2388.21
532.76	2362.44
532.966	2331.44
533.171	2310.32
533.376	2268.67
533.581	2221.2
533.787	2302.19
533.992	2303.93
534.197	2353.14
534.402	2389.95
534.607	2376
534.813	2446.72
535.018	2356.05
535.223	2373.68
535.428	2370.38
535.633	2425.99
535.838	2434.13
536.043	2440.91
536.249	2523.83
536.454	2449.24
536.659	2460.67
536.864	2412.23
537.069	2391.7
537.274	2412.62
537.479	2404.68
537.684	2428.51
537.889	2358.37
538.094	2503.1
538.299	2399.06
538.504	2442.85
538.708	2457.38
538.913	2468.61
539.118	2501.74
539.323	2477.91
539.528	2433.35
539.733	2414.17
539.938	2470.36
540.142	2438
540.347	2406.03
540.552	2344.81
540.757	2404.68
540.962	2393.63
541.166	2360.31
541.371	2325.05
541.576	2383.75
541.781	2268.86
541.985	2419.01
542.19	2425.8
542.395	2478.5
542.599	2510.27
542.804	2488.96
543.008	2482.37
543.213	2440.52
543.418	2408.17
543.622	2477.33
543.827	2336.28
544.031	2489.35
544.236	2502.91
544.44	2466.29
544.645	2559.09
544.849	2457.18
545.054	2531.97
545.258	2608.69
545.463	2538.94
545.667	2464.93
545.872	2501.16
546.076	2513.18
546.281	2535.46
546.485	2481.79
546.689	2537.59
546.894	2533.52
547.098	2494.19
547.302	2433.93
547.507	2513.76
547.711	2514.53
547.915	2577.89
548.119	2454.08
548.324	2502.13
548.528	2531.39
548.732	2498.26
548.936	2556.58
549.141	2546.31
549.345	2529.26
549.549	2501.16
549.753	2550.57
549.957	2628.07
550.161	2602.11
550.366	2577.5
550.57	2512.79
550.774	2545.53
550.978	2506.39
551.182	2573.43
551.386	2501.74
551.59	2531.97
551.794	2504.26
551.998	2547.47
552.202	2512.4
552.406	2468.61
552.61	2575.37
552.814	2549.79
553.018	2593.19
553.222	2535.84
553.426	2510.46
553.63	2591.45
553.833	2528.87
554.037	2469.97
554.241	2540.49
554.445	2473.46
554.649	2505.04
554.853	2488.76
555.056	2570.53
555.26	2609.47
555.464	2532.55
555.668	2545.73
555.871	2576.53
556.075	2549.02
556.279	2519.38
556.483	2435.48
556.686	2473.26
556.89	2488.18
557.094	2520.73
557.297	2417.08
557.501	2501.94
557.704	2399.06
557.908	2457.38
558.112	2426.38
558.315	2533.91
558.519	2465.13
558.722	2474.43
558.926	2454.86
559.129	2360.89
559.333	2369.8
559.536	2370.58
559.74	2347.72
559.943	2348.68
560.147	2333.57
560.35	2385.88
560.553	2348.88
560.757	2310.71
560.96	2421.15
561.164	2379.49
561.367	2480.63
561.57	2379.3
561.774	2402.16
561.977	2353.14
562.18	2341.32
562.384	2480.05
562.587	2349.85
562.79	2331.25
562.993	2325.82
563.197	2356.05
563.4	2431.22
563.603	2421.92
563.806	2459.12
564.009	2346.17
564.212	2381.23
564.416	2286.88
564.619	2351.59
564.822	2311.29
565.025	2342.29
565.228	2319.24
565.431	2307.22
565.634	2255.3
565.837	2282.62
566.04	2275.45
566.243	2221.01
566.446	2154.16
566.649	2284.36
566.852	2204.54
567.055	2253.94
567.258	2287.85
567.461	2337.06
567.664	2345.97
567.867	2237.09
568.07	2307.22
568.273	2258.01
568.475	2334.54
568.678	2213.84
568.881	2239.22
569.084	2225.07
569.287	2097.39
569.489	2185.55
569.692	2225.27
569.895	2205.89
570.098	2103.98
570.3	2131.49
570.503	2099.14
570.706	2066.78
570.909	2079.96
571.111	2074.34
571.314	2048.57
571.516	2070.66
571.719	2070.46
571.922	2051.48
572.124	2016.02
572.327	2079.38
572.529	2051.86
572.732	2091.39
572.935	2080.73
573.137	2187.87
573.34	2042.76
573.542	2128.78
573.745	2120.26
573.947	2118.32
574.15	2117.54
574.352	2086.35
574.554	2163.66
574.757	2051.09
574.959	2020.28
575.162	2036.75
575.364	2026.29
575.566	2111.93
575.769	2018.93
575.971	2060
576.173	1903.84
576.376	2013.31
576.578	2033.65
576.78	2101.46
576.982	1903.07
577.185	1993.55
577.387	1967.58
577.589	1958.48
577.791	2028.81
577.993	2015.44
578.196	1987.73
578.398	2009.24
578.6	1956.93
578.802	1910.62
579.004	1918.95
579.206	1900.55
579.408	1988.12
579.61	1930.77
579.812	1999.94
580.014	1920.7
580.216	1945.3
580.418	1937.94
580.62	1942.98
580.822	1851.34
581.024	1982.89
581.226	2005.75
581.428	1957.9
581.63	2025.32
581.832	1929.22
582.034	1990.25
582.236	1932.9
582.438	1990.06
582.64	2034.23
582.841	2024.93
583.043	2050.31
583.245	1972.04
583.447	2011.95
583.649	1956.73
583.85	1983.66
584.052	1990.45
584.254	1889.7
584.456	2011.18
584.657	1892.8
584.859	1939.1
585.061	1923.02
585.262	1905.97
585.464	1876.33
585.666	1963.52
585.867	1874
586.069	1939.68
586.27	1905.2
586.472	1905.58
586.674	1870.71
586.875	1864.7
587.077	1878.07
587.278	1893.57
587.48	1845.52
587.681	1987.73
587.883	1920.31
588.084	1830.41
588.285	1872.84
588.487	1849.4
588.688	1878.27
588.89	1786.82
589.091	1745.36
589.292	1755.62
589.494	1683.16
589.695	1681.03
589.896	1619.81
590.098	1627.36
590.299	1670.38
590.5	1639.76
590.702	1654.88
590.903	1692.46
591.104	1790.69
591.305	1714.55
591.507	1812
591.708	1782.17
591.909	1753.3
592.11	1837.97
592.311	1775.58
592.512	1767.06
592.714	1724.24
592.915	1727.14
593.116	1717.26
593.317	1759.31
593.518	1731.21
593.719	1723.07
593.92	1788.17
594.121	1805.03
594.322	1768.41
594.523	1739.16
594.724	1683.55
594.925	1720.36
595.126	1726.37
595.327	1738.38
595.528	1745.55
595.729	1756.98
595.929	1709.51
596.13	1750.39
596.331	1741.48
596.532	1751.17
596.733	1793.41
596.934	1775
597.135	1797.86
597.335	1774.81
597.536	1728.89
597.737	1757.56
597.938	1695.18
598.138	1778.29
598.339	1744.77
598.54	1764.54
598.74	1686.46
598.941	1695.56
599.142	1783.52
599.342	1724.43
599.543	1695.76
599.744	1686.65
599.944	1691.49
600.145	1716.29
600.345	1720.75
600.546	1771.12
600.746	1715.52
600.947	1785.46
601.147	1714.74
601.348	1769.96
601.548	1685.49
601.749	1705.06
601.949	1659.72
602.15	1686.46
602.35	1640.15
602.551	1744.39
602.751	1689.56
602.951	1660.88
603.152	1628.72
603.352	1722.88
603.552	1711.64
603.753	1727.53
603.953	1716.87
604.153	1728.69
604.354	1702.34
604.554	1700.79
604.754	1724.82
604.954	1663.79
605.155	1731.79
605.355	1667.47
605.555	1759.11
605.755	1724.62
605.955	1677.54
606.155	1741.48
606.356	1709.51
606.556	1706.8
606.756	1697.11
606.956	1640.54
607.156	1741.48
607.356	1647.51
607.556	1704.09
607.756	1694.59
607.956	1762.79
608.156	1724.43
608.356	1626.59
608.556	1710.09
608.756	1673.67
608.956	1666.11
609.156	1649.64
609.356	1624.26
609.556	1629.11
609.755	1675.22
609.955	1643.44
610.155	1637.44
610.355	1664.76
610.555	1632.01
610.755	1617.48
610.954	1548.31
611.154	1654.1
611.354	1634.14
611.554	1539.01
611.753	1615.93
611.953	1564.4
612.153	1655.84
612.352	1656.04
612.552	1553.35
612.752	1549.09
612.951	1583
613.151	1584.16
613.351	1543.08
613.55	1588.42
613.75	1572.34
613.949	1576.99
614.149	1579.51
614.348	1573.11
614.548	1541.34
614.747	1521
614.947	1539.4
615.146	1498.72
615.346	1589.39
615.545	1526.81
615.745	1564.78
615.944	1587.65
616.144	1562.26
616.343	1514.41
616.542	1522.35
616.742	1521.19
616.941	1494.45
617.14	1433.62
617.34	1509.18
617.539	1486.7
617.738	1479.73
617.938	1548.51
618.137	1501.82
618.336	1488.64
618.535	1490
618.734	1529.52
618.934	1525.65
619.133	1521.38
619.332	1563.23
619.531	1479.53
619.73	1491.35
619.929	1521.97
620.128	1531.65
620.328	1582.41
620.527	1494.45
620.726	1484.96
620.925	1506.47
621.124	1526.03
621.323	1527
621.522	1472.17
621.721	1478.37
621.92	1465.2
622.119	1517.12
622.318	1453.38
622.517	1462.87
622.715	1468.3
622.914	1407.85
623.113	1456.87
623.312	1392.54
623.511	1456.67
623.71	1468.68
623.909	1414.05
624.107	1487.48
624.306	1392.93
624.505	1383.24
624.704	1406.3
624.902	1398.16
625.101	1476.24
625.3	1450.47
625.499	1398.74
625.697	1397.58
625.896	1398.74
626.095	1408.62
626.293	1356.51
626.492	1387.31
626.69	1411.92
626.889	1398.94
627.088	1440.79
627.286	1390.99
627.485	1382.08
627.683	1372.39
627.882	1412.89
628.08	1335.19
628.279	1380.14
628.477	1397.19
628.676	1353.41
628.874	1411.14
629.073	1296.06
629.271	1349.14
629.469	1371.42
629.668	1370.65
629.866	1338.29
630.065	1356.31
630.263	1384.4
630.461	1331.32
630.66	1370.65
630.858	1383.24
631.056	1370.45
631.254	1369.68
631.453	1328.02
631.651	1412.89
631.849	1334.81
632.047	1375.1
632.245	1326.67
632.444	1357.47
632.642	1393.12
632.84	1383.24
633.038	1381.89
633.236	1336.16
633.434	1352.82
633.632	1336.55
633.83	1305.74
634.028	1388.28
634.227	1349.72
634.425	1412.5
634.623	1347.21
634.821	1373.75
635.019	1353.21
635.216	1348.56
635.414	1400.49
635.612	1357.67
635.81	1332.48
636.008	1436.33
636.206	1327.25
636.404	1345.66
636.602	1315.04
636.8	1332.87
636.997	1347.59
637.195	1355.54
637.393	1363.67
637.591	1388.86
637.789	1352.24
637.986	1341.59
638.184	1358.44
638.382	1358.44
638.58	1393.12
638.777	1421.99
638.975	1346.62
639.173	1369.49
639.37	1352.05
639.568	1333.26
639.765	1382.66
639.963	1321.24
640.161	1365.03
640.358	1366.58
640.556	1305.36
640.753	1295.47
640.951	1268.35
641.148	1327.83
641.346	1290.05
641.543	1268.93
641.741	1324.34
641.938	1270.09
642.136	1305.74
642.333	1278.04
642.531	1335.97
642.728	1383.82
642.925	1316.79
643.123	1290.05
643.32	1302.64
643.517	1251.3
643.715	1293.34
643.912	1282.49
644.109	1306.71
644.306	1307.29
644.504	1298.57
644.701	1317.76
644.898	1323.76
645.095	1284.43
645.293	1282.11
645.49	1302.45
645.687	1287.72
645.884	1318.53
646.081	1223.4
646.278	1260.02
646.475	1247.81
646.672	1264.28
646.87	1276.49
647.067	1261.57
647.264	1294.7
647.461	1211.58
647.658	1156.17
647.855	1270.29
648.052	1219.72
648.249	1142.03
648.446	1191.63
648.642	1197.05
648.839	1191.04
649.036	1183.3
649.233	1165.86
649.43	1124.78
649.627	1131.56
649.824	1169.15
650.021	1124.78
650.217	1121.88
650.414	1181.94
650.611	1183.3
650.808	1201.51
651.004	1149.2
651.201	1212.36
651.398	1266.99
651.595	1232.51
651.791	1144.16
651.988	1225.34
652.185	1140.86
652.381	1213.71
652.578	1139.9
652.775	1154.04
652.971	1193.76
653.168	1161.6
653.364	1225.14
653.561	1119.75
653.757	1161.4
653.954	1194.53
654.15	1115.1
654.347	1212.94
654.543	1170.7
654.74	1118.78
654.936	1116.06
655.133	1126.72
655.329	1161.21
655.525	1131.18
655.722	1199.38
655.918	1123.43
656.115	1135.05
656.311	1000.01
656.507	980.64
656.704	938.4
656.9	941.89
657.096	1000.59
657.292	980.25
657.489	1036.63
657.685	1049.22
657.881	1022.29
658.077	1047.67
658.273	1083.52
658.47	1124.2
658.666	1079.64
658.862	1125.17
659.058	1084.48
659.254	1148.61
659.45	1079.83
659.646	1106.96
659.842	1079.64
660.038	1158.88
660.234	1085.26
660.43	1127.3
660.626	1172.06
660.822	1152.68
661.018	1145.71
661.214	1116.45
661.41	1090.68
661.606	1137.38
661.802	1131.76
661.998	1147.65
662.194	1079.45
662.39	1151.13
662.586	1151.13
662.781	1140.86
662.977	1170.9
663.173	1159.27
663.369	1142.61
663.564	1149
663.76	1169.93
663.956	1106.38
664.152	1156.36
664.347	1063.75
664.543	1132.73
664.739	1109.48
664.934	1066.08
665.13	1074.99
665.326	1139.12
665.521	1133.7
665.717	1065.3
665.912	1059.68
666.108	1046.12
666.304	1074.99
666.499	1063.95
666.695	1005.63
666.89	1096.69
667.086	1109.28
667.281	1119.94
667.477	1149.39
667.672	1091.85
667.867	1085.65
668.063	1102.7
668.258	1046.12
668.454	1062.59
668.649	1125.75
668.844	1081.97
669.04	1107.93
669.235	1068.02
669.43	1054.45
669.626	1021.71
669.821	1048.45
670.016	1021.13
670.211	1033.53
670.407	1027.72
670.602	1093.59
670.797	1034.69
670.992	1082.93
671.187	1018.8
671.382	1100.18
671.578	1012.99
671.773	1053.29
671.968	969.59
672.163	1032.56
672.358	1075.18
672.553	1025.78
672.748	1033.33
672.943	1100.37
673.138	1046.9
673.333	1090.88
673.528	1013.38
673.723	1053.68
673.918	1057.75
674.113	1008.92
674.308	1109.86
674.503	1054.26
674.698	1049.61
674.892	1026.55
675.087	1040.89
675.282	1041.47
675.477	1042.44
675.672	1056.78
675.867	1007.76
676.061	975.02
676.256	942.85
676.451	1008.54
676.646	1043.8
676.84	994.78
677.035	997.49
677.23	980.05
677.424	1017.83
677.619	1058.52
677.814	1064.33
678.008	1017.83
678.203	957
678.397	986.84
678.592	1008.73
678.787	1054.45
678.981	988.58
679.176	1033.14
679.37	1003.5
679.565	993.23
679.759	988.97
679.954	1012.6
680.148	1047.09
680.342	1068.79
680.537	983.15
680.731	1013.38
680.926	1032.17
681.12	1045.93
681.314	1035.66
681.509	1010.86
681.703	1012.8
681.897	1013.57
682.092	975.6
682.286	980.44
682.48	1050.19
682.674	990.52
682.869	980.64
683.063	997.69
683.257	1036.05
683.451	975.4
683.645	1023.26
683.839	1000.98
684.034	997.1
684.228	1055.03
684.422	938.98
684.616	942.47
684.81	1045.54
685.004	971.92
685.198	965.52
685.392	1015.7
685.586	963.97
685.78	994.39
685.974	998.07
686.168	937.82
686.362	1025.39
686.556	934.91
686.75	865.16
686.944	906.62
687.138	884.15
687.331	800.45
687.525	807.43
687.719	744.65
687.913	852.57
688.107	830.29
688.301	813.43
688.494	840.17
688.688	751.43
688.882	789.79
689.076	743.88
689.269	807.62
689.463	905.85
689.657	794.44
689.85	822.93
690.044	854.7
690.238	842.3
690.431	838.42
690.625	812.66
690.818	878.14
691.012	865.16
691.205	874.07
691.399	818.47
691.593	839.78
691.786	913.79
691.98	907.59
692.173	929.1
692.366	881.24
692.56	933.36
692.753	945.57
692.947	858.96
693.14	934.72
693.333	941.5
693.527	875.04
693.72	924.06
693.914	912.05
694.107	886.86
694.3	939.37
694.493	886.86
694.687	945.95
694.88	879.11
695.073	954.29
695.266	938.59
695.46	891.9
695.653	985.09
695.846	949.25
696.039	884.15
696.232	893.26
696.425	994.59
696.618	956.42
696.812	979.86
697.005	1005.82
697.198	1096.11
697.391	981.41
697.584	1045.35
697.777	1093.01
697.97	1039.15
698.163	1058.72
698.356	1048.06
698.549	1136.8
698.742	1098.63
698.935	1041.08
699.127	1082.16
699.32	1068.79
699.513	1050.19
699.706	1104.05
699.899	1099.21
700.092	1069.76
700.285	1117.61
700.477	1073.83
700.67	1135.05
700.863	1147.26
701.056	1214.68
701.248	1183.1
701.441	1173.22
701.634	1143.96
701.826	1258.28
702.019	1113.35
702.212	1219.14
702.404	1149.2
702.597	1140.48
702.79	1187.75
702.982	1265.25
703.175	1248.59
703.367	1261.38
703.56	1298.57
703.752	1356.51
703.945	1289.86
704.137	1300.32
704.33	1341.39
704.522	1355.92
704.715	1352.63
704.907	1356.89
705.1	1395.25
705.292	1435.17
705.484	1414.05
705.677	1426.84
705.869	1435.94
706.061	1479.92
706.254	1471.2
706.446	1476.82
706.638	1473.92
706.831	1533.78
707.023	1493.87
707.215	1596.36
707.407	1586.1
707.599	1566.33
707.792	1604.31
707.984	1592.49
708.176	1681.61
708.368	1605.28
708.56	1621.75
708.752	1645.58
708.944	1631.43
709.136	1703.12
709.329	1690.14
709.521	1793.41
709.713	1771.9
709.905	1715.32
710.097	1820.14
710.289	1770.93
710.481	1821.5
710.672	1818.79
710.864	1846.3
711.056	1884.66
711.248	1861.6
711.44	1887.18
711.632	1841.84
711.824	1927.87
712.016	1982.31
712.207	1976.5
712.399	1919.53
712.591	2016.02
712.783	2014.08
712.975	2094.1
713.166	1989.28
713.358	2020.48
713.55	2092.16
713.741	2126.65
713.933	2124.52
714.125	2058.84
714.316	2084.41
714.508	2162.11
714.7	2178.96
714.891	2120.64
715.083	2239.99
715.274	2137.5
715.466	2184.97
715.657	2266.73
715.849	2151.64
716.04	2245.61
716.232	2191.94
716.423	2237.28
716.615	2153.58
716.806	2140.99
716.998	2115.03
717.189	2079.18
717.381	2017.38
717.572	1994.71
717.763	2031.33
717.955	1977.66
718.146	1973.78
718.337	1894.15
718.528	1896.09
718.72	1841.84
718.911	1925.93
719.102	1847.85
719.293	1947.24
719.485	1894.54
719.676	1923.99
719.867	1860.44
720.058	1897.83
720.249	1881.17
720.44	1923.99
720.632	1941.82
720.823	1990.45
721.014	2126.84
721.205	2115.61
721.396	2190.2
721.587	2313.42
721.778	2319.43
721.969	2384.92
722.16	2417.46
722.351	2471.52
722.542	2555.99
722.733	2566.26
722.924	2521.31
723.115	2566.84
723.305	2551.93
723.496	2610.24
723.687	2437.81
723.878	2437.61
724.069	2487.8
724.26	2497.68
724.45	2445.36
724.641	2399.45
724.832	2459.31
725.023	2453.7
725.213	2457.76
725.404	2475.2
725.595	2465.51
725.785	2395.77
725.976	2557.93
726.167	2527.9
726.357	2548.44
726.548	2643.76
726.739	2543.01
726.929	2605.98
727.12	2604.24
727.31	2691.62
727.501	2646.28
727.691	2672.82
727.882	2705.95
728.072	2713.7
728.263	2738.89
728.453	2755.36
728.644	2770.67
728.834	2769.5
729.024	2736.18
729.215	2708.09
729.405	2761.17
729.596	2845.84
729.786	2831.7
729.976	2881.1
730.167	2873.16
730.357	2884.2
730.547	2876.06
730.737	2937.87
730.928	2965.19
731.118	3001.81
731.308	2975.65
731.498	2953.76
731.688	3034.94
731.879	3092.29
732.069	3126.39
732.259	3147.31
732.449	3141.3
732.639	3214.93
732.829	3239.15
733.019	3286.81
733.209	3367.21
733.399	3376.9
733.589	3442.78
733.779	3473.58
733.969	3379.81
734.159	3522.21
734.349	3573.36
734.539	3607.85
734.729	3604.17
734.919	3629.74
735.109	3698.33
735.299	3641.95
735.488	3666.75
735.678	3669.85
735.868	3678.37
736.058	3673.53
736.248	3691.55
736.437	3642.92
736.627	3606.69
736.817	3746.57
737.007	3710.34
737.196	3742.7
737.386	3742.5
737.576	3722.55
737.765	3797.72
737.955	3734.56
738.144	3877.93
738.334	3829.3
738.524	3740.76
738.713	3832.21
738.903	3818.26
739.092	3838.79
739.282	3846.16
739.471	3867.86
739.661	3817.48
739.85	3861.66
740.04	3917.26
740.229	3900.02
740.419	3947.1
740.608	3957.37
740.797	3980.62
740.987	4008.71
741.176	3997.47
741.365	3948.65
741.555	3885.68
741.744	4034.09
741.933	3967.64
742.123	4025.57
742.312	4016.46
742.501	4061.99
742.69	4054.44
742.88	3969.96
743.069	4094.54
743.258	4049.79
743.447	4119.92
743.636	4135.81
743.825	4090.86
744.014	4113.33
744.204	4169.33
744.393	4049.79
744.582	4169.33
744.771	4182.5
744.96	4150.92
745.149	4161
745.338	4112.37
745.527	4194.13
745.716	4155.77
745.905	4111.98
746.094	4195.48
746.283	4202.07
746.471	4170.88
746.66	4235.98
746.849	4253.03
747.038	4245.47
747.227	4143.17
747.416	4198.2
747.604	4204.78
747.793	4173.98
747.982	4213.7
748.171	4223.38
748.359	4192.96
748.548	4256.32
748.737	4200.33
748.926	4229.2
749.114	4099
749.303	4182.11
749.491	4209.43
749.68	4141.43
749.869	4251.09
750.057	4163.32
750.246	4183.28
750.434	4198.39
750.623	4146.66
750.811	4175.14
751	4184.83
751.188	4155.77
751.377	4157.7
751.565	4158.48
751.754	4129.22
751.942	4096.87
752.131	4236.95
752.319	4136.58
752.507	4132.71
752.696	4167.2
752.884	4146.85
753.072	4148.02
753.261	4135.81
753.449	4091.63
753.637	4104.03
753.825	4206.53
754.014	4136.2
754.202	4119.15
754.39	4164.87
754.578	4183.08
754.766	4109.07
754.955	4085.43
755.143	4171.46
755.331	4088.73
755.519	4112.17
755.707	4106.36
755.895	4107.33
756.083	4090.86
756.271	4052.69
756.459	4070.32
756.647	4132.13
756.835	4078.07
757.023	4062.77
757.211	4081.75
757.399	4037
757.587	4008.13
757.775	3968.22
757.963	4009.29
758.151	4028.09
758.339	3984.69
758.526	4006.97
758.714	4010.65
758.902	3882
759.09	3873.09
759.278	3665.78
759.465	3453.63
759.653	3090.35
759.841	2856.69
760.028	2507.94
760.216	2202.21
760.404	2064.84
760.591	1747.49
760.779	1567.69
760.967	1409.2
761.154	1240.26
761.342	1267.96
761.529	1262.93
761.717	1366
761.905	1360.57
762.092	1475.08
762.28	1482.83
762.467	1518.09
762.655	1461.71
762.842	1477.21
763.029	1495.42
763.217	1540.18
763.404	1527.2
763.592	1568.46
763.779	1529.52
763.966	1601.98
764.154	1651.78
764.341	1708.54
764.528	1675.41
764.716	1782.36
764.903	1842.81
765.09	1883.3
765.277	1963.52
765.465	2139.63
765.652	2160.56
765.839	2250.07
766.026	2385.88
766.213	2427.93
766.4	2497.29
766.588	2685.22
766.775	2691.42
766.962	2798.76
767.149	2875.87
767.336	3016.53
767.523	2947.75
767.71	3061.09
767.897	3202.14
768.084	3234.88
768.271	3247.67
768.458	3349.2
768.645	3464.09
768.832	3398.02
769.019	3400.15
769.206	3411.78
769.392	3541.59
769.579	3548.37
769.766	3526.09
769.953	3497.02
770.14	3585.37
770.327	3588.28
770.513	3589.44
770.7	3738.82
770.887	3582.08
771.073	3638.65
771.26	3609.98
771.447	3540.62
771.634	3593.9
771.82	3671.98
772.007	3575.1
772.193	3587.89
772.38	3620.64
772.567	3623.35
772.753	3605.91
772.94	3655.32
773.126	3626.84
773.313	3661.9
773.499	3640.4
773.686	3614.82
773.872	3569.68
774.059	3603
774.245	3511.75
774.432	3565.61
774.618	3483.85
774.804	3580.92
774.991	3515.82
775.177	3580.14
775.363	3524.54
775.55	3564.25
775.736	3450.53
775.922	3463.89
776.109	3507.29
776.295	3518.34
776.481	3522.21
776.667	3548.17
776.853	3488.89
777.04	3467.19
777.226	3496.44
777.412	3586.54
777.598	3436.96
777.784	3482.11
777.97	3394.92
778.156	3483.07
778.342	3460.02
778.528	3451.3
778.715	3357.14
778.901	3404.41
779.087	3390.08
779.272	3351.33
779.458	3356.36
779.644	3413.13
779.83	3376.51
780.016	3445.1
780.202	3350.36
780.388	3381.74
780.574	3250.19
780.76	3334.66
780.946	3359.66
781.131	3379.03
781.317	3312.96
781.503	3269.76
781.689	3313.16
781.874	3454.98
782.06	3323.81
782.246	3298.05
782.432	3314.32
782.617	3345.51
782.803	3344.55
782.989	3207.18
783.174	3259.68
783.36	3220.93
783.545	3244.18
783.731	3223.84
783.916	3120.57
784.102	3213.96
784.288	3164.75
784.473	3208.34
784.659	3146.54
784.844	3237.02
785.029	3153.9
785.215	3143.24
785.4	3127.94
785.586	3209.7
785.771	3104.3
785.956	3148.28
786.142	3119.22
786.327	3134.91
786.512	3143.44
786.698	3136.85
786.883	3058.19
787.068	3101.78
787.254	3091.32
787.439	3094.61
787.624	3079.31
787.809	2985.92
787.994	3044.62
788.18	3115.54
788.365	3001.42
788.55	3043.66
788.735	3017.5
788.92	2988.63
789.105	2985.92
789.29	3008.01
789.475	2958.41
789.66	2981.08
789.845	2943.29
790.03	2971.97
790.215	2953.76
790.4	2986.11
790.585	3067.29
790.77	2965.77
790.955	2869.86
791.14	2905.32
791.325	2991.73
791.51	2828.02
791.695	2919.85
791.879	2907.06
792.064	2854.36
792.249	2970.42
792.434	2877.61
792.618	2908.03
792.803	2974.1
792.988	2901.64
793.173	2926.05
793.357	2936.32
793.542	2870.25
793.727	2850.68
793.911	2903.96
794.096	2901.64
794.281	2925.47
794.465	2974.29
794.65	2903.58
794.834	2934.19
795.019	2998.13
795.203	2938.84
795.388	2941.16
795.572	3014.79
795.757	2956.08
795.941	2996.38
796.126	2956.66
796.31	2916.95
796.494	2950.46
796.679	2935.16
796.863	2910.75
797.048	3031.06
797.232	2928.18
797.416	2959.96
797.601	2974.88
797.785	3032.81
797.969	3004.13
798.153	2954.34
798.338	3006.65
798.522	3015.37
798.706	3010.14
798.89	3021.18
799.074	3102.56
799.258	3050.05
799.443	3039.97
799.627	3001.23
799.811	3077.37
799.995	2981.66
800.179	2959.38
800.363	2963.25
800.547	2977.39
800.731	3016.14
800.915	2909.39
801.099	2953.18
801.283	2972.16
801.467	2940
801.651	2924.5
801.835	3033
802.019	2967.51
802.202	2977.98
802.386	2913.07
802.57	2919.08
802.754	2964.41
802.938	2927.8
803.121	2950.08
803.305	2995.8
803.489	2919.66
803.673	2992.89
803.856	2955.69
804.04	2942.52
804.224	2963.25
804.407	2947.94
804.591	2953.56
804.775	2964.22
804.958	2964.03
805.142	3025.44
805.326	2993.28
805.509	2979.53
805.693	3000.84
805.876	3032.61
806.06	2952.79
806.243	3033
806.427	3005.29
806.61	2989.6
806.794	2946.98
806.977	2964.41
807.16	2946.59
807.344	3010.91
807.527	3026.02
807.71	2918.88
807.894	2961.12
808.077	2983.79
808.26	2911.13
808.444	2912.49
808.627	2937.09
808.81	2946.39
808.993	2880.91
809.177	2841
809.36	2896.6
809.543	2889.24
809.726	2770.08
809.909	2808.06
810.092	2772.6
810.276	2788.49
810.459	2810.38
810.642	2766.02
810.825	2737.34
811.008	2759.24
811.191	2664.49
811.374	2704.4
811.557	2697.43
811.74	2782.1
811.923	2673.6
812.106	2677.28
812.289	2625.36
812.472	2652.29
812.654	2663.14
812.837	2575.76
813.02	2536.81
813.203	2538.94
813.386	2424.83
813.569	2416.3
813.751	2351.4
813.934	2421.34
814.117	2377.36
814.3	2295.02
814.482	2256.07
814.665	2279.71
814.848	2223.14
815.03	2190.2
815.213	2157.26
815.396	2149.12
815.578	2101.66
815.761	2076.86
815.943	2142.73
816.126	2025.13
816.309	2054.77
816.491	1979.79
816.674	1920.7
816.856	1921.67
817.039	1937.94
817.221	1981.15
817.403	1949.76
817.586	1956.93
817.768	2010.4
817.951	1915.47
818.133	1892.41
818.315	1891.63
818.498	1949.76
818.68	2006.91
818.862	1965.26
819.045	1998.39
819.227	1960.8
819.409	1950.73
819.591	2014.08
819.774	1954.02
819.956	1943.17
820.138	2065.23
820.32	2001.1
820.502	2043.15
820.684	2098.94
820.866	2090.42
821.048	2159.97
821.231	2198.72
821.413	2154.36
821.595	2123.16
821.777	2143.51
821.959	2157.46
822.141	2212.09
822.323	2037.33
822.505	2023
822.686	1978.05
822.868	1910.43
823.05	1793.21
823.232	1729.08
823.414	1654.1
823.596	1772.29
823.778	1740.9
823.96	1756.79
824.141	1774.03
824.323	1772.67
824.505	1853.08
824.687	1923.99
824.868	1961.77
825.05	2026.48
825.232	2086.93
825.413	2131.3
825.595	2095.65
825.777	2004.01
825.958	2075.5
826.14	2096.23
826.321	2082.48
826.503	2066.59
826.685	2067.36
826.866	2105.92
827.048	2105.73
827.229	2078.79
827.411	1995.1
827.592	1942.2
827.773	1963.71
827.955	1927.48
828.136	1916.05
828.318	1908.88
828.499	1930.77
828.68	1860.83
828.862	1922.83
829.043	1928.45
829.224	1868
829.406	1884.27
829.587	1855.6
829.768	1844.55
829.949	1878.27
830.131	1886.21
830.312	1926.51
830.493	1857.73
830.674	1855.6
830.855	1874.59
831.036	1855.4
831.218	1913.72
831.399	1942.59
831.58	1874.78
831.761	1893.38
831.942	1899.38
832.123	1903.65
832.304	1818.4
832.485	1857.54
832.666	1859.09
832.847	1891.83
833.028	1852.69
833.209	1874.97
833.389	1868
833.57	1803.48
833.751	1802.9
833.932	1863.35
834.113	1867.8
834.294	1852.11
834.475	1897.25
834.655	1906.94
834.836	1921.28
835.017	1892.22
835.198	1817.04
835.378	1862.19
835.559	1919.73
835.74	1828.86
835.92	1879.62
836.101	1823.44
836.281	1902.48
836.462	1908.1
836.643	1934.84
836.823	1939.3
837.004	1917.21
837.184	1969.33
837.365	1958.67
837.545	1967.78
837.726	1854.24
837.906	1988.31
838.087	1891.05
838.267	1894.93
838.448	1923.02
838.628	1911.59
838.808	1933.48
838.989	1967.78
839.169	1873.62
839.349	1925.35
839.53	1907.72
839.71	1928.06
839.89	1874.39
840.07	1927.67
840.251	1856.57
840.431	1932.71
840.611	1918.37
840.791	1867.42
840.971	1905.2
841.151	1854.24
841.332	1849.59
841.512	1920.31
841.692	1827.89
841.872	1914.88
842.052	1874.78
842.232	1892.6
842.412	1809.87
842.592	1829.83
842.772	1862.96
842.952	1852.89
843.132	1817.82
843.312	1855.02
843.492	1791.08
843.672	1871.49
843.851	1806.77
844.031	1819.95
844.211	1825.37
844.391	1792.44
844.571	1835.25
844.751	1849.2
844.93	1833.7
845.11	1782.36
845.29	1821.69
845.47	1844.94
845.649	1808.13
845.829	1878.07
846.009	1787.01
846.188	1799.99
846.368	1817.04
846.547	1806.19
846.727	1869.94
846.907	1747.68
847.086	1825.95
847.266	1788.17
847.445	1807.55
847.625	1774.61
847.804	1752.52
847.984	1771.12
848.163	1741.87
848.343	1727.92
848.522	1768.41
848.701	1766.86
848.881	1750.97
849.06	1740.51
849.239	1760.08
849.419	1742.64
849.598	1726.17
849.777	1680.84
849.957	1679.29
850.136	1584.93
850.315	1607.99
850.494	1574.66
850.674	1622.33
850.853	1668.63
851.032	1643.44
851.211	1695.37
851.39	1630.85
851.569	1615.35
851.748	1579.9
851.927	1672.51
852.107	1690.53
852.286	1592.88
852.465	1623.68
852.644	1638.99
852.823	1654.1
853.002	1638.41
853.181	1656.43
853.359	1664.56
853.538	1567.5
853.717	1637.44
853.896	1579.31
854.075	1470.43
854.254	1457.83
854.433	1390.41
854.611	1408.43
854.79	1357.28
854.969	1416.57
855.148	1448.73
855.327	1413.08
855.505	1442.92
855.684	1458.22
855.863	1483.6
856.041	1466.36
856.22	1495.23
856.399	1469.46
856.577	1546.96
856.756	1570.21
856.934	1663.21
857.113	1655.84
857.291	1578.73
857.47	1535.72
857.648	1544.63
857.827	1561.68
858.005	1601.01
858.184	1530.88
858.362	1625.81
858.541	1570.21
858.719	1553.35
858.898	1543.66
859.076	1519.83
859.254	1604.31
859.433	1510.92
859.611	1504.53
859.789	1456.67
859.967	1542.5
860.146	1599.85
860.324	1480.89
860.502	1519.83
860.68	1461.13
860.859	1454.35
861.037	1500.85
861.215	1485.35
861.393	1501.62
861.571	1496.58
861.749	1456.28
861.927	1500.65
862.105	1497.55
862.283	1493.29
862.461	1439.04
862.639	1460.16
862.817	1441.56
862.995	1469.07
863.173	1459.19
863.351	1475.85
863.529	1457.64
863.707	1467.91
863.885	1468.49
864.063	1381.5
864.241	1409.2
864.418	1502.98
864.596	1408.24
864.774	1367.74
864.952	1390.8
865.129	1445.63
865.307	1390.41
865.485	1333.06
865.663	1418.31
865.84	1317.76
866.018	1382.08
866.196	1240.26
866.373	1262.15
866.551	1215.84
866.728	1181.36
866.906	1202.67
867.084	1259.24
867.261	1281.33
867.439	1261.18
867.616	1314.27
867.794	1292.76
867.971	1313.88
868.149	1325.12
868.326	1355.54
868.503	1321.82
868.681	1335
868.858	1325.51
869.035	1294.51
869.213	1353.41
869.39	1317.17
869.567	1378.98
869.745	1297.22
869.922	1318.92
870.099	1353.79
870.276	1352.24
870.454	1350.5
870.631	1352.44
870.808	1274.74
870.985	1356.7
871.162	1377.24
871.339	1342.75
871.517	1258.28
871.694	1260.02
871.871	1298.19
872.048	1281.52
872.225	1272.23
872.402	1317.76
872.579	1271.64
872.756	1291.79
872.933	1228.24
873.11	1239.09
873.287	1328.22
873.463	1264.09
873.64	1229.21
873.817	1265.06
873.994	1265.25
874.171	1189.3
874.348	1242.19
874.524	1172.45
874.701	1253.63
874.878	1209.06
875.055	1219.91
875.231	1249.94
875.408	1245.88
875.585	1172.06
875.762	1226.11
875.938	1203.64
876.115	1210.03
876.291	1190.27
876.468	1195.69
876.645	1143.77
876.821	1163.34
876.998	1187.36
877.174	1200.93
877.351	1189.49
877.527	1161.98
877.704	1205.96
877.88	1198.21
878.057	1170.7
878.233	1223.79
878.409	1178.65
878.586	1190.85
878.762	1149.58
878.938	1146.48
879.115	1077.9
879.291	1109.48
879.467	1108.51
879.644	1127.5
879.82	1140.09
879.996	1085.07
880.172	1063.17
880.349	1136.02
880.525	1129.24
880.701	1067.43
880.877	1074.41
881.053	1149.2
881.229	1108.12
881.405	1166.25
881.581	1081.58
881.757	1105.02
881.933	1154.62
882.109	1159.85
882.285	1100.76
882.461	1061.04
882.637	1090.68
882.813	1102.11
882.989	1087.58
883.165	1137.57
883.341	1072.67
883.517	1155.98
883.693	1123.81
883.869	1144.55
884.044	1087
884.22	1114.32
884.396	1146.68
884.572	1133.5
884.747	1135.05
884.923	1119.36
885.099	1133.89
885.275	1145.9
885.45	1094.56
885.626	1087
885.801	1086.62
885.977	1078.09
886.153	1032.75
886.328	1112
886.504	1073.25
886.679	1120.13
886.855	1082.93
887.03	1104.05
887.206	1139.7
887.381	1093.4
887.557	1127.11
887.732	1117.81
887.908	1121.1
888.083	1173.61
888.258	1109.28
888.434	1080.42
888.609	1107.35
888.784	1127.11
888.96	1084.29
889.135	1070.34
889.31	1090.1
889.485	1105.6
889.661	1062.98
889.836	1150.36
890.011	1118.39
890.186	1085.65
890.361	1103.47
890.537	1084.48
890.712	1075.77
890.887	1110.83
891.062	1087.97
891.237	1162.95
891.412	1061.23
891.587	1139.12
891.762	1132.92
891.937	1144.35
892.112	1060.27
892.287	1080.8
892.462	1063.75
892.637	1020.35
892.812	1022.68
892.987	1046.9
893.161	1015.9
893.336	1018.03
893.511	1004.47
893.686	1056.2
893.861	1011.05
894.035	1007.37
894.21	1030.43
894.385	971.72
894.56	1020.55
894.734	944.02
894.909	960.29
895.084	943.63
895.258	920.77
895.433	963.39
895.608	934.91
895.782	896.94
895.957	934.52
896.131	900.42
896.306	819.63
896.48	832.03
896.655	839.39
896.829	760.54
897.004	762.09
897.178	796.38
897.353	778.75
897.527	834.36
897.701	788.24
897.876	739.61
898.05	845.4
898.224	817.11
898.399	843.66
898.573	781.66
898.747	696.21
898.921	726.44
899.096	655.33
899.27	672
899.444	655.14
899.618	686.53
899.792	702.41
899.967	709.2
900.141	765.96
900.315	664.44
900.489	695.83
900.663	690.4
900.837	711.71
901.011	634.8
901.185	767.32
901.359	689.63
901.533	738.26
901.707	734
901.881	717.14
902.055	648.94
902.229	674.51
902.403	730.31
902.576	703.38
902.75	725.66
902.924	804.91
903.098	743.88
903.272	774.68
903.446	846.56
903.619	807.04
903.793	811.69
903.967	816.14
904.14	897.13
904.314	851.99
904.488	819.24
904.661	847.53
904.835	827.96
905.009	882.99
905.182	917.67
905.356	844.82
905.529	855.67
905.703	829.32
905.876	803.55
906.05	833
906.223	750.66
906.397	711.71
906.57	725.86
906.744	683.43
906.917	713.26
907.09	694.28
907.264	710.55
907.437	651.46
907.61	619.49
907.784	666.76
907.957	648.94
908.13	603.8
908.304	704.16
908.477	596.43
908.65	630.53
908.823	614.07
908.996	670.45
909.17	638.87
909.343	617.55
909.516	644.1
909.689	615.62
909.862	597.79
910.035	628.6
910.208	599.53
910.381	593.14
910.554	674.9
910.727	630.53
910.9	564.85
911.073	588.68
911.246	671.41
911.419	678.97
911.592	634.8
911.765	586.17
911.938	608.25
912.11	610.97
912.283	609.8
912.456	668.51
912.629	608.25
912.802	610
912.974	574.93
913.147	533.27
913.32	504.21
913.493	504.21
913.665	518.55
913.838	556.91
914.01	531.53
914.183	545.67
914.356	533.47
914.528	566.6
914.701	612.32
914.873	612.13
915.046	513.32
915.218	522.62
915.391	458.1
915.563	474.37
915.736	519.9
915.908	563.3
916.081	552.26
916.253	532.69
916.425	530.56
916.598	549.74
916.77	525.72
916.942	529.2
917.115	447.25
917.287	535.79
917.459	494.91
917.632	467.01
917.804	421.09
917.976	475.54
918.148	512.15
918.32	515.64
918.493	561.17
918.665	570.09
918.837	545.87
919.009	583.45
919.181	595.47
919.353	559.82
919.525	537.92
919.697	548.19
919.869	554.97
920.041	611.55
920.213	667.54
920.385	556.33
920.557	538.31
920.729	586.55
920.901	543.93
921.073	560.79
921.244	523
921.416	585.97
921.588	560.4
921.76	519.71
921.932	595.47
922.103	522.42
922.275	538.7
922.447	538.5
922.619	472.44
922.79	550.13
922.962	491.62
923.134	539.86
923.305	478.44
923.477	475.54
923.648	483.09
923.82	487.16
923.991	434.07
924.163	461.01
924.335	460.81
924.506	466.24
924.677	533.66
924.849	464.3
925.02	475.15
925.192	497.82
925.363	494.52
925.535	478.83
925.706	473.79
925.877	501.89
926.049	476.31
926.22	475.15
926.391	474.37
926.562	475.73
926.734	461.97
926.905	512.35
927.076	379.83
927.247	460.23
927.419	402.11
927.59	429.62
927.761	400.75
927.932	395.71
928.103	426.71
928.274	342.63
928.445	342.43
928.616	389.13
928.787	360.06
928.958	409.08
929.129	386.8
929.3	364.13
929.471	325.96
929.642	272.1
929.813	219.6
929.984	310.66
930.155	246.91
930.326	310.66
930.496	240.71
930.667	207
930.838	235.1
931.009	186.66
931.18	232
931.35	219.98
931.521	209.52
931.692	165.35
931.863	129.31
932.033	166.7
932.204	195.18
932.374	173.29
932.545	131.83
932.716	180.65
932.886	186.08
933.057	78.16
933.227	126.6
933.398	181.04
933.568	101.22
933.739	50.65
933.909	68.28
934.08	137.25
934.25	37.47
934.421	45.81
934.591	82.62
934.761	73.9
934.932	28.56
935.102	104.32
935.272	95.79
935.443	78.74
935.613	76.42
935.783	121.56
935.953	53.94
936.123	228.12
936.294	45.81
936.464	62.27
936.634	70.99
936.804	32.82
936.974	28.56
937.144	102.38
937.314	53.36
937.484	73.32
937.655	70.22
937.825	116.33
937.995	47.36
938.165	128.73
938.334	67.12
938.504	108.19
938.674	82.04
938.844	98.89
939.014	141.32
939.184	155.66
939.354	191.89
939.524	178.91
939.694	126.79
939.863	153.72
940.033	195.57
940.203	177.36
940.373	145.97
940.542	176.2
940.712	148.49
940.882	171.35
941.051	163.6
941.221	166.51
941.391	198.09
941.56	142.48
941.73	120.59
941.899	239.94
942.069	129.5
942.238	142.68
942.408	149.46
942.577	169.42
942.747	126.6
942.916	84.17
943.086	98.89
943.255	163.22
943.425	130.47
943.594	110.32
943.763	45.42
943.933	81.26
944.102	31.08
944.271	98.12
944.441	87.46
944.61	82.04
944.779	103.35
944.948	180.85
945.117	54.33
945.287	61.5
945.456	34.37
945.625	74.87
945.794	123.11
945.963	88.04
946.132	145.58
946.301	74.48
946.47	147.13
946.639	32.44
946.808	104.32
946.977	110.71
947.146	122.72
947.315	63.05
947.484	127.57
947.653	127.95
947.822	71.96
947.991	75.25
948.16	161.28
948.329	139
948.498	94.05
948.666	102.77
948.835	142.87
949.004	83.78
949.173	41.93
949.341	119.82
949.51	102.38
949.679	161.08
949.847	121.95
950.016	188.21
950.185	166.9
950.353	103.54
950.522	79.52
950.69	168.25
950.859	94.24
951.028	150.62
951.196	113.04
951.365	94.05
951.533	109.35
951.701	152.75
951.87	119.04
952.038	73.7
952.207	98.7
952.375	158.95
952.543	88.04
952.712	138.22
952.88	77.19
953.048	178.13
953.217	103.54
953.385	130.47
953.553	144.42
953.721	60.72
953.89	110.9
954.058	55.3
954.226	98.7
954.394	104.12
954.562	64.79
954.73	80.49
954.898	89.01
955.067	125.82
955.235	61.5
955.403	132.41
955.571	160.7
955.739	146.17
955.907	58.4
956.075	83.78
956.243	95.79
956.41	100.44
956.578	66.34
956.746	58.01
956.914	75.84
957.082	100.64
957.25	122.53
957.418	84.36
957.585	101.02
957.753	119.04
957.921	77.97
958.089	90.56
958.256	116.52
958.424	106.64
958.592	108.58
958.759	48.71
958.927	118.65
959.095	88.04
959.262	111.68
959.43	94.82
959.597	69.05
959.765	109.55
959.932	60.92
960.1	134.74
960.267	96.18
960.435	106.45
960.602	140.16
960.77	117.69
960.937	50.26
961.104	117.1
961.272	50.46
961.439	84.55
961.606	125.44
961.774	137.64
961.941	87.07
962.108	128.34
962.275	85.91
962.443	166.32
962.61	85.72
962.777	181.43
962.944	130.86
963.111	130.47
963.278	128.34
963.446	109.16
963.613	104.12
963.78	139.38
963.947	165.35
964.114	121.17
964.281	186.08
964.448	130.09
964.615	86.88
964.782	126.99
964.949	129.31
965.116	113.04
965.282	154.5
965.449	95.79
965.616	117.69
965.783	128.15
965.95	112.65
966.117	71.96
966.283	122.14
966.45	128.54
966.617	110.71
966.784	156.82
966.95	139.58
967.117	141.9
967.284	77.58
967.45	80.49
967.617	171.35
967.784	154.69
967.95	187.05
968.117	92.3
968.283	166.12
968.45	229.28
968.616	144.23
968.783	179.3
968.949	140.74
969.116	164.18
969.282	109.35
969.449	128.34
969.615	151.01
969.781	69.05
969.948	108
970.114	87.27
970.28	181.43
970.447	108.39
970.613	188.98
970.779	106.06
970.945	160.31
971.112	130.09
971.278	133.38
971.444	136.48
971.61	181.43
971.776	105.87
971.942	152.17
972.108	170.19
972.275	133.77
972.441	149.27
972.607	176.97
972.773	96.37
972.939	151.4
973.105	126.02
973.271	84.55
973.437	116.33
973.602	118.07
973.768	116.14
973.934	119.82
974.1	153.92
974.266	71.57
974.432	119.24
974.598	88.82
974.763	179.1
974.929	100.64
975.095	166.12
975.261	101.41
975.426	80.68
975.592	136.67
975.758	193.83
975.923	84.94
976.089	87.85
976.255	131.25
976.42	114.59
976.586	129.31
976.751	126.99
976.917	192.08
977.082	137.45
977.248	57.24
977.413	63.44
977.579	84.17
977.744	114.59
977.91	66.73
978.075	68.47
978.24	161.67
978.406	108.77
978.571	80.68
978.736	79.32
978.902	109.55
979.067	92.5
979.232	50.84
979.397	104.9
979.563	159.34
979.728	81.84
979.893	102.96
980.058	80.49
980.223	161.67
980.388	103.93
980.554	102.38
980.719	95.02
980.884	104.32
981.049	162.05
981.214	94.05
981.379	120.98
981.544	89.4
981.709	87.07
981.874	92.89
982.039	99.47
982.204	103.35
982.368	97.92
982.533	80.68
982.698	124.27
982.863	150.23
983.028	105.48
983.193	116.14
983.357	117.88
983.522	100.44
983.687	93.66
983.852	102.77
984.016	93.27
984.181	94.05
984.346	163.99
984.51	122.14
984.675	100.44
984.839	115.36
985.004	115.94
985.168	141.32
985.333	119.43
985.498	77.77
985.662	133.77
985.827	113.23
985.991	119.43
986.155	70.8
986.32	140.74
986.484	176
986.649	134.15
986.813	31.86
986.977	123.89
987.142	101.99
987.306	70.6
987.47	69.83
987.634	87.85
987.799	124.85
987.963	101.6
988.127	111.1
988.291	139
988.455	108.39
988.62	88.82
988.784	110.32
988.948	132.02
989.112	66.15
989.276	118.07
989.44	127.18
989.604	67.7
989.768	97.54
989.932	170.58
990.096	45.03
990.26	48.71
990.424	61.69
990.588	89.01
990.752	161.28
990.915	125.63
991.079	98.31
991.243	69.25
991.407	119.43
991.571	108.58
991.734	117.88
991.898	98.31
992.062	163.8
992.226	85.14
992.389	83.39
992.553	36.89
992.717	54.91
992.88	93.85
993.044	86.69
993.207	86.1
993.371	108.97
993.535	103.15
993.698	88.62
993.862	113.23
994.025	127.95
994.189	72.35
994.352	109.16
994.515	96.57
994.679	116.33
994.842	70.41
995.006	128.34
995.169	41.35
995.332	62.66
995.496	100.25
995.659	29.34
995.822	69.25
995.985	78.16
996.149	133.19
996.312	80.29
996.475	129.5
996.638	61.89
996.801	124.27
996.964	145
997.128	77.39
997.291	79.32
997.454	72.93
997.617	48.52
997.78	122.53
997.943	33.21
998.106	93.47
998.269	35.92
998.432	76.42
998.595	70.6
998.758	30.11
998.92	55.88
999.083	15
999.246	65.95
999.409	35.73
999.572	6.67
999.735	45.42
999.897	73.9
1000.06	47.55
1000.223	85.33
1000.386	102.19
1000.548	118.27
1000.711	70.99
1000.874	88.82
1001.036	30.31
1001.199	84.75
1001.361	44.84
1001.524	75.45
1001.687	105.48
1001.849	33.6
1002.012	96.76
1002.174	70.6
1002.337	75.25
1002.499	50.46
1002.661	94.05
1002.824	35.15
1002.986	64.4
1003.149	38.25
1003.311	50.84
1003.473	103.35
1003.636	56.46
1003.798	94.63
1003.96	99.67
1004.123	61.89
1004.285	71.77
1004.447	51.81
1004.609	52.39
1004.771	93.66
1004.933	21.97
1005.096	40.19
1005.258	20.81
1005.42	40.77
1005.582	76.03
1005.744	66.73
1005.906	17.32
1006.068	90.17
1006.23	11.9
1006.392	-17.55
1006.554	5.89
1006.716	103.93
1006.878	63.05
1007.04	1.82
1007.202	21.39
1007.363	31.47
1007.525	50.65
1007.687	58.59
1007.849	87.27
1008.011	-20.65
1008.172	5.7
1008.334	23.14
1008.496	73.7
1008.658	7.64
1008.819	1.24
1008.981	-5.54
1009.143	-0.5
1009.304	15.77
1009.466	69.25
1009.627	91.34
1009.789	135.12
1009.95	56.65
1010.112	13.45
1010.273	73.51
1010.435	17.52
1010.596	30.5
1010.758	37.67
1010.919	50.65
1011.081	10.54
1011.242	47.36
1011.403	71.38
1011.565	29.14
1011.726	56.46
1011.887	20.42
1012.049	57.62
1012.21	54.33
1012.371	92.5
1012.532	-26.46
1012.693	36.89
1012.855	-6.31
1013.016	37.67
1013.177	60.92
1013.338	49.68
1013.499	106.84
1013.66	94.24
1013.821	50.84
1013.982	60.14
1014.143	43.87
1014.304	35.54
1014.465	42.51
1014.626	58.4
1014.787	53.55
1014.948	116.91
1015.109	-16.58
1015.27	66.54
1015.431	15.77
1015.592	20.42
1015.752	99.09
1015.913	34.57
1016.074	26.43
1016.235	45.42
1016.395	48.13
1016.556	19.26
1016.717	42.71
1016.877	68.09
1017.038	15.39
1017.199	74.87
1017.359	30.31
1017.52	34.76
1017.681	17.52
1017.841	29.72
1018.002	27.01
1018.162	11.51
1018.323	86.69
1018.483	24.11
1018.644	23.52
1018.804	-11.35
1018.964	8.61
1019.125	4.54
1019.285	40.38
1019.446	40.96
1019.606	-5.93
1019.766	-33.44
1019.926	57.82
1020.087	40.57
1020.247	0.08
1020.407	47.55
1020.567	57.04
1020.728	32.63
1020.888	16.94
1021.048	19.07
1021.208	29.14
1021.368	20.04
1021.528	71.38
1021.688	52.2
1021.848	38.44
1022.008	35.92
1022.168	9.77
1022.328	26.04
1022.488	50.07
1022.648	-3.41
1022.808	5.31
1022.968	37.86
1023.128	2.79
1023.288	-10.58
1023.448	2.99
1023.608	39.61
1023.767	46.77
1023.927	7.25
1024.087	-17.94
1024.247	2.79
1024.406	17.52
1024.566	-24.33
1024.726	2.02
1024.885	23.33
1025.045	45.81
1025.205	6.86
1025.364	19.26
1025.524	22.75
1025.683	-18.33
1025.843	31.08
1026.003	42.12
1026.162	72.93
1026.321	52.59
1026.481	36.7
1026.64	17.52
1026.8	26.04
1026.959	8.22
1027.119	49.68
1027.278	31.08
1027.437	-11.16
1027.597	23.14
1027.756	51.81
1027.915	15
1028.074	37.86
1028.234	-14.26
1028.393	36.12
1028.552	-1.47
1028.711	-58.62
1028.87	57.62
1029.03	-37.7
1029.189	8.99
1029.348	-17.55
1029.507	-0.31
1029.666	14.22
1029.825	-0.5
1029.984	2.02
1030.143	42.32
1030.302	-14.06
1030.461	-45.45
1030.62	22.56
1030.779	48.52
1030.938	-4.96
1031.097	-36.15
1031.255	48.71
1031.414	79.71
1031.573	58.59
1031.732	-36.15
1031.891	3.37
1032.049	63.44
1032.208	40.96
1032.367	0.27
1032.525	-7.09
1032.684	-7.09
1032.843	25.27
1033.001	-57.85
1033.16	160.7
1033.319	58.2
1033.477	61.3
1033.636	-3.6
1033.794	-32.08
1033.953	46.77
1034.111	22.56
1034.27	-17.16
1034.428	42.51
1034.587	-17.94
1034.745	13.45
1034.903	22.36
1035.062	23.52
1035.22	-27.82
1035.378	60.14
1035.537	-19.88
1035.695	30.69
1035.853	3.18
1036.011	38.44
1036.17	27.59
1036.328	-67.92
1036.486	17.52
1036.644	19.46
1036.802	-48.36
1036.96	-7.09
1037.119	-4.96
1037.277	-14.26
1037.435	-22.59
1037.593	-36.15
1037.751	13.45
1037.909	29.14
1038.067	29.14
