Data from gum_old_FLMT105791__4__15-42-26-259.txt Node

Date: Mon Mar 20 15:42:26 GMT 2023
User: antho
Spectrometer: FLMT10579
Trigger mode: 0
Integration Time (sec): 1.000000E-1
Scans to average: 10
Electric dark correction enabled: true
Nonlinearity correction enabled: false
Boxcar width: 0
XAxis mode: Wavelengths
Number of Pixels in Spectrum: 3648
>>>>>Begin Spectral Data<<<<<
345.248	-179.22
345.464	-179.22
345.681	-179.22
345.898	-186.97
346.114	-166.82
346.331	-50.96
346.548	43.79
346.764	6.97
346.981	-8.91
347.197	-13.95
347.414	2.32
347.631	16.27
347.847	41.46
348.064	4.26
348.28	21.31
348.497	-48.63
348.713	-13.95
348.93	22.28
349.146	26.35
349.363	-16.86
349.579	28.67
349.796	19.76
350.012	-4.46
350.229	27.32
350.445	46.11
350.661	10.66
350.878	0.19
351.094	31.58
351.311	72.85
351.527	46.89
351.743	3.1
351.96	57.54
352.176	48.63
352.392	42.43
352.609	66.07
352.825	-0.19
353.041	50.96
353.257	29.06
353.474	47.86
353.69	41.07
353.906	37.59
354.122	-0
354.339	69.75
354.555	31.58
354.771	41.66
354.987	52.7
355.203	81.18
355.42	29.64
355.636	12.59
355.852	13.17
356.068	65.1
356.284	-29.84
356.5	71.69
356.716	43.79
356.932	26.35
357.148	69.36
357.364	14.92
357.58	58.71
357.796	75.76
358.012	79.82
358.228	57.93
358.444	-10.07
358.66	64.91
358.876	61.22
359.092	16.08
359.308	46.5
359.524	39.52
359.74	24.22
359.956	33.13
360.172	61.81
360.388	63.94
360.604	31.39
360.819	118.57
361.035	49.6
361.251	87.77
361.467	1.74
361.683	74.21
361.898	50.57
362.114	70.91
362.33	47.27
362.546	74.01
362.762	31.77
362.977	41.27
363.193	15.11
363.409	89.12
363.624	19.76
363.84	32.55
364.056	36.04
364.271	46.31
364.487	68.78
364.703	55.8
364.918	21.7
365.134	39.91
365.35	58.12
365.565	127.1
365.781	65.29
365.996	90.29
366.212	145.31
366.427	73.24
366.643	86.99
366.858	58.51
367.074	32.55
367.289	134.85
367.505	195.1
367.72	52.7
367.936	54.83
368.151	112.18
368.367	79.44
368.582	80.79
368.798	72.27
369.013	117.8
369.228	76.72
369.444	93.19
369.659	120.51
369.874	84.09
370.09	146.28
370.305	15.69
370.52	89.9
370.736	136.2
370.951	92.03
371.166	144.15
371.381	129.42
371.597	100.55
371.812	59.48
372.027	36.81
372.242	95.71
372.458	166.82
372.673	61.22
372.888	74.98
373.103	90.09
373.318	161.39
373.533	110.63
373.749	99.39
373.964	29.06
374.179	116.44
374.394	57.93
374.609	111.02
374.824	39.33
375.039	124
375.254	43.59
375.469	141.63
375.684	75.37
375.899	117.99
376.114	89.9
376.329	122.64
376.544	130.97
376.759	108.69
376.974	74.4
377.189	80.79
377.404	81.18
377.619	159.26
377.834	93.97
378.049	61.22
378.264	77.31
378.478	109.08
378.693	95.32
378.908	116.44
379.123	109.85
379.338	138.72
379.553	104.82
379.767	114.7
379.982	123.03
380.197	102.1
380.412	94.16
380.626	122.25
380.841	174.37
381.056	138.14
381.271	175.92
381.485	90.67
381.7	82.15
381.915	135.62
382.129	88.15
382.344	85.44
382.559	102.49
382.773	117.02
382.988	36.81
383.202	119.93
383.417	48.63
383.632	173.79
383.846	88.15
384.061	118.38
384.275	81.18
384.49	124
384.704	149.19
384.919	129.23
385.133	104.43
385.348	143.95
385.562	101.91
385.777	138.72
385.991	106.17
386.206	100.17
386.42	95.71
386.634	146.67
386.849	117.8
387.063	127.1
387.277	93
387.492	112.37
387.706	98.81
387.92	93.97
388.135	145.31
388.349	149.19
388.563	115.28
388.778	138.53
388.992	151.7
389.206	144.92
389.42	227.85
389.635	128.07
389.849	163.52
390.063	199.17
390.277	139.11
390.491	220.1
390.706	176.7
390.92	181.35
391.134	165.27
391.348	187.93
391.562	149.57
391.776	175.34
391.99	161.2
392.205	208.28
392.419	146.28
392.633	155
392.847	210.22
393.061	107.92
393.275	190.07
393.489	130.59
393.703	111.21
393.917	168.17
394.131	96.1
394.345	143.18
394.559	171.08
394.773	141.24
394.986	161.59
395.2	167.2
395.414	213.32
395.628	155.58
395.842	192.97
396.056	178.44
396.27	127.68
396.484	183.87
396.697	190.07
396.911	184.83
397.125	126.9
397.339	162.55
397.553	140.85
397.766	201.3
397.98	226.3
398.194	231.33
398.408	196.85
398.621	246.06
398.835	264.08
399.049	279.77
399.262	299.92
399.476	296.05
399.69	302.63
399.903	347.78
400.117	289.65
400.331	317.75
400.544	270.86
400.758	413.65
400.971	325.69
401.185	340.22
401.398	266.4
401.612	338.67
401.826	331.11
402.039	331.5
402.253	292.17
402.466	346.61
402.68	316.97
402.893	320.46
403.106	315.03
403.32	330.73
403.533	354.56
403.747	329.56
403.96	355.91
404.174	354.56
404.387	285.78
404.6	355.72
404.814	385.56
405.027	348.16
405.24	328.21
405.454	300.89
405.667	365.41
405.88	279.19
406.094	347.39
406.307	371.99
406.52	341.38
406.733	324.53
406.947	272.6
407.16	411.33
407.373	378.97
407.586	321.43
407.799	333.25
408.012	366.57
408.226	345.06
408.439	402.22
408.652	339.64
408.865	380.71
409.078	419.85
409.291	407.64
409.504	374.9
409.717	400.86
409.93	397.76
410.143	394.86
410.357	298.76
410.57	307.28
410.783	324.53
410.996	357.46
411.209	326.27
411.421	410.16
411.634	390.98
411.847	361.92
412.06	399.89
412.273	393.5
412.486	415.78
412.699	476.42
412.912	448.52
413.125	442.32
413.338	390.21
413.55	441.55
413.763	393.31
413.976	411.91
414.189	399.7
414.402	407.45
414.615	489.79
414.827	401.06
415.04	454.53
415.253	441.74
415.466	461.89
415.678	500.26
415.891	447.75
416.104	432.64
416.316	439.81
416.529	402.03
416.742	490.57
416.954	494.44
417.167	447.36
417.38	461.89
417.592	492.31
417.805	419.66
418.017	400.67
418.23	460.54
418.442	382.84
418.655	432.25
418.868	450.85
419.08	478.94
419.293	506.26
419.505	472.36
419.718	458.41
419.93	483.4
420.142	427.6
420.355	504.71
420.567	478.17
420.78	466.54
420.992	463.25
421.205	547.72
421.417	451.43
421.629	475.26
421.842	440
422.054	422.18
422.266	495.22
422.479	511.49
422.691	447.75
422.903	502.39
423.115	449.3
423.328	468.09
423.54	496.57
423.752	478.75
423.964	476.42
424.177	505.29
424.389	473.71
424.601	587.25
424.813	509.94
425.025	519.63
425.238	503.36
425.45	482.43
425.662	494.64
425.874	806.38
426.086	501.61
426.298	527.57
426.51	520.99
426.722	510.72
426.934	461.12
427.146	521.96
427.358	472.55
427.57	548.69
427.782	479.72
427.994	506.84
428.206	457.44
428.418	476.81
428.63	530.48
428.842	573.1
429.054	523.31
429.266	518.27
429.478	485.34
429.69	490.96
429.902	437.48
430.114	506.65
430.325	468.09
430.537	409.78
430.749	425.47
430.961	349.71
431.173	401.83
431.384	430.89
431.596	353.39
431.808	440.58
432.02	539.39
432.231	556.64
432.443	600.42
432.655	590.15
432.867	516.92
433.078	587.44
433.29	610.11
433.502	587.05
433.713	628.71
433.925	605.27
434.136	626.58
434.348	526.6
434.56	478.94
434.771	650.41
434.983	522.15
435.194	539.78
435.406	582.02
435.617	628.52
435.829	709.11
436.04	644.6
436.252	614.95
436.463	678.7
436.675	699.23
436.886	662.23
437.098	696.72
437.309	738.76
437.521	670.75
437.732	681.6
437.943	632
438.155	652.73
438.366	578.53
438.578	704.85
438.789	645.76
439	634.33
439.211	607.4
439.423	629.29
439.634	654.87
439.845	700.4
440.057	697.49
440.268	720.74
440.479	648.47
440.69	696.72
440.902	653.9
441.113	643.63
441.324	668.62
441.535	705.05
441.746	797.46
441.957	705.05
442.168	715.51
442.38	735.27
442.591	730.81
442.802	707.95
443.013	751.16
443.224	770.92
443.435	775.57
443.646	750.77
443.857	733.14
444.068	759.88
444.279	724.81
444.49	823.62
444.701	754.65
444.912	866.63
445.123	812.38
445.334	762.4
445.545	786.23
445.756	774.6
445.967	718.8
446.178	749.22
446.388	774.41
446.599	784.1
446.81	786.03
447.021	717.64
447.232	792.43
447.443	819.94
447.653	785.65
447.864	856.75
448.075	826.53
448.286	827.49
448.496	827.69
448.707	866.83
448.918	803.86
449.129	870.31
449.339	795.91
449.55	858.88
449.761	802.31
449.971	853.46
450.182	818
450.393	860.63
450.603	814.9
450.814	883.49
451.024	892.01
451.235	909.06
451.446	943.74
451.656	930.76
451.867	833.89
452.077	872.25
452.288	903.25
452.498	910.81
452.709	864.69
452.919	864.31
453.13	820.91
453.34	863.92
453.55	774.02
453.761	869.34
453.971	856.17
454.182	878.26
454.392	897.44
454.602	920.3
454.813	902.86
455.023	893.17
455.233	850.55
455.444	880.19
455.654	789.52
455.864	854.62
456.075	884.65
456.285	859.66
456.495	860.04
456.705	886.59
456.916	920.88
457.126	969.9
457.336	907.51
457.546	844.35
457.756	882.13
457.967	943.36
458.177	863.53
458.387	897.24
458.597	842.61
458.807	889.88
459.017	863.73
459.227	881.16
459.437	882.32
459.647	942.97
459.857	917.01
460.068	883.49
460.278	964.47
460.488	940.84
460.698	972.22
460.908	925.53
461.117	910.42
461.327	900.34
461.537	945.68
461.747	976.1
461.957	979.78
462.167	1071.81
462.377	985.4
462.587	967.57
462.797	994.31
463.007	981.33
463.216	1015.43
463.426	1051.08
463.636	1012.52
463.846	885.81
464.056	944.32
464.265	986.95
464.475	933.09
464.685	980.94
464.895	1019.89
465.104	932.7
465.314	985.2
465.524	956.34
465.733	904.8
465.943	1028.8
466.153	1058.05
466.362	1054.37
466.572	999.54
466.782	986.56
466.991	1013.1
467.201	1032.29
467.41	954.98
467.62	999.35
467.829	973.39
468.039	1030.35
468.249	1028.41
468.458	1035
468.668	1066
468.877	1040.62
469.086	1118.5
469.296	1092.73
469.505	1023.57
469.715	1194.06
469.924	1101.07
470.134	1116.57
470.343	1125.87
470.552	1054.76
470.762	1061.35
470.971	1034.03
471.18	1058.63
471.39	1088.86
471.599	1036.94
471.808	1101.26
472.018	1100.87
472.227	1149.31
472.436	1204.14
472.645	1148.53
472.855	1158.03
473.064	1237.85
473.273	1217.31
473.482	1199.68
473.691	1222.93
473.901	1194.45
474.11	1156.09
474.319	1277.76
474.528	1187.28
474.737	1272.73
474.946	1239.4
475.155	1251.22
475.364	1307.41
475.573	1263.81
475.783	1295.98
475.992	1292.1
476.201	1324.46
476.41	1268.46
476.619	1246.38
476.828	1293.26
477.037	1263.62
477.245	1266.91
477.454	1313.61
477.663	1319.61
477.872	1367.86
478.081	1430.24
478.29	1333.76
478.499	1469.19
478.708	1406.22
478.917	1466.28
479.125	1420.94
479.334	1405.64
479.543	1385.87
479.752	1479.65
479.961	1420.17
480.169	1502.51
480.378	1441.09
480.587	1590.66
480.796	1486.43
481.004	1501.35
481.213	1527.7
481.422	1506.19
481.63	1506.58
481.839	1542.81
482.048	1598.03
482.256	1572.07
482.465	1570.9
482.674	1614.5
482.882	1610.81
483.091	1661.19
483.299	1592.02
483.508	1585.43
483.716	1637.55
483.925	1617.79
484.134	1572.07
484.342	1607.33
484.551	1635.61
484.759	1617.21
484.967	1671.26
485.176	1668.74
485.384	1667
485.593	1631.74
485.801	1629.8
486.01	1613.33
486.218	1520.53
486.426	1433.15
486.635	1428.89
486.843	1376.96
487.051	1444.19
487.26	1424.43
487.468	1478.87
487.676	1606.75
487.885	1567.22
488.093	1599.96
488.301	1689.67
488.509	1673.98
488.717	1730.16
488.926	1731.52
489.134	1691.22
489.342	1722.8
489.55	1639.68
489.758	1677.08
489.967	1754.19
490.175	1850.48
490.383	1799.91
490.591	1894.07
490.799	1811.34
491.007	1817.74
491.215	1842.73
491.423	1833.62
491.631	1804.56
491.839	1800.3
492.047	1853.97
492.255	1754.57
492.463	1732.49
492.671	1725.51
492.879	1781.89
493.087	1803.01
493.295	1841.95
493.503	1859.39
493.711	1924.3
493.919	1919.45
494.127	1938.83
494.334	1906.09
494.542	1841.18
494.75	1892.72
494.958	1889.23
495.166	1989.2
495.374	1977.58
495.581	1991.53
495.789	1982.03
495.997	2035.51
496.205	1922.17
496.412	1953.36
496.62	1932.43
496.828	1970.22
497.035	1954.33
497.243	1977
497.451	1982.03
497.658	2011.29
497.866	1990.56
498.074	2047.71
498.281	1970.22
498.489	2050.81
498.696	1959.37
498.904	1918.29
499.112	1910.93
499.319	2046.16
499.527	1982.42
499.734	2034.54
499.942	1958.2
500.149	1966.73
500.357	1996.76
500.564	1954.91
500.771	1981.45
500.979	1916.74
501.186	1936.5
501.394	1967.12
501.601	1928.95
501.808	1957.43
502.016	1903.76
502.223	1905.5
502.43	1943.48
502.638	1917.71
502.845	1936.89
503.052	2007.61
503.26	1950.07
503.467	2050.81
503.674	2032.6
503.881	2042.68
504.089	2059.92
504.296	2021.36
504.503	1969.05
504.71	2004.51
504.917	1957.23
505.125	2030.08
505.332	2006.25
505.539	2030.86
505.746	2095.18
505.953	2121.34
506.16	2120.76
506.367	2169.39
506.574	2204.84
506.781	2187.02
506.988	2106.61
507.195	2128.7
507.402	2086.85
507.609	2101.77
507.816	2111.07
508.023	2037.25
508.23	2030.47
508.437	2015.55
508.644	2083.17
508.851	2123.28
509.058	2164.35
509.265	2085.69
509.472	2155.63
509.679	2199.03
509.885	2119.98
510.092	2123.66
510.299	2143.04
510.506	2125.99
510.713	2116.3
510.92	2160.28
511.126	2165.32
511.333	2193.41
511.54	2200.77
511.746	2226.93
511.953	2214.92
512.16	2273.04
512.367	2168.42
512.573	2157.38
512.78	2226.35
512.987	2176.56
513.193	2145.94
513.4	2075.81
513.606	2178.69
513.813	2180.43
514.02	2155.63
514.226	2203.29
514.433	2189.34
514.639	2139.36
514.846	2117.66
515.052	2133.93
515.259	2150.79
515.465	2147.11
515.672	2164.54
515.878	2225.96
516.085	2180.43
516.291	2243.01
516.497	2204.84
516.704	2158.73
516.91	2096.54
517.117	2021.95
517.323	1923.91
517.529	1987.65
517.736	1957.23
517.942	1980.87
518.148	2011.1
518.354	2051.2
518.561	2051.2
518.767	2026.21
518.973	2117.46
519.179	2100.03
519.386	2087.24
519.592	2104.68
519.798	2099.83
520.004	2227.9
520.21	2196.51
520.417	2276.34
520.623	2248.05
520.829	2297.45
521.035	2269.94
521.241	2300.75
521.447	2256.96
521.653	2432.5
521.859	2329.81
522.065	2352.29
522.271	2439.86
522.477	2384.45
522.683	2422.23
522.889	2372.24
523.095	2364.1
523.301	2330.97
523.507	2249.21
523.713	2366.62
523.919	2319.54
524.125	2392.97
524.331	2401.3
524.537	2543.71
524.742	2521.62
524.948	2529.95
525.154	2485.97
525.36	2623.72
525.566	2464.08
525.772	2542.54
525.977	2474.93
526.183	2532.28
526.389	2533.25
526.595	2419.71
526.8	2420.87
527.006	2351.51
527.212	2297.45
527.417	2265.68
527.623	2232.74
527.829	2384.25
528.034	2371.85
528.24	2409.05
528.446	2428.43
528.651	2547.58
528.857	2522.2
529.062	2600.09
529.268	2598.73
529.473	2590.98
529.679	2632.06
529.884	2692.7
530.09	2620.43
530.295	2647.56
530.501	2673.91
530.706	2609.19
530.912	2591.76
531.117	2672.16
531.323	2690.76
531.528	2729.7
531.733	2716.72
531.939	2668.29
532.144	2710.91
532.35	2681.66
532.555	2716.53
532.76	2692.89
532.966	2648.33
533.171	2638.45
533.376	2587.88
533.581	2546.03
533.787	2581.68
533.992	2668.67
534.197	2646.97
534.402	2667.51
534.607	2669.26
534.813	2749.85
535.018	2666.74
535.223	2703.74
535.428	2720.79
535.633	2763.61
535.838	2801.2
536.043	2765.35
536.249	2865.72
536.454	2761.09
536.659	2803.91
536.864	2790.35
537.069	2727.57
537.274	2743.85
537.479	2685.92
537.684	2807.78
537.889	2670.03
538.094	2807.2
538.299	2758.57
538.504	2810.88
538.708	2783.37
538.913	2814.37
539.118	2791.12
539.323	2789.19
539.528	2757.99
539.733	2719.63
539.938	2785.12
540.142	2711.1
540.347	2698.9
540.552	2714.59
540.757	2690.76
540.962	2674.1
541.166	2636.51
541.371	2631.09
541.576	2694.25
541.781	2601.06
541.985	2754.31
542.19	2763.42
542.395	2814.37
542.599	2835.88
542.804	2788.22
543.008	2845.37
543.213	2763.22
543.418	2740.55
543.622	2808.75
543.827	2730.48
544.031	2875.98
544.236	2850.02
544.44	2845.37
544.645	2874.63
544.849	2820.96
545.054	2896.33
545.258	2887.22
545.463	2897.1
545.667	2851.57
545.872	2857.19
546.076	2858.35
546.281	2846.15
546.485	2821.15
546.689	2852.73
546.894	2873.27
547.098	2854.28
547.302	2835.49
547.507	2826.58
547.711	2850.8
547.915	2904.46
548.119	2764.39
548.324	2789.19
548.528	2848.86
548.732	2811.27
548.936	2871.72
549.141	2879.08
549.345	2823.48
549.549	2850.02
549.753	2832.2
549.957	2929.46
550.161	2883.35
550.366	2867.07
550.57	2821.15
550.774	2863.39
550.978	2868.04
551.182	2896.13
551.386	2814.57
551.59	2834.52
551.794	2811.66
551.998	2865.13
552.202	2881.6
552.406	2842.85
552.61	2920.55
552.814	2878.5
553.018	2922.48
553.222	2830.45
553.426	2820.38
553.63	2966.46
553.833	2834.52
554.037	2778.92
554.241	2798.29
554.445	2862.42
554.649	2811.47
554.853	2871.53
555.056	2892.65
555.26	2902.72
555.464	2832.58
555.668	2843.43
555.871	2881.6
556.075	2864.75
556.279	2828.9
556.483	2806.62
556.686	2808.17
556.89	2820.18
557.094	2804.88
557.297	2705.68
557.501	2824.83
557.704	2722.92
557.908	2782.02
558.112	2731.45
558.315	2841.88
558.519	2740.55
558.722	2733.19
558.926	2728.54
559.129	2665.38
559.333	2653.37
559.536	2635.93
559.74	2616.36
559.943	2600.86
560.147	2626.24
560.35	2636.12
560.553	2682.82
560.757	2624.11
560.96	2701.22
561.164	2634.77
561.367	2765.55
561.57	2689.6
561.774	2685.34
561.977	2676.23
562.18	2637.29
562.384	2749.08
562.587	2682.04
562.79	2670.03
562.993	2655.31
563.197	2677.97
563.4	2708.2
563.603	2720.02
563.806	2771.55
564.009	2649.88
564.212	2680.3
564.416	2614.04
564.619	2649.49
564.822	2588.27
565.025	2648.91
565.228	2631.86
565.431	2636.32
565.634	2517.75
565.837	2563.08
566.04	2502.63
566.243	2522.98
566.446	2455.16
566.649	2500.7
566.852	2458.65
567.055	2511.55
567.258	2543.51
567.461	2563.47
567.664	2601.25
567.867	2470.66
568.07	2569.28
568.273	2528.79
568.475	2593.5
568.678	2478.8
568.881	2485
569.084	2480.93
569.287	2348.6
569.489	2440.63
569.692	2473.76
569.895	2491.01
570.098	2424.55
570.3	2404.02
570.503	2378.63
570.706	2402.08
570.909	2372.24
571.111	2321.67
571.314	2316.25
571.516	2306.37
571.719	2371.47
571.922	2319.93
572.124	2321.09
572.327	2395.3
572.529	2309.27
572.732	2303.85
572.935	2354.22
573.137	2437.34
573.34	2331.36
573.542	2386.58
573.745	2368.56
573.947	2396.65
574.15	2354.03
574.352	2307.92
574.554	2395.1
574.757	2262.39
574.959	2306.17
575.162	2288.74
575.364	2264.32
575.566	2361.58
575.769	2231.97
575.971	2245.34
576.173	2158.73
576.376	2270.72
576.578	2295.32
576.78	2332.33
576.982	2199.42
577.185	2250.96
577.387	2200.77
577.589	2231.19
577.791	2271.69
577.993	2250.57
578.196	2220.73
578.398	2229.26
578.6	2229.45
578.802	2189.73
579.004	2122.11
579.206	2156.79
579.408	2224.99
579.61	2162.99
579.812	2196.9
580.014	2190.31
580.216	2159.51
580.418	2185.66
580.62	2181.98
580.822	2143.04
581.024	2189.15
581.226	2210.07
581.428	2187.99
581.63	2263.36
581.832	2146.72
582.034	2231.39
582.236	2165.32
582.438	2252.51
582.64	2280.99
582.841	2281.95
583.043	2299.78
583.245	2220.15
583.447	2239.33
583.649	2234.29
583.85	2230.22
584.052	2210.27
584.254	2142.46
584.456	2247.08
584.657	2174.43
584.859	2235.26
585.061	2168.81
585.262	2187.02
585.464	2142.26
585.666	2181.21
585.867	2137.61
586.069	2188.18
586.27	2163.38
586.472	2129.48
586.674	2111.65
586.875	2124.83
587.077	2102.35
587.278	2170.55
587.48	2137.23
587.681	2216.66
587.883	2131.8
588.084	2070.58
588.285	2081.04
588.487	2122.89
588.688	2126.76
588.89	2009.16
589.091	1969.25
589.292	1974.28
589.494	1940.77
589.695	1891.75
589.896	1824.52
590.098	1819.09
590.299	1911.9
590.5	1871.99
590.702	1915.97
590.903	1939.22
591.104	2012.26
591.305	1985.13
591.507	2050.43
591.708	2013.61
591.909	1951.62
592.11	2031.05
592.311	2035.7
592.512	1947.35
592.714	1951.62
592.915	1950.07
593.116	1955.49
593.317	1993.27
593.518	1976.22
593.719	1970.41
593.92	2024.27
594.121	2033.38
594.322	2004.9
594.523	2018.65
594.724	1953.55
594.925	2008.38
595.126	2001.99
595.327	1989.78
595.528	1959.37
595.729	2000.63
595.929	1971.38
596.13	1964.21
596.331	1995.21
596.532	1962.47
596.733	2053.91
596.934	2062.05
597.135	2006.64
597.335	2024.85
597.536	1965.95
597.737	2025.82
597.938	1953.75
598.138	1991.33
598.339	2003.54
598.54	2004.51
598.74	1948.52
598.941	1980.87
599.142	2039.19
599.342	1993.47
599.543	1967.5
599.744	1949.1
599.944	1937.47
600.145	1963.82
600.345	1968.08
600.546	2053.33
600.746	2033.38
600.947	2037.25
601.147	1968.86
601.348	1992.11
601.548	1923.33
601.749	1958.59
601.949	1912.09
602.15	1911.51
602.35	1938.25
602.551	1950.65
602.751	1900.66
602.951	1899.3
603.152	1885.16
603.352	1995.98
603.552	1944.45
603.753	1973.32
603.953	1992.88
604.153	1965.76
604.354	1949.1
604.554	1907.64
604.754	1962.85
604.954	1931.85
605.155	1971.18
605.355	1949.48
605.555	1972.54
605.755	2024.27
605.955	1914.8
606.155	1969.25
606.356	1927.78
606.556	1948.71
606.756	1973.51
606.956	1842.54
607.156	1977.97
607.356	1873.92
607.556	1975.64
607.756	1924.49
607.956	1973.51
608.156	1931.27
608.356	1882.64
608.556	1928.37
608.756	1899.89
608.956	1862.49
609.156	1911.9
609.356	1841.37
609.556	1859.39
609.755	1901.82
609.955	1839.24
610.155	1881.48
610.355	1859.59
610.555	1854.16
610.755	1813.67
610.954	1808.05
611.154	1856.29
611.354	1881.48
611.554	1856.49
611.753	1838.08
611.953	1790.61
612.153	1856.29
612.352	1855.9
612.552	1791.77
612.752	1773.76
612.951	1810.37
613.151	1790.42
613.351	1795.84
613.55	1815.02
613.75	1832.27
613.949	1779.96
614.149	1817.93
614.348	1771.62
614.548	1769.88
614.747	1708.27
614.947	1774.34
615.146	1707.11
615.346	1808.63
615.545	1780.92
615.745	1769.49
615.944	1802.82
616.144	1762.91
616.343	1754.96
616.542	1729.78
616.742	1764.07
616.941	1739.66
617.14	1679.21
617.34	1710.01
617.539	1718.93
617.738	1706.72
617.938	1783.06
618.137	1729.58
618.336	1708.66
618.535	1768.14
618.734	1725.9
618.934	1769.49
619.133	1762.13
619.332	1729.58
619.531	1681.53
619.73	1750.12
619.929	1787.71
620.128	1764.84
620.328	1807.08
620.527	1722.03
620.726	1718.54
620.925	1738.3
621.124	1731.13
621.323	1760
621.522	1673.59
621.721	1719.7
621.92	1653.05
622.119	1740.43
622.318	1669.71
622.517	1679.79
622.715	1682.69
622.914	1637.94
623.113	1675.14
623.312	1581.56
623.511	1708.46
623.71	1641.81
623.909	1624.18
624.107	1729.19
624.306	1640.46
624.505	1623.8
624.704	1612.95
624.902	1602.68
625.101	1690.25
625.3	1621.66
625.499	1619.73
625.697	1628.45
625.896	1588.15
626.095	1629.41
626.293	1595.12
626.492	1590.66
626.69	1637.75
626.889	1606.36
627.088	1632.71
627.286	1602.87
627.485	1579.23
627.683	1559.08
627.882	1613.72
628.08	1545.91
628.279	1590.86
628.477	1665.06
628.676	1539.13
628.874	1588.53
629.073	1556.37
629.271	1515.88
629.469	1610.04
629.668	1529.44
629.866	1528.08
630.065	1533.7
630.263	1568.58
630.461	1524.6
630.66	1577.68
630.858	1563.54
631.056	1597.25
631.254	1642.78
631.453	1525.18
631.651	1591.63
631.849	1555.6
632.047	1542.03
632.245	1561.41
632.444	1536.22
632.642	1552.5
632.84	1587.56
633.038	1518.59
633.236	1476.16
633.434	1545.33
633.632	1529.25
633.83	1493.02
634.028	1568.97
634.227	1529.05
634.425	1617.98
634.623	1549.78
634.821	1535.83
635.019	1549.2
635.216	1539.32
635.414	1553.85
635.612	1583.5
635.81	1530.8
636.008	1562.77
636.206	1544.75
636.404	1569.74
636.602	1493.6
636.8	1517.23
636.997	1550.17
637.195	1553.08
637.393	1527.12
637.591	1574.97
637.789	1591.63
637.986	1498.44
638.184	1513.94
638.382	1587.37
638.58	1540.29
638.777	1610.81
638.975	1540.29
639.173	1522.47
639.37	1513.55
639.568	1531.18
639.765	1541.45
639.963	1503.09
640.161	1549.01
640.358	1535.06
640.556	1495.92
640.753	1477.9
640.951	1470.54
641.148	1482.36
641.346	1472.48
641.543	1479.07
641.741	1511.62
641.938	1423.85
642.136	1486.43
642.333	1452.91
642.531	1499.22
642.728	1516.07
642.925	1480.81
643.123	1480.04
643.32	1472.87
643.517	1467.25
643.715	1470.74
643.912	1470.93
644.109	1475.77
644.306	1445.16
644.504	1427.72
644.701	1464.34
644.898	1476.74
645.095	1429.85
645.293	1443.42
645.49	1439.74
645.687	1481.59
645.884	1487.4
646.081	1387.23
646.278	1412.8
646.475	1425.79
646.672	1401.57
646.87	1442.64
647.067	1424.43
647.264	1426.56
647.461	1356.62
647.658	1378.32
647.855	1414.94
648.052	1377.35
648.249	1312.25
648.446	1370.37
648.642	1374.25
648.839	1363.21
649.036	1349.64
649.233	1301.21
649.43	1304.31
649.627	1280.09
649.824	1340.34
650.021	1318.26
650.217	1307.02
650.414	1322.13
650.611	1332.98
650.808	1344.41
651.004	1378.9
651.201	1359.91
651.398	1397.31
651.595	1350.42
651.791	1346.35
651.988	1372.31
652.185	1296.75
652.381	1374.83
652.578	1310.89
652.775	1318.84
652.971	1347.12
653.168	1343.83
653.364	1399.63
653.561	1270.98
653.757	1302.18
653.954	1351.58
654.15	1316.51
654.347	1360.69
654.543	1328.72
654.74	1289
654.936	1268.85
655.133	1297.72
655.329	1284.54
655.525	1282.22
655.722	1301.21
655.918	1244.24
656.115	1271.56
656.311	1178.37
656.507	1105.91
656.704	1105.91
656.9	1124.12
657.096	1135.94
657.292	1117.92
657.489	1209.95
657.685	1218.67
657.881	1203.17
658.077	1215.18
658.273	1239.79
658.47	1288.03
658.666	1261.49
658.862	1268.85
659.058	1270.01
659.254	1304.5
659.45	1245.99
659.646	1282.22
659.842	1257.42
660.038	1312.64
660.234	1248.31
660.43	1273.31
660.626	1316.9
660.822	1341.7
661.018	1357.39
661.214	1302.95
661.41	1258.58
661.606	1338.21
661.802	1320.19
661.998	1295.78
662.194	1266.53
662.39	1296.56
662.586	1337.24
662.781	1331.24
662.977	1358.17
663.173	1333.17
663.369	1279.51
663.564	1291.33
663.76	1361.46
663.956	1271.76
664.152	1301.21
664.347	1210.73
664.543	1284.93
664.739	1249.09
664.934	1214.99
665.13	1253.35
665.326	1303.34
665.521	1271.18
665.717	1257.42
665.912	1237.27
666.108	1221.77
666.304	1256.45
666.499	1242.89
666.695	1185.15
666.89	1271.95
667.086	1320
667.281	1306.05
667.477	1359.33
667.672	1275.24
667.867	1264.39
668.063	1245.99
668.258	1213.05
668.454	1248.12
668.649	1328.14
668.844	1244.05
669.04	1269.82
669.235	1255.68
669.43	1255.09
669.626	1177.4
669.821	1220.41
670.016	1184.96
670.211	1187.28
670.407	1198.52
670.602	1245.02
670.797	1190.77
670.992	1280.67
671.187	1191.35
671.382	1293.26
671.578	1187.86
671.773	1249.28
671.968	1177.98
672.163	1206.27
672.358	1250.83
672.553	1206.66
672.748	1242.5
672.943	1271.56
673.138	1209.56
673.333	1217.31
673.528	1160.74
673.723	1239.59
673.918	1188.83
674.113	1172.36
674.308	1287.45
674.503	1225.64
674.698	1245.41
674.892	1188.64
675.087	1246.38
675.282	1213.83
675.477	1211.7
675.672	1255.87
675.867	1205.88
676.061	1126.06
676.256	1132.26
676.451	1177.6
676.646	1202.98
676.84	1125.48
677.035	1164.03
677.23	1160.16
677.424	1211.31
677.619	1227.39
677.814	1233.98
678.008	1239.59
678.203	1142.72
678.397	1147.18
678.592	1203.56
678.787	1232.04
678.981	1173.33
679.176	1176.63
679.37	1146.98
679.565	1148.15
679.759	1178.37
679.954	1155.9
680.148	1238.43
680.342	1256.84
680.537	1204.91
680.731	1159.96
680.926	1222.93
681.12	1193.87
681.314	1134.78
681.509	1147.37
681.703	1151.25
681.897	1180.31
682.092	1151.25
682.286	1168.49
682.48	1217.51
682.674	1180.5
682.869	1139.43
683.063	1171.01
683.257	1217.12
683.451	1122.57
683.645	1167.52
683.839	1144.08
684.034	1133.81
684.228	1196
684.422	1125.87
684.616	1131.1
684.81	1150.86
685.004	1113.66
685.198	1137.68
685.392	1158.22
685.586	1111.53
685.78	1125.87
685.974	1161.13
686.168	1134.97
686.362	1197.94
686.556	1084.6
686.75	1062.32
686.944	1038.87
687.138	1024.73
687.331	947.62
687.525	936.57
687.719	903.25
687.913	966.99
688.107	936.96
688.301	937.16
688.494	976.87
688.688	918.17
688.882	884.07
689.076	931.15
689.269	962.15
689.463	1022.02
689.657	966.99
689.85	924.56
690.044	969.9
690.238	957.5
690.431	955.17
690.625	947.62
690.818	1018.72
691.012	995.86
691.205	995.86
691.399	972.61
691.593	1007.68
691.786	1078.59
691.98	1064.45
692.173	1068.9
692.366	1036.74
692.56	1066.38
692.753	1091.57
692.947	1006.71
693.14	1075.1
693.333	1099.52
693.527	1019.5
693.72	1092.15
693.914	1070.65
694.107	1022.4
694.3	1079.17
694.493	1039.65
694.687	1062.7
694.88	1031.9
695.073	1145.63
695.266	1080.92
695.46	1065.61
695.653	1135.94
695.846	1080.33
696.039	1045.07
696.232	1039.45
696.425	1121.6
696.618	1126.64
696.812	1114.24
697.005	1194.65
697.198	1245.79
697.391	1151.25
697.584	1214.8
697.777	1230.1
697.97	1220.41
698.163	1205.88
698.356	1207.43
698.549	1298.11
698.742	1230.1
698.935	1221.19
699.127	1272.34
699.32	1203.95
699.513	1263.04
699.706	1243.66
699.899	1266.91
700.092	1259.74
700.285	1284.35
700.477	1245.21
700.67	1294.62
700.863	1325.23
701.056	1387.42
701.248	1339.57
701.441	1339.18
701.634	1345.77
701.826	1423.46
702.019	1329.11
702.212	1409.32
702.404	1365.72
702.597	1352.36
702.79	1327.56
702.982	1407.77
703.175	1432.18
703.367	1458.14
703.56	1463.18
703.752	1555.98
703.945	1537.77
704.137	1518.59
704.33	1542.62
704.522	1569.93
704.715	1565.28
704.907	1586.6
705.1	1619.34
705.292	1599.38
705.484	1597.45
705.677	1616.82
705.869	1652.28
706.061	1707.3
706.254	1766.39
706.446	1727.26
706.638	1697.42
706.831	1744.31
707.023	1747.79
707.215	1835.17
707.407	1794.68
707.599	1792.74
707.792	1871.4
707.984	1852.61
708.176	1882.45
708.368	1844.67
708.56	1904.92
708.752	1870.63
708.944	1862.3
709.136	1954.52
709.329	1887.1
709.521	2030.66
709.713	2012.45
709.905	2005.67
710.097	2066.9
710.289	2016.52
710.481	2015.94
710.672	2064.57
710.864	2082.4
711.056	2141.88
711.248	2110.1
711.44	2160.28
711.632	2115.14
711.824	2164.35
712.016	2206.78
712.207	2202.52
712.399	2255.61
712.591	2315.86
712.783	2290.29
712.975	2268.39
713.166	2301.72
713.358	2329.04
713.55	2406.34
713.741	2358.29
713.933	2369.92
714.125	2341.44
714.316	2339.3
714.508	2421.07
714.7	2450.51
714.891	2403.43
715.083	2492.56
715.274	2440.63
715.466	2505.93
715.657	2590.21
715.849	2457.3
716.04	2517.75
716.232	2470.08
716.423	2537.31
716.615	2470.66
716.806	2454
716.998	2379.6
717.189	2360.81
717.381	2275.75
717.572	2254.25
717.763	2308.89
717.955	2235.65
718.146	2238.17
718.337	2181.21
718.528	2210.85
718.72	2068.64
718.911	2192.44
719.102	2090.53
719.293	2178.11
719.485	2152.14
719.676	2136.64
719.867	2115.91
720.058	2123.28
720.249	2129.28
720.44	2184.11
720.632	2261.81
720.823	2287.38
721.014	2389.29
721.205	2454.58
721.396	2518.71
721.587	2631.28
721.778	2646.2
721.969	2698.32
722.16	2762.06
722.351	2744.24
722.542	2897.68
722.733	2900.59
722.924	2844.21
723.115	2908.34
723.305	2861.26
723.496	2882.18
723.687	2745.59
723.878	2802.94
724.069	2784.54
724.26	2808.17
724.45	2722.34
724.641	2749.85
724.832	2797.32
725.023	2771.55
725.213	2788.8
725.404	2758.96
725.595	2772.72
725.785	2729.9
725.976	2844.98
726.167	2869.01
726.357	2862.42
726.548	2951.74
726.739	2859.32
726.929	2956.2
727.12	3009.48
727.31	3015.48
727.501	3013.16
727.691	2938.56
727.882	3004.44
728.072	3025.17
728.263	3065.27
728.453	3108.48
728.644	3132.31
728.834	3070.51
729.024	3061.79
729.215	3081.94
729.405	3064.31
729.596	3163.31
729.786	3203.61
729.976	3296.22
730.167	3240.42
730.357	3242.55
730.547	3218.72
730.737	3257.28
730.928	3298.93
731.118	3371.78
731.308	3330.32
731.498	3353.57
731.688	3392.71
731.879	3456.64
732.069	3516.9
732.259	3524.84
732.449	3540.73
732.639	3670.35
732.829	3679.26
733.019	3700.18
733.209	3778.07
733.399	3734.48
733.589	3872.81
733.779	3892.58
733.969	3874.75
734.159	3947.79
734.349	3956.51
734.539	4071.4
734.729	4063.85
734.919	4084.19
735.109	4203.93
735.299	4026.26
735.488	4079.54
735.678	4092.52
735.868	4085.16
736.058	4106.09
736.248	4108.6
736.437	4058.04
736.627	4092.52
736.817	4183.58
737.007	4138.44
737.196	4184.94
737.386	4165.76
737.576	4119.84
737.765	4258.56
737.955	4232.21
738.144	4336.26
738.334	4273.68
738.524	4254.88
738.713	4236.48
738.903	4263.99
739.092	4325.6
739.282	4319.59
739.471	4325.02
739.661	4290.14
739.85	4377.91
740.04	4327.73
740.229	4398.06
740.419	4429.45
740.608	4404.46
740.797	4437.78
740.987	4453.47
741.176	4474.4
741.365	4413.17
741.555	4382.76
741.744	4497.84
741.933	4450.57
742.123	4508.89
742.312	4530.97
742.501	4514.12
742.69	4557.71
742.88	4432.16
743.069	4635.01
743.258	4534.46
743.447	4656.52
743.636	4598.01
743.825	4586.38
744.014	4586.38
744.204	4604.02
744.393	4546.86
744.582	4697.4
744.771	4672.99
744.96	4634.05
745.149	4688.49
745.338	4636.37
745.527	4690.23
745.716	4687.13
745.905	4606.15
746.094	4711.55
746.283	4705.73
746.471	4699.15
746.66	4742.35
746.849	4764.05
747.038	4778
747.227	4692.75
747.416	4741.58
747.604	4630.37
747.793	4674.73
747.982	4681.9
748.171	4752.04
748.359	4741.77
748.548	4730.73
748.737	4716.58
748.926	4700.89
749.114	4608.67
749.303	4686.55
749.491	4649.93
749.68	4593.94
749.869	4713.48
750.057	4668.73
750.246	4688.49
750.434	4662.91
750.623	4662.14
750.811	4657.3
751	4715.03
751.188	4652.26
751.377	4671.44
751.565	4622.62
751.754	4563.72
751.942	4595.3
752.131	4707.09
752.319	4588.9
752.507	4590.84
752.696	4680.74
752.884	4625.52
753.072	4601.11
753.261	4700.5
753.449	4623.2
753.637	4613.12
753.825	4731.11
754.014	4650.71
754.202	4620.48
754.39	4652.84
754.578	4679.77
754.766	4555.97
754.955	4527.49
755.143	4711.93
755.331	4619.32
755.519	4618.16
755.707	4604.6
755.895	4563.52
756.083	4580.18
756.271	4555.58
756.459	4561
756.647	4585.22
756.835	4516.44
757.023	4548.41
757.211	4506.56
757.399	4492.03
757.587	4513.34
757.775	4463.35
757.963	4480.02
758.151	4492.42
758.339	4420.73
758.526	4437.01
758.714	4483.12
758.902	4354.66
759.09	4289.56
759.278	4096.79
759.465	3852.47
759.653	3419.83
759.841	3148.59
760.028	2781.63
760.216	2462.72
760.404	2319.93
760.591	1997.53
760.779	1732.68
760.967	1586.98
761.154	1405.83
761.342	1411.06
761.529	1457.17
761.717	1527.12
761.905	1565.09
762.092	1669.91
762.28	1647.82
762.467	1684.24
762.655	1633.87
762.842	1652.47
763.029	1705.75
763.217	1713.5
763.404	1710.98
763.592	1751.28
763.779	1706.91
763.966	1780.34
764.154	1837.89
764.341	1892.33
764.528	1933.6
764.716	1973.12
764.903	2041.9
765.09	2117.66
765.277	2215.5
765.465	2363.52
765.652	2430.56
765.839	2501.86
766.026	2634.96
766.213	2699.87
766.4	2813.6
766.588	2973.63
766.775	2977.7
766.962	3103.64
767.149	3185.98
767.336	3374.3
767.523	3320.25
767.71	3425.45
767.897	3566.69
768.084	3655.82
768.271	3644.77
768.458	3733.12
768.645	3811.78
768.832	3745.72
769.019	3792.99
769.206	3842.2
769.392	3913.69
769.579	3930.55
769.766	3953.22
769.953	3939.46
770.14	3990.42
770.327	3918.15
770.513	3989.64
770.7	4062.69
770.887	3978.99
771.073	4009.79
771.26	4011.15
771.447	3969.88
771.634	3934.81
771.82	4074.7
772.007	3934.62
772.193	4009.21
772.38	4005.72
772.567	3982.28
772.753	3952.44
772.94	4069.85
773.126	4002.82
773.313	4034.98
773.499	4002.04
773.686	4033.62
773.872	3943.92
774.059	3948.18
774.245	3962.13
774.432	3979.18
774.618	3894.71
774.804	3941.98
774.991	3869.33
775.177	3941.79
775.363	3909.63
775.55	3980.34
775.736	3880.76
775.922	3918.93
776.109	3908.08
776.295	3872.43
776.481	3918.93
776.667	3905.75
776.853	3852.86
777.04	3869.13
777.226	3875.14
777.412	3953.02
777.598	3829.03
777.784	3886.18
777.97	3833.68
778.156	3891.41
778.342	3832.71
778.528	3818.56
778.715	3725.57
778.901	3749.98
779.087	3779.62
779.272	3780.01
779.458	3708.32
779.644	3733.12
779.83	3728.86
780.016	3842.59
780.202	3707.16
780.388	3776.91
780.574	3664.73
780.76	3653.88
780.946	3737
781.131	3685.85
781.317	3684.88
781.503	3632.76
781.689	3662.6
781.874	3778.07
782.06	3643.8
782.246	3682.17
782.432	3620.94
782.617	3679.84
782.803	3710.45
782.989	3578.51
783.174	3616.1
783.36	3538.99
783.545	3587.42
783.731	3611.64
783.916	3463.23
784.102	3587.04
784.288	3522.52
784.473	3571.34
784.659	3516.71
784.844	3622.69
785.029	3545.77
785.215	3526.59
785.4	3453.16
785.586	3589.17
785.771	3429.52
785.956	3527.75
786.142	3485.13
786.327	3445.99
786.512	3412.66
786.698	3452.77
786.883	3401.62
787.068	3402.2
787.254	3375.46
787.439	3404.91
787.624	3424.09
787.809	3359.96
787.994	3392.51
788.18	3469.82
788.365	3325.28
788.55	3330.71
788.735	3364.23
788.92	3321.21
789.105	3314.43
789.29	3349.89
789.475	3279.37
789.66	3286.53
789.845	3285.95
790.03	3247.98
790.215	3313.08
790.4	3325.09
790.585	3325.28
790.77	3271.23
790.955	3230.54
791.14	3221.05
791.325	3327.41
791.51	3141.03
791.695	3262.7
791.879	3222.6
792.064	3173
792.249	3284.21
792.434	3206.52
792.618	3215.04
792.803	3257.28
792.988	3201.48
793.173	3241.97
793.357	3249.33
793.542	3190.05
793.727	3222.21
793.911	3229.57
794.096	3205.94
794.281	3204.97
794.465	3301.26
794.65	3205.74
794.834	3280.33
795.019	3252.82
795.203	3253.98
795.388	3303.97
795.572	3310.17
795.757	3259.6
795.941	3268.52
796.126	3252.63
796.31	3185.59
796.494	3234.03
796.679	3228.6
796.863	3169.32
797.048	3327.61
797.232	3271.23
797.416	3292.54
797.601	3241.78
797.785	3333.81
797.969	3298.16
798.153	3234.61
798.338	3340.59
798.522	3359.38
798.706	3354.93
798.89	3292.54
799.074	3427.58
799.258	3370.04
799.443	3310.56
799.627	3299.32
799.811	3369.65
799.995	3284.02
800.179	3265.42
800.363	3275.3
800.547	3315.6
800.731	3292.35
800.915	3255.15
801.099	3259.22
801.283	3266.38
801.467	3256.31
801.651	3263.09
801.835	3364.23
802.019	3292.93
802.202	3307.27
802.386	3246.82
802.57	3199.74
802.754	3282.47
802.938	3217.56
803.121	3249.72
803.305	3285.37
803.489	3241
803.673	3292.73
803.856	3253.21
804.04	3264.64
804.224	3284.02
804.407	3241.39
804.591	3225.5
804.775	3225.12
804.958	3257.86
805.142	3378.56
805.326	3248.56
805.509	3326.45
805.693	3290.8
805.876	3269.68
806.06	3249.53
806.243	3315.6
806.427	3310.17
806.61	3366.94
806.794	3269.87
806.977	3303.78
807.16	3302.42
807.344	3277.43
807.527	3262.7
807.71	3241.97
807.894	3247.78
808.077	3254.37
808.26	3194.12
808.444	3207.68
808.627	3296.22
808.81	3199.74
808.993	3158.47
809.177	3138.12
809.36	3143.74
809.543	3182.3
809.726	3097.63
809.909	3111.58
810.092	3070.12
810.276	3094.72
810.459	3091.04
810.642	3069.15
810.825	3035.83
811.008	3049.58
811.191	2957.75
811.374	2988.36
811.557	2988.55
811.74	3070.31
811.923	2925.97
812.106	2909.31
812.289	2894.97
812.472	2912.41
812.654	2904.46
812.837	2853.9
813.02	2804.88
813.203	2817.67
813.386	2691.54
813.569	2683.4
813.751	2593.5
813.934	2632.83
814.117	2598.54
814.3	2578.78
814.482	2534.79
814.665	2459.43
814.848	2441.8
815.03	2394.91
815.213	2406.73
815.396	2349.77
815.578	2331.17
815.761	2265.68
815.943	2395.68
816.126	2250.96
816.309	2235.46
816.491	2167.06
816.674	2140.13
816.856	2147.69
817.039	2174.23
817.221	2222.09
817.403	2149.63
817.586	2179.27
817.768	2216.86
817.951	2111.46
818.133	2116.69
818.315	2097.7
818.498	2133.74
818.68	2224.02
818.862	2169.97
819.045	2213.17
819.227	2156.99
819.409	2157.96
819.591	2180.43
819.774	2194.57
819.956	2140.52
820.138	2239.52
820.32	2200
820.502	2247.66
820.684	2333.69
820.866	2321.09
821.048	2413.32
821.231	2375.73
821.413	2389.87
821.595	2361.58
821.777	2350.15
821.959	2350.15
822.141	2429.98
822.323	2307.14
822.505	2264.13
822.686	2141.49
822.868	2061.08
823.05	1982.23
823.232	1923.33
823.414	1851.25
823.596	1932.05
823.778	1944.25
823.96	1942.7
824.141	1970.8
824.323	1975.25
824.505	2093.25
824.687	2106.23
824.868	2175.39
825.05	2229.64
825.232	2323.03
825.413	2366.43
825.595	2318.38
825.777	2264.32
825.958	2292.42
826.14	2311.4
826.321	2318.19
826.503	2256.96
826.685	2317.22
826.866	2329.04
827.048	2293.97
827.229	2251.54
827.411	2223.83
827.592	2216.47
827.773	2155.44
827.955	2140.33
828.136	2116.69
828.318	2074.45
828.499	2113.39
828.68	2033.57
828.862	2094.41
829.043	2126.38
829.224	2090.53
829.406	2029.5
829.587	2070.19
829.768	2057.21
829.949	2106.61
830.131	2081.81
830.312	2153.5
830.493	2078.91
830.674	2103.9
830.855	2043.45
831.036	2070
831.218	2130.44
831.399	2132.77
831.58	2083.75
831.761	2069.03
831.942	2113.39
832.123	2075.81
832.304	2022.53
832.485	1989.01
832.666	2051.78
832.847	2036.28
833.028	2037.06
833.209	2061.66
833.389	2017.68
833.57	1976.42
833.751	2021.36
833.932	2107.39
834.113	2053.91
834.294	2023.5
834.475	2092.47
834.655	2076.39
834.836	2087.24
835.017	2119.4
835.198	1999.86
835.378	2080.07
835.559	2115.33
835.74	2040.55
835.92	2060.5
836.101	2057.98
836.281	2069.03
836.462	2088.79
836.643	2132.58
836.823	2110.29
837.004	2088.79
837.184	2176.94
837.365	2120.18
837.545	2123.08
837.726	2086.08
837.906	2140.91
838.087	2091.89
838.267	2098.28
838.448	2071.93
838.628	2084.53
838.808	2097.51
838.989	2137.42
839.169	2074.65
839.349	2089.37
839.53	2155.24
839.71	2096.15
839.89	2090.15
840.07	2130.25
840.251	2066.51
840.431	2119.79
840.611	2080.85
840.791	2052.17
840.971	2089.95
841.151	2092.47
841.332	2030.08
841.512	2107.19
841.692	1997.92
841.872	2093.63
842.052	2084.33
842.232	2110.68
842.412	2019.43
842.592	2050.81
842.772	2064.76
842.952	2081.81
843.132	2029.7
843.312	2050.81
843.492	2008.97
843.672	2032.02
843.851	1953.55
844.031	2011.48
844.211	2012.65
844.391	2004.9
844.571	2035.9
844.751	2061.28
844.93	2020.2
845.11	1985.72
845.29	2005.48
845.47	2001.41
845.649	2004.7
845.829	2018.26
846.009	1949.68
846.188	2003.54
846.368	2009.16
846.547	2021.95
846.727	2023.88
846.907	1954.72
847.086	1998.31
847.266	2022.53
847.445	1958.59
847.625	1933.79
847.804	1943.09
847.984	1963.05
848.163	1945.8
848.343	1905.31
848.522	1940.38
848.701	1973.51
848.881	1923.13
849.06	1924.68
849.239	1937.28
849.419	1919.65
849.598	1835.75
849.777	1838.47
849.957	1822.77
850.136	1770.27
850.315	1782.09
850.494	1766.59
850.674	1800.3
850.853	1828.59
851.032	1811.73
851.211	1849.12
851.39	1834.98
851.569	1760
851.748	1742.76
851.927	1841.37
852.107	1815.99
852.286	1773.95
852.465	1710.01
852.644	1829.36
852.823	1785.77
853.002	1803.4
853.181	1761.16
853.359	1791.58
853.538	1746.44
853.717	1774.53
853.896	1688.51
854.075	1621.47
854.254	1597.25
854.433	1511.03
854.611	1543
854.79	1488.95
854.969	1564.32
855.148	1589.31
855.327	1549.98
855.505	1624.76
855.684	1603.84
855.863	1619.73
856.041	1591.05
856.22	1663.51
856.399	1627.67
856.577	1758.84
856.756	1702.26
856.934	1796.62
857.113	1791.97
857.291	1716.02
857.47	1673.39
857.648	1702.65
857.827	1701.29
858.005	1771.62
858.184	1683.66
858.362	1768.72
858.541	1688.7
858.719	1682.5
858.898	1689.86
859.076	1682.89
859.254	1745.66
859.433	1691.61
859.611	1671.65
859.789	1658.67
859.967	1724.16
860.146	1740.04
860.324	1633.68
860.502	1664.48
860.68	1631.55
860.859	1648.21
861.037	1646.08
861.215	1652.66
861.393	1662.54
861.571	1660.03
861.749	1604.03
861.927	1650.73
862.105	1652.47
862.283	1632.71
862.461	1606.36
862.639	1611.4
862.817	1608.1
862.995	1635.42
863.173	1592.8
863.351	1646.46
863.529	1664.48
863.707	1641.81
863.885	1640.07
864.063	1520.14
864.241	1534.87
864.418	1650.53
864.596	1553.66
864.774	1520.92
864.952	1551.53
865.129	1571.29
865.307	1555.21
865.485	1496.31
865.663	1565.09
865.84	1468.22
866.018	1513.94
866.196	1346.35
866.373	1393.43
866.551	1320
866.728	1285.71
866.906	1324.65
867.084	1348.29
867.261	1361.07
867.439	1429.66
867.616	1472.09
867.794	1410.87
867.971	1431.02
868.149	1456.4
868.326	1512.58
868.503	1486.04
868.681	1464.15
868.858	1439.54
869.035	1398.47
869.213	1467.44
869.39	1473.25
869.567	1499.02
869.745	1422.1
869.922	1426.37
870.099	1463.18
870.276	1499.8
870.454	1495.73
870.631	1483.72
870.808	1429.08
870.985	1477.32
871.162	1515.88
871.339	1462.99
871.517	1408.93
871.694	1395.37
871.871	1405.44
872.048	1409.7
872.225	1389.94
872.402	1426.56
872.579	1391.3
872.756	1393.04
872.933	1380.84
873.11	1387.62
873.287	1399.44
873.463	1368.63
873.64	1369.99
873.817	1414.55
873.994	1397.69
874.171	1341.12
874.348	1389.36
874.524	1319.22
874.701	1350.81
874.878	1320.58
875.055	1356.04
875.231	1327.17
875.408	1360.88
875.585	1277.38
875.762	1338.02
875.938	1324.26
876.115	1297.91
876.291	1306.24
876.468	1306.24
876.645	1275.44
876.821	1318.84
876.998	1315.93
877.174	1320.58
877.351	1308.18
877.527	1277.96
877.704	1282.41
877.88	1303.73
878.057	1237.66
878.233	1323.87
878.409	1308.57
878.586	1280.09
878.762	1258.97
878.938	1266.53
879.115	1232.81
879.291	1246.38
879.467	1210.73
879.644	1248.7
879.82	1269.04
879.996	1243.28
880.172	1203.36
880.349	1261.68
880.525	1288.23
880.701	1184.57
880.877	1207.24
881.053	1219.83
881.229	1219.06
881.405	1267.3
881.581	1186.12
881.757	1251.22
881.933	1244.44
882.109	1273.11
882.285	1235.33
882.461	1181.47
882.637	1235.33
882.813	1171.78
882.989	1197.55
883.165	1272.14
883.341	1190.96
883.517	1255.68
883.693	1222.93
883.869	1235.14
884.044	1197.55
884.22	1256.06
884.396	1259.94
884.572	1220.61
884.747	1241.53
884.923	1200.85
885.099	1259.16
885.275	1290.94
885.45	1211.11
885.626	1195.61
885.801	1189.41
885.977	1228.74
886.153	1176.63
886.328	1209.76
886.504	1192.32
886.679	1215.38
886.855	1162.87
887.03	1217.7
887.206	1239.98
887.381	1256.06
887.557	1223.9
887.732	1239.79
887.908	1235.14
888.083	1204.33
888.258	1210.34
888.434	1169.46
888.609	1198.52
888.784	1276.41
888.96	1219.45
889.135	1190.38
889.31	1189.22
889.485	1213.83
889.661	1207.63
889.836	1255.09
890.011	1221.58
890.186	1211.7
890.361	1177.4
890.537	1227
890.712	1216.93
890.887	1238.04
891.062	1238.04
891.237	1252.77
891.412	1164.61
891.587	1226.81
891.762	1228.55
891.937	1214.41
892.112	1206.85
892.287	1172.95
892.462	1141.36
892.637	1111.33
892.812	1113.08
892.987	1125.09
893.161	1142.53
893.336	1121.02
893.511	1111.72
893.686	1148.73
893.861	1095.25
894.035	1109.01
894.21	1150.86
894.385	1084.79
894.56	1098.55
894.734	1040.81
894.909	1020.66
895.084	1055.53
895.258	1059.02
895.433	1024.34
895.608	1029.96
895.782	967.19
895.957	991.6
896.131	1004.39
896.306	909.84
896.48	927.27
896.655	934.25
896.829	843.77
897.004	840.48
897.178	875.74
897.353	851.33
897.527	883.29
897.701	864.5
897.876	830.98
898.05	929.99
898.224	904.61
898.399	936.77
898.573	889.11
898.747	768.4
898.921	818.58
899.096	703.88
899.27	728.88
899.444	738.76
899.618	739.53
899.792	785.84
899.967	764.72
900.141	807.34
900.315	750
900.489	760.85
900.663	782.35
900.837	763.56
901.011	702.33
901.185	853.65
901.359	766.08
901.533	781
901.707	757.94
901.881	790.88
902.055	725.78
902.229	739.92
902.403	847.45
902.576	771.89
902.75	793.39
902.924	877.87
903.098	825.94
903.272	871.28
903.446	901.51
903.619	876.71
903.793	922.04
903.967	899.18
904.14	946.65
904.314	951.88
904.488	911
904.661	934.06
904.835	905.38
905.009	960.41
905.182	994.31
905.356	959.24
905.529	929.41
905.703	898.02
905.876	889.3
906.05	875.35
906.223	856.94
906.397	781.38
906.57	779.83
906.744	782.35
906.917	765.3
907.09	781.38
907.264	774.02
907.437	706.98
907.61	704.27
907.784	705.82
907.957	732.36
908.13	689.55
908.304	740.11
908.477	675.4
908.65	680.63
908.823	683.15
908.996	763.36
909.17	672.11
909.343	677.92
909.516	734.69
909.689	667.65
909.862	649.05
910.035	659.32
910.208	615.73
910.381	652.54
910.554	762.98
910.727	691.29
910.9	679.47
911.073	652.54
911.246	719.19
911.419	753.87
911.592	690.71
911.765	657.19
911.938	666.3
912.11	692.45
912.283	646.15
912.456	730.62
912.629	693.42
912.802	639.95
912.974	603.52
913.147	580.08
913.32	522.54
913.493	557.22
913.665	592.09
913.838	608.37
914.01	585.7
914.183	586.47
914.356	579.3
914.528	657
914.701	661.07
914.873	639.17
915.046	601.97
915.218	555.09
915.391	507.62
915.563	512.85
915.736	582.6
915.908	582.02
916.081	596.74
916.253	588.8
916.425	620.77
916.598	626
916.77	595
916.942	554.89
917.115	503.16
917.287	590.54
917.459	553.54
917.632	526.99
917.804	479.72
917.976	539
918.148	538.42
918.32	551.21
918.493	612.63
918.665	618.44
918.837	565.94
919.009	662.23
919.181	655.64
919.353	628.71
919.525	589.96
919.697	608.17
919.869	563.03
920.041	644.6
920.213	714.73
920.385	628.9
920.557	605.85
920.729	624.06
920.901	646.53
921.073	590.54
921.244	598.68
921.416	625.03
921.588	587.64
921.76	586.67
921.932	666.49
922.103	566.9
922.275	574.85
922.447	585.89
922.619	517.5
922.79	579.89
922.962	578.34
923.134	609.72
923.305	532.03
923.477	524.28
923.648	517.31
923.82	574.46
923.991	501.22
924.163	494.25
924.335	529.12
924.506	499.67
924.677	553.34
924.849	507.62
925.02	501.42
925.192	562.64
925.363	531.64
925.535	526.02
925.706	497.35
925.877	565.35
926.049	461.51
926.22	521.76
926.391	512.66
926.562	555.09
926.734	487.86
926.905	530.67
927.076	483.59
927.247	486.31
927.419	444.07
927.59	458.79
927.761	456.47
927.932	437.87
928.103	460.54
928.274	395.44
928.445	401.44
928.616	416.56
928.787	388.27
928.958	441.94
929.129	378.39
929.3	376.26
929.471	345.26
929.642	286.94
929.813	241.8
929.984	360.18
930.155	257.88
930.326	315.03
930.496	283.65
930.667	219.71
930.838	267.37
931.009	231.14
931.18	220.87
931.35	265.63
931.521	246.25
931.692	192
931.863	149.96
932.033	181.73
932.204	197.04
932.374	191.81
932.545	147.25
932.716	194.13
932.886	182.9
933.057	114.12
933.227	134.85
933.398	179.6
933.568	99.39
933.739	107.34
933.909	85.44
934.08	142.4
934.25	42.62
934.421	75.95
934.591	110.63
934.761	99.59
934.932	84.67
935.102	97.26
935.272	89.32
935.443	74.79
935.613	91.06
935.783	123.22
935.953	52.12
936.123	246.64
936.294	69.17
936.464	97.65
936.634	109.08
936.804	56.57
936.974	36.23
937.144	112.37
937.314	92.03
937.484	50.57
937.655	63.36
937.825	124.19
937.995	76.53
938.165	132.14
938.334	76.92
938.504	119.15
938.674	94.94
938.844	116.64
939.014	196.46
939.184	196.07
939.354	181.15
939.524	197.23
939.694	137.17
939.863	172.82
940.033	226.3
940.203	194.13
940.373	194.33
940.542	186
940.712	160.81
940.882	179.8
941.051	199.95
941.221	178.44
941.391	179.8
941.56	171.47
941.73	114.89
941.899	271.63
942.069	166.43
942.238	186.97
942.408	134.65
942.577	167.79
942.747	125.94
942.916	113.73
943.086	112.37
943.255	162.17
943.425	167.59
943.594	115.86
943.763	70.72
943.933	82.73
944.102	42.24
944.271	85.06
944.441	133.49
944.61	77.5
944.779	105.59
944.948	213.12
945.117	80.41
945.287	123.61
945.456	53.28
945.625	100.17
945.794	136.98
945.963	87.38
946.132	146.09
946.301	106.17
946.47	150.35
946.639	81.96
946.808	90.87
946.977	159.26
947.146	174.57
947.315	95.52
947.484	136.98
947.653	111.79
947.822	101.33
947.991	88.15
948.16	209.05
948.329	159.45
948.498	147.83
948.666	112.37
948.835	137.95
949.004	81.37
949.173	51.92
949.341	136.2
949.51	120.12
949.679	157.52
949.847	144.15
950.016	199.95
950.185	172.82
950.353	123.22
950.522	129.04
950.69	181.54
950.859	104.82
951.028	169.14
951.196	100.36
951.365	106.75
951.533	106.37
951.701	138.92
951.87	155.19
952.038	83.12
952.207	109.85
952.375	164.3
952.543	93.39
952.712	106.56
952.88	84.67
953.048	159.65
953.217	136.2
953.385	86.8
953.553	167.4
953.721	78.86
953.89	120.51
954.058	76.92
954.226	91.64
954.394	129.04
954.562	65.87
954.73	97.26
954.898	77.11
955.067	141.24
955.235	74.21
955.403	141.05
955.571	204.79
955.739	136.2
955.907	97.84
956.075	109.66
956.243	74.79
956.41	125.55
956.578	55.8
956.746	70.72
956.914	87.19
957.082	119.74
957.25	126.9
957.418	94.74
957.585	119.93
957.753	167.01
957.921	89.32
958.089	113.34
958.256	121.29
958.424	141.44
958.592	125.35
958.759	65.1
958.927	151.9
959.095	82.73
959.262	106.37
959.43	112.57
959.597	80.21
959.765	108.5
959.932	84.86
960.1	159.26
960.267	133.1
960.435	136.79
960.602	138.14
960.77	89.7
960.937	81.18
961.104	116.64
961.272	73.62
961.439	86.41
961.606	148.22
961.774	146.67
961.941	86.22
962.108	134.07
962.275	96.29
962.443	139.3
962.61	131.55
962.777	190.07
962.944	159.26
963.111	116.25
963.278	135.24
963.446	121.29
963.613	106.56
963.78	161.39
963.947	149.19
964.114	126.13
964.281	171.27
964.448	148.99
964.615	91.84
964.782	122.06
964.949	136.01
965.116	149.19
965.282	170.5
965.449	108.89
965.616	62.77
965.783	163.91
965.95	155.58
966.117	88.54
966.283	133.3
966.45	126.9
966.617	139.11
966.784	159.26
966.95	194.52
967.117	160.62
967.284	117.99
967.45	135.24
967.617	178.83
967.784	169.72
967.95	173.21
968.117	140.66
968.283	181.35
968.45	245.48
968.616	148.02
968.783	172.24
968.949	172.24
969.116	184.64
969.282	146.67
969.449	145.89
969.615	150.35
969.781	102.69
969.948	124.58
970.114	138.53
970.28	182.12
970.447	158.29
970.613	190.65
970.779	148.41
970.945	164.3
971.112	131.55
971.278	144.73
971.444	132.91
971.61	184.25
971.776	136.4
971.942	163.72
972.108	166.62
972.275	138.92
972.441	167.01
972.607	207.12
972.773	127.49
972.939	148.22
973.105	135.82
973.271	79.44
973.437	134.07
973.602	104.04
973.768	154.61
973.934	117.99
974.1	162.17
974.266	47.27
974.432	155.19
974.598	109.66
974.763	157.71
974.929	103.85
975.095	185.42
975.261	109.47
975.426	103.07
975.592	138.72
975.758	203.82
975.923	82.15
976.089	102.3
976.255	141.44
976.42	159.26
976.586	130.59
976.751	152.09
976.917	209.44
977.082	160.04
977.248	89.32
977.413	74.21
977.579	129.81
977.744	142.02
977.91	100.55
978.075	97.07
978.24	139.89
978.406	89.7
978.571	91.84
978.736	98.04
978.902	144.15
979.067	73.43
979.232	83.7
979.397	99.2
979.563	154.42
979.728	70.33
979.893	126.13
980.058	109.85
980.223	136.98
980.388	153.84
980.554	131.36
980.719	90.09
980.884	134.65
981.049	169.53
981.214	95.13
981.379	137.75
981.544	83.51
981.709	113.15
981.874	99.59
982.039	129.23
982.204	159.26
982.368	115.67
982.533	117.8
982.698	124.39
982.863	159.07
983.028	108.69
983.193	126.52
983.357	137.95
983.522	108.5
983.687	104.43
983.852	85.44
984.016	112.76
984.181	100.75
984.346	128.84
984.51	123.61
984.675	115.09
984.839	139.3
985.004	118.77
985.168	159.45
985.333	122.06
985.498	79.82
985.662	148.22
985.827	138.92
985.991	115.09
986.155	92.61
986.32	156.35
986.484	149.38
986.649	124.77
986.813	69.36
986.977	119.74
987.142	126.71
987.306	96.29
987.47	80.6
987.634	105.59
987.799	114.7
987.963	121.48
988.127	141.24
988.291	176.5
988.455	117.6
988.62	94.16
988.784	125.55
988.948	125.16
989.112	68.97
989.276	123.03
989.44	103.07
989.604	103.27
989.768	83.7
989.932	209.83
990.096	73.62
990.26	89.7
990.424	79.82
990.588	88.74
990.752	172.63
990.915	126.71
991.079	109.47
991.243	88.35
991.407	117.41
991.571	100.36
991.734	124.19
991.898	134.07
992.062	183.09
992.226	87.57
992.389	87.57
992.553	72.85
992.717	93.58
992.88	81.76
993.044	97.45
993.207	95.71
993.371	119.74
993.535	101.91
993.698	118.19
993.862	127.49
994.025	132.91
994.189	89.7
994.352	114.89
994.515	99.39
994.679	128.65
994.842	70.14
995.006	129.23
995.169	91.84
995.332	76.34
995.496	126.13
995.659	30.61
995.822	88.35
995.985	90.09
996.149	141.44
996.312	93.39
996.475	149.38
996.638	78.66
996.801	130.2
996.964	144.73
997.128	82.54
997.291	83.12
997.454	97.07
997.617	42.82
997.78	139.11
997.943	73.62
998.106	125.94
998.269	80.99
998.432	65.87
998.595	55.61
998.758	38.17
998.92	49.79
999.083	27.32
999.246	97.84
999.409	40.49
999.572	20.34
999.735	60.64
999.897	78.47
1000.06	80.79
1000.223	85.44
1000.386	118.77
1000.548	90.09
1000.711	100.94
1000.874	82.15
1001.036	47.86
1001.199	89.51
1001.361	36.04
1001.524	94.94
1001.687	101.52
1001.849	59.48
1002.012	80.41
1002.174	72.07
1002.337	92.22
1002.499	91.84
1002.661	114.12
1002.824	27.32
1002.986	28.87
1003.149	49.79
1003.311	40.49
1003.473	106.37
1003.636	55.61
1003.798	90.09
1003.96	90.48
1004.123	49.41
1004.285	48.63
1004.447	67.42
1004.609	86.22
1004.771	133.69
1004.933	36.23
1005.096	51.54
1005.258	30.42
1005.42	60.45
1005.582	102.3
1005.744	84.28
1005.906	29.45
1006.068	37.2
1006.23	37.59
1006.392	29.06
1006.554	7.75
1006.716	90.09
1006.878	95.13
1007.04	44.76
1007.202	61.42
1007.363	71.49
1007.525	78.47
1007.687	85.83
1007.849	109.08
1008.011	10.46
1008.172	24.22
1008.334	58.9
1008.496	59.67
1008.658	-8.91
1008.819	24.41
1008.981	14.72
1009.143	26.16
1009.304	64.91
1009.466	84.67
1009.627	89.32
1009.789	154.22
1009.95	75.37
1010.112	20.34
1010.273	63.94
1010.435	47.66
1010.596	67.04
1010.758	41.27
1010.919	16.47
1011.081	33.52
1011.242	40.88
1011.403	104.04
1011.565	27.51
1011.726	69.94
1011.887	2.32
1012.049	41.66
1012.21	88.74
1012.371	95.9
1012.532	-22.67
1012.693	60.06
1012.855	15.5
1013.016	31
1013.177	72.27
1013.338	40.3
1013.499	102.1
1013.66	65.29
1013.821	78.86
1013.982	51.15
1014.143	24.41
1014.304	9.3
1014.465	53.86
1014.626	67.04
1014.787	43.98
1014.948	102.49
1015.109	-16.66
1015.27	87.77
1015.431	43.4
1015.592	34.1
1015.752	86.41
1015.913	52.31
1016.074	58.32
1016.235	68.78
1016.395	30.61
1016.556	32.16
1016.717	26.35
1016.877	76.53
1017.038	13.95
1017.199	50.57
1017.359	48.44
1017.52	17.82
1017.681	21.7
1017.841	49.21
1018.002	27.71
1018.162	28.87
1018.323	105.79
1018.483	54.25
1018.644	27.71
1018.804	-14.92
1018.964	-29.84
1019.125	11.82
1019.285	39.14
1019.446	13.37
1019.606	1.55
1019.766	-41.46
1019.926	56.38
1020.087	53.86
1020.247	12.79
1020.407	39.52
1020.567	70.72
1020.728	38.75
1020.888	6.2
1021.048	3.29
1021.208	22.47
1021.368	-0.58
1021.528	81.37
1021.688	53.86
1021.848	54.83
1022.008	35.65
1022.168	-2.13
1022.328	33.71
1022.488	37.39
1022.648	24.22
1022.808	33.71
1022.968	47.27
1023.128	-1.16
1023.288	16.47
1023.448	1.36
1023.608	49.79
1023.767	59.87
1023.927	-0.77
1024.087	-20.92
1024.247	10.27
1024.406	30.03
1024.566	-31.58
1024.726	-16.86
1024.885	12.79
1025.045	48.05
1025.205	14.92
1025.364	20.73
1025.524	16.47
1025.683	36.42
1025.843	37.97
1026.003	36.81
1026.162	58.32
1026.321	47.08
1026.481	40.3
1026.64	0.77
1026.8	15.5
1026.959	27.51
1027.119	27.12
1027.278	6.01
1027.437	12.79
1027.597	58.9
1027.756	29.26
1027.915	14.72
1028.074	38.75
1028.234	27.32
1028.393	15.5
1028.552	5.81
1028.711	-55.61
1028.87	46.11
1029.03	-18.6
1029.189	1.94
1029.348	-41.07
1029.507	-2.71
1029.666	8.14
1029.825	5.04
1029.984	14.92
1030.143	16.27
1030.302	-5.04
1030.461	-21.51
1030.62	31.19
1030.779	51.92
1030.938	-30.03
1031.097	-15.31
1031.255	43.98
1031.414	60.64
1031.573	65.29
1031.732	-19.57
1031.891	9.49
1032.049	52.51
1032.208	65.68
1032.367	-10.66
1032.525	16.86
1032.684	-6.97
1032.843	17.24
1033.001	-24.61
1033.16	169.53
1033.319	70.72
1033.477	20.15
1033.636	-29.64
1033.794	-20.34
1033.953	31.58
1034.111	36.42
1034.27	6.01
1034.428	31.97
1034.587	-25.38
1034.745	49.21
1034.903	26.93
1035.062	17.24
1035.22	-17.63
1035.378	24.99
1035.537	0.97
1035.695	52.51
1035.853	-11.82
1036.011	40.11
1036.17	53.47
1036.328	-50.18
1036.486	48.24
1036.644	32.94
1036.802	-45.14
1036.96	5.04
1037.119	0.58
1037.277	-24.99
1037.435	-25.19
1037.593	-27.9
1037.751	9.88
1037.909	24.61
1038.067	24.61
