Data from gum_old_FLMT105791__190__15-48-17-249.txt Node

Date: Mon Mar 20 15:48:17 GMT 2023
User: antho
Spectrometer: FLMT10579
Trigger mode: 0
Integration Time (sec): 1.000000E-1
Scans to average: 10
Electric dark correction enabled: true
Nonlinearity correction enabled: false
Boxcar width: 0
XAxis mode: Wavelengths
Number of Pixels in Spectrum: 3648
>>>>>Begin Spectral Data<<<<<
345.248	-194.78
345.464	-194.78
345.681	-194.78
345.898	-202.92
346.114	-194.01
346.331	-13.05
346.548	24.74
346.764	-11.11
346.981	-8.2
347.197	-3.36
347.414	11.37
347.631	-31.84
347.847	62.13
348.064	-13.82
348.28	32.48
348.497	-64.58
348.713	15.24
348.93	24.15
349.146	21.05
349.363	13.11
349.579	53.6
349.796	3.04
350.012	4.78
350.229	54.57
350.445	21.25
350.661	0.13
350.878	20.86
351.094	39.46
351.311	21.83
351.527	40.23
351.743	-18.08
351.96	53.6
352.176	60
352.392	45.66
352.609	85.57
352.825	18.54
353.041	14.27
353.257	32.87
353.474	16.21
353.69	38.49
353.906	52.25
354.122	15.24
354.339	74.72
354.555	16.79
354.771	14.85
354.987	84.99
355.203	75.5
355.42	25.12
355.636	43.72
355.852	1.87
356.068	35.58
356.284	-27.96
356.5	95.45
356.716	63.1
356.932	29.38
357.148	70.65
357.364	24.93
357.58	84.02
357.796	72.78
358.012	58.06
358.228	56.51
358.444	-22.73
358.66	58.83
358.876	34.62
359.092	-17.31
359.308	59.42
359.524	18.54
359.74	22.22
359.956	25.32
360.172	53.99
360.388	68.33
360.604	29
360.819	138.66
361.035	49.15
361.251	92.35
361.467	28.61
361.683	97.97
361.898	54.96
362.114	76.85
362.33	52.63
362.546	81.12
362.762	51.67
362.977	59.61
363.193	18.34
363.409	96.03
363.624	13.3
363.84	11.95
364.056	22.22
364.271	54.38
364.487	62.71
364.703	11.95
364.918	-13.05
365.134	34.42
365.35	33.84
365.565	171.79
365.781	56.7
365.996	81.89
366.212	120.45
366.427	47.21
366.643	44.3
366.858	31.13
367.074	19.7
367.289	115.22
367.505	150.67
367.72	10.4
367.936	42.17
368.151	96.23
368.367	100.88
368.582	93.13
368.798	24.15
369.013	109.6
369.228	61.55
369.444	70.27
369.659	138.27
369.874	69.68
370.09	147.38
370.305	-0.45
370.52	19.5
370.736	97.97
370.951	57.09
371.166	121.8
371.381	116.18
371.597	99.33
371.812	40.23
372.027	45.27
372.242	58.64
372.458	144.47
372.673	28.8
372.888	72.59
373.103	80.34
373.318	145.44
373.533	96.42
373.749	83.44
373.964	9.43
374.179	84.8
374.394	28.22
374.609	108.05
374.824	36.36
375.039	107.66
375.254	31.52
375.469	130.33
375.684	76.08
375.899	112.7
376.114	78.21
376.329	54.18
376.544	97
376.759	103.01
376.974	48.76
377.189	63.1
377.404	67.94
377.619	111.15
377.834	19.5
378.049	24.35
378.264	16.79
378.478	82.08
378.693	70.46
378.908	123.55
379.123	49.73
379.338	143.11
379.553	98.75
379.767	85.96
379.982	114.83
380.197	92.74
380.412	70.27
380.626	101.65
380.841	149.7
381.056	103.98
381.271	143.5
381.485	46.82
381.7	45.66
381.915	106.69
382.129	63.68
382.344	90.22
382.559	53.22
382.773	107.08
382.988	-3.36
383.202	83.83
383.417	33.26
383.632	155.9
383.846	60.19
384.061	81.12
384.275	56.9
384.49	72.98
384.704	120.06
384.919	118.31
385.133	91.58
385.348	106.5
385.562	92.55
385.777	132.46
385.991	65.81
386.206	97
386.42	77.63
386.634	124.71
386.849	127.23
387.063	100.3
387.277	60.38
387.492	59.61
387.706	73.75
387.92	70.46
388.135	123.74
388.349	139.43
388.563	101.85
388.778	91.97
388.992	115.99
389.206	124.32
389.42	198.53
389.635	95.07
389.849	144.86
390.063	159.97
390.277	134.98
390.491	203.18
390.706	159.97
390.92	165.59
391.134	146.6
391.348	154.93
391.562	83.63
391.776	124.51
391.99	113.86
392.205	171.4
392.419	95.07
392.633	117.35
392.847	173.34
393.061	95.45
393.275	159.2
393.489	106.11
393.703	82.67
393.917	125.48
394.131	76.27
394.345	114.25
394.559	137.11
394.773	98.55
394.986	161.91
395.2	142.73
395.414	170.05
395.628	99.52
395.842	173.92
396.056	161.13
396.27	105.53
396.484	151.45
396.697	147.96
396.911	173.73
397.125	135.56
397.339	139.82
397.553	117.73
397.766	178.96
397.98	180.51
398.194	170.24
398.408	149.51
398.621	212.67
398.835	240.18
399.049	203.56
399.262	240.96
399.476	207.44
399.69	252.97
399.903	288.04
400.117	180.7
400.331	258.78
400.544	215.19
400.758	335.12
400.971	207.83
401.185	275.83
401.398	175.08
401.612	255.29
401.826	260.72
402.039	281.64
402.253	233.79
402.466	286.68
402.68	236.69
402.893	260.14
403.106	240.57
403.32	242.51
403.533	252.39
403.747	217.51
403.96	257.23
404.174	257.43
404.387	189.61
404.6	247.35
404.814	310.32
405.027	260.72
405.24	230.88
405.454	246.58
405.667	275.25
405.88	194.26
406.094	269.24
406.307	267.89
406.52	287.46
406.733	217.71
406.947	198.53
407.16	318.46
407.373	314.19
407.586	232.82
407.799	232.04
408.012	306.44
408.226	268.47
408.439	299.66
408.652	244.83
408.865	294.43
409.078	344.42
409.291	299.66
409.504	241.93
409.717	330.66
409.93	296.56
410.143	297.34
410.357	236.11
410.57	216.74
410.783	246.96
410.996	289.01
411.209	278.35
411.421	367.67
411.634	313.03
411.847	261.11
412.06	314.97
412.273	315.55
412.486	316.91
412.699	398.67
412.912	323.49
413.125	343.84
413.338	315.36
413.55	354.88
413.763	295.4
413.976	352.36
414.189	290.75
414.402	301.99
414.615	366.12
414.827	307.99
415.04	345.19
415.253	346.36
415.466	354.88
415.678	390.34
415.891	350.62
416.104	327.56
416.316	320.01
416.529	310.9
416.742	383.94
416.954	376
417.167	364.57
417.38	349.07
417.592	347.71
417.805	306.25
418.017	315.74
418.23	366.89
418.442	282.03
418.655	321.36
418.868	327.95
419.08	390.92
419.293	391.89
419.505	364.37
419.718	365.92
419.93	389.75
420.142	351.39
420.355	384.14
420.567	373.87
420.78	374.45
420.992	343.45
421.205	433.35
421.417	330.66
421.629	330.66
421.842	344.61
422.054	315.74
422.266	405.64
422.479	418.24
422.691	352.17
422.903	390.72
423.115	340.35
423.328	349.65
423.54	377.55
423.752	363.79
423.964	357.21
424.177	382.78
424.389	377.94
424.601	498.45
424.813	409.71
425.025	442.07
425.238	427.73
425.45	402.35
425.662	389.75
425.874	702.27
426.086	384.72
426.298	416.1
426.51	410.29
426.722	398.86
426.934	401.57
427.146	447.49
427.358	333.18
427.57	455.82
427.782	380.84
427.994	401.96
428.206	358.37
428.418	384.52
428.63	443.04
428.842	449.24
429.054	433.35
429.266	445.75
429.478	392.66
429.69	389.17
429.902	344.61
430.114	407.97
430.325	387.43
430.537	314.39
430.749	348.1
430.961	275.06
431.173	334.15
431.384	348.87
431.596	308.96
431.808	364.57
432.02	418.62
432.231	458.73
432.443	540.1
432.655	475.2
432.867	432.96
433.078	460.47
433.29	528.09
433.502	517.43
433.713	508.33
433.925	504.45
434.136	543.59
434.348	440.52
434.56	404.87
434.771	535.26
434.983	396.15
435.194	450.98
435.406	467.45
435.617	524.99
435.829	585.83
436.04	543.2
436.252	523.25
436.463	579.43
436.675	562.58
436.886	566.65
437.098	547.85
437.309	617.21
437.521	546.11
437.732	549.21
437.943	526.35
438.155	540.1
438.366	488.37
438.578	632.33
438.789	515.88
439	529.64
439.211	513.37
439.423	516.27
439.634	551.15
439.845	557.54
440.057	546.69
440.268	625.55
440.479	539.33
440.69	592.22
440.902	572.07
441.113	567.81
441.324	531.58
441.535	608.69
441.746	648.79
441.957	587.38
442.168	587.76
442.38	638.33
442.591	658.87
442.802	594.16
443.013	635.43
443.224	647.63
443.435	596.48
443.646	638.72
443.857	617.99
444.068	588.93
444.279	563.93
444.49	714.09
444.701	637.95
444.912	748.57
445.123	705.18
445.334	677.47
445.545	665.26
445.756	636.78
445.967	606.95
446.178	659.26
446.388	662.16
446.599	660.23
446.81	673.4
447.021	633.49
447.232	667.01
447.443	705.37
447.653	636.01
447.864	726.49
448.075	711.38
448.286	710.41
448.496	683.67
448.707	736.76
448.918	676.11
449.129	768.72
449.339	675.53
449.55	708.08
449.761	698.98
449.971	765.24
450.182	724.16
450.393	734.82
450.603	692.39
450.814	747.99
451.024	761.94
451.235	797.98
451.446	806.89
451.656	779.57
451.867	738.31
452.077	727.46
452.288	810.38
452.498	795.27
452.709	715.83
452.919	750.9
453.13	692.19
453.34	769.31
453.55	691.81
453.761	730.17
453.971	735.01
454.182	750.71
454.392	749.35
454.602	823.94
454.813	765.43
455.023	784.42
455.233	709.44
455.444	771.63
455.654	650.93
455.864	735.98
456.075	727.65
456.285	731.33
456.495	735.4
456.705	751.29
456.916	827.04
457.126	830.72
457.336	784.22
457.546	697.62
457.756	736.56
457.967	847
458.177	742.18
458.387	771.82
458.597	722.42
458.807	732.3
459.017	741.02
459.227	755.74
459.437	742.76
459.647	812.71
459.857	800.69
460.068	763.69
460.278	822
460.488	794.11
460.698	870.83
460.908	782.48
461.117	746.44
461.327	760.59
461.537	822.97
461.747	828.01
461.957	832.66
462.167	941.55
462.377	869.86
462.587	817.16
462.797	869.09
463.007	843.9
463.216	877.8
463.426	904.54
463.636	897.18
463.846	789.65
464.056	804.37
464.265	877.22
464.475	813.29
464.685	826.07
464.895	871.8
465.104	822.59
465.314	873.15
465.524	833.44
465.733	792.36
465.943	897.18
466.153	929.73
466.362	894.47
466.572	893.5
466.782	834.21
466.991	893.89
467.201	929.15
467.41	809.02
467.62	901.25
467.829	846.8
468.039	853
468.249	874.7
468.458	904.93
468.668	914.23
468.877	931.67
469.086	966.73
469.296	991.92
469.505	913.26
469.715	1009.75
469.924	912.29
470.134	995.41
470.343	969.06
470.552	933.8
470.762	920.82
470.971	890.98
471.18	949.49
471.39	935.54
471.599	924.3
471.808	931.86
472.018	913.65
472.227	1008.58
472.436	1047.91
472.645	1016.53
472.855	989.4
473.064	1078.33
473.273	1053.92
473.482	1041.52
473.691	1070.39
473.901	1066.51
474.11	1024.28
474.319	1117.86
474.528	1046.36
474.737	1093.83
474.946	1089.96
475.155	1082.79
475.364	1119.21
475.573	1112.63
475.783	1124.25
475.992	1146.14
476.201	1157.77
476.41	1101.78
476.619	1083.18
476.828	1125.41
477.037	1118.05
477.245	1119.6
477.454	1150.21
477.663	1135.88
477.872	1157.19
478.081	1252.51
478.29	1144.01
478.499	1279.64
478.708	1229.26
478.917	1314.12
479.125	1205.04
479.334	1252.51
479.543	1187.61
479.752	1269.75
479.961	1248.64
480.169	1292.42
480.378	1243.41
480.587	1420.68
480.796	1310.25
481.004	1307.73
481.213	1290.49
481.422	1317.22
481.63	1313.54
481.839	1340.67
482.048	1421.27
482.256	1346.87
482.465	1403.83
482.674	1353.07
482.882	1390.27
483.091	1455.75
483.299	1402.28
483.508	1446.06
483.716	1432.7
483.925	1428.63
484.134	1396.66
484.342	1403.05
484.551	1456.14
484.759	1415.65
484.967	1485.98
485.176	1458.46
485.384	1459.24
485.593	1463.89
485.801	1462.34
486.01	1419.33
486.218	1315.09
486.426	1236.24
486.635	1239.72
486.843	1209.31
487.051	1268.98
487.26	1287.58
487.468	1333.3
487.676	1381.74
487.885	1344.93
488.093	1434.44
488.301	1489.66
488.509	1503.03
488.717	1548.94
488.926	1489.27
489.134	1462.34
489.342	1507.68
489.55	1480.94
489.758	1481.71
489.967	1497.8
490.175	1616.95
490.383	1556.89
490.591	1644.07
490.799	1549.14
491.007	1662.87
491.215	1605.13
491.423	1574.71
491.631	1591.96
491.839	1590.02
492.047	1622.37
492.255	1529.76
492.463	1502.64
492.671	1511.55
492.879	1623.34
493.087	1589.83
493.295	1609.78
493.503	1627.41
493.711	1714.99
493.919	1685.34
494.127	1684.96
494.334	1703.36
494.542	1618.69
494.75	1696
494.958	1700.65
495.166	1756.25
495.374	1737.85
495.581	1728.35
495.789	1755.09
495.997	1788.22
496.205	1702.59
496.412	1696.39
496.62	1721.57
496.828	1736.49
497.035	1736.88
497.243	1733.2
497.451	1740.75
497.658	1756.45
497.866	1759.74
498.074	1882.58
498.281	1751.02
498.489	1843.25
498.696	1772.53
498.904	1728.55
499.112	1722.74
499.319	1832.98
499.527	1775.05
499.734	1841.7
499.942	1759.16
500.149	1768.65
500.357	1773.11
500.564	1778.53
500.771	1745.79
500.979	1699.68
501.186	1706.46
501.394	1755.09
501.601	1753.15
501.808	1743.66
502.016	1726.61
502.223	1750.83
502.43	1710.14
502.638	1720.41
502.845	1716.54
503.052	1821.35
503.26	1763.42
503.467	1894.01
503.674	1802.17
503.881	1844.41
504.089	1911.83
504.296	1797.13
504.503	1780.28
504.71	1799.27
504.917	1744.44
505.125	1780.86
505.332	1825.81
505.539	1857.78
505.746	1934.7
505.953	1886.65
506.16	1903.31
506.367	1964.14
506.574	1981.78
506.781	1984.68
506.988	1881.03
507.195	1922.3
507.402	1918.23
507.609	1965.69
507.816	1833.17
508.023	1888.58
508.23	1840.34
508.437	1833.95
508.644	1918.81
508.851	1921.13
509.058	1936.83
509.265	1900.79
509.472	1965.31
509.679	1999.99
509.885	1978.29
510.092	1954.26
510.299	1976.16
510.506	1937.41
510.713	1966.28
510.92	1969.57
511.126	1982.16
511.333	2061.79
511.54	2015.1
511.746	2060.05
511.953	2066.25
512.16	2118.56
512.367	2022.66
512.573	2006.96
512.78	2014.33
512.987	2016.07
513.193	1969.57
513.4	1917.45
513.606	1937.21
513.813	2029.44
514.02	1995.14
514.226	2047.46
514.433	2070.32
514.639	1943.8
514.846	2042.61
515.052	1956.59
515.259	1963.37
515.465	2026.14
515.672	2022.85
515.878	2116.62
516.085	2104.61
516.291	2117.98
516.497	2056.17
516.704	2009.48
516.91	1951.94
517.117	1900.98
517.323	1818.83
517.529	1826.58
517.736	1852.74
517.942	1844.02
518.148	1874.05
518.354	1942.25
518.561	1927.91
518.767	1949.61
518.973	1977.51
519.179	1968.99
519.386	1984.49
519.592	1979.06
519.798	1994.56
520.004	2125.92
520.21	2059.47
520.417	2108.87
520.623	2149.95
520.829	2136
521.035	2169.9
521.241	2132.9
521.447	2199.94
521.653	2327.03
521.859	2206.72
522.065	2229
522.271	2334.01
522.477	2265.23
522.683	2315.02
522.889	2280.73
523.095	2244.11
523.301	2259.42
523.507	2203.62
523.713	2211.75
523.919	2197.8
524.125	2315.21
524.331	2288.87
524.537	2393.1
524.742	2394.84
524.948	2425.65
525.154	2382.64
525.36	2531.63
525.566	2415.38
525.772	2441.93
525.977	2370.24
526.183	2388.64
526.389	2410.73
526.595	2326.06
526.8	2336.53
527.006	2238.88
527.212	2189.28
527.417	2198.39
527.623	2122.44
527.829	2247.98
528.034	2288.09
528.24	2323.93
528.446	2330.71
528.651	2442.7
528.857	2445.03
529.062	2501.6
529.268	2454.52
529.473	2513.22
529.679	2512.84
529.884	2597.7
530.09	2576.97
530.295	2564.37
530.501	2590.92
530.706	2550.42
530.912	2486.29
531.117	2606.22
531.323	2591.3
531.528	2608.35
531.733	2588.4
531.939	2579.68
532.144	2612.62
532.35	2599.83
532.555	2628.12
532.76	2624.05
532.966	2554.49
533.171	2511.67
533.376	2510.32
533.581	2483.77
533.787	2530.08
533.992	2578.71
534.197	2564.37
534.402	2580.45
534.607	2605.25
534.813	2706.97
535.018	2573.09
535.223	2624.24
535.428	2652.53
535.633	2649.43
535.838	2674.23
536.043	2712.01
536.249	2799.97
536.454	2675.58
536.659	2714.72
536.864	2700.19
537.069	2679.85
537.274	2681.2
537.479	2667.45
537.684	2643.23
537.889	2581.62
538.094	2769.55
538.299	2661.83
538.504	2690.5
538.708	2677.52
538.913	2767.81
539.118	2707.94
539.323	2744.17
539.528	2700
539.733	2673.26
539.938	2714.92
540.142	2703.48
540.347	2667.83
540.552	2618.04
540.757	2605.64
540.962	2631.22
541.166	2598.86
541.371	2562.24
541.576	2631.41
541.781	2526.59
541.985	2696.7
542.19	2688.57
542.395	2780.98
542.599	2819.54
542.804	2729.06
543.008	2774.78
543.213	2708.72
543.418	2663.38
543.622	2714.72
543.827	2680.23
544.031	2753.08
544.236	2791.64
544.44	2751.34
544.645	2804.23
544.849	2777.5
545.054	2811.98
545.258	2824.19
545.463	2863.33
545.667	2740.88
545.872	2820.51
546.076	2790.09
546.281	2758.7
546.485	2742.23
546.689	2827.29
546.894	2825.35
547.098	2807.72
547.302	2768
547.507	2777.11
547.711	2846.08
547.915	2831.16
548.119	2739.91
548.324	2751.34
548.528	2805.59
548.732	2795.13
548.936	2858.29
549.141	2843.76
549.345	2808.3
549.549	2838.91
549.753	2814.89
549.957	2957.49
550.161	2884.25
550.366	2866.04
550.57	2794.93
550.774	2816.63
550.978	2785.63
551.182	2837.17
551.386	2769.75
551.59	2794.55
551.794	2826.71
551.998	2825.74
552.202	2841.04
552.406	2780.6
552.61	2838.33
552.814	2831.94
553.018	2892.19
553.222	2808.3
553.426	2812.37
553.63	2873.4
553.833	2816.25
554.037	2763.16
554.241	2831.55
554.445	2857.71
554.649	2844.92
554.853	2813.53
555.056	2869.53
555.26	2881.54
555.464	2848.6
555.668	2833.29
555.871	2888.32
556.075	2869.72
556.279	2779.05
556.483	2775.75
556.686	2801.13
556.89	2815.47
557.094	2819.54
557.297	2690.89
557.501	2830.19
557.704	2693.99
557.908	2784.66
558.112	2741.65
558.315	2811.79
558.519	2715.88
558.722	2762
558.926	2737.58
559.129	2594.6
559.333	2627.34
559.536	2623.85
559.74	2617.27
559.943	2615.33
560.147	2591.3
560.35	2627.73
560.553	2620.75
560.757	2581.42
560.96	2721.5
561.164	2604.67
561.367	2787.18
561.57	2687.21
561.774	2709.49
561.977	2662.41
562.18	2589.95
562.384	2692.25
562.587	2633.15
562.79	2672.48
562.993	2645.94
563.197	2669.58
563.4	2707.17
563.603	2720.53
563.806	2731.19
564.009	2628.89
564.212	2654.47
564.416	2592.66
564.619	2663.18
564.822	2561.27
565.025	2661.25
565.228	2661.44
565.431	2642.26
565.634	2522.72
565.837	2577.94
566.04	2508.38
566.243	2507.61
566.446	2449.68
566.649	2557.01
566.852	2482.42
567.055	2473.89
567.258	2534.15
567.461	2612.23
567.664	2584.91
567.867	2467.31
568.07	2543.64
568.273	2539.19
568.475	2593.44
568.678	2499.08
568.881	2509.93
569.084	2451.42
569.287	2373.15
569.489	2394.26
569.692	2510.32
569.895	2511.67
570.098	2397.56
570.3	2425.07
570.503	2339.43
570.706	2394.65
570.909	2415.96
571.111	2301.85
571.314	2303.98
571.516	2351.83
571.719	2318.7
571.922	2371.01
572.124	2337.11
572.327	2379.35
572.529	2326.45
572.732	2318.31
572.935	2359.58
573.137	2435.73
573.34	2350.67
573.542	2404.14
573.745	2385.74
573.947	2429.72
574.15	2354.35
574.352	2337.88
574.554	2361.91
574.757	2362.88
574.959	2270.07
575.162	2290.61
575.364	2311.15
575.566	2390
575.769	2307.46
575.971	2273.95
576.173	2197.61
576.376	2267.55
576.578	2327.61
576.78	2370.82
576.982	2214.08
577.185	2257.28
577.387	2209.82
577.589	2241.59
577.791	2303.78
577.993	2280.73
578.196	2255.93
578.398	2212.53
578.6	2246.05
578.802	2183.66
579.004	2197.8
579.206	2183.08
579.408	2234.23
579.61	2197.8
579.812	2242.95
580.014	2196.84
580.216	2182.89
580.418	2186.95
580.62	2185.6
580.822	2151.3
581.024	2225.12
581.226	2264.84
581.428	2185.4
581.63	2271.23
581.832	2216.6
582.034	2262.9
582.236	2204.39
582.438	2216.4
582.64	2252.83
582.841	2294.1
583.043	2325.1
583.245	2227.83
583.447	2240.43
583.649	2249.92
583.85	2249.53
584.052	2224.54
584.254	2170.1
584.456	2206.52
584.657	2163.12
584.859	2229.38
585.061	2208.65
585.262	2153.82
585.464	2117.01
585.666	2195.29
585.867	2130.77
586.069	2239.65
586.27	2171.26
586.472	2159.83
586.674	2142.2
586.875	2109.26
587.077	2123.79
587.278	2141.81
587.48	2127.47
587.681	2241.78
587.883	2195.29
588.084	2022.27
588.285	2118.37
588.487	2121.08
588.688	2132.7
588.89	2036.22
589.091	1975.58
589.292	1972.28
589.494	1929.85
589.695	1911.06
589.896	1792.87
590.098	1832.98
590.299	1900.4
590.5	1864.75
590.702	1897.11
590.903	1956.39
591.104	2005.8
591.305	2019.17
591.507	2035.06
591.708	2019.17
591.909	2010.64
592.11	2087.17
592.311	2038.54
592.512	2024.01
592.714	1923.65
592.915	1983.71
593.116	1986.62
593.317	2007.93
593.518	1991.85
593.719	1995.92
593.92	2034.09
594.121	2085.62
594.322	2014.52
594.523	2012.19
594.724	1956.98
594.925	1994.56
595.126	2015.88
595.327	2044.16
595.528	2023.43
595.729	2019.56
595.929	1994.76
596.13	2003.86
596.331	2015.29
596.532	2016.65
596.733	2080.39
596.934	2015.49
597.135	2044.74
597.335	2037.19
597.536	2006.19
597.737	2018.2
597.938	1955.23
598.138	1997.47
598.339	1999.6
598.54	2018.39
598.74	1944
598.941	1963.95
599.142	2100.93
599.342	2004.64
599.543	1951.16
599.744	1954.46
599.944	1953.1
600.145	1993.79
600.345	1977.13
600.546	2071.29
600.746	2026.53
600.947	2093.76
601.147	2016.26
601.348	2052.69
601.548	1960.85
601.749	1972.48
601.949	1866.5
602.15	1970.54
602.35	1925.59
602.551	1999.99
602.751	1919.2
602.951	1895.17
603.152	1860.68
603.352	1977.71
603.552	1939.35
603.753	2033.7
603.953	1991.27
604.153	1977.32
604.354	1969.96
604.554	1933.92
604.754	1959.3
604.954	1938.57
605.155	1972.48
605.355	1950.97
605.555	2013.74
605.755	2011.23
605.955	1948.26
606.155	1979.26
606.356	1931.4
606.556	1985.46
606.756	1979.64
606.956	1862.43
607.156	1988.75
607.356	1877.54
607.556	1916.29
607.756	1963.37
607.956	1979.26
608.156	1906.6
608.356	1871.15
608.556	1946.71
608.756	1923.65
608.956	1890.91
609.156	1906.6
609.356	1848.28
609.556	1836.47
609.755	1895.36
609.955	1846.35
610.155	1889.36
610.355	1889.36
610.555	1866.11
610.755	1816.12
610.954	1796.75
611.154	1879.67
611.354	1852.55
611.554	1816.7
611.753	1810.89
611.953	1766.91
612.153	1801.2
612.352	1835.69
612.552	1783.18
612.752	1729.71
612.951	1804.5
613.151	1779.7
613.351	1736.3
613.55	1770.59
613.75	1822.52
613.949	1799.65
614.149	1795.97
614.348	1769.24
614.548	1729.52
614.747	1698.9
614.947	1764.97
615.146	1671.59
615.346	1798.68
615.545	1744.44
615.745	1794.03
615.944	1754.7
616.144	1741.14
616.343	1707.24
616.542	1732.42
616.742	1741.72
616.941	1714.6
617.14	1633.03
617.34	1687.28
617.539	1678.95
617.738	1678.56
617.938	1785.7
618.137	1657.44
618.336	1672.94
618.535	1754.32
618.734	1726.03
618.934	1730.49
619.133	1723.7
619.332	1718.09
619.531	1691.54
619.73	1746.57
619.929	1747.54
620.128	1747.92
620.328	1786.87
620.527	1684.18
620.726	1682.44
620.925	1708.2
621.124	1686.51
621.323	1697.16
621.522	1645.82
621.721	1713.24
621.92	1658.41
622.119	1719.83
622.318	1637.87
622.517	1649.69
622.715	1658.22
622.914	1584.4
623.113	1656.86
623.312	1578.01
623.511	1627.02
623.71	1628.77
623.909	1598.54
624.107	1697.16
624.306	1575.88
624.505	1585.76
624.704	1548.36
624.902	1594.67
625.101	1680.5
625.3	1610.75
625.499	1558.05
625.697	1595.25
625.896	1543.71
626.095	1577.43
626.293	1568.9
626.492	1564.25
626.69	1621.02
626.889	1548.56
627.088	1608.04
627.286	1561.54
627.485	1541.58
627.683	1561.15
627.882	1608.81
628.08	1507.87
628.279	1532.48
628.477	1615.4
628.676	1511.75
628.874	1566.58
629.073	1506.9
629.271	1510.2
629.469	1548.17
629.668	1502.64
629.866	1534.99
630.065	1511.55
630.263	1531.31
630.461	1478.23
630.66	1513.49
630.858	1531.31
631.056	1548.56
631.254	1583.82
631.453	1490.24
631.651	1567.54
631.849	1498.76
632.047	1527.44
632.245	1514.26
632.444	1514.26
632.642	1540.23
632.84	1565.41
633.038	1497.99
633.236	1455.75
633.434	1473.19
633.632	1471.25
633.83	1480.75
634.028	1554.18
634.227	1499.54
634.425	1578.78
634.623	1494.5
634.821	1509.42
635.019	1547.98
635.216	1506.51
635.414	1584.59
635.612	1531.51
635.81	1486.75
636.008	1568.13
636.206	1509.81
636.404	1499.54
636.602	1447.42
636.8	1484.43
636.997	1532.48
637.195	1508.45
637.393	1509.61
637.591	1533.25
637.789	1520.85
637.986	1482.1
638.184	1511.36
638.382	1533.25
638.58	1541.39
638.777	1557.28
638.975	1510
639.173	1497.02
639.37	1492.37
639.568	1506.51
639.765	1502.25
639.963	1458.27
640.161	1510
640.358	1508.26
640.556	1452.26
640.753	1432.11
640.951	1436.96
641.148	1453.23
641.346	1432.89
641.543	1401.31
641.741	1450.33
641.938	1401.5
642.136	1452.26
642.333	1405.77
642.531	1478.03
642.728	1501.09
642.925	1444.9
643.123	1428.05
643.32	1454.59
643.517	1418.36
643.715	1449.36
643.912	1386.78
644.109	1445.48
644.306	1430.95
644.504	1386.78
644.701	1401.7
644.898	1450.91
645.095	1377.87
645.293	1379.03
645.49	1395.5
645.687	1408.09
645.884	1429.79
646.081	1314.51
646.278	1331.75
646.475	1356.75
646.672	1332.53
646.87	1386.58
647.067	1328.65
647.264	1361.2
647.461	1319.74
647.658	1269.37
647.855	1387.36
648.052	1286.42
648.249	1205.82
648.446	1303.08
648.642	1293.59
648.839	1280.99
649.036	1252.32
649.233	1228.49
649.43	1263.55
649.627	1224.22
649.824	1272.85
650.021	1237.98
650.217	1232.17
650.414	1247.67
650.611	1275.18
650.808	1310.25
651.004	1304.82
651.201	1311.8
651.398	1357.52
651.595	1309.67
651.791	1258.32
651.988	1322.45
652.185	1257.94
652.381	1286.8
652.578	1261.62
652.775	1288.16
652.971	1278.47
653.168	1284.87
653.364	1283.32
653.561	1223.26
653.757	1253.87
653.954	1288.94
654.15	1212.21
654.347	1327.1
654.543	1279.64
654.74	1238.37
654.936	1214.34
655.133	1235.07
655.329	1244.76
655.525	1191.29
655.722	1263.55
655.918	1183.54
656.115	1183.73
656.311	1095.96
656.507	1052.18
656.704	1066.51
656.9	1047.72
657.096	1084.14
657.292	1040.94
657.489	1120.96
657.685	1129.68
657.881	1109.14
658.077	1112.43
658.273	1170.75
658.47	1207.95
658.666	1151.96
658.862	1211.63
659.058	1167.65
659.254	1239.92
659.45	1169.78
659.646	1202.52
659.842	1142.46
660.038	1241.66
660.234	1136.84
660.43	1166.87
660.626	1270.72
660.822	1215.89
661.018	1248.25
661.214	1206.79
661.41	1155.25
661.606	1192.64
661.802	1249.61
661.998	1193.22
662.194	1158.93
662.39	1186.83
662.586	1218.22
662.781	1193.42
662.977	1222.87
663.173	1228.87
663.369	1199.62
663.564	1203.49
663.76	1212.41
663.956	1167.46
664.152	1214.92
664.347	1113.4
664.543	1156.8
664.739	1132.19
664.934	1098.48
665.13	1097.32
665.326	1169.01
665.521	1168.23
665.717	1106.43
665.912	1123.86
666.108	1079.69
666.304	1103.52
666.499	1118.24
666.695	1038.42
666.89	1101
667.086	1172.11
667.281	1153.89
667.477	1223.84
667.672	1108.94
667.867	1094.99
668.063	1146.34
668.258	1094.22
668.454	1125.41
668.649	1186.25
668.844	1113.79
669.04	1143.63
669.235	1101
669.43	1062.25
669.626	1055.47
669.821	1090.34
670.016	1062.64
670.211	1084.73
670.407	1053.34
670.602	1109.53
670.797	1131.61
670.992	1150.99
671.187	1063.8
671.382	1125.22
671.578	1075.62
671.773	1073.68
671.968	1007.81
672.163	1084.53
672.358	1091.12
672.553	1040.36
672.748	1051.01
672.943	1122.12
673.138	1068.84
673.333	1100.03
673.528	1054.31
673.723	1078.33
673.918	1080.08
674.113	1012.26
674.308	1091.12
674.503	1087.05
674.698	1107.59
674.892	1055.47
675.087	1105.07
675.282	1068.26
675.477	1025.25
675.672	1080.46
675.867	1052.95
676.061	985.92
676.256	960.15
676.451	1031.06
676.646	1047.33
676.84	999.67
677.035	1008.78
677.23	1003.55
677.424	1063.03
677.619	1078.14
677.814	1070.58
678.008	1071.94
678.203	997.15
678.397	997.15
678.592	1039.58
678.787	1080.66
678.981	1055.86
679.176	1039.58
679.37	1009.55
679.565	987.47
679.759	1043.46
679.954	1052.18
680.148	1105.26
680.342	1085.5
680.537	1041.33
680.731	1014.2
680.926	1033.96
681.12	1070.58
681.314	994.05
681.509	1038.81
681.703	1014.98
681.897	1033
682.092	1035.71
682.286	1018.27
682.48	1086.86
682.674	1095.96
682.869	1015.36
683.063	1037.06
683.257	1087.05
683.451	989.98
683.645	1047.14
683.839	1034.35
684.034	999.28
684.228	1051.21
684.422	988.05
684.616	989.79
684.81	1033.77
685.004	998.12
685.198	1020.21
685.392	1050.24
685.586	996.96
685.78	1020.01
685.974	1033.58
686.168	1025.83
686.362	1065.16
686.556	956.08
686.75	936.51
686.944	954.92
687.138	952.2
687.331	832.47
687.525	859.4
687.719	806.89
687.913	872.19
688.107	880.71
688.301	806.31
688.494	902.99
688.688	864.24
688.882	829.75
689.076	804.37
689.269	848.94
689.463	939.42
689.657	866.18
689.85	879.55
690.044	896.4
690.238	856.69
690.431	892.92
690.625	903.77
690.818	931.86
691.012	941.74
691.205	932.44
691.399	896.6
691.593	936.7
691.786	1001.03
691.98	974.48
692.173	1008
692.366	1002.77
692.56	1000.64
692.753	1054.5
692.947	967.7
693.14	1078.91
693.333	1072.33
693.527	946.39
693.72	1010.91
693.914	1004.9
694.107	986.11
694.3	1006.26
694.493	986.3
694.687	1056.83
694.88	972.16
695.073	1079.11
695.266	1033
695.46	1026.8
695.653	1095.38
695.846	1104.68
696.039	1014.01
696.232	1038.03
696.425	1099.64
696.618	1103.33
696.812	1093.64
697.005	1161.64
697.198	1259.87
697.391	1171.33
697.584	1219.77
697.777	1260.84
697.97	1203.69
698.163	1225.97
698.356	1207.95
698.549	1296.88
698.742	1252.7
698.935	1199.42
699.127	1235.27
699.32	1181.99
699.513	1212.21
699.706	1239.92
699.899	1280.99
700.092	1241.08
700.285	1267.04
700.477	1204.27
700.67	1285.25
700.863	1285.06
701.056	1419.52
701.248	1320.9
701.441	1368.18
701.634	1311.8
701.826	1410.8
702.019	1311.8
702.212	1402.47
702.404	1322.07
702.597	1335.82
702.79	1373.8
702.982	1406.15
703.175	1436.76
703.367	1418.55
703.56	1437.35
703.752	1565.41
703.945	1494.11
704.137	1507.1
704.33	1550.11
704.522	1543.71
704.715	1559.21
704.907	1568.9
705.1	1641.56
705.292	1613.66
705.484	1604.16
705.677	1652.79
705.869	1641.75
706.061	1685.92
706.254	1739.98
706.446	1675.46
706.638	1671.97
706.831	1771.17
707.023	1684.76
707.215	1852.93
707.407	1839.95
707.599	1824.07
707.792	1826.78
707.984	1856.03
708.176	1873.86
708.368	1864.95
708.56	1906.99
708.752	1897.5
708.944	1889.16
709.136	1930.24
709.329	1943.41
709.521	2046.87
709.713	2024.21
709.905	1994.76
710.097	2067.02
710.289	2017.62
710.481	2057.92
710.672	2064.12
710.864	2092.02
711.056	2116.24
711.248	2136.97
711.44	2139.68
711.632	2125.54
711.824	2188.7
712.016	2246.43
712.207	2212.72
712.399	2211.17
712.591	2323.55
712.783	2279.37
712.975	2317.15
713.166	2268.13
713.358	2285.38
713.55	2380.12
713.741	2363.26
713.933	2375.08
714.125	2373.53
714.316	2357.06
714.508	2454.71
714.7	2453.55
714.891	2437.86
715.083	2491.14
715.274	2456.46
715.466	2524.07
715.657	2569.8
715.849	2448.13
716.04	2511.48
716.232	2453.74
716.423	2540.35
716.615	2464.4
716.806	2420.23
716.998	2405.89
717.189	2340.6
717.381	2293.13
717.572	2238.68
717.763	2298.75
717.955	2227.83
718.146	2236.36
718.337	2170.68
718.528	2140.45
718.72	2078.26
718.911	2160.8
719.102	2078.26
719.293	2181.53
719.485	2135.61
719.676	2147.24
719.867	2131.54
720.058	2110.42
720.249	2110.42
720.44	2155.76
720.632	2212.92
720.823	2269.3
721.014	2394.84
721.205	2427.59
721.396	2466.53
721.587	2614.75
721.778	2638.97
721.969	2669.38
722.16	2731.97
722.351	2729.83
722.542	2867.98
722.733	2890.06
722.924	2776.72
723.115	2888.13
723.305	2841.63
723.496	2879.21
723.687	2742.62
723.878	2783.7
724.069	2771.68
724.26	2785.63
724.45	2729.06
724.641	2694.77
724.832	2760.25
725.023	2734.48
725.213	2746.11
725.404	2715.5
725.595	2749.21
725.785	2702.9
725.976	2815.66
726.167	2834.65
726.357	2793.19
726.548	2974.92
726.739	2828.84
726.929	2933.27
727.12	2937.14
727.31	3003.79
727.501	2907.31
727.691	2954.77
727.882	2978.02
728.072	2982.67
728.263	2993.52
728.453	3065.79
728.644	3099.89
728.834	3052.42
729.024	3023.36
729.215	3037.5
729.405	3055.14
729.596	3136.9
729.786	3150.27
729.976	3174.48
730.167	3198.9
730.357	3137.67
730.547	3171.97
730.737	3197.93
730.928	3246.75
731.118	3344.21
731.308	3272.52
731.498	3295.38
731.688	3382.76
731.879	3361.64
732.069	3419.38
732.259	3482.54
732.449	3512.96
732.639	3563.14
732.829	3590.27
733.019	3639.67
733.209	3714.26
733.399	3653.23
733.589	3779.56
733.779	3822.18
733.969	3773.36
734.159	3848.92
734.349	3898.52
734.539	3977.37
734.729	3977.37
734.919	3985.51
735.109	4051
735.299	3935.14
735.488	3983.96
735.678	3997.91
735.868	4043.25
736.058	4059.33
736.248	4021.35
736.437	3948.7
736.627	3965.75
736.817	4110.48
737.007	3989.19
737.196	4096.91
737.386	4073.28
737.576	4046.73
737.765	4124.81
737.955	4052.93
738.144	4250.75
738.334	4179.84
738.524	4118.61
738.713	4172.67
738.903	4174.61
739.092	4213.74
739.282	4172.09
739.471	4217.81
739.661	4191.08
739.85	4197.66
740.04	4255.79
740.229	4259.86
740.419	4307.91
740.608	4295.31
740.797	4309.07
740.987	4354.21
741.176	4259.08
741.365	4286.98
741.555	4219.36
741.744	4357.12
741.933	4302.67
742.123	4332.7
742.312	4350.14
742.501	4396.45
742.69	4393.15
742.88	4295.51
743.069	4417.18
743.258	4375.33
743.447	4437.33
743.636	4417.95
743.825	4406.33
744.014	4469.68
744.204	4464.65
744.393	4403.62
744.582	4484.99
744.771	4530.52
744.96	4463.1
745.149	4482.28
745.338	4483.83
745.527	4517.73
745.716	4442.95
745.905	4437.52
746.094	4551.64
746.283	4571.01
746.471	4507.27
746.66	4563.07
746.849	4540.6
747.038	4533.62
747.227	4504.75
747.416	4591.36
747.604	4456.9
747.793	4539.43
747.982	4508.05
748.171	4578.38
748.359	4515.6
748.548	4528.58
748.737	4562.49
748.926	4515.8
749.114	4450.12
749.303	4520.83
749.491	4481.89
749.68	4407.3
749.869	4529.16
750.057	4489.25
750.246	4489.64
750.434	4469.88
750.623	4509.6
750.811	4511.34
751	4515.6
751.188	4421.63
751.377	4440.04
751.565	4435.2
751.754	4405.75
751.942	4435.78
752.131	4490.22
752.319	4398.19
752.507	4429.58
752.696	4431.32
752.884	4462.71
753.072	4402.84
753.261	4446.24
753.449	4452.83
753.637	4403.62
753.825	4507.08
754.014	4404
754.202	4382.11
754.39	4509.4
754.578	4503.4
754.766	4375.72
754.955	4385.6
755.143	4443.72
755.331	4426.67
755.519	4420.08
755.707	4379.2
755.895	4339.87
756.083	4389.09
756.271	4370.49
756.459	4383.08
756.647	4410.4
756.835	4354.6
757.023	4352.08
757.211	4301.9
757.399	4343.55
757.587	4294.34
757.775	4252.3
757.963	4289.89
758.151	4341.04
758.339	4267.22
758.526	4264.7
758.714	4289.69
758.902	4163.37
759.09	4119.2
759.278	3888.05
759.465	3736.35
759.653	3296.35
759.841	3048.94
760.028	2670.16
760.216	2310.18
760.404	2246.05
760.591	1876.76
760.779	1628.19
760.967	1501.09
761.154	1303.08
761.342	1377.48
761.529	1387.36
761.717	1479
761.905	1482.1
762.092	1585.37
762.28	1548.94
762.467	1560.57
762.655	1516.2
762.842	1583.82
763.029	1610.36
763.217	1641.94
763.404	1627.61
763.592	1676.24
763.779	1585.76
763.966	1693.87
764.154	1723.32
764.341	1771.17
764.528	1805.27
764.716	1899.63
764.903	1937.02
765.09	1996.5
765.277	2072.84
765.465	2264.07
765.652	2316.96
765.839	2338.08
766.026	2510.12
766.213	2535.7
766.4	2665.32
766.588	2830.78
766.775	2830
766.962	2971.24
767.149	3031.89
767.336	3210.91
767.523	3154.14
767.71	3277.36
767.897	3395.16
768.084	3468.4
768.271	3451.93
768.458	3536.79
768.645	3639.86
768.832	3556.36
769.019	3602.86
769.206	3595.69
769.392	3698.57
769.579	3813.27
769.766	3777.62
769.953	3736.74
770.14	3802.42
770.327	3819.66
770.513	3832.45
770.7	3916.54
770.887	3793.31
771.073	3862.67
771.26	3849.31
771.447	3783.43
771.634	3765.61
771.82	3919.25
772.007	3790.6
772.193	3833.42
772.38	3871.2
772.567	3840.2
772.753	3828.96
772.94	3881.27
773.126	3890.19
773.313	3866.74
773.499	3825.67
773.686	3883.02
773.872	3770.84
774.059	3865.77
774.245	3776.84
774.432	3768.9
774.618	3706.32
774.804	3772
774.991	3695.47
775.177	3771.03
775.363	3773.94
775.55	3797.96
775.736	3685.2
775.922	3721.63
776.109	3708.84
776.295	3719.88
776.481	3779.56
776.667	3764.06
776.853	3686.75
777.04	3707.09
777.226	3721.82
777.412	3772
777.598	3670.09
777.784	3620.49
777.97	3632.89
778.156	3694.5
778.342	3701.67
778.528	3655.17
778.715	3605.38
778.901	3580.58
779.087	3627.46
779.272	3634.25
779.458	3571.86
779.644	3618.55
779.83	3567.79
780.016	3742.36
780.202	3583.48
780.388	3560.82
780.574	3463.55
780.76	3491.84
780.946	3592.59
781.131	3584.65
781.317	3566.82
781.503	3489.71
781.689	3518.19
781.874	3661.95
782.06	3526.52
782.246	3529.23
782.432	3539.89
782.617	3522.07
782.803	3599.76
782.989	3452.32
783.174	3486.42
783.36	3401.94
783.545	3459.29
783.731	3435.07
783.916	3339.17
784.102	3424.61
784.288	3386.83
784.473	3376.56
784.659	3360.87
784.844	3434.88
785.029	3357.96
785.215	3360.87
785.4	3293.44
785.586	3434.49
785.771	3270.97
785.956	3396.13
786.142	3347.5
786.327	3350.79
786.512	3276.98
786.698	3315.92
786.883	3231.64
787.068	3290.15
787.254	3304.49
787.439	3270.97
787.624	3261.48
787.809	3220.6
787.994	3222.34
788.18	3292.28
788.365	3215.17
788.55	3188.82
788.735	3211.68
788.92	3192.11
789.105	3211.49
789.29	3220.79
789.475	3185.91
789.66	3186.5
789.845	3134.77
790.03	3103.77
790.215	3117.52
790.4	3214.98
790.585	3190.37
790.77	3117.13
790.955	3089.62
791.14	3134.38
791.325	3196.96
791.51	3007.47
791.695	3091.75
791.879	3080.32
792.064	3018.32
792.249	3172.55
792.434	3065.79
792.618	3102.02
792.803	3112.29
792.988	3057.85
793.173	3073.74
793.357	3139.61
793.542	3069.28
793.727	3076.06
793.911	3106.87
794.096	3083.62
794.281	3101.83
794.465	3193.28
794.65	3068.31
794.834	3106.87
795.019	3174.48
795.203	3147.36
795.388	3180.49
795.572	3178.55
795.757	3123.92
795.941	3134.77
796.126	3135.93
796.31	3080.71
796.494	3119.07
796.679	3123.14
796.863	3082.26
797.048	3228.35
797.232	3162.28
797.416	3202.38
797.601	3103.96
797.785	3191.34
797.969	3213.23
798.153	3133.22
798.338	3200.06
798.522	3214.2
798.706	3185.33
798.89	3166.54
799.074	3307.01
799.258	3233.19
799.443	3207.23
799.627	3185.72
799.811	3281.43
799.995	3180.88
800.179	3148.33
800.363	3162.08
800.547	3232.22
800.731	3223.11
800.915	3104.93
801.099	3139.42
801.283	3130.12
801.467	3159.95
801.651	3153.75
801.835	3190.56
802.019	3132.44
802.202	3192.31
802.386	3122.56
802.57	3110.55
802.754	3138.83
802.938	3096.21
803.121	3125.66
803.305	3201.61
803.489	3173.13
803.673	3141.35
803.856	3188.05
804.04	3147.55
804.224	3147.75
804.407	3146
804.591	3075.29
804.775	3121.59
804.958	3169.06
805.142	3251.21
805.326	3132.05
805.509	3121.59
805.693	3189.79
805.876	3182.81
806.06	3120.04
806.243	3167.51
806.427	3217.5
806.61	3200.83
806.794	3125.08
806.977	3225.83
807.16	3158.02
807.344	3187.08
807.527	3177.97
807.71	3108.22
807.894	3161.89
808.077	3146.78
808.26	3112.1
808.444	3114.42
808.627	3200.83
808.81	3075.67
808.993	3041.57
809.177	3015.8
809.36	3045.64
809.543	3095.05
809.726	2995.46
809.909	2980.16
810.092	2982.48
810.276	2995.85
810.459	2969.11
810.642	2982.29
810.825	2906.73
811.008	2952.45
811.191	2832.33
811.374	2876.69
811.557	2870.69
811.74	2964.46
811.923	2775.56
812.106	2798.61
812.289	2776.72
812.472	2797.84
812.654	2821.86
812.837	2787.18
813.02	2754.25
813.203	2686.63
813.386	2618.82
813.569	2624.05
813.751	2497.92
813.934	2596.15
814.117	2483.97
814.3	2491.14
814.482	2456.84
814.665	2371.6
814.848	2356.68
815.03	2309.79
815.213	2295.07
815.396	2309.21
815.578	2253.22
815.761	2225.7
815.943	2324.13
816.126	2156.34
816.309	2160.8
816.491	2103.06
816.674	2017.62
816.856	2075.36
817.039	2080.2
817.221	2139.29
817.403	2109.65
817.586	2081.94
817.768	2112.56
817.951	2017.43
818.133	1989.53
818.315	2019.36
818.498	2084.46
818.68	2171.84
818.862	2100.93
819.045	2143.36
819.227	2150.72
819.409	2067.41
819.591	2126.5
819.774	2120.31
819.956	2064.31
820.138	2150.92
820.32	2120.89
820.502	2193.35
820.684	2213.3
820.866	2244.88
821.048	2306.69
821.231	2326.06
821.413	2300.3
821.595	2270.85
821.777	2267.17
821.959	2279.57
822.141	2340.21
822.323	2193.35
822.505	2172.62
822.686	2098.41
822.868	2038.35
823.05	1894.78
823.232	1882.19
823.414	1778.73
823.596	1888.39
823.778	1876.38
823.96	1878.12
824.141	1876.96
824.323	1905.44
824.505	1963.76
824.687	2043.19
824.868	2104.42
825.05	2189.86
825.232	2241.98
825.413	2298.17
825.595	2251.08
825.777	2170.29
825.958	2208.85
826.14	2220.28
826.321	2263.48
826.503	2212.92
826.685	2240.04
826.866	2245.85
827.048	2216.4
827.229	2155.57
827.411	2159.44
827.592	2112.75
827.773	2097.44
827.955	2051.91
828.136	2039.9
828.318	2036.99
828.499	2093.18
828.68	1993.21
828.862	2018.98
829.043	2056.95
829.224	2025.37
829.406	1982.36
829.587	1985.84
829.768	2002.51
829.949	2043.77
830.131	2003.48
830.312	2089.89
830.493	2005.03
830.674	2005.61
830.855	1973.25
831.036	1966.47
831.218	2058.31
831.399	2113.33
831.58	2019.75
831.761	2021.11
831.942	2053.46
832.123	1997.47
832.304	1958.33
832.485	1948.84
832.666	1972.48
832.847	2028.28
833.028	2004.25
833.209	1989.72
833.389	1962.01
833.57	1921.71
833.751	1956.78
833.932	2032.93
834.113	1953.49
834.294	1983.33
834.475	2031.96
834.655	2063.92
834.836	2028.47
835.017	2031.76
835.198	1961.43
835.378	2008.9
835.559	2070.9
835.74	1983.91
835.92	2032.93
836.101	1981
836.281	2036.99
836.462	2042.81
836.643	2028.28
836.823	2049.97
837.004	2042.81
837.184	2114.69
837.365	2064.51
837.545	2071.48
837.726	2026.92
837.906	2087.76
838.087	2018.78
838.267	2017.43
838.448	2003.48
838.628	2016.46
838.808	2037.96
838.989	2113.52
839.169	1970.15
839.349	2049.2
839.53	2088.14
839.71	2047.07
839.89	1985.07
840.07	2073.81
840.251	2027.69
840.431	2031.76
840.611	2020.72
840.791	1999.99
840.971	2036.22
841.151	2039.71
841.332	1979.84
841.512	2069.54
841.692	1975.58
841.872	2019.17
842.052	2004.83
842.232	2059.66
842.412	1917.45
842.592	1959.88
842.772	2045.91
842.952	2007.93
843.132	1979.45
843.312	1934.7
843.492	1954.26
843.672	2012
843.851	1917.84
844.031	1966.86
844.211	1927.33
844.391	1901.18
844.571	1983.13
844.751	1961.24
844.93	1971.31
845.11	1909.12
845.29	1962.59
845.47	1966.86
845.649	1954.26
845.829	1983.33
846.009	1894.4
846.188	1985.07
846.368	1941.09
846.547	1938.18
846.727	1986.81
846.907	1863.98
847.086	1899.63
847.266	1979.26
847.445	1934.5
847.625	1884.71
847.804	1908.15
847.984	1881.41
848.163	1848.09
848.343	1856.03
848.522	1913.38
848.701	1891.88
848.881	1882
849.06	1921.91
849.239	1867.46
849.419	1888
849.598	1812.05
849.777	1837.63
849.957	1798.68
850.136	1720.99
850.315	1715.37
850.494	1717.31
850.674	1744.24
850.853	1787.83
851.032	1754.7
851.211	1817.48
851.39	1763.42
851.569	1688.83
851.748	1734.17
851.927	1788.22
852.107	1746.18
852.286	1710.14
852.465	1724.48
852.644	1784.73
852.823	1744.44
853.002	1764.2
853.181	1719.25
853.359	1752.38
853.538	1711.3
853.717	1764.97
853.896	1625.67
854.075	1571.61
854.254	1567.93
854.433	1467.76
854.611	1533.64
854.79	1456.91
854.969	1489.66
855.148	1538.29
855.327	1503.03
855.505	1555.34
855.684	1565.41
855.863	1567.74
856.041	1545.26
856.22	1591.38
856.399	1605.91
856.577	1696.58
856.756	1660.93
856.934	1758.19
857.113	1718.09
857.291	1676.04
857.47	1631.09
857.648	1659.19
857.827	1665.77
858.005	1738.43
858.184	1614.43
858.362	1748.89
858.541	1664.22
858.719	1658.99
858.898	1672.56
859.076	1632.84
859.254	1711.5
859.433	1641.17
859.611	1630.12
859.789	1597.19
859.967	1689.8
860.146	1716.15
860.324	1576.84
860.502	1582.27
860.68	1533.06
860.859	1582.46
861.037	1615.59
861.215	1608.42
861.393	1623.15
861.571	1569.68
861.749	1575.68
861.927	1606.49
862.105	1619.47
862.283	1565.99
862.461	1547.39
862.639	1524.73
862.817	1548.36
862.995	1545.26
863.173	1551.66
863.351	1539.45
863.529	1599.51
863.707	1625.47
863.885	1592.34
864.063	1498.38
864.241	1498.57
864.418	1596.61
864.596	1512.13
864.774	1496.25
864.952	1523.56
865.129	1504.38
865.307	1473.96
865.485	1459.82
865.663	1519.11
865.84	1453.04
866.018	1445.48
866.196	1325.55
866.373	1352.87
866.551	1316.45
866.728	1237.79
866.906	1276.15
867.084	1338.54
867.261	1363.92
867.439	1375.15
867.616	1396.66
867.794	1410.61
867.971	1412.74
868.149	1390.46
868.326	1471.64
868.503	1444.71
868.681	1413.9
868.858	1406.35
869.035	1382.13
869.213	1468.35
869.39	1413.71
869.567	1484.04
869.745	1403.83
869.922	1414.29
870.099	1445.48
870.276	1449.75
870.454	1443.74
870.631	1431.15
870.808	1384.84
870.985	1465.44
871.162	1473.38
871.339	1466.8
871.517	1377.48
871.694	1354.42
871.871	1401.5
872.048	1365.47
872.225	1398.98
872.402	1399.76
872.579	1335.44
872.756	1396.66
872.933	1316.84
873.11	1350.55
873.287	1392.2
873.463	1349.97
873.64	1350.55
873.817	1364.11
873.994	1350.16
874.171	1298.24
874.348	1344.15
874.524	1283.7
874.701	1304.44
874.878	1266.65
875.055	1321.68
875.231	1317.61
875.408	1353.07
875.585	1255.42
875.762	1302.11
875.938	1285.64
876.115	1274.79
876.291	1238.17
876.468	1281.57
876.645	1260.07
876.821	1277.89
876.998	1284.87
877.174	1297.85
877.351	1271.11
877.527	1260.84
877.704	1264.91
877.88	1290.49
878.057	1227.91
878.233	1295.52
878.409	1237.79
878.586	1277.12
878.762	1237.59
878.938	1256.58
879.115	1149.24
879.291	1248.44
879.467	1180.63
879.644	1220.16
879.82	1260.45
879.996	1198.07
880.172	1164.74
880.349	1231.97
880.525	1244.57
880.701	1167.65
880.877	1147.5
881.053	1213.37
881.229	1171.91
881.405	1241.08
881.581	1172.88
881.757	1169.01
881.933	1220.54
882.109	1225.97
882.285	1205.04
882.461	1147.31
882.637	1183.15
882.813	1127.35
882.989	1155.44
883.165	1233.72
883.341	1139.94
883.517	1225.97
883.693	1212.41
883.869	1233.33
884.044	1125.22
884.22	1209.5
884.396	1232.56
884.572	1219.19
884.747	1237.21
884.923	1233.52
885.099	1213.18
885.275	1248.64
885.45	1199.81
885.626	1197.87
885.801	1145.37
885.977	1154.28
886.153	1145.37
886.328	1203.88
886.504	1146.73
886.679	1218.02
886.855	1151.18
887.03	1164.16
887.206	1225
887.381	1184.12
887.557	1175.98
887.732	1187.99
887.908	1165.13
888.083	1220.74
888.258	1177.92
888.434	1167.65
888.609	1152.93
888.784	1228.87
888.96	1149.05
889.135	1153.7
889.31	1155.83
889.485	1182.76
889.661	1157.58
889.836	1220.35
890.011	1203.3
890.186	1165.52
890.361	1152.15
890.537	1179.27
890.712	1170.17
890.887	1193.03
891.062	1171.33
891.237	1250.38
891.412	1132.39
891.587	1206.4
891.762	1209.69
891.937	1240.11
892.112	1127.54
892.287	1164.16
892.462	1129.09
892.637	1090.54
892.812	1101.58
892.987	1121.73
893.161	1088.99
893.336	1103.13
893.511	1149.63
893.686	1142.08
893.861	1083.37
894.035	1083.18
894.21	1122.12
894.385	1047.33
894.56	1094.22
894.734	1040.16
894.909	1029.7
895.084	1013.23
895.258	1011.88
895.433	1035.13
895.608	1030.28
895.782	929.53
895.957	957.24
896.131	973.13
896.306	910.74
896.48	860.37
896.655	941.74
896.829	833.82
897.004	865.21
897.178	871.8
897.353	846.22
897.527	899.31
897.701	881.87
897.876	813.48
898.05	938.25
898.224	881.1
898.399	897.57
898.573	836.73
898.747	738.31
898.921	777.25
899.096	670.69
899.27	719.13
899.444	703.63
899.618	750.71
899.792	768.72
899.967	746.44
900.141	820.07
900.315	719.51
900.489	796.62
900.663	806.89
900.837	768.92
901.011	692.58
901.185	817.16
901.359	742.76
901.533	730.75
901.707	782.48
901.881	780.54
902.055	717.58
902.229	752.45
902.403	831.5
902.576	753.42
902.75	763.88
902.924	863.08
903.098	822
903.272	860.56
903.446	909.58
903.619	857.85
903.793	922.37
903.967	872.19
904.14	953.17
904.314	933.6
904.488	887.69
904.661	954.14
904.835	916.17
905.009	915.39
905.182	978.55
905.356	969.25
905.529	953.75
905.703	867.73
905.876	888.07
906.05	869.67
906.223	865.02
906.397	789.07
906.57	741.02
906.744	740.63
906.917	764.46
907.09	770.86
907.264	726.49
907.437	715.83
907.61	677.08
907.784	697.23
907.957	738.11
908.13	666.04
908.304	734.62
908.477	679.79
908.65	684.64
908.823	642.59
908.996	772.21
909.17	682.31
909.343	673.79
909.516	667.59
909.689	668.17
909.862	654.41
910.035	657.13
910.208	628.26
910.381	625.74
910.554	749.74
910.727	658.48
910.9	656.74
911.073	647.24
911.246	720.48
911.419	714.86
911.592	696.07
911.765	632.91
911.938	655.77
912.11	679.79
912.283	670.88
912.456	686.19
912.629	666.23
912.802	639.5
912.974	627.29
913.147	567.81
913.32	506.39
913.493	568.97
913.665	590.86
913.838	557.93
914.01	578.08
914.183	583.11
914.356	588.15
914.528	614.5
914.701	686.96
914.873	639.11
915.046	597.84
915.218	588.15
915.391	492.05
915.563	520.34
915.736	577.88
915.908	604.04
916.081	578.08
916.253	561.22
916.425	568
916.598	588.15
916.77	608.3
916.942	514.14
917.115	475.2
917.287	607.72
917.459	543.78
917.632	538.94
917.804	463.57
917.976	543.98
918.148	541.65
918.32	555.21
918.493	606.36
918.665	653.06
918.837	600.94
919.009	637.75
919.181	632.13
919.353	597.84
919.525	600.36
919.697	570.71
919.869	585.44
920.041	624.19
920.213	714.48
920.385	638.14
920.557	576.33
920.729	623.41
920.901	614.31
921.073	583.31
921.244	577.11
921.416	597.65
921.588	562.96
921.76	588.35
921.932	659.84
922.103	575.95
922.275	589.7
922.447	618.18
922.619	499.03
922.79	600.16
922.962	564.13
923.134	608.3
923.305	513.17
923.477	515.11
923.648	506.39
923.82	524.02
923.991	500.58
924.163	464.54
924.335	529.45
924.506	502.13
924.677	537.2
924.849	466.48
925.02	523.25
925.192	542.43
925.363	518.98
925.535	518.02
925.706	512.4
925.877	529.06
926.049	513.17
926.22	548.05
926.391	521.31
926.562	535.84
926.734	503.1
926.905	547.08
927.076	458.15
927.247	490.7
927.419	468.8
927.59	446.72
927.761	449.62
927.932	421.92
928.103	444.78
928.274	385.1
928.445	379.87
928.616	398.09
928.787	390.34
928.958	451.56
929.129	407.77
929.3	398.86
929.471	327.17
929.642	312.26
929.813	269.83
929.984	304.89
930.155	259.56
930.326	349.26
930.496	290.17
930.667	215.19
930.838	274.09
931.009	217.71
931.18	228.56
931.35	248.9
931.521	250.26
931.692	161.13
931.863	156.87
932.033	166.75
932.204	193.1
932.374	208.99
932.545	163.26
932.716	192.13
932.886	218.48
933.057	128.58
933.227	128.2
933.398	190
933.568	120.06
933.739	73.75
933.909	83.63
934.08	151.45
934.25	69.3
934.421	61.74
934.591	147.57
934.761	86.35
934.932	48.95
935.102	110.37
935.272	97.58
935.443	104.95
935.613	94.29
935.783	112.5
935.953	58.64
936.123	267.11
936.294	82.86
936.464	68.33
936.634	86.54
936.804	39.27
936.974	24.35
937.144	112.89
937.314	113.47
937.484	74.53
937.655	81.12
937.825	127.03
937.995	66.78
938.165	143.5
938.334	82.47
938.504	121.22
938.674	71.23
938.844	112.7
939.014	160.36
939.184	157.45
939.354	196.59
939.524	202.79
939.694	161.71
939.863	154.16
940.033	211.31
940.203	225.46
940.373	204.53
940.542	203.56
940.712	137.3
940.882	185.55
941.051	229.53
941.221	189.61
941.391	213.83
941.56	147.57
941.73	145.25
941.899	280.87
942.069	144.47
942.238	191.16
942.408	149.31
942.577	190.97
942.747	115.02
942.916	97.78
943.086	100.49
943.255	190
943.425	137.11
943.594	118.31
943.763	78.6
943.933	65.23
944.102	34.03
944.271	105.72
944.441	122.58
944.61	83.63
944.779	129.36
944.948	228.17
945.117	92.16
945.287	82.28
945.456	27.64
945.625	96.03
945.794	123.93
945.963	87.32
946.132	140.01
946.301	79.76
946.47	138.46
946.639	42.56
946.808	110.95
946.977	134.2
947.146	152.41
947.315	101.85
947.484	145.05
947.653	124.51
947.822	85.77
947.991	65.42
948.16	173.92
948.329	165.4
948.498	149.9
948.666	120.64
948.835	144.08
949.004	71.43
949.173	66.78
949.341	118.12
949.51	135.75
949.679	163.46
949.847	142.34
950.016	204.92
950.185	201.82
950.353	73.37
950.522	111.73
950.69	182.83
950.859	119.48
951.028	177.99
951.196	127.81
951.365	97.2
951.533	111.73
951.701	156.68
951.87	133.04
952.038	99.33
952.207	125.87
952.375	185.74
952.543	113.86
952.712	134.2
952.88	97.58
953.048	162.3
953.217	113.08
953.385	122.19
953.553	171.79
953.721	58.64
953.89	113.47
954.058	56.9
954.226	69.49
954.394	137.11
954.562	62.32
954.73	87.51
954.898	86.73
955.067	142.34
955.235	94.87
955.403	145.83
955.571	191.16
955.739	142.92
955.907	95.45
956.075	108.43
956.243	78.02
956.41	117.54
956.578	66
956.746	67.36
956.914	88.48
957.082	129.55
957.25	138.08
957.418	72.98
957.585	115.99
957.753	176.83
957.921	70.85
958.089	113.86
958.256	126.26
958.424	129.94
958.592	135.17
958.759	65.23
958.927	138.27
959.095	96.23
959.262	118.51
959.43	114.63
959.597	69.68
959.765	142.34
959.932	50.12
960.1	159.97
960.267	120.64
960.435	103.98
960.602	140.98
960.77	88.28
960.937	71.04
961.104	123.16
961.272	67.75
961.439	129.36
961.606	135.75
961.774	122.19
961.941	85.38
962.108	122.96
962.275	108.05
962.443	154.35
962.61	150.86
962.777	200.46
962.944	152.41
963.111	123.55
963.278	131.88
963.446	131.1
963.613	103.59
963.78	133.62
963.947	132.85
964.114	146.41
964.281	235.53
964.448	144.66
964.615	139.43
964.782	151.45
964.949	180.12
965.116	142.34
965.282	158.23
965.449	120.25
965.616	103.2
965.783	159.97
965.95	134.2
966.117	73.95
966.283	137.88
966.45	124.51
966.617	144.86
966.784	168.3
966.95	169.27
967.117	149.51
967.284	81.5
967.45	102.04
967.617	198.53
967.784	163.26
967.95	187.1
968.117	112.12
968.283	189.42
968.45	237.08
968.616	149.7
968.783	186.9
968.949	202.79
969.116	180.7
969.282	123.55
969.449	145.83
969.615	146.41
969.781	105.92
969.948	110.37
970.114	98.75
970.28	228.56
970.447	156.29
970.613	204.73
970.779	140.6
970.945	157.65
971.112	181.86
971.278	121.03
971.444	134.78
971.61	206.28
971.776	135.17
971.942	141.18
972.108	170.05
972.275	134.01
972.441	161.71
972.607	206.66
972.773	132.07
972.939	168.3
973.105	112.7
973.271	111.73
973.437	122.96
973.602	114.83
973.768	142.15
973.934	131.88
974.1	155.51
974.266	64.45
974.432	164.62
974.598	132.26
974.763	169.66
974.929	101.27
975.095	181.67
975.261	85.57
975.426	119.48
975.592	122.96
975.758	200.46
975.923	75.88
976.089	112.31
976.255	171.4
976.42	141.37
976.586	130.13
976.751	157.45
976.917	236.89
977.082	122
977.248	99.33
977.413	91.58
977.579	113.86
977.744	123.55
977.91	90.42
978.075	145.05
978.24	177.02
978.406	106.69
978.571	74.14
978.736	89.25
978.902	164.62
979.067	94.87
979.232	67.94
979.397	136.91
979.563	173.73
979.728	100.1
979.893	122.38
980.058	94.48
980.223	149.51
980.388	121.61
980.554	134.98
980.719	105.33
980.884	130.52
981.049	184
981.214	115.8
981.379	144.66
981.544	87.12
981.709	97.39
981.874	117.35
982.039	110.76
982.204	153.38
982.368	129.55
982.533	107.47
982.698	163.65
982.863	134.4
983.028	83.44
983.193	112.5
983.357	124.71
983.522	131.88
983.687	120.25
983.852	129.94
984.016	109.98
984.181	116.76
984.346	137.11
984.51	134.4
984.675	118.31
984.839	136.72
985.004	124.51
985.168	165.01
985.333	126.45
985.498	92.35
985.662	129.36
985.827	153.19
985.991	95.84
986.155	100.1
986.32	164.43
986.484	159.78
986.649	140.98
986.813	73.17
986.977	121.61
987.142	140.21
987.306	95.26
987.47	71.43
987.634	93.9
987.799	106.11
987.963	107.47
988.127	123.93
988.291	182.83
988.455	136.33
988.62	92.35
988.784	101.27
988.948	138.08
989.112	74.33
989.276	118.51
989.44	96.81
989.604	101.85
989.768	91.58
989.932	197.95
990.096	79.37
990.26	78.79
990.424	67.55
990.588	83.44
990.752	159.58
990.915	160.75
991.079	83.44
991.243	76.85
991.407	123.93
991.571	90.61
991.734	124.9
991.898	126.65
992.062	193.88
992.226	104.37
992.389	71.04
992.553	48.18
992.717	76.85
992.88	58.25
993.044	98.55
993.207	106.5
993.371	144.28
993.535	110.76
993.698	94.87
993.862	122
994.025	129.55
994.189	78.79
994.352	127.61
994.515	97.78
994.679	141.37
994.842	74.92
995.006	102.23
995.169	77.63
995.332	50.7
995.496	138.66
995.659	24.15
995.822	91.77
995.985	81.5
996.149	125.1
996.312	95.26
996.475	170.82
996.638	99.52
996.801	141.56
996.964	163.07
997.128	83.83
997.291	91.77
997.454	92.74
997.617	46.24
997.78	133.43
997.943	52.83
998.106	134.78
998.269	62.52
998.432	92.16
998.595	91.58
998.758	50.5
998.92	47.4
999.083	33.65
999.246	67.36
999.409	59.61
999.572	30.35
999.735	81.12
999.897	110.76
1000.06	72.59
1000.223	92.93
1000.386	97
1000.548	85.96
1000.711	76.08
1000.874	97.39
1001.036	35
1001.199	115.8
1001.361	66.78
1001.524	84.02
1001.687	97
1001.849	45.66
1002.012	76.08
1002.174	74.92
1002.337	128.58
1002.499	51.28
1002.661	148.15
1002.824	42.75
1002.986	69.88
1003.149	73.37
1003.311	42.75
1003.473	135.95
1003.636	64.65
1003.798	109.02
1003.96	101.65
1004.123	73.37
1004.285	81.12
1004.447	72.01
1004.609	53.22
1004.771	135.75
1004.933	18.54
1005.096	10.98
1005.258	17.95
1005.42	47.4
1005.582	106.69
1005.744	66.58
1005.906	40.23
1006.068	66.2
1006.23	24.74
1006.392	5.55
1006.554	52.25
1006.716	109.6
1006.878	77.43
1007.04	9.43
1007.202	48.57
1007.363	43.72
1007.525	101.27
1007.687	105.53
1007.849	97.58
1008.011	10.98
1008.172	5.36
1008.334	67.36
1008.496	92.55
1008.658	19.31
1008.819	46.05
1008.981	-1.81
1009.143	22.41
1009.304	55.54
1009.466	77.63
1009.627	102.82
1009.789	166.17
1009.95	72.59
1010.112	35.97
1010.273	82.86
1010.435	31.13
1010.596	51.67
1010.758	41.2
1010.919	49.53
1011.081	9.62
1011.242	50.7
1011.403	60.77
1011.565	51.08
1011.726	66.78
1011.887	-2.39
1012.049	25.7
1012.21	103.4
1012.371	118.51
1012.532	-23.51
1012.693	56.9
1012.855	20.28
1013.016	22.8
1013.177	97.39
1013.338	40.43
1013.499	114.63
1013.66	112.89
1013.821	67.36
1013.982	62.32
1014.143	46.63
1014.304	14.85
1014.465	62.9
1014.626	57.87
1014.787	18.73
1014.948	123.16
1015.109	-17.89
1015.27	75.69
1015.431	39.07
1015.592	9.43
1015.752	78.4
1015.913	37.52
1016.074	63.48
1016.235	73.95
1016.395	12.92
1016.556	10.98
1016.717	41.98
1016.877	78.21
1017.038	21.25
1017.199	58.45
1017.359	60.97
1017.52	52.25
1017.681	29.77
1017.841	51.28
1018.002	41.2
1018.162	11.17
1018.323	92.55
1018.483	28.03
1018.644	17.18
1018.804	-41.91
1018.964	26.67
1019.125	22.6
1019.285	45.27
1019.446	12.72
1019.606	-4.91
1019.766	-10.72
1019.926	58.25
1020.087	54.38
1020.247	-18.08
1020.407	58.25
1020.567	77.63
1020.728	19.89
1020.888	-8.78
1021.048	22.02
1021.208	15.82
1021.368	-6.65
1021.528	83.05
1021.688	92.16
1021.848	73.37
1022.008	29
1022.168	7.88
1022.328	37.13
1022.488	53.6
1022.648	23.57
1022.808	34.42
1022.968	48.76
1023.128	8.46
1023.288	17.18
1023.448	47.79
1023.608	67.75
1023.767	60.38
1023.927	-3.16
1024.087	-8.98
1024.247	0.71
1024.406	29.38
1024.566	2.84
1024.726	-10.33
1024.885	27.25
1025.045	72.59
1025.205	23.96
1025.364	35
1025.524	39.65
1025.683	30.35
1025.843	50.5
1026.003	9.43
1026.162	77.24
1026.321	56.12
1026.481	35
1026.64	22.41
1026.8	16.4
1026.959	24.15
1027.119	20.86
1027.278	5.94
1027.437	8.65
1027.597	35.58
1027.756	34.81
1027.915	53.02
1028.074	70.65
1028.234	16.4
1028.393	43.53
1028.552	23.19
1028.711	-60.71
1028.87	33.65
1029.03	-37.65
1029.189	28.03
1029.348	-45.01
1029.507	-3.16
1029.666	29.77
1029.825	-9.95
1029.984	-5.49
1030.143	10.2
1030.302	0.52
1030.461	-43.85
1030.62	54.18
1030.779	44.11
1030.938	-7.43
1031.097	-23.31
1031.255	54.77
1031.414	90.42
1031.573	66
1031.732	-48.7
1031.891	37.72
1032.049	71.82
1032.208	66.58
1032.367	20.67
1032.525	13.11
1032.684	23.19
1032.843	24.35
1033.001	-6.65
1033.16	145.83
1033.319	61.74
1033.477	39.85
1033.636	4.39
1033.794	-11.69
1033.953	28.61
1034.111	35.78
1034.27	4.39
1034.428	40.62
1034.587	-22.93
1034.745	17.57
1034.903	36.17
1035.062	49.34
1035.22	-17.5
1035.378	56.9
1035.537	-12.08
1035.695	56.7
1035.853	34.81
1036.011	47.02
1036.17	57.28
1036.328	-47.53
1036.486	35.97
1036.644	26.87
1036.802	-59.16
1036.96	7.69
1037.119	-6.65
1037.277	-13.43
1037.435	-64.78
1037.593	-6.26
1037.751	8.65
1037.909	66.2
1038.067	66.2
