Data from gum_old_FLMT105791__28__15-42-50-259.txt Node

Date: Mon Mar 20 15:42:50 GMT 2023
User: antho
Spectrometer: FLMT10579
Trigger mode: 0
Integration Time (sec): 1.000000E-1
Scans to average: 10
Electric dark correction enabled: true
Nonlinearity correction enabled: false
Boxcar width: 0
XAxis mode: Wavelengths
Number of Pixels in Spectrum: 3648
>>>>>Begin Spectral Data<<<<<
345.248	-179.26
345.464	-179.26
345.681	-179.26
345.898	-160.47
346.114	-180.23
346.331	-44.22
346.548	14.68
346.764	3.83
346.981	-2.37
347.197	-34.34
347.414	19.91
347.631	-13.8
347.847	66.6
348.064	-17.49
348.28	40.64
348.497	-37.25
348.713	3.83
348.93	42.38
349.146	36.96
349.363	21.46
349.579	37.73
349.796	14.87
350.012	10.22
350.229	42.77
350.445	47.03
350.661	-14.39
350.878	19.52
351.094	50.13
351.311	63.89
351.527	56.14
351.743	42.19
351.96	55.56
352.176	64.86
352.392	57.49
352.609	67.18
352.825	24.56
353.041	50.13
353.257	20.88
353.474	33.28
353.69	54.39
353.906	30.76
354.122	23.78
354.339	106.51
354.555	36.76
354.771	17.78
354.987	110.77
355.203	75.51
355.42	30.76
355.636	27.85
355.852	20.88
356.068	43.35
356.284	19.91
356.5	75.32
356.716	56.72
356.932	16.42
357.148	69.12
357.364	50.71
357.58	58.85
357.796	97.6
358.012	80.74
358.228	66.02
358.444	-38.8
358.66	102.06
358.876	72.61
359.092	32.69
359.308	55.17
359.524	69.89
359.74	36.38
359.956	49.16
360.172	62.92
360.388	84.81
360.604	37.93
360.819	140.42
361.035	55.94
361.251	75.71
361.467	32.69
361.683	84.04
361.898	59.63
362.114	67.96
362.33	54.01
362.546	100.51
362.762	58.66
362.977	92.37
363.193	49.55
363.409	92.95
363.624	59.63
363.84	31.14
364.056	38.7
364.271	61.56
364.487	86.17
364.703	61.37
364.918	47.23
365.134	60.01
365.35	61.18
365.565	163.09
365.781	56.33
365.996	83.07
366.212	146.81
366.427	98.57
366.643	72.61
366.858	75.51
367.074	70.28
367.289	118.72
367.505	187.11
367.72	28.24
367.936	86.56
368.151	113.29
368.367	128.02
368.582	86.94
368.798	89.85
369.013	134.8
369.228	115.81
369.444	84.23
369.659	135.57
369.874	96.63
370.09	160.18
370.305	38.31
370.52	63.69
370.736	148.56
370.951	88.69
371.166	128.99
371.381	146.81
371.597	130.54
371.812	83.26
372.027	86.75
372.242	104.58
372.458	185.76
372.673	83.65
372.888	81.13
373.103	114.84
373.318	178.59
373.533	114.46
373.749	109.81
373.964	35.79
374.179	130.34
374.394	55.36
374.609	148.56
374.824	67.38
375.039	153.4
375.254	80.16
375.469	141.39
375.684	101.09
375.899	161.34
376.114	99.73
376.329	111.94
376.544	146.42
376.759	135.19
376.974	97.99
377.189	114.07
377.404	96.44
377.619	153.59
377.834	54.59
378.049	70.48
378.264	105.74
378.478	147.2
378.693	114.07
378.908	172.77
379.123	122.21
379.338	187.11
379.553	145.07
379.767	154.17
379.982	174.13
380.197	161.92
380.412	126.66
380.626	174.52
380.841	207.45
381.056	162.7
381.271	199.7
381.485	136.93
381.7	106.9
381.915	133.83
382.129	118.14
382.344	124.92
382.559	103.99
382.773	153.4
382.988	74.54
383.202	117.75
383.417	81.52
383.632	204.94
383.846	116.39
384.061	128.02
384.275	110.19
384.49	130.34
384.704	134.61
384.919	140.03
385.133	143.32
385.348	179.36
385.562	136.93
385.777	232.45
385.991	127.82
386.206	166.57
386.42	125.11
386.634	194.47
386.849	163.67
387.063	162.89
387.277	143.32
387.492	153.79
387.706	99.93
387.92	121.82
388.135	195.06
388.349	179.56
388.563	179.94
388.778	177.04
388.992	176.84
389.206	172.77
389.42	223.15
389.635	187.89
389.849	213.65
390.063	239.62
390.277	224.31
390.491	270.42
390.706	226.64
390.92	242.33
391.134	241.75
391.348	234
391.562	176.07
391.776	241.55
391.99	209.59
392.205	281.47
392.419	200.48
392.633	212.1
392.847	261.7
393.061	192.73
393.275	246.79
393.489	152.82
393.703	168.9
393.917	191.96
394.131	118.52
394.345	149.33
394.559	220.24
394.773	189.63
394.986	219.66
395.2	208.62
395.414	283.4
395.628	230.7
395.842	277.01
396.056	262.67
396.27	220.44
396.484	254.73
396.697	260.35
396.911	249.89
397.125	196.41
397.339	200.87
397.553	201.06
397.766	233.22
397.98	258.99
398.194	298.71
398.408	265.19
398.621	326.42
398.835	351.6
399.049	346.18
399.262	368.46
399.476	379.5
399.69	350.44
399.903	429.3
400.117	371.56
400.331	394.61
400.544	369.04
400.758	506.21
400.971	373.69
401.185	456.23
401.398	379.31
401.612	447.12
401.826	434.53
402.039	448.48
402.253	404.5
402.466	448.67
402.68	412.63
402.893	442.86
403.106	416.7
403.32	439.37
403.533	434.91
403.747	418.45
403.96	466.3
404.174	449.45
404.387	405.27
404.6	447.51
404.814	466.3
405.027	432.78
405.24	417.48
405.454	437.24
405.667	480.44
405.88	391.71
406.094	456.61
406.307	472.89
406.52	441.31
406.733	420.96
406.947	385.51
407.16	501.56
407.373	498.08
407.586	456.03
407.799	426
408.012	485.09
408.226	463.98
408.439	517.06
408.652	451.19
408.865	504.28
409.078	544.77
409.291	521.33
409.504	484.51
409.717	560.66
409.93	535.66
410.143	487.81
410.357	408.76
410.57	410.5
410.783	454.87
410.996	488.39
411.209	475.79
411.421	560.27
411.634	510.86
411.847	508.54
412.06	533.53
412.273	565.69
412.486	570.73
412.699	637.96
412.912	549.61
413.125	581.19
413.338	531.79
413.55	584.68
413.763	543.03
413.976	571.89
414.189	526.56
414.402	519.58
414.615	616.46
414.827	534.11
415.04	581.19
415.253	574.61
415.466	595.14
415.678	684.07
415.891	566.27
416.104	552.13
416.316	574.99
416.529	554.26
416.742	647.07
416.954	668.96
417.167	606.57
417.38	600.76
417.592	590.3
417.805	581.97
418.017	544.38
418.23	599.99
418.442	573.64
418.655	540.7
418.868	571.12
419.08	613.94
419.293	617.62
419.505	636.8
419.718	602.12
419.93	644.35
420.142	568.21
420.355	643.77
420.567	644.94
420.78	610.26
420.992	598.82
421.205	675.35
421.417	619.17
421.629	649.97
421.842	602.51
422.054	608.51
422.266	688.14
422.479	679.81
422.691	643.39
422.903	664.89
423.115	590.3
423.328	598.44
423.54	624.4
423.752	612.19
423.964	600.37
424.177	663.15
424.389	612.77
424.601	754.02
424.813	652.1
425.025	692.6
425.238	701.12
425.45	641.84
425.662	657.14
425.874	949.89
426.086	664.5
426.298	689.69
426.51	659.85
426.722	655.79
426.934	660.44
427.146	707.71
427.358	636.6
427.57	693.18
427.782	638.54
427.994	639.32
428.206	631.37
428.418	625.95
428.63	710.23
428.842	735.8
429.054	676.32
429.266	713.52
429.478	643.77
429.69	649.78
429.902	595.34
430.114	653.07
430.325	623.24
430.537	555.23
430.749	582.16
430.961	472.31
431.173	520.55
431.384	573.64
431.596	493.04
431.808	594.56
432.02	698.41
432.231	753.82
432.443	788.31
432.655	751.69
432.867	722.05
433.078	777.85
433.29	800.9
433.502	798
433.713	833.84
433.925	844.5
434.136	836.36
434.348	700.74
434.56	692.79
434.771	828.8
434.983	662.76
435.194	771.26
435.406	783.47
435.617	844.11
435.829	909.59
436.04	883.83
436.252	847.21
436.463	908.63
436.675	912.11
436.886	921.03
437.098	950.86
437.309	975.47
437.521	904.75
437.732	931.1
437.943	873.75
438.155	874.53
438.366	842.56
438.578	925.48
438.789	851.28
439	830.16
439.211	806.52
439.423	836.75
439.634	871.43
439.845	897.97
440.057	887.7
440.268	979.93
440.479	921.41
440.69	939.63
440.902	912.11
441.113	886.35
441.324	875.3
441.535	985.16
441.746	1008.21
441.957	956.87
442.168	971.4
442.38	1014.41
442.591	998.33
442.802	971.01
443.013	989.81
443.224	1034.37
443.435	999.3
443.646	969.85
443.857	1000.07
444.068	985.16
444.279	947.57
444.49	1094.24
444.701	1018.09
444.912	1151.59
445.123	1078.15
445.334	1041.92
445.545	1055.1
445.756	1046.38
445.967	1001.24
446.178	1036.31
446.388	1015.77
446.599	1024.29
446.81	1037.08
447.021	973.34
447.232	1088.42
447.443	1086.87
447.653	1060.33
447.864	1136.86
448.075	1133.37
448.286	1136.67
448.496	1109.15
448.707	1153.33
448.918	1073.89
449.129	1191.5
449.339	1087.26
449.55	1128.92
449.761	1122.33
449.971	1146.74
450.182	1141.12
450.393	1181.03
450.603	1125.24
450.814	1170.38
451.024	1197.31
451.235	1242.07
451.446	1252.72
451.656	1273.84
451.867	1165.34
452.077	1223.47
452.288	1231.6
452.498	1203.51
452.709	1140.74
452.919	1167.47
453.13	1133.95
453.34	1166.12
453.55	1057.04
453.761	1143.25
453.971	1133.18
454.182	1141.51
454.392	1137.05
454.602	1230.05
454.813	1211.84
455.023	1223.47
455.233	1109.15
455.444	1169.6
455.654	1057.04
455.864	1170.77
456.075	1145.19
456.285	1151.39
456.495	1178.32
456.705	1202.54
456.916	1238.38
457.126	1277.71
457.336	1211.45
457.546	1154.49
457.756	1206.8
457.967	1302.13
458.177	1227.53
458.387	1225.6
458.597	1186.07
458.807	1210.48
459.017	1198.86
459.227	1210.1
459.437	1188.98
459.647	1252.33
459.857	1279.85
460.068	1212.03
460.278	1315.69
460.488	1238.38
460.698	1327.51
460.908	1220.37
461.117	1220.37
461.327	1269
461.537	1302.13
461.747	1278.1
461.957	1291.86
462.167	1398.23
462.377	1346.88
462.587	1264.35
462.797	1370.33
463.007	1322.66
463.216	1370.33
463.426	1395.71
463.636	1356.96
463.846	1255.43
464.056	1300.96
464.265	1344.56
464.475	1271.71
464.685	1364.9
464.895	1313.36
465.104	1287.6
465.314	1377.88
465.524	1319.37
465.733	1285.46
465.943	1410.43
466.153	1427.48
466.362	1393.38
466.572	1391.06
466.782	1352.31
466.991	1374.59
467.201	1404.62
467.41	1287.21
467.62	1372.26
467.829	1380.4
468.039	1371.1
468.249	1345.91
468.458	1400.16
468.668	1417.99
468.877	1433.68
469.086	1482.12
469.296	1483.28
469.505	1458.29
469.715	1512.73
469.924	1464.87
470.134	1471.85
470.343	1482.31
470.552	1463.13
470.762	1456.16
470.971	1401.33
471.18	1440.27
471.39	1468.17
471.599	1429.22
471.808	1506.92
472.018	1499.56
472.227	1561.17
472.436	1588.1
472.645	1598.17
472.855	1534.04
473.064	1696.4
473.273	1649.9
473.482	1617.55
473.691	1649.32
473.901	1642.35
474.11	1579.96
474.319	1695.24
474.528	1633.82
474.737	1728.95
474.946	1696.98
475.155	1715.97
475.364	1784.17
475.573	1712.29
475.783	1789.79
475.992	1743.29
476.201	1782.43
476.41	1734.38
476.619	1669.28
476.828	1737.67
477.037	1712.87
477.245	1730.31
477.454	1757.24
477.663	1803.54
477.872	1802.38
478.081	1889.57
478.29	1805.48
478.499	1946.53
478.708	1925.02
478.917	1948.47
479.125	1847.14
479.334	1901.97
479.543	1910.11
479.752	1949.05
479.961	1945.75
480.169	1974.43
480.378	1966.29
480.587	2113.15
480.796	2014.54
481.004	2007.56
481.213	2012.99
481.422	2046.5
481.63	2049.22
481.839	2104.24
482.048	2149.96
482.256	2108.31
482.465	2147.06
482.674	2173.6
482.882	2131.95
483.091	2233.08
483.299	2136.01
483.508	2212.93
483.716	2183.29
483.925	2172.83
484.134	2109.47
484.342	2186.97
484.551	2240.83
484.759	2195.11
484.967	2225.53
485.176	2237.73
485.384	2296.82
485.593	2257.69
485.801	2212.35
486.01	2146.48
486.218	2052.32
486.426	1919.41
486.635	1927.35
486.843	1857.41
487.051	1977.14
487.26	1975.79
487.468	2020.35
487.676	2160.23
487.885	2130.01
488.093	2205.96
488.301	2260.4
488.509	2300.51
488.717	2344.68
488.926	2322.79
489.134	2285.59
489.342	2312.52
489.55	2260.01
489.758	2315.23
489.967	2345.26
490.175	2489.22
490.383	2473.91
490.591	2543.08
490.799	2475.65
491.007	2481.85
491.215	2503.36
491.423	2438.84
491.631	2471.39
491.839	2460.54
492.047	2467.32
492.255	2370.84
492.463	2323.37
492.671	2334.99
492.879	2419.66
493.087	2415.59
493.295	2456.28
493.503	2486.5
493.711	2611.86
493.919	2536.1
494.127	2528.74
494.334	2567.68
494.542	2514.98
494.75	2574.66
494.958	2546.76
495.166	2660.29
495.374	2641.89
495.581	2645.96
495.789	2652.16
495.997	2720.16
496.205	2566.71
496.412	2570.4
496.62	2566.13
496.828	2630.46
497.035	2621.35
497.243	2694.39
497.451	2674.44
497.658	2662.43
497.866	2671.73
498.074	2699.43
498.281	2634.72
498.489	2731.4
498.696	2652.74
498.904	2577.56
499.112	2561.87
499.319	2671.14
499.527	2673.28
499.734	2720.94
499.942	2660.29
500.149	2677.15
500.357	2675.99
500.564	2650.03
500.771	2655.64
500.979	2570.98
501.186	2583.96
501.394	2647.89
501.601	2575.82
501.808	2605.85
502.016	2626.2
502.223	2569.04
502.43	2607.6
502.638	2626.2
502.845	2601.78
503.052	2730.24
503.26	2681.61
503.467	2757.17
503.674	2736.24
503.881	2765.69
504.089	2777.12
504.296	2764.53
504.503	2616.31
504.71	2687.23
504.917	2666.3
505.125	2712.22
505.332	2704.86
505.539	2759.3
505.746	2868.77
505.953	2857.34
506.16	2825.75
506.367	2875.74
506.574	2934.06
506.781	2911
506.988	2874.97
507.195	2875.55
507.402	2847.84
507.609	2914.1
507.816	2796.5
508.023	2779.06
508.23	2771.12
508.437	2725.98
508.644	2824.98
508.851	2824.01
509.058	2864.12
509.265	2828.66
509.472	2855.2
509.679	2960.6
509.885	2887.37
510.092	2899.96
510.299	2874.77
510.506	2875.35
510.713	2834.67
510.92	2871.29
511.126	2880.59
511.333	2920.88
511.54	2915.46
511.746	2965.83
511.953	2935.22
512.16	3011.56
512.367	2974.36
512.573	2923.79
512.78	2950.33
512.987	2916.62
513.193	2898.22
513.4	2776.16
513.606	2869.93
513.813	2905.19
514.02	2878.84
514.226	2961.96
514.433	2920.69
514.639	2820.33
514.846	2863.73
515.052	2830.99
515.259	2845.13
515.465	2914.3
515.672	2873.03
515.878	3027.25
516.085	2939.87
516.291	2984.43
516.497	2889.89
516.704	2831.37
516.91	2802.7
517.117	2689.74
517.323	2578.34
517.529	2581.05
517.736	2612.44
517.942	2635.88
518.148	2666.11
518.354	2706.6
518.561	2737.99
518.767	2694.39
518.973	2756.59
519.179	2793.01
519.386	2783.52
519.592	2773.83
519.798	2798.82
520.004	2931.15
520.21	2901.32
520.417	2961.96
520.623	2977.07
520.829	3029.58
521.035	3024.54
521.241	2980.56
521.447	3041.01
521.653	3144.28
521.859	3070.46
522.065	3035.58
522.271	3203.56
522.477	3084.99
522.683	3208.99
522.889	3079.76
523.095	3056.7
523.301	3023.57
523.507	3031.32
523.713	3110.37
523.919	3043.33
524.125	3133.81
524.331	3151.83
524.537	3246.77
524.742	3254.13
524.948	3250.26
525.154	3296.56
525.36	3342.87
525.566	3252.39
525.772	3332.02
525.977	3218.67
526.183	3234.37
526.389	3309.54
526.595	3202.98
526.8	3170.43
527.006	3072.59
527.212	2967.97
527.417	2995.86
527.623	2970.48
527.829	3025.31
528.034	3109.21
528.24	3090.8
528.446	3171.98
528.651	3284.16
528.857	3301.02
529.062	3331.63
529.268	3384.13
529.473	3451.75
529.679	3421.33
529.884	3500.58
530.09	3464.35
530.295	3400.41
530.501	3424.82
530.706	3431.8
530.912	3397.12
531.117	3427.92
531.323	3449.81
531.528	3532.54
531.733	3549.59
531.939	3462.8
532.144	3496.9
532.35	3480.04
532.555	3501.93
532.76	3436.83
532.966	3401.57
533.171	3350.81
533.376	3254.32
533.581	3279.7
533.787	3344.8
533.992	3433.15
534.197	3390.33
534.402	3434.51
534.607	3465.51
534.813	3528.09
535.018	3429.86
535.223	3523.44
535.428	3520.14
535.633	3553.28
535.838	3585.24
536.043	3632.52
536.249	3699.36
536.454	3578.66
536.659	3615.27
536.864	3551.53
537.069	3564.9
537.274	3540.88
537.479	3560.83
537.684	3518.01
537.889	3480.81
538.094	3620.51
538.299	3516.27
538.504	3558.12
538.708	3539.91
538.913	3650.73
539.118	3581.37
539.323	3598.42
539.528	3541.65
539.733	3525.96
539.938	3556.57
540.142	3559.28
540.347	3519.76
540.552	3474.61
540.757	3450.98
540.962	3474.61
541.166	3406.22
541.371	3388.78
541.576	3454.27
541.781	3374.25
541.985	3542.81
542.19	3492.05
542.395	3614.5
542.599	3619.92
542.804	3540.68
543.008	3624.77
543.213	3539.71
543.418	3493.99
543.622	3585.44
543.827	3498.64
544.031	3587.96
544.236	3619.54
544.44	3588.93
544.645	3682.89
544.849	3590.48
545.054	3597.64
545.258	3699.55
545.463	3677.47
545.667	3589.12
545.872	3624.77
546.076	3644.53
546.281	3630.97
546.485	3641.04
546.689	3613.14
546.894	3656.35
547.098	3630.39
547.302	3658.09
547.507	3637.56
547.711	3677.27
547.915	3704.2
548.119	3553.08
548.324	3548.63
548.528	3644.92
548.732	3607.91
548.936	3666.42
549.141	3668.75
549.345	3589.7
549.549	3659.26
549.753	3668.75
549.957	3691.8
550.161	3754.39
550.366	3661
550.57	3618.76
550.774	3675.72
550.978	3676.89
551.182	3655.96
551.386	3605.39
551.59	3680.18
551.794	3621.86
551.998	3667.39
552.202	3676.89
552.406	3588.54
552.61	3693.94
552.814	3669.91
553.018	3730.75
553.222	3605.01
553.426	3631.94
553.63	3731.33
553.833	3685.8
554.037	3564.71
554.241	3646.27
554.445	3649.18
554.649	3644.53
554.853	3631.94
555.056	3732.49
555.26	3705.95
555.464	3672.24
555.668	3668.75
555.871	3703.82
556.075	3708.08
556.279	3665.65
556.483	3562.19
556.686	3584.47
556.89	3600.55
557.094	3617.02
557.297	3547.85
557.501	3607.14
557.704	3475.2
557.908	3553.66
558.112	3544.56
558.315	3585.63
558.519	3561.99
558.722	3562.38
558.926	3502.32
559.129	3419.98
559.333	3446.33
559.536	3357.59
559.74	3403.12
559.943	3354.88
560.147	3405.83
560.35	3420.95
560.553	3418.62
560.757	3360.3
560.96	3477.13
561.164	3406.03
561.367	3569.94
561.57	3481.78
561.774	3491.86
561.977	3457.18
562.18	3488.56
562.384	3587.38
562.587	3419.01
562.79	3438.19
562.993	3388.78
563.197	3407.97
563.4	3509.88
563.603	3496.9
563.806	3537.97
564.009	3398.47
564.212	3473.26
564.416	3364.57
564.619	3414.75
564.822	3328.53
565.025	3411.26
565.228	3398.08
565.431	3413.78
565.634	3270.6
565.837	3292.88
566.04	3281.25
566.243	3267.11
566.446	3174.69
566.649	3313.22
566.852	3205.5
567.055	3241.92
567.258	3316.13
567.461	3362.82
567.664	3310.9
567.867	3186.32
568.07	3280.87
568.273	3256.65
568.475	3300.05
568.678	3227.39
568.881	3292.69
569.084	3195.23
569.287	3086.93
569.489	3136.14
569.692	3177.79
569.895	3242.89
570.098	3124.71
570.3	3109.79
570.503	3107.66
570.706	3102.23
570.909	3051.08
571.111	3018.34
571.314	2998
571.516	3017.18
571.719	3062.51
571.922	3042.17
572.124	3008.46
572.327	3060.38
572.529	3003.61
572.732	3056.9
572.935	3082.28
573.137	3180.89
573.34	3132.46
573.542	3141.56
573.745	3124.9
573.947	3090.99
574.15	3073.56
574.352	3070.26
574.554	3152.8
574.757	3030.35
574.959	3029.38
575.162	3051.08
575.364	3025.7
575.566	3119.09
575.769	2963.51
575.971	2991.99
576.173	2896.09
576.376	2997.61
576.578	3057.86
576.78	3117.54
576.982	2950.14
577.185	3014.27
577.387	2967.58
577.589	2977.27
577.791	2984.82
577.993	3005.36
578.196	2983.85
578.398	2948.01
578.6	2945.88
578.802	2920.5
579.004	2895.89
579.206	2882.33
579.408	2937.35
579.61	2878.84
579.812	2963.51
580.014	2890.08
580.216	2912.36
580.418	2907.71
580.62	2907.52
580.822	2926.31
581.024	2929.41
581.226	2952.85
581.428	2888.53
581.63	3010.2
581.832	2888.34
582.034	2971.26
582.236	2947.23
582.438	2996.64
582.64	2985.21
582.841	3035.97
583.043	3038.49
583.245	2967.58
583.447	2957.89
583.649	2934.45
583.85	2928.83
584.052	2975.52
584.254	2924.18
584.456	3000.71
584.657	2900.54
584.859	2943.36
585.061	2881.75
585.262	2918.95
585.464	2844.16
585.666	2902.29
585.867	2855.98
586.069	2936.19
586.27	2869.93
586.472	2845.52
586.674	2799.02
586.875	2815.29
587.077	2820.52
587.278	2895.7
587.48	2829.05
587.681	2936.58
587.883	2850.94
588.084	2762.21
588.285	2809.29
588.487	2802.12
588.688	2776.54
588.89	2690.91
589.091	2644.41
589.292	2636.27
589.494	2572.14
589.695	2514.21
589.896	2436.13
590.098	2411.72
590.299	2515.37
590.5	2450.27
590.702	2505.68
590.903	2604.3
591.104	2629.49
591.305	2663.2
591.507	2707.96
591.708	2679.28
591.909	2642.47
592.11	2705.24
592.311	2698.27
592.512	2586.67
592.714	2597.13
592.915	2641.5
593.116	2647.31
593.317	2653.71
593.518	2662.43
593.719	2695.75
593.92	2702.92
594.121	2726.75
594.322	2703.31
594.523	2690.71
594.724	2605.08
594.925	2633.56
595.126	2636.66
595.327	2628.13
595.528	2656.81
595.729	2682.38
595.929	2647.89
596.13	2667.27
596.331	2674.63
596.532	2658.94
596.733	2708.54
596.934	2662.81
597.135	2676.76
597.335	2675.41
597.536	2600.62
597.737	2644.6
597.938	2612.05
598.138	2632.2
598.339	2624.45
598.54	2670.18
598.74	2563.03
598.941	2585.51
599.142	2691.49
599.342	2632.59
599.543	2601.78
599.744	2622.71
599.944	2599.26
600.145	2601.2
600.345	2609.73
600.546	2653.51
600.746	2646.15
600.947	2676.96
601.147	2552.18
601.348	2654.87
601.548	2557.41
601.749	2633.17
601.949	2509.17
602.15	2556.25
602.35	2551.02
602.551	2599.07
602.751	2554.32
602.951	2533.39
603.152	2470.81
603.352	2633.56
603.552	2584.54
603.753	2612.63
603.953	2624.06
604.153	2643.24
604.354	2618.25
604.554	2602.17
604.754	2610.31
604.954	2551.22
605.155	2619.41
605.355	2578.92
605.555	2655.26
605.755	2662.62
605.955	2604.11
606.155	2649.64
606.356	2612.05
606.556	2603.14
606.756	2631.04
606.956	2536.1
607.156	2611.28
607.356	2561.87
607.556	2612.44
607.756	2610.31
607.956	2660.49
608.156	2552.77
608.356	2593.26
608.556	2617.28
608.756	2518.86
608.956	2554.9
609.156	2550.83
609.356	2494.25
609.556	2539.78
609.755	2540.37
609.955	2539.4
610.155	2539.01
610.355	2522.93
610.555	2474.3
610.755	2506.46
610.954	2430.51
611.154	2505.49
611.354	2508.98
611.554	2441.17
611.753	2467.71
611.953	2453.18
612.153	2557.61
612.352	2493.28
612.552	2438.07
612.752	2390.02
612.951	2480.88
613.151	2456.86
613.351	2463.25
613.55	2470.42
613.75	2456.47
613.949	2414.04
614.149	2455.12
614.348	2406.49
614.548	2422.18
614.747	2355.53
614.947	2439.62
615.146	2350.49
615.346	2467.32
615.545	2442.91
615.745	2426.25
615.944	2444.46
616.144	2368.12
616.343	2378.78
616.542	2386.72
616.742	2340.81
616.941	2374.91
617.14	2281.71
617.34	2365.61
617.539	2379.36
617.738	2343.91
617.938	2442.33
618.137	2369.48
618.336	2321.04
618.535	2415.01
618.734	2375.68
618.934	2417.53
619.133	2410.55
619.332	2421.21
619.531	2364.06
619.73	2423.15
619.929	2460.35
620.128	2416.95
620.328	2463.25
620.527	2357.47
620.726	2423.92
620.925	2353.59
621.124	2411.91
621.323	2374.91
621.522	2295.08
621.721	2326.86
621.92	2337.12
622.119	2346.42
622.318	2335.77
622.517	2325.11
622.715	2354.37
622.914	2280.16
623.113	2333.83
623.312	2244.71
623.511	2315.42
623.71	2333.64
623.909	2251.68
624.107	2359.99
624.306	2250.91
624.505	2266.21
624.704	2246.06
624.902	2234.05
625.101	2344.29
625.3	2252.46
625.499	2210.03
625.697	2252.65
625.896	2210.61
626.095	2245.68
626.293	2196.85
626.492	2183.29
626.69	2246.26
626.889	2203.63
627.088	2254.2
627.286	2235.99
627.485	2182.13
627.683	2212.16
627.882	2207.12
628.08	2122.84
628.279	2131.56
628.477	2224.94
628.676	2120.51
628.874	2163.91
629.073	2105.6
629.271	2096.1
629.469	2169.34
629.668	2140.28
629.866	2115.67
630.065	2120.13
630.263	2125.36
630.461	2055.22
630.66	2107.92
630.858	2093.39
631.056	2160.81
631.254	2153.45
631.453	2049.41
631.651	2180.96
631.849	2093.39
632.047	2091.84
632.245	2105.79
632.444	2112.57
632.642	2115.67
632.84	2185.42
633.038	2095.52
633.236	2070.53
633.434	2097.85
633.632	2080.02
633.83	2068.78
634.028	2149.58
634.227	2097.27
634.425	2157.52
634.623	2094.17
634.821	2145.12
635.019	2106.95
635.216	2084.48
635.414	2122.84
635.612	2097.27
635.81	2092.62
636.008	2167.98
636.206	2091.26
636.404	2120.51
636.602	2083.12
636.8	2066.65
636.997	2119.35
637.195	2086.8
637.393	2113.73
637.591	2130.2
637.789	2104.43
637.986	2128.07
638.184	2116.25
638.382	2171.28
638.58	2130.2
638.777	2150.93
638.975	2133.88
639.173	2126.71
639.37	2075.95
639.568	2092.03
639.765	2096.1
639.963	2058.32
640.161	2082.73
640.358	2087.97
640.556	2005.43
640.753	2005.24
640.951	2011.05
641.148	2035.27
641.346	2026.16
641.543	2036.04
641.741	2031.78
641.938	1989.74
642.136	2003.88
642.333	1966.1
642.531	2066.07
642.728	2092.23
642.925	2058.13
643.123	1975.59
643.32	2040.3
643.517	1985.47
643.715	2005.82
643.912	2014.15
644.109	2007.17
644.306	1994.97
644.504	1925.41
644.701	2011.44
644.898	2007.75
645.095	1983.54
645.293	2013.57
645.49	1999.81
645.687	1977.72
645.884	2041.08
646.081	1907.2
646.278	1928.51
646.475	1899.45
646.672	1934.91
646.87	1930.84
647.067	1883.95
647.264	1954.67
647.461	1838.03
647.658	1830.48
647.855	1928.32
648.052	1866.9
648.249	1803.93
648.446	1885.11
648.642	1864.19
648.839	1842.88
649.036	1827.76
649.233	1837.84
649.43	1828.54
649.627	1765.57
649.824	1829.12
650.021	1773.13
650.217	1798.31
650.414	1838.23
650.611	1836.68
650.808	1862.83
651.004	1860.12
651.201	1838.23
651.398	1936.65
651.595	1855.66
651.791	1795.79
651.988	1899.45
652.185	1789.4
652.381	1857.41
652.578	1757.82
652.775	1840.36
652.971	1827.76
653.168	1791.53
653.364	1861.47
653.561	1769.64
653.757	1839.39
653.954	1882.21
654.15	1761.7
654.347	1882.01
654.543	1841.52
654.74	1746.97
654.936	1781.65
655.133	1796.57
655.329	1798.51
655.525	1780.1
655.722	1776.81
655.918	1760.15
656.115	1706.28
656.311	1583.64
656.507	1568.14
656.704	1501.49
656.9	1552.84
657.096	1536.17
657.292	1568.34
657.489	1616.58
657.685	1651.65
657.881	1628.98
658.077	1629.56
658.273	1710.93
658.47	1784.94
658.666	1716.55
658.862	1760.73
659.058	1718.1
659.254	1788.24
659.45	1718.88
659.646	1763.44
659.842	1745.23
660.038	1813.04
660.234	1750.26
660.43	1784.56
660.626	1879.49
660.822	1780.29
661.018	1822.14
661.214	1797.34
661.41	1746.97
661.606	1826.02
661.802	1822.53
661.998	1790.95
662.194	1749.68
662.39	1803.54
662.586	1782.43
662.781	1788.43
662.977	1813.23
663.173	1810.91
663.369	1791.14
663.564	1765.76
663.76	1793.28
663.956	1751.81
664.152	1802.58
664.347	1702.99
664.543	1750.65
664.739	1723.72
664.934	1693.88
665.13	1718.3
665.326	1770.8
665.521	1785.91
665.717	1741.74
665.912	1723.53
666.108	1697.56
666.304	1717.13
666.499	1711.13
666.695	1669.67
666.89	1752.98
667.086	1757.24
667.281	1784.75
667.477	1782.62
667.672	1749.1
667.867	1745.42
668.063	1739.61
668.258	1684.2
668.454	1738.25
668.649	1806.06
668.844	1727.4
669.04	1729.15
669.235	1737.28
669.43	1690.01
669.626	1664.82
669.821	1685.36
670.016	1657.46
670.211	1682.45
670.407	1677.8
670.602	1704.35
670.797	1689.43
670.992	1732.44
671.187	1671.02
671.382	1737.86
671.578	1678.58
671.773	1693.88
671.968	1615.03
672.163	1692.72
672.358	1688.65
672.553	1657.46
672.748	1673.35
672.943	1785.33
673.138	1681.1
673.333	1691.95
673.528	1621.42
673.723	1706.28
673.918	1674.32
674.113	1647.97
674.308	1744.84
674.503	1666.37
674.698	1679.93
674.892	1656.1
675.087	1674.32
675.282	1677.8
675.477	1627.04
675.672	1675.09
675.867	1644.87
676.061	1637.89
676.256	1568.14
676.451	1668.31
676.646	1666.37
676.84	1645.83
677.035	1616.19
677.23	1617.55
677.424	1663.08
677.619	1685.16
677.814	1695.63
678.008	1680.52
678.203	1598.95
678.397	1626.07
678.592	1640.02
678.787	1711.71
678.981	1644.67
679.176	1666.18
679.37	1662.5
679.565	1604.37
679.759	1608.44
679.954	1645.25
680.148	1626.27
680.342	1658.43
680.537	1624.72
680.731	1626.85
680.926	1644.67
681.12	1620.26
681.314	1579.57
681.509	1625.49
681.703	1606.7
681.897	1634.79
682.092	1598.56
682.286	1607.28
682.48	1616
682.674	1640.41
682.869	1568.72
683.063	1609.22
683.257	1630.14
683.451	1521.45
683.645	1577.05
683.839	1596.04
684.034	1565.82
684.228	1643.12
684.422	1547.8
684.616	1524.74
684.81	1574.73
685.004	1555.55
685.198	1567.95
685.392	1557.1
685.586	1569.3
685.78	1547.41
685.974	1573.18
686.168	1557.87
686.362	1587.32
686.556	1506.34
686.75	1446.27
686.944	1422.06
687.138	1411.79
687.331	1296.7
687.525	1296.31
687.719	1214.75
687.913	1281.4
688.107	1281.01
688.301	1281.98
688.494	1319.18
688.688	1296.31
688.882	1244.2
689.076	1248.26
689.269	1255.05
689.463	1354.44
689.657	1290.11
689.85	1267.25
690.044	1321.7
690.238	1332.74
690.431	1297.09
690.625	1286.05
690.818	1347.08
691.012	1359.28
691.205	1388.15
691.399	1326.73
691.593	1386.02
691.786	1412.56
691.98	1426.9
692.173	1457.12
692.366	1410.63
692.56	1461.39
692.753	1465.26
692.947	1365.29
693.14	1472.24
693.333	1464.68
693.527	1415.28
693.72	1467.97
693.914	1424.38
694.107	1381.18
694.3	1401.33
694.493	1384.47
694.687	1475.53
694.88	1426.32
695.073	1479.41
695.266	1451.7
695.46	1412.56
695.653	1493.16
695.846	1494.52
696.039	1402.68
696.232	1445.11
696.425	1483.47
696.618	1529.39
696.812	1513.89
697.005	1539.08
697.198	1638.28
697.391	1575.5
697.584	1581.9
697.777	1632.08
697.97	1618.52
698.163	1605.73
698.356	1562.33
698.549	1642.54
698.742	1645.25
698.935	1621.42
699.127	1622.2
699.32	1571.63
699.513	1595.07
699.706	1614.45
699.899	1660.56
700.092	1619.87
700.285	1638.47
700.477	1589.45
700.67	1655.13
700.863	1651.45
701.056	1729.53
701.248	1708.61
701.441	1716.94
701.634	1675.87
701.826	1801.22
702.019	1656.1
702.212	1774.29
702.404	1706.28
702.597	1672.77
702.79	1689.81
702.982	1732.44
703.175	1779.52
703.367	1793.86
703.56	1836.68
703.752	1907.2
703.945	1846.75
704.137	1858.96
704.33	1899.45
704.522	1887.05
704.715	1892.67
704.907	1953.31
705.1	1972.1
705.292	2018.6
705.484	1951.37
705.677	2000.2
705.869	1999.62
706.061	2050.96
706.254	2074.98
706.446	2047.08
706.638	2082.35
706.831	2143.18
707.023	2092.81
707.215	2210.41
707.407	2177.09
707.599	2169.34
707.792	2252.46
707.984	2246.06
708.176	2252.65
708.368	2206.15
708.56	2246.26
708.752	2276.09
708.944	2290.82
709.136	2324.53
709.329	2269.7
709.521	2400.09
709.713	2376.84
709.905	2368.51
710.097	2452.79
710.289	2355.14
710.481	2445.43
710.672	2456.09
710.864	2483.4
711.056	2524.09
711.248	2489.99
711.44	2503.75
711.632	2507.23
711.824	2550.63
712.016	2630.85
712.207	2605.85
712.399	2605.46
712.591	2668.82
712.783	2692.07
712.975	2681.22
713.166	2637.43
713.358	2698.85
713.55	2730.43
713.741	2718.23
713.933	2730.24
714.125	2750.77
714.316	2726.36
714.508	2848.81
714.7	2822.27
714.891	2822.27
715.083	2898.41
715.274	2805.8
715.466	2877.29
715.657	2904.03
715.849	2833.12
716.04	2864.5
716.232	2829.05
716.423	2877.29
716.615	2792.43
716.806	2798.05
716.998	2713.77
717.189	2691.29
717.381	2581.05
717.572	2557.22
717.763	2521.38
717.955	2536.68
718.146	2501.23
718.337	2459.19
718.528	2425.67
718.72	2343.13
718.911	2442.14
719.102	2393.31
719.293	2449.3
719.485	2430.9
719.676	2421.02
719.867	2354.56
720.058	2396.41
720.249	2405.52
720.44	2385.56
720.632	2519.83
720.823	2540.75
721.014	2706.21
721.205	2717.06
721.396	2804.25
721.587	2918.17
721.778	2929.02
721.969	2970.68
722.16	3058.25
722.351	3087.7
722.542	3179.15
722.733	3214.41
722.924	3145.63
723.115	3197.56
723.305	3164.81
723.496	3236.31
723.687	3054.18
723.878	3109.79
724.069	3049.34
724.26	3120.44
724.45	3018.15
724.641	3013.5
724.832	3045.08
725.023	3056.9
725.213	3068.33
725.404	3082.86
725.595	3025.9
725.785	3032.48
725.976	3113.08
726.167	3093.9
726.357	3115.6
726.548	3297.72
726.739	3150.67
726.929	3233.98
727.12	3264.4
727.31	3251.61
727.501	3233.98
727.691	3259.17
727.882	3268.47
728.072	3326.2
728.263	3333.37
728.453	3388.98
728.644	3417.46
728.834	3382.97
729.024	3322.52
729.215	3311.87
729.405	3384.52
729.596	3461.25
729.786	3498.64
729.976	3504.65
730.167	3511.81
730.357	3534.09
730.547	3521.31
730.737	3542.62
730.928	3587.96
731.118	3667.78
731.308	3570.71
731.498	3598.03
731.688	3740.44
731.879	3717.77
732.069	3766.2
732.259	3847.38
732.449	3848.74
732.639	3955.49
732.829	3940.96
733.019	3969.83
733.209	4081.24
733.399	4064.19
733.589	4173.27
733.779	4210.47
733.969	4142.65
734.159	4239.92
734.349	4312.57
734.539	4367.21
734.729	4416.61
734.919	4406.34
735.109	4448.78
735.299	4369.73
735.488	4376.12
735.678	4387.16
735.868	4423.39
736.058	4408.28
736.248	4406.15
736.437	4379.41
736.627	4385.23
736.817	4521.82
737.007	4448.58
737.196	4520.66
737.386	4531.89
737.576	4453.81
737.765	4565.8
737.955	4525.31
738.144	4639.62
738.334	4575.1
738.524	4549.72
738.713	4598.15
738.903	4556.11
739.092	4654.15
739.282	4655.5
739.471	4641.75
739.661	4601.45
739.85	4664.61
740.04	4671.39
740.229	4680.5
740.419	4713.82
740.608	4739.2
740.797	4706.27
740.987	4794.23
741.176	4756.64
741.365	4695.42
741.555	4704.91
741.744	4804.3
741.933	4706.27
742.123	4807.6
742.312	4803.14
742.501	4883.16
742.69	4904.47
742.88	4738.23
743.069	4906.41
743.258	4858.55
743.447	4918.42
743.636	4844.79
743.825	4809.53
744.014	4938.37
744.204	4959.69
744.393	4860.29
744.582	5002.89
744.771	4967.63
744.96	4950.77
745.149	4977.9
745.338	4946.32
745.527	4974.99
745.716	4987.2
745.905	4944.77
746.094	5052.49
746.283	5050.17
746.471	4979.26
746.66	5012.39
746.849	5071.48
747.038	5055.79
747.227	5026.14
747.416	5007.74
747.604	5009.48
747.793	4976.93
747.982	5074
748.171	5050.75
748.359	5008.12
748.548	5043.19
748.737	4978.67
748.926	5008.9
749.114	4892.26
749.303	5047.26
749.491	5002.5
749.68	4890.33
749.869	4985.84
750.057	4968.79
750.246	4959.88
750.434	4927.52
750.623	4952.52
750.811	4899.63
751	4953.29
751.188	4957.75
751.377	4957.36
751.565	4943.8
751.754	4902.34
751.942	4891.68
752.131	4967.24
752.319	4912.03
752.507	4906.6
752.696	4941.09
752.884	4945.93
753.072	4921.91
753.261	4958.14
753.449	4918.81
753.637	4853.9
753.825	4990.11
754.014	4891.1
754.202	4961.82
754.39	4940.7
754.578	4969.37
754.766	4874.63
754.955	4835.69
755.143	4970.92
755.331	4877.93
755.519	4886.64
755.707	4855.84
755.895	4856.03
756.083	4840.73
756.271	4810.89
756.459	4815.73
756.647	4858.16
756.835	4817.09
757.023	4826.78
757.211	4829.49
757.399	4794.03
757.587	4838.98
757.775	4741.14
757.963	4774.85
758.151	4776.79
758.339	4733
758.526	4714.02
758.714	4767.3
758.902	4651.05
759.09	4563.09
759.278	4320.13
759.465	4078.52
759.653	3695.68
759.841	3411.84
760.028	2961.77
760.216	2611.08
760.404	2462.09
760.591	2159.46
760.779	1824.28
760.967	1682.84
761.154	1464.87
761.342	1520.09
761.529	1536.17
761.717	1609.02
761.905	1635.57
762.092	1798.51
762.28	1746.58
762.467	1792.89
762.655	1725.85
762.842	1750.46
763.029	1814.78
763.217	1826.41
763.404	1787.08
763.592	1857.02
763.779	1817.49
763.966	1863.41
764.154	1952.92
764.341	2002.52
764.528	2045.53
764.716	2101.14
764.903	2165.85
765.09	2244.71
765.277	2301.09
765.465	2499.68
765.652	2547.92
765.839	2634.91
766.026	2784.49
766.213	2807.74
766.4	2960.8
766.588	3146.02
766.775	3250.84
766.962	3296.75
767.149	3357.78
767.336	3526.73
767.523	3518.59
767.71	3619.15
767.897	3786.55
768.084	3843.12
768.271	3889.81
768.458	3959.56
768.645	4013.62
768.832	3979.71
769.019	4005.29
769.206	4023.69
769.392	4159.32
769.579	4193.22
769.766	4186.25
769.953	4140.91
770.14	4181.79
770.327	4188.96
770.513	4231
770.7	4301.92
770.887	4220.73
771.073	4259.68
771.26	4259.1
771.447	4172.88
771.634	4209.89
771.82	4330.4
772.007	4174.62
772.193	4273.43
772.38	4254.06
772.567	4247.86
772.753	4229.84
772.94	4290.68
773.126	4268.2
773.313	4251.54
773.499	4295.13
773.686	4278.28
773.872	4144.4
774.059	4284.67
774.245	4176.56
774.432	4212.79
774.618	4111.46
774.804	4169.78
774.991	4131.42
775.177	4162.42
775.363	4111.46
775.55	4160.29
775.736	4109.52
775.922	4152.34
776.109	4125.8
776.295	4132.58
776.481	4170.55
776.667	4109.72
776.853	4057.21
777.04	4104.49
777.226	4101
777.412	4165.9
777.598	4076.2
777.784	4089.57
777.97	3996.76
778.156	4019.04
778.342	4043.26
778.528	4010.33
778.715	3983.01
778.901	3996.76
779.087	4000.06
779.272	3997.54
779.458	3983.2
779.644	3914.23
779.83	3938.64
780.016	4031.25
780.202	3944.65
780.388	3988.24
780.574	3854.36
780.76	3867.73
780.946	3956.46
781.131	3882.45
781.317	3889.81
781.503	3855.33
781.689	3930.31
781.874	4018.46
782.06	3876.25
782.246	3883.61
782.432	3837.12
782.617	3886.13
782.803	3913.26
782.989	3802.82
783.174	3809.6
783.36	3761.17
783.545	3792.75
783.731	3768.53
783.916	3697.81
784.102	3785
784.288	3734.04
784.473	3783.45
784.659	3699.17
784.844	3775.89
785.029	3721.84
785.215	3739.85
785.4	3673.79
785.586	3800.11
785.771	3680.96
785.956	3749.35
786.142	3701.3
786.327	3689.48
786.512	3695.87
786.698	3644.53
786.883	3622.83
787.068	3613.53
787.254	3666.23
787.439	3616.63
787.624	3581.18
787.809	3592.8
787.994	3563.16
788.18	3639.3
788.365	3531.96
788.55	3511.43
788.735	3561.61
788.92	3550.95
789.105	3524.6
789.29	3543.59
789.475	3443.42
789.66	3505.23
789.845	3395.57
790.03	3440.13
790.215	3485.08
790.4	3493.99
790.585	3518.79
790.77	3484.5
790.955	3419.2
791.14	3425.6
791.325	3500.96
791.51	3323.1
791.695	3438.38
791.879	3377.93
792.064	3373.09
792.249	3503.68
792.434	3378.9
792.618	3397.7
792.803	3500.38
792.988	3424.63
793.173	3426.57
793.357	3459.31
793.542	3316.32
793.727	3391.69
793.911	3396.73
794.096	3377.55
794.281	3439.74
794.465	3491.28
794.65	3391.69
794.834	3469.38
795.019	3478.1
795.203	3484.11
795.388	3467.45
795.572	3505.61
795.757	3457.18
795.941	3457.37
796.126	3465.31
796.31	3373.28
796.494	3436.45
796.679	3415.91
796.863	3388.78
797.048	3519.18
797.232	3423.27
797.416	3470.74
797.601	3484.88
797.785	3560.64
797.969	3509.3
798.153	3459.89
798.338	3520.73
798.522	3512.2
798.706	3517.43
798.89	3497.28
799.074	3590.86
799.258	3532.54
799.443	3529.25
799.627	3511.81
799.811	3566.26
799.995	3509.88
800.179	3451.75
800.363	3450.4
800.547	3475
800.731	3507.75
800.915	3436.64
801.099	3417.07
801.283	3480.43
801.467	3501.93
801.651	3433.73
801.835	3528.67
802.019	3526.34
802.202	3543.39
802.386	3448.65
802.57	3429.47
802.754	3431.8
802.938	3423.66
803.121	3416.1
803.305	3519.95
803.489	3457.76
803.673	3509.49
803.856	3521.11
804.04	3439.74
804.224	3500.58
804.407	3450.2
804.591	3458.73
804.775	3444.97
804.958	3472.87
805.142	3531.38
805.326	3451.95
805.509	3458.92
805.693	3506
805.876	3516.66
806.06	3408.74
806.243	3510.65
806.427	3505.81
806.61	3510.26
806.794	3477.71
806.977	3491.08
807.16	3469
807.344	3522.08
807.527	3450.2
807.71	3497.48
807.894	3427.34
808.077	3488.76
808.26	3425.79
808.444	3371.93
808.627	3484.69
808.81	3388.78
808.993	3303.92
809.177	3348.48
809.36	3385.1
809.543	3392.47
809.726	3278.74
809.909	3273.5
810.092	3271.37
810.276	3286.29
810.459	3261.1
810.642	3261.1
810.825	3200.27
811.008	3216.54
811.191	3139.24
811.374	3168.69
811.557	3178.37
811.74	3216.35
811.923	3162.88
812.106	3112.11
812.289	3072.4
812.472	3099.52
812.654	3079.56
812.837	3042.36
813.02	2993.15
813.203	2989.28
813.386	2859.08
813.569	2840.87
813.751	2767.44
813.934	2817.42
814.117	2764.14
814.3	2737.79
814.482	2641.11
814.665	2606.05
814.848	2593.06
815.03	2508.59
815.213	2506.85
815.396	2525.06
815.578	2480.11
815.761	2446.98
815.943	2463.25
816.126	2387.3
816.309	2332.09
816.491	2315.42
816.674	2201.31
816.856	2288.69
817.039	2260.79
817.221	2336.16
817.403	2266.79
817.586	2284.23
817.768	2349.91
817.951	2252.65
818.133	2202.86
818.315	2229.79
818.498	2299.34
818.68	2308.26
818.862	2309.61
819.045	2346.23
819.227	2311.74
819.409	2269.31
819.591	2323.17
819.774	2275.9
819.956	2258.08
820.138	2368.12
820.32	2303.8
820.502	2420.82
820.684	2482.24
820.866	2466.74
821.048	2501.23
821.231	2538.82
821.413	2526.61
821.595	2476.23
821.777	2543.27
821.959	2527.77
822.141	2566.33
822.323	2440
822.505	2351.46
822.686	2343.13
822.868	2202.47
823.05	2083.12
823.232	2050.96
823.414	1992.84
823.596	2054.25
823.778	2041.85
823.96	2078.08
824.141	2057.55
824.323	2050.96
824.505	2178.45
824.687	2238.7
824.868	2285.98
825.05	2364.25
825.232	2426.83
825.413	2470.81
825.595	2444.85
825.777	2372.39
825.958	2433.8
826.14	2415.4
826.321	2449.11
826.503	2403.58
826.685	2449.3
826.866	2440.78
827.048	2453.76
827.229	2399.32
827.411	2389.63
827.592	2300.7
827.773	2326.66
827.955	2276.09
828.136	2254.98
828.318	2218.94
828.499	2266.02
828.68	2177.86
828.862	2235.99
829.043	2231.34
829.224	2211.19
829.406	2161.78
829.587	2160.23
829.768	2186.39
829.949	2218.94
830.131	2154.03
830.312	2231.53
830.493	2200.92
830.674	2228.63
830.855	2189.1
831.036	2204.6
831.218	2241.99
831.399	2255.56
831.58	2235.02
831.761	2211.96
831.942	2215.26
832.123	2188.13
832.304	2134.66
832.485	2126.91
832.666	2189.3
832.847	2179.22
833.028	2170.11
833.209	2163.72
833.389	2187.16
833.57	2094.55
833.751	2129.62
833.932	2205.76
834.113	2143.57
834.294	2142.6
834.475	2201.89
834.655	2234.05
834.836	2268.54
835.017	2221.26
835.198	2144.93
835.378	2175.93
835.559	2260.01
835.74	2179.41
835.92	2196.66
836.101	2149
836.281	2236.38
836.462	2226.88
836.643	2267.96
836.823	2281.52
837.004	2235.21
837.184	2296.24
837.365	2248.39
837.545	2264.47
837.726	2214.48
837.906	2293.53
838.087	2278.23
838.267	2213.9
838.448	2195.11
838.628	2217.78
838.808	2229.59
838.989	2278.81
839.169	2177.67
839.349	2230.37
839.53	2295.08
839.71	2248.97
839.89	2204.6
840.07	2260.01
840.251	2212.54
840.431	2289.66
840.611	2198.6
840.791	2208.48
840.971	2222.04
841.151	2195.88
841.332	2177.86
841.512	2241.41
841.692	2136.21
841.872	2228.24
842.052	2199.95
842.232	2228.63
842.412	2123.03
842.592	2146.67
842.772	2214.29
842.952	2202.47
843.132	2155
843.312	2149.77
843.492	2138.53
843.672	2172.63
843.851	2103.85
844.031	2113.54
844.211	2139.31
844.391	2102.3
844.571	2123.61
844.751	2143.76
844.93	2133.69
845.11	2105.98
845.29	2138.15
845.47	2143.96
845.649	2125.75
845.829	2138.53
846.009	2061.42
846.188	2129.04
846.368	2142.99
846.547	2116.25
846.727	2153.26
846.907	2039.33
847.086	2102.69
847.266	2153.45
847.445	2085.83
847.625	2075.95
847.804	2058.13
847.984	2083.7
848.163	2055.22
848.343	2049.8
848.522	2011.82
848.701	2069.37
848.881	2025
849.06	2030.62
849.239	2042.63
849.419	1995.74
849.598	1984.7
849.777	1929.29
849.957	1918.82
850.136	1881.43
850.315	1862.83
850.494	1845.78
850.674	1860.51
850.853	1960.48
851.032	1882.01
851.211	1976.75
851.39	1896.35
851.569	1887.44
851.748	1882.79
851.927	1967.45
852.107	1905.07
852.286	1860.89
852.465	1893.44
852.644	1915.53
852.823	1899.45
853.002	1917.86
853.181	1904.87
853.359	1907.78
853.538	1831.06
853.717	1898.48
853.896	1787.27
854.075	1723.72
854.254	1665.21
854.433	1592.36
854.611	1641.77
854.79	1574.34
854.969	1651.65
855.148	1702.21
855.327	1642.35
855.505	1720.43
855.684	1671.8
855.863	1726.82
856.041	1708.61
856.22	1764.8
856.399	1736.7
856.577	1836.29
856.756	1838.42
856.934	1925.02
857.113	1910.11
857.291	1799.67
857.47	1768.09
857.648	1824.08
857.827	1827.76
858.005	1850.24
858.184	1759.18
858.362	1888.6
858.541	1800.83
858.719	1848.88
858.898	1786.69
859.076	1779.71
859.254	1861.28
859.433	1778.74
859.611	1829.89
859.789	1714.61
859.967	1839.58
860.146	1865.35
860.324	1748.13
860.502	1762.08
860.68	1723.53
860.859	1748.33
861.037	1720.23
861.215	1759.18
861.393	1763.44
861.571	1728.18
861.749	1699.31
861.927	1737.86
862.105	1765.57
862.283	1726.63
862.461	1714.42
862.639	1662.88
862.817	1706.09
862.995	1738.45
863.173	1704.54
863.351	1675.28
863.529	1719.46
863.707	1734.18
863.885	1707.25
864.063	1643.51
864.241	1697.76
864.418	1746
864.596	1664.24
864.774	1648.16
864.952	1655.33
865.129	1704.93
865.307	1630.92
865.485	1573.37
865.663	1664.82
865.84	1587.9
866.018	1604.37
866.196	1435.04
866.373	1494.71
866.551	1411.21
866.728	1361.22
866.906	1401.91
867.084	1435.81
867.261	1462.94
867.439	1497.23
867.616	1521.84
867.794	1515.64
867.971	1519.32
868.149	1523.19
868.326	1539.47
868.503	1556.32
868.681	1568.14
868.858	1525.9
869.035	1523.19
869.213	1584.61
869.39	1512.15
869.567	1616.38
869.745	1558.07
869.922	1533.27
870.099	1543.73
870.276	1593.91
870.454	1556.71
870.631	1545.86
870.808	1519.9
870.985	1549.35
871.162	1585.77
871.339	1561.94
871.517	1482.12
871.694	1486.38
871.871	1505.76
872.048	1473.79
872.225	1496.65
872.402	1510.6
872.579	1472.82
872.756	1510.79
872.933	1474.95
873.11	1465.26
873.287	1501.69
873.463	1448.21
873.64	1452.47
873.817	1453.25
873.994	1437.75
874.171	1445.11
874.348	1462.94
874.524	1407.91
874.701	1432.52
874.878	1380.59
875.055	1433.29
875.231	1424.57
875.408	1468.36
875.585	1379.63
875.762	1415.47
875.938	1397.45
876.115	1389.7
876.291	1392.03
876.468	1383.89
876.645	1381.18
876.821	1367.42
876.998	1376.91
877.174	1383.5
877.351	1388.73
877.527	1324.8
877.704	1367.42
877.88	1385.63
878.057	1382.53
878.233	1410.04
878.409	1358.89
878.586	1395.13
878.762	1367.61
878.938	1352.11
879.115	1282.36
879.291	1316.85
879.467	1269.96
879.644	1282.75
879.82	1366.26
879.996	1305.42
880.172	1274.23
880.349	1324.02
880.525	1339.13
880.701	1264.93
880.877	1301.93
881.053	1294.18
881.229	1277.91
881.405	1338.55
881.581	1285.85
881.757	1276.36
881.933	1327.12
882.109	1314.72
882.285	1306.2
882.461	1258.34
882.637	1292.05
882.813	1275
882.989	1253.11
883.165	1361.22
883.341	1260.08
883.517	1338.36
883.693	1311.43
883.869	1313.36
884.044	1280.23
884.22	1323.63
884.396	1297.67
884.572	1306.58
884.747	1346.11
884.923	1301.16
885.099	1311.43
885.275	1310.26
885.45	1262.21
885.626	1287.98
885.801	1265.7
885.977	1257.95
886.153	1209.32
886.328	1293.99
886.504	1237.42
886.679	1292.05
886.855	1245.17
887.03	1264.54
887.206	1314.91
887.381	1267.45
887.557	1253.3
887.732	1285.85
887.908	1285.27
888.083	1306
888.258	1259.89
888.434	1295.35
888.609	1262.8
888.784	1301.55
888.96	1238.19
889.135	1300.19
889.31	1258.34
889.485	1292.05
889.661	1274.03
889.836	1306.97
890.011	1302.71
890.186	1263.57
890.361	1246.91
890.537	1285.08
890.712	1320.15
890.887	1301.55
891.062	1264.73
891.237	1310.26
891.412	1228.7
891.587	1302.32
891.762	1291.08
891.937	1316.27
892.112	1239.93
892.287	1240.71
892.462	1225.02
892.637	1196.73
892.812	1178.52
892.987	1219.98
893.161	1173.09
893.336	1201.57
893.511	1192.47
893.686	1207.58
893.861	1183.17
894.035	1193.05
894.21	1203.12
894.385	1133.57
894.56	1163.98
894.734	1111.67
894.909	1116.13
895.084	1084.74
895.258	1070.6
895.433	1112.06
895.608	1080.48
895.782	1039.6
895.957	1055.1
896.131	1000.85
896.306	982.06
896.48	981.67
896.655	965.39
896.829	911.34
897.004	913.66
897.178	945.24
897.353	905.91
897.527	950.48
897.701	940.59
897.876	885.18
898.05	997.17
898.224	947.38
898.399	961.33
898.573	904.75
898.747	809.81
898.921	859.22
899.096	758.67
899.27	763.12
899.444	758.67
899.618	801.68
899.792	795.87
899.967	830.93
900.141	838.68
900.315	801.87
900.489	830.93
900.663	825.51
900.837	794.51
901.011	765.25
901.185	891.19
901.359	804
901.533	825.7
901.707	806.13
901.881	788.31
902.055	768.55
902.229	823.57
902.403	864.65
902.576	817.56
902.75	804.2
902.924	945.44
903.098	875.88
903.272	963.07
903.446	1000.46
903.619	913.47
903.793	993.29
903.967	985.16
904.14	1028.94
904.314	997.75
904.488	969.85
904.661	1011.31
904.835	977.79
905.009	1032.43
905.182	1061.88
905.356	1004.34
905.529	993.68
905.703	949.51
905.876	946.41
906.05	905.91
906.223	912.11
906.397	857.67
906.57	832.68
906.744	792.96
906.917	838.3
907.09	829.96
907.264	819.89
907.437	791.99
907.61	717.98
907.784	749.17
907.957	788.89
908.13	734.83
908.304	782.11
908.477	691.82
908.65	737.93
908.823	695.31
908.996	787.92
909.17	708.49
909.343	688.14
909.516	726.89
909.689	701.12
909.862	689.89
910.035	694.54
910.208	698.6
910.381	703.64
910.554	780.17
910.727	721.08
910.9	666.83
911.073	685.62
911.246	764.28
911.419	798.19
911.592	748.78
911.765	692.79
911.938	706.55
912.11	698.6
912.283	724.76
912.456	749.75
912.629	727.67
912.802	705.58
912.974	649.39
913.147	627.89
913.32	555.42
913.493	593.59
913.665	623.24
913.838	625.95
914.01	616.65
914.183	644.55
914.356	626.53
914.528	682.33
914.701	716.04
914.873	677.29
915.046	621.69
915.218	610.64
915.391	551.36
915.563	541.09
915.736	599.99
915.908	646.87
916.081	606.19
916.253	601.15
916.425	626.92
916.598	680.2
916.77	622.27
916.942	606.96
917.115	560.07
917.287	614.52
917.459	550.58
917.632	536.63
917.804	502.73
917.976	585.84
918.148	566.66
918.32	606.57
918.493	636.02
918.665	672.64
918.837	614.32
919.009	671.48
919.181	688.53
919.353	655.2
919.525	635.64
919.697	593.4
919.869	638.93
920.041	686.59
920.213	764.67
920.385	704.03
920.557	667.8
920.729	684.46
920.901	655.98
921.073	641.64
921.244	622.46
921.416	658.5
921.588	649.59
921.76	602.12
921.932	680.59
922.103	636.22
922.275	613.94
922.447	641.84
922.619	566.08
922.79	648.42
922.962	604.44
923.134	653.46
923.305	589.14
923.477	574.02
923.648	549.03
923.82	579.45
923.991	533.53
924.163	539.34
924.335	575.96
924.506	562.98
924.677	603.67
924.849	520.55
925.02	552.13
925.192	597.66
925.363	561.62
925.535	549.22
925.706	543.99
925.877	590.69
926.049	514.35
926.22	568.02
926.391	558.33
926.562	589.72
926.734	545.74
926.905	584.49
927.076	483.16
927.247	538.38
927.419	497.3
927.59	468.43
927.761	473.28
927.932	457.97
928.103	468.82
928.274	434.72
928.445	397.52
928.616	439.37
928.787	437.43
928.958	429.49
929.129	421.55
929.3	386.86
929.471	373.3
929.642	305.3
929.813	280.89
929.984	368.85
930.155	270.62
930.326	349.67
930.496	282.24
930.667	252.02
930.838	305.68
931.009	232.84
931.18	282.05
931.35	247.17
931.521	256.09
931.692	192.73
931.863	147.97
932.033	197.77
932.204	199.9
932.374	186.72
932.545	150.3
932.716	223.34
932.886	217.72
933.057	129.96
933.227	130.92
933.398	209.59
933.568	113.68
933.739	77.26
933.909	119.88
934.08	160.18
934.25	50.91
934.421	86.75
934.591	119.49
934.761	91.21
934.932	79.19
935.102	114.65
935.272	101.86
935.443	81.13
935.613	106.9
935.783	133.83
935.953	77.26
936.123	231.29
936.294	61.76
936.464	46.26
936.634	108.45
936.804	76.87
936.974	48.19
937.144	110
937.314	97.6
937.484	70.28
937.655	70.28
937.825	147.97
937.995	78.61
938.165	122.59
938.334	82.1
938.504	122.01
938.674	119.88
938.844	135.77
939.014	181.88
939.184	177.04
939.354	222.76
939.524	223.34
939.694	136.74
939.863	170.45
940.033	234
940.203	206.87
940.373	182.46
940.542	208.04
940.712	159.99
940.882	187.89
941.051	218.3
941.221	173.16
941.391	200.48
941.56	171.22
941.73	144.29
941.899	243.3
942.069	174.32
942.238	182.46
942.408	125.5
942.577	185.37
942.747	145.46
942.916	104.38
943.086	100.89
943.255	153.79
943.425	170.45
943.594	128.21
943.763	69.89
943.933	103.03
944.102	56.53
944.271	108.84
944.441	139.84
944.61	108.06
944.779	114.84
944.948	194.47
945.117	71.83
945.287	112.13
945.456	76.48
945.625	93.53
945.794	114.26
945.963	131.51
946.132	145.65
946.301	103.22
946.47	136.54
946.639	83.46
946.808	96.83
946.977	133.06
947.146	168.71
947.315	108.26
947.484	173.36
947.653	128.99
947.822	75.51
947.991	80.74
948.16	205.32
948.329	174.71
948.498	131.89
948.666	161.15
948.835	152.82
949.004	74.35
949.173	73.77
949.341	142.55
949.51	140.03
949.679	168.51
949.847	152.04
950.016	178.39
950.185	200.29
950.353	124.92
950.522	155.53
950.69	180.52
950.859	129.76
951.028	163.28
951.196	134.8
951.365	102.06
951.533	105.54
951.701	142.16
951.87	128.21
952.038	82.88
952.207	106.13
952.375	171.22
952.543	110.19
952.712	116.01
952.88	104.38
953.048	183.04
953.217	143.91
953.385	118.72
953.553	171.42
953.721	89.85
953.89	107.68
954.058	65.05
954.226	92.18
954.394	123.95
954.562	49.74
954.73	108.06
954.898	112.71
955.067	128.41
955.235	109.22
955.403	147.97
955.571	190.79
955.739	138.09
955.907	80.16
956.075	106.51
956.243	64.08
956.41	136.54
956.578	94.31
956.746	63.11
956.914	103.8
957.082	140.61
957.25	121.62
957.418	78.03
957.585	129.96
957.753	168.32
957.921	95.66
958.089	130.54
958.256	143.91
958.424	149.14
958.592	118.91
958.759	73.19
958.927	159.21
959.095	92.95
959.262	106.9
959.43	119.49
959.597	101.48
959.765	137.32
959.932	101.48
960.1	149.33
960.267	133.44
960.435	129.57
960.602	165.61
960.77	83.07
960.937	56.14
961.104	125.31
961.272	78.03
961.439	108.26
961.606	107.48
961.774	128.02
961.941	113.49
962.108	137.51
962.275	130.15
962.443	148.56
962.61	145.26
962.777	197.96
962.944	167.74
963.111	134.22
963.278	137.9
963.446	129.18
963.613	126.08
963.78	159.02
963.947	147.59
964.114	145.46
964.281	220.05
964.448	147.97
964.615	122.98
964.782	138.67
964.949	160.37
965.116	124.92
965.282	180.91
965.449	139.84
965.616	103.61
965.783	172.97
965.95	149.72
966.117	111.36
966.283	132.47
966.45	153.4
966.617	140.81
966.784	205.9
966.95	143.71
967.117	185.37
967.284	116.59
967.45	117.56
967.617	191.18
967.784	181.69
967.95	198.54
968.117	143.71
968.283	167.35
968.45	242.91
968.616	172
968.783	188.27
968.949	153.01
969.116	210.36
969.282	156.5
969.449	142.74
969.615	149.72
969.781	113.49
969.948	121.04
970.114	112.91
970.28	204.94
970.447	149.72
970.613	194.47
970.779	164.64
970.945	196.6
971.112	152.43
971.278	157.27
971.444	143.71
971.61	204.16
971.776	166.38
971.942	190.99
972.108	196.6
972.275	159.21
972.441	158.05
972.607	220.82
972.773	106.9
972.939	187.11
973.105	148.56
973.271	110.19
973.437	132.86
973.602	142.55
973.768	159.21
973.934	129.76
974.1	164.64
974.266	90.82
974.432	154.56
974.598	137.51
974.763	155.92
974.929	128.99
975.095	204.35
975.261	112.13
975.426	85.39
975.592	132.47
975.758	209.78
975.923	84.23
976.089	108.84
976.255	170.26
976.42	137.51
976.586	135.57
976.751	150.88
976.917	230.7
977.082	165.41
977.248	83.07
977.413	52.84
977.579	106.13
977.744	144.87
977.91	89.27
978.075	85.98
978.24	155.34
978.406	124.72
978.571	109.22
978.736	93.53
978.902	140.22
979.067	96.24
979.232	66.41
979.397	127.82
979.563	186.34
979.728	108.45
979.893	144.49
980.058	112.13
980.223	147.2
980.388	137.9
980.554	105.54
980.719	103.8
980.884	147.59
981.049	177.04
981.214	103.03
981.379	165.61
981.544	94.5
981.709	115.81
981.874	90.24
982.039	97.41
982.204	115.81
982.368	122.21
982.533	106.9
982.698	159.41
982.863	159.99
983.028	97.6
983.193	134.99
983.357	117.17
983.522	125.5
983.687	103.22
983.852	110.39
984.016	89.85
984.181	139.06
984.346	145.65
984.51	156.11
984.675	121.04
984.839	159.99
985.004	155.14
985.168	162.31
985.333	127.82
985.498	94.69
985.662	145.07
985.827	155.34
985.991	130.34
986.155	112.91
986.32	146.23
986.484	170.64
986.649	157.27
986.813	45.29
986.977	140.03
987.142	132.09
987.306	68.15
987.47	114.46
987.634	120.07
987.799	113.29
987.963	128.21
988.127	165.41
988.291	195.06
988.455	122.01
988.62	81.13
988.784	124.92
988.948	111.94
989.112	104.19
989.276	142.36
989.44	130.92
989.604	74.35
989.768	120.07
989.932	200.48
990.096	69.7
990.26	67.57
990.424	81.91
990.588	100.31
990.752	168.51
990.915	139.45
991.079	73.19
991.243	90.24
991.407	134.99
991.571	97.79
991.734	125.89
991.898	139.06
992.062	206.1
992.226	119.49
992.389	87.14
992.553	56.53
992.717	80.36
992.88	85.2
993.044	85.2
993.207	80.94
993.371	120.66
993.535	112.91
993.698	93.34
993.862	120.66
994.025	142.16
994.189	123.17
994.352	118.33
994.515	110.97
994.679	141
994.842	81.71
995.006	122.59
995.169	63.31
995.332	86.36
995.496	107.87
995.659	40.83
995.822	86.94
995.985	96.44
996.149	157.27
996.312	96.05
996.475	155.34
996.638	80.94
996.801	152.04
996.964	162.89
997.128	82.29
997.291	78.23
997.454	114.26
997.617	47.42
997.78	97.6
997.943	49.94
998.106	122.59
998.269	76.29
998.432	78.03
998.595	106.51
998.758	29.21
998.92	51.1
999.083	22.43
999.246	68.93
999.409	45.87
999.572	32.69
999.735	72.99
999.897	93.53
1000.06	49.94
1000.223	66.6
1000.386	98.18
1000.548	107.87
1000.711	116.01
1000.874	100.51
1001.036	29.98
1001.199	120.46
1001.361	78.61
1001.524	80.94
1001.687	99.54
1001.849	31.34
1002.012	82.29
1002.174	79.19
1002.337	97.79
1002.499	42.38
1002.661	87.91
1002.824	35.02
1002.986	48.58
1003.149	72.99
1003.311	54.01
1003.473	131.31
1003.636	28.43
1003.798	103.22
1003.96	90.24
1004.123	61.37
1004.285	66.79
1004.447	85.59
1004.609	62.34
1004.771	128.79
1004.933	24.94
1005.096	29.59
1005.258	9.64
1005.42	25.14
1005.582	105.16
1005.744	103.22
1005.906	33.86
1006.068	56.14
1006.23	27.66
1006.392	4.99
1006.554	39.86
1006.716	100.51
1006.878	97.6
1007.04	40.44
1007.202	33.66
1007.363	65.05
1007.525	63.5
1007.687	91.01
1007.849	90.24
1008.011	-5.47
1008.172	29.98
1008.334	65.05
1008.496	64.47
1008.658	10.61
1008.819	26.11
1008.981	30.76
1009.143	27.85
1009.304	25.72
1009.466	67.96
1009.627	115.62
1009.789	152.24
1009.95	48.97
1010.112	40.64
1010.273	76.29
1010.435	31.34
1010.596	31.14
1010.758	47.81
1010.919	31.73
1011.081	3.25
1011.242	50.71
1011.403	61.18
1011.565	53.43
1011.726	61.37
1011.887	28.63
1012.049	19.13
1012.21	81.71
1012.371	118.72
1012.532	-39.96
1012.693	61.37
1012.855	25.14
1013.016	55.75
1013.177	63.31
1013.338	36.18
1013.499	115.42
1013.66	63.69
1013.821	77.06
1013.982	38.51
1014.143	38.89
1014.304	25.72
1014.465	77.06
1014.626	57.3
1014.787	18.36
1014.948	135.19
1015.109	-14.58
1015.27	84.62
1015.431	13.51
1015.592	5.18
1015.752	76.48
1015.913	43.93
1016.074	62.53
1016.235	41.61
1016.395	25.72
1016.556	42.96
1016.717	50.71
1016.877	64.86
1017.038	25.91
1017.199	61.18
1017.359	44.32
1017.52	43.54
1017.681	26.69
1017.841	46.64
1018.002	20.68
1018.162	14.87
1018.323	90.24
1018.483	25.91
1018.644	3.25
1018.804	1.5
1018.964	-7.02
1019.125	34.05
1019.285	50.71
1019.446	2.86
1019.606	44.13
1019.766	-16.71
1019.926	51.1
1020.087	34.63
1020.247	13.32
1020.407	38.31
1020.567	80.16
1020.728	16.23
1020.888	2.28
1021.048	7.12
1021.208	-8.96
1021.368	4.21
1021.528	86.36
1021.688	71.83
1021.848	57.88
1022.008	37.34
1022.168	23.98
1022.328	22.81
1022.488	44.51
1022.648	26.11
1022.808	41.8
1022.968	38.51
1023.128	22.43
1023.288	27.85
1023.448	24.17
1023.608	47.81
1023.767	57.11
1023.927	3.44
1024.087	-3.34
1024.247	-20
1024.406	-17.49
1024.566	7.51
1024.726	3.05
1024.885	25.91
1025.045	72.61
1025.205	26.11
1025.364	21.84
1025.524	47.81
1025.683	-0.24
1025.843	15.26
1026.003	36.57
1026.162	65.63
1026.321	62.34
1026.481	51.29
1026.64	23.78
1026.8	22.81
1026.959	46.84
1027.119	22.62
1027.278	15.26
1027.437	11.38
1027.597	32.5
1027.756	55.75
1027.915	34.05
1028.074	47.23
1028.234	7.9
1028.393	52.65
1028.552	-2.76
1028.711	-62.24
1028.87	63.31
1029.03	-12.84
1029.189	25.91
1029.348	-31.44
1029.507	13.9
1029.666	18.55
1029.825	-32.79
1029.984	-9.74
1030.143	11.96
1030.302	14.68
1030.461	-28.92
1030.62	48.39
1030.779	56.33
1030.938	-14.58
1031.097	-4.5
1031.255	39.67
1031.414	82.68
1031.573	57.69
1031.732	-54.49
1031.891	-6.25
1032.049	78.23
1032.208	41.41
1032.367	-5.67
1032.525	-3.54
1032.684	19.91
1032.843	23.39
1033.001	-29.89
1033.16	156.89
1033.319	52.07
1033.477	40.64
1033.636	-1.99
1033.794	-35.89
1033.953	56.33
1034.111	63.11
1034.27	-13.8
1034.428	12.74
1034.587	-10.7
1034.745	13.51
1034.903	27.85
1035.062	33.47
1035.22	-50.04
1035.378	36.96
1035.537	-30.27
1035.695	40.83
1035.853	31.14
1036.011	22.81
1036.17	32.69
1036.328	-53.52
1036.486	24.75
1036.644	40.06
1036.802	-59.72
1036.96	-1.99
1037.119	4.6
1037.277	-5.86
1037.435	-4.89
1037.593	-2.37
1037.751	-5.47
1037.909	57.88
1038.067	57.88
