Data from gum_old_FLMT105791__116__15-46-05-253.txt Node

Date: Mon Mar 20 15:46:05 GMT 2023
User: antho
Spectrometer: FLMT10579
Trigger mode: 0
Integration Time (sec): 1.000000E-1
Scans to average: 10
Electric dark correction enabled: true
Nonlinearity correction enabled: false
Boxcar width: 0
XAxis mode: Wavelengths
Number of Pixels in Spectrum: 3648
>>>>>Begin Spectral Data<<<<<
345.248	-156.63
345.464	-156.63
345.681	-156.63
345.898	-193.83
346.114	-168.83
346.331	-44.45
346.548	29.56
346.764	-4.92
346.981	-4.15
347.197	-35.34
347.414	22.78
347.631	-9.38
347.847	48.16
348.064	0.89
348.28	61.53
348.497	-69.25
348.713	4.57
348.93	24.14
349.146	17.74
349.363	19.29
349.579	37.31
349.796	28.59
350.012	25.49
350.229	51.46
350.445	16.58
350.661	-16.74
350.878	20.65
351.094	6.89
351.311	50.29
351.527	3.99
351.743	1.66
351.96	70.06
352.176	56.88
352.392	47.97
352.609	66.96
352.825	-5.89
353.041	21.43
353.257	22.59
353.474	33.24
353.69	25.49
353.906	36.73
354.122	-1.05
354.339	79.55
354.555	29.95
354.771	-4.92
354.987	97.18
355.203	87.69
355.42	7.09
355.636	3.41
355.852	10.96
356.068	5.15
356.284	-28.17
356.5	96.79
356.716	48.94
356.932	11.93
357.148	68.12
357.364	43.51
357.58	42.35
357.796	90.21
358.012	53.39
358.228	37.7
358.444	-51.23
358.66	71.99
358.876	44.48
359.092	1.08
359.308	57.27
359.524	39.25
359.74	26.27
359.956	10.96
360.172	19.1
360.388	92.72
360.604	-10.74
360.819	81.49
361.035	41.38
361.251	56.11
361.467	34.21
361.683	70.06
361.898	34.99
362.114	72.19
362.33	49.52
362.546	88.46
362.762	32.86
362.977	51.65
363.193	-8.02
363.409	72.96
363.624	14.26
363.84	4.76
364.056	16.39
364.271	46.81
364.487	78
364.703	10.38
364.918	-21.2
365.134	16.97
365.35	14.45
365.565	140
365.781	59.21
365.996	82.46
366.212	106.29
366.427	73.74
366.643	25.49
366.858	15.23
367.074	16.78
367.289	102.8
367.505	170.8
367.72	-5.51
367.936	17.16
368.151	71.99
368.367	54.17
368.582	71.41
368.798	33.05
369.013	84.59
369.228	51.26
369.444	56.49
369.659	92.14
369.874	70.83
370.09	109.19
370.305	0.5
370.52	36.54
370.736	97.96
370.951	48.94
371.166	105.32
371.381	105.12
371.597	86.52
371.812	10.58
372.027	8.83
372.242	38.28
372.458	132.44
372.673	61.72
372.888	57.07
373.103	69.86
373.318	148.91
373.533	73.16
373.749	60.76
373.964	-3.37
374.179	77.03
374.394	29.37
374.609	115.39
374.824	5.93
375.039	108.81
375.254	21.62
375.469	128.76
375.684	56.3
375.899	88.27
376.114	42.16
376.329	85.36
376.544	87.11
376.759	87.88
376.974	44.48
377.189	58.43
377.404	15.42
377.619	94.08
377.834	-2.79
378.049	1.28
378.264	40.22
378.478	72.77
378.693	5.15
378.908	82.65
379.123	62.89
379.338	97.18
379.553	68.51
379.767	79.16
379.982	63.27
380.197	81.1
380.412	62.69
380.626	77.61
380.841	163.44
381.056	88.07
381.271	180.3
381.485	60.56
381.7	43.32
381.915	50.87
382.129	43.9
382.344	96.6
382.559	43.9
382.773	108.42
382.988	5.15
383.202	73.35
383.417	32.66
383.632	149.88
383.846	66.57
384.061	82.84
384.275	43.32
384.49	73.74
384.704	80.13
384.919	41.38
385.133	72.77
385.348	86.91
385.562	41.38
385.777	113.07
385.991	79.16
386.206	66.96
386.42	51.46
386.634	108.61
386.849	91.17
387.063	80.91
387.277	48.55
387.492	63.08
387.706	28.4
387.92	73.74
388.135	127.02
388.349	89.82
388.563	92.14
388.778	110.36
388.992	106.29
389.206	110.36
389.42	159.37
389.635	86.52
389.849	140.58
390.063	149.88
390.277	132.25
390.491	183.01
390.706	125.27
390.92	112.1
391.134	107.45
391.348	129.54
391.562	65.02
391.776	133.02
391.99	111.71
392.205	152.98
392.419	90.21
392.633	92.72
392.847	155.11
393.061	82.84
393.275	150.65
393.489	76.06
393.703	107.64
393.917	124.11
394.131	46.42
394.345	110.94
394.559	131.86
394.773	76.64
394.986	106.67
395.2	79.74
395.414	141.74
395.628	109.77
395.842	124.5
396.056	127.99
396.27	71.99
396.484	140.39
396.697	133.41
396.911	175.65
397.125	137.87
397.339	98.54
397.553	118.11
397.766	174.1
397.98	134.77
398.194	169.84
398.408	135.35
398.621	166.15
398.835	158.4
399.049	155.3
399.262	219.05
399.476	195.02
399.69	208.2
399.903	257.6
400.117	154.34
400.331	201.61
400.544	163.44
400.758	304.1
400.971	208.78
401.185	218.66
401.398	133.02
401.612	250.24
401.826	191.34
402.039	233.77
402.253	166.93
402.466	247.53
402.68	185.92
402.893	188.24
403.106	200.45
403.32	211.3
403.533	238.62
403.747	192.12
403.96	237.45
404.174	236.68
404.387	168.48
404.6	211.88
404.814	258.18
405.027	210.91
405.24	221.37
405.454	204.52
405.667	275.82
405.88	132.83
406.094	214.59
406.307	257.8
406.52	227.38
406.733	169.06
406.947	172.55
407.16	262.06
407.373	259.54
407.586	230.67
407.799	203.35
408.012	245.2
408.226	229.9
408.439	290.54
408.652	174.68
408.865	259.35
409.078	273.3
409.291	237.26
409.504	189.4
409.717	249.47
409.93	251.79
410.143	246.75
410.357	182.04
410.57	180.88
410.783	211.3
410.996	225.44
411.209	251.98
411.421	279.69
411.634	248.5
411.847	225.05
412.06	258.77
412.273	256.63
412.486	258.77
412.699	375.21
412.912	276.78
413.125	302.36
413.338	258.96
413.55	307.78
413.763	291.7
413.976	289.77
414.189	222.73
414.402	242.49
414.615	323.09
414.827	222.92
415.04	315.92
415.253	283.37
415.466	328.9
415.678	362.81
415.891	284.73
416.104	246.75
416.316	254.89
416.529	255.67
416.742	332.97
416.954	300.81
417.167	300.03
417.38	284.34
417.592	331.03
417.805	264.97
418.017	236.1
418.23	308.95
418.442	297.9
418.655	256.44
418.868	282.02
419.08	320.57
419.293	313.98
419.505	314.56
419.718	302.55
419.93	313.79
420.142	280.47
420.355	344.98
420.567	316.11
420.78	317.86
420.992	283.18
421.205	358.55
421.417	287.44
421.629	299.45
421.842	280.47
422.054	243.27
422.266	329.87
422.479	348.66
422.691	276.98
422.903	313.98
423.115	289.57
423.328	286.28
423.54	292.87
423.752	307.98
423.964	278.14
424.177	344.6
424.389	307.2
424.601	432.75
424.813	326
425.025	367.65
425.238	348.86
425.45	317.66
425.662	315.73
425.874	657.11
426.086	306.04
426.298	341.11
426.51	308.36
426.722	310.11
426.934	310.69
427.146	358.93
427.358	264.38
427.57	346.92
427.782	309.14
427.994	320.18
428.206	272.33
428.418	283.95
428.63	351.96
428.842	355.25
429.054	343.05
429.266	350.02
429.478	282.98
429.69	307.78
429.902	273.88
430.114	338.98
430.325	307.4
430.537	280.08
430.749	290.73
430.961	212.27
431.173	264
431.384	303.71
431.596	210.33
431.808	278.14
432.02	307.01
432.231	352.54
432.443	390.9
432.655	358.16
432.867	288.99
433.078	348.08
433.29	426.74
433.502	402.33
433.713	393.23
433.925	416.67
434.136	422.29
434.348	329.48
434.56	287.44
434.771	450.58
434.983	295.38
435.194	362.42
435.406	349.83
435.617	430.04
435.829	449.8
436.04	414.93
436.252	408.14
436.463	461.43
436.675	455.61
436.886	424.03
437.098	456.19
437.309	485.26
437.521	403.49
437.732	446.7
437.943	411.63
438.155	411.05
438.366	373.46
438.578	488.36
438.789	396.33
439	426.16
439.211	378.89
439.423	398.07
439.634	398.84
439.845	445.54
440.057	425.97
440.268	461.04
440.479	398.65
440.69	444.96
440.902	416.48
441.113	431.01
441.324	413.18
441.535	466.66
441.746	502.11
441.957	409.89
442.168	456.19
442.38	462.2
442.591	473.24
442.802	425.78
443.013	433.33
443.224	499.21
443.435	460.46
443.646	459.68
443.857	456.39
444.068	435.08
444.279	449.41
444.49	550.74
444.701	448.44
444.912	593.95
445.123	523.23
445.334	499.59
445.545	494.94
445.756	494.36
445.967	460.84
446.178	499.79
446.388	516.06
446.599	473.44
446.81	504.24
447.021	454.26
447.232	547.45
447.443	549
447.653	468.79
447.864	527.49
448.075	511.02
448.286	535.24
448.496	549.39
448.707	546.67
448.918	492.04
449.129	586.59
449.339	495.52
449.55	529.04
449.761	498.43
449.971	583.29
450.182	542.41
450.393	556.36
450.603	506.57
450.814	565.66
451.024	563.92
451.235	606.35
451.446	617.2
451.656	612.94
451.867	513.93
452.077	549.77
452.288	625.72
452.498	594.34
452.709	529.43
452.919	574.19
453.13	518
453.34	562.37
453.55	480.41
453.761	556.17
453.971	539.89
454.182	593.56
454.392	554.42
454.602	618.36
454.813	578.06
455.023	559.46
455.233	520.13
455.444	563.14
455.654	463.36
455.864	518.77
456.075	515.09
456.285	539.31
456.495	547.45
456.705	560.43
456.916	635.6
457.126	632.31
457.336	559.46
457.546	512.38
457.756	520.13
457.967	616.62
458.177	539.12
458.387	579.61
458.597	545.71
458.807	541.06
459.017	541.25
459.227	563.72
459.437	565.47
459.647	603.44
459.857	593.17
460.068	526.52
460.278	620.49
460.488	576.51
460.698	658.08
460.908	600.73
461.117	525.17
461.327	541.44
461.537	592.4
461.747	596.08
461.957	596.27
462.167	706.52
462.377	640.84
462.587	596.66
462.797	632.89
463.007	591.24
463.216	628.63
463.426	661.95
463.636	673.58
463.846	573.8
464.056	592.98
464.265	659.43
464.475	613.13
464.685	608.29
464.895	632.5
465.104	593.75
465.314	644.71
465.524	601.5
465.733	594.34
465.943	679
466.153	660.98
466.362	667.38
466.572	658.66
466.782	616.04
466.991	655.95
467.201	696.44
467.41	574.38
467.62	667.77
467.829	613.32
468.039	658.08
468.249	665.25
468.458	656.33
468.668	684.43
468.877	638.9
469.086	717.95
469.296	705.16
469.505	644.71
469.715	750.3
469.924	672.42
470.134	702.25
470.343	730.35
470.552	666.02
470.762	655.56
470.971	634.64
471.18	679.2
471.39	670.48
471.599	648.58
471.808	725.31
472.018	685.01
472.227	745.85
472.436	748.95
472.645	720.85
472.855	698.96
473.064	773.16
473.273	774.33
473.482	757.66
473.691	785.95
473.901	753.21
474.11	742.94
474.319	806.3
474.528	777.23
474.737	855.51
474.946	787.31
475.155	784.6
475.364	817.92
475.573	805.71
475.783	821.21
475.992	820.63
476.201	828.58
476.41	783.63
476.619	778.4
476.828	787.89
477.037	811.14
477.245	770.65
477.454	837.49
477.663	797.77
477.872	850.28
478.081	906.27
478.29	796.8
478.499	932.62
478.708	879.73
478.917	933.01
479.125	879.73
479.334	855.89
479.543	848.73
479.752	874.69
479.961	913.05
480.169	928.74
480.378	879.53
480.587	1044.02
480.796	925.45
481.004	918.47
481.213	940.56
481.422	943.66
481.63	916.92
481.839	968.85
482.048	992.1
482.256	953.93
482.465	953.93
482.674	1014.77
482.882	1029.1
483.091	1060.1
483.299	1002.75
483.508	1005.47
483.716	985.71
483.925	994.62
484.134	983.77
484.342	980.86
484.551	1041.12
484.759	1027.55
484.967	1038.02
485.176	1068.05
485.384	1030.27
485.593	1055.84
485.801	1040.15
486.01	1033.17
486.218	961.87
486.426	883.99
486.635	913.44
486.843	915.57
487.051	928.36
487.26	931.84
487.468	976.99
487.676	1016.51
487.885	963.42
488.093	1008.37
488.301	1027.75
488.509	1056.04
488.717	1131.6
488.926	1043.83
489.134	1045.57
489.342	1066.11
489.55	1039.95
489.758	1060.88
489.967	1079.29
490.175	1206
490.383	1114.55
490.591	1186.04
490.799	1114.35
491.007	1166.86
491.215	1133.53
491.423	1114.35
491.631	1163.95
491.839	1123.65
492.047	1186.04
492.255	1082.97
492.463	1053.9
492.671	1061.85
492.879	1149.42
493.087	1107.96
493.295	1166.47
493.503	1191.08
493.711	1190.5
493.919	1219.17
494.127	1195.92
494.334	1236.8
494.542	1145.93
494.75	1189.91
494.958	1155.04
495.166	1236.03
495.374	1230.6
495.581	1242.42
495.789	1208.9
495.997	1291.63
496.205	1177.9
496.412	1188.75
496.62	1210.26
496.828	1257.92
497.035	1238.55
497.243	1284.85
497.451	1267.41
497.658	1258.89
497.866	1220.33
498.074	1292.21
498.281	1230.02
498.489	1332.71
498.696	1270.9
498.904	1194.95
499.112	1224.98
499.319	1325.54
499.527	1233.51
499.734	1265.09
499.942	1171.9
500.149	1236.03
500.357	1253.66
500.564	1204.64
500.771	1255.79
500.979	1196.7
501.186	1166.08
501.394	1239.51
501.601	1206.96
501.808	1257.34
502.016	1228.28
502.223	1199.6
502.43	1223.24
502.638	1245.52
502.845	1206.96
503.052	1338.13
503.26	1234.67
503.467	1325.54
503.674	1277.29
503.881	1304.42
504.089	1381.72
504.296	1327.09
504.503	1234.48
504.71	1268.58
504.917	1225.56
505.125	1268.96
505.332	1305.19
505.539	1296.67
505.746	1389.86
505.953	1324.18
506.16	1340.65
506.367	1397.61
506.574	1412.53
506.781	1434.62
506.988	1322.24
507.195	1379.79
507.402	1347.04
507.609	1382.11
507.816	1350.53
508.023	1339.29
508.23	1316.82
508.437	1283.49
508.644	1311.01
508.851	1368.94
509.058	1378.62
509.265	1363.71
509.472	1391.22
509.679	1464.45
509.885	1365.84
510.092	1404.97
510.299	1352.86
510.506	1364.87
510.713	1420.47
510.92	1388.51
511.126	1407.11
511.333	1425.12
511.54	1423.19
511.746	1438.69
511.953	1474.53
512.16	1480.54
512.367	1425.51
512.573	1416.02
512.78	1411.56
512.987	1436.55
513.193	1419.89
513.4	1353.44
513.606	1396.84
513.813	1410.59
514.02	1384.82
514.226	1491.39
514.433	1458.06
514.639	1360.41
514.846	1416.79
515.052	1391.02
515.259	1388.12
515.465	1444.69
515.672	1415.63
515.878	1502.43
516.085	1430.16
516.291	1506.89
516.497	1439.07
516.704	1414.86
516.91	1369.91
517.117	1333.09
517.323	1308.29
517.529	1337.55
517.736	1323.41
517.942	1307.91
518.148	1316.63
518.354	1397.81
518.561	1414.08
518.767	1410.21
518.973	1444.5
519.179	1446.24
519.386	1405.75
519.592	1375.72
519.798	1423.96
520.004	1481.89
520.21	1447.99
520.417	1533.82
520.623	1592.13
520.829	1584.38
521.035	1568.5
521.241	1558.81
521.447	1592.91
521.653	1687.07
521.859	1571.4
522.065	1616.93
522.271	1693.46
522.477	1659.75
522.683	1695.4
522.889	1624.1
523.095	1674.86
523.301	1657.23
523.507	1595.62
523.713	1633.4
523.919	1620.03
524.125	1698.31
524.331	1647.55
524.537	1763.79
524.742	1759.14
524.948	1757.59
525.154	1742.87
525.36	1867.06
525.566	1752.56
525.772	1819.01
525.977	1707.41
526.183	1814.75
526.389	1819.98
526.595	1760.11
526.8	1752.56
527.006	1636.5
527.212	1615.38
527.417	1600.08
527.623	1622.55
527.829	1666.92
528.034	1743.26
528.24	1709.74
528.446	1691.53
528.651	1839.16
528.857	1823.08
529.062	1870.55
529.268	1849.24
529.473	1892.25
529.679	1866.67
529.884	1936.23
530.09	1904.65
530.295	1918.02
530.501	1873.65
530.706	1912.98
530.912	1876.55
531.117	1897.67
531.323	1903.68
531.528	1961.8
531.733	1958.7
531.939	1944.37
532.144	1949.99
532.35	1937.97
532.555	1978.47
532.76	1963.93
532.966	1942.43
533.171	1909.1
533.376	1878.49
533.581	1817.85
533.787	1909.69
533.992	1924.99
534.197	1974.01
534.402	1905.62
534.607	1963.55
534.813	2083.48
535.018	1918.02
535.223	1961.42
535.428	1981.37
535.633	2052.28
535.838	2050.73
536.043	2030.58
536.249	2136.18
536.454	2016.63
536.659	2036.98
536.864	2035.43
537.069	2032.52
537.274	2010.82
537.479	2015.67
537.684	1973.62
537.889	1978.08
538.094	2097.43
538.299	2020.7
538.504	2013.53
538.708	2101.88
538.913	2096.26
539.118	2061.39
539.323	2046.28
539.528	2023.61
539.733	2008.69
539.938	2039.69
540.142	2054.03
540.347	2012.95
540.552	1986.41
540.757	2030
540.962	2022.45
541.166	1946.3
541.371	1935.26
541.576	1985.25
541.781	1913.37
541.985	2027.87
542.19	2015.47
542.395	2108.28
542.599	2161.94
542.804	2081.54
543.008	2133.85
543.213	2035.04
543.418	2033.68
543.622	2087.74
543.827	1990.09
544.031	2148.58
544.236	2147.99
544.44	2082.51
544.645	2202.44
544.849	2119.32
545.054	2156.33
545.258	2226.66
545.463	2175.7
545.667	2060.61
545.872	2137.34
546.076	2137.92
546.281	2138.31
546.485	2092.97
546.689	2169.69
546.894	2187.13
547.098	2106.53
547.302	2104.4
547.507	2091.42
547.711	2144.31
547.915	2190.81
548.119	2067.01
548.324	2077.08
548.528	2144.31
548.732	2102.85
548.936	2139.28
549.141	2121.26
549.345	2110.8
549.549	2114.86
549.753	2159.43
549.957	2246.61
550.161	2205.73
550.366	2142.76
550.57	2147.8
550.774	2143.54
550.978	2135.4
551.182	2198.76
551.386	2156.13
551.59	2117.38
551.794	2092
551.998	2166.59
552.202	2140.44
552.406	2113.12
552.61	2213.48
552.814	2177.25
553.018	2214.26
553.222	2128.81
553.426	2135.4
553.63	2235.37
553.833	2122.23
554.037	2086.38
554.241	2162.53
554.445	2147.03
554.649	2143.93
554.853	2130.95
555.056	2197.21
555.26	2160.59
555.464	2145.28
555.668	2211.35
555.871	2194.69
556.075	2172.6
556.279	2116.03
556.483	2079.02
556.686	2162.14
556.89	2151.29
557.094	2167.76
557.297	2086
557.501	2133.66
557.704	2044.34
557.908	2132.11
558.112	2034.65
558.315	2156.13
558.519	2075.73
558.722	2080.96
558.926	2091.42
559.129	2014.12
559.333	1960.25
559.536	2028.84
559.74	2008.11
559.943	1998.42
560.147	1956.38
560.35	2010.43
560.553	2020.32
560.757	1958.51
560.96	2025.35
561.164	1987.18
561.367	2094.91
561.57	2027.48
561.774	2075.73
561.977	1980.4
562.18	1976.53
562.384	2042.6
562.587	1978.47
562.79	1980.79
562.993	1961.42
563.197	2032.72
563.4	2049.96
563.603	2053.06
563.806	2107.5
564.009	1978.85
564.212	2016.05
564.416	1942.43
564.619	2008.5
564.822	1946.5
565.025	2043.57
565.228	1944.75
565.431	1954.05
565.634	1881.98
565.837	1897.67
566.04	1876.94
566.243	1863.77
566.446	1843.23
566.649	1912.59
566.852	1802.16
567.055	1863.96
567.258	1906.2
567.461	1921.89
567.664	1946.89
567.867	1844.39
568.07	1861.83
568.273	1893.41
568.475	1930.03
568.678	1841.68
568.881	1845.75
569.084	1843.23
569.287	1744.03
569.489	1776.78
569.692	1868.81
569.895	1844.01
570.098	1763.21
570.3	1751.78
570.503	1710.9
570.706	1744.23
570.909	1746.36
571.111	1691.14
571.314	1673.7
571.516	1683.58
571.719	1739.77
571.922	1692.69
572.124	1703.15
572.327	1728.53
572.529	1686.49
572.732	1680.68
572.935	1717.49
573.137	1791.11
573.34	1696.56
573.542	1767.86
573.745	1773.29
573.947	1752.75
574.15	1729.89
574.352	1669.44
574.554	1743.45
574.757	1665.18
574.959	1647.16
575.162	1673.31
575.364	1644.25
575.566	1748.88
575.769	1622.55
575.971	1631.08
576.173	1536.33
576.376	1660.14
576.578	1667.31
576.78	1670.21
576.982	1528.39
577.185	1612.48
577.387	1582.83
577.589	1621.78
577.791	1601.24
577.993	1610.93
578.196	1616.74
578.398	1585.35
578.6	1648.51
578.802	1524.9
579.004	1555.52
579.206	1546.6
579.408	1584.77
579.61	1548.15
579.812	1596.59
580.014	1523.55
580.216	1535.37
580.418	1569.47
580.62	1542.92
580.822	1452.83
581.024	1519.29
581.226	1583.22
581.428	1572.18
581.63	1632.82
581.832	1503.79
582.034	1603.57
582.236	1546.99
582.438	1587.87
582.64	1593.1
582.841	1600.08
583.043	1672.15
583.245	1543.5
583.447	1586.9
583.649	1550.87
583.85	1551.06
584.052	1594.27
584.254	1533.04
584.456	1589.62
584.657	1508.24
584.859	1544.28
585.061	1513.28
585.262	1500.1
585.464	1472.01
585.666	1543.89
585.867	1483.44
586.069	1541.95
586.27	1499.72
586.472	1499.33
586.674	1474.34
586.875	1460.19
587.077	1471.04
587.278	1457.87
587.48	1467.75
587.681	1626.43
587.883	1499.72
588.084	1424.54
588.285	1467.75
588.487	1453.6
588.688	1502.04
588.89	1413.11
589.091	1359.83
589.292	1372.23
589.494	1354.02
589.695	1311.78
589.896	1233.31
590.098	1254.43
590.299	1330.77
590.5	1299.96
590.702	1318.76
590.903	1353.63
591.104	1422.41
591.305	1388.51
591.507	1431.91
591.708	1413.5
591.909	1379.79
592.11	1445.08
592.311	1416.41
592.512	1365.06
592.714	1337.55
592.915	1312.56
593.116	1345.88
593.317	1386.96
593.518	1364.09
593.719	1356.73
593.92	1418.54
594.121	1437.72
594.322	1383.27
594.523	1394.71
594.724	1358.28
594.925	1378.43
595.126	1395.09
595.327	1376.11
595.528	1350.53
595.729	1350.14
595.929	1348.98
596.13	1378.43
596.331	1387.54
596.532	1412.53
596.733	1473.95
596.934	1416.41
597.135	1421.25
597.335	1394.32
597.536	1296.09
597.737	1366.61
597.938	1368.36
598.138	1363.71
598.339	1379.79
598.54	1364.48
598.74	1358.47
598.941	1367
599.142	1445.47
599.342	1361.19
599.543	1327.28
599.744	1366.81
599.944	1343.56
600.145	1339.29
600.345	1351.69
600.546	1428.81
600.746	1393.35
600.947	1455.54
601.147	1339.1
601.348	1393.74
601.548	1312.75
601.749	1339.49
601.949	1291.05
602.15	1305.19
602.35	1345.49
602.551	1392.57
602.751	1308.29
602.951	1301.71
603.152	1243.39
603.352	1362.93
603.552	1328.06
603.753	1355.57
603.953	1372.04
604.153	1360.99
604.354	1310.43
604.554	1326.12
604.754	1362.54
604.954	1294.34
605.155	1368.16
605.355	1335.42
605.555	1372.42
605.755	1369.91
605.955	1326.31
606.155	1383.08
606.356	1330.38
606.556	1344.91
606.756	1303.84
606.956	1249.78
607.156	1398.97
607.356	1298.22
607.556	1331.54
607.756	1328.83
607.956	1356.34
608.156	1325.15
608.356	1291.44
608.556	1330.38
608.756	1263.93
608.956	1244.55
609.156	1288.14
609.356	1260.83
609.556	1262.38
609.755	1300.54
609.955	1242.23
610.155	1286.4
610.355	1263.93
610.555	1246.1
610.755	1251.72
610.954	1227.31
611.154	1271.29
611.354	1281.17
611.554	1230.6
611.753	1239.13
611.953	1206.38
612.153	1263.73
612.352	1279.23
612.552	1210.06
612.752	1147.68
612.951	1200.57
613.151	1205.61
613.351	1194.37
613.55	1211.42
613.75	1238.16
613.949	1206.77
614.149	1223.82
614.348	1201.35
614.548	1216.46
614.747	1102.34
614.947	1192.43
615.146	1113.19
615.346	1219.36
615.545	1206.77
615.745	1180.81
615.944	1215.1
616.144	1175
616.343	1229.63
616.542	1155.04
616.742	1189.14
616.941	1149.23
617.14	1094.59
617.34	1164.53
617.539	1160.47
617.738	1133.34
617.938	1232.73
618.137	1125.4
618.336	1103.31
618.535	1154.07
618.734	1141.67
618.934	1181.58
619.133	1160.08
619.332	1201.73
619.531	1119
619.73	1115.32
619.929	1197.47
620.128	1155.04
620.328	1202.9
620.527	1144
620.726	1120.36
620.925	1178.48
621.124	1137.99
621.323	1156.2
621.522	1122.68
621.721	1086.45
621.92	1063.01
622.119	1159.5
622.318	1098.27
622.517	1123.27
622.715	1076.38
622.914	1053.32
623.113	1131.21
623.312	1026.2
623.511	1119.78
623.71	1083.55
623.909	1045.77
624.107	1139.54
624.306	1056.81
624.505	1053.71
624.704	1059.52
624.902	1079.29
625.101	1134.12
625.3	1103.31
625.499	1062.43
625.697	1063.59
625.896	1036.27
626.095	1094.78
626.293	1020.58
626.492	1023.49
626.69	1077.54
626.889	1055.45
627.088	1079.09
627.286	1038.6
627.485	1058.17
627.683	1048.87
627.882	1057
628.08	967.69
628.279	1036.47
628.477	1101.76
628.676	995.2
628.874	1043.44
629.073	1000.04
629.271	998.3
629.469	1067.47
629.668	1018.45
629.866	999.65
630.065	1003.34
630.263	1054.49
630.461	1012.05
630.66	1025.04
630.858	1033.56
631.056	1046.54
631.254	1067.66
631.453	992.68
631.651	1040.34
631.849	1019.61
632.047	996.36
632.245	1024.45
632.444	1010.89
632.642	1026.2
632.84	1044.22
633.038	1004.11
633.236	992.1
633.434	972.92
633.632	966.52
633.83	951.41
634.028	1046.54
634.227	1016.7
634.425	1069.02
634.623	992.49
634.821	1024.26
635.019	1006.44
635.216	1003.34
635.414	1010.7
635.612	1016.12
635.81	986.48
636.008	1054.49
636.206	999.07
636.404	1048.09
636.602	940.56
636.8	967.49
636.997	1001.79
637.195	1036.27
637.393	1030.27
637.591	1083.94
637.789	993.65
637.986	950.64
638.184	995.97
638.382	1049.06
638.58	1044.22
638.777	1063.59
638.975	980.28
639.173	980.67
639.37	994.62
639.568	996.75
639.765	993.65
639.963	977.76
640.161	1054.68
640.358	1011.47
640.556	972.72
640.753	928.55
640.951	906.08
641.148	993.07
641.346	960.13
641.543	982.02
641.741	989.77
641.938	939.4
642.136	941.72
642.333	921.77
642.531	987.06
642.728	1015.74
642.925	962.07
643.123	930.29
643.32	967.88
643.517	925.84
643.715	958.77
643.912	915.96
644.109	960.52
644.306	955.87
644.504	906.27
644.701	948.7
644.898	979.7
645.095	914.02
645.293	945.6
645.49	933.39
645.687	927.19
645.884	974.27
646.081	863.26
646.278	922.93
646.475	898.33
646.672	893.48
646.87	939.01
647.067	946.37
647.264	948.7
647.461	859.77
647.658	856.28
647.855	924.87
648.052	892.71
648.249	834.39
648.446	889.61
648.642	888.44
648.839	826.64
649.036	864.81
649.233	848.53
649.43	801.84
649.627	799.9
649.824	860.54
650.021	836.33
650.217	841.75
650.414	846.4
650.611	835.55
650.808	888.25
651.004	856.09
651.201	895.42
651.398	903.36
651.595	850.86
651.791	864.81
651.988	884.96
652.185	834.97
652.381	882.83
652.578	827.99
652.775	846.4
652.971	850.28
653.168	825.86
653.364	882.83
653.561	797.19
653.757	810.75
653.954	856.28
654.15	807.26
654.347	910.72
654.543	836.71
654.74	816.76
654.936	793.7
655.133	832.06
655.329	824.31
655.525	838.84
655.722	852.21
655.918	824.12
656.115	857.64
656.311	718.33
656.507	713.1
656.704	673
656.9	705.35
657.096	709.03
657.292	687.92
657.489	766
657.685	751.46
657.881	739.45
658.077	759.99
658.273	795.45
658.47	858.41
658.666	795.25
658.862	819.86
659.058	795.45
659.254	840.2
659.45	796.41
659.646	821.8
659.842	813.27
660.038	835.16
660.234	781.5
660.43	823.34
660.626	890.77
660.822	846.98
661.018	831.87
661.214	811.33
661.41	792.35
661.606	857.83
661.802	864.42
661.998	804.36
662.194	769.68
662.39	810.95
662.586	857.44
662.781	808.04
662.977	817.34
663.173	826.64
663.369	829.54
663.564	827.8
663.76	865.58
663.956	814.63
664.152	848.14
664.347	749.14
664.543	811.53
664.739	803
664.934	755.15
665.13	734.8
665.326	842.91
665.521	816.56
665.717	778.59
665.912	777.04
666.108	683.65
666.304	794.48
666.499	774.52
666.695	697.22
666.89	767.74
667.086	795.25
667.281	833.03
667.477	853.96
667.672	801.26
667.867	798.35
668.063	784.21
668.258	755.92
668.454	766
668.649	868.68
668.844	767.74
669.04	791.96
669.235	800.48
669.43	756.89
669.626	725.89
669.821	757.47
670.016	736.35
670.211	781.69
670.407	732.09
670.602	778.2
670.797	762.9
670.992	819.66
671.187	729.38
671.382	826.83
671.578	751.27
671.773	768.32
671.968	713.68
672.163	780.72
672.358	787.11
672.553	740.61
672.748	741.58
672.943	833.61
673.138	750.5
673.333	769.29
673.528	719.3
673.723	768.13
673.918	761.73
674.113	725.12
674.308	839.81
674.503	796.41
674.698	793.9
674.892	766.58
675.087	793.51
675.282	783.63
675.477	759.6
675.672	777.43
675.867	744.68
676.061	698.18
676.256	741
676.451	733.25
676.646	758.63
676.84	713.3
677.035	689.85
677.23	732.09
677.424	788.08
677.619	790.02
677.814	789.05
678.008	800.87
678.203	691.6
678.397	706.13
678.592	773.16
678.787	802.03
678.981	703.61
679.176	762.7
679.37	735
679.565	712.52
679.759	708.45
679.954	772.2
680.148	807.07
680.342	798.93
680.537	737.13
680.731	743.91
680.926	751.46
681.12	784.21
681.314	730.93
681.509	756.7
681.703	759.21
681.897	760.96
682.092	750.69
682.286	704.58
682.48	830.9
682.674	756.5
682.869	726.86
683.063	747.59
683.257	813.27
683.451	715.82
683.645	784.79
683.839	753.4
684.034	768.9
684.228	768.13
684.422	698.38
684.616	699.73
684.81	774.13
685.004	738.29
685.198	736.55
685.392	765.61
685.586	677.65
685.78	710.2
685.974	758.25
686.168	740.81
686.362	810.95
686.556	716.2
686.75	660.6
686.944	686.37
687.138	684.62
687.331	592.2
687.525	641.61
687.719	570.31
687.913	669.7
688.107	635.41
688.301	575.54
688.494	636.38
688.688	606.15
688.882	566.82
689.076	592.01
689.269	605.77
689.463	700.7
689.657	622.43
689.85	600.15
690.044	634.05
690.238	624.75
690.431	631.73
690.625	628.24
690.818	635.41
691.012	646.45
691.205	664.47
691.399	613.71
691.593	639.67
691.786	713.68
691.98	694.12
692.173	747.59
692.366	701.09
692.56	730.73
692.753	741
692.947	697.02
693.14	740.42
693.333	712.91
693.527	674.74
693.72	707.48
693.914	703.61
694.107	692.37
694.3	735.58
694.493	676.29
694.687	748.95
694.88	684.43
695.073	802.03
695.266	756.89
695.46	731.9
695.653	777.04
695.846	764.06
696.039	697.99
696.232	776.46
696.425	795.83
696.618	800.48
696.812	809.01
697.005	856.09
697.198	927.58
697.391	839.04
697.584	869.07
697.777	913.63
697.97	871.59
698.163	864.23
698.356	881.08
698.549	973.31
698.742	937.66
698.935	879.34
699.127	916.15
699.32	887.28
699.513	920.99
699.706	948.51
699.899	936.88
700.092	943.47
700.285	964.39
700.477	934.56
700.67	985.51
700.863	1026.78
701.056	1075.8
701.248	1037.63
701.441	1055.26
701.634	1020.19
701.826	1131.02
702.019	1023.49
702.212	1110.28
702.404	1031.82
702.597	1053.32
702.79	1082.97
702.982	1080.25
703.175	1129.85
703.367	1167.44
703.56	1149.03
703.752	1271.68
703.945	1207.74
704.137	1218.78
704.33	1244.36
704.522	1245.91
704.715	1254.43
704.907	1279.81
705.1	1312.17
705.292	1332.51
705.484	1329.03
705.677	1344.53
705.869	1375.91
706.061	1414.86
706.254	1446.63
706.446	1454.57
706.638	1405.56
706.831	1497
707.023	1452.64
707.215	1552.8
707.407	1542.92
707.599	1557.07
707.792	1620.81
707.984	1569.47
708.176	1628.36
708.368	1570.24
708.56	1592.52
708.752	1621.58
708.944	1630.3
709.136	1666.53
709.329	1642.7
709.521	1794.41
709.713	1707.8
709.905	1748.68
710.097	1788.4
710.289	1757.98
710.481	1762.63
710.672	1816.69
710.864	1799.25
711.056	1875.2
711.248	1872.1
711.44	1873.26
711.632	1873.84
711.824	1930.03
712.016	1976.92
712.207	1952.12
712.399	1979.82
712.591	2065.26
712.783	2034.27
712.975	2040.47
713.166	2015.86
713.358	2054.22
713.55	2123.39
713.741	2128.81
713.933	2129.98
714.125	2108.28
714.316	2085.8
714.508	2211.35
714.7	2214.64
714.891	2215.81
715.083	2243.51
715.274	2238.09
715.466	2246.03
715.657	2320.43
715.849	2190.43
716.04	2260.95
716.232	2234.99
716.423	2278.97
716.615	2247.77
716.806	2248.74
716.998	2203.02
717.189	2149.35
717.381	2074.18
717.572	2064.88
717.763	2076.7
717.955	2027.29
718.146	2016.83
718.337	1976.72
718.528	1999.58
718.72	1923.25
718.911	1951.34
719.102	1946.69
719.293	2006.17
719.485	2023.42
719.676	1977.5
719.867	1933.9
720.058	1949.99
720.249	1963.74
720.44	2011.79
720.632	2042.02
720.823	2090.65
721.014	2213.68
721.205	2220.84
721.396	2254.56
721.587	2424.47
721.778	2439.97
721.969	2466.71
722.16	2538.2
722.351	2511.08
722.542	2689.32
722.733	2686.81
722.924	2641.47
723.115	2699.98
723.305	2655.42
723.496	2691.26
723.687	2520.38
723.878	2572.88
724.069	2569.78
724.26	2604.66
724.45	2507.78
724.641	2531.61
724.832	2594.58
725.023	2593.42
725.213	2573.46
725.404	2571.72
725.595	2575.01
725.785	2539.75
725.976	2643.41
726.167	2659.68
726.357	2632.17
726.548	2741.83
726.739	2648.44
726.929	2730.59
727.12	2798.02
727.31	2825.92
727.501	2767.99
727.691	2740.28
727.882	2806.54
728.072	2868.73
728.263	2816.62
728.453	2892.95
728.644	2878.42
728.834	2893.34
729.024	2859.82
729.215	2853.23
729.405	2893.53
729.596	2986.15
729.786	2961.54
729.976	3018.31
730.167	3023.73
730.357	2978.98
730.547	3017.73
730.737	3056.67
730.928	3085.34
731.118	3165.17
731.308	3096.97
731.498	3125.64
731.688	3176.21
731.879	3186.48
732.069	3236.85
732.259	3282.97
732.449	3310.87
732.639	3406.96
732.829	3412.39
733.019	3467.41
733.209	3523.41
733.399	3560.8
733.589	3612.53
733.779	3634.81
733.969	3580.37
734.159	3711.53
734.349	3761.52
734.539	3796.78
734.729	3781.87
734.919	3828.17
735.109	3861.69
735.299	3796.59
735.488	3866.92
735.678	3839.8
735.868	3837.28
736.058	3868.08
736.248	3816.55
736.437	3804.73
736.627	3789.03
736.817	3934.73
737.007	3905.28
737.196	3948.68
737.386	3892.69
737.576	3900.63
737.765	3986.85
737.955	3923.3
738.144	4124.8
738.334	4041.87
738.524	3906.06
738.713	3990.72
738.903	3981.42
739.092	4039.74
739.282	4047.3
739.471	4079.65
739.661	4018.43
739.85	4073.26
740.04	4090.89
740.229	4132.35
740.419	4173.04
740.608	4114.53
740.797	4109.88
740.987	4202.1
741.176	4179.82
741.365	4121.12
741.555	4127.51
741.744	4255.19
741.933	4156.57
742.123	4225.35
742.312	4233.68
742.501	4276.5
742.69	4323.97
742.88	4161.03
743.069	4310.6
743.258	4279.99
743.447	4347.41
743.636	4291.81
743.825	4269.53
744.014	4294.71
744.204	4388.49
744.393	4227.68
744.582	4377.44
744.771	4385.78
744.96	4392.75
745.149	4362.91
745.338	4341.02
745.527	4376.09
745.716	4375.89
745.905	4365.43
746.094	4432.47
746.283	4435.96
746.471	4402.24
746.66	4425.11
746.849	4419.29
747.038	4494.85
747.227	4372.99
747.416	4493.69
747.604	4397.79
747.793	4436.73
747.982	4415.61
748.171	4452.04
748.359	4453.01
748.548	4435.37
748.737	4432.47
748.926	4433.05
749.114	4337.73
749.303	4418.91
749.491	4409.22
749.68	4352.06
749.869	4404.57
750.057	4365.24
750.246	4378.22
750.434	4373.38
750.623	4416.77
750.811	4317.58
751	4428.79
751.188	4332.69
751.377	4342.57
751.565	4342.38
751.754	4338.31
751.942	4302.66
752.131	4413.09
752.319	4346.64
752.507	4312.93
752.696	4388.49
752.884	4357.29
753.072	4316.61
753.261	4363.69
753.449	4334.24
753.637	4326.29
753.825	4373.38
754.014	4383.84
754.202	4364.27
754.39	4392.56
754.578	4395.66
754.766	4323
754.955	4257.32
755.143	4417.94
755.331	4321.84
755.519	4350.71
755.707	4349.74
755.895	4298.78
756.083	4343.54
756.271	4251.51
756.459	4344.12
756.647	4361.94
756.835	4272.82
757.023	4269.72
757.211	4252.67
757.399	4242.01
757.587	4232.52
757.775	4224.19
757.963	4209.85
758.151	4249.76
758.339	4163.35
758.526	4233.68
758.714	4215.47
758.902	4119.37
759.09	4023.47
759.278	3855.49
759.465	3700.3
759.653	3270.57
759.841	3034.19
760.028	2652.32
760.216	2312.1
760.404	2195.46
760.591	1900
760.779	1638.63
760.967	1481.5
761.154	1297.44
761.342	1372.62
761.529	1343.36
761.717	1450.89
761.905	1458.45
762.092	1571.4
762.28	1545.25
762.467	1560.17
762.655	1516.19
762.842	1539.82
763.029	1582.45
763.217	1598.33
763.404	1625.26
763.592	1674.67
763.779	1638.05
763.966	1684.36
764.154	1696.37
764.341	1782.78
764.528	1776.58
764.716	1872.29
764.903	1896.51
765.09	1973.82
765.277	2072.05
765.465	2220.65
765.652	2284.2
765.839	2342.13
766.026	2467.87
766.213	2504.3
766.4	2626.74
766.588	2813.13
766.775	2825.92
766.962	2902.45
767.149	2968.13
767.336	3150.44
767.523	3112.66
767.71	3229.88
767.897	3378.87
768.084	3396.31
768.271	3437.58
768.458	3512.17
768.645	3554.21
768.832	3545.69
769.019	3557.12
769.206	3623.19
769.392	3674.53
769.579	3781.48
769.766	3733.23
769.953	3677.44
770.14	3783.61
770.327	3705.72
770.513	3791.17
770.7	3844.83
770.887	3739.43
771.073	3769.08
771.26	3796.4
771.447	3767.14
771.634	3708.63
771.82	3893.08
772.007	3729.17
772.193	3775.86
772.38	3790.58
772.567	3769.66
772.753	3786.9
772.94	3826.23
773.126	3821.2
773.313	3856.07
773.499	3796.59
773.686	3806.86
773.872	3758.03
774.059	3761.33
774.245	3720.25
774.432	3734.78
774.618	3633.07
774.804	3771.21
774.991	3661.55
775.177	3734.4
775.363	3721.22
775.55	3744.28
775.736	3658.45
775.922	3694.29
776.109	3681.31
776.295	3711.34
776.481	3720.64
776.667	3671.04
776.853	3686.54
777.04	3609.24
777.226	3645.27
777.412	3742.73
777.598	3635.78
777.784	3590.64
777.97	3608.07
778.156	3660
778.342	3590.83
778.528	3615.82
778.715	3544.91
778.901	3563.71
779.087	3615.44
779.272	3541.62
779.458	3555.37
779.644	3609.82
779.83	3525.54
780.016	3650.12
780.202	3531.54
780.388	3519.92
780.574	3451.14
780.76	3507.52
780.946	3563.51
781.131	3460.24
781.317	3502.09
781.503	3480.2
781.689	3475.74
781.874	3582.11
782.06	3455.21
782.246	3493.18
782.432	3482.33
782.617	3455.4
782.803	3518.18
782.989	3382.16
783.174	3403.86
783.36	3364.53
783.545	3396.31
783.731	3387.78
783.916	3297.11
784.102	3391.27
784.288	3350.78
784.473	3356.78
784.659	3328.88
784.844	3445.33
785.029	3304.08
785.215	3318.42
785.4	3269.79
785.586	3396.89
785.771	3279.87
785.956	3337.41
786.142	3272.31
786.327	3257
786.512	3271.92
786.698	3290.13
786.883	3223.87
787.068	3238.6
787.254	3253.13
787.439	3209.92
787.624	3197.91
787.809	3171.17
787.994	3208.57
788.18	3265.14
788.365	3119.64
788.55	3136.88
788.735	3191.9
788.92	3178.73
789.105	3150.44
789.29	3199.27
789.475	3101.23
789.66	3123.51
789.845	3112.27
790.03	3069.65
790.215	3144.44
790.4	3181.44
790.585	3208.18
790.77	3074.11
790.955	3003.78
791.14	3087.28
791.325	3191.71
791.51	3016.76
791.695	3077.98
791.879	3014.63
792.064	3014.63
792.249	3132.42
792.434	3038.84
792.618	3010.94
792.803	3086.89
792.988	3034.39
793.173	3048.92
793.357	3082.24
793.542	3024.12
793.727	3059.58
793.911	3090.19
794.096	3027.41
794.281	3064.81
794.465	3143.66
794.65	3043.69
794.834	3087.86
795.019	3133.59
795.203	3130.68
795.388	3136.3
795.572	3154.51
795.757	3072.94
795.941	3115.57
796.126	3093.29
796.31	3102.59
796.494	3117.7
796.679	3051.05
796.863	3049.5
797.048	3141.34
797.232	3101.62
797.416	3104.72
797.601	3110.72
797.785	3194.81
797.969	3171.95
798.153	3075.85
798.338	3110.72
798.522	3169.04
798.706	3179.89
798.89	3171.56
799.074	3276.77
799.258	3234.34
799.443	3153.16
799.627	3134.17
799.811	3233.75
799.995	3111.5
800.179	3102.01
800.363	3101.04
800.547	3132.04
800.731	3188.8
800.915	3049.69
801.099	3127.97
801.283	3099.1
801.467	3079.34
801.651	3104.72
801.835	3187.06
802.019	3135.14
802.202	3117.12
802.386	3056.67
802.57	3040.98
802.754	3076.63
802.938	3066.36
803.121	3081.86
803.305	3163.81
803.489	3122.35
803.673	3141.53
803.856	3176.99
804.04	3124.67
804.224	3124.87
804.407	3135.14
804.591	3107.04
804.775	3071.01
804.958	3102.97
805.142	3224.65
805.326	3114.99
805.509	3110.34
805.693	3137.27
805.876	3144.24
806.06	3115.18
806.243	3158.58
806.427	3173.11
806.61	3203.92
806.794	3113.44
806.977	3190.35
807.16	3151.41
807.344	3167.88
807.527	3118.09
807.71	3122.16
807.894	3091.54
808.077	3147.73
808.26	3071.78
808.444	3019.08
808.627	3141.72
808.81	3024.51
808.993	2984.21
809.177	2990.6
809.36	3047.56
809.543	3084.96
809.726	2968.51
809.909	2922.4
810.092	2937.9
810.276	2913.3
810.459	2904.58
810.642	2931.51
810.825	2875.13
811.008	2899.93
811.191	2817
811.374	2851.49
811.557	2841.42
811.74	2898.38
811.923	2772.64
812.106	2783.29
812.289	2787.75
812.472	2777.29
812.654	2765.08
812.837	2769.54
813.02	2643.6
813.203	2668.4
813.386	2581.02
813.569	2579.28
813.751	2484.73
813.934	2573.08
814.117	2493.45
814.3	2441.13
814.482	2439.78
814.665	2383.01
814.848	2332.25
815.03	2288.27
815.213	2270.64
815.396	2249.13
815.578	2222.78
815.761	2178.61
815.943	2230.72
816.126	2168.92
816.309	2153.61
816.491	2045.31
816.674	1973.23
816.856	2031.36
817.039	2048.02
817.221	2105.18
817.403	2014.12
817.586	2050.73
817.768	2082.9
817.951	2026.9
818.133	2014.89
818.315	2014.12
818.498	2017.41
818.68	2109.25
818.862	2094.13
819.045	2095.3
819.227	2089.87
819.409	2038.53
819.591	2085.22
819.774	2046.66
819.956	2034.65
820.138	2094.52
820.32	2106.73
820.502	2157.88
820.684	2204.18
820.866	2241.19
821.048	2253.01
821.231	2283.04
821.413	2269.47
821.595	2238.28
821.777	2304.74
821.959	2230.92
822.141	2332.64
822.323	2190.04
822.505	2102.46
822.686	2096.26
822.868	2012.18
823.05	1898.06
823.232	1844.97
823.414	1763.02
823.596	1841.1
823.778	1800.22
823.96	1853.89
824.141	1862.02
824.323	1877.52
824.505	1967.81
824.687	2012.37
824.868	2082.51
825.05	2156.33
825.232	2142.38
825.413	2283.62
825.595	2204.57
825.777	2155.74
825.958	2164.46
826.14	2172.99
826.321	2171.63
826.503	2178.41
826.685	2197.21
826.866	2250.68
827.048	2226.07
827.229	2150.51
827.411	2096.85
827.592	2071.66
827.773	2125.71
827.955	2055.19
828.136	2046.47
828.318	1986.6
828.499	2037.17
828.68	1971.68
828.862	1958.12
829.043	2015.67
829.224	1971.88
829.406	1924.41
829.587	1944.75
829.768	1996.29
829.949	1992.8
830.131	1986.99
830.312	2024.77
830.493	1965.48
830.674	1990.87
830.855	1953.47
831.036	1971.3
831.218	2019.15
831.399	2079.41
831.58	2004.04
831.761	2000.75
831.942	2021.87
832.123	1951.54
832.304	1928.29
832.485	1918.4
832.666	1967.81
832.847	1984.67
833.028	2009.08
833.209	1955.6
833.389	1961.61
833.57	1900.39
833.751	1887.6
833.932	1958.32
834.113	1982.92
834.294	1941.27
834.475	1996.68
834.655	2026.32
834.836	2018.96
835.017	2020.51
835.198	1948.44
835.378	2001.91
835.559	2041.63
835.74	1954.83
835.92	2001.33
836.101	1974.98
836.281	2008.11
836.462	2014.7
836.643	2071.66
836.823	2021.87
837.004	2004.23
837.184	2073.4
837.365	2045.5
837.545	2038.53
837.726	2017.22
837.906	2076.5
838.087	2045.7
838.267	2004.82
838.448	1965.48
838.628	2040.66
838.808	1995.52
838.989	2052.09
839.169	1948.82
839.349	2037.17
839.53	2039.3
839.71	2083.86
839.89	1992.42
840.07	2062.36
840.251	1994.35
840.431	2060.23
840.611	1959.87
840.791	1961.42
840.971	2043.76
841.151	1955.22
841.332	1983.31
841.512	2042.4
841.692	1908.91
841.872	1971.3
842.052	1974.2
842.232	1998.81
842.412	1905.23
842.592	1953.09
842.772	1991.06
842.952	1990.09
843.132	1975.56
843.312	1944.37
843.492	1924.8
843.672	1983.5
843.851	1892.83
844.031	1945.92
844.211	1923.64
844.391	1892.64
844.571	1947.08
844.751	1944.95
844.93	1920.73
845.11	1918.21
845.29	1952.5
845.47	1929.64
845.649	1885.85
845.829	1923.64
846.009	1903.49
846.188	1915.5
846.368	1881.2
846.547	1907.94
846.727	1946.11
846.907	1864.74
847.086	1886.05
847.266	1922.67
847.445	1903.29
847.625	1905.62
847.804	1877.52
847.984	1887.4
848.163	1829.67
848.343	1842.46
848.522	1846.91
848.701	1857.37
848.881	1837.81
849.06	1855.24
849.239	1867.64
849.419	1852.34
849.598	1754.11
849.777	1782.39
849.957	1771.93
850.136	1698.69
850.315	1694.05
850.494	1645.61
850.674	1686.1
850.853	1781.62
851.032	1690.56
851.211	1795.96
851.39	1761.08
851.569	1681.26
851.748	1688.23
851.927	1770.19
852.107	1748.49
852.286	1731.24
852.465	1717.68
852.644	1766.89
852.823	1745.39
853.002	1710.32
853.181	1721.17
853.359	1719.62
853.538	1681.06
853.717	1755.46
853.896	1626.62
854.075	1525.29
854.254	1491.97
854.433	1435.39
854.611	1522.38
854.79	1415.63
854.969	1514.83
855.148	1527.81
855.327	1461.74
855.505	1554.74
855.684	1528
855.863	1547.96
856.041	1533.62
856.22	1621.39
856.399	1545.63
856.577	1646
856.756	1602.21
856.934	1762.05
857.113	1772.9
857.291	1663.05
857.47	1602.98
857.648	1655.68
857.827	1650.06
858.005	1709.74
858.184	1615.58
858.362	1723.11
858.541	1656.46
858.719	1609.38
858.898	1577.99
859.076	1591.17
859.254	1701.21
859.433	1597.75
859.611	1622.36
859.789	1544.47
859.967	1643.28
860.146	1681.06
860.324	1548.93
860.502	1610.54
860.68	1539.82
860.859	1564.62
861.037	1548.73
861.215	1588.07
861.393	1561.13
861.571	1578.57
861.749	1556.48
861.927	1579.35
862.105	1584
862.283	1562.68
862.461	1534.01
862.639	1506.69
862.817	1525.1
862.995	1517.35
863.173	1522.97
863.351	1586.13
863.529	1528.97
863.707	1585.55
863.885	1536.72
864.063	1461.94
864.241	1478.6
864.418	1590.97
864.596	1507.66
864.774	1473.95
864.952	1477.44
865.129	1534.01
865.307	1464.07
865.485	1435.39
865.663	1516.57
865.84	1421.06
866.018	1424.16
866.196	1300.54
866.373	1330.38
866.551	1256.18
866.728	1240.87
866.906	1300.16
867.084	1289.69
867.261	1370.49
867.439	1363.32
867.616	1397.22
867.794	1347.62
867.971	1363.71
868.149	1392.38
868.326	1454.77
868.503	1426.09
868.681	1405.56
868.858	1377.66
869.035	1349.76
869.213	1440.24
869.39	1343.75
869.567	1476.08
869.745	1360.22
869.922	1386.18
870.099	1391.41
870.276	1417.57
870.454	1395.29
870.631	1390.06
870.808	1381.53
870.985	1402.65
871.162	1453.41
871.339	1410.98
871.517	1328.64
871.694	1316.43
871.871	1385.41
872.048	1358.47
872.225	1370.87
872.402	1392.77
872.579	1302.87
872.756	1360.99
872.933	1311.78
873.11	1346.08
873.287	1380.17
873.463	1324.96
873.64	1310.04
873.817	1336.39
873.994	1317.4
874.171	1283.88
874.348	1323.21
874.524	1267.03
874.701	1339.29
874.878	1238.93
875.055	1318.95
875.231	1312.56
875.408	1326.12
875.585	1245.33
875.762	1291.63
875.938	1267.99
876.115	1280.2
876.291	1282.72
876.468	1225.95
876.645	1207.35
876.821	1227.7
876.998	1247.65
877.174	1266.64
877.351	1260.63
877.527	1229.25
877.704	1257.92
877.88	1257.34
878.057	1229.83
878.233	1274.97
878.409	1247.46
878.586	1248.23
878.762	1217.04
878.938	1203.28
879.115	1142.83
879.291	1205.61
879.467	1161.82
879.644	1161.43
879.82	1240.48
879.996	1166.47
880.172	1141.67
880.349	1199.21
880.525	1201.35
880.701	1144.38
880.877	1144.38
881.053	1209.1
881.229	1164.53
881.405	1248.81
881.581	1158.14
881.757	1149.23
881.933	1210.45
882.109	1235.83
882.285	1195.73
882.461	1111.25
882.637	1169.77
882.813	1135.86
882.989	1147.1
883.165	1217.04
883.341	1152.13
883.517	1185.85
883.693	1208.32
883.869	1211.42
884.044	1139.35
884.22	1208.13
884.396	1219.17
884.572	1190.5
884.747	1209.68
884.923	1191.66
885.099	1196.31
885.275	1242.23
885.45	1148.84
885.626	1154.65
885.801	1137.02
885.977	1142.25
886.153	1098.27
886.328	1177.32
886.504	1123.27
886.679	1163.18
886.855	1148.84
887.03	1188.95
887.206	1175.38
887.381	1156.78
887.557	1205.03
887.732	1194.37
887.908	1154.46
888.083	1214.71
888.258	1169.96
888.434	1151.75
888.609	1151.75
888.784	1202.51
888.96	1156.01
889.135	1171.9
889.31	1125.98
889.485	1165.89
889.661	1136.05
889.836	1208.32
890.011	1206.96
890.186	1143.22
890.361	1140.9
890.537	1171.32
890.712	1167.05
890.887	1164.34
891.062	1141.09
891.237	1233.7
891.412	1132.18
891.587	1193.6
891.762	1180.42
891.937	1235.45
892.112	1125.4
892.287	1152.13
892.462	1089.55
892.637	1090.91
892.812	1065.34
892.987	1108.35
893.161	1062.04
893.336	1094.98
893.511	1077.93
893.686	1070.18
893.861	1079.29
894.035	1071.73
894.21	1094.01
894.385	1035.89
894.56	1089.94
894.734	1032.2
894.909	1009.54
895.084	1018.06
895.258	976.21
895.433	980.28
895.608	1026.39
895.782	937.27
895.957	943.27
896.131	947.92
896.306	887.67
896.48	897.55
896.655	892.51
896.829	817.92
897.004	854.73
897.178	831.87
897.353	821.02
897.527	901.04
897.701	829.16
897.876	773.55
898.05	909.37
898.224	860.35
898.399	919.25
898.573	840.01
898.747	753.79
898.921	808.23
899.096	722.98
899.27	697.41
899.444	706.71
899.618	732.28
899.792	771.81
899.967	750.5
900.141	807.26
900.315	742.94
900.489	732.09
900.663	783.24
900.837	736.16
901.011	698.18
901.185	782.46
901.359	750.5
901.533	764.25
901.707	738.1
901.881	778.78
902.055	668.35
902.229	739.45
902.403	810.75
902.576	768.9
902.75	749.72
902.924	846.01
903.098	803.58
903.272	848.34
903.446	849.5
903.619	838.65
903.793	926.22
903.967	868.29
904.14	938.43
904.314	924.09
904.488	900.65
904.661	933.39
904.835	869.46
905.009	913.05
905.182	919.25
905.356	895.81
905.529	934.56
905.703	866.16
905.876	875.66
906.05	869.46
906.223	826.06
906.397	755.15
906.57	757.08
906.744	767.74
906.917	727.63
907.09	727.25
907.264	746.43
907.437	699.73
907.61	684.04
907.784	684.62
907.957	714.07
908.13	668.73
908.304	724.15
908.477	631.34
908.65	661.95
908.823	641.8
908.996	709.03
909.17	656.14
909.343	642.77
909.516	694.89
909.689	658.85
909.862	607.7
910.035	641.22
910.208	620.49
910.381	627.47
910.554	717.95
910.727	644.9
910.9	646.45
911.073	606.93
911.246	681.33
911.419	698.18
911.592	692.37
911.765	614.29
911.938	623.01
912.11	674.35
912.283	643.16
912.456	715.62
912.629	696.63
912.802	625.34
912.974	594.92
913.147	559.85
913.32	522.26
913.493	551.91
913.665	583.49
913.838	580.77
914.01	537.18
914.183	578.64
914.356	569.34
914.528	624.75
914.701	675.9
914.873	629.6
915.046	586
915.218	536.21
915.391	467.63
915.563	501.14
915.736	597.24
915.908	579.61
916.081	562.17
916.253	559.66
916.425	549.39
916.598	582.9
916.77	595.5
916.942	563.14
917.115	495.72
917.287	583.68
917.459	527.88
917.632	505.79
917.804	455.81
917.976	529.62
918.148	572.25
918.32	552.29
918.493	580.58
918.665	628.05
918.837	550.74
919.009	617.2
919.181	637.93
919.353	593.37
919.525	579.22
919.697	585.23
919.869	544.74
920.041	627.85
920.213	701.87
920.385	643.94
920.557	576.9
920.729	636.57
920.901	615.45
921.073	590.07
921.244	577.48
921.416	599.18
921.588	597.24
921.76	567.21
921.932	628.82
922.103	583.68
922.275	566.44
922.447	601.89
922.619	487.97
922.79	571.47
922.962	547.84
923.134	590.27
923.305	535.63
923.477	482.54
923.648	534.66
923.82	540.86
923.991	482.54
924.163	500.37
924.335	509.86
924.506	477.31
924.677	544.35
924.849	491.84
925.02	493.59
925.192	545.71
925.363	534.27
925.535	526.14
925.706	477.7
925.877	548.03
926.049	505.79
926.22	513.35
926.391	511.99
926.562	539.89
926.734	478.09
926.905	523.23
927.076	459.49
927.247	483.9
927.419	415.31
927.59	426.55
927.761	439.92
927.932	425
928.103	458.52
928.274	375.79
928.445	388.19
928.616	418.41
928.787	398.46
928.958	425
929.129	392.84
929.3	365.52
929.471	342.08
929.642	278.14
929.813	239.39
929.984	348.86
930.155	255.47
930.326	341.11
930.496	277.95
930.667	172.55
930.838	260.7
931.009	243.07
931.18	239.39
931.35	229.12
931.521	254.12
931.692	160.15
931.863	146.39
932.033	176.62
932.204	189.21
932.374	193.67
932.545	130.89
932.716	197.74
932.886	191.54
933.057	122.95
933.227	82.65
933.398	208.97
933.568	125.47
933.739	52.62
933.909	77.81
934.08	143.29
934.25	32.28
934.421	42.35
934.591	110.36
934.761	91.95
934.932	44.87
935.102	139.8
935.272	74.71
935.443	93.69
935.613	92.92
935.783	112.87
935.953	64.44
936.123	229.9
936.294	78.39
936.464	57.85
936.634	78.19
936.804	27.82
936.974	56.3
937.144	117.14
937.314	101.44
937.484	57.27
937.655	35.96
937.825	136.9
937.995	61.14
938.165	104.93
938.334	87.69
938.504	125.66
938.674	98.34
938.844	115.59
939.014	169.25
939.184	187.27
939.354	210.14
939.524	216.14
939.694	149.88
939.863	141.35
940.033	209.75
940.203	209.75
940.373	179.72
940.542	188.24
940.712	152.01
940.882	189.02
941.051	206.65
941.221	181.65
941.391	211.49
941.56	169.25
941.73	161.7
941.899	231.45
942.069	138.84
942.238	181.27
942.408	142.71
942.577	189.6
942.747	147.55
942.916	89.43
943.086	111.71
943.255	163.64
943.425	143.68
943.594	88.27
943.763	49.52
943.933	87.11
944.102	59.01
944.271	87.88
944.441	113.26
944.61	96.6
944.779	118.88
944.948	202.58
945.117	76.06
945.287	116.94
945.456	65.02
945.625	85.94
945.794	138.64
945.963	83.23
946.132	137.67
946.301	97.37
946.47	140.77
946.639	63.08
946.808	70.25
946.977	121.21
947.146	165.96
947.315	68.12
947.484	161.5
947.653	108.22
947.822	102.61
947.991	88.46
948.16	182.82
948.329	160.92
948.498	81.1
948.666	94.47
948.835	153.95
949.004	83.42
949.173	88.85
949.341	125.85
949.51	125.27
949.679	177.59
949.847	134.38
950.016	216.53
950.185	176.23
950.353	99.12
950.522	103.19
950.69	189.4
950.859	129.34
951.028	174.68
951.196	149.3
951.365	84.59
951.533	104.74
951.701	151.43
951.87	153.75
952.038	99.51
952.207	119.07
952.375	188.82
952.543	109.39
952.712	109.77
952.88	90.59
953.048	158.4
953.217	126.82
953.385	115.97
953.553	176.04
953.721	66.18
953.89	113.07
954.058	59.01
954.226	92.92
954.394	111.32
954.562	88.07
954.73	95.24
954.898	118.11
955.067	156.85
955.235	89.04
955.403	163.44
955.571	191.73
955.739	143.29
955.907	92.92
956.075	77.42
956.243	80.13
956.41	150.46
956.578	44.48
956.746	47.58
956.914	74.12
957.082	139.8
957.25	134.38
957.418	85.17
957.585	107.26
957.753	179.14
957.921	81.1
958.089	86.33
958.256	129.54
958.424	120.62
958.592	105.71
958.759	60.37
958.927	166.74
959.095	93.11
959.262	124.89
959.43	100.09
959.597	48.94
959.765	123.72
959.932	96.99
960.1	148.72
960.267	115.97
960.435	112.87
960.602	137.67
960.77	91.56
960.937	69.47
961.104	104.93
961.272	68.7
961.439	64.63
961.606	144.84
961.774	126.05
961.941	97.76
962.108	117.91
962.275	120.24
962.443	158.4
962.61	156.27
962.777	204.13
962.944	154.14
963.111	134.57
963.278	133.8
963.446	139.61
963.613	114.04
963.78	119.27
963.947	145.42
964.114	138.45
964.281	209.17
964.448	138.45
964.615	93.89
964.782	130.89
964.949	150.46
965.116	163.05
965.282	158.99
965.449	121.79
965.616	79.36
965.783	158.4
965.95	127.6
966.117	84.39
966.283	108.22
966.45	140.97
966.617	143.1
966.784	169.84
966.95	157.24
967.117	158.4
967.284	104.35
967.45	101.06
967.617	175.65
967.784	148.14
967.95	149.69
968.117	160.54
968.283	172.94
968.45	235.32
968.616	165.96
968.783	181.27
968.949	161.5
969.116	192.7
969.282	148.91
969.449	169.64
969.615	164.41
969.781	87.69
969.948	111.13
970.114	86.72
970.28	187.47
970.447	127.6
970.613	199.29
970.779	129.73
970.945	158.21
971.112	141.55
971.278	129.34
971.444	150.85
971.61	189.02
971.776	141.94
971.942	140.39
972.108	145.42
972.275	137.29
972.441	168.48
972.607	208.78
972.773	114.81
972.939	145.62
973.105	109
973.271	102.8
973.437	90.79
973.602	97.37
973.768	126.63
973.934	138.25
974.1	123.53
974.266	59.59
974.432	140.39
974.598	103.19
974.763	154.34
974.929	129.92
975.095	200.45
975.261	88.66
975.426	92.53
975.592	113.26
975.758	201.8
975.923	33.44
976.089	80.91
976.255	142.52
976.42	146.2
976.586	143.87
976.751	138.64
976.917	193.86
977.082	164.22
977.248	92.72
977.413	48.74
977.579	104.16
977.744	129.73
977.91	70.64
978.075	76.64
978.24	164.99
978.406	111.91
978.571	86.14
978.736	114.04
978.902	121.98
979.067	71.99
979.232	58.24
979.397	116.75
979.563	177
979.728	69.28
979.893	125.27
980.058	73.35
980.223	147.17
980.388	126.82
980.554	112.87
980.719	89.43
980.884	109.97
981.049	146
981.214	76.84
981.379	141.35
981.544	97.57
981.709	112.1
981.874	109.77
982.039	124.3
982.204	133.99
982.368	135.54
982.533	100.09
982.698	135.54
982.863	175.65
983.028	90.59
983.193	120.24
983.357	113.46
983.522	120.24
983.687	119.66
983.852	99.31
984.016	117.91
984.181	122.95
984.346	145.81
984.51	145.62
984.675	116.56
984.839	140.19
985.004	124.5
985.168	140
985.333	104.74
985.498	116.56
985.662	143.49
985.827	127.79
985.991	84.78
986.155	82.46
986.32	116.36
986.484	177.39
986.649	145.62
986.813	39.83
986.977	106.09
987.142	140.58
987.306	76.26
987.47	61.92
987.634	129.15
987.799	112.68
987.963	103.96
988.127	138.25
988.291	205.68
988.455	92.53
988.62	116.94
988.784	151.43
988.948	158.79
989.112	71.22
989.276	106.67
989.44	100.67
989.604	89.62
989.768	115.39
989.932	201.42
990.096	88.85
990.26	73.74
990.424	66.57
990.588	124.89
990.752	176.04
990.915	153.56
991.079	98.92
991.243	87.49
991.407	126.05
991.571	90.21
991.734	133.22
991.898	118.3
992.062	192.5
992.226	104.74
992.389	51.65
992.553	38.09
992.717	66.37
992.88	102.99
993.044	96.99
993.207	88.66
993.371	128.57
993.535	95.05
993.698	72.96
993.862	140.58
994.025	138.06
994.189	128.37
994.352	105.51
994.515	109.19
994.679	134.57
994.842	65.02
995.006	129.92
995.169	75.09
995.332	45.45
995.496	121.4
995.659	72.96
995.822	66.18
995.985	90.79
996.149	122.37
996.312	87.3
996.475	158.79
996.638	76.45
996.801	147.94
996.964	148.91
997.128	90.79
997.291	100.67
997.454	111.71
997.617	48.16
997.78	127.99
997.943	37.89
998.106	119.66
998.269	71.02
998.432	77.03
998.595	83.62
998.758	31.31
998.92	42.54
999.083	19.88
999.246	56.88
999.409	47.19
999.572	15.61
999.735	73.54
999.897	103.77
1000.06	71.61
1000.223	55.72
1000.386	88.66
1000.548	77.42
1000.711	110.94
1000.874	99.31
1001.036	12.13
1001.199	105.51
1001.361	47.58
1001.524	69.28
1001.687	119.27
1001.849	38.09
1002.012	84.97
1002.174	57.85
1002.337	109.58
1002.499	86.52
1002.661	98.73
1002.824	36.54
1002.986	38.47
1003.149	85.75
1003.311	36.54
1003.473	140
1003.636	67.73
1003.798	91.56
1003.96	77.61
1004.123	74.12
1004.285	18.91
1004.447	62.31
1004.609	58.82
1004.771	136.51
1004.933	30.14
1005.096	34.41
1005.258	-2.02
1005.42	48.36
1005.582	101.44
1005.744	74.32
1005.906	10.77
1006.068	60.95
1006.23	9.22
1006.392	1.08
1006.554	18.33
1006.716	96.41
1006.878	76.45
1007.04	28.4
1007.202	38.67
1007.363	65.99
1007.525	74.12
1007.687	86.33
1007.849	118.88
1008.011	6.12
1008.172	23.56
1008.334	42.16
1008.496	79.94
1008.658	17.16
1008.819	24.72
1008.981	-11.51
1009.143	23.36
1009.304	50.1
1009.466	88.46
1009.627	102.22
1009.789	164.8
1009.95	65.6
1010.112	43.9
1010.273	48.16
1010.435	17.74
1010.596	33.05
1010.758	35.38
1010.919	37.7
1011.081	21.43
1011.242	42.35
1011.403	78.97
1011.565	37.12
1011.726	76.06
1011.887	9.03
1012.049	23.17
1012.21	81.29
1012.371	110.94
1012.532	-29.72
1012.693	69.86
1012.855	47.19
1013.016	41.57
1013.177	80.13
1013.338	33.05
1013.499	118.3
1013.66	89.04
1013.821	83.81
1013.982	53.01
1014.143	50.87
1014.304	51.65
1014.465	54.56
1014.626	82.65
1014.787	26.08
1014.948	135.15
1015.109	-35.73
1015.27	77.22
1015.431	41.77
1015.592	14.84
1015.752	85.56
1015.913	48.94
1016.074	45.26
1016.235	56.11
1016.395	59.21
1016.556	47.39
1016.717	54.56
1016.877	102.61
1017.038	26.08
1017.199	34.99
1017.359	24.14
1017.52	35.18
1017.681	18.52
1017.841	47.77
1018.002	52.81
1018.162	47.39
1018.323	85.36
1018.483	25.69
1018.644	49.91
1018.804	13.29
1018.964	28.79
1019.125	4.18
1019.285	49.52
1019.446	1.86
1019.606	-27.98
1019.766	-20.04
1019.926	82.84
1020.087	47.58
1020.247	-18.49
1020.407	61.34
1020.567	107.84
1020.728	25.88
1020.888	7.28
1021.048	6.89
1021.208	-23.72
1021.368	-13.06
1021.528	80.13
1021.688	72.77
1021.848	62.11
1022.008	59.01
1022.168	28.21
1022.328	28.01
1022.488	52.42
1022.648	38.86
1022.808	53.01
1022.968	42.54
1023.128	-8.41
1023.288	24.33
1023.448	29.18
1023.608	70.25
1023.767	42.35
1023.927	13.48
1024.087	-2.02
1024.247	6.12
1024.406	28.59
1024.566	-12.48
1024.726	9.03
1024.885	50.29
1025.045	47.77
1025.205	20.65
1025.364	0.11
1025.524	52.23
1025.683	34.21
1025.843	50.1
1026.003	30.73
1026.162	97.57
1026.321	43.32
1026.481	32.08
1026.64	7.09
1026.8	26.85
1026.959	11.16
1027.119	12.51
1027.278	17.36
1027.437	9.22
1027.597	16.19
1027.756	29.76
1027.915	55.91
1028.074	26.85
1028.234	-13.26
1028.393	42.74
1028.552	34.02
1028.711	-63.44
1028.87	37.51
1029.03	-11.32
1029.189	2.05
1029.348	-16.16
1029.507	16.97
1029.666	17.74
1029.825	-7.06
1029.984	-1.63
1030.143	21.62
1030.302	-4.34
1030.461	-41.74
1030.62	17.55
1030.779	55.72
1030.938	1.66
1031.097	-17.52
1031.255	35.38
1031.414	88.66
1031.573	68.51
1031.732	-46
1031.891	0.11
1032.049	56.11
1032.208	37.51
1032.367	6.51
1032.525	-4.54
1032.684	-11.51
1032.843	27.43
1033.001	-44.45
1033.16	165.77
1033.319	58.82
1033.477	42.35
1033.636	9.41
1033.794	-30.5
1033.953	40.99
1034.111	35.96
1034.27	2.05
1034.428	5.15
1034.587	-26.04
1034.745	45.64
1034.903	6.89
1035.062	47.77
1035.22	-34.76
1035.378	47.97
1035.537	-13.45
1035.695	53.78
1035.853	13.87
1036.011	47.19
1036.17	16.58
1036.328	-41.35
1036.486	7.86
1036.644	29.76
1036.802	-72.35
1036.96	-0.66
1037.119	14.64
1037.277	-3.18
1037.435	-15.58
1037.593	-10.54
1037.751	28.4
1037.909	21.23
1038.067	21.23
