Data from gum_old_FLMT105791__88__15-44-16-256.txt Node

Date: Mon Mar 20 15:44:16 GMT 2023
User: antho
Spectrometer: FLMT10579
Trigger mode: 0
Integration Time (sec): 1.000000E-1
Scans to average: 10
Electric dark correction enabled: true
Nonlinearity correction enabled: false
Boxcar width: 0
XAxis mode: Wavelengths
Number of Pixels in Spectrum: 3648
>>>>>Begin Spectral Data<<<<<
345.248	-170.8
345.464	-170.8
345.681	-170.8
345.898	-195.8
346.114	-174.87
346.331	-51.84
346.548	20.62
346.764	-35.18
346.981	4.15
347.197	-37.51
347.414	37.67
347.631	-17.94
347.847	63.44
348.064	18.49
348.28	27.4
348.497	-33.44
348.713	4.15
348.93	42.51
349.146	21.39
349.363	19.65
349.579	38.25
349.796	1.24
350.012	10.35
350.229	56.65
350.445	28.56
350.661	6.67
350.878	10.16
351.094	29.14
351.311	32.05
351.527	28.95
351.743	-8.25
351.96	59.37
352.176	52.39
352.392	6.28
352.609	49.87
352.825	4.54
353.041	27.98
353.257	-4.18
353.474	14.03
353.69	43.87
353.906	27.79
354.122	5.51
354.339	98.5
354.555	40.77
354.771	17.91
354.987	84.36
355.203	71.96
355.42	26.24
355.636	27.98
355.852	-9.8
356.068	41.74
356.284	-10.58
356.5	74.67
356.716	61.11
356.932	48.32
357.148	54.52
357.364	44.84
357.58	73.51
357.796	67.12
358.012	82.42
358.228	53.36
358.444	-18.13
358.66	90.56
358.876	43.09
359.092	16.74
359.308	28.56
359.524	80.29
359.74	25.46
359.956	-6.31
360.172	45.61
360.388	74.67
360.604	30.31
360.819	111.68
361.035	30.5
361.251	40.77
361.467	-15.03
361.683	72.54
361.898	33.79
362.114	37.67
362.33	30.31
362.546	67.7
362.762	38.44
362.977	64.79
363.193	25.27
363.409	83
363.624	15
363.84	12.09
364.056	26.04
364.271	44.64
364.487	71.19
364.703	53.17
364.918	18.49
365.134	30.69
365.35	53.75
365.565	152.56
365.781	44.26
365.996	77.58
366.212	122.92
366.427	78.16
366.643	35.73
366.858	59.75
367.074	39.22
367.289	117.69
367.505	144.23
367.72	11.32
367.936	48.71
368.151	125.63
368.367	73.12
368.582	78.74
368.798	45.03
369.013	124.66
369.228	69.25
369.444	89.2
369.659	117.3
369.874	75.45
370.09	137.06
370.305	26.82
370.52	79.13
370.736	137.45
370.951	59.17
371.166	99.86
371.381	145.78
371.597	77.19
371.812	44.45
372.027	46
372.242	56.27
372.458	132.22
372.673	68.67
372.888	45.81
373.103	105.29
373.318	151.78
373.533	85.72
373.749	91.14
373.964	4.54
374.179	124.47
374.394	24.11
374.609	88.82
374.824	27.4
375.039	101.8
375.254	28.17
375.469	114.78
375.684	80.49
375.899	111.87
376.114	63.05
376.329	90.17
376.544	110.52
376.759	105.67
376.974	31.08
377.189	65.76
377.404	65.76
377.619	138.42
377.834	14.22
378.049	34.37
378.264	50.46
378.478	84.75
378.693	91.53
378.908	127.95
379.123	69.44
379.338	142.1
379.553	104.9
379.767	99.47
379.982	115.36
380.197	98.31
380.412	69.44
380.626	112.45
380.841	170.38
381.056	107.03
381.271	162.63
381.485	62.08
381.7	51.42
381.915	96.37
382.129	70.99
382.344	82.62
382.559	59.75
382.773	103.93
382.988	11.32
383.202	83.39
383.417	39.8
383.632	181.04
383.846	86.3
384.061	62.27
384.275	77.39
384.49	61.11
384.704	119.82
384.919	87.65
385.133	105.67
385.348	132.8
385.562	60.53
385.777	139.58
385.991	105.67
386.206	89.4
386.42	60.34
386.634	120.98
386.849	91.53
387.063	97.15
387.277	67.7
387.492	70.99
387.706	75.64
387.92	81.07
388.135	152.17
388.349	112.84
388.563	137.06
388.778	127.18
388.992	102.19
389.206	120.59
389.42	199.45
389.635	93.66
389.849	143.84
390.063	168.06
390.277	127.95
390.491	182.78
390.706	136.09
390.92	163.8
391.134	142.87
391.348	164.57
391.562	93.66
391.776	151.59
391.99	101.41
392.205	177.94
392.419	105.67
392.633	119.24
392.847	186.66
393.061	85.33
393.275	186.66
393.489	107.22
393.703	95.21
393.917	131.25
394.131	59.95
394.345	122.92
394.559	148.49
394.773	89.59
394.986	143.26
395.2	148.68
395.414	202.93
395.628	129.31
395.842	163.22
396.056	154.11
396.27	94.63
396.484	170
396.697	151.59
396.911	177.75
397.125	154.11
397.339	157.4
397.553	120.4
397.766	186.66
397.98	175.62
398.194	201.58
398.408	141.71
398.621	209.72
398.835	227.54
399.049	226.18
399.262	246.72
399.476	252.53
399.69	244.78
399.903	304.07
400.117	203.32
400.331	290.7
400.544	210.68
400.758	360.84
400.971	264.93
401.185	273.07
401.398	214.56
401.612	267.65
401.826	270.16
402.039	272.88
402.253	237.23
402.466	293.03
402.68	231.8
402.893	285.08
403.106	251.56
403.32	253.5
403.533	276.75
403.747	261.25
403.96	281.21
404.174	285.08
404.387	227.15
404.6	272.1
404.814	298.45
405.027	272.3
405.24	275.59
405.454	269.2
405.667	329.26
405.88	220.95
406.094	296.71
406.307	306.2
406.52	290.12
406.733	237.42
406.947	235.1
407.16	305.04
407.373	320.93
407.586	261.83
407.799	270.94
408.012	324.8
408.226	297.87
408.439	343.01
408.652	267.65
408.865	295.55
409.078	339.53
409.291	325.38
409.504	268.42
409.717	337.39
409.93	324.03
410.143	308.33
410.357	236.06
410.57	251.95
410.783	266.29
410.996	312.98
411.209	307.56
411.421	377.5
411.634	323.06
411.847	311.05
412.06	337.39
412.273	351.93
412.486	346.89
412.699	420.51
412.912	348.05
413.125	392.61
413.338	354.83
413.55	382.15
413.763	354.64
413.976	353.86
414.189	315.11
414.402	343.59
414.615	388.93
414.827	305.43
415.04	393.97
415.253	377.11
415.466	417.61
415.678	441.63
415.891	371.49
416.104	355.03
416.316	342.24
416.529	346.89
416.742	376.92
416.954	411.79
417.167	383.12
417.38	383.89
417.592	408.89
417.805	376.73
418.017	311.05
418.23	401.14
418.442	345.73
418.655	368.01
418.868	383.7
419.08	390.09
419.293	430.39
419.505	397.65
419.718	396.88
419.93	408.69
420.142	350.96
420.355	413.92
420.567	431.17
420.78	412.96
420.992	390.87
421.205	464.88
421.417	366.46
421.629	412.18
421.842	384.28
422.054	376.34
422.266	443.57
422.479	478.44
422.691	410.44
422.903	439.89
423.115	358.51
423.328	406.17
423.54	425.16
423.752	412.18
423.964	367.43
424.177	420.12
424.389	419.16
424.601	514.29
424.813	417.22
425.025	448.8
425.238	441.44
425.45	430.2
425.662	423.42
425.874	725.86
426.086	434.85
426.298	422.45
426.51	448.8
426.722	414.51
426.934	410.82
427.146	459.26
427.358	366.26
427.57	456.36
427.782	390.09
427.994	404.24
428.206	375.18
428.418	376.53
428.63	457.32
428.842	467.79
429.054	418.57
429.266	449.57
429.478	402.49
429.69	435.04
429.902	396.49
430.114	453.64
430.325	411.41
430.537	365.1
430.749	349.6
430.961	281.6
431.173	315.5
431.384	358.71
431.596	287.21
431.808	368.2
432.02	406.37
432.231	460.62
432.443	536.18
432.655	487.16
432.867	458.29
433.078	478.25
433.29	528.62
433.502	510.41
433.713	546.25
433.925	525.91
434.136	550.52
434.348	445.12
434.56	418.57
434.771	561.95
434.983	406.95
435.194	446.09
435.406	489.29
435.617	569.31
435.829	609.61
436.04	559.04
436.252	530.75
436.463	581.32
436.675	584.03
436.886	548.19
437.098	579.19
437.309	620.27
437.521	572.41
437.732	570.67
437.943	539.09
438.155	566.4
438.366	476.51
438.578	592.17
438.789	545.48
439	567.76
439.211	473.99
439.423	513.32
439.634	501.69
439.845	566.99
440.057	560.98
440.268	600.31
440.479	551.49
440.69	575.12
440.902	559.82
441.113	544.51
441.324	552.45
441.535	586.36
441.746	674.13
441.957	579.19
442.168	571.05
442.38	626.27
442.591	619.49
442.802	589.65
443.013	630.92
443.224	650.68
443.435	625.88
443.646	608.25
443.857	601.08
444.068	591.78
444.279	574.15
444.49	707.26
444.701	636.73
444.912	760.54
445.123	685.17
445.334	659.4
445.545	633.83
445.756	596.05
445.967	601.28
446.178	646.62
446.388	653.59
446.599	669.67
446.81	662.5
447.021	613.68
447.232	663.47
447.443	714.62
447.653	634.02
447.864	713.26
448.075	671.03
448.286	687.3
448.496	713.07
448.707	706.87
448.918	658.05
449.129	744.07
449.339	664.25
449.55	708.03
449.761	702.22
449.971	728.38
450.182	684.4
450.393	719.27
450.603	679.36
450.814	727.41
451.024	766.74
451.235	790.76
451.446	796.77
451.656	807.23
451.867	728.18
452.077	721.4
452.288	805.49
452.498	763.25
452.709	708.61
452.919	724.89
453.13	652.82
453.34	722.95
453.55	640.42
453.761	739.42
453.971	725.86
454.182	721.6
454.392	694.08
454.602	784.56
454.813	753.76
455.023	758.79
455.233	691.18
455.444	723.15
455.654	653.98
455.864	703.96
456.075	704.93
456.285	693.11
456.495	699.7
456.705	775.26
456.916	825.25
457.126	786.5
457.336	743.68
457.546	693.31
457.756	737.87
457.967	811.49
458.177	757.24
458.387	721.4
458.597	690.79
458.807	749.69
459.017	730.12
459.227	773.71
459.437	707.26
459.647	797.93
459.857	790.96
460.068	767.71
460.278	802.39
460.488	790.96
460.698	830.48
460.908	779.72
461.117	752.59
461.327	767.13
461.537	797.54
461.747	833.97
461.957	793.09
462.167	923.67
462.377	857.02
462.587	802.19
462.797	884.73
463.007	804.71
463.216	845.79
463.426	912.44
463.636	868.65
463.846	769.26
464.056	784.95
464.265	839.39
464.475	761.7
464.685	837.07
464.895	861.29
465.104	801.42
465.314	832.42
465.524	838.04
465.733	797.16
465.943	889.57
466.153	906.04
466.362	859.16
466.572	847.92
466.782	803.16
466.991	855.47
467.201	908.56
467.41	786.5
467.62	844.82
467.829	821.38
468.039	862.06
468.249	844.04
468.458	854.31
468.668	902.94
468.877	913.99
469.086	918.64
469.296	942.66
469.505	882.21
469.715	963.2
469.924	911.86
470.134	934.33
470.343	949.83
470.552	881.44
470.762	880.66
470.971	854.12
471.18	894.22
471.39	911.27
471.599	889.19
471.808	950.02
472.018	903.72
472.227	966.69
472.436	1006.02
472.645	979.67
472.855	935.1
473.064	1047.48
473.273	1015.12
473.482	1016.67
473.691	1040.89
473.901	1012.02
474.11	964.17
474.319	1079.25
474.528	1028.68
474.737	1087.97
474.946	1068.21
475.155	1072.86
475.364	1108.12
475.573	1067.63
475.783	1068.79
475.992	1098.63
476.201	1110.45
476.41	1075.77
476.619	1037.6
476.828	1107.15
477.037	1049.61
477.245	1076.54
477.454	1143
477.663	1116.84
477.872	1120.91
478.081	1214.68
478.29	1129.24
478.499	1219.91
478.708	1152.68
478.917	1224.18
479.125	1161.79
479.334	1176.32
479.543	1205.77
479.752	1223.01
479.961	1165.66
480.169	1275.13
480.378	1211.58
480.587	1349.92
480.796	1262.34
481.004	1291.6
481.213	1278.23
481.422	1279.78
481.63	1313.88
481.839	1306.52
482.048	1346.82
482.256	1291.41
482.465	1328.99
482.674	1342.75
482.882	1341.59
483.091	1406.49
483.299	1326.47
483.508	1347.4
483.716	1326.47
483.925	1339.26
484.134	1325.12
484.342	1296.64
484.551	1377.82
484.759	1347.4
484.967	1407.65
485.176	1361.54
485.384	1407.85
485.593	1394.09
485.801	1360.57
486.01	1351.27
486.218	1286.76
486.426	1204.41
486.635	1199.38
486.843	1146.29
487.051	1210.61
487.26	1210.81
487.468	1247.62
487.676	1330.74
487.885	1294.7
488.093	1345.85
488.301	1382.47
488.509	1419.09
488.717	1433.62
488.926	1421.8
489.134	1360.77
489.342	1395.25
489.55	1374.33
489.758	1448.92
489.967	1442.34
490.175	1529.13
490.383	1493.68
490.591	1567.5
490.799	1432.65
491.007	1603.15
491.215	1538.43
491.423	1497.94
491.631	1504.33
491.839	1512.28
492.047	1535.53
492.255	1450.08
492.463	1410.75
492.671	1426.25
492.879	1529.33
493.087	1555.48
493.295	1548.7
493.503	1567.3
493.711	1610.31
493.919	1613.22
494.127	1594.81
494.334	1604.11
494.542	1534.75
494.75	1570.01
494.958	1581.64
495.166	1673.28
495.374	1632.21
495.581	1658.36
495.789	1658.94
495.997	1685.88
496.205	1602.37
496.412	1599.08
496.62	1637.63
496.828	1650.42
497.035	1654.29
497.243	1642.67
497.451	1661.85
497.658	1663.01
497.866	1651.19
498.074	1725.98
498.281	1626.59
498.489	1748.26
498.696	1644.99
498.904	1601.21
499.112	1610.31
499.319	1707.77
499.527	1635.69
499.734	1690.14
499.942	1604.89
500.149	1645.77
500.357	1684.13
500.564	1624.65
500.771	1653.71
500.979	1589
501.186	1591.71
501.394	1644.99
501.601	1601.01
501.808	1605.08
502.016	1646.74
502.223	1577.76
502.43	1597.72
502.638	1580.86
502.845	1581.45
503.052	1739.74
503.26	1658.56
503.467	1738.96
503.674	1678.32
503.881	1703.51
504.089	1759.69
504.296	1713.97
504.503	1655.26
504.71	1644.22
504.917	1623.49
505.125	1673.67
505.332	1675.8
505.539	1699.05
505.746	1789.53
505.953	1753.3
506.16	1726.37
506.367	1814.52
506.574	1853.27
506.781	1826.34
506.988	1751.94
507.195	1772.09
507.402	1737.02
507.609	1823.82
507.816	1733.54
508.023	1749.04
508.23	1714.16
508.437	1693.04
508.644	1769.57
508.851	1777.52
509.058	1803.29
509.265	1775.19
509.472	1818.4
509.679	1895.12
509.885	1792.82
510.092	1801.15
510.299	1816.27
510.506	1792.24
510.713	1797.09
510.92	1806.39
511.126	1800.77
511.333	1826.34
511.54	1870.32
511.746	1878.85
511.953	1878.85
512.16	1885.44
512.367	1848.24
512.573	1836.8
512.78	1897.64
512.987	1828.09
513.193	1793.41
513.4	1734.7
513.606	1804.84
513.813	1818.01
514.02	1805.61
514.226	1874
514.433	1848.24
514.639	1780.04
514.846	1831.57
515.052	1782.75
515.259	1804.45
515.465	1791.27
515.672	1819.75
515.878	1923.41
516.085	1879.04
516.291	1876.91
516.497	1844.36
516.704	1833.7
516.91	1738.77
517.117	1704.09
517.323	1608.38
517.529	1666.31
517.736	1619.42
517.942	1638.99
518.148	1683.74
518.354	1735.86
518.561	1713.58
518.767	1730.82
518.973	1756.59
519.179	1806.19
519.386	1742.84
519.592	1763.96
519.798	1749.62
520.004	1869.74
520.21	1826.92
520.417	1884.47
520.623	1921.86
520.829	1924.18
521.035	1961.58
521.241	1901.52
521.447	1979.6
521.653	2053.41
521.859	1935.03
522.065	1987.54
522.271	2048.96
522.477	2021.64
522.683	2104.56
522.889	2018.73
523.095	2013.31
523.301	1970.68
523.507	1948.6
523.713	1992.58
523.919	1959.64
524.125	2048.76
524.331	2013.89
524.537	2124.13
524.742	2117.54
524.948	2134.79
525.154	2117.93
525.36	2228.56
525.566	2108.05
525.772	2187.29
525.977	2065.43
526.183	2110.38
526.389	2174.89
526.595	2073.37
526.8	2097.78
527.006	2053.22
527.212	1946.85
527.417	1955.77
527.623	1905.58
527.829	2003.23
528.034	2056.9
528.24	2030.75
528.446	2097.01
528.651	2153.97
528.857	2182.06
529.062	2216.74
529.268	2191.94
529.473	2223.91
529.679	2237.86
529.884	2294.63
530.09	2287.85
530.295	2251.81
530.501	2260.72
530.706	2242.9
530.912	2273.12
531.117	2274.09
531.323	2300.05
531.528	2351.4
531.733	2349.27
531.939	2278.35
532.144	2336.28
532.35	2303.93
532.555	2356.05
532.76	2291.72
532.966	2327.37
533.171	2283.78
533.376	2224.88
533.581	2177.02
533.787	2250.26
533.992	2269.25
534.197	2334.93
534.402	2311.49
534.607	2296.37
534.813	2374.26
535.018	2319.82
535.223	2301.8
535.428	2376.58
535.633	2415.53
535.838	2369.8
536.043	2387.05
536.249	2477.33
536.454	2410.3
536.659	2428.9
536.864	2352.95
537.069	2332.99
537.274	2377.36
537.479	2363.6
537.684	2350.82
537.889	2308.19
538.094	2431.61
538.299	2385.3
538.504	2391.5
538.708	2407.39
538.913	2428.12
539.118	2363.41
539.323	2417.46
539.528	2362.05
539.733	2360.7
539.938	2414.95
540.142	2388.21
540.347	2400.42
540.552	2320.4
540.757	2339.97
540.962	2360.5
541.166	2264.21
541.371	2242.12
541.576	2345
541.781	2231.27
541.985	2396.93
542.19	2384.33
542.395	2470.55
542.599	2488.76
542.804	2404.48
543.008	2482.76
543.213	2400.8
543.418	2374.84
543.622	2422.89
543.827	2365.73
544.031	2473.26
544.236	2439.36
544.44	2401.97
544.645	2541.08
544.849	2417.46
545.054	2472.3
545.258	2533.71
545.463	2536.62
545.667	2416.88
545.872	2512.01
546.076	2450.98
546.281	2480.82
546.485	2424.83
546.689	2501.16
546.894	2495.74
547.098	2504.46
547.302	2456.02
547.507	2482.95
547.711	2488.18
547.915	2512.79
548.119	2435.29
548.324	2423.28
548.528	2528.48
548.732	2473.26
548.936	2521.7
549.141	2501.74
549.345	2444.2
549.549	2486.44
549.753	2535.46
549.957	2565.49
550.161	2591.26
550.366	2532.74
550.57	2481.98
550.774	2495.16
550.978	2492.45
551.182	2570.14
551.386	2467.84
551.59	2468.61
551.794	2460.48
551.998	2505.62
552.202	2485.08
552.406	2489.93
552.61	2511.82
552.814	2510.46
553.018	2533.71
553.222	2499.81
553.426	2475.78
553.63	2569.94
553.833	2475.4
554.037	2428.51
554.241	2522.28
554.445	2489.35
554.649	2525.19
554.853	2453.31
555.056	2527.13
555.26	2546.69
555.464	2475.4
555.668	2549.21
555.871	2525.96
556.075	2531
556.279	2520.34
556.483	2453.5
556.686	2496.9
556.89	2495.55
557.094	2524.22
557.297	2371.35
557.501	2461.45
557.704	2375.03
557.908	2466.29
558.112	2407.39
558.315	2495.55
558.519	2438.58
558.722	2418.05
558.926	2409.52
559.129	2341.13
559.333	2347.91
559.536	2326.4
559.74	2316.33
559.943	2313.81
560.147	2294.82
560.35	2307.42
560.553	2310.13
560.757	2290.75
560.96	2379.3
561.164	2330.47
561.367	2403.32
561.57	2355.85
561.774	2378.91
561.977	2306.84
562.18	2274.67
562.384	2383.95
562.587	2317.88
562.79	2294.44
562.993	2278.35
563.197	2327.18
563.4	2347.52
563.603	2365.93
563.806	2427.35
564.009	2298.12
564.212	2342.1
564.416	2223.91
564.619	2300.05
564.822	2248.32
565.025	2345.39
565.228	2252
565.431	2304.7
565.634	2192.72
565.837	2237.28
566.04	2214.81
566.243	2212.67
566.446	2085.58
566.649	2232.63
566.852	2142.54
567.055	2202.79
567.258	2228.56
567.461	2306.64
567.664	2278.94
567.867	2177.8
568.07	2221.59
568.273	2228.76
568.475	2272.93
568.678	2169.47
568.881	2205.31
569.084	2206.47
569.287	2080.54
569.489	2107.47
569.692	2202.99
569.895	2185.74
570.098	2107.28
570.3	2090.61
570.503	2053.8
570.706	2064.07
570.909	2104.37
571.111	2036.36
571.314	2004.59
571.516	2071.04
571.719	2066.78
571.922	2041.98
572.124	2026.48
572.327	2086.35
572.529	2003.23
572.732	2031.52
572.935	2064.84
573.137	2152.03
573.34	2071.04
573.542	2114.83
573.745	2111.34
573.947	2086.54
574.15	2042.95
574.352	2029.58
574.554	2102.82
574.757	2053.03
574.959	2013.7
575.162	2016.41
575.364	1977.66
575.566	2105.34
575.769	1957.12
575.971	2015.83
576.173	1893.18
576.376	1992
576.578	2000.33
576.78	2035.01
576.982	1913.14
577.185	1939.1
577.387	1961.38
577.589	1976.69
577.791	1956.15
577.993	1962.35
578.196	1906.17
578.398	1992.19
578.6	1979.6
578.802	1888.73
579.004	1867.03
579.206	1896.09
579.408	1973.2
579.61	1876.33
579.812	1965.65
580.014	1912.56
580.216	1892.22
580.418	1923.8
580.62	1880.79
580.822	1843.39
581.024	1896.48
581.226	1964.68
581.428	1880.79
581.63	1983.66
581.832	1875.55
582.034	1963.52
582.236	1908.49
582.438	1958.28
582.64	2022.8
582.841	2006.91
583.043	2051.67
583.245	1953.44
583.447	1956.93
583.649	1931.93
583.85	1913.92
584.052	1938.72
584.254	1904.81
584.456	1973.78
584.657	1884.47
584.859	1954.22
585.061	1909.27
585.262	1899.19
585.464	1874.2
585.666	1948.6
585.867	1892.02
586.069	1939.49
586.27	1886.4
586.472	1886.6
586.674	1827.12
586.875	1852.5
587.077	1822.08
587.278	1878.65
587.48	1860.05
587.681	1984.05
587.883	1902.68
588.084	1817.04
588.285	1887.18
588.487	1844.94
588.688	1870.9
588.89	1763.37
589.091	1781.78
589.292	1768.8
589.494	1733.54
589.695	1680.64
589.896	1603.73
590.098	1621.94
590.299	1676.96
590.5	1634.34
590.702	1668.05
590.903	1744.97
591.104	1750.78
591.305	1765.31
591.507	1772.67
591.708	1775.19
591.909	1762.99
592.11	1801.15
592.311	1806.97
592.512	1771.32
592.714	1717.46
592.915	1760.08
593.116	1754.66
593.317	1763.76
593.518	1761.63
593.719	1751.36
593.92	1813.55
594.121	1798.06
594.322	1777.13
594.523	1765.89
594.724	1708.74
594.925	1738.77
595.126	1754.66
595.327	1766.47
595.528	1756.4
595.729	1759.69
595.929	1749.04
596.13	1776.36
596.331	1786.82
596.532	1764.54
596.733	1843.78
596.934	1816.46
597.135	1841.07
597.335	1816.27
597.536	1751.94
597.737	1773.45
597.938	1746.91
598.138	1787.4
598.339	1746.71
598.54	1789.53
598.74	1778.1
598.941	1744.97
599.142	1802.51
599.342	1733.34
599.543	1745.74
599.744	1751.56
599.944	1716.87
600.145	1741.87
600.345	1726.76
600.546	1778.1
600.746	1812.78
600.947	1849.2
601.147	1755.04
601.348	1766.86
601.548	1698.28
601.749	1771.32
601.949	1684.33
602.15	1721.14
602.35	1717.46
602.551	1730.44
602.751	1678.32
602.951	1650.42
603.152	1635.69
603.352	1726.17
603.552	1697.5
603.753	1710.68
603.953	1716.29
604.153	1740.51
604.354	1707.96
604.554	1675.99
604.754	1706.61
604.954	1699.63
605.155	1729.47
605.355	1735.67
605.555	1762.6
605.755	1767.25
605.955	1721.52
606.155	1721.33
606.356	1706.22
606.556	1741.48
606.756	1733.34
606.956	1647.32
607.156	1759.89
607.356	1669.79
607.556	1702.15
607.756	1697.11
607.956	1744.77
608.156	1678.9
608.356	1662.63
608.556	1717.46
608.756	1670.96
608.956	1636.08
609.156	1692.46
609.356	1637.05
609.556	1648.48
609.755	1668.63
609.955	1656.04
610.155	1621.94
610.355	1639.76
610.555	1641.7
610.755	1585.51
610.954	1581.25
611.154	1643.06
611.354	1686.46
611.554	1606.83
611.753	1589.58
611.953	1567.3
612.153	1673.67
612.352	1663.79
612.552	1572.53
612.752	1546.18
612.951	1604.89
613.151	1584.35
613.351	1583.19
613.55	1606.44
613.75	1617.29
613.949	1561.3
614.149	1573.5
614.348	1579.12
614.548	1533.98
614.747	1519.64
614.947	1536.5
615.146	1500.46
615.346	1571.76
615.545	1559.55
615.745	1563.81
615.944	1600.82
616.144	1561.68
616.343	1526.62
616.542	1552.19
616.742	1509.18
616.941	1505.69
617.14	1445.05
617.34	1509.37
617.539	1496.39
617.738	1468.88
617.938	1561.68
618.137	1472.17
618.336	1466.55
618.535	1525.65
618.734	1491.35
618.934	1545.99
619.133	1514.02
619.332	1550.06
619.531	1463.45
619.73	1519.64
619.929	1507.63
620.128	1528.55
620.328	1565.56
620.527	1505.3
620.726	1537.66
620.925	1491.74
621.124	1500.65
621.323	1521.38
621.522	1461.9
621.721	1440.59
621.92	1456.28
622.119	1513.83
622.318	1438.07
622.517	1443.69
622.715	1446.21
622.914	1397.39
623.113	1455.7
623.312	1383.44
623.511	1493.1
623.71	1426.25
623.909	1404.75
624.107	1501.43
624.306	1401.84
624.505	1406.69
624.704	1412.3
624.902	1400.87
625.101	1492.52
625.3	1408.82
625.499	1360.19
625.697	1398.16
625.896	1348.95
626.095	1434.2
626.293	1357.47
626.492	1377.24
626.69	1446.79
626.889	1396.42
627.088	1446.4
627.286	1372.2
627.485	1383.05
627.683	1381.5
627.882	1417.92
628.08	1343.52
628.279	1364.45
628.477	1416.18
628.676	1324.15
628.874	1396.22
629.073	1300.51
629.271	1319.31
629.469	1369.29
629.668	1358.64
629.866	1361.35
630.065	1313.88
630.263	1360.77
630.461	1332.29
630.66	1337.71
630.858	1364.06
631.056	1447.95
631.254	1392.15
631.453	1313.11
631.651	1406.88
631.849	1372.78
632.047	1338.29
632.245	1281.52
632.444	1362.12
632.642	1376.46
632.84	1358.06
633.038	1322.6
633.236	1298.57
633.434	1315.04
633.632	1297.22
633.83	1299.16
634.028	1403.2
634.227	1322.02
634.425	1408.24
634.623	1318.53
634.821	1328.41
635.019	1312.33
635.216	1311.56
635.414	1367.35
635.612	1353.41
635.81	1339.46
636.008	1378.79
636.206	1345.46
636.404	1338.49
636.602	1247.23
636.8	1307.29
636.997	1330.93
637.195	1366.97
637.393	1331.9
637.591	1391.19
637.789	1330.74
637.986	1293.34
638.184	1304.19
638.382	1367.35
638.58	1355.92
638.777	1399.52
638.975	1344.49
639.173	1316.59
639.37	1310.01
639.568	1322.21
639.765	1317.37
639.963	1301.29
640.161	1347.79
640.358	1363.09
640.556	1276.29
640.753	1243.36
640.951	1237.16
641.148	1299.54
641.346	1260.41
641.543	1256.73
641.741	1289.86
641.938	1245.29
642.136	1249.17
642.333	1237.16
642.531	1284.04
642.728	1306.52
642.925	1244.91
643.123	1258.66
643.32	1271.06
643.517	1227.86
643.715	1280.36
643.912	1241.03
644.109	1271.45
644.306	1266.22
644.504	1212.16
644.701	1262.93
644.898	1244.91
645.095	1261.18
645.293	1277.26
645.49	1285.4
645.687	1249.36
645.884	1285.98
646.081	1185.81
646.278	1233.09
646.475	1200.73
646.672	1185.04
646.87	1255.18
647.067	1233.09
647.264	1219.14
647.461	1173.61
647.658	1160.05
647.855	1231.15
648.052	1188.91
648.249	1123.23
648.446	1172.06
648.642	1179.81
648.839	1163.92
649.036	1169.54
649.233	1145.13
649.43	1122.85
649.627	1109.09
649.824	1148.42
650.021	1108.9
650.217	1114.32
650.414	1157.91
650.611	1154.43
650.808	1161.79
651.004	1152.88
651.201	1195.5
651.398	1232.12
651.595	1130.4
651.791	1118.58
651.988	1230.18
652.185	1128.08
652.381	1190.66
652.578	1122.26
652.775	1161.6
652.971	1147.26
653.168	1143.96
653.364	1196.86
653.561	1101.92
653.757	1133.5
653.954	1160.24
654.15	1134.86
654.347	1208.29
654.543	1128.27
654.74	1096.11
654.936	1084.87
655.133	1152.68
655.329	1119.55
655.525	1093.59
655.722	1128.27
655.918	1070.73
656.115	1090.68
656.311	989.74
656.507	984.32
656.704	921.54
656.9	942.27
657.096	953.51
657.292	961.84
657.489	1067.24
657.685	1023.45
657.881	1024.23
658.077	1022.29
658.273	1041.86
658.47	1127.69
658.666	1064.14
658.862	1119.75
659.058	1074.6
659.254	1132.15
659.45	1051.35
659.646	1110.83
659.842	1093.4
660.038	1123.04
660.234	1057.94
660.43	1124.78
660.626	1170.12
660.822	1154.81
661.018	1172.83
661.214	1134.08
661.41	1082.93
661.606	1152.49
661.802	1143.38
661.998	1129.05
662.194	1104.05
662.39	1145.51
662.586	1119.75
662.781	1140.48
662.977	1111.8
663.173	1159.46
663.369	1136.6
663.564	1117.03
663.76	1110.83
663.956	1093.01
664.152	1110.64
664.347	1011.83
664.543	1073.63
664.739	1056
664.934	1032.95
665.13	1040.89
665.326	1091.65
665.521	1100.56
665.717	1054.26
665.912	1051.55
666.108	975.4
666.304	1048.25
666.499	1098.24
666.695	986.45
666.89	1059.49
667.086	1113.74
667.281	1060.27
667.477	1125.95
667.672	1074.22
667.867	1048.06
668.063	1047.67
668.258	1020.16
668.454	1058.13
668.649	1134.08
668.844	1047.87
669.04	1066.08
669.235	1065.5
669.43	1039.15
669.626	1024.62
669.821	1007.76
670.016	1003.5
670.211	1026.75
670.407	997.1
670.602	1036.05
670.797	1000.79
670.992	1060.07
671.187	992.45
671.382	1069.57
671.578	1009.7
671.773	1044.18
671.968	972.69
672.163	1026.75
672.358	1034.69
672.553	996.52
672.748	994.39
672.943	1083.13
673.138	1014.35
673.333	1044.18
673.528	977.73
673.723	1053.1
673.918	988.58
674.113	968.43
674.308	1080.8
674.503	1007.37
674.698	1039.53
674.892	1018.42
675.087	1020.35
675.282	1033.33
675.477	989.94
675.672	989.94
675.867	985.09
676.061	962.04
676.256	933.55
676.451	947.12
676.646	991.1
676.84	962.04
677.035	924.06
677.23	940.53
677.424	1018.8
677.619	1015.51
677.814	1014.93
678.008	1005.63
678.203	933.75
678.397	984.7
678.592	984.51
678.787	1070.15
678.981	948.09
679.176	971.92
679.37	977.15
679.565	937.04
679.759	955.45
679.954	980.64
680.148	1040.31
680.342	1019.58
680.537	986.06
680.731	969.59
680.926	976.57
681.12	980.64
681.314	986.06
681.509	939.56
681.703	972.5
681.897	990.52
682.092	926.97
682.286	961.07
682.48	1026.94
682.674	1007.95
682.869	949.25
683.063	967.65
683.257	1003.11
683.451	918.64
683.645	978.5
683.839	951.96
684.034	946.54
684.228	987.42
684.422	898.87
684.616	909.34
684.81	947.5
685.004	916.31
685.198	911.47
685.392	957.19
685.586	925.22
685.78	959.71
685.974	957.19
686.168	954.67
686.362	1030.23
686.556	873.3
686.75	884.34
686.944	852.96
687.138	864.77
687.331	793.67
687.525	804.33
687.719	737.1
687.913	814.98
688.107	798.32
688.301	748.33
688.494	823.51
688.688	796.77
688.882	723.15
689.076	751.04
689.269	772.36
689.463	895.39
689.657	771.19
689.85	823.12
690.044	847.34
690.238	794.44
690.431	817.31
690.625	782.82
690.818	848.11
691.012	864.39
691.205	858.19
691.399	810.72
691.593	847.14
691.786	906.62
691.98	924.84
692.173	952.93
692.366	913.21
692.56	914.96
692.753	963.39
692.947	868.46
693.14	941.3
693.333	955.25
693.527	874.66
693.72	944.6
693.914	905.66
694.107	921.54
694.3	916.12
694.493	909.92
694.687	949.05
694.88	913.99
695.073	991.1
695.266	953.12
695.46	942.27
695.653	1003.89
695.846	988
696.039	889.38
696.232	934.14
696.425	985.87
696.618	1015.32
696.812	984.12
697.005	1075.38
697.198	1115.87
697.391	1032.37
697.584	1045.93
697.777	1146.68
697.97	1081
698.163	1114.13
698.356	1087
698.549	1172.45
698.742	1123.43
698.935	1066.47
699.127	1129.43
699.32	1081.38
699.513	1113.93
699.706	1136.6
699.899	1148.61
700.092	1145.13
700.285	1156.95
700.477	1114.9
700.67	1198.02
700.863	1155.59
701.056	1271.45
701.248	1249.75
701.441	1250.72
701.634	1203.83
701.826	1311.36
702.019	1197.24
702.212	1273.97
702.404	1221.85
702.597	1228.05
702.79	1227.66
702.982	1255.18
703.175	1314.07
703.367	1349.72
703.56	1332.48
703.752	1435.55
703.945	1375.1
704.137	1384.02
704.33	1398.35
704.522	1416.95
704.715	1457.83
704.907	1465.39
705.1	1513.83
705.292	1491.93
705.484	1482.83
705.677	1540.56
705.869	1525.45
706.061	1539.21
706.254	1581.45
706.446	1570.98
706.638	1552.77
706.831	1638.21
707.023	1582.41
707.215	1666.31
707.407	1657.39
707.599	1686.46
707.792	1691.69
707.984	1711.45
708.176	1750.59
708.368	1705.06
708.56	1755.04
708.752	1760.08
708.944	1744.39
709.136	1786.82
709.329	1750.78
709.521	1883.69
709.713	1844.55
709.905	1865.48
710.097	1929.61
710.289	1886.6
710.481	1869.94
710.672	1906.36
710.864	1915.47
711.056	1977.27
711.248	1962.55
711.44	1986.38
711.632	1952.08
711.824	1999.75
712.016	2057.87
712.207	2015.25
712.399	2067.56
712.591	2096.23
712.783	2112.89
712.975	2112.89
713.166	2105.14
713.358	2113.86
713.55	2137.89
713.741	2161.72
713.933	2165.01
714.125	2201.05
714.316	2188.07
714.508	2233.79
714.7	2274.87
714.891	2260.34
715.083	2308.97
715.274	2251.42
715.466	2299.86
715.657	2341.32
715.849	2220.81
716.04	2287.85
716.232	2247.74
716.423	2290.17
716.615	2245.22
716.806	2259.95
716.998	2189.81
717.189	2154.94
717.381	2111.93
717.572	2073.37
717.763	2089.26
717.955	2047.6
718.146	2041.79
718.337	2007.3
718.528	1971.65
718.72	1909.85
718.911	1963.32
719.102	1933.48
719.293	2001.49
719.485	2000.52
719.676	1969.33
719.867	1940.85
720.058	1984.05
720.249	1955.77
720.44	1955.18
720.632	2001.88
720.823	2055.74
721.014	2172.96
721.205	2151.06
721.396	2234.76
721.587	2376.2
721.778	2394.6
721.969	2445.75
722.16	2443.62
722.351	2519.76
722.542	2638.72
722.733	2648.99
722.924	2581.76
723.115	2622.84
723.305	2593
723.496	2621.29
723.687	2509.11
723.878	2508.14
724.069	2509.69
724.26	2536.81
724.45	2481.98
724.641	2465.71
724.832	2504.84
725.023	2540.88
725.213	2515.69
725.404	2502.52
725.595	2429.28
725.785	2475.98
725.976	2579.83
726.167	2574.01
726.357	2587.77
726.548	2694.72
726.739	2609.08
726.929	2641.24
727.12	2692.78
727.31	2740.83
727.501	2726.69
727.691	2694.33
727.882	2654.61
728.072	2726.88
728.263	2697.43
728.453	2777.83
728.644	2796.82
728.834	2787.52
729.024	2758.07
729.215	2759.04
729.405	2791.2
729.596	2893.11
729.786	2860.95
729.976	2867.35
730.167	2903.38
730.357	2860.37
730.547	2899.12
730.737	2930.51
730.928	2967.71
731.118	3035.32
731.308	2970.23
731.498	2970.23
731.688	3070.01
731.879	3055.09
732.069	3085.89
732.259	3122.32
732.449	3177.54
732.639	3240.31
732.829	3238.18
733.019	3255.23
733.209	3329.82
733.399	3349.39
733.589	3414.88
733.779	3448.59
733.969	3422.82
734.159	3510.2
734.349	3541.97
734.539	3572.97
734.729	3593.7
734.919	3646.4
735.109	3654.93
735.299	3597.77
735.488	3620.64
735.678	3648.92
735.868	3644.27
736.058	3634.39
736.248	3664.42
736.437	3588.67
736.627	3599.52
736.817	3801.98
737.007	3703.75
737.196	3734.95
737.386	3688.25
737.576	3668.1
737.765	3778.54
737.955	3730.3
738.144	3864.76
738.334	3764.2
738.524	3726.23
738.713	3777.57
738.903	3781.83
739.092	3807.8
739.282	3850.42
739.471	3833.37
739.661	3784.55
739.85	3872.89
740.04	3837.44
740.229	3901.18
740.419	3895.95
740.608	3934.89
740.797	3844.03
740.987	3959.5
741.176	3930.44
741.365	3877.93
741.555	3875.61
741.744	3940.12
741.933	3925.98
742.123	3980.23
742.312	3984.88
742.501	4035.06
742.69	4007.74
742.88	3930.05
743.069	4065.09
743.258	3981.01
743.447	4071.1
743.636	4104.03
743.825	3995.92
744.014	4030.41
744.204	4086.4
744.393	4019.56
744.582	4100.74
744.771	4123.99
744.96	4079.04
745.149	4122.63
745.338	4099.19
745.527	4096.48
745.716	4110.43
745.905	4051.34
746.094	4123.8
746.283	4155.57
746.471	4125.93
746.66	4229.78
746.849	4202.07
747.038	4184.05
747.227	4136
747.416	4156.73
747.604	4100.55
747.793	4125.54
747.982	4144.92
748.171	4214.86
748.359	4206.14
748.548	4137.36
748.737	4130.19
748.926	4150.92
749.114	4079.82
749.303	4099.97
749.491	4147.43
749.68	3991.66
749.869	4161.58
750.057	4058.89
750.246	4083.3
750.434	4070.13
750.623	4060.44
750.811	4009.29
751	4136.58
751.188	4065.29
751.377	4094.35
751.565	4037.77
751.754	4022.47
751.942	4054.05
752.131	4111.98
752.319	4050.17
752.507	3999.41
752.696	4082.53
752.884	4107.33
753.072	4036.8
753.261	4073.23
753.449	4047.85
753.637	4035.06
753.825	4129.8
754.014	4050.56
754.202	4021.69
754.39	4094.93
754.578	4123.02
754.766	4028.86
754.955	4014.91
755.143	4114.69
755.331	4054.63
755.519	4048.82
755.707	4051.72
755.895	4025.18
756.083	3991.27
756.271	3961.24
756.459	4013.17
756.647	4035.06
756.835	3914.16
757.023	3985.65
757.211	3941.48
757.399	3950.2
757.587	3950.01
757.775	3888.01
757.963	3952.14
758.151	3963.37
758.339	3871.34
758.526	3893.24
758.714	3926.17
758.902	3878.32
759.09	3781.06
759.278	3609.4
759.465	3359.46
759.653	2977.78
759.841	2863.47
760.028	2407.97
760.216	2193.11
760.404	2064.84
760.591	1725.21
760.779	1541.15
760.967	1393.32
761.154	1216.04
761.342	1259.24
761.529	1241.23
761.717	1356.31
761.905	1346.62
762.092	1443.89
762.28	1404.55
762.467	1478.76
762.655	1392.74
762.842	1460.93
763.029	1486.9
763.217	1487.48
763.404	1497.55
763.592	1537.27
763.779	1495.03
763.966	1567.5
764.154	1592.49
764.341	1666.69
764.528	1663.59
764.716	1738.77
764.903	1806.77
765.09	1846.49
765.277	1901.13
765.465	2076.47
765.652	2127.23
765.839	2161.14
766.026	2301.99
766.213	2331.63
766.4	2481.01
766.588	2628.07
766.775	2627.29
766.962	2739.47
767.149	2766.79
767.336	2922.76
767.523	2873.55
767.71	3034.16
767.897	3114.57
768.084	3188.97
768.271	3191.68
768.458	3256.97
768.645	3315.1
768.832	3306.76
769.019	3325.36
769.206	3334.08
769.392	3443.36
769.579	3522.02
769.766	3430.38
769.953	3418.94
770.14	3529.77
770.327	3491.6
770.513	3506.71
770.7	3588.09
770.887	3498.77
771.073	3522.02
771.26	3553.79
771.447	3543.14
771.634	3502.26
771.82	3616.18
772.007	3483.66
772.193	3552.63
772.38	3573.75
772.567	3490.44
772.753	3512.91
772.94	3579.37
773.126	3550.5
773.313	3562.7
773.499	3513.3
773.686	3559.8
773.872	3479.97
774.059	3515.82
774.245	3465.44
774.432	3502.26
774.618	3397.05
774.804	3466.8
774.991	3441.61
775.177	3479.59
775.363	3494.31
775.55	3530.74
775.736	3403.06
775.922	3447.23
776.109	3451.69
776.295	3460.79
776.481	3483.07
776.667	3499.35
776.853	3400.54
777.04	3414.88
777.226	3444.91
777.412	3459.05
777.598	3380.39
777.784	3366.25
777.97	3328.46
778.156	3403.25
778.342	3411
778.528	3380.39
778.715	3283.9
778.901	3319.16
779.087	3351.71
779.272	3310.06
779.458	3254.65
779.644	3324.01
779.83	3304.05
780.016	3421.08
780.202	3265.88
780.388	3266.66
780.574	3228.49
780.76	3249.22
780.946	3296.3
781.131	3266.66
781.317	3267.24
781.503	3229.85
781.689	3239.92
781.874	3342.61
782.06	3251.55
782.246	3244.96
782.432	3227.33
782.617	3227.13
782.803	3339.12
782.989	3182.19
783.174	3186.45
783.36	3130.84
783.545	3160.29
783.731	3173.47
783.916	3051.41
784.102	3147.5
784.288	3101.59
784.473	3165.33
784.659	3113.6
784.844	3209.7
785.029	3110.69
785.215	3117.67
785.4	3074.27
785.586	3173.85
785.771	3074.85
785.956	3114.95
786.142	3065.16
786.327	3036.49
786.512	3035.91
786.698	3015.95
786.883	2971.39
787.068	3050.24
787.254	3018.66
787.439	3011.49
787.624	3006.46
787.809	3018.47
787.994	2997.35
788.18	3042.69
788.365	2953.37
788.55	2953.18
788.735	2989.79
788.92	2930.31
789.105	2930.31
789.29	2949.88
789.475	2904.93
789.66	2933.8
789.845	2876.65
790.03	2833.44
790.215	2933.22
790.4	2943.49
790.585	2954.73
790.77	2921.79
790.955	2833.83
791.14	2875.29
791.325	2953.18
791.51	2792.17
791.695	2865.21
791.879	2876.65
792.064	2789.46
792.249	2917.72
792.434	2840.03
792.618	2827.24
792.803	2862.7
792.988	2849.52
793.173	2815.62
793.357	2898.15
793.542	2781.32
793.727	2810.58
793.911	2845.45
794.096	2824.33
794.281	2862.7
794.465	2934.77
794.65	2816.78
794.834	2887.11
795.019	2925.66
795.203	2888.46
795.388	2904.74
795.572	2952.59
795.757	2865.6
795.941	2913.46
796.126	2877.23
796.31	2861.15
796.494	2886.33
796.679	2849.52
796.863	2853.98
797.048	2993.67
797.232	2898.93
797.416	2935.93
797.601	2881.1
797.785	2939.23
797.969	2986.5
798.153	2877.61
798.338	2920.82
798.522	2945.23
798.706	2952.59
798.89	2949.69
799.074	3049.86
799.258	2985.73
799.443	2938.26
799.627	2952.59
799.811	2954.34
799.995	2903.77
800.179	2891.76
800.363	2906.87
800.547	3009.36
800.731	2968.09
800.915	2877.03
801.099	2929.93
801.283	2868.51
801.467	2909.58
801.651	2882.46
801.835	2970.23
802.019	2936.71
802.202	2931.09
802.386	2875.87
802.57	2898.35
802.754	2853.01
802.938	2869.67
803.121	2885.75
803.305	2957.24
803.489	2893.31
803.673	2949.69
803.856	2901.64
804.04	2912.88
804.224	2941.16
804.407	2882.07
804.591	2887.5
804.775	2905.51
804.958	2882.65
805.142	2989.21
805.326	2872.19
805.509	2906.29
805.693	2912.3
805.876	2927.41
806.06	2943.88
806.243	2915.78
806.427	2929.73
806.61	2943.1
806.794	2871.61
806.977	2954.73
807.16	2917.33
807.344	2918.69
807.527	2940.78
807.71	2873.74
807.894	2879.36
808.077	2910.75
808.26	2887.3
808.444	2864.25
808.627	2894.08
808.81	2859.79
808.993	2741.8
809.177	2799.92
809.36	2825.69
809.543	2851.26
809.726	2754.97
809.909	2722.42
810.092	2741.99
810.276	2743.15
810.459	2752.45
810.642	2749.74
810.825	2714.87
811.008	2720.87
811.191	2639.5
811.374	2632.52
811.557	2690.45
811.74	2752.26
811.923	2625.16
812.106	2603.85
812.289	2582.73
812.472	2605.98
812.654	2582.34
812.837	2558.71
813.02	2509.49
813.203	2476.56
813.386	2359.92
813.569	2360.5
813.751	2300.25
813.934	2367.09
814.117	2325.82
814.3	2291.92
814.482	2262.85
814.665	2203.76
814.848	2201.82
815.03	2126.84
815.213	2119.09
815.396	2085.77
815.578	2067.17
815.761	2057.68
815.943	2092.16
816.126	1980.37
816.309	1981.92
816.491	1897.06
816.674	1866.45
816.856	1905.39
817.039	1879.82
817.221	1976.69
817.403	1920.5
817.586	1937.36
817.768	1976.3
817.951	1860.25
818.133	1840.87
818.315	1893.57
818.498	1910.82
818.68	1980.95
818.862	1935.81
819.045	1963.52
819.227	1977.66
819.409	1938.13
819.591	1948.4
819.774	1909.46
819.956	1845.91
820.138	1980.56
820.32	1964.87
820.502	2009.43
820.684	2078.21
820.866	2061.74
821.048	2143.51
821.231	2146.61
821.413	2108.44
821.595	2065.62
821.777	2124.33
821.959	2059.81
822.141	2197.95
822.323	2055.55
822.505	2002.07
822.686	1940.85
822.868	1848.43
823.05	1750.39
823.232	1721.91
823.414	1628.72
823.596	1725.59
823.778	1712.42
823.96	1716.29
824.141	1753.49
824.323	1778.29
824.505	1855.4
824.687	1861.6
824.868	1896.09
825.05	2033.26
825.232	2026.48
825.413	2128.01
825.595	2062.71
825.777	2013.7
825.958	1998.58
826.14	2017.18
826.321	2063.68
826.503	2008.85
826.685	2038.5
826.866	2076.47
827.048	2065.23
827.229	1992.19
827.411	1970.1
827.592	1956.15
827.773	1943.56
827.955	1846.49
828.136	1886.79
828.318	1844.55
828.499	1893.77
828.68	1860.44
828.862	1880.98
829.043	1882.14
829.224	1861.41
829.406	1799.02
829.587	1787.98
829.768	1806.19
829.949	1855.02
830.131	1827.7
830.312	1925.15
830.493	1846.69
830.674	1879.43
830.855	1846.49
831.036	1801.74
831.218	1872.26
831.399	1918.76
831.58	1843.2
831.761	1809.49
831.942	1846.88
832.123	1858.89
832.304	1758.72
832.485	1775.19
832.666	1832.54
832.847	1877.49
833.028	1872.45
833.209	1804.45
833.389	1810.26
833.57	1756.98
833.751	1778.87
833.932	1836.22
834.113	1783.52
834.294	1789.53
834.475	1835.45
834.655	1866.84
834.836	1879.04
835.017	1859.28
835.198	1801.74
835.378	1835.84
835.559	1888.73
835.74	1836.42
835.92	1871.87
836.101	1797.09
836.281	1863.93
836.462	1846.49
836.643	1917.4
836.823	1912.95
837.004	1921.28
837.184	1951.7
837.365	1914.11
837.545	1915.85
837.726	1856.57
837.906	1890.28
838.087	1884.66
838.267	1849.79
838.448	1803.48
838.628	1860.83
838.808	1835.25
838.989	1896.28
839.169	1791.08
839.349	1886.6
839.53	1855.79
839.71	1889.31
839.89	1829.44
840.07	1886.21
840.251	1847.65
840.431	1864.51
840.611	1844.36
840.791	1821.11
840.971	1876.72
841.151	1831.96
841.332	1811.23
841.512	1909.27
841.692	1804.45
841.872	1861.41
842.052	1833.12
842.232	1855.99
842.412	1775.58
842.592	1788.17
842.772	1833.12
842.952	1836.22
843.132	1796.89
843.312	1800.19
843.492	1767.64
843.672	1847.46
843.851	1752.91
844.031	1802.12
844.211	1792.82
844.391	1747.49
844.571	1773.26
844.751	1806
844.93	1785.07
845.11	1748.84
845.29	1782.36
845.47	1766.67
845.649	1812.78
845.829	1819.17
846.009	1796.31
846.188	1781.01
846.368	1771.9
846.547	1783.72
846.727	1801.54
846.907	1677.74
847.086	1794.37
847.266	1783.72
847.445	1744.97
847.625	1769.96
847.804	1714.36
847.984	1725.98
848.163	1713.58
848.343	1744.19
848.522	1740.12
848.701	1749.62
848.881	1702.34
849.06	1707.38
849.239	1720.17
849.419	1707.19
849.598	1666.31
849.777	1631.82
849.957	1607.21
850.136	1568.66
850.315	1539.6
850.494	1558.39
850.674	1560.91
850.853	1665.53
851.032	1564.2
851.211	1634.53
851.39	1628.91
851.569	1570.21
851.748	1595.4
851.927	1611.28
852.107	1598.69
852.286	1550.83
852.465	1571.95
852.644	1639.96
852.823	1621.75
853.002	1599.85
853.181	1614
853.359	1593.26
853.538	1543.08
853.717	1624.84
853.896	1507.43
854.075	1434.97
854.254	1392.35
854.433	1340.04
854.611	1393.51
854.79	1332.67
854.969	1395.84
855.148	1417.54
855.327	1380.53
855.505	1435.55
855.684	1409.79
855.863	1447.57
856.041	1444.85
856.22	1452.41
856.399	1452.99
856.577	1565.75
856.756	1519.83
856.934	1655.84
857.113	1616.32
857.291	1537.08
857.47	1492.13
857.648	1538.82
857.827	1533.98
858.005	1548.51
858.184	1517.51
858.362	1585.32
858.541	1505.11
858.719	1506.27
858.898	1524.87
859.076	1490.38
859.254	1581.25
859.433	1500.27
859.611	1479.53
859.789	1429.94
859.967	1547.35
860.146	1557.03
860.324	1461.32
860.502	1465.2
860.68	1430.71
860.859	1463.07
861.037	1466.94
861.215	1478.95
861.393	1482.05
861.571	1478.37
861.749	1455.9
861.927	1471.98
862.105	1482.25
862.283	1435.94
862.461	1395.45
862.639	1440.4
862.817	1407.46
862.995	1454.35
863.173	1437.1
863.351	1448.73
863.529	1431.1
863.707	1473.92
863.885	1434
864.063	1389.64
864.241	1408.62
864.418	1467.91
864.596	1403.97
864.774	1363.09
864.952	1396.42
865.129	1433.62
865.307	1381.89
865.485	1325.89
865.663	1406.88
865.84	1310.59
866.018	1350.89
866.196	1232.51
866.373	1220.49
866.551	1204.03
866.728	1154.62
866.906	1193.95
867.084	1215.84
867.261	1241.03
867.439	1285.4
867.616	1302.45
867.794	1294.31
867.971	1282.69
868.149	1304.19
868.326	1382.08
868.503	1308.26
868.681	1351.47
868.858	1289.47
869.035	1254.98
869.213	1320.47
869.39	1278.04
869.567	1368.71
869.745	1290.44
869.922	1316.21
870.099	1331.12
870.276	1329.77
870.454	1316.4
870.631	1318.34
870.808	1288.31
870.985	1323.18
871.162	1357.86
871.339	1328.02
871.517	1242.58
871.694	1251.88
871.871	1288.89
872.048	1264.28
872.225	1276.68
872.402	1281.52
872.579	1229.21
872.756	1305.55
872.933	1183.68
873.11	1266.03
873.287	1280.94
873.463	1244.91
873.64	1232.89
873.817	1250.33
873.994	1246.26
874.171	1200.73
874.348	1235.61
874.524	1171.09
874.701	1236.19
874.878	1151.91
875.055	1258.66
875.231	1189.88
875.408	1235.41
875.585	1117.42
875.762	1195.89
875.938	1226.89
876.115	1154.81
876.291	1176.9
876.468	1166.63
876.645	1148.03
876.821	1167.8
876.998	1186.2
877.174	1162.37
877.351	1147.06
877.527	1149.97
877.704	1174.19
877.88	1165.86
878.057	1102.11
878.233	1193.18
878.409	1126.53
878.586	1194.53
878.762	1138.54
878.938	1140.09
879.115	1066.27
879.291	1136.8
879.467	1091.07
879.644	1106.18
879.82	1140.09
879.996	1110.45
880.172	1065.3
880.349	1093.4
880.525	1119.75
880.701	1081
880.877	1080.22
881.053	1096.69
881.229	1069.76
881.405	1132.53
881.581	1037.21
881.757	1080.61
881.933	1100.37
882.109	1177.68
882.285	1093.4
882.461	1069.37
882.637	1103.28
882.813	1023.84
882.989	1068.4
883.165	1139.9
883.341	1071.31
883.517	1140.48
883.693	1094.17
883.869	1123.43
884.044	1076.73
884.22	1128.27
884.396	1153.26
884.572	1131.76
884.747	1132.34
884.923	1099.6
885.099	1121.49
885.275	1129.63
885.45	1057.36
885.626	1063.37
885.801	1048.25
885.977	1055.42
886.153	1021.9
886.328	1094.75
886.504	1078.09
886.679	1062.78
886.855	1034.5
887.03	1094.56
887.206	1131.76
887.381	1073.44
887.557	1111.41
887.732	1093.78
887.908	1097.27
888.083	1137.38
888.258	1077.32
888.434	1067.63
888.609	1076.35
888.784	1139.51
888.96	1059.68
889.135	1050.58
889.31	1049.8
889.485	1076.15
889.661	1073.83
889.836	1119.55
890.011	1111.41
890.186	1067.63
890.361	1056.58
890.537	1047.67
890.712	1088.36
890.887	1089.13
891.062	1076.93
891.237	1128.66
891.412	1032.95
891.587	1094.37
891.762	1106.57
891.937	1142.41
892.112	1041.86
892.287	1034.5
892.462	1041.08
892.637	994.59
892.812	1009.7
892.987	1015.9
893.161	995.36
893.336	1027.52
893.511	1007.18
893.686	1024.23
893.861	1027.33
894.035	1007.57
894.21	1008.54
894.385	933.75
894.56	978.7
894.734	926.97
894.909	929.87
895.084	959.9
895.258	919.61
895.433	958.74
895.608	933.17
895.782	876.4
895.957	887.64
896.131	901.01
896.306	820.21
896.48	829.32
896.655	844.82
896.829	753.37
897.004	793.28
897.178	791.73
897.353	774.49
897.527	813.63
897.701	789.99
897.876	745.62
898.05	828.35
898.224	796.58
898.399	812.08
898.573	785.34
898.747	686.33
898.921	736.9
899.096	611.16
899.27	648.17
899.444	628.98
899.618	670.25
899.792	709.78
899.967	688.66
900.141	769.64
900.315	652.82
900.489	678.97
900.663	669.86
900.837	700.67
901.011	671.22
901.185	772.94
901.359	692.34
901.533	684.98
901.707	691.18
901.881	685.56
902.055	630.15
902.229	686.53
902.403	736.32
902.576	685.36
902.75	703.77
902.924	842.3
903.098	744.26
903.272	781.46
903.446	818.28
903.619	815.37
903.793	814.59
903.967	796.96
904.14	845.21
904.314	854.12
904.488	824.48
904.661	863.61
904.835	798.32
905.009	891.32
905.182	903.52
905.356	832.61
905.529	854.12
905.703	787.28
905.876	803.55
906.05	782.43
906.223	777.01
906.397	693.5
906.57	707.06
906.744	671.41
906.917	687.5
907.09	695.44
907.264	668.9
907.437	657.08
907.61	623.37
907.784	648.75
907.957	664.25
908.13	620.46
908.304	663.86
908.477	594.69
908.65	604.57
908.823	593.14
908.996	647.2
909.17	616.39
909.343	612.71
909.516	616.97
909.689	583.26
909.862	584.42
910.035	593.53
910.208	585.58
910.381	585
910.554	692.73
910.727	600.12
910.9	598.76
911.073	577.64
911.246	661.73
911.419	634.41
911.592	646.42
911.765	586.17
911.938	567.95
912.11	614.65
912.283	616.78
912.456	648.36
912.629	609.42
912.802	583.45
912.974	545.87
913.147	528.04
913.32	473.99
913.493	492.39
913.665	478.64
913.838	536.57
914.01	515.45
914.183	564.08
914.356	551.87
914.528	577.25
914.701	645.07
914.873	578.61
915.046	560.4
915.218	485.61
915.391	461.39
915.563	437.56
915.736	526.49
915.908	544.51
916.081	501.89
916.253	521.07
916.425	532.69
916.598	571.25
916.77	528.82
916.942	504.21
917.115	460.23
917.287	524.75
917.459	488.9
917.632	461.01
917.804	419.16
917.976	495.88
918.148	512.93
918.32	509.83
918.493	557.3
918.665	578.22
918.837	524.17
919.009	562.53
919.181	535.79
919.353	532.5
919.525	538.89
919.697	518.74
919.869	526.69
920.041	585.58
920.213	627.24
920.385	569.7
920.557	568.54
920.729	552.84
920.901	547.42
921.073	548.97
921.244	531.53
921.416	569.7
921.588	522.62
921.76	513.12
921.932	577.06
922.103	529.4
922.275	543.93
922.447	538.12
922.619	474.37
922.79	521.45
922.962	510.22
923.134	531.53
923.305	481.35
923.477	454.61
923.648	465.85
923.82	510.6
923.991	454.22
924.163	450.35
924.335	498.79
924.506	456.55
924.677	517.58
924.849	444.34
925.02	461.97
925.192	510.6
925.363	468.95
925.535	475.34
925.706	459.26
925.877	516.03
926.049	447.44
926.22	464.11
926.391	475.15
926.562	496.85
926.734	435.24
926.905	466.82
927.076	424.19
927.247	440.86
927.419	402.88
927.59	412.96
927.761	393.78
927.932	406.17
928.103	408.31
928.274	342.63
928.445	352.51
928.616	382.34
928.787	370.14
928.958	401.91
929.129	405.98
929.3	355.61
929.471	314.53
929.642	260.67
929.813	234.13
929.984	336.62
930.155	204.48
930.326	290.51
930.496	233.93
930.667	180.85
930.838	233.93
931.009	219.98
931.18	195.77
931.35	234.51
931.521	215.33
931.692	136.29
931.863	119.43
932.033	182.2
932.204	187.82
932.374	159.73
932.545	126.79
932.716	185.5
932.886	157.02
933.057	91.72
933.227	99.47
933.398	180.27
933.568	106.06
933.739	72.93
933.909	87.65
934.08	132.02
934.25	36.12
934.421	62.85
934.591	123.3
934.761	83.39
934.932	38.64
935.102	76.22
935.272	92.3
935.443	103.74
935.613	80.68
935.783	96.37
935.953	64.79
936.123	222.89
936.294	68.28
936.464	71.77
936.634	76.8
936.804	29.34
936.974	24.11
937.144	94.24
937.314	102.38
937.484	39.8
937.655	53.17
937.825	131.44
937.995	70.22
938.165	115.17
938.334	64.21
938.504	119.04
938.674	69.64
938.844	89.01
939.014	157.4
939.184	146.94
939.354	190.53
939.524	180.07
939.694	129.7
939.863	152.75
940.033	197.9
940.203	193.83
940.373	169.8
940.542	156.43
940.712	151.59
940.882	178.33
941.051	190.53
941.221	180.07
941.391	179.1
941.56	134.15
941.73	107.61
941.899	243.43
942.069	122.34
942.238	182.2
942.408	140.16
942.577	174.45
942.747	117.1
942.916	61.89
943.086	105.09
943.255	151.78
943.425	140.16
943.594	91.34
943.763	60.53
943.933	77.39
944.102	40.77
944.271	117.49
944.441	122.92
944.61	89.98
944.779	84.55
944.948	188.6
945.117	83.78
945.287	87.85
945.456	38.83
945.625	71.38
945.794	90.56
945.963	82.04
946.132	137.45
946.301	69.64
946.47	134.93
946.639	56.65
946.808	96.95
946.977	97.15
947.146	143.45
947.315	93.66
947.484	130.09
947.653	104.32
947.822	73.12
947.991	80.29
948.16	178.52
948.329	170.58
948.498	107.42
948.666	114.97
948.835	128.34
949.004	63.82
949.173	66.54
949.341	95.02
949.51	127.18
949.679	137.06
949.847	124.27
950.016	180.27
950.185	172.32
950.353	82.81
950.522	95.99
950.69	187.82
950.859	94.24
951.028	140.55
951.196	112.45
951.365	102.38
951.533	114.39
951.701	145.97
951.87	130.47
952.038	57.24
952.207	98.12
952.375	168.64
952.543	101.6
952.712	96.76
952.88	81.45
953.048	162.44
953.217	94.05
953.385	99.28
953.553	159.15
953.721	65.95
953.89	98.12
954.058	65.95
954.226	77.77
954.394	103.54
954.562	66.54
954.73	81.84
954.898	79.32
955.067	148.49
955.235	113.81
955.403	125.05
955.571	168.06
955.739	137.06
955.907	65.37
956.075	92.89
956.243	73.51
956.41	109.16
956.578	88.43
956.746	55.49
956.914	92.3
957.082	108.97
957.25	121.56
957.418	82.42
957.585	102.77
957.753	136.67
957.921	98.7
958.089	103.93
958.256	137.06
958.424	119.62
958.592	120.4
958.759	74.67
958.927	137.84
959.095	99.28
959.262	103.35
959.43	126.79
959.597	75.64
959.765	96.57
959.932	70.6
960.1	139.19
960.267	108.39
960.435	115.75
960.602	117.3
960.77	70.6
960.937	46.77
961.104	123.89
961.272	60.92
961.439	79.13
961.606	121.75
961.774	119.04
961.941	103.93
962.108	113.23
962.275	101.41
962.443	149.27
962.61	117.88
962.777	158.37
962.944	120.2
963.111	123.5
963.278	142.68
963.446	130.86
963.613	119.82
963.78	120.2
963.947	125.82
964.114	122.34
964.281	172.32
964.448	153.72
964.615	98.12
964.782	101.99
964.949	134.93
965.116	139.77
965.282	141.71
965.449	122.14
965.616	76.8
965.783	146.55
965.95	97.54
966.117	75.25
966.283	111.29
966.45	138.03
966.617	117.49
966.784	161.86
966.95	149.46
967.117	176.97
967.284	80.87
967.45	107.8
967.617	178.33
967.784	147.91
967.95	176.58
968.117	115.17
968.283	169.61
968.45	213.4
968.616	153.72
968.783	174.65
968.949	123.11
969.116	179.1
969.282	133.57
969.449	142.48
969.615	142.48
969.781	90.75
969.948	106.64
970.114	64.21
970.28	193.44
970.447	115.36
970.613	192.47
970.779	130.86
970.945	145
971.112	140.93
971.278	144.42
971.444	101.22
971.61	157.6
971.776	99.67
971.942	178.33
972.108	138.42
972.275	135.12
972.441	161.67
972.607	199.25
972.773	99.47
972.939	133.77
973.105	124.47
973.271	87.07
973.437	104.12
973.602	90.95
973.768	132.99
973.934	110.52
974.1	126.21
974.266	47.74
974.432	140.16
974.598	88.24
974.763	128.34
974.929	98.89
975.095	191.12
975.261	83.39
975.426	96.37
975.592	114.39
975.758	191.31
975.923	49.1
976.089	86.88
976.255	143.45
976.42	149.27
976.586	126.79
976.751	107.42
976.917	207.39
977.082	126.6
977.248	49.87
977.413	66.92
977.579	113.42
977.744	91.92
977.91	68.28
978.075	78.16
978.24	128.73
978.406	129.5
978.571	79.71
978.736	75.06
978.902	130.28
979.067	69.64
979.232	24.49
979.397	90.56
979.563	150.43
979.728	60.14
979.893	82.42
980.058	84.36
980.223	131.05
980.388	102.77
980.554	118.27
980.719	65.37
980.884	102.96
981.049	144.81
981.214	72.15
981.379	114.2
981.544	73.12
981.709	89.59
981.874	83
982.039	83.39
982.204	138.42
982.368	100.64
982.533	83.39
982.698	121.37
982.863	172.71
983.028	101.8
983.193	126.21
983.357	110.9
983.522	112.84
983.687	83.2
983.852	89.59
984.016	91.34
984.181	104.9
984.346	145.2
984.51	145.2
984.675	126.6
984.839	92.11
985.004	108.19
985.168	134.15
985.333	115.55
985.498	78.16
985.662	150.23
985.827	113.23
985.991	104.9
986.155	69.83
986.32	136.48
986.484	153.92
986.649	102.96
986.813	55.69
986.977	91.34
987.142	132.8
987.306	45.42
987.47	53.55
987.634	102.96
987.799	93.47
987.963	101.41
988.127	136.87
988.291	181.43
988.455	103.15
988.62	97.92
988.784	111.1
988.948	110.71
989.112	52.2
989.276	94.05
989.44	95.02
989.604	80.29
989.768	95.21
989.932	188.79
990.096	24.69
990.26	69.25
990.424	53.75
990.588	83.97
990.752	179.88
990.915	119.62
991.079	70.41
991.243	69.05
991.407	127.95
991.571	81.26
991.734	120.79
991.898	111.68
992.062	183.95
992.226	89.4
992.389	49.49
992.553	41.35
992.717	86.1
992.88	54.33
993.044	83.2
993.207	82.42
993.371	112.84
993.535	100.44
993.698	82.42
993.862	117.1
994.025	148.68
994.189	94.24
994.352	96.76
994.515	104.32
994.679	138.8
994.842	55.49
995.006	115.75
995.169	88.43
995.332	64.21
995.496	114.78
995.659	31.47
995.822	83.39
995.985	72.74
996.149	127.18
996.312	70.8
996.475	141.32
996.638	80.29
996.801	140.16
996.964	167.09
997.128	63.82
997.291	81.84
997.454	89.98
997.617	39.8
997.78	135.12
997.943	48.71
998.106	123.11
998.269	50.84
998.432	89.79
998.595	94.44
998.758	25.66
998.92	35.15
999.083	15
999.246	91.53
999.409	30.11
999.572	13.84
999.735	57.04
999.897	79.71
1000.06	48.91
1000.223	72.15
1000.386	86.1
1000.548	91.72
1000.711	80.87
1000.874	104.9
1001.036	32.24
1001.199	93.85
1001.361	44.84
1001.524	56.07
1001.687	92.69
1001.849	26.24
1002.012	63.24
1002.174	65.57
1002.337	88.43
1002.499	63.24
1002.661	100.44
1002.824	28.37
1002.986	42.71
1003.149	63.63
1003.311	12.48
1003.473	145.78
1003.636	26.62
1003.798	100.05
1003.96	47.94
1004.123	79.71
1004.285	29.72
1004.447	64.21
1004.609	77
1004.771	115.36
1004.933	23.33
1005.096	39.8
1005.258	17.13
1005.42	38.44
1005.582	116.91
1005.744	95.4
1005.906	8.8
1006.068	54.33
1006.23	20.23
1006.392	-8.06
1006.554	12.48
1006.716	105.48
1006.878	53.17
1007.04	-6.12
1007.202	35.92
1007.363	69.05
1007.525	59.56
1007.687	89.2
1007.849	105.29
1008.011	12.87
1008.172	9.77
1008.334	24.49
1008.496	70.8
1008.658	-8.06
1008.819	3.76
1008.981	-20.07
1009.143	23.33
1009.304	25.27
1009.466	90.56
1009.627	97.92
1009.789	134.93
1009.95	31.66
1010.112	18.29
1010.273	69.05
1010.435	-3.41
1010.596	34.57
1010.758	31.27
1010.919	39.61
1011.081	12.67
1011.242	24.69
1011.403	64.6
1011.565	18.87
1011.726	59.75
1011.887	3.76
1012.049	48.32
1012.21	74.87
1012.371	91.34
1012.532	-21.81
1012.693	31.86
1012.855	14.22
1013.016	28.17
1013.177	72.74
1013.338	18.29
1013.499	127.18
1013.66	36.31
1013.821	63.63
1013.982	53.75
1014.143	41.93
1014.304	20.42
1014.465	53.55
1014.626	80.87
1014.787	32.24
1014.948	139.77
1015.109	-21.62
1015.27	88.62
1015.431	39.99
1015.592	7.83
1015.752	109.35
1015.913	27.59
1016.074	30.69
1016.235	69.44
1016.395	36.51
1016.556	34.18
1016.717	21.97
1016.877	82.04
1017.038	16.94
1017.199	57.43
1017.359	64.79
1017.52	37.47
1017.681	13.45
1017.841	46.39
1018.002	-0.11
1018.162	3.76
1018.323	95.6
1018.483	15.77
1018.644	12.67
1018.804	-2.44
1018.964	-22.59
1019.125	5.51
1019.285	30.89
1019.446	35.34
1019.606	5.12
1019.766	-29.37
1019.926	30.69
1020.087	58.59
1020.247	-12.51
1020.407	41.35
1020.567	106.45
1020.728	15.39
1020.888	-23.75
1021.048	12.87
1021.208	4.54
1021.368	7.64
1021.528	81.45
1021.688	32.24
1021.848	45.03
1022.008	42.32
1022.168	2.02
1022.328	35.73
1022.488	44.26
1022.648	20.42
1022.808	21.01
1022.968	49.49
1023.128	-1.86
1023.288	27.4
1023.448	37.28
1023.608	55.88
1023.767	46.39
1023.927	12.67
1024.087	-17.16
1024.247	-18.13
1024.406	15.58
1024.566	-8.64
1024.726	-16.97
1024.885	36.51
1025.045	46.97
1025.205	3.76
1025.364	5.7
1025.524	29.14
1025.683	21.39
1025.843	50.84
1026.003	22.17
1026.162	91.34
1026.321	54.33
1026.481	31.27
1026.64	34.37
1026.8	38.64
1026.959	23.91
1027.119	33.02
1027.278	14.03
1027.437	9.57
1027.597	4.54
1027.756	0.66
1027.915	45.22
1028.074	41.16
1028.234	7.44
1028.393	5.89
1028.552	-9.03
1028.711	-63.27
1028.87	46.77
1029.03	7.06
1029.189	-13.29
1029.348	-33.44
1029.507	-4.57
1029.666	-2.05
1029.825	-16.58
1029.984	-8.25
1030.143	40.38
1030.302	-6.31
1030.461	-28.98
1030.62	23.14
1030.779	28.56
1030.938	-7.67
1031.097	-10.19
1031.255	41.74
1031.414	96.18
1031.573	49.1
1031.732	-43.51
1031.891	19.26
1032.049	85.91
1032.208	39.02
1032.367	-2.44
1032.525	-3.21
1032.684	-3.41
1032.843	24.49
1033.001	-48.36
1033.16	150.43
1033.319	67.7
1033.477	35.15
1033.636	0.66
1033.794	-23.75
1033.953	21.2
1034.111	39.02
1034.27	2.41
1034.428	22.56
1034.587	0.86
1034.745	-6.12
1034.903	-0.69
1035.062	27.98
1035.22	-30.92
1035.378	40.96
1035.537	-39.44
1035.695	28.37
1035.853	-4.57
1036.011	48.13
1036.17	7.64
1036.328	-60.17
1036.486	13.06
1036.644	39.61
1036.802	-56.69
1036.96	-25.3
1037.119	24.69
1037.277	-30.53
1037.435	-33.63
1037.593	-34.41
1037.751	5.31
1037.909	40.19
1038.067	40.19
