Data from gum_old_FLMT105791__195__15-48-22-249.txt Node

Date: Mon Mar 20 15:48:22 GMT 2023
User: antho
Spectrometer: FLMT10579
Trigger mode: 0
Integration Time (sec): 1.000000E-1
Scans to average: 10
Electric dark correction enabled: true
Nonlinearity correction enabled: false
Boxcar width: 0
XAxis mode: Wavelengths
Number of Pixels in Spectrum: 3648
>>>>>Begin Spectral Data<<<<<
345.248	-169.85
345.464	-169.85
345.681	-169.85
345.898	-211.89
346.114	-187.87
346.331	-36.55
346.548	34.75
346.764	8.98
346.981	-8.65
347.197	-41.4
347.414	34.16
347.631	-26.67
347.847	59.16
348.064	-20.47
348.28	39.98
348.497	-58.64
348.713	15.37
348.93	42.88
349.146	33.78
349.363	14.21
349.579	39.78
349.796	28.35
350.012	12.46
350.229	47.15
350.445	12.08
350.661	-6.72
350.878	15.56
351.094	41.33
351.311	19.83
351.527	39.78
351.743	-1.68
351.96	65.94
352.176	57.22
352.392	33
352.609	58.19
352.825	-21.44
353.041	18.47
353.257	18.08
353.474	8.98
353.69	43.46
353.906	11.3
354.122	-12.53
354.339	90.93
354.555	2.97
354.771	10.14
354.987	86.67
355.203	78.53
355.42	29.13
355.636	10.14
355.852	21.38
356.068	14.01
356.284	-13.89
356.5	91.71
356.716	42.88
356.932	47.15
357.148	74.08
357.364	30.48
357.58	66.52
357.796	59.74
358.012	65.94
358.228	52.76
358.444	-36.75
358.66	80.28
358.876	30.29
359.092	16.73
359.308	31.45
359.524	51.99
359.74	16.53
359.956	-7.88
360.172	30.1
360.388	69.43
360.604	27.19
360.819	128.13
361.035	25.06
361.251	54.7
361.467	13.24
361.683	94.61
361.898	53.54
362.114	75.82
362.33	53.73
362.546	75.82
362.762	34.55
362.977	66.33
363.193	13.05
363.409	67.29
363.624	23.9
363.84	-0.52
364.056	25.06
364.271	58
364.487	41.14
364.703	25.64
364.918	24.86
365.134	38.04
365.35	39.98
365.565	140.14
365.781	29.9
365.996	67.29
366.212	103.53
366.427	69.43
366.643	45.21
366.858	46.56
367.074	21.38
367.289	112.44
367.505	161.65
367.72	-16.99
367.936	35.13
368.151	93.06
368.367	72.91
368.582	69.62
368.798	44.82
369.013	92.87
369.228	61.29
369.444	78.34
369.659	116.31
369.874	63.42
370.09	103.72
370.305	-13.5
370.52	38.23
370.736	108.56
370.951	38.43
371.166	98.29
371.381	130.07
371.597	87.44
371.812	18.47
372.027	26.8
372.242	70.01
372.458	129.29
372.673	58.96
372.888	69.23
373.103	93.64
373.318	173.47
373.533	73.3
373.749	77.18
373.964	5.1
374.179	120.58
374.394	43.46
374.609	113.6
374.824	29.9
375.039	123.09
375.254	47.53
375.469	106.63
375.684	61.87
375.899	112.24
376.114	70.2
376.329	58.19
376.544	102.56
376.759	100.81
376.974	33.97
377.189	83.57
377.404	65.36
377.619	101.78
377.834	17.31
378.049	7.04
378.264	53.93
378.478	76.4
378.693	47.34
378.908	102.94
379.123	61.48
379.338	95.19
379.553	54.51
379.767	95.39
379.982	71.36
380.197	109.14
380.412	73.11
380.626	100.23
380.841	179.28
381.056	108.18
381.271	148.67
381.485	76.59
381.7	35.33
381.915	92.48
382.129	33.39
382.344	87.83
382.559	51.02
382.773	112.83
382.988	12.85
383.202	82.99
383.417	45.21
383.632	165.14
383.846	46.56
384.061	86.86
384.275	73.49
384.49	99.26
384.704	102.36
384.919	113.79
385.133	73.3
385.348	108.56
385.562	62.64
385.777	132.59
385.991	83.57
386.206	83.96
386.42	67.29
386.634	135.49
386.849	112.44
387.063	98.88
387.277	59.93
387.492	88.99
387.706	74.46
387.92	73.3
388.135	119.03
388.349	112.24
388.563	95.97
388.778	108.18
388.992	112.05
389.206	118.44
389.42	168.04
389.635	101.78
389.849	127.36
390.063	134.72
390.277	138.59
390.491	158.74
390.706	128.71
390.92	158.74
391.134	112.83
391.348	154.87
391.562	80.28
391.776	136.08
391.99	101.78
392.205	155.45
392.419	82.02
392.633	127.94
392.847	168.62
393.061	112.05
393.275	166.3
393.489	124.26
393.703	103.14
393.917	137.04
394.131	54.7
394.345	129.49
394.559	134.33
394.773	112.63
394.986	159.91
395.2	112.24
395.414	181.8
395.628	128.91
395.842	160.1
396.056	132.98
396.27	96.55
396.484	145.18
396.697	131.23
396.911	163.01
397.125	126.39
397.339	144.21
397.553	85.89
397.766	209.31
397.98	136.27
398.194	167.85
398.408	166.49
398.621	185.67
398.835	175.21
399.049	204.08
399.262	231.59
399.476	200.79
399.69	234.89
399.903	307.15
400.117	189.94
400.331	211.06
400.544	187.22
400.758	319.94
400.971	211.64
401.185	263.17
401.398	208.15
401.612	272.09
401.826	226.36
402.039	258.14
402.253	209.89
402.466	260.65
402.68	215.51
402.893	255.42
403.106	262.01
403.32	212.02
403.533	238.57
403.747	235.85
403.96	249.22
404.174	271.5
404.387	197.3
404.6	217.26
404.814	295.14
405.027	217.06
405.24	212.41
405.454	224.42
405.667	305.8
405.88	166.49
406.094	254.65
406.307	292.04
406.52	243.6
406.733	204.08
406.947	209.7
407.16	336.02
407.373	307.93
407.586	229.85
407.799	226.36
408.012	286.23
408.226	261.62
408.439	308.51
408.652	211.06
408.865	274.99
409.078	309.29
409.291	284.49
409.504	224.23
409.717	312.97
409.93	313.94
410.143	269.37
410.357	204.86
410.57	190.71
410.783	229.66
410.996	262.4
411.209	272.28
411.421	317.81
411.634	306.96
411.847	256.2
412.06	312.19
412.273	317.23
412.486	292.04
412.699	381.94
412.912	318
413.125	337.77
413.338	324.2
413.55	347.65
413.763	306.38
413.976	303.47
414.189	285.84
414.402	305.8
414.615	338.15
414.827	251.94
415.04	349
415.253	333.12
415.466	344.93
415.678	402.28
415.891	327.88
416.104	304.25
416.316	290.88
416.529	318.2
416.742	353.46
416.954	367.41
417.167	334.08
417.38	319.94
417.592	391.24
417.805	275.77
418.017	276.15
418.23	325.17
418.442	318
418.655	318.2
418.868	332.15
419.08	360.43
419.293	399.96
419.505	377.87
419.718	331.76
419.93	386.2
420.142	346.29
420.355	369.73
420.567	387.95
420.78	384.65
420.992	339.9
421.205	397.05
421.417	316.07
421.629	339.9
421.842	331.18
422.054	305.02
422.266	403.45
422.479	417.01
422.691	345.52
422.903	383.68
423.115	341.25
423.328	335.63
423.54	349
423.752	341.06
423.964	323.43
424.177	385.43
424.389	351.72
424.601	467
424.813	377.87
425.025	421.08
425.238	423.21
425.45	368.38
425.662	370.7
425.874	679.73
426.086	373.8
426.298	423.01
426.51	381.94
426.722	398.8
426.934	396.28
427.146	415.85
427.358	355.4
427.57	388.92
427.782	378.65
427.994	354.62
428.206	360.43
428.418	353.85
428.63	405.38
428.842	436.19
429.054	416.62
429.266	426.7
429.478	347.65
429.69	395.12
429.902	342.03
430.114	383.3
430.325	356.75
430.537	352.88
430.749	340.09
430.961	258.72
431.173	306.57
431.384	341.45
431.596	247.87
431.808	351.52
432.02	374.58
432.231	466.41
432.443	477.26
432.655	450.53
432.867	405
433.078	437.74
433.29	501.29
433.502	479.78
433.713	507.88
433.925	474.55
434.136	513.11
434.348	418.17
434.56	380.97
434.771	525.31
434.983	398.6
435.194	405.97
435.406	454.6
435.617	531.9
435.829	552.24
436.04	512.72
436.252	547.4
436.463	572.98
436.675	555.73
436.886	542.75
437.098	551.86
437.309	583.82
437.521	511.94
437.732	525.31
437.943	497.03
438.155	531.51
438.366	462.54
438.578	593.51
438.789	509.43
439	519.69
439.211	491.02
439.423	515.43
439.634	508.84
439.845	543.72
440.057	532.87
440.268	562.9
440.479	516.59
440.69	560.19
440.902	531.13
441.113	514.66
441.324	516.01
441.535	579.95
441.746	634.78
441.957	533.26
442.168	568.13
442.38	594.48
442.591	621.41
442.802	559.22
443.013	557.86
443.224	612.89
443.435	591.19
443.646	595.26
443.857	605.33
444.068	602.62
444.279	576.08
444.49	654.74
444.701	613.27
444.912	707.63
445.123	648.54
445.334	637.11
445.545	634.97
445.756	592.74
445.967	589.25
446.178	624.12
446.388	641.17
446.599	624.32
446.81	655.71
447.021	584.99
447.232	667.72
447.443	681.86
447.653	618.12
447.864	699.3
448.075	631.29
448.286	671.98
448.496	671.59
448.707	692.9
448.918	648.34
449.129	769.63
449.339	632.46
449.55	675.85
449.761	665.59
449.971	678.18
450.182	671.59
450.393	710.54
450.603	705.69
450.814	746.57
451.024	752.39
451.235	758.78
451.446	782.03
451.656	798.5
451.867	710.54
452.077	701.82
452.288	793.27
452.498	751.8
452.709	714.6
452.919	741.54
453.13	699.1
453.34	721.77
453.55	712.09
453.761	704.72
453.971	702.4
454.182	730.69
454.392	724.29
454.602	796.95
454.813	743.09
455.023	760.91
455.233	673.34
455.444	733.2
455.654	618.7
455.864	719.06
456.075	709.18
456.285	713.64
456.495	717.7
456.705	784.93
456.916	811.48
457.126	820.39
457.336	758.2
457.546	683.22
457.756	739.21
457.967	828.53
458.177	738.82
458.387	756.84
458.597	690
458.807	750.84
459.017	749.48
459.227	715.57
459.437	734.56
459.647	760.33
459.857	785.32
460.068	719.64
460.278	809.35
460.488	765.56
460.698	848.48
460.908	748.12
461.117	738.63
461.327	757.23
461.537	794.04
461.747	798.5
461.957	783.77
462.167	903.51
462.377	868.44
462.587	799.47
462.797	857.98
463.007	827.37
463.216	843.64
463.426	875.22
463.636	851.58
463.846	758.2
464.056	791.52
464.265	818.26
464.475	783
464.685	842.87
464.895	849.45
465.104	799.27
465.314	864.56
465.524	796.95
465.733	786.68
465.943	887.81
466.153	881.23
466.362	883.94
466.572	821.17
466.782	801.02
466.991	866.5
467.201	888.2
467.41	766.53
467.62	850.03
467.829	839.18
468.039	855.65
468.249	835.5
468.458	856.04
468.668	906.61
468.877	889.17
469.086	940.32
469.296	952.53
469.505	848.29
469.715	984.88
469.924	900.41
470.134	944.39
470.343	946.33
470.552	851.58
470.762	876.19
470.971	879.1
471.18	933.34
471.39	888.4
471.599	874.83
471.808	960.47
472.018	882.2
472.227	982.75
472.436	1014.14
472.645	969.77
472.855	962.21
473.064	1042.04
473.273	995.93
473.482	989.73
473.691	1035.45
473.901	1016.85
474.11	947.1
474.319	1085.63
474.528	1003.68
474.737	1100.36
474.946	1055.6
475.155	1039.13
475.364	1109.65
475.573	1076.52
475.783	1105.39
475.992	1065.29
476.201	1096.87
476.41	1060.44
476.619	1028.28
476.828	1069.55
477.037	1048.62
477.245	1070.91
477.454	1123.22
477.663	1101.13
477.872	1112.17
478.081	1195.68
478.29	1114.3
478.499	1247.99
478.708	1188.7
478.917	1230.36
479.125	1142.59
479.334	1178.05
479.543	1162.94
479.752	1193.55
479.961	1185.22
480.169	1217.77
480.378	1170.1
480.587	1337.31
480.796	1251.67
481.004	1246.05
481.213	1248.57
481.422	1238.88
481.63	1285.77
481.839	1308.83
482.048	1359.78
482.256	1310.57
482.465	1320.26
482.674	1323.16
482.882	1355.33
483.091	1396.98
483.299	1363.08
483.508	1407.83
483.716	1340.99
483.925	1389.62
484.134	1308.44
484.342	1335.37
484.551	1364.05
484.759	1377.61
484.967	1412.48
485.176	1399.31
485.384	1383.81
485.593	1425.85
485.801	1392.53
486.01	1319.29
486.218	1293.91
486.426	1208.27
486.635	1192.58
486.843	1193.74
487.051	1228.42
487.26	1230.36
487.468	1263.68
487.676	1327.81
487.885	1320.06
488.093	1402.41
488.301	1422.17
488.509	1443.48
488.717	1485.72
488.926	1451.62
489.134	1424.69
489.342	1418.29
489.55	1408.8
489.758	1441.74
489.967	1448.33
490.175	1550.43
490.383	1494.24
490.591	1599.64
490.799	1494.24
491.007	1573.29
491.215	1547.52
491.423	1531.44
491.631	1555.66
491.839	1526.41
492.047	1570.58
492.255	1473.71
492.463	1476.81
492.671	1450.65
492.879	1527.57
493.087	1502.77
493.295	1542.87
493.503	1593.64
493.711	1621.34
493.919	1655.63
494.127	1631.42
494.334	1637.81
494.542	1570.58
494.75	1625.99
494.958	1595.38
495.166	1708.53
495.374	1659.9
495.581	1682.37
495.789	1670.94
495.997	1755.22
496.205	1623.67
496.412	1634.13
496.62	1676.17
496.828	1661.64
497.035	1676.17
497.243	1715.89
497.451	1688.57
497.658	1697.1
497.866	1663.38
498.074	1750.76
498.281	1680.82
498.489	1782.35
498.696	1705.04
498.904	1653.89
499.112	1651.57
499.319	1749.41
499.527	1663.19
499.734	1754.45
499.942	1683.34
500.149	1687.99
500.357	1725
500.564	1683.53
500.771	1717.44
500.979	1669.58
501.186	1654.47
501.394	1692.45
501.601	1679.08
501.808	1714.73
502.016	1659.32
502.223	1649.82
502.43	1707.37
502.638	1678.3
502.845	1646.72
503.052	1745.53
503.26	1676.17
503.467	1808.89
503.674	1746.11
503.881	1755.03
504.089	1841.24
504.296	1773.24
504.503	1716.67
504.71	1702.52
504.917	1691.28
505.125	1732.55
505.332	1757.16
505.539	1769.56
505.746	1843.57
505.953	1867.4
506.16	1822.45
506.367	1907.7
506.574	1907.7
506.781	1916.22
506.988	1829.62
507.195	1867.21
507.402	1847.06
507.609	1898.4
507.816	1816.64
508.023	1834.08
508.23	1847.64
508.437	1758.9
508.644	1822.06
508.851	1869.53
509.058	1917.19
509.265	1885.81
509.472	1906.15
509.679	1995.08
509.885	1878.44
510.092	1906.73
510.299	1894.52
510.506	1882.51
510.713	1908.47
510.92	1922.81
511.126	1942.38
511.333	1976.87
511.54	1967.37
511.746	1976.29
511.953	2031.7
512.16	2027.05
512.367	1971.64
512.573	1965.82
512.78	1989.27
512.987	1976.09
513.193	1968.34
513.4	1876.7
513.606	1916.22
513.813	1969.7
514.02	1937.92
514.226	2004.77
514.433	2016.78
514.639	1877.86
514.846	1977.45
515.052	1914.67
515.259	1958.85
515.465	1936.57
515.672	1982.49
515.878	2077.42
516.085	2017.17
516.291	2055.34
516.497	2008.45
516.704	1985
516.91	1928.82
517.117	1855.97
517.323	1771.69
517.529	1808.5
517.736	1795.33
517.942	1818.58
518.148	1800.75
518.354	1908.86
518.561	1877.67
518.767	1888.71
518.973	1927.07
519.179	1976.09
519.386	1928.24
519.592	1908.47
519.798	1926.88
520.004	2083.23
520.21	2025.69
520.417	2103.97
520.623	2140.39
520.829	2137.68
521.035	2143.88
521.241	2157.83
521.447	2159.96
521.653	2278.53
521.859	2146.78
522.065	2190.96
522.271	2250.63
522.477	2258.19
522.683	2282.6
522.889	2227.96
523.095	2234.75
523.301	2188.44
523.507	2185.73
523.713	2208.2
523.919	2134.19
524.125	2281.44
524.331	2233.78
524.537	2352.74
524.742	2375.79
524.948	2371.34
525.154	2350.61
525.36	2458.91
525.566	2341.11
525.772	2380.64
525.977	2319.22
526.183	2365.72
526.389	2382.38
526.595	2302.36
526.8	2289.96
527.006	2193.67
527.212	2152.6
527.417	2131.28
527.623	2164.61
527.829	2215.56
528.034	2288.8
528.24	2299.84
528.446	2311.28
528.651	2411.64
528.857	2405.05
529.062	2480.22
529.268	2421.52
529.473	2465.5
529.679	2441.28
529.884	2573.03
530.09	2543.38
530.295	2492.43
530.501	2519.55
530.706	2526.53
530.912	2465.3
531.117	2533.89
531.323	2516.84
531.528	2595.31
531.733	2632.31
531.939	2515.29
532.144	2611.97
532.35	2566.05
532.555	2630.38
532.76	2510.45
532.966	2549.2
533.171	2510.83
533.376	2440.12
533.581	2427.91
533.787	2505.6
533.992	2575.16
534.197	2574.58
534.402	2505.8
534.607	2541.45
534.813	2646.07
535.018	2560.05
535.223	2590.47
535.428	2573.22
535.633	2622.05
535.838	2682.88
536.043	2663.31
536.249	2777.04
536.454	2657.7
536.659	2705.74
536.864	2672.81
537.069	2629.02
537.274	2655.76
537.479	2651.69
537.684	2626.5
537.889	2602.86
538.094	2716.98
538.299	2658.66
538.504	2672.23
538.708	2680.36
538.913	2725.7
539.118	2710.78
539.323	2728.8
539.528	2638.71
539.733	2652.85
539.938	2697.99
540.142	2673.2
540.347	2626.89
540.552	2590.47
540.757	2582.91
540.962	2599.57
541.166	2573.8
541.371	2520.91
541.576	2605.38
541.781	2511.22
541.985	2680.75
542.19	2627.28
542.395	2754.38
542.599	2750.5
542.804	2734.03
543.008	2727.44
543.213	2706.33
543.418	2623.98
543.622	2692.38
543.827	2633.67
544.031	2746.24
544.236	2778.01
544.44	2748.95
544.645	2868.1
544.849	2745.27
545.054	2771.04
545.258	2844.86
545.463	2791.19
545.667	2751.86
545.872	2796.42
546.076	2772.39
546.281	2806.69
546.485	2696.25
546.689	2790.8
546.894	2819.86
547.098	2809.98
547.302	2738.1
547.507	2774.91
547.711	2823.16
547.915	2856.87
548.119	2707.88
548.324	2729.58
548.528	2791.19
548.732	2767.36
548.936	2805.14
549.141	2806.69
549.345	2764.84
549.549	2782.47
549.753	2832.46
549.957	2883.41
550.161	2821.41
550.366	2809.98
550.57	2794.29
550.774	2795.84
550.978	2783.05
551.182	2846.99
551.386	2722.02
551.59	2771.81
551.794	2783.24
551.998	2849.89
552.202	2827.42
552.406	2753.6
552.61	2803.39
552.814	2836.91
553.018	2850.86
553.222	2767.94
553.426	2765.81
553.63	2834.78
553.833	2821.02
554.037	2717.95
554.241	2826.84
554.445	2803.01
554.649	2769.49
554.853	2773.94
555.056	2832.46
555.26	2868.49
555.464	2831.49
555.668	2839.82
555.871	2860.55
556.075	2868.88
556.279	2783.05
556.483	2765.81
556.686	2767.94
556.89	2753.99
557.094	2801.46
557.297	2658.28
557.501	2773.56
557.704	2667.58
557.908	2798.94
558.112	2698.96
558.315	2795.64
558.519	2720.28
558.722	2715.63
558.926	2654.01
559.129	2649.17
559.333	2602.86
559.536	2643.36
559.74	2606.35
559.943	2568.77
560.147	2569.73
560.35	2635.03
560.553	2644.71
560.757	2605.58
560.96	2679.2
561.164	2635.8
561.367	2770.46
561.57	2660.8
561.774	2672.03
561.977	2653.63
562.18	2600.93
562.384	2741.78
562.587	2627.28
562.79	2634.64
562.993	2622.05
563.197	2644.52
563.4	2674.94
563.603	2687.73
563.806	2711.94
564.009	2610.61
564.212	2653.63
564.416	2577.87
564.619	2611.2
564.822	2577.87
565.025	2648.78
565.228	2576.9
565.431	2610.42
565.634	2474.41
565.837	2531.95
566.04	2519.55
566.243	2502.12
566.446	2435.08
566.649	2557.53
566.852	2436.05
567.055	2506.96
567.258	2548.42
567.461	2594.53
567.664	2578.84
567.867	2476.35
568.07	2534.67
568.273	2547.65
568.475	2592.21
568.678	2512
568.881	2477.9
569.084	2454.07
569.287	2350.22
569.489	2436.05
569.692	2502.89
569.895	2490.3
570.098	2365.52
570.3	2413.19
570.503	2323.87
570.706	2347.89
570.909	2338.4
571.111	2327.94
571.314	2316.12
571.516	2309.92
571.719	2312.24
571.922	2320.96
572.124	2339.37
572.327	2337.62
572.529	2313.79
572.732	2312.63
572.935	2370.17
573.137	2450.19
573.34	2334.52
573.542	2389.36
573.745	2378.89
573.947	2348.86
574.15	2346.54
574.352	2311.86
574.554	2377.15
574.757	2292.87
574.959	2237.46
575.162	2316.51
575.364	2224.09
575.566	2345.57
575.769	2253.93
575.971	2247.53
576.173	2177.4
576.376	2228.16
576.578	2279.5
576.78	2310.69
576.982	2173.52
577.185	2230.68
577.387	2247.73
577.589	2195.03
577.791	2225.83
577.993	2267.68
578.196	2214.01
578.398	2245.4
578.6	2267.68
578.802	2112.88
579.004	2147.37
579.206	2138.26
579.408	2203.94
579.61	2150.27
579.812	2231.26
580.014	2169.06
580.216	2158.8
580.418	2211.5
580.62	2191.93
580.822	2119.66
581.024	2190.96
581.226	2206.65
581.428	2128.38
581.63	2270.2
581.832	2154.92
582.034	2257.61
582.236	2217.31
582.438	2244.43
582.64	2212.46
582.841	2273.49
583.043	2296.94
583.245	2236.49
583.447	2237.65
583.649	2208.2
583.85	2204.71
584.052	2236.3
584.254	2171
584.456	2227.19
584.657	2132.25
584.859	2171.78
585.061	2144.65
585.262	2170.23
585.464	2128.38
585.666	2150.47
585.867	2127.8
586.069	2167.32
586.27	2177.78
586.472	2123.92
586.674	2112.68
586.875	2071.8
587.077	2126.25
587.278	2133.03
587.48	2101.06
587.681	2238.43
587.883	2132.06
588.084	2063.67
588.285	2068.7
588.487	2028.99
588.688	2095.05
588.89	1973.38
589.091	1958.07
589.292	1949.74
589.494	1940.83
589.695	1851.32
589.896	1775.76
590.098	1804.05
590.299	1863.14
590.5	1823.23
590.702	1919.71
590.903	1923.39
591.104	1984.23
591.305	1963.89
591.507	2041.19
591.708	1990.24
591.909	1956.91
592.11	2049.91
592.311	2020.07
592.512	1958.85
592.714	1936.57
592.915	1920.29
593.116	1945.87
593.317	1978.42
593.518	1974.54
593.719	2002.05
593.92	2009.42
594.121	2042.16
594.322	1979.97
594.523	1992.75
594.724	1954.2
594.925	1960.79
595.126	1958.85
595.327	1959.24
595.528	1947.22
595.729	1968.73
595.929	1957.49
596.13	1948
596.331	1965.63
596.532	1938.31
596.733	2018.33
596.934	2019.1
597.135	2013.49
597.335	2028.6
597.536	1923.59
597.737	2003.6
597.938	1942.77
598.138	1991.98
598.339	1932.69
598.54	1993.72
598.74	1938.89
598.941	1972.99
599.142	2043.13
599.342	1958.46
599.543	1929.01
599.744	1940.06
599.944	1974.16
600.145	1941.8
600.345	1981.32
600.546	2044.29
600.746	2011.35
600.947	2015.04
601.147	1973.19
601.348	2005.93
601.548	1912.16
601.749	1941.02
601.949	1847.64
602.15	1881.74
602.35	1899.17
602.551	1953.42
602.751	1870.69
602.951	1912.74
603.152	1841.63
603.352	1966.41
603.552	1918.16
603.753	1984.04
603.953	1962.72
604.153	1971.06
604.354	1930.17
604.554	1938.12
604.754	1953.04
604.954	1881.16
605.155	1970.47
605.355	1893.17
605.555	1959.62
605.755	1990.82
605.955	1906.15
606.155	1960.21
606.356	1927.07
606.556	1961.17
606.756	1947.81
606.956	1861.39
607.156	1976.29
607.356	1869.14
607.556	1914.67
607.756	1929.59
607.956	1940.83
608.156	1915.45
608.356	1850.35
608.556	1967.37
608.756	1929.21
608.956	1822.45
609.156	1857.33
609.356	1868.56
609.556	1828.26
609.755	1884.84
609.955	1826.33
610.155	1851.51
610.355	1828.65
610.555	1816.25
610.755	1810.05
610.954	1782.73
611.154	1841.63
611.354	1878.25
611.554	1783.9
611.753	1830.39
611.953	1770.14
612.153	1843.76
612.352	1820.32
612.552	1742.05
612.752	1755.03
612.951	1803.46
613.151	1787.96
613.351	1773.43
613.55	1790.1
613.75	1780.99
613.949	1798.62
614.149	1774.6
614.348	1747.86
614.548	1726.16
614.747	1689.73
614.947	1735.46
615.146	1676.95
615.346	1793.39
615.545	1751.54
615.745	1715.7
615.944	1776.15
616.144	1749.41
616.343	1728.1
616.542	1717.05
616.742	1701.36
616.941	1662.03
617.14	1654.08
617.34	1682.57
617.539	1675.98
617.738	1665.9
617.938	1785.64
618.137	1666.87
618.336	1628.12
618.535	1707.17
618.734	1679.47
618.934	1689.35
619.133	1708.72
619.332	1749.02
619.531	1628.51
619.73	1675.2
619.929	1724.8
620.128	1741.66
620.328	1784.09
620.527	1687.99
620.726	1656.02
620.925	1725.96
621.124	1673.85
621.323	1676.37
621.522	1621.34
621.721	1644.98
621.92	1602.55
622.119	1674.04
622.318	1620.76
622.517	1653.12
622.715	1627.54
622.914	1582.59
623.113	1621.34
623.312	1603.71
623.511	1654.08
623.71	1585.3
623.909	1580.85
624.107	1682.57
624.306	1553.53
624.505	1576.59
624.704	1601.77
624.902	1592.86
625.101	1625.02
625.3	1572.71
625.499	1550.04
625.697	1557.4
625.896	1547.91
626.095	1597.32
626.293	1457.04
626.492	1542.1
626.69	1571.74
626.889	1526.41
627.088	1608.36
627.286	1541.13
627.485	1502.57
627.683	1507.42
627.882	1544.62
628.08	1482.42
628.279	1497.15
628.477	1578.33
628.676	1470.8
628.874	1555.27
629.073	1511.68
629.271	1461.69
629.469	1534.74
629.668	1523.11
629.866	1517.88
630.065	1480.68
630.263	1539.77
630.461	1487.46
630.66	1504.9
630.858	1519.62
631.056	1538.22
631.254	1556.44
631.453	1458.01
631.651	1519.24
631.849	1516.72
632.047	1477.97
632.245	1477.77
632.444	1521.56
632.642	1542.68
632.84	1544.42
633.038	1430.5
633.236	1463.82
633.434	1476.22
633.632	1465.57
633.83	1468.86
634.028	1496.18
634.227	1496.76
634.425	1567.48
634.623	1493.66
634.821	1474.48
635.019	1512.07
635.216	1461.89
635.414	1498.31
635.612	1501.8
635.81	1464.99
636.008	1527.37
636.206	1481.07
636.404	1546.17
636.602	1435.93
636.8	1477.97
636.997	1476.22
637.195	1480.49
637.393	1467.31
637.591	1540.74
637.789	1497.92
637.986	1472.16
638.184	1503.74
638.382	1531.83
638.58	1528.73
638.777	1556.63
638.975	1486.11
639.173	1477.97
639.37	1468.86
639.568	1464.6
639.765	1477.19
639.963	1448.91
640.161	1499.86
640.358	1494.82
640.556	1419.07
640.753	1404.73
640.951	1416.55
641.148	1451.43
641.346	1417.52
641.543	1406.09
641.741	1440.77
641.938	1393.88
642.136	1394.08
642.333	1425.66
642.531	1475.26
642.728	1466.34
642.925	1444.06
643.123	1386.13
643.32	1427.79
643.517	1389.04
643.715	1412.48
643.912	1372.18
644.109	1422.36
644.306	1418.29
644.504	1359.2
644.701	1399.69
644.898	1433.21
645.095	1336.53
645.293	1379.35
645.49	1394.66
645.687	1398.34
645.884	1414.61
646.081	1289.26
646.278	1325.1
646.475	1340.6
646.672	1327.81
646.87	1385.94
647.067	1348.16
647.264	1301.66
647.461	1306.11
647.658	1273.76
647.855	1348.74
648.052	1276.67
648.249	1229.58
648.446	1326.26
648.642	1276.28
648.839	1262.52
649.036	1241.6
649.233	1207.5
649.43	1266.78
649.627	1188.12
649.824	1238.88
650.021	1217.18
650.217	1230.94
650.414	1237.92
650.611	1283.25
650.808	1299.91
651.004	1235.78
651.201	1287.51
651.398	1327.23
651.595	1262.52
651.791	1235.98
651.988	1311.93
652.185	1223.38
652.381	1279.38
652.578	1222.03
652.775	1274.73
652.971	1221.64
653.168	1263.88
653.364	1298.56
653.561	1188.9
653.757	1260
653.954	1252.64
654.15	1216.99
654.347	1302.63
654.543	1250.51
654.74	1178.44
654.936	1156.35
655.133	1193.35
655.329	1201.68
655.525	1184.83
655.722	1239.66
655.918	1164.29
656.115	1177.08
656.311	1080.01
656.507	1013.17
656.704	1028.28
656.9	1012.01
657.096	1031.57
657.292	1062.77
657.489	1110.43
657.685	1085.82
657.881	1117.99
658.077	1084.08
658.273	1131.55
658.47	1190.84
658.666	1155.38
658.862	1222.22
659.058	1127.67
659.254	1223.77
659.45	1150.54
659.646	1182.12
659.842	1113.34
660.038	1202.46
660.234	1141.24
660.43	1153.05
660.626	1263.49
660.822	1197.23
661.018	1187.15
661.214	1161.39
661.41	1114.5
661.606	1202.27
661.802	1200.72
661.998	1149.57
662.194	1121.47
662.39	1182.89
662.586	1165.45
662.781	1180.95
662.977	1174.37
663.173	1200.72
663.369	1149.95
663.564	1158.67
663.76	1192.19
663.956	1153.25
664.152	1190.64
664.347	1096.09
664.543	1116.44
664.739	1127.29
664.934	1054.05
665.13	1078.85
665.326	1171.27
665.521	1135.42
665.717	1076.14
665.912	1086.79
666.108	1047.85
666.304	1097.45
666.499	1103.26
666.695	1018.59
666.89	1086.79
667.086	1124.96
667.281	1113.92
667.477	1167.39
667.672	1118.95
667.867	1090.86
668.063	1124.38
668.258	1026.92
668.454	1068.77
668.649	1159.64
668.844	1102.68
669.04	1140.85
669.235	1095.12
669.43	1075.56
669.626	1000.58
669.821	1065.09
670.016	1054.63
670.211	1098.03
670.407	1010.46
670.602	1070.13
670.797	1099.77
670.992	1088.92
671.187	1062.19
671.382	1094.54
671.578	1021.69
671.773	1096.48
671.968	997.48
672.163	1047.85
672.358	1070.52
672.553	1029.25
672.748	1013.17
672.943	1128.64
673.138	1029.64
673.333	1073.62
673.528	1020.34
673.723	1057.73
673.918	1032.16
674.113	1005.61
674.308	1136.39
674.503	1056.37
674.698	1030.61
674.892	1027.89
675.087	1076.14
675.282	1052.5
675.477	1001.74
675.672	1076.52
675.867	1020.34
676.061	998.25
676.256	1000.19
676.451	1002.9
676.646	1017.04
676.84	992.63
677.035	969.96
677.23	982.56
677.424	1024.79
677.619	1070.52
677.814	1061.02
678.008	1019.56
678.203	968.99
678.397	989.53
678.592	1011.62
678.787	1099.39
678.981	996.7
679.176	1037.97
679.37	997.67
679.565	977.33
679.759	1003.68
679.954	1017.43
680.148	1047.27
680.342	1063.16
680.537	1023.24
680.731	1014.33
680.926	1018.79
681.12	1033.12
681.314	998.83
681.509	967.83
681.703	1012.01
681.897	1009.1
682.092	1002.9
682.286	993.6
682.48	1070.52
682.674	1042.81
682.869	989.73
683.063	1000.19
683.257	1075.36
683.451	970.16
683.645	1018.4
683.839	1002.71
684.034	988.95
684.228	1024.02
684.422	946.33
684.616	971.9
684.81	1003.87
685.004	992.63
685.198	985.85
685.392	1036.22
685.586	972.87
685.78	993.99
685.974	1014.53
686.168	1014.91
686.362	1066.84
686.556	940.9
686.75	913.78
686.944	941.48
687.138	929.47
687.331	815.74
687.525	838.02
687.719	766.92
687.913	889.17
688.107	846.74
688.301	794.82
688.494	860.3
688.688	810.7
688.882	810.12
689.076	793.07
689.269	873.48
689.463	971.71
689.657	887.04
689.85	856.23
690.044	867.47
690.238	840.73
690.431	861.85
690.625	892.66
690.818	904.67
691.012	921.33
691.205	915.71
691.399	899.44
691.593	938.38
691.786	972.87
691.98	993.99
692.173	1026.54
692.366	974.23
692.56	986.04
692.753	1045.14
692.947	963.96
693.14	1035.06
693.333	1022.27
693.527	977.91
693.72	994.96
693.914	988.56
694.107	949.81
694.3	1002.32
694.493	989.34
694.687	1026.54
694.88	970.54
695.073	1099.97
695.266	1054.05
695.46	1002.9
695.653	1095.51
695.846	1093.77
696.039	1001.74
696.232	1007.36
696.425	1099.39
696.618	1095.9
696.812	1086.99
697.005	1154.22
697.198	1210.21
697.391	1188.12
697.584	1169.72
697.777	1222.42
697.97	1201.3
698.163	1209.63
698.356	1195.48
698.549	1279.38
698.742	1244.89
698.935	1185.99
699.127	1215.83
699.32	1191.61
699.513	1225.13
699.706	1243.92
699.899	1268.72
700.092	1217.57
700.285	1256.52
700.477	1193.94
700.67	1290.03
700.863	1278.22
701.056	1367.15
701.248	1325.3
701.441	1357.26
701.634	1308.83
701.826	1433.6
702.019	1299.72
702.212	1374.7
702.404	1326.65
702.597	1321.03
702.79	1344.67
702.982	1358.43
703.175	1412.48
703.367	1464.6
703.56	1472.16
703.752	1545.59
703.945	1489.21
704.137	1480.87
704.33	1515.94
704.522	1568.64
704.715	1566.9
704.907	1592.47
705.1	1651.76
705.292	1642.07
705.484	1599.06
705.677	1636.65
705.869	1627.54
706.061	1699.62
706.254	1738.36
706.446	1676.56
706.638	1704.07
706.831	1764.52
707.023	1736.04
707.215	1829.62
707.407	1823.81
707.599	1795.71
707.792	1816.25
707.984	1829.04
708.176	1904.99
708.368	1873.99
708.56	1897.62
708.752	1901.31
708.944	1921.84
709.136	1955.36
709.329	1903.05
709.521	2073.35
709.713	2010.19
709.905	2009.03
710.097	2056.89
710.289	1988.3
710.481	2037.9
710.672	2046.42
710.864	2065.41
711.056	2130.9
711.248	2137.87
711.44	2134.97
711.632	2136.9
711.824	2187.28
712.016	2224.67
712.207	2214.98
712.399	2222.54
712.591	2274.46
712.783	2277.56
712.975	2319.99
713.166	2253.34
713.358	2263.61
713.55	2366.88
713.741	2388.39
713.933	2387.03
714.125	2363.78
714.316	2369.98
714.508	2450.19
714.7	2502.5
714.891	2422.1
715.083	2510.83
715.274	2449.61
715.466	2438.37
715.657	2534.67
715.849	2476.93
716.04	2492.04
716.232	2443.6
716.423	2521.49
716.615	2467.82
716.806	2433.53
716.998	2373.47
717.189	2330.46
717.381	2254.12
717.572	2233
717.763	2265.16
717.955	2266.13
718.146	2242.11
718.337	2163.64
718.528	2139.81
718.72	2040.42
718.911	2141.17
719.102	2069.28
719.293	2155.7
719.485	2156.86
719.676	2136.9
719.867	2064.25
720.058	2136.32
720.249	2104.93
720.44	2146.59
720.632	2214.01
720.823	2233.2
721.014	2323.29
721.205	2380.25
721.396	2457.55
721.587	2554.62
721.778	2617.2
721.969	2622.63
722.16	2714.27
722.351	2673
722.542	2891.35
722.733	2899.88
722.924	2790.02
723.115	2880.12
723.305	2844.47
723.496	2879.54
723.687	2689.28
723.878	2740.81
724.069	2726.28
724.26	2777.04
724.45	2735.78
724.641	2680.36
724.832	2742.75
725.023	2728.61
725.213	2743.33
725.404	2727.44
725.595	2721.24
725.785	2673.97
725.976	2774.14
726.167	2809.98
726.357	2806.11
726.548	2929.72
726.739	2850.86
726.929	2933.59
727.12	2976.99
727.31	2994.82
727.501	2902.59
727.691	2921.58
727.882	2957.81
728.072	3009.73
728.263	2988.42
728.453	3076.38
728.644	3062.24
728.834	3026.01
729.024	3018.65
729.215	3003.92
729.405	3020.97
729.596	3144.97
729.786	3130.05
729.976	3171.13
730.167	3199.61
730.357	3122.3
730.547	3168.8
730.737	3216.27
730.928	3250.37
731.118	3251.72
731.308	3219.56
731.498	3279.04
731.688	3340.07
731.879	3370.3
732.069	3411.95
732.259	3478.6
732.449	3457.29
732.639	3552.42
732.829	3573.54
733.019	3598.92
733.209	3717.88
733.399	3647.94
733.589	3776.78
733.779	3799.25
733.969	3749.07
734.159	3882.37
734.349	3922.09
734.539	3970.91
734.729	3929.06
734.919	4000.75
735.109	4045.89
735.299	3970.14
735.488	3973.82
735.678	3991.45
735.868	4020.13
736.058	4016.25
736.248	3989.13
736.437	3940.11
736.627	3950.18
736.817	4100.53
737.007	4043.38
737.196	4088.13
737.386	4038.73
737.576	4006.18
737.765	4073.21
737.955	4075.15
738.144	4220.85
738.334	4178.42
738.524	4104.6
738.713	4151.68
738.903	4138.51
739.092	4220.07
739.282	4151.68
739.471	4180.55
739.661	4197.4
739.85	4268.32
740.04	4210.77
740.229	4253.98
740.419	4289.43
740.608	4284.98
740.797	4299.7
740.987	4322.95
741.176	4321.02
741.365	4267.35
741.555	4209.42
741.744	4343.3
741.933	4259.02
742.123	4341.75
742.312	4358.02
742.501	4399.68
742.69	4421.18
742.88	4318.69
743.069	4504.49
743.258	4393.67
743.447	4441.33
743.636	4488.8
743.825	4389.6
744.014	4458.38
744.204	4485.89
744.393	4416.15
744.582	4516.31
744.771	4491.13
744.96	4483.18
745.149	4512.44
745.338	4434.36
745.527	4537.62
745.716	4474.66
745.905	4509.73
746.094	4557.77
746.283	4535.69
746.471	4487.06
746.66	4554.87
746.849	4538.98
747.038	4573.66
747.227	4500.04
747.416	4535.88
747.604	4517.09
747.793	4479.11
747.982	4505.46
748.171	4548.67
748.359	4579.47
748.548	4565.91
748.737	4528.32
748.926	4544.99
749.114	4436.29
749.303	4531.23
749.491	4496.94
749.68	4429.13
749.869	4565.52
750.057	4481.05
750.246	4463.03
750.434	4497.33
750.623	4464.39
750.811	4439.98
751	4561.65
751.188	4498.88
751.377	4501.59
751.565	4410.33
751.754	4420.8
751.942	4402.2
752.131	4486.09
752.319	4427.19
752.507	4384.37
752.696	4486.28
752.884	4507.01
753.072	4374.3
753.261	4465.94
753.449	4503.91
753.637	4416.53
753.825	4530.26
754.014	4454.7
754.202	4406.46
754.39	4526
754.578	4482.41
754.766	4442.49
754.955	4383.79
755.143	4516.89
755.331	4471.17
755.519	4400.26
755.707	4414.4
755.895	4411.69
756.083	4388.83
756.271	4338.07
756.459	4367.13
756.647	4427
756.835	4350.08
757.023	4358.02
757.211	4316.17
757.399	4323.73
757.587	4359.57
757.775	4295.63
757.963	4327.02
758.151	4283.62
758.339	4301.83
758.526	4268.9
758.714	4286.14
758.902	4128.24
759.09	4117
759.278	3954.64
759.465	3684.56
759.653	3311.98
759.841	3073.28
760.028	2670.68
760.216	2376.18
760.404	2233.39
760.591	1893.56
760.779	1677.14
760.967	1530.47
761.154	1309.41
761.342	1342.15
761.529	1367.34
761.717	1460.34
761.905	1460.34
762.092	1598.09
762.28	1515.75
762.467	1563.02
762.655	1497.54
762.842	1569.8
763.029	1610.3
763.217	1603.32
763.404	1648.85
763.592	1657.18
763.779	1633.35
763.966	1707.75
764.154	1761.61
764.341	1840.86
764.528	1770.14
764.716	1891.43
764.903	1952.07
765.09	2038.09
765.277	2088.27
765.465	2228.16
765.652	2283.76
765.839	2378.51
766.026	2525.56
766.213	2549.39
766.4	2673.97
766.588	2873.14
766.775	2881.86
766.962	2973.31
767.149	3043.64
767.336	3222.27
767.523	3157.56
767.71	3276.52
767.897	3410.79
768.084	3469.88
768.271	3517.35
768.458	3603.76
768.645	3652.78
768.832	3632.24
769.019	3689.98
769.206	3683.2
769.392	3745.39
769.579	3851.76
769.766	3741.52
769.953	3765.54
770.14	3838.97
770.327	3814.95
770.513	3854.08
770.7	3957.35
770.887	3807
771.073	3867.65
771.26	3877.14
771.447	3813.79
771.634	3799.45
771.82	3958.13
772.007	3798.67
772.193	3849.63
772.38	3885.08
772.567	3859.7
772.753	3770.19
772.94	3886.63
773.126	3861.06
773.313	3890.51
773.499	3874.04
773.686	3845.17
773.872	3839.75
774.059	3829.48
774.245	3734.54
774.432	3786.66
774.618	3750.24
774.804	3810.69
774.991	3747.52
775.177	3774.07
775.363	3753.92
775.55	3780.46
775.736	3744.62
775.922	3767.48
776.109	3746.55
776.295	3752.17
776.481	3766.9
776.667	3769.61
776.853	3737.64
777.04	3707.03
777.226	3676.22
777.412	3784.34
777.598	3708.77
777.784	3694.24
777.97	3652.39
778.156	3710.91
778.342	3696.37
778.528	3678.36
778.715	3603.38
778.901	3606.48
779.087	3665.18
779.272	3630.11
779.458	3618.49
779.644	3650.07
779.83	3625.27
780.016	3744.62
780.202	3631.66
780.388	3613.06
780.574	3501.46
780.76	3540.99
780.946	3605.7
781.131	3571.99
781.317	3597.76
781.503	3548.35
781.689	3551.45
781.874	3679.32
782.06	3547.19
782.246	3518.9
782.432	3517.35
782.617	3551.26
782.803	3575.86
782.989	3459.42
783.174	3498.56
783.36	3415.25
783.545	3459.03
783.731	3462.13
783.916	3373.59
784.102	3436.75
784.288	3410.79
784.473	3425.9
784.659	3360.42
784.844	3435.4
785.029	3414.47
785.215	3404.78
785.4	3347.24
785.586	3436.95
785.771	3302.49
785.956	3399.94
786.142	3353.64
786.327	3378.05
786.512	3319.15
786.698	3305.78
786.883	3263.74
787.068	3313.53
787.254	3346.66
787.439	3298.8
787.624	3283.5
787.809	3237.77
787.994	3238.74
788.18	3331.35
788.365	3173.26
788.55	3254.82
788.735	3222.66
788.92	3223.63
789.105	3229.83
789.29	3268.58
789.475	3144.19
789.66	3147.49
789.845	3131.99
790.03	3135.86
790.215	3195.54
790.4	3188.56
790.585	3208.91
790.77	3141.87
790.955	3087.04
791.14	3116.3
791.325	3208.91
791.51	3032.98
791.695	3086.07
791.879	3144.78
792.064	3057.98
792.249	3163.57
792.434	3091.88
792.618	3090.33
792.803	3141.87
792.988	3083.16
793.173	3095.76
793.357	3136.44
793.542	3046.74
793.727	3120.17
793.911	3149.62
794.096	3098.47
794.281	3121.14
794.465	3230.41
794.65	3097.31
794.834	3118.62
795.019	3187.01
795.203	3182.36
795.388	3173.84
795.572	3184.49
795.757	3183.14
795.941	3170.54
796.126	3145.74
796.31	3084.71
796.494	3173.26
796.679	3134.12
796.863	3075.8
797.048	3206.58
797.232	3152.14
797.416	3150.2
797.601	3175
797.785	3211.42
797.969	3230.41
798.153	3099.25
798.338	3200.38
798.522	3233.71
798.706	3226.92
798.89	3194.96
799.074	3311.4
799.258	3228.67
799.443	3196.89
799.627	3171.71
799.811	3277.69
799.995	3182.94
800.179	3156.79
800.363	3144
800.547	3219.56
800.731	3231.57
800.915	3107.96
801.099	3176.94
801.283	3165.89
801.467	3171.9
801.651	3131.41
801.835	3235.06
802.019	3171.9
802.202	3185.66
802.386	3158.53
802.57	3125.98
802.754	3173.26
802.938	3152.14
803.121	3136.06
803.305	3227.51
803.489	3150.98
803.673	3161.24
803.856	3180.23
804.04	3147.49
804.224	3193.02
804.407	3118.81
804.591	3139.93
804.775	3173.45
804.958	3146.71
805.142	3267.61
805.326	3140.32
805.509	3136.25
805.693	3213.94
805.876	3165.12
806.06	3188.95
806.243	3181.98
806.427	3218.98
806.61	3206.97
806.794	3129.28
806.977	3230.22
807.16	3140.9
807.344	3181.59
807.527	3160.66
807.71	3171.13
807.894	3159.89
808.077	3198.25
808.26	3148.65
808.444	3098.47
808.627	3213.17
808.81	3106.61
808.993	3031.24
809.177	3052.75
809.36	3123.27
809.543	3100.21
809.726	2960.52
809.909	3035.89
810.092	2991.72
810.276	3027.95
810.459	2982.03
810.642	3005.86
810.825	2966.14
811.008	2961.1
811.191	2833.81
811.374	2905.69
811.557	2918.67
811.74	2966.14
811.923	2872.75
812.106	2830.13
812.289	2829.74
812.472	2817.54
812.654	2838.85
812.837	2797.39
813.02	2709.81
813.203	2733.26
813.386	2636.77
813.569	2608.87
813.751	2518.2
813.934	2588.92
814.117	2518.2
814.3	2489.91
814.482	2476.74
814.665	2420.35
814.848	2379.28
815.03	2320.19
815.213	2284.54
815.396	2304.69
815.578	2282.41
815.761	2240.95
815.943	2329.1
816.126	2179.72
816.309	2177.98
816.491	2063.86
816.674	2011.16
816.856	2086.33
817.039	2079.55
817.221	2166.93
817.403	2127.41
817.586	2120.05
817.768	2112.88
817.951	2063.86
818.133	2038.48
818.315	2037.32
818.498	2115.4
818.68	2165
818.862	2134.38
819.045	2162.48
819.227	2134.38
819.409	2088.27
819.591	2136.71
819.774	2120.43
819.956	2088.08
820.138	2161.7
820.32	2116.95
820.502	2165.38
820.684	2286.09
820.866	2251.02
821.048	2336.27
821.231	2345.76
821.413	2310.5
821.595	2283.57
821.777	2314.96
821.959	2266.33
822.141	2353.71
822.323	2244.24
822.505	2183.79
822.686	2100.28
822.868	2012.71
823.05	1916.61
823.232	1876.89
823.414	1802.5
823.596	1889.1
823.778	1847.44
823.96	1912.35
824.141	1927.46
824.323	1909.44
824.505	2020.46
824.687	2084.2
824.868	2108.62
825.05	2188.05
825.232	2239.59
825.413	2300.23
825.595	2279.89
825.777	2182.05
825.958	2275.63
826.14	2222.15
826.321	2237.85
826.503	2210.91
826.685	2262.45
826.866	2282.79
827.048	2251.41
827.229	2198.71
827.411	2173.13
827.592	2145.04
827.773	2109
827.955	2068.51
828.136	2044.29
828.318	2033.05
828.499	2052.82
828.68	2019.69
828.862	2058.24
829.043	2073.16
829.224	2051.65
829.406	2001.47
829.587	1969.12
829.768	2020.46
829.949	2068.51
830.131	2024.92
830.312	2081.88
830.493	2019.88
830.674	2051.65
830.855	1995.47
831.036	2027.82
831.218	2089.82
831.399	2105.9
831.58	2027.44
831.761	2044.49
831.942	2043.13
832.123	2042.74
832.304	1968.73
832.485	2016.2
832.666	2015.81
832.847	2004.77
833.028	2014.26
833.209	2004.19
833.389	1987.91
833.57	1962.72
833.751	1935.21
833.932	2028.02
834.113	1980.74
834.294	1978.22
834.475	2042.16
834.655	2036.15
834.836	2086.53
835.017	2072.77
835.198	1993.72
835.378	2004.77
835.559	2087.69
835.74	2000.5
835.92	2038.09
836.101	1973.19
836.281	2089.05
836.462	2059.6
836.643	2072
836.823	2070.25
837.004	2115.59
837.184	2119.85
837.365	2096.02
837.545	2082.27
837.726	2042.35
837.906	2092.53
838.087	2080.13
838.267	2060.18
838.448	2010
838.628	2031.5
838.808	2054.95
838.989	2097.38
839.169	2026.66
839.349	2061.73
839.53	2090.98
839.71	2108.03
839.89	2021.43
840.07	2124.7
840.251	2011.94
840.431	2088.27
840.611	2021.82
840.791	1968.92
840.971	2053.4
841.151	2025.11
841.332	2015.81
841.512	2045.84
841.692	1987.33
841.872	2085.75
842.052	2046.04
842.232	2051.65
842.412	1948.97
842.592	2004.57
842.772	2029.76
842.952	2018.91
843.132	1985.59
843.312	1954.97
843.492	1951.87
843.672	2023.37
843.851	1931.14
844.031	1950.13
844.211	1966.41
844.391	1946.06
844.571	1980.55
844.751	1981.52
844.93	1970.28
845.11	1911.57
845.29	1976.09
845.47	1988.3
845.649	1951.1
845.829	1971.25
846.009	1929.01
846.188	1947.81
846.368	1936.57
846.547	1938.12
846.727	1985.2
846.907	1911.19
847.086	1952.84
847.266	1973.38
847.445	1936.57
847.625	1943.35
847.804	1896.07
847.984	1923.59
848.163	1879.61
848.343	1911.57
848.522	1898.01
848.701	1920.68
848.881	1879.03
849.06	1875.73
849.239	1881.54
849.419	1913.9
849.598	1801.72
849.777	1811.6
849.957	1843.18
850.136	1743.79
850.315	1715.12
850.494	1748.05
850.674	1768.59
850.853	1799.2
851.032	1777.31
851.211	1800.36
851.39	1804.63
851.569	1731.39
851.748	1732.16
851.927	1803.46
852.107	1782.54
852.286	1721.12
852.465	1741.66
852.644	1797.85
852.823	1770.72
853.002	1770.91
853.181	1790.87
853.359	1776.53
853.538	1722.67
853.717	1811.6
853.896	1650.02
854.075	1576.78
854.254	1554.5
854.433	1499.67
854.611	1516.52
854.79	1432.44
854.969	1532.99
855.148	1543.26
855.327	1521.17
855.505	1567.09
855.684	1558.76
855.863	1600.61
856.041	1586.27
856.22	1653.12
856.399	1615.92
856.577	1739.53
856.756	1683.53
856.934	1779.05
857.113	1772.66
857.291	1674.23
857.47	1625.22
857.648	1682.18
857.827	1694.97
858.005	1730.61
858.184	1652.73
858.362	1745.53
858.541	1664.35
858.719	1660.67
858.898	1659.9
859.076	1638.97
859.254	1688.57
859.433	1646.72
859.611	1640.91
859.789	1606.42
859.967	1678.3
860.146	1710.47
860.324	1583.37
860.502	1618.24
860.68	1572.52
860.859	1607.59
861.037	1629.48
861.215	1666.48
861.393	1619.99
861.571	1606.62
861.749	1578.72
861.927	1618.05
862.105	1627.74
862.283	1573.29
862.461	1603.32
862.639	1540.74
862.817	1572.32
862.995	1587.24
863.173	1582.01
863.351	1574.65
863.529	1593.25
863.707	1627.35
863.885	1599.25
864.063	1509.74
864.241	1571.74
864.418	1609.52
864.596	1535.51
864.774	1514.78
864.952	1529.31
865.129	1539.58
865.307	1529.7
865.485	1473.51
865.663	1555.47
865.84	1438.64
866.018	1482.62
866.196	1309.99
866.373	1365.01
866.551	1319.87
866.728	1254.38
866.906	1298.56
867.084	1342.35
867.261	1377.41
867.439	1361.72
867.616	1430.89
867.794	1392.72
867.971	1431.08
868.149	1448.91
868.326	1472.16
868.503	1453.94
868.681	1435.15
868.858	1409.96
869.035	1371.02
869.213	1466.34
869.39	1381.29
869.567	1461.11
869.745	1405.7
869.922	1436.89
870.099	1455.11
870.276	1454.53
870.454	1452.98
870.631	1446.58
870.808	1428.37
870.985	1441.35
871.162	1493.86
871.339	1425.08
871.517	1392.33
871.694	1365.6
871.871	1367.73
872.048	1387.68
872.225	1398.34
872.402	1405.31
872.579	1335.37
872.756	1396.21
872.933	1344.09
873.11	1345.45
873.287	1385.94
873.463	1328.4
873.64	1340.41
873.817	1367.15
873.994	1354.75
874.171	1315.41
874.348	1370.24
874.524	1286.74
874.701	1326.85
874.878	1253.03
875.055	1315.03
875.231	1322.58
875.408	1335.37
875.585	1280.93
875.762	1300.3
875.938	1311.93
876.115	1281.12
876.291	1282.86
876.468	1322.39
876.645	1284.61
876.821	1265.04
876.998	1258.07
877.174	1257.1
877.351	1278.41
877.527	1261.17
877.704	1298.95
877.88	1278.99
878.057	1256.32
878.233	1335.18
878.409	1283.06
878.586	1290.03
878.762	1233.07
878.938	1241.02
879.115	1180.18
879.291	1247.41
879.467	1208.08
879.644	1225.32
879.82	1257.48
879.996	1211.37
880.172	1161.97
880.349	1247.22
880.525	1237.92
880.701	1173.2
880.877	1184.44
881.053	1203.04
881.229	1205.95
881.405	1239.08
881.581	1167
881.757	1204.78
881.933	1208.27
882.109	1257.87
882.285	1194.71
882.461	1129.42
882.637	1201.68
882.813	1145.89
882.989	1190.06
883.165	1254.58
883.341	1187.93
883.517	1216.41
883.693	1218.54
883.869	1224.16
884.044	1154.8
884.22	1227.65
884.396	1242.37
884.572	1227.84
884.747	1222.42
884.923	1221.64
885.099	1219.12
885.275	1245.28
885.45	1195.29
885.626	1149.57
885.801	1162.94
885.977	1201.68
886.153	1111.98
886.328	1198.2
886.504	1135.23
886.679	1192.97
886.855	1201.3
887.03	1190.84
887.206	1211.76
887.381	1198
887.557	1205.37
887.732	1197.81
887.908	1215.44
888.083	1229.58
888.258	1210.79
888.434	1177.27
888.609	1163.32
888.784	1250.51
888.96	1169.14
889.135	1173.2
889.31	1191.8
889.485	1170.3
889.661	1167.2
889.836	1250.12
890.011	1198.78
890.186	1192.58
890.361	1170.3
890.537	1219.32
890.712	1182.12
890.887	1199.75
891.062	1188.12
891.237	1240.43
891.412	1148.21
891.587	1199.94
891.762	1197.62
891.937	1233.85
892.112	1138.52
892.287	1150.15
892.462	1148.4
892.637	1116.44
892.812	1110.82
892.987	1117.6
893.161	1110.62
893.336	1103.84
893.511	1124.57
893.686	1127.29
893.861	1100.94
894.035	1109.85
894.21	1095.71
894.385	1082.92
894.56	1111.2
894.734	1072.84
894.909	1031.96
895.084	1002.13
895.258	1019.37
895.433	1035.06
895.608	991.28
895.782	972.48
895.957	968.41
896.131	970.74
896.306	937.03
896.48	909.71
896.655	921.53
896.829	833.18
897.004	854.3
897.178	856.23
897.353	836.47
897.527	919.4
897.701	857.2
897.876	817.87
898.05	888.2
898.224	884.33
898.399	907.96
898.573	900.41
898.747	745.99
898.921	829.3
899.096	707.05
899.27	724.49
899.444	726.81
899.618	731.46
899.792	770.6
899.967	786.1
900.141	809.15
900.315	710.73
900.489	764.4
900.663	755.87
900.837	766.72
901.011	712.28
901.185	828.92
901.359	787.65
901.533	780.48
901.707	761.3
901.881	753.74
902.055	695.04
902.229	759.94
902.403	827.75
902.576	736.5
902.75	767.11
902.924	901.96
903.098	828.92
903.272	891.69
903.446	899.25
903.619	863.21
903.793	899.63
903.967	919.59
904.14	947.49
904.314	891.88
904.488	912.23
904.661	948.26
904.835	902.93
905.009	974.61
905.182	976.74
905.356	941.48
905.529	944.78
905.703	893.63
905.876	876.58
906.05	869.21
906.223	836.47
906.397	773.31
906.57	775.05
906.744	766.92
906.917	761.49
907.09	779.7
907.264	760.13
907.437	694.84
907.61	696.78
907.784	715.77
907.957	706.08
908.13	683.02
908.304	717.12
908.477	684.19
908.65	704.14
908.823	628.39
908.996	753.35
909.17	654.54
909.343	668.69
909.516	700.65
909.689	668.88
909.862	667.91
910.035	673.14
910.208	633.23
910.381	626.45
910.554	744.83
910.727	683.99
910.9	649.31
911.073	616.18
911.246	732.24
911.419	739.99
911.592	713.05
911.765	652.02
911.938	635.17
912.11	661.52
912.283	675.85
912.456	709.95
912.629	688.84
912.802	616.57
912.974	643.89
913.147	555.54
913.32	526.48
913.493	569.88
913.665	600.49
913.838	582.66
914.01	562.9
914.183	615.6
914.356	605.14
914.528	646.21
914.701	657.06
914.873	660.55
915.046	589.06
915.218	547.79
915.391	487.73
915.563	525.7
915.736	568.52
915.908	606.69
916.081	587.89
916.253	574.53
916.425	586.73
916.598	625.29
916.77	591.77
916.942	558.64
917.115	495.28
917.287	612.11
917.459	523.38
917.632	488.89
917.804	464.09
917.976	555.15
918.148	564.45
918.32	544.69
918.493	578.01
918.665	648.54
918.837	571.23
919.009	635.75
919.181	638.46
919.353	609.59
919.525	594.09
919.697	580.73
919.869	584.41
920.041	652.99
920.213	699.88
920.385	635.56
920.557	604.17
920.729	639.04
920.901	609.59
921.073	590.61
921.244	600.1
921.416	645.63
921.588	581.5
921.76	582.28
921.932	638.46
922.103	617.54
922.275	597.39
922.447	591.96
922.619	528.99
922.79	590.41
922.962	549.73
923.134	600.1
923.305	559.99
923.477	531.9
923.648	522.6
923.82	536.55
923.991	477.07
924.163	472.61
924.335	506.71
924.506	510.59
924.677	551.28
924.849	469.13
925.02	538.68
925.192	560.58
925.363	528.22
925.535	529.96
925.706	508.84
925.877	567.16
926.049	490.44
926.22	553.6
926.391	540.62
926.562	542.36
926.734	476.88
926.905	551.47
927.076	449.95
927.247	500.9
927.419	468.35
927.59	449.95
927.761	467
927.932	436.58
928.103	464.09
928.274	404.61
928.445	382.33
928.616	415.26
928.787	397.63
928.958	429.99
929.129	394.92
929.3	396.86
929.471	318.59
929.642	315.1
929.813	235.47
929.984	372.45
930.155	260.46
930.326	318.39
930.496	271.89
930.667	215.71
930.838	293.4
931.009	208.34
931.18	252.71
931.35	254.84
931.521	245.74
931.692	198.27
931.863	169.79
932.033	214.93
932.204	219.19
932.374	176.18
932.545	140.53
932.716	215.71
932.886	219
933.057	80.08
933.227	134.91
933.398	204.47
933.568	98.1
933.739	55.28
933.909	96.74
934.08	167.66
934.25	32.61
934.421	82.99
934.591	108.95
934.761	89.38
934.932	63.61
935.102	98.1
935.272	74.46
935.443	107.01
935.613	57.41
935.783	124.84
935.953	66.52
936.123	240.7
936.294	94.42
936.464	64.97
936.634	115.93
936.804	16.92
936.974	43.85
937.144	88.41
937.314	113.99
937.484	72.53
937.655	47.15
937.825	139.56
937.995	50.44
938.165	136.08
938.334	67.88
938.504	135.69
938.674	82.02
938.844	117.28
939.014	184.51
939.184	180.06
939.354	216.48
939.524	226.56
939.694	169.01
939.863	164.17
940.033	235.66
940.203	189.36
940.373	183.54
940.542	196.33
940.712	154.29
940.882	201.76
941.051	199.24
941.221	197.49
941.391	172.89
941.56	139.76
941.73	115.34
941.899	263.17
942.069	138.59
942.238	196.72
942.408	144.21
942.577	197.3
942.747	158.36
942.916	71.94
943.086	84.73
943.255	183.35
943.425	154.29
943.594	128.52
943.763	58.19
943.933	70.2
944.102	62.64
944.271	99.26
944.441	133.36
944.61	92.87
944.779	144.21
944.948	207.76
945.117	68.26
945.287	84.54
945.456	28.16
945.625	81.63
945.794	142.47
945.963	64.58
946.132	123.09
946.301	87.64
946.47	147.12
946.639	50.83
946.808	76.01
946.977	150.41
947.146	174.05
947.315	92.48
947.484	142.47
947.653	102.94
947.822	112.24
947.991	90.16
948.16	194.78
948.329	137.43
948.498	134.72
948.666	125.81
948.835	138.79
949.004	80.86
949.173	72.91
949.341	112.44
949.51	112.83
949.679	156.03
949.847	129.29
950.016	200.4
950.185	171.53
950.353	98.1
950.522	120.77
950.69	146.54
950.859	112.63
951.028	164.75
951.196	134.53
951.365	116.31
951.533	123.09
951.701	150.22
951.87	135.11
952.038	85.12
952.207	119.22
952.375	171.53
952.543	76.01
952.712	127.74
952.88	114.76
953.048	170.76
953.217	113.6
953.385	132.2
953.553	157.39
953.721	92.87
953.89	105.66
954.058	57.03
954.226	78.34
954.394	133.75
954.562	61.68
954.73	134.53
954.898	95.19
955.067	149.64
955.235	93.06
955.403	127.94
955.571	188.77
955.739	134.72
955.907	74.66
956.075	72.72
956.243	75.24
956.41	135.88
956.578	70.59
956.746	62.45
956.914	99.65
957.082	149.44
957.25	136.08
957.418	105.46
957.585	119.03
957.753	144.02
957.921	92.68
958.089	126.39
958.256	130.46
958.424	163.01
958.592	122.13
958.759	104.88
958.927	133.17
959.095	114.38
959.262	104.49
959.43	129.88
959.597	100.43
959.765	117.09
959.932	86.86
960.1	161.07
960.267	101.2
960.435	125.42
960.602	156.22
960.77	110.11
960.937	57.61
961.104	125.42
961.272	57.03
961.439	102.36
961.606	118.06
961.774	147.89
961.941	114.57
962.108	130.26
962.275	132.39
962.443	166.49
962.61	148.67
962.777	195.94
962.944	157.19
963.111	129.1
963.278	138.59
963.446	132.98
963.613	119.22
963.78	149.64
963.947	142.47
964.114	120.96
964.281	247.67
964.448	176.18
964.615	118.83
964.782	140.73
964.949	151.77
965.116	174.05
965.282	186.26
965.449	118.25
965.616	91.13
965.783	144.99
965.95	139.37
966.117	73.11
966.283	127.55
966.45	149.06
966.617	133.17
966.784	173.66
966.95	163.39
967.117	166.69
967.284	89.58
967.45	123.29
967.617	191.87
967.784	168.62
967.95	178.51
968.117	140.53
968.283	217.45
968.45	271.12
968.616	162.23
968.783	195.36
968.949	154.29
969.116	194.59
969.282	151.38
969.449	153.12
969.615	132.59
969.781	98.1
969.948	109.53
970.114	91.32
970.28	211.06
970.447	149.44
970.613	189.74
970.779	136.08
970.945	180.06
971.112	161.26
971.278	142.08
971.444	127.36
971.61	191.49
971.776	126
971.942	133.94
972.108	164.56
972.275	126.58
972.441	136.27
972.607	233.72
972.773	104.3
972.939	142.28
973.105	154.09
973.271	102.56
973.437	96.94
973.602	109.73
973.768	140.34
973.934	117.09
974.1	132.78
974.266	67.29
974.432	161.26
974.598	114.57
974.763	179.09
974.929	109.73
975.095	234.3
975.261	94.42
975.426	101.59
975.592	146.34
975.758	186.84
975.923	57.03
976.089	90.54
976.255	165.91
976.42	150.41
976.586	134.53
976.751	146.54
976.917	211.64
977.082	152.93
977.248	84.54
977.413	72.14
977.579	107.21
977.744	120.19
977.91	78.73
978.075	97.91
978.24	148.28
978.406	97.71
978.571	105.27
978.736	85.89
978.902	143.05
979.067	84.73
979.232	77.76
979.397	118.25
979.563	179.67
979.728	75.43
979.893	120.77
980.058	81.63
980.223	158.16
980.388	151.77
980.554	133.94
980.719	96.55
980.884	130.46
981.049	130.84
981.214	94.03
981.379	133.56
981.544	98.29
981.709	101.39
981.874	103.14
982.039	130.84
982.204	143.24
982.368	100.23
982.533	106.04
982.698	159.91
982.863	176.18
983.028	115.73
983.193	127.74
983.357	113.79
983.522	98.1
983.687	99.46
983.852	97.71
984.016	80.08
984.181	119.22
984.346	154.09
984.51	149.44
984.675	128.52
984.839	124.45
985.004	133.94
985.168	147.12
985.333	127.36
985.498	111.66
985.662	150.61
985.827	136.27
985.991	106.63
986.155	110.69
986.32	146.34
986.484	200.21
986.649	130.84
986.813	63.81
986.977	107.98
987.142	141.11
987.306	65.74
987.47	98.1
987.634	106.63
987.799	101.39
987.963	113.21
988.127	120.38
988.291	195.56
988.455	121.74
988.62	100.23
988.784	135.49
988.948	123.29
989.112	68.26
989.276	113.41
989.44	97.52
989.604	82.41
989.768	76.59
989.932	189.36
990.096	74.46
990.26	66.52
990.424	63.42
990.588	96.36
990.752	174.05
990.915	129.29
991.079	93.84
991.243	81.24
991.407	130.46
991.571	103.72
991.734	137.63
991.898	140.14
992.062	198.66
992.226	91.32
992.389	75.82
992.553	65.36
992.717	83.76
992.88	75.04
993.044	93.45
993.207	108.56
993.371	109.53
993.535	103.72
993.698	101.59
993.862	132.39
994.025	159.13
994.189	98.88
994.352	76.79
994.515	124.26
994.679	132.2
994.842	77.18
995.006	121.93
995.169	60.51
995.332	68.65
995.496	111.08
995.659	45.98
995.822	76.01
995.985	112.24
996.149	112.24
996.312	73.69
996.475	177.73
996.638	85.31
996.801	153.71
996.964	171.92
997.128	81.44
997.291	90.54
997.454	124.64
997.617	29.71
997.78	143.63
997.943	51.6
998.106	125.81
998.269	61.87
998.432	86.28
998.595	107.21
998.758	31.65
998.92	52.96
999.083	18.08
999.246	77.18
999.409	23.12
999.572	34.36
999.735	65.74
999.897	100.62
1000.06	67.29
1000.223	80.66
1000.386	108.56
1000.548	94.81
1000.711	114.18
1000.874	82.41
1001.036	33.2
1001.199	101.59
1001.361	42.11
1001.524	84.54
1001.687	123.87
1001.849	44.05
1002.012	83.76
1002.174	68.46
1002.337	82.41
1002.499	47.92
1002.661	98.68
1002.824	58.96
1002.986	49.47
1003.149	61.09
1003.311	23.7
1003.473	125.42
1003.636	54.9
1003.798	102.36
1003.96	105.08
1004.123	47.92
1004.285	50.83
1004.447	76.79
1004.609	68.84
1004.771	132.2
1004.933	15.76
1005.096	45.01
1005.258	18.28
1005.42	72.72
1005.582	96.74
1005.744	86.28
1005.906	20.41
1006.068	67.49
1006.23	23.51
1006.392	0.45
1006.554	41.72
1006.716	115.73
1006.878	88.22
1007.04	15.76
1007.202	54.12
1007.363	75.82
1007.525	69.43
1007.687	100.62
1007.849	108.37
1008.011	-13.69
1008.172	9.17
1008.334	51.8
1008.496	68.65
1008.658	2
1008.819	41.33
1008.981	8.78
1009.143	5.49
1009.304	50.44
1009.466	78.53
1009.627	125.23
1009.789	146.73
1009.95	68.26
1010.112	29.51
1010.273	53.73
1010.435	39.2
1010.596	43.66
1010.758	29.71
1010.919	26.61
1011.081	35.33
1011.242	37.07
1011.403	59.54
1011.565	46.18
1011.726	74.66
1011.887	16.92
1012.049	20.21
1012.21	75.24
1012.371	113.79
1012.532	-11.56
1012.693	37.07
1012.855	10.14
1013.016	44.82
1013.177	66.52
1013.338	40.36
1013.499	94.61
1013.66	80.47
1013.821	70.78
1013.982	58.77
1014.143	39.2
1014.304	7.62
1014.465	66.71
1014.626	72.91
1014.787	30.48
1014.948	115.73
1015.109	-11.37
1015.27	109.53
1015.431	37.46
1015.592	6.46
1015.752	79.5
1015.913	72.33
1016.074	64.19
1016.235	53.93
1016.395	24.48
1016.556	35.33
1016.717	51.41
1016.877	85.89
1017.038	29.13
1017.199	64.97
1017.359	21.38
1017.52	76.01
1017.681	37.65
1017.841	33.97
1018.002	54.7
1018.162	45.21
1018.323	82.41
1018.483	36.49
1018.644	58.58
1018.804	14.6
1018.964	-9.82
1019.125	40.17
1019.285	45.01
1019.446	1.42
1019.606	-4.39
1019.766	-21.83
1019.926	72.53
1020.087	74.85
1020.247	-30.55
1020.407	72.91
1020.567	66.13
1020.728	19.63
1020.888	-0.71
1021.048	26.22
1021.208	-3.42
1021.368	34.55
1021.528	60.32
1021.688	68.65
1021.848	44.05
1022.008	59.93
1022.168	15.18
1022.328	11.5
1022.488	47.34
1022.648	4.33
1022.808	19.83
1022.968	48.31
1023.128	16.92
1023.288	28.35
1023.448	1.61
1023.608	38.81
1023.767	29.51
1023.927	-4
1024.087	11.69
1024.247	-24.74
1024.406	35.91
1024.566	-4.78
1024.726	7.04
1024.885	26.22
1025.045	63.03
1025.205	10.72
1025.364	35.71
1025.524	39.01
1025.683	20.8
1025.843	49.08
1026.003	14.79
1026.162	92.87
1026.321	59.35
1026.481	52.38
1026.64	-5.75
1026.8	35.13
1026.959	15.18
1027.119	21.76
1027.278	2.97
1027.437	7.43
1027.597	61.09
1027.756	51.02
1027.915	48.31
1028.074	45.79
1028.234	3.75
1028.393	25.83
1028.552	11.88
1028.711	-43.33
1028.87	42.3
1029.03	-9.43
1029.189	39.01
1029.348	-27.84
1029.507	33.78
1029.666	16.92
1029.825	-22.02
1029.984	19.25
1030.143	45.79
1030.302	0.84
1030.461	-36.17
1030.62	43.27
1030.779	58.38
1030.938	-10.98
1031.097	-5.36
1031.255	48.7
1031.414	64.78
1031.573	52.38
1031.732	-25.7
1031.891	-17.18
1032.049	69.04
1032.208	38.81
1032.367	-11.56
1032.525	14.6
1032.684	1.61
1032.843	18.08
1033.001	-37.91
1033.16	178.89
1033.319	85.12
1033.477	45.01
1033.636	-10.79
1033.794	-34.62
1033.953	45.21
1034.111	81.83
1034.27	5.49
1034.428	23.12
1034.587	-22.02
1034.745	33.58
1034.903	-5.75
1035.062	42.11
1035.22	-23.38
1035.378	46.56
1035.537	-36.17
1035.695	60.13
1035.853	15.18
1036.011	36.1
1036.17	43.27
1036.328	-51.08
1036.486	30.68
1036.644	12.46
1036.802	-76.47
1036.96	20.41
1037.119	0.45
1037.277	-7.1
1037.435	-28.22
1037.593	-2.84
1037.751	2.78
1037.909	20.41
1038.067	20.41
