Data from gum_old_FLMT105791__174__15-48-01-249.txt Node

Date: Mon Mar 20 15:48:01 GMT 2023
User: antho
Spectrometer: FLMT10579
Trigger mode: 0
Integration Time (sec): 1.000000E-1
Scans to average: 10
Electric dark correction enabled: true
Nonlinearity correction enabled: false
Boxcar width: 0
XAxis mode: Wavelengths
Number of Pixels in Spectrum: 3648
>>>>>Begin Spectral Data<<<<<
345.248	-197.98
345.464	-197.98
345.681	-197.98
345.898	-175.31
346.114	-187.9
346.331	-37.55
346.548	40.72
346.764	-4.81
346.981	-18.95
347.197	-16.82
347.414	11.46
347.631	-50.15
347.847	75.59
348.064	9.33
348.28	15.73
348.497	-34.84
348.713	10.3
348.93	61.64
349.146	16.89
349.363	-2.87
349.579	26.38
349.796	31.61
350.012	-3.65
350.229	40.91
350.445	35.68
350.661	-11.21
350.878	9.91
351.094	47.31
351.311	50.21
351.527	39.75
351.743	8.56
351.96	56.03
352.176	80.63
352.392	59.51
352.609	49.05
352.825	21.93
353.041	7.39
353.257	19.41
353.474	33.94
353.69	47.11
353.906	48.28
354.122	-11.59
354.339	87.22
354.555	40.72
354.771	17.47
354.987	81.21
355.203	87.02
355.42	26.96
355.636	15.92
355.852	-4.23
356.068	29.29
356.284	-4.23
356.5	70.17
356.716	21.73
356.932	14.18
357.148	56.8
357.364	14.37
357.58	74.24
357.796	89.35
358.012	60.29
358.228	63.58
358.444	-36.2
358.66	70.36
358.876	50.21
359.092	6.04
359.308	66.88
359.524	40.33
359.74	9.91
359.956	9.53
360.172	25.03
360.388	81.99
360.604	11.46
360.819	135.27
361.035	57.38
361.251	49.63
361.467	33.94
361.683	100.59
361.898	81.21
362.114	81.02
362.33	41.49
362.546	85.28
362.762	26.19
362.977	55.25
363.193	19.02
363.409	53.51
363.624	17.66
363.84	5.84
364.056	23.67
364.271	56.03
364.487	72.88
364.703	41.49
364.918	15.34
365.134	31.03
365.35	18.24
365.565	135.46
365.781	51.38
365.996	59.9
366.212	128.87
366.427	65.71
366.643	54.86
366.858	68.43
367.074	26.58
367.289	140.11
367.505	175.76
367.72	8.36
367.936	46.92
368.151	114.15
368.367	94.19
368.582	68.23
368.798	29.87
369.013	105.82
369.228	63.97
369.444	47.31
369.659	99.23
369.874	76.76
370.09	112.02
370.305	-10.82
370.52	43.24
370.736	97.49
370.951	65.52
371.166	101.56
371.381	136.43
371.597	100.78
371.812	27.93
372.027	27.16
372.242	60.87
372.458	149.61
372.673	47.5
372.888	46.53
373.103	99.04
373.318	137.21
373.533	101.75
373.749	60.48
373.964	-5.78
374.179	105.43
374.394	28.32
374.609	114.34
374.824	15.92
375.039	124.81
375.254	39.36
375.469	130.42
375.684	67.84
375.899	90.51
376.114	61.06
376.329	95.74
376.544	98.46
376.759	77.53
376.974	24.06
377.189	61.64
377.404	65.33
377.619	106.98
377.834	44.4
378.049	18.83
378.264	38.59
378.478	114.15
378.693	54.28
378.908	87.8
379.123	72.11
379.338	134.49
379.553	102.72
379.767	64.74
379.982	94.77
380.197	91.29
380.412	39.17
380.626	78.69
380.841	179.44
381.056	91.48
381.271	159.49
381.485	64.16
381.7	56.99
381.915	118.99
382.129	73.46
382.344	65.91
382.559	57.96
382.773	98.46
382.988	38.98
383.202	96.52
383.417	52.15
383.632	154.64
383.846	88.96
384.061	74.04
384.275	38.98
384.49	103.88
384.704	99.81
384.919	98.26
385.133	67.84
385.348	157.55
385.562	51.38
385.777	143.79
385.991	108.34
386.206	72.3
386.42	77.14
386.634	112.99
386.849	124.81
387.063	127.91
387.277	60.68
387.492	82.37
387.706	61.06
387.92	67.65
388.135	119.57
388.349	107.56
388.563	110.66
388.778	97.87
388.992	112.99
389.206	134.69
389.42	166.07
389.635	92.26
389.849	110.47
390.063	145.73
390.277	135.66
390.491	175.18
390.706	134.88
390.92	144.57
391.134	112.02
391.348	168.2
391.562	76.95
391.776	132.94
391.99	113.18
392.205	148.64
392.419	111.44
392.633	105.82
392.847	160.07
393.061	100.39
393.275	177.89
393.489	85.28
393.703	120.93
393.917	103.49
394.131	91.09
394.345	111.82
394.559	155.61
394.773	61.45
394.986	147.67
395.2	115.12
395.414	144.57
395.628	125.58
395.842	157.36
396.056	143.41
396.27	71.53
396.484	132.56
396.697	131.39
396.911	146.51
397.125	152.51
397.339	148.83
397.553	125.39
397.766	185.06
397.98	160.45
398.194	165.88
398.408	130.23
398.621	184.87
398.835	205.79
399.049	197.07
399.262	240.09
399.476	223.42
399.69	226.52
399.903	283.48
400.117	200.56
400.331	223.62
400.544	178.67
400.758	323.98
400.971	223.42
401.185	260.04
401.398	175.57
401.612	271.86
401.826	255.2
402.039	251.9
402.253	220.71
402.466	261.2
402.68	202.69
402.893	246.67
403.106	215.67
403.32	224.78
403.533	261.98
403.747	238.54
403.96	232.34
404.174	247.06
404.387	205.02
404.6	234.85
404.814	289.1
405.027	223.04
405.24	241.25
405.454	205.21
405.667	290.46
405.88	182.15
406.094	263.14
406.307	296.47
406.52	275.73
406.733	208.89
406.947	182.15
407.16	299.37
407.373	284.07
407.586	224
407.799	201.34
408.012	299.18
408.226	252.1
408.439	304.6
408.652	213.35
408.865	288.91
409.078	313.32
409.291	294.72
409.504	245.12
409.717	314.1
409.93	292.01
410.143	287.75
410.357	202.3
410.57	184.67
410.783	223.04
410.996	265.27
411.209	254.03
411.421	338.7
411.634	283.29
411.847	277.87
412.06	308.09
412.273	292.98
412.486	306.93
412.699	382.88
412.912	305.18
413.125	323.78
413.338	306.35
413.55	335.99
413.763	309.06
413.976	317.39
414.189	305.38
414.402	310.8
414.615	370.86
414.827	259.65
415.04	352.46
415.253	332.12
415.466	351.49
415.678	368.35
415.891	318.94
416.104	319.91
416.316	321.46
416.529	289.68
416.742	329.02
416.954	357.69
417.167	334.05
417.38	299.18
417.592	390.82
417.805	296.66
418.017	275.73
418.23	359.43
418.442	290.65
418.655	317.2
418.868	332.5
419.08	329.98
419.293	397.21
419.505	341.03
419.718	339.67
419.93	369.31
420.142	306.93
420.355	399.54
420.567	393.34
420.78	357.5
420.992	341.41
421.205	411.36
421.417	314.48
421.629	354.78
421.842	319.13
422.054	299.18
422.266	386.17
422.479	408.26
422.691	352.85
422.903	412.33
423.115	348.97
423.328	362.73
423.54	355.95
423.752	350.52
423.964	328.05
424.177	363.11
424.389	349.16
424.601	490.99
424.813	391.01
425.025	398.96
425.238	419.3
425.45	357.11
425.662	363.11
425.874	690.35
426.086	378.61
426.298	413.68
426.51	412.33
426.722	398.96
426.934	372.03
427.146	408.06
427.358	351.68
427.57	401.67
427.782	384.43
427.994	372.61
428.206	345.87
428.418	352.65
428.63	423.37
428.842	434.61
429.054	394.7
429.266	446.23
429.478	360.01
429.69	376.87
429.902	335.21
430.114	395.86
430.325	393.92
430.537	342.77
430.749	353.23
430.961	276.51
431.173	341.22
431.384	342
431.596	240.09
431.808	337.15
432.02	381.71
432.231	473.36
432.443	475.1
432.655	431.31
432.867	407.68
433.078	469.68
433.29	466.96
433.502	468.9
433.713	500.48
433.925	470.84
434.136	508.23
434.348	425.89
434.56	389.27
434.771	526.06
434.983	360.79
435.194	405.16
435.406	425.11
435.617	496.41
435.829	560.35
436.04	505.71
436.252	487.89
436.463	530.71
436.675	546.98
436.886	546.4
437.098	538.26
437.309	565.77
437.521	535.36
437.732	502.23
437.943	525.47
438.155	492.15
438.366	472.19
438.578	584.37
438.789	514.04
439	512.88
439.211	467.93
439.423	506.49
439.634	524.7
439.845	540.97
440.057	551.24
440.268	572.75
440.479	507.46
440.69	534
440.902	510.75
441.113	557.06
441.324	538.46
441.535	563.45
441.746	621.77
441.957	550.86
442.168	559.77
442.38	591.35
442.591	627.77
442.802	540.39
443.013	566.36
443.224	627.39
443.435	597.74
443.646	561.51
443.857	586.51
444.068	567.13
444.279	558.99
444.49	679.89
444.701	585.73
444.912	699.46
445.123	656.64
445.334	619.44
445.545	615.37
445.756	594.45
445.967	575.27
446.178	596.39
446.388	641.34
446.599	613.05
446.81	621.38
447.021	586.51
447.232	660.52
447.443	661.49
447.653	600.45
447.864	694.81
448.075	646.37
448.286	691.13
448.496	657.42
448.707	685.9
448.918	670.2
449.129	740.53
449.339	656.45
449.55	652.38
449.761	626.22
449.971	725.03
450.182	685.12
450.393	663.23
450.603	641.34
450.814	718.06
451.024	697.91
451.235	762.04
451.446	778.31
451.656	783.35
451.867	699.65
452.077	710.5
452.288	781.61
452.498	756.62
452.709	689.77
452.919	702.56
453.13	674.08
453.34	713.02
453.55	641.34
453.761	729.88
453.971	692.87
454.182	721.55
454.392	703.33
454.602	787.42
454.813	748.09
455.023	747.7
455.233	640.17
455.444	729.3
455.654	637.27
455.864	707.4
456.075	717.87
456.285	693.84
456.495	708.76
456.705	745.57
456.916	806.6
457.126	805.63
457.336	739.95
457.546	657.22
457.756	711.47
457.967	789.75
458.177	708.37
458.387	734.33
458.597	721.16
458.807	728.13
459.017	713.99
459.227	715.35
459.437	711.28
459.647	749.25
459.857	751
460.068	717.48
460.278	762.23
460.488	743.05
460.698	817.45
460.908	742.47
461.117	701.59
461.327	732.2
461.537	776.57
461.747	783.55
461.957	789.55
462.167	884.88
462.377	803.31
462.587	796.53
462.797	835.08
463.007	801.76
463.216	828.88
463.426	861.82
463.636	858.53
463.846	750.61
464.056	770.57
464.265	848.26
464.475	763.01
464.685	805.63
464.895	801.56
465.104	768.24
465.314	856.4
465.524	794.4
465.733	756.42
465.943	866.47
466.153	890.11
466.362	885.65
466.572	856.78
466.782	813.96
466.991	847.48
467.201	902.51
467.41	770.95
467.62	824.62
467.829	816.68
468.039	874.99
468.249	884.49
468.458	873.06
468.668	877.9
468.877	871.7
469.086	913.36
469.296	926.34
469.505	880.23
469.715	956.95
469.924	899.41
470.134	946.87
470.343	935.64
470.552	906.38
470.762	898.63
470.971	850
471.18	874.22
471.39	888.36
471.599	845.35
471.808	928.47
472.018	896.69
472.227	975.74
472.436	1001.51
472.645	941.45
472.855	967.41
473.064	1041.42
473.273	992.6
473.482	987.76
473.691	1030.38
473.901	1045.1
474.11	967.22
474.319	1067.77
474.528	982.14
474.737	1089.28
474.946	1074.17
475.155	1039.68
475.364	1099.16
475.573	1054.79
475.783	1060.6
475.992	1065.84
476.201	1093.93
476.41	1050.92
476.619	1032.51
476.828	1069.32
477.037	1041.42
477.245	1077.85
477.454	1102.65
477.663	1071.07
477.872	1105.94
478.081	1187.51
478.29	1108.46
478.499	1220.83
478.708	1172.2
478.917	1213.86
479.125	1136.75
479.334	1164.07
479.543	1136.75
479.752	1176.66
479.961	1179.76
480.169	1234.98
480.378	1187.7
480.587	1317.13
480.796	1240.01
481.004	1202.43
481.213	1252.8
481.422	1244.86
481.63	1274.7
481.839	1283.41
482.048	1335.34
482.256	1277.41
482.465	1309.57
482.674	1290.78
482.882	1332.43
483.091	1392.49
483.299	1337.47
483.508	1321
483.716	1368.66
483.925	1335.73
484.134	1284.96
484.342	1311.31
484.551	1394.82
484.759	1355.29
484.967	1370.41
485.176	1420.01
485.384	1348.51
485.593	1383.77
485.801	1340.38
486.01	1313.44
486.218	1284.77
486.426	1167.55
486.635	1166.2
486.843	1172.2
487.051	1221.22
487.26	1221.41
487.468	1268.3
487.676	1340.38
487.885	1286.32
488.093	1338.63
488.301	1380.48
488.509	1383.19
488.717	1446.16
488.926	1445
489.134	1364.98
489.342	1435.51
489.55	1375.83
489.758	1390.36
489.967	1408.38
490.175	1544
490.383	1467.67
490.591	1580.04
490.799	1462.63
491.007	1554.66
491.215	1516.3
491.423	1482.78
491.631	1526.18
491.839	1506.42
492.047	1535.29
492.255	1464.57
492.463	1443.64
492.671	1454.88
492.879	1539.74
493.087	1501.96
493.295	1523.08
493.503	1567.25
493.711	1589.53
493.919	1599.42
494.127	1561.83
494.334	1562.6
494.542	1558.15
494.75	1592.25
494.958	1568.03
495.166	1699.58
495.374	1627.9
495.581	1678.46
495.789	1657.54
495.997	1675.95
496.205	1599.42
496.412	1606.78
496.62	1614.14
496.828	1652.31
497.035	1618.98
497.243	1685.83
497.451	1655.8
497.658	1695.51
497.866	1663.93
498.074	1758.48
498.281	1667.03
498.489	1740.66
498.696	1663.55
498.904	1650.95
499.112	1612.2
499.319	1714.89
499.527	1693
499.734	1713.53
499.942	1624.8
500.149	1650.37
500.357	1745.11
500.564	1653.08
500.771	1676.33
500.979	1623.63
501.186	1616.47
501.394	1673.04
501.601	1640.49
501.808	1668.2
502.016	1644.56
502.223	1625.77
502.43	1609.49
502.638	1665.48
502.845	1646.69
503.052	1743.76
503.26	1699.58
503.467	1795.49
503.674	1700.16
503.881	1744.73
504.089	1826.87
504.296	1771.08
504.503	1664.9
504.71	1694.93
504.917	1650.18
505.125	1712.76
505.332	1740.27
505.539	1781.93
505.746	1810.6
505.953	1810.6
506.16	1814.86
506.367	1862.14
506.574	1900.5
506.781	1896.82
506.988	1824.55
507.195	1784.83
507.402	1823.97
507.609	1871.05
507.816	1776.31
508.023	1799.94
508.23	1800.14
508.437	1783.09
508.644	1801.49
508.851	1868.92
509.058	1873.96
509.265	1870.66
509.472	1896.43
509.679	1952.81
509.885	1875.12
510.092	1888.29
510.299	1865.62
510.506	1877.25
510.713	1899.92
510.92	1861.56
511.126	1902.24
511.333	1957.85
511.54	1925.49
511.746	1950.87
511.953	1987.49
512.16	2006.09
512.367	1939.05
512.573	1928.2
512.78	1980.9
512.987	1937.7
513.193	1906.12
513.4	1820.67
513.606	1907.86
513.813	1916.39
514.02	1918.52
514.226	1967.54
514.433	1998.53
514.639	1878.61
514.846	1920.84
515.052	1898.17
515.259	1924.33
515.465	1946.61
515.672	1948.94
515.878	2039.61
516.085	1934.79
516.291	2010.55
516.497	1971.8
516.704	1932.08
516.91	1879.19
517.117	1808.47
517.323	1757.71
517.529	1793.16
517.736	1751.51
517.942	1792
518.148	1820.09
518.354	1889.26
518.561	1876.86
518.767	1842.96
518.973	1897.59
519.179	1920.07
519.386	1897.79
519.592	1880.54
519.798	1892.94
520.004	2041.16
520.21	2004.54
520.417	2039.61
520.623	2056.66
520.829	2140.16
521.035	2071.58
521.241	2084.36
521.447	2109.94
521.653	2229.87
521.859	2101.41
522.065	2115.36
522.271	2257.57
522.477	2211.66
522.683	2263.97
522.889	2192.67
523.095	2200.61
523.301	2177.75
523.507	2122.92
523.713	2141.91
523.919	2142.68
524.125	2240.14
524.331	2214.56
524.537	2319.96
524.742	2278.11
524.948	2309.69
525.154	2365.3
525.36	2423.42
525.566	2303.11
525.772	2360.45
525.977	2321.12
526.183	2297.29
526.389	2407.15
526.595	2278.89
526.8	2240.33
527.006	2177.17
527.212	2113.62
527.417	2119.82
527.623	2088.43
527.829	2144.62
528.034	2221.15
528.24	2251.96
528.446	2279.47
528.651	2358.52
528.857	2368.98
529.062	2444.54
529.268	2374.21
529.473	2453.84
529.679	2453.65
529.884	2546.65
530.09	2476.51
530.295	2505.38
530.501	2514.87
530.706	2472.63
530.912	2435.24
531.117	2502.08
531.323	2481.16
531.528	2546.84
531.733	2523.59
531.939	2527.27
532.144	2614.84
532.35	2539.28
532.555	2586.36
532.76	2530.76
532.966	2559.82
533.171	2465.85
533.376	2424.97
533.581	2399.4
533.787	2449.58
533.992	2484.26
534.197	2551.88
534.402	2523.78
534.607	2530.18
534.813	2611.16
535.018	2533.86
535.223	2553.23
535.428	2588.88
535.633	2634.61
535.838	2628.41
536.043	2633.44
536.249	2718.89
536.454	2607.09
536.659	2629.38
536.864	2610
537.069	2635.19
537.274	2612.91
537.479	2606.71
537.684	2592.76
537.889	2536.57
538.094	2706.68
538.299	2605.93
538.504	2628.02
538.708	2661.54
538.913	2700.29
539.118	2639.06
539.323	2674.13
539.528	2586.17
539.733	2618.53
539.938	2646.43
540.142	2598.96
540.347	2617.17
540.552	2575.32
540.757	2547.23
540.962	2590.82
541.166	2526.69
541.371	2500.53
541.576	2571.25
541.781	2491.04
541.985	2601.86
542.19	2603.8
542.395	2713.66
542.599	2680.33
542.804	2681.49
543.008	2693.12
543.213	2630.15
543.418	2611.94
543.622	2698.35
543.827	2611.94
544.031	2692.54
544.236	2738.07
544.44	2689.83
544.645	2775.27
544.849	2697.19
545.054	2714.24
545.258	2789.8
545.463	2764.81
545.667	2638.29
545.872	2751.82
546.076	2735.55
546.281	2754.34
546.485	2665.41
546.689	2731.09
546.894	2757.64
547.098	2718.11
547.302	2677.81
547.507	2747.37
547.711	2749.5
547.915	2776.24
548.119	2655.34
548.324	2654.76
548.528	2777.98
548.732	2706.1
548.936	2746.21
549.141	2746.01
549.345	2712.3
549.549	2750.47
549.753	2741.36
549.957	2850.64
550.161	2853.93
550.366	2749.31
550.57	2722.76
550.774	2715.4
550.978	2720.63
551.182	2779.34
551.386	2715.01
551.59	2736.52
551.794	2723.54
551.998	2743.69
552.202	2715.59
552.406	2710.17
552.61	2768.49
552.814	2776.24
553.018	2798.32
553.222	2746.21
553.426	2709.78
553.63	2835.91
553.833	2790.77
554.037	2685.37
554.241	2772.94
554.445	2746.59
554.649	2724.89
554.853	2726.64
555.056	2818.67
555.26	2827
555.464	2795.8
555.668	2758.22
555.871	2795.42
556.075	2797.35
556.279	2726.06
556.483	2719.08
556.686	2722.57
556.89	2764.61
557.094	2750.08
557.297	2633.64
557.501	2739.81
557.704	2580.16
557.908	2748.34
558.112	2666.38
558.315	2751.24
558.519	2701.64
558.722	2669.68
558.926	2648.56
559.129	2553.23
559.333	2571.64
559.536	2601.67
559.74	2543.35
559.943	2541.03
560.147	2544.32
560.35	2557.69
560.553	2588.5
560.757	2523.4
560.96	2651.66
561.164	2613.29
561.367	2682.08
561.57	2604
561.774	2641.78
561.977	2592.37
562.18	2592.18
562.384	2678.39
562.587	2535.99
562.79	2529.4
562.993	2559.63
563.197	2587.53
563.4	2655.53
563.603	2643.13
563.806	2693.89
564.009	2600.51
564.212	2609.61
564.416	2502.86
564.619	2552.07
564.822	2522.23
565.025	2622.01
565.228	2518.36
565.431	2554.98
565.634	2467.98
565.837	2484.45
566.04	2417.61
566.243	2459.65
566.446	2327.52
566.649	2478.25
566.852	2440.28
567.055	2459.65
567.258	2492.01
567.461	2551.1
567.664	2521.07
567.867	2436.79
568.07	2520.88
568.273	2489.49
568.475	2554.78
568.678	2401.92
568.881	2394.75
569.084	2433.88
569.287	2306.59
569.489	2313.57
569.692	2426.52
569.895	2428.65
570.098	2355.42
570.3	2351.15
570.503	2304.27
570.706	2311.24
570.909	2291.67
571.111	2219.02
571.314	2211.08
571.516	2270.75
571.719	2274.43
571.922	2243.63
572.124	2255.06
572.327	2279.86
572.529	2243.24
572.732	2211.66
572.935	2308.53
573.137	2363.75
573.34	2293.03
573.542	2374.21
573.745	2344.37
573.947	2290.32
574.15	2291.67
574.352	2278.11
574.554	2351.74
574.757	2267.84
574.959	2242.46
575.162	2271.91
575.364	2205.46
575.566	2331.59
575.769	2198.48
575.971	2187.05
576.173	2079.72
576.376	2228.51
576.578	2212.04
576.78	2277.34
576.982	2114.59
577.185	2206.81
577.387	2125.05
577.589	2156.83
577.791	2199.45
577.993	2204.68
578.196	2183.56
578.398	2159.93
578.6	2206.81
578.802	2112.26
579.004	2107.03
579.206	2115.17
579.408	2171.94
579.61	2073.13
579.812	2176.59
580.014	2071.19
580.216	2104.32
580.418	2118.66
580.62	2088.63
580.822	2069.06
581.024	2142.68
581.226	2167.68
581.428	2135.9
581.63	2208.94
581.832	2066.15
582.034	2182.4
582.236	2136.29
582.438	2150.43
582.64	2175.04
582.841	2207.59
583.043	2216.31
583.245	2143.26
583.447	2154.31
583.649	2129.12
583.85	2165.35
584.052	2187.24
584.254	2122.92
584.456	2170
584.657	2109.36
584.859	2145.78
585.061	2095.99
585.262	2075.84
585.464	2068.87
585.666	2129.7
585.867	2047.36
586.069	2143.65
586.27	2088.63
586.472	2068.87
586.674	2027.6
586.875	2047.36
587.077	2047.17
587.278	2065.38
587.48	2051.04
587.681	2178.91
587.883	2076.03
588.084	1990.59
588.285	2033.6
588.487	2022.37
588.688	2069.64
588.89	1934.4
589.091	1900.69
589.292	1908.83
589.494	1861.56
589.695	1848.19
589.896	1757.9
590.098	1776.69
590.299	1829.97
590.5	1766.62
590.702	1838.31
590.903	1874.15
591.104	1967.54
591.305	1928.4
591.507	1982.84
591.708	1952.81
591.909	1895.07
592.11	1986.72
592.311	1991.95
592.512	1913.48
592.714	1875.51
592.915	1903.6
593.116	1897.59
593.317	1922.78
593.518	1926.27
593.719	1887.91
593.92	1959.2
594.121	1973.74
594.322	1945.06
594.523	1917.35
594.724	1873.96
594.925	1880.35
595.126	1885.97
595.327	1928.2
595.528	1878.8
595.729	1902.44
595.929	1885
596.13	1905.34
596.331	1937.12
596.532	1929.37
596.733	1984.78
596.934	1933.05
597.135	1937.12
597.335	1901.47
597.536	1914.25
597.737	1933.63
597.938	1862.91
598.138	1904.96
598.339	1912.7
598.54	1911.74
598.74	1898.17
598.941	1898.37
599.142	1958.24
599.342	1851.48
599.543	1842.57
599.744	1891.39
599.944	1865.43
600.145	1912.51
600.345	1893.52
600.546	1980.71
600.746	1944.29
600.947	1993.5
601.147	1912.32
601.348	1932.27
601.548	1875.89
601.749	1886.36
601.949	1828.04
602.15	1841.02
602.35	1860.97
602.551	1911.15
602.751	1829.39
602.951	1855.74
603.152	1793.16
603.352	1890.62
603.552	1887.91
603.753	1903.6
603.953	1893.33
604.153	1926.46
604.354	1847.61
604.554	1877.64
604.754	1869.89
604.954	1817.96
605.155	1907.67
605.355	1901.47
605.555	1891.97
605.755	1944.48
605.955	1874.15
606.155	1878.99
606.356	1882.48
606.556	1897.21
606.756	1897.79
606.956	1807.5
607.156	1895.66
607.356	1834.24
607.556	1858.26
607.756	1854.97
607.956	1923.17
608.156	1830.17
608.356	1836.76
608.556	1848.19
608.756	1821.84
608.956	1790.06
609.156	1810.79
609.356	1779.99
609.556	1778.44
609.755	1815.25
609.955	1747.24
610.155	1798.01
610.355	1805.95
610.555	1730.39
610.755	1752.28
610.954	1702.88
611.154	1761
611.354	1800.53
611.554	1739.49
611.753	1732.91
611.953	1708.11
612.153	1771.66
612.352	1775.34
612.552	1717.99
612.752	1671.3
612.951	1757.51
613.151	1730
613.351	1676.14
613.55	1729.23
613.75	1736.01
613.949	1705.01
614.149	1697.84
614.348	1697.06
614.548	1680.01
614.747	1655.41
614.947	1699
615.146	1603.1
615.346	1719.73
615.545	1703.85
615.745	1681.56
615.944	1705.2
616.144	1675.36
616.343	1689.7
616.542	1665.48
616.742	1657.93
616.941	1617.24
617.14	1583.33
617.34	1575.58
617.539	1634.1
617.738	1595.15
617.938	1698.81
618.137	1627.7
618.336	1607.55
618.535	1662
618.734	1663.74
618.934	1666.84
619.133	1654.05
619.332	1669.75
619.531	1639.33
619.73	1632.93
619.929	1680.79
620.128	1661.41
620.328	1732.71
620.527	1635.84
620.726	1658.12
620.925	1640.49
621.124	1622.47
621.323	1658.51
621.522	1579.46
621.721	1604.84
621.92	1593.99
622.119	1643.59
622.318	1564.35
622.517	1580.82
622.715	1593.02
622.914	1522.89
623.113	1539.16
623.312	1503.9
623.511	1553.69
623.71	1559.89
623.909	1549.62
624.107	1615.3
624.306	1508.35
624.505	1542.26
624.704	1539.74
624.902	1507.77
625.101	1599.03
625.3	1552.72
625.499	1492.47
625.697	1534.12
625.896	1467.67
626.095	1547.88
626.293	1448.29
626.492	1499.44
626.69	1541.68
626.889	1473.67
627.088	1572.29
627.286	1487.24
627.485	1509.13
627.683	1501.96
627.882	1538.19
628.08	1440.54
628.279	1482.97
628.477	1554.66
628.676	1447.71
628.874	1532.96
629.073	1424.85
629.271	1461.86
629.469	1478.52
629.668	1494.02
629.866	1478.52
630.065	1428.14
630.263	1490.14
630.461	1441.9
630.66	1445.58
630.858	1462.05
631.056	1506.61
631.254	1496.73
631.453	1422.91
631.651	1530.05
631.849	1400.63
632.047	1432.79
632.245	1456.82
632.444	1447.71
632.642	1472.9
632.84	1492.85
633.038	1412.64
633.236	1412.06
633.434	1413.61
633.632	1441.71
633.83	1415.74
634.028	1447.52
634.227	1450.81
634.425	1527.15
634.623	1472.51
634.821	1452.17
635.019	1488.01
635.216	1432.79
635.414	1452.36
635.612	1456.24
635.81	1424.07
636.008	1521.53
636.206	1426.79
636.404	1475.8
636.602	1420.59
636.8	1415.74
636.997	1469.22
637.195	1476.77
637.393	1452.94
637.591	1489.17
637.789	1432.79
637.986	1436.47
638.184	1465.73
638.382	1475.42
638.58	1478.9
638.777	1518.43
638.975	1426.59
639.173	1426.98
639.37	1454.3
639.568	1430.86
639.765	1441.32
639.963	1373.7
640.161	1475.42
640.358	1422.72
640.556	1384.55
640.753	1345.61
640.951	1352.97
641.148	1384.36
641.346	1370.6
641.543	1368.66
641.741	1412.45
641.938	1329.33
642.136	1370.41
642.333	1315.77
642.531	1436.67
642.728	1433.37
642.925	1382.81
643.123	1365.56
643.32	1366.34
643.517	1346.96
643.715	1397.14
643.912	1345.41
644.109	1401.6
644.306	1355.49
644.504	1341.93
644.701	1355.88
644.898	1374.86
645.095	1323.33
645.293	1320.61
645.49	1376.22
645.687	1354.52
645.884	1368.86
646.081	1260.75
646.278	1286.32
646.475	1287.1
646.672	1282.45
646.87	1350.45
647.067	1312.67
647.264	1295.04
647.461	1249.51
647.658	1251.25
647.855	1318.48
648.052	1270.05
648.249	1193.52
648.446	1245.44
648.642	1240.6
648.839	1211.73
649.036	1217.15
649.233	1181.89
649.43	1224.9
649.627	1176.08
649.824	1196.03
650.021	1203.4
650.217	1199.13
650.414	1200.49
650.611	1246.99
650.808	1264.43
651.004	1214.05
651.201	1240.21
651.398	1278.76
651.595	1225.1
651.791	1223.16
651.988	1262.3
652.185	1180.15
652.381	1256.68
652.578	1150.12
652.775	1230.91
652.971	1215.99
653.168	1187.32
653.364	1207.08
653.561	1139.07
653.757	1207.08
653.954	1186.54
654.15	1142.56
654.347	1304.14
654.543	1205.72
654.74	1128.22
654.936	1144.5
655.133	1165.42
655.329	1177.63
655.525	1176.27
655.722	1171.43
655.918	1166.2
656.115	1115.63
656.311	1036.39
656.507	1004.42
656.704	944.94
656.9	1011.59
657.096	1025.73
657.292	970.71
657.489	1088.5
657.685	1072.42
657.881	1077.85
658.077	1060.22
658.273	1089.67
658.47	1179.18
658.666	1089.09
658.862	1163.1
659.058	1101.29
659.254	1190.42
659.45	1128.03
659.646	1131.32
659.842	1114.47
660.038	1161.55
660.234	1120.86
660.43	1142.56
660.626	1188.67
660.822	1176.27
661.018	1192.93
661.214	1159.8
661.41	1079.98
661.606	1146.43
661.802	1177.82
661.998	1131.32
662.194	1072.81
662.39	1156.7
662.586	1111.95
662.781	1172.01
662.977	1139.46
663.173	1170.85
663.369	1157.09
663.564	1102.26
663.76	1142.17
663.956	1112.72
664.152	1159.03
664.347	1052.27
664.543	1118.34
664.739	1097.61
664.934	1024.18
665.13	1019.53
665.326	1129.19
665.521	1100.32
665.717	1036.39
665.912	1062.15
666.108	1006.94
666.304	1109.62
666.499	1075.33
666.695	1002.29
666.89	1098.97
667.086	1097.03
667.281	1086.76
667.477	1136.17
667.672	1040.26
667.867	1084.24
668.063	1089.67
668.258	1053.82
668.454	1063.51
668.649	1155.15
668.844	1058.86
669.04	1081.72
669.235	1057.31
669.43	1037.74
669.626	996.09
669.821	996.47
670.016	1001.9
670.211	1049.75
670.407	987.37
670.602	1065.25
670.797	1035.03
670.992	1080.75
671.187	1007.71
671.382	1082.3
671.578	998.22
671.773	1059.44
671.968	959.66
672.163	1034.45
672.358	1057.5
672.553	997.83
672.748	996.09
672.943	1082.69
673.138	1029.61
673.333	1066.42
673.528	982.52
673.723	1032.12
673.918	1014.11
674.113	945.13
674.308	1081.72
674.503	1043.75
674.698	1018.56
674.892	1028.64
675.087	1060.22
675.282	1031.54
675.477	1035.61
675.672	1028.44
675.867	1003.26
676.061	975.16
676.256	934.09
676.451	987.95
676.646	1003.26
676.84	960.05
677.035	935.44
677.23	939.71
677.424	1003.64
677.619	1024.37
677.814	1020.5
678.008	1027.86
678.203	937.77
678.397	935.64
678.592	1021.47
678.787	1044.14
678.981	956.56
679.176	997.83
679.37	946.1
679.565	957.72
679.759	969.93
679.954	1011.39
680.148	1059.05
680.342	1064.48
680.537	987.17
680.731	973.61
680.926	1004.61
681.12	1011.39
681.314	948.42
681.509	950.56
681.703	992.6
681.897	1005.39
682.092	950.75
682.286	967.41
682.48	1037.55
682.674	1007.13
682.869	976.71
683.063	992.6
683.257	1051.69
683.451	927.31
683.645	970.71
683.839	982.72
684.034	944.74
684.228	1011.59
684.422	912.39
684.616	926.14
684.81	1002.67
685.004	957.34
685.198	957.34
685.392	997.64
685.586	971.09
685.78	986.4
685.974	966.64
686.168	984.66
686.362	1042.97
686.556	935.44
686.75	898.63
686.944	894.18
687.138	900.96
687.331	833.53
687.525	809.12
687.719	745.77
687.913	842.25
688.107	823.85
688.301	814.16
688.494	848.84
688.688	773.66
688.882	791.3
689.076	776.18
689.269	838.57
689.463	930.21
689.657	838.18
689.85	812.41
690.044	821.52
690.238	832.76
690.431	861.43
690.625	839.73
690.818	859.69
691.012	883.13
691.205	932.73
691.399	888.94
691.593	925.76
691.786	981.75
691.98	960.82
692.173	989.5
692.366	974.58
692.56	953.85
692.753	1005.19
692.947	914.71
693.14	1010.23
693.333	1037.16
693.527	909.29
693.72	991.05
693.914	944.36
694.107	930.99
694.3	963.54
694.493	933.89
694.687	1026.7
694.88	949.39
695.073	1035.61
695.266	1021.47
695.46	1004.81
695.653	1072.81
695.846	1072.62
696.039	997.64
696.232	1007.32
696.425	1050.72
696.618	1054.21
696.812	1066.03
697.005	1157.67
697.198	1169.68
697.391	1161.16
697.584	1168.13
697.777	1212.5
697.97	1172.01
698.163	1161.16
698.356	1169.1
698.549	1246.99
698.742	1194.68
698.935	1159.03
699.127	1207.27
699.32	1186.73
699.513	1144.5
699.706	1225.68
699.899	1227.61
700.092	1209.4
700.285	1258.03
700.477	1148.18
700.67	1223.16
700.863	1290.39
701.056	1344.06
701.248	1304.34
701.441	1338.05
701.634	1275.86
701.826	1403.15
702.019	1258.03
702.212	1383.77
702.404	1293.49
702.597	1320.23
702.79	1331.27
702.982	1382.81
703.175	1416.71
703.367	1418.46
703.56	1436.28
703.752	1514.17
703.945	1486.65
704.137	1493.24
704.33	1494.4
704.522	1499.05
704.715	1535.29
704.907	1552.92
705.1	1599.42
705.292	1604.45
705.484	1568.42
705.677	1601.16
705.869	1636.42
706.061	1650.76
706.254	1707.53
706.446	1616.85
706.638	1646.11
706.831	1758.29
707.023	1673.81
707.215	1818.35
707.407	1786.77
707.599	1744.14
707.792	1870.86
707.984	1822.22
708.176	1894.11
708.368	1830.56
708.56	1865.82
708.752	1817.77
708.944	1847.02
709.136	1932.08
709.329	1911.54
709.521	2011.71
709.713	1984.78
709.905	2003.18
710.097	2050.46
710.289	2003.18
710.481	2010.16
710.672	2059.37
710.864	2104.9
711.056	2136.29
711.248	2114.98
711.44	2118.27
711.632	2114.01
711.824	2174.46
712.016	2164.77
712.207	2238.39
712.399	2236.65
712.591	2321.9
712.783	2273.27
712.975	2306.79
713.166	2260.09
713.358	2288.96
713.55	2362.59
713.741	2318.41
713.933	2372.27
714.125	2373.63
714.316	2343.21
714.508	2430.2
714.7	2452.1
714.891	2464.11
715.083	2522.81
715.274	2426.72
715.466	2478.64
715.657	2527.08
715.849	2429.82
716.04	2489.88
716.232	2473.8
716.423	2526.11
716.615	2444.54
716.806	2424.39
716.998	2400.17
717.189	2342.82
717.381	2265.52
717.572	2236.84
717.763	2265.71
717.955	2267.46
718.146	2203.33
718.337	2130.28
718.528	2151.4
718.72	2060.53
718.911	2145.4
719.102	2069.64
719.293	2146.36
719.485	2153.53
719.676	2138.03
719.867	2092.11
720.058	2117.69
720.249	2112.65
720.44	2152.37
720.632	2217.86
720.823	2266.49
721.014	2375.57
721.205	2380.8
721.396	2477.48
721.587	2532.31
721.778	2620.08
721.969	2670.64
722.16	2702.42
722.351	2742.14
722.542	2871.95
722.733	2908.37
722.924	2822.74
723.115	2874.85
723.305	2812.85
723.496	2844.82
723.687	2750.08
723.878	2797.94
724.069	2783.4
724.26	2781.27
724.45	2673.55
724.641	2721.6
724.832	2759.19
725.023	2727.61
725.213	2718.69
725.404	2729.74
725.595	2746.79
725.785	2726.25
725.976	2804.14
726.167	2831.65
726.357	2780.31
726.548	2929.1
726.739	2811.89
726.929	2944.8
727.12	2958.16
727.31	2980.45
727.501	2903.33
727.691	2926
727.882	2938.02
728.072	3018.03
728.263	2973.08
728.453	3054.46
728.644	3082.55
728.834	3065.69
729.024	3024.81
729.215	2999.82
729.405	3019.97
729.596	3124.01
729.786	3144.36
729.976	3190.86
730.167	3189.11
730.357	3158.11
730.547	3161.02
730.737	3217.59
730.928	3248.79
731.118	3335.78
731.308	3232.9
731.498	3263.51
731.688	3366.97
731.879	3352.63
732.069	3465.59
732.259	3459.2
732.449	3450.09
732.639	3528.36
732.829	3559.36
733.019	3594.04
733.209	3680.65
733.399	3715.91
733.589	3769.97
733.779	3820.34
733.969	3742.84
734.159	3812.59
734.349	3882.34
734.539	3915.86
734.729	3959.45
734.919	3985.99
735.109	4025.71
735.299	3990.45
735.488	4055.36
735.678	3964.49
735.868	3992.58
736.058	3969.91
736.248	3979.79
736.437	3967.2
736.627	3975.92
736.817	4103.6
737.007	4021.26
737.196	4072.41
737.386	4064.07
737.576	4049.35
737.765	4116
737.955	4060.78
738.144	4230.89
738.334	4180.32
738.524	4108.25
738.713	4108.83
738.903	4133.44
739.092	4178.58
739.282	4164.24
739.471	4168.31
739.661	4176.06
739.85	4204.73
740.04	4235.93
740.229	4242.13
740.419	4308
740.608	4317.69
740.797	4290.56
740.987	4345.59
741.176	4329.31
741.365	4283.4
741.555	4224.5
741.744	4359.15
741.933	4307.23
742.123	4312.26
742.312	4332.41
742.501	4400.03
742.69	4363.8
742.88	4301.22
743.069	4465.91
743.258	4385.89
743.447	4429.09
743.636	4422.89
743.825	4421.93
744.014	4473.07
744.204	4476.56
744.393	4380.08
744.582	4496.32
744.771	4535.65
744.96	4450.02
745.149	4455.44
745.338	4408.56
745.527	4544.76
745.716	4442.07
745.905	4433.74
746.094	4482.37
746.283	4521.51
746.471	4503.88
746.66	4577.31
746.849	4546.12
747.038	4582.74
747.227	4495.36
747.416	4514.73
747.604	4467.84
747.793	4470.94
747.982	4498.84
748.171	4567.62
748.359	4566.46
748.548	4531.78
748.737	4539.92
748.926	4520.35
749.114	4381.24
749.303	4471.14
749.491	4481.02
749.68	4407.2
749.869	4567.24
750.057	4490.32
750.246	4438.01
750.434	4426.38
750.623	4466.68
750.811	4428.71
751	4540.89
751.188	4497.87
751.377	4484.7
751.565	4417.47
751.754	4391.31
751.942	4402.36
752.131	4481.02
752.319	4373.1
752.507	4356.83
752.696	4440.72
752.884	4480.05
753.072	4398.09
753.261	4436.26
753.449	4420.76
753.637	4373.88
753.825	4494.97
754.014	4415.53
754.202	4429.09
754.39	4446.34
754.578	4453.31
754.766	4415.14
754.955	4386.08
755.143	4480.44
755.331	4374.26
755.519	4392.48
755.707	4388.99
755.895	4353.15
756.083	4402.94
756.271	4310.13
756.459	4364.77
756.647	4373.1
756.835	4333
757.023	4329.51
757.211	4287.85
757.399	4285.91
757.587	4276.81
757.775	4244.07
757.963	4318.08
758.151	4292.89
758.339	4284.36
758.526	4282.04
758.714	4258.4
758.902	4146.61
759.09	4109.22
759.278	3925.35
759.465	3654.3
759.653	3265.25
759.841	3012.41
760.028	2688.28
760.216	2351.74
760.404	2185.69
760.591	1865.43
760.779	1653.47
760.967	1492.27
761.154	1276.83
761.342	1372.93
761.529	1332.82
761.717	1456.24
761.905	1440.35
762.092	1578.68
762.28	1551.75
762.467	1576.36
762.655	1509.71
762.842	1563.57
763.029	1599.03
763.217	1634.1
763.404	1611.43
763.592	1631.19
763.779	1627.9
763.966	1710.05
764.154	1733.68
764.341	1761.39
764.528	1781.93
764.716	1859.04
764.903	1926.65
765.09	1999.31
765.277	2063.05
765.465	2221.54
765.652	2284.89
765.839	2387.77
766.026	2459.46
766.213	2558.46
766.4	2632.86
766.588	2845.4
766.775	2891.52
766.962	2939.37
767.149	3031.98
767.336	3205.39
767.523	3121.88
767.71	3295.67
767.897	3403.4
768.084	3451.25
768.271	3491.55
768.458	3545.8
768.645	3636.47
768.832	3569.44
769.019	3624.85
769.206	3668.44
769.392	3694.6
769.579	3791.67
769.766	3747.1
769.953	3743.23
770.14	3761.05
770.327	3740.52
770.513	3825.18
770.7	3881.56
770.887	3809.3
771.073	3845.14
771.26	3867.03
771.447	3801.35
771.634	3741.29
771.82	3873.62
772.007	3771.52
772.193	3822.28
772.38	3831.38
772.567	3811.62
772.753	3795.15
772.94	3849.01
773.126	3844.36
773.313	3831
773.499	3808.33
773.686	3855.02
773.872	3780.04
774.059	3850.37
774.245	3793.6
774.432	3787.79
774.618	3703.9
774.804	3783.53
774.991	3715.14
775.177	3753.11
775.363	3747.3
775.55	3769.38
775.736	3687.82
775.922	3718.82
776.109	3731.22
776.295	3753.3
776.481	3756.02
776.667	3762.41
776.853	3703.7
777.04	3640.74
777.226	3702.74
777.412	3776.75
777.598	3649.46
777.784	3679.1
777.97	3631.05
778.156	3671.35
778.342	3647.71
778.528	3613.42
778.715	3565.76
778.901	3579.32
779.087	3639.57
779.272	3570.02
779.458	3581.84
779.644	3641.71
779.83	3567.89
780.016	3666.31
780.202	3591.52
780.388	3545.61
780.574	3462.68
780.76	3520.23
780.946	3577.77
781.131	3539.21
781.317	3552.19
781.503	3509.38
781.689	3487.68
781.874	3597.53
782.06	3486.32
782.246	3517.9
782.432	3507.63
782.617	3456.29
782.803	3562.46
782.989	3438.85
783.174	3425.29
783.36	3406.11
783.545	3422.58
783.731	3429.94
783.916	3340.04
784.102	3422.38
784.288	3362.52
784.473	3409.4
784.659	3356.7
784.844	3439.05
785.029	3339.07
785.215	3325.7
785.4	3336.55
785.586	3427.61
785.771	3268.55
785.956	3363.1
786.142	3331.13
786.327	3299.94
786.512	3292.96
786.698	3333.07
786.883	3221.66
787.068	3279.98
787.254	3320.08
787.439	3260.22
787.624	3218.56
787.809	3199.96
787.994	3180.39
788.18	3262.15
788.365	3161.6
788.55	3207.71
788.735	3213.72
788.92	3185.82
789.105	3162.57
789.29	3203.06
789.475	3128.47
789.66	3143.58
789.845	3112.97
790.03	3057.56
790.215	3173.22
790.4	3145.71
790.585	3160.05
790.77	3134.86
790.955	3043.03
791.14	3106.77
791.325	3193.18
791.51	3032.37
791.695	3117.23
791.879	3061.63
792.064	3021.33
792.249	3145.52
792.434	3084.88
792.618	3042.06
792.803	3169.74
792.988	3071.89
793.173	3091.27
793.357	3103.67
793.542	3055.81
793.727	3061.24
793.911	3077.71
794.096	3080.61
794.281	3088.17
794.465	3162.18
794.65	3062.59
794.834	3133.31
795.019	3132.92
795.203	3115.68
795.388	3163.34
795.572	3167.61
795.757	3158.11
795.941	3180.78
796.126	3159.47
796.31	3024.43
796.494	3139.12
796.679	3059.49
796.863	3075.77
797.048	3167.61
797.232	3144.55
797.416	3118.01
797.601	3130.79
797.785	3204.42
797.969	3162.37
798.153	3123.24
798.338	3174.58
798.522	3186.79
798.706	3207.52
798.89	3200.93
799.074	3291.99
799.258	3231.35
799.443	3193.18
799.627	3186.59
799.811	3204.81
799.995	3120.14
800.179	3117.43
800.363	3151.14
800.547	3183.88
800.731	3201.12
800.915	3105.99
801.099	3091.27
801.283	3136.61
801.467	3192.99
801.651	3122.85
801.835	3226.89
802.019	3172.64
802.202	3158.69
802.386	3121.3
802.57	3078.68
802.754	3118.39
802.938	3098.44
803.121	3113.36
803.305	3192.79
803.489	3096.5
803.673	3153.07
803.856	3185.82
804.04	3141.26
804.224	3154.82
804.407	3095.92
804.591	3093.98
804.775	3117.43
804.958	3136.22
805.142	3227.86
805.326	3130.02
805.509	3153.66
805.693	3193.18
805.876	3141.84
806.06	3147.07
806.243	3184.66
806.427	3185.82
806.61	3198.99
806.794	3135.25
806.977	3183.3
807.16	3149.78
807.344	3177.1
807.527	3143.77
807.71	3108.71
807.894	3154.24
808.077	3158.31
808.26	3150.17
808.444	3075.58
808.627	3162.76
808.81	3107.16
808.993	3001.56
809.177	3011.45
809.36	3056.01
809.543	3086.04
809.726	2980.83
809.909	3017.65
810.092	2958.55
810.276	2938.02
810.459	2970.37
810.642	2933.37
810.825	2921.93
811.008	2941.31
811.191	2874.08
811.374	2886.48
811.557	2872.14
811.74	2921.74
811.923	2829.13
812.106	2821.96
812.289	2772.56
812.472	2787.28
812.654	2831.65
812.837	2767.52
813.02	2698.93
813.203	2677.43
813.386	2574.16
813.569	2584.23
813.751	2519.52
813.934	2552.85
814.117	2540.45
814.3	2491.04
814.482	2414.9
814.665	2389.32
814.848	2359.68
815.03	2285.09
815.213	2309.11
815.396	2277.92
815.578	2262.42
815.761	2188.21
815.943	2285.09
816.126	2154.31
816.309	2166.51
816.491	2081.27
816.674	2010.74
816.856	2071.58
817.039	2051.82
817.221	2153.34
817.403	2077.39
817.586	2074.29
817.768	2131.83
817.951	1994.85
818.133	2002.99
818.315	2013.65
818.498	2097.15
818.68	2166.51
818.862	2101.41
819.045	2164.58
819.227	2123.5
819.409	2071.97
819.591	2108.2
819.774	2116.53
819.956	2045.81
820.138	2108.39
820.32	2109.55
820.502	2188.99
820.684	2226.77
820.866	2243.63
821.048	2347.09
821.231	2281.21
821.413	2285.09
821.595	2250.21
821.777	2273.27
821.959	2278.89
822.141	2374.99
822.323	2212.24
822.505	2156.05
822.686	2089.4
822.868	2038.83
823.05	1934.79
823.232	1890.62
823.414	1787.16
823.596	1871.82
823.778	1830.94
823.96	1852.45
824.141	1876.47
824.323	1908.83
824.505	1973.74
824.687	1993.11
824.868	2080.49
825.05	2204.49
825.232	2188.02
825.413	2274.62
825.595	2211.08
825.777	2186.86
825.958	2220.76
826.14	2198.68
826.321	2224.06
826.503	2212.24
826.685	2225.8
826.866	2270.94
827.048	2250.99
827.229	2187.44
827.411	2198.09
827.592	2072.93
827.773	2086.69
827.955	2060.92
828.136	2052.59
828.318	2037.87
828.499	2060.73
828.68	1984.39
828.862	2018.88
829.043	2077.58
829.224	2012.68
829.406	1949.13
829.587	1999.5
829.768	2005.32
829.949	2026.63
830.131	2021.2
830.312	2087.85
830.493	2031.28
830.674	2013.84
830.855	1996.02
831.036	2000.67
831.218	2071.19
831.399	2076.23
831.58	2012.1
831.761	1992.92
831.942	2022.37
832.123	2014.03
832.304	1985.55
832.485	1941.57
832.666	1999.5
832.847	1977.03
833.028	1975.29
833.209	1997.18
833.389	1981.68
833.57	1949.71
833.751	1967.73
833.932	2051.43
834.113	1988.65
834.294	1947.19
834.475	2019.27
834.655	2057.63
834.836	2043.68
835.017	2008.42
835.198	1985.55
835.378	1975.09
835.559	2072.16
835.74	1971.22
835.92	1984.78
836.101	1992.92
836.281	2048.33
836.462	1981.49
836.643	2077.58
836.823	2071.19
837.004	2026.63
837.184	2111.88
837.365	2074.29
837.545	2091.73
837.726	2025.85
837.906	2120.79
838.087	2021.01
838.267	2017.72
838.448	1990.2
838.628	2016.17
838.808	2046.39
838.989	2057.24
839.169	1963.08
839.349	2081.27
839.53	2077.97
839.71	2053.37
839.89	1990.2
840.07	2122.15
840.251	2013.45
840.431	2076.81
840.611	1993.89
840.791	1988.27
840.971	2012.48
841.151	1995.82
841.332	1990.2
841.512	2093.66
841.692	1925.88
841.872	2012.68
842.052	2001.63
842.232	2014.23
842.412	1946.8
842.592	1974.12
842.772	2002.99
842.952	1984.39
843.132	1945.25
843.312	1961.14
843.492	1928.79
843.672	1985.17
843.851	1921.23
844.031	1936.34
844.211	1966.57
844.391	1921.81
844.571	1963.85
844.751	1947.97
844.93	1963.47
845.11	1906.89
845.29	1935.95
845.47	1962.5
845.649	1943.9
845.829	1974.7
846.009	1959.79
846.188	1903.79
846.368	1964.63
846.547	1940.99
846.727	1975.09
846.907	1905.73
847.086	1922.59
847.266	1947.97
847.445	1928.4
847.625	1898.76
847.804	1850.71
847.984	1917.94
848.163	1871.63
848.343	1837.72
848.522	1850.71
848.701	1904.96
848.881	1836.17
849.06	1889.46
849.239	1905.73
849.419	1891.59
849.598	1805.95
849.777	1810.41
849.957	1786.38
850.136	1751.31
850.315	1685.25
850.494	1702.1
850.674	1694.55
850.853	1769.33
851.032	1732.33
851.211	1810.02
851.39	1789.68
851.569	1714.89
851.748	1698.42
851.927	1759.26
852.107	1721.28
852.286	1694.35
852.465	1677.69
852.644	1784.83
852.823	1767.39
853.002	1724.77
853.181	1725.93
853.359	1743.37
853.538	1686.21
853.717	1780.18
853.896	1629.64
854.075	1566.28
854.254	1543.04
854.433	1471.15
854.611	1503.7
854.79	1415.55
854.969	1521.72
855.148	1602.71
855.327	1512.62
855.505	1582.17
855.684	1545.36
855.863	1581.2
856.041	1554.85
856.22	1602.13
856.399	1542.07
856.577	1670.13
856.756	1660.25
856.934	1805.18
857.113	1765.46
857.291	1693.38
857.47	1649.01
857.648	1663.55
857.827	1669.55
858.005	1719.15
858.184	1652.7
858.362	1723.22
858.541	1674.98
858.719	1650.76
858.898	1661.03
859.076	1639.33
859.254	1743.56
859.433	1631.77
859.611	1632.16
859.789	1592.63
859.967	1685.05
860.146	1677.3
860.324	1595.73
860.502	1629.25
860.68	1576.75
860.859	1598.06
861.037	1594.96
861.215	1612.98
861.393	1608.52
861.571	1606.58
861.749	1560.67
861.927	1605.81
862.105	1597.67
862.283	1576.55
862.461	1558.92
862.639	1521.72
862.817	1565.7
862.995	1588.76
863.173	1563.38
863.351	1597.87
863.529	1599.03
863.707	1623.83
863.885	1566.48
864.063	1497.5
864.241	1503.51
864.418	1593.41
864.596	1513
864.774	1465.15
864.952	1501.38
865.129	1559.5
865.307	1488.4
865.485	1452.75
865.663	1556.21
865.84	1421.75
866.018	1467.86
866.196	1309.76
866.373	1338.05
866.551	1295.43
866.728	1267.91
866.906	1288.84
867.084	1327.39
867.261	1350.45
867.439	1379.71
867.616	1418.65
867.794	1427.95
867.971	1398.5
868.149	1420.01
868.326	1446.74
868.503	1441.12
868.681	1445.77
868.858	1413.42
869.035	1392.3
869.213	1427.56
869.39	1399.47
869.567	1484.33
869.745	1367.11
869.922	1423.3
870.099	1432.21
870.276	1431.05
870.454	1438.02
870.631	1439.19
870.808	1406.64
870.985	1436.28
871.162	1449.65
871.339	1403.34
871.517	1375.83
871.694	1328.36
871.871	1403.73
872.048	1371.18
872.225	1369.24
872.402	1415.55
872.579	1342.89
872.756	1366.73
872.933	1329.91
873.11	1376.41
873.287	1383.77
873.463	1364.59
873.64	1357.43
873.817	1399.86
873.994	1356.84
874.171	1308.99
874.348	1331.08
874.524	1262.88
874.701	1313.25
874.878	1277.8
875.055	1332.63
875.231	1320.03
875.408	1345.03
875.585	1265.59
875.762	1333.4
875.938	1310.93
876.115	1270.82
876.291	1274.31
876.468	1233.43
876.645	1267.72
876.821	1277.6
876.998	1264.23
877.174	1286.51
877.351	1271.98
877.527	1266.75
877.704	1296.01
877.88	1293.49
878.057	1225.68
878.233	1321.19
878.409	1231.3
878.586	1278.38
878.762	1232.85
878.938	1234.98
879.115	1194.48
879.291	1239.82
879.467	1186.54
879.644	1198.36
879.82	1244.66
879.996	1177.43
880.172	1153.41
880.349	1235.75
880.525	1223.35
880.701	1144.11
880.877	1175.11
881.053	1191.38
881.229	1173.95
881.405	1249.51
881.581	1130.93
881.757	1187.9
881.933	1202.04
882.109	1224.9
882.285	1198.75
882.461	1129.58
882.637	1189.64
882.813	1141.78
882.989	1173.17
883.165	1246.99
883.341	1144.69
883.517	1243.11
883.693	1222.38
883.869	1207.66
884.044	1146.63
884.22	1197.39
884.396	1228.97
884.572	1195.84
884.747	1252.22
884.923	1179.37
885.099	1235.75
885.275	1236.91
885.45	1156.7
885.626	1182.28
885.801	1152.63
885.977	1189.83
886.153	1115.24
886.328	1203.59
886.504	1163.68
886.679	1234.98
886.855	1163.87
887.03	1198.94
887.206	1197.97
887.381	1198.75
887.557	1225.48
887.732	1235.17
887.908	1216.76
888.083	1230.52
888.258	1190.42
888.434	1149.73
888.609	1175.11
888.784	1198.94
888.96	1168.33
889.135	1149.15
889.31	1161.16
889.485	1180.73
889.661	1185.18
889.836	1221.22
890.011	1200.1
890.186	1179.76
890.361	1129
890.537	1181.89
890.712	1191.77
890.887	1214.83
891.062	1166.2
891.237	1219.86
891.412	1140.62
891.587	1155.15
891.762	1232.85
891.937	1214.83
892.112	1143.72
892.287	1190.42
892.462	1121.44
892.637	1093.54
892.812	1086.18
892.987	1122.6
893.161	1082.89
893.336	1086.95
893.511	1102.84
893.686	1104
893.861	1081.14
894.035	1094.7
894.21	1100.52
894.385	1041.23
894.56	1079.98
894.734	1018.17
894.909	1003.06
895.084	1045.69
895.258	1004.22
895.433	1031.35
895.608	1022.44
895.782	949.97
895.957	948.42
896.131	968.19
896.306	905.22
896.48	920.91
896.655	883.52
896.829	833.92
897.004	872.09
897.178	862.98
897.353	821.52
897.527	903.48
897.701	875.38
897.876	797.11
898.05	856.78
898.224	884.68
898.399	909.87
898.573	883.33
898.747	741.12
898.921	835.28
899.096	689.77
899.27	703.72
899.444	706.43
899.618	755.26
899.792	792.46
899.967	745.96
900.141	818.23
900.315	737.05
900.489	732.98
900.663	771.53
900.837	766.11
901.011	694.42
901.185	809.12
901.359	778.12
901.533	775.8
901.707	762.62
901.881	755.07
902.055	702.56
902.229	728.91
902.403	841.86
902.576	776.38
902.75	773.28
902.924	906.19
903.098	826.75
903.272	859.69
903.446	870.34
903.619	887.78
903.793	915.29
903.967	851.55
904.14	939.71
904.314	952.3
904.488	916.26
904.661	937.77
904.835	922.46
905.009	956.37
905.182	993.57
905.356	964.89
905.529	896.31
905.703	894.95
905.876	897.47
906.05	826.95
906.223	836.25
906.397	778.31
906.57	786.06
906.744	759.91
906.917	772.31
907.09	771.53
907.264	762.82
907.437	729.88
907.61	686.48
907.784	710.5
907.957	726.97
908.13	684.15
908.304	738.21
908.477	672.34
908.65	697.13
908.823	636.1
908.996	742.47
909.17	664.39
909.343	675.82
909.516	684.15
909.689	674.27
909.862	650.64
910.035	681.44
910.208	594.26
910.381	653.15
910.554	743.25
910.727	664
910.9	649.28
911.073	650.05
911.246	731.43
911.419	685.7
911.592	698.3
911.765	653.93
911.938	671.95
912.11	660.9
912.283	651.41
912.456	710.12
912.629	684.93
912.802	658.77
912.974	630.29
913.147	575.27
913.32	517.14
913.493	530.71
913.665	602.59
913.838	569.65
914.01	576.43
914.183	593.48
914.356	591.93
914.528	641.34
914.701	686.28
914.873	641.53
915.046	576.62
915.218	556.86
915.391	491.57
915.563	487.89
915.736	562.87
915.908	601.62
916.081	574.88
916.253	581.86
916.425	583.99
916.598	624.29
916.77	574.3
916.942	541.36
917.115	491.57
917.287	566.55
917.459	548.14
917.632	494.28
917.804	436.35
917.976	531.09
918.148	542.72
918.32	562.48
918.493	579.92
918.665	638.62
918.837	605.69
919.009	637.85
919.181	629.32
919.353	597.94
919.525	590.77
919.697	562.67
919.869	593.48
920.041	642.89
920.213	748.48
920.385	621.38
920.557	597.74
920.729	625.84
920.901	630.29
921.073	598.32
921.244	582.24
921.416	605.3
921.588	610.34
921.76	578.56
921.932	670.79
922.103	581.08
922.275	581.66
922.447	598.9
922.619	509.39
922.79	572.94
922.962	561.9
923.134	601.42
923.305	514.82
923.477	501.84
923.648	525.67
923.82	545.04
923.991	472.58
924.163	449.53
924.335	531.48
924.506	472.58
924.677	561.51
924.849	486.53
925.02	555.89
925.192	547.37
925.363	516.95
925.535	536.13
925.706	468.9
925.877	570.62
926.049	491.76
926.22	510.56
926.391	496.03
926.562	568.68
926.734	483.04
926.905	565.19
927.076	465.41
927.247	505.33
927.419	455.14
927.59	440.23
927.761	432.67
927.932	442.36
928.103	451.08
928.274	386.36
928.445	377.06
928.616	390.24
928.787	405.35
928.958	436.54
929.129	389.27
929.3	369.31
929.471	349.36
929.642	299.37
929.813	238.92
929.984	358.27
930.155	252.1
930.326	342.38
930.496	291.04
930.667	240.09
930.838	295.88
931.009	231.17
931.18	219.74
931.35	221.29
931.521	258.68
931.692	211.6
931.863	129.46
932.033	198.62
932.204	195.91
932.374	199.2
932.545	138.76
932.716	216.06
932.886	212.96
933.057	121.32
933.227	139.92
933.398	218.97
933.568	111.82
933.739	80.24
933.909	86.06
934.08	121.32
934.25	64.94
934.421	74.04
934.591	130.62
934.761	65.71
934.932	50.6
935.102	116.86
935.272	105.43
935.443	100.01
935.613	112.41
935.783	120.16
935.953	49.44
936.123	267.4
936.294	100.2
936.464	87.22
936.634	103.69
936.804	39.94
936.974	43.63
937.144	105.62
937.314	104.07
937.484	73.27
937.655	52.34
937.825	113.76
937.995	59.13
938.165	151.54
938.334	84.51
938.504	121.32
938.674	113.37
938.844	119.57
939.014	159.87
939.184	161.42
939.354	203.27
939.524	194.94
939.694	143.6
939.863	139.14
940.033	230.01
940.203	207.15
940.373	174.6
940.542	223.42
940.712	133.52
940.882	205.79
941.051	173.44
941.221	187.77
941.391	183.51
941.56	127.91
941.73	138.56
941.899	262.37
942.069	164.52
942.238	202.89
942.408	109.11
942.577	181.19
942.747	123.84
942.916	72.49
943.086	130.23
943.255	183.12
943.425	140.31
943.594	126.55
943.763	62.23
943.933	94.97
944.102	48.28
944.271	126.36
944.441	113.57
944.61	99.42
944.779	146.89
944.948	226.33
945.117	90.51
945.287	116.47
945.456	60.09
945.625	103.69
945.794	132.36
945.963	103.49
946.132	151.74
946.301	95.36
946.47	137.59
946.639	51.76
946.808	126.16
946.977	132.94
947.146	172.85
947.315	99.04
947.484	141.08
947.653	88.77
947.822	101.94
947.991	95.16
948.16	187.58
948.329	189.9
948.498	128.29
948.666	123.26
948.835	160.84
949.004	68.43
949.173	77.92
949.341	101.94
949.51	131.39
949.679	162
949.847	113.96
950.016	178.86
950.185	199.98
950.353	93.03
950.522	126.94
950.69	173.24
950.859	90.9
951.028	180.6
951.196	139.92
951.365	112.41
951.533	113.76
951.701	135.46
951.87	139.53
952.038	64.74
952.207	114.54
952.375	154.64
952.543	117.44
952.712	105.24
952.88	73.27
953.048	169.75
953.217	119.57
953.385	126.36
953.553	191.84
953.721	63
953.89	120.54
954.058	56.99
954.226	79.47
954.394	105.82
954.562	62.23
954.73	94.39
954.898	100.39
955.067	165.3
955.235	101.36
955.403	122.29
955.571	170.53
955.739	126.16
955.907	59.32
956.075	96.52
956.243	86.06
956.41	137.59
956.578	49.63
956.746	68.23
956.914	100.78
957.082	125.97
957.25	133.72
957.418	90.32
957.585	99.62
957.753	163.17
957.921	84.31
958.089	123.64
958.256	134.69
958.424	141.66
958.592	122.48
958.759	74.43
958.927	147.67
959.095	79.27
959.262	109.89
959.43	112.79
959.597	69.98
959.765	127.13
959.932	102.91
960.1	145.34
960.267	121.71
960.435	125.58
960.602	117.83
960.77	110.47
960.937	87.61
961.104	130.62
961.272	77.14
961.439	131.01
961.606	118.8
961.774	156.19
961.941	106.01
962.108	129.07
962.275	160.84
962.443	185.45
962.61	129.65
962.777	200.56
962.944	156.77
963.111	142.63
963.278	137.21
963.446	135.85
963.613	114.92
963.78	117.64
963.947	143.02
964.114	137.79
964.281	206.57
964.448	168.98
964.615	106.59
964.782	141.47
964.949	164.33
965.116	139.53
965.282	179.25
965.449	132.17
965.616	78.11
965.783	144.76
965.95	155.03
966.117	94.19
966.283	120.74
966.45	143.99
966.617	136.04
966.784	173.05
966.95	183.9
967.117	151.16
967.284	118.41
967.45	111.05
967.617	209.47
967.784	175.57
967.95	192.04
968.117	113.96
968.283	178.86
968.45	254.23
968.616	144.18
968.783	191.07
968.949	146.31
969.116	172.08
969.282	136.62
969.449	139.14
969.615	181.38
969.781	94.39
969.948	129.46
970.114	74.24
970.28	195.72
970.447	110.47
970.613	180.22
970.779	136.82
970.945	179.44
971.112	147.67
971.278	161.42
971.444	143.21
971.61	165.88
971.776	129.26
971.942	147.86
972.108	169.56
972.275	137.98
972.441	151.35
972.607	207.15
972.773	97.68
972.939	156
973.105	142.82
973.271	83.34
973.437	129.84
973.602	101.94
973.768	156.77
973.934	128.1
974.1	137.98
974.266	43.24
974.432	143.79
974.598	125.58
974.763	165.88
974.929	128.1
975.095	175.37
975.261	92.64
975.426	89.93
975.592	98.07
975.758	205.21
975.923	84.7
976.089	100.39
976.255	157.74
976.42	127.13
976.586	155.81
976.751	138.76
976.917	222.45
977.082	141.66
977.248	97.1
977.413	84.31
977.579	88.19
977.744	135.66
977.91	90.32
978.075	90.51
978.24	161.23
978.406	131.2
978.571	106.01
978.736	106.79
978.902	160.84
979.067	80.44
979.232	78.11
979.397	117.64
979.563	166.85
979.728	84.51
979.893	118.41
980.058	95.55
980.223	160.84
980.388	149.99
980.554	114.73
980.719	63.39
980.884	141.27
981.049	163.36
981.214	85.28
981.379	144.37
981.544	109.5
981.709	122.48
981.874	105.43
982.039	98.65
982.204	156.58
982.368	112.99
982.533	108.34
982.698	142.24
982.863	154.26
983.028	108.72
983.193	162.39
983.357	145.54
983.522	128.29
983.687	110.86
983.852	124.81
984.016	121.51
984.181	117.64
984.346	134.3
984.51	150.19
984.675	116.47
984.839	123.45
985.004	112.79
985.168	157.36
985.333	113.96
985.498	111.44
985.662	138.76
985.827	125.97
985.991	105.62
986.155	106.21
986.32	148.83
986.484	181.19
986.649	142.63
986.813	56.22
986.977	87.02
987.142	145.15
987.306	74.43
987.47	90.51
987.634	95.16
987.799	109.89
987.963	131.59
988.127	135.66
988.291	177.12
988.455	106.98
988.62	89.74
988.784	148.25
988.948	137.4
989.112	72.3
989.276	115.12
989.44	116.28
989.604	104.27
989.768	90.71
989.932	212.38
990.096	69.39
990.26	74.82
990.424	55.83
990.588	119.38
990.752	159.49
990.915	115.89
991.079	80.63
991.243	77.53
991.407	144.37
991.571	75.98
991.734	137.4
991.898	121.9
992.062	187.77
992.226	108.34
992.389	73.46
992.553	46.34
992.717	76.37
992.88	77.34
993.044	99.42
993.207	83.92
993.371	124.03
993.535	128.29
993.698	95.74
993.862	117.06
994.025	148.06
994.189	100.01
994.352	121.9
994.515	114.34
994.679	123.64
994.842	83.15
995.006	116.09
995.169	64.74
995.332	98.26
995.496	124.42
995.659	56.03
995.822	91.48
995.985	96.13
996.149	137.98
996.312	104.07
996.475	185.25
996.638	85.67
996.801	151.74
996.964	161.04
997.128	61.45
997.291	98.26
997.454	91.48
997.617	10.88
997.78	138.76
997.943	61.06
998.106	132.94
998.269	43.43
998.432	103.49
998.595	73.46
998.758	26.38
998.92	52.34
999.083	35.1
999.246	100.97
999.409	46.73
999.572	8.94
999.735	68.04
999.897	109.11
1000.06	82.96
1000.223	86.44
1000.386	81.41
1000.548	99.42
1000.711	104.07
1000.874	108.92
1001.036	28.9
1001.199	121.12
1001.361	57.19
1001.524	77.72
1001.687	100.39
1001.849	54.28
1002.012	76.95
1002.174	96.32
1002.337	117.83
1002.499	73.27
1002.661	100.01
1002.824	3.71
1002.986	61.45
1003.149	81.21
1003.311	39.94
1003.473	141.86
1003.636	41.49
1003.798	81.21
1003.96	80.82
1004.123	79.27
1004.285	56.41
1004.447	94.19
1004.609	106.98
1004.771	126.74
1004.933	30.45
1005.096	47.69
1005.258	18.44
1005.42	30.06
1005.582	113.18
1005.744	62.61
1005.906	19.41
1006.068	44.01
1006.23	13.01
1006.392	-4.42
1006.554	42.85
1006.716	117.25
1006.878	76.17
1007.04	27.35
1007.202	55.64
1007.363	76.17
1007.525	64.94
1007.687	94.77
1007.849	110.08
1008.011	-2.1
1008.172	44.4
1008.334	60.29
1008.496	90.9
1008.658	-12.37
1008.819	27.35
1008.981	23.28
1009.143	0.81
1009.304	58.16
1009.466	97.49
1009.627	129.26
1009.789	170.14
1009.95	59.13
1010.112	36.46
1010.273	86.44
1010.435	22.89
1010.596	15.92
1010.758	36.07
1010.919	72.88
1011.081	7.78
1011.242	37.23
1011.403	66.1
1011.565	48.47
1011.726	96.52
1011.887	20.76
1012.049	55.83
1012.21	88.57
1012.371	110.47
1012.532	-32.71
1012.693	56.99
1012.855	31.23
1013.016	49.05
1013.177	78.5
1013.338	35.29
1013.499	112.41
1013.66	66.1
1013.821	96.91
1013.982	51.38
1014.143	62.42
1014.304	31.81
1014.465	51.96
1014.626	70.94
1014.787	29.09
1014.948	142.05
1015.109	-14.31
1015.27	81.79
1015.431	29.09
1015.592	20.96
1015.752	86.64
1015.913	46.34
1016.074	79.27
1016.235	47.5
1016.395	43.24
1016.556	27.54
1016.717	25.03
1016.877	87.41
1017.038	21.54
1017.199	38.39
1017.359	57.38
1017.52	47.11
1017.681	21.93
1017.841	25.61
1018.002	9.53
1018.162	37.62
1018.323	115.12
1018.483	36.26
1018.644	38.78
1018.804	1.97
1018.964	-0.55
1019.125	25.22
1019.285	27.74
1019.446	19.6
1019.606	22.31
1019.766	1.19
1019.926	82.57
1020.087	38.2
1020.247	-16.24
1020.407	60.48
1020.567	68.04
1020.728	34.33
1020.888	27.74
1021.048	4.29
1021.208	21.93
1021.368	11.66
1021.528	71.72
1021.688	67.26
1021.848	75.21
1022.008	32.19
1022.168	13.21
1022.328	43.04
1022.488	66.29
1022.648	15.92
1022.808	22.7
1022.968	53.12
1023.128	41.3
1023.288	-4.42
1023.448	32.78
1023.608	46.92
1023.767	63.58
1023.927	9.33
1024.087	6.62
1024.247	-20.7
1024.406	13.79
1024.566	8.75
1024.726	15.14
1024.885	30.84
1025.045	50.79
1025.205	20.18
1025.364	1.19
1025.524	26.77
1025.683	24.25
1025.843	21.73
1026.003	48.08
1026.162	74.43
1026.321	67.26
1026.481	23.67
1026.64	37.04
1026.8	21.73
1026.959	40.53
1027.119	11.08
1027.278	1.39
1027.437	10.3
1027.597	22.51
1027.756	26.96
1027.915	56.41
1028.074	52.15
1028.234	37.04
1028.393	22.51
1028.552	-1.32
1028.711	-65.45
1028.87	47.89
1029.03	16.31
1029.189	30.84
1029.348	-42.98
1029.507	40.72
1029.666	21.15
1029.825	-13.34
1029.984	-2.68
1030.143	57.58
1030.302	-14.5
1030.461	-43.95
1030.62	36.07
1030.779	34.33
1030.938	0.03
1031.097	-5.59
1031.255	50.41
1031.414	86.83
1031.573	56.03
1031.732	-27.48
1031.891	-1.71
1032.049	57.77
1032.208	33.55
1032.367	17.28
1032.525	-26.12
1032.684	19.6
1032.843	15.34
1033.001	-30.58
1033.16	153.87
1033.319	66.1
1033.477	65.52
1033.636	4.29
1033.794	-28.64
1033.953	55.25
1034.111	74.24
1034.27	-15.47
1034.428	33.55
1034.587	-4.81
1034.745	38.59
1034.903	24.06
1035.062	48.08
1035.22	-46.08
1035.378	51.38
1035.537	-20.7
1035.695	50.99
1035.853	27.16
1036.011	61.06
1036.17	34.91
1036.328	-53.44
1036.486	22.7
1036.644	28.13
1036.802	-80.18
1036.96	-19.73
1037.119	-3.07
1037.277	-14.89
1037.435	-23.8
1037.593	-6.75
1037.751	17.47
1037.909	53.51
1038.067	53.51
