Data from gum_old_FLMT105791__192__15-48-19-249.txt Node

Date: Mon Mar 20 15:48:19 GMT 2023
User: antho
Spectrometer: FLMT10579
Trigger mode: 0
Integration Time (sec): 1.000000E-1
Scans to average: 10
Electric dark correction enabled: true
Nonlinearity correction enabled: false
Boxcar width: 0
XAxis mode: Wavelengths
Number of Pixels in Spectrum: 3648
>>>>>Begin Spectral Data<<<<<
345.248	-177
345.464	-177
345.681	-177
345.898	-196.57
346.114	-199.09
346.331	-52.81
346.548	26.24
346.764	-6.89
346.981	-5.54
347.197	-3.02
347.414	20.62
347.631	-24.53
347.847	85.91
348.064	-3.79
348.28	-6.89
348.497	-31.11
348.713	1.82
348.93	28.76
349.146	43.48
349.363	-2.63
349.579	34.37
349.796	21.97
350.012	-0.89
350.229	45.61
350.445	16.16
350.661	-15.61
350.878	3.96
351.094	48.91
351.311	46.39
351.527	35.92
351.743	23.91
351.96	32.63
352.176	58.4
352.392	60.72
352.609	43.48
352.825	2.99
353.041	31.47
353.257	15
353.474	30.31
353.69	35.15
353.906	13.64
354.122	-31.31
354.339	81.84
354.555	27.21
354.771	5.51
354.987	81.26
355.203	78.16
355.42	9.96
355.636	3.96
355.852	-15.03
356.068	14.22
356.284	-29.76
356.5	101.22
356.716	72.93
356.932	5.7
357.148	51.04
357.364	27.4
357.58	70.02
357.796	100.05
358.012	93.85
358.228	45.81
358.444	-45.64
358.66	79.9
358.876	46
359.092	-3.41
359.308	23.14
359.524	44.84
359.74	-0.31
359.956	12.48
360.172	44.64
360.388	78.74
360.604	19.07
360.819	106.84
361.035	37.86
361.251	50.65
361.467	6.28
361.683	46.58
361.898	49.68
362.114	61.3
362.33	19.65
362.546	61.69
362.762	39.61
362.977	64.79
363.193	-23.75
363.409	75.45
363.624	0.86
363.84	39.02
364.056	17.91
364.271	30.11
364.487	42.51
364.703	21.78
364.918	-7.28
365.134	16.94
365.35	36.31
365.565	148.49
365.781	44.64
365.996	64.79
366.212	131.05
366.427	36.89
366.643	27.21
366.858	52.59
367.074	0.86
367.289	127.76
367.505	166.12
367.72	3.18
367.936	22.17
368.151	101.99
368.367	85.52
368.582	59.17
368.798	39.99
369.013	104.32
369.228	70.02
369.444	41.74
369.659	107.03
369.874	93.66
370.09	107.42
370.305	-6.31
370.52	26.04
370.736	113.23
370.951	76.22
371.166	92.11
371.381	159.15
371.597	99.28
371.812	37.86
372.027	27.59
372.242	68.47
372.458	146.36
372.673	58.2
372.888	34.57
373.103	86.49
373.318	96.57
373.533	75.45
373.749	63.63
373.964	-7.48
374.179	96.95
374.394	24.3
374.609	130.09
374.824	18.68
375.039	113.62
375.254	23.72
375.469	119.62
375.684	59.17
375.899	117.1
376.114	58.2
376.329	95.79
376.544	100.25
376.759	92.3
376.974	48.13
377.189	74.29
377.404	47.94
377.619	122.92
377.834	19.46
378.049	54.91
378.264	28.37
378.478	80.49
378.693	72.15
378.908	118.27
379.123	50.07
379.338	126.99
379.553	94.44
379.767	89.2
379.982	103.15
380.197	83.78
380.412	99.28
380.626	69.25
380.841	165.54
381.056	85.33
381.271	155.47
381.485	62.27
381.7	68.09
381.915	106.45
382.129	78.35
382.344	101.41
382.559	47.36
382.773	107.22
382.988	-3.99
383.202	86.49
383.417	48.91
383.632	168.83
383.846	62.08
384.061	68.28
384.275	75.64
384.49	85.52
384.704	80.68
384.919	94.24
385.133	78.16
385.348	106.25
385.562	59.56
385.777	122.72
385.991	83
386.206	67.89
386.42	45.03
386.634	124.47
386.849	97.34
387.063	114.97
387.277	66.34
387.492	63.24
387.706	64.99
387.92	43.29
388.135	108.19
388.349	115.75
388.563	98.7
388.778	114.59
388.992	83.39
389.206	108.19
389.42	174.26
389.635	99.09
389.849	133.19
390.063	168.83
390.277	141.9
390.491	164.57
390.706	146.36
390.92	123.69
391.134	141.13
391.348	157.6
391.562	64.21
391.776	95.02
391.99	105.29
392.205	177.36
392.419	87.85
392.633	151.59
392.847	184.33
393.061	94.05
393.275	163.8
393.489	99.28
393.703	77.58
393.917	143.84
394.131	52.97
394.345	100.44
394.559	147.33
394.773	99.09
394.986	122.53
395.2	132.8
395.414	160.7
395.628	107.22
395.842	157.79
396.056	127.76
396.27	105.48
396.484	170
396.697	133.19
396.911	146.36
397.125	124.08
397.339	127.95
397.553	109.16
397.766	177.75
397.98	153.53
398.194	184.53
398.408	169.8
398.621	174.45
398.835	207
399.049	210.3
399.262	244.01
399.476	224.63
399.69	213.78
399.903	288.76
400.117	202.16
400.331	238
400.544	186.08
400.758	340.88
400.971	227.54
401.185	263.96
401.398	201
401.612	284.11
401.826	241.88
402.039	287.99
402.253	198.28
402.466	260.86
402.68	233.16
402.893	263.96
403.106	258.54
403.32	232.77
403.533	274.23
403.747	229.86
403.96	264.74
404.174	294.19
404.387	208.75
404.6	268.61
404.814	305.62
405.027	240.71
405.24	233.16
405.454	252.92
405.667	281.6
405.88	190.15
406.094	292.06
406.307	290.12
406.52	268.42
406.733	215.53
406.947	217.08
407.16	324.99
407.373	321.31
407.586	262.41
407.799	236.65
408.012	284.31
408.226	266.68
408.439	334.29
408.652	221.73
408.865	291.48
409.078	351.93
409.291	325.38
409.504	267.06
409.717	335.65
409.93	318.99
410.143	302.52
410.357	237.61
410.57	204.48
410.783	233.55
410.996	281.6
411.209	258.35
411.421	346.5
411.634	327.9
411.847	281.6
412.06	336.23
412.273	304.07
412.486	308.33
412.699	410.05
412.912	330.42
413.125	326.54
413.338	337.2
413.55	368.78
413.763	320.15
413.976	321.7
414.189	303.3
414.402	294
414.615	403.85
414.827	297.68
415.04	381.18
415.253	351.93
415.466	367.23
415.678	363.94
415.891	345.53
416.104	317.83
416.316	316.66
416.529	315.31
416.742	379.44
416.954	399.59
417.167	316.86
417.38	333.33
417.592	361.81
417.805	315.69
418.017	288.57
418.23	377.69
418.442	302.33
418.655	310.27
418.868	353.28
419.08	385.25
419.293	399.78
419.505	382.93
419.718	367.23
419.93	388.54
420.142	338.75
420.355	391.45
420.567	389.13
420.78	367.81
420.992	349.41
421.205	446.67
421.417	326.16
421.629	354.06
421.842	349.79
422.054	305.62
422.266	410.82
422.479	425.36
422.691	360.45
422.903	419.16
423.115	346.5
423.328	355.61
423.54	365.68
423.752	338.94
423.964	372.66
424.177	407.34
424.389	377.89
424.601	508.28
424.813	393.19
425.025	425.16
425.238	424.39
425.45	371.88
425.662	362
425.874	713.85
426.086	394.94
426.298	424.97
426.51	411.79
426.722	396.29
426.934	391.06
427.146	465.27
427.358	376.73
427.57	432.14
427.782	384.48
427.994	401.91
428.206	378.08
428.418	358.51
428.63	421.48
428.842	455
429.054	411.6
429.266	421.48
429.478	368.2
429.69	401.72
429.902	347.66
430.114	414.89
430.325	405.59
430.537	338.56
430.749	322.86
430.961	291.09
431.173	306.2
431.384	363.94
431.596	256.6
431.808	378.08
432.02	395.71
432.231	473.41
432.443	521.65
432.655	488.9
432.867	427.49
433.078	476.89
433.29	513.51
433.502	499.95
433.713	516.03
433.925	506.73
434.136	526.88
434.348	431.75
434.56	368.59
434.771	534.05
434.983	401.72
435.194	459.65
435.406	477.86
435.617	529.79
435.829	573.19
436.04	516.03
436.252	528.04
436.463	559.62
436.675	566.4
436.886	551.87
437.098	542.96
437.309	613.48
437.521	530.95
437.732	535.99
437.943	526.69
438.155	541.22
438.366	465.27
438.578	571.25
438.789	494.14
439	529.01
439.211	497.62
439.423	523.59
439.634	526.69
439.845	564.08
440.057	562.53
440.268	600.7
440.479	525.72
440.69	574.74
440.902	538.7
441.113	544.32
441.324	548.58
441.535	612.32
441.746	634.22
441.957	536.76
442.168	565.24
442.38	636.93
442.591	652.82
442.802	570.09
443.013	592.95
443.224	641.19
443.435	600.31
443.646	601.08
443.857	594.3
444.068	588.49
444.279	562.53
444.49	682.46
444.701	653.78
444.912	727.99
445.123	698.93
445.334	657.27
445.545	657.08
445.756	638.09
445.967	597.98
446.178	631.5
446.388	655.92
446.599	638.67
446.81	661.92
447.021	607.87
447.232	696.8
447.443	673.16
447.653	596.43
447.864	700.48
448.075	690.01
448.286	715.98
448.496	656.3
448.707	722.37
448.918	664.25
449.129	775.84
449.339	647.97
449.55	706.29
449.761	682.85
449.971	724.11
450.182	696.6
450.393	730.7
450.603	699.7
450.814	775.65
451.024	724.89
451.235	782.24
451.446	769.64
451.656	807.43
451.867	724.5
452.077	733.41
452.288	797.16
452.498	802.58
452.709	715.4
452.919	748.33
453.13	673.74
453.34	731.28
453.55	646.42
453.761	728.96
453.971	720.63
454.182	722.76
454.392	719.85
454.602	799.09
454.813	774.49
455.023	755.69
455.233	701.25
455.444	723.73
455.654	645.84
455.864	745.04
456.075	715.01
456.285	689.63
456.495	726.05
456.705	726.25
456.916	811.11
457.126	840.17
457.336	759.57
457.546	703.58
457.756	738.26
457.967	806.65
458.177	732.64
458.387	768.48
458.597	701.83
458.807	736.13
459.017	761.89
459.227	704.55
459.437	713.85
459.647	775.84
459.857	803.36
460.068	755.5
460.278	789.79
460.488	795.8
460.698	855.67
460.908	796.96
461.117	741.16
461.327	753.18
461.537	797.16
461.747	828.93
461.957	793.09
462.167	911.47
462.377	868.26
462.587	798.32
462.797	886.47
463.007	810.53
463.216	872.33
463.426	872.91
463.636	858.19
463.846	782.24
464.056	819.24
464.265	858.57
464.475	790.76
464.685	838.62
464.895	853.15
465.104	835.52
465.314	870.78
465.524	797.54
465.733	784.56
465.943	904.88
466.153	897.13
466.362	859.93
466.572	857.8
466.782	810.53
466.991	867.29
467.201	898.68
467.41	758.41
467.62	843.85
467.829	825.25
468.039	872.91
468.249	846.17
468.458	889.77
468.668	880.08
468.877	879.5
469.086	953.9
469.296	929.1
469.505	887.25
469.715	971.92
469.924	931.04
470.134	944.4
470.343	927.74
470.552	925.22
470.762	915.15
470.971	869.23
471.18	893.26
471.39	941.3
471.599	877.56
471.808	956.03
472.018	907.21
472.227	999.82
472.436	1004.47
472.645	959.9
472.855	932.97
473.064	1036.63
473.273	1040.5
473.482	1003.11
473.691	1057.17
473.901	1012.6
474.11	965.91
474.319	1098.63
474.528	1012.02
474.737	1130.01
474.946	1061.62
475.155	1061.62
475.364	1104.44
475.573	1096.88
475.783	1093.98
475.992	1109.48
476.201	1121.49
476.41	1075.57
476.619	1074.41
476.828	1077.32
477.037	1070.53
477.245	1078.67
477.454	1148.23
477.663	1102.31
477.872	1132.15
478.081	1184.46
478.29	1118.2
478.499	1254.59
478.708	1204.61
478.917	1220.88
479.125	1162.56
479.334	1226.89
479.543	1175.35
479.752	1242.58
479.961	1209.64
480.169	1235.22
480.378	1192.4
480.587	1392.93
480.796	1267.96
481.004	1248.59
481.213	1275.32
481.422	1290.24
481.63	1287.14
481.839	1314.66
482.048	1358.06
482.256	1341.01
482.465	1329.38
482.674	1341.2
482.882	1359.61
483.091	1414.63
483.299	1332.48
483.508	1353.02
483.716	1350.89
483.925	1389.25
484.134	1316.79
484.342	1325.31
484.551	1398.55
484.759	1379.95
484.967	1398.94
485.176	1407.65
485.384	1402.81
485.593	1408.04
485.801	1386.15
486.01	1356.7
486.218	1295.47
486.426	1190.08
486.635	1188.33
486.843	1173.61
487.051	1228.63
487.26	1220.69
487.468	1318.14
487.676	1328.22
487.885	1340.04
488.093	1373.17
488.301	1434.2
488.509	1424.9
488.717	1475.66
488.926	1439.43
489.134	1429.35
489.342	1420.83
489.55	1402.23
489.758	1419.09
489.967	1445.24
490.175	1560.91
490.383	1483.41
490.591	1597.14
490.799	1534.17
491.007	1565.75
491.215	1524.87
491.423	1536.88
491.631	1517.12
491.839	1551.22
492.047	1558.39
492.255	1448.73
492.463	1458.03
492.671	1474.3
492.879	1547.35
493.087	1525.07
493.295	1558.2
493.503	1588.81
493.711	1641.89
493.919	1645.77
494.127	1609.15
494.334	1638.02
494.542	1535.92
494.75	1602.76
494.958	1624.65
495.166	1690.14
495.374	1670.38
495.581	1688.78
495.789	1695.37
495.997	1743.61
496.205	1623.68
496.412	1633.18
496.62	1671.34
496.828	1677.16
497.035	1700.41
497.243	1730.05
497.451	1726.76
497.658	1707.58
497.866	1726.76
498.074	1760.66
498.281	1693.43
498.489	1771.51
498.696	1662.82
498.904	1642.48
499.112	1651.58
499.319	1761.24
499.527	1688.01
499.734	1775.39
499.942	1669.41
500.149	1696.53
500.357	1748.46
500.564	1673.48
500.771	1725.01
500.979	1654.68
501.186	1661.27
501.394	1709.51
501.601	1663.59
501.808	1713.58
502.016	1654.88
502.223	1653.91
502.43	1677.93
502.638	1654.29
502.845	1675.99
503.052	1762.79
503.26	1679.48
503.467	1803.87
503.674	1767.06
503.881	1804.06
504.089	1848.04
504.296	1775.19
504.503	1713.39
504.71	1730.82
504.917	1721.33
505.125	1734.12
505.332	1772.09
505.539	1761.44
505.746	1870.52
505.953	1893.18
506.16	1845.91
506.367	1924.18
506.574	1942.78
506.781	1921.47
506.988	1830.02
507.195	1851.14
507.402	1835.06
507.609	1888.92
507.816	1807.94
508.023	1841.26
508.23	1809.49
508.437	1765.51
508.644	1851.72
508.851	1896.67
509.058	1884.27
509.265	1851.92
509.472	1885.82
509.679	1965.84
509.885	1888.34
510.092	1925.93
510.299	1926.12
510.506	1901.52
510.713	1892.8
510.92	1855.4
511.126	1917.21
511.333	1970.68
511.54	1943.56
511.746	1992.58
511.953	2009.43
512.16	2024.55
512.367	1973.59
512.573	1974.56
512.78	1990.45
512.987	1935.23
513.193	1924.18
513.4	1886.98
513.606	1906.55
513.813	1934.84
514.02	1936.97
514.226	2006.14
514.433	1986.18
514.639	1887.57
514.846	1943.37
515.052	1921.08
515.259	1994.13
515.465	1975.91
515.672	1935.62
515.878	2063.29
516.085	1995.68
516.291	2011.56
516.497	1993.55
516.704	1990.45
516.91	1900.16
517.117	1888.15
517.323	1732.37
517.529	1782.36
517.736	1786.62
517.942	1802.51
518.148	1799.02
518.354	1889.12
518.561	1895.12
518.767	1862.57
518.973	1916.63
519.179	1921.67
519.386	1926.9
519.592	1914.11
519.798	1941.23
520.004	2071.43
520.21	1987.93
520.417	2043.73
520.623	2115.61
520.829	2089.64
521.035	2100.49
521.241	2105.34
521.447	2140.6
521.653	2289.59
521.859	2119.09
522.065	2136.92
522.271	2263.63
522.477	2200.47
522.683	2241.93
522.889	2234.37
523.095	2173.73
523.301	2166.76
523.507	2133.04
523.713	2182.84
523.919	2114.83
524.125	2251.04
524.331	2211.12
524.537	2321.37
524.742	2287.46
524.948	2295.21
525.154	2338.8
525.36	2436.26
525.566	2347.91
525.772	2380.85
525.977	2289.79
526.183	2360.5
526.389	2351.78
526.595	2305.29
526.8	2298.5
527.006	2224.49
527.212	2117.54
527.417	2098.75
527.623	2102.43
527.829	2178.77
528.034	2222.36
528.24	2239.41
528.446	2242.32
528.651	2333.96
528.857	2388.4
529.062	2432.19
529.268	2422.11
529.473	2426.76
529.679	2452.73
529.884	2544.56
530.09	2458.93
530.295	2475.01
530.501	2496.13
530.706	2498.64
530.912	2431.8
531.117	2486.05
531.323	2524.03
531.528	2591.26
531.733	2557.16
531.939	2538.94
532.144	2575.56
532.35	2554.64
532.555	2574.79
532.76	2533.52
532.966	2479.08
533.171	2457.38
533.376	2414.95
533.581	2402.74
533.787	2504.07
533.992	2513.95
534.197	2543.4
534.402	2531
534.607	2542.24
534.813	2645.89
535.018	2532.16
535.223	2555.22
535.428	2537.39
535.633	2616.64
535.838	2617.22
536.043	2599.39
536.249	2698.2
536.454	2595.91
536.659	2664.11
536.864	2628.84
537.069	2590.09
537.274	2609.86
537.479	2594.55
537.684	2622.06
537.889	2550.38
538.094	2711.19
538.299	2611.02
538.504	2600.17
538.708	2642.99
538.913	2662.17
539.118	2634.85
539.323	2659.84
539.528	2596.49
539.733	2580.79
539.938	2597.26
540.142	2642.99
540.347	2593
540.552	2559.68
540.757	2568.39
540.962	2574.01
541.166	2470.16
541.371	2512.4
541.576	2577.5
541.781	2458.54
541.985	2624.58
542.19	2610.24
542.395	2708.28
542.599	2730.17
542.804	2693.55
543.008	2681.93
543.213	2632.52
543.418	2541.85
543.622	2671.47
543.827	2578.47
544.031	2668.76
544.236	2705.95
544.44	2672.63
544.645	2774.35
544.849	2682.32
545.054	2748.39
545.258	2805.93
545.463	2797.98
545.667	2666.24
545.872	2701.69
546.076	2731.72
546.281	2740.25
546.485	2649.77
546.689	2735.79
546.894	2742.77
547.098	2692.39
547.302	2660.81
547.507	2703.05
547.711	2717
547.915	2763.69
548.119	2672.44
548.324	2671.86
548.528	2767.18
548.732	2681.74
548.936	2749.55
549.141	2764.08
549.345	2682.9
549.549	2715.64
549.753	2723.39
549.957	2808.25
550.161	2832.08
550.366	2770.08
550.57	2751.87
550.774	2721.65
550.978	2739.86
551.182	2758.65
551.386	2699.75
551.59	2752.26
551.794	2676.5
551.998	2745.09
552.202	2706.73
552.406	2648.61
552.61	2747.61
552.814	2781.9
553.018	2789.07
553.222	2763.11
553.426	2723
553.63	2782.1
553.833	2704.99
554.037	2650.16
554.241	2725.91
554.445	2756.72
554.649	2754
554.853	2682.32
555.056	2802.44
555.26	2804.57
555.464	2758.85
555.668	2735.02
555.871	2784.23
556.075	2773.96
556.279	2686
556.483	2697.62
556.686	2704.4
556.89	2691.04
557.094	2704.02
557.297	2635.62
557.501	2706.73
557.704	2569.36
557.908	2715.84
558.112	2610.44
558.315	2699.17
558.519	2689.49
558.722	2615.47
558.926	2590.87
559.129	2529.84
559.333	2502.91
559.536	2566.26
559.74	2522.67
559.943	2543.98
560.147	2531.39
560.35	2542.82
560.553	2515.5
560.757	2488.18
560.96	2590.48
561.164	2546.31
561.367	2656.55
561.57	2580.02
561.774	2625.36
561.977	2558.71
562.18	2536.62
562.384	2648.02
562.587	2533.13
562.79	2530.61
562.993	2534.49
563.197	2559.68
563.4	2620.71
563.603	2644.92
563.806	2639.69
564.009	2549.41
564.212	2586.99
564.416	2481.4
564.619	2558.51
564.822	2475.98
565.025	2554.83
565.228	2494
565.431	2524.8
565.634	2453.31
565.837	2466.48
566.04	2452.34
566.243	2481.01
566.446	2366.51
566.649	2437.23
566.852	2373.87
567.055	2434.13
567.258	2446.72
567.461	2532.55
567.664	2479.27
567.867	2436.65
568.07	2437.23
568.273	2475.4
568.475	2498.45
568.678	2379.68
568.881	2388.21
569.084	2385.88
569.287	2273.51
569.489	2323.11
569.692	2410.3
569.895	2387.63
570.098	2307.42
570.3	2310.52
570.503	2247.35
570.706	2297.92
570.909	2269.05
571.111	2237.28
571.314	2183.22
571.516	2230.11
571.719	2271.57
571.922	2205.7
572.124	2236.31
572.327	2236.12
572.529	2226.82
572.732	2216.36
572.935	2277
573.137	2367.28
573.34	2245.42
573.542	2297.54
573.745	2258.59
573.947	2274.48
574.15	2240.77
574.352	2219.26
574.554	2314.97
574.757	2237.09
574.959	2195.04
575.162	2206.47
575.364	2179.54
575.566	2293.85
575.769	2167.14
575.971	2177.02
576.173	2063.1
576.376	2145.83
576.578	2220.23
576.78	2239.02
576.982	2076.66
577.185	2180.51
577.387	2104.56
577.589	2111.54
577.791	2203.57
577.993	2151.64
578.196	2168.11
578.398	2167.92
578.6	2196.4
578.802	2090.23
579.004	2071.63
579.206	2065.43
579.408	2130.91
579.61	2085.77
579.812	2148.35
580.014	2073.76
580.216	2090.23
580.418	2108.83
580.62	2114.25
580.822	2040.82
581.024	2094.1
581.226	2140.79
581.428	2110.76
581.63	2201.44
581.832	2083.06
582.034	2156.29
582.236	2148.35
582.438	2147.19
582.64	2192.72
582.841	2212.48
583.043	2210.74
583.245	2138.47
583.447	2156.49
583.649	2110.96
583.85	2110.18
584.052	2112.7
584.254	2077.63
584.456	2174.7
584.657	2053.41
584.859	2123.74
585.061	2043.73
585.262	2077.44
585.464	2040.05
585.666	2109.21
585.867	2030.94
586.069	2107.08
586.27	2019.9
586.472	2036.75
586.674	2017.18
586.875	2015.05
587.077	1976.88
587.278	2008.08
587.48	2038.11
587.681	2161.72
587.883	2088.68
588.084	1974.36
588.285	2022.22
588.487	1966.03
588.688	2027.65
588.89	1929.8
589.091	1878.07
589.292	1895.51
589.494	1823.44
589.695	1786.24
589.896	1765.31
590.098	1742.06
590.299	1805.61
590.5	1778.49
590.702	1770.54
590.903	1805.22
591.104	1911.78
591.305	1857.73
591.507	1922.83
591.708	1879.82
591.909	1908.49
592.11	1955.96
592.311	1942.4
592.512	1880.98
592.714	1871.49
592.915	1818.59
593.116	1843.78
593.317	1853.08
593.518	1856.76
593.719	1881.56
593.92	1918.95
594.121	1971.46
594.322	1881.17
594.523	1855.21
594.724	1835.45
594.925	1859.09
595.126	1879.04
595.327	1886.21
595.528	1864.51
595.729	1881.17
595.929	1880.59
596.13	1895.32
596.331	1904.03
596.532	1879.82
596.733	1941.82
596.934	1920.7
597.135	1913.33
597.335	1925.93
597.536	1834.29
597.737	1869.35
597.938	1882.92
598.138	1889.12
598.339	1876.14
598.54	1874.2
598.74	1867.22
598.941	1863.54
599.142	1950.53
599.342	1893.96
599.543	1812.78
599.744	1837.39
599.944	1844.75
600.145	1841.84
600.345	1830.99
600.546	1903.84
600.746	1912.95
600.947	1955.18
601.147	1869.55
601.348	1912.56
601.548	1815.1
601.749	1861.8
601.949	1816.85
602.15	1780.23
602.35	1815.69
602.551	1858.89
602.751	1771.32
602.951	1777.52
603.152	1754.27
603.352	1865.87
603.552	1826.92
603.753	1851.72
603.953	1896.28
604.153	1860.25
604.354	1839.32
604.554	1819.95
604.754	1856.95
604.954	1801.15
605.155	1881.37
605.355	1827.5
605.555	1841.84
605.755	1887.76
605.955	1802.32
606.155	1878.85
606.356	1820.34
606.556	1864.9
606.756	1829.25
606.956	1742.26
607.156	1870.32
607.356	1797.67
607.556	1833.12
607.756	1790.89
607.956	1872.45
608.156	1798.83
608.356	1801.54
608.556	1839.32
608.756	1752.52
608.956	1757.95
609.156	1789.53
609.356	1746.13
609.556	1750.39
609.755	1766.86
609.955	1746.71
610.155	1750.39
610.355	1765.31
610.555	1753.49
610.755	1722.69
610.954	1683.36
611.154	1761.05
611.354	1769.77
611.554	1723.07
611.753	1703.89
611.953	1684.91
612.153	1753.3
612.352	1726.17
612.552	1634.53
612.752	1666.69
612.951	1701.18
613.151	1700.02
613.351	1661.27
613.55	1692.66
613.75	1693.04
613.949	1717.84
614.149	1712.42
614.348	1660.49
614.548	1634.73
614.747	1604.5
614.947	1643.06
615.146	1576.8
615.346	1663.59
615.545	1661.27
615.745	1647.71
615.944	1680.64
616.144	1651.19
616.343	1666.11
616.542	1627.75
616.742	1619.03
616.941	1583.19
617.14	1534.95
617.34	1595.01
617.539	1593.65
617.738	1553.74
617.938	1673.86
618.137	1580.86
618.336	1571.18
618.535	1632.79
618.734	1623.49
618.934	1603.92
619.133	1587.65
619.332	1632.4
619.531	1539.98
619.73	1584.55
619.929	1638.21
620.128	1663.4
620.328	1637.44
620.527	1587.84
620.726	1583
620.925	1598.88
621.124	1582.8
621.323	1607.21
621.522	1546.96
621.721	1556.45
621.92	1515.38
622.119	1570.98
622.318	1522.16
622.517	1535.92
622.715	1561.88
622.914	1494.84
623.113	1552.58
623.312	1478.37
623.511	1541.53
623.71	1545.99
623.909	1497.94
624.107	1604.89
624.306	1511.5
624.505	1495.03
624.704	1503.17
624.902	1495.23
625.101	1565.95
625.3	1544.63
625.499	1519.64
625.697	1477.21
625.896	1465.39
626.095	1498.72
626.293	1451.83
626.492	1438.65
626.69	1552
626.889	1485.54
627.088	1534.17
627.286	1450.47
627.485	1444.08
627.683	1452.41
627.882	1490
628.08	1389.05
628.279	1472.17
628.477	1514.8
628.676	1389.44
628.874	1506.66
629.073	1414.05
629.271	1386.34
629.469	1482.05
629.668	1433.62
629.866	1428.58
630.065	1404.55
630.263	1445.44
630.461	1377.82
630.66	1431.49
630.858	1477.02
631.056	1441.56
631.254	1475.08
631.453	1382.27
631.651	1420.44
631.849	1455.32
632.047	1452.6
632.245	1400.68
632.444	1421.6
632.642	1444.47
632.84	1465.78
633.038	1434.78
633.236	1369.68
633.434	1403
633.632	1388.67
633.83	1361.74
634.028	1441.95
634.227	1397.19
634.425	1471.59
634.623	1418.31
634.821	1436.72
635.019	1435.36
635.216	1406.69
635.414	1438.46
635.612	1410.95
635.81	1386.92
636.008	1465.2
636.206	1391.77
636.404	1402.42
636.602	1380.14
636.8	1383.63
636.997	1435.55
637.195	1451.44
637.393	1402.23
637.591	1482.05
637.789	1413.85
637.986	1406.49
638.184	1396.22
638.382	1462.1
638.58	1452.22
638.777	1508.98
638.975	1417.73
639.173	1442.92
639.37	1396.61
639.568	1421.6
639.765	1429.16
639.963	1378.59
640.161	1439.04
640.358	1426.25
640.556	1381.11
640.753	1326.67
640.951	1313.3
641.148	1380.92
641.346	1348.95
641.543	1333.64
641.741	1383.24
641.938	1312.33
642.136	1349.53
642.333	1288.31
642.531	1404.36
642.728	1422.19
642.925	1349.92
643.123	1329.77
643.32	1343.14
643.517	1329.38
643.715	1352.24
643.912	1271.26
644.109	1367.94
644.306	1325.31
644.504	1291.02
644.701	1312.14
644.898	1329.96
645.095	1292.18
645.293	1312.52
645.49	1329.19
645.687	1350.5
645.884	1358.25
646.081	1266.99
646.278	1253.24
646.475	1286.76
646.672	1295.67
646.87	1293.54
647.067	1300.51
647.264	1299.16
647.461	1246.65
647.658	1205.38
647.855	1284.04
648.052	1242.97
648.249	1168.38
648.446	1212.16
648.642	1200.93
648.839	1215.07
649.036	1212.36
649.233	1186.01
649.43	1168.18
649.627	1119.36
649.824	1184.46
650.021	1184.26
650.217	1158.5
650.414	1173.03
650.611	1213.52
650.808	1196.66
651.004	1186.4
651.201	1244.13
651.398	1246.65
651.595	1189.11
651.791	1172.83
651.988	1251.3
652.185	1166.63
652.381	1226.11
652.578	1135.05
652.775	1179.61
652.971	1171.09
653.168	1188.14
653.364	1229.99
653.561	1137.38
653.757	1182.13
653.954	1189.49
654.15	1138.73
654.347	1209.84
654.543	1175.93
654.74	1143.58
654.936	1122.26
655.133	1138.93
655.329	1174.19
655.525	1138.35
655.722	1187.17
655.918	1096.88
656.115	1173.61
656.311	1027.13
656.507	991.1
656.704	978.89
656.9	991.1
657.096	1013.38
657.292	1005.44
657.489	1105.8
657.685	1046.12
657.881	1051.16
658.077	1059.88
658.273	1074.22
658.47	1143.58
658.666	1097.85
658.862	1127.88
659.058	1092.43
659.254	1137.18
659.45	1074.6
659.646	1168.57
659.842	1142.03
660.038	1185.43
660.234	1068.79
660.43	1126.72
660.626	1170.12
660.822	1163.92
661.018	1177.29
661.214	1151.52
661.41	1069.57
661.606	1136.99
661.802	1162.37
661.998	1106.76
662.194	1121.68
662.39	1119.16
662.586	1135.05
662.781	1136.21
662.977	1119.36
663.173	1141.25
663.369	1124.4
663.564	1115.68
663.76	1182.33
663.956	1105.99
664.152	1124.2
664.347	1023.26
664.543	1069.57
664.739	1084.68
664.934	1014.93
665.13	1069.18
665.326	1111.8
665.521	1109.28
665.717	1049.8
665.912	1053.87
666.108	986.84
666.304	1057.75
666.499	1055.62
666.695	979.67
666.89	1051.55
667.086	1079.25
667.281	1069.95
667.477	1148.03
667.672	1074.6
667.867	1012.99
668.063	1059.68
668.258	1041.67
668.454	1072.08
668.649	1127.69
668.844	1077.9
669.04	1072.08
669.235	1019.19
669.43	1021.71
669.626	1015.9
669.821	1031.98
670.016	999.24
670.211	1054.07
670.407	1011.25
670.602	1053.29
670.797	1033.53
670.992	1046.7
671.187	985.67
671.382	1046.12
671.578	1005.82
671.773	1034.88
671.968	994.2
672.163	1024.03
672.358	1039.53
672.553	989.94
672.748	1007.57
672.943	1073.44
673.138	1040.12
673.333	1044.57
673.528	1018.61
673.723	1066.66
673.918	1001.56
674.113	991.49
674.308	1070.53
674.503	1028.49
674.698	1040.5
674.892	1042.83
675.087	1017.45
675.282	1023.84
675.477	998.27
675.672	1025.78
675.867	957.58
676.061	939.17
676.256	943.82
676.451	990.32
676.646	1015.51
676.84	965.14
677.035	968.82
677.23	947.5
677.424	1009.5
677.619	1014.15
677.814	1022.29
678.008	1029.27
678.203	918.25
678.397	975.6
678.592	995.36
678.787	1061.43
678.981	961.84
679.176	981.6
679.37	999.43
679.565	943.05
679.759	969.4
679.954	1024.23
680.148	1047.28
680.342	992.07
680.537	980.05
680.731	981.99
680.926	977.15
681.12	1000.4
681.314	934.72
681.509	938.59
681.703	932
681.897	1026.36
682.092	978.31
682.286	953.9
682.48	1034.3
682.674	966.88
682.869	952.54
683.063	960.68
683.257	1009.5
683.451	935.88
683.645	967.85
683.839	986.25
684.034	960.29
684.228	986.84
684.422	893.06
684.616	918.44
684.81	971.34
685.004	948.28
685.198	949.83
685.392	988.97
685.586	954.29
685.78	970.37
685.974	965.72
686.168	1001.75
686.362	1019.19
686.556	915.73
686.75	883.96
686.944	892.87
687.138	904.11
687.331	755.5
687.525	791.15
687.719	771.78
687.913	831.26
688.107	800.45
688.301	793.09
688.494	835.33
688.688	840.56
688.882	785.73
689.076	781.46
689.269	837.07
689.463	908.56
689.657	829.71
689.85	828.93
690.044	832.23
690.238	840.36
690.431	837.46
690.625	802.39
690.818	849.27
691.012	870.2
691.205	895.39
691.399	819.44
691.593	903.33
691.786	931.23
691.98	945.18
692.173	976.95
692.366	929.87
692.56	950.02
692.753	1002.53
692.947	896.74
693.14	981.8
693.333	998.07
693.527	878.34
693.72	944.99
693.914	934.33
694.107	923.29
694.3	976.37
694.493	919.22
694.687	971.72
694.88	966.69
695.073	1013.96
695.266	1003.69
695.46	977.92
695.653	1022.1
695.846	1017.25
696.039	951.38
696.232	975.79
696.425	1008.54
696.618	1036.63
696.812	1057.55
697.005	1074.8
697.198	1177.29
697.391	1117.42
697.584	1123.43
697.777	1128.46
697.97	1109.28
698.163	1143.58
698.356	1099.98
698.549	1263.12
698.742	1163.92
698.935	1113.93
699.127	1157.33
699.32	1134.28
699.513	1128.08
699.706	1184.07
699.899	1161.6
700.092	1139.9
700.285	1184.26
700.477	1103.28
700.67	1179.61
700.863	1240.26
701.056	1301.87
701.248	1252.66
701.441	1278.23
701.634	1254.79
701.826	1351.27
702.019	1220.88
702.212	1305.36
702.404	1227.86
702.597	1248.59
702.79	1283.27
702.982	1317.56
703.175	1345.66
703.367	1322.79
703.56	1371.81
703.752	1436.14
703.945	1377.43
704.137	1431.1
704.33	1437.69
704.522	1425.67
704.715	1442.34
704.907	1509.76
705.1	1511.7
705.292	1535.33
705.484	1510.15
705.677	1571.56
705.869	1554.32
706.061	1596.56
706.254	1633.18
706.446	1581.06
706.638	1614.38
706.831	1682.19
707.023	1636.28
707.215	1739.16
707.407	1744.97
707.599	1690.53
707.792	1791.27
707.984	1719.78
708.176	1824.6
708.368	1745.55
708.56	1788.56
708.752	1791.86
708.944	1784.3
709.136	1814.52
709.329	1825.76
709.521	1954.41
709.713	1880.01
709.905	1915.47
710.097	1978.05
710.289	1908.3
710.481	1915.27
710.672	1977.66
710.864	2010.21
711.056	2035.98
711.248	2018.54
711.44	2034.62
711.632	2008.27
711.824	2049.73
712.016	2103.79
712.207	2138.08
712.399	2137.31
712.591	2201.63
712.783	2190.59
712.975	2201.82
713.166	2151.26
713.358	2193.88
713.55	2263.82
713.741	2289.98
713.933	2279.9
714.125	2271.19
714.316	2256.65
714.508	2339.58
714.7	2354.11
714.891	2331.05
715.083	2413.98
715.274	2341.32
715.466	2413.01
715.657	2440.71
715.849	2328.53
716.04	2397.9
716.232	2357.98
716.423	2433.35
716.615	2376
716.806	2301.02
716.998	2333.57
717.189	2251.04
717.381	2217.13
717.572	2162.3
717.763	2210.54
717.955	2138.08
718.146	2113.28
718.337	2118.32
718.528	2071.82
718.72	1967.58
718.911	2081.89
719.102	2019.9
719.293	2098.17
719.485	2057.48
719.676	2062.71
719.867	2036.95
720.058	2046.63
720.249	2045.08
720.44	2079.38
720.632	2128.2
720.823	2194.07
721.014	2316.33
721.205	2329.7
721.396	2409.52
721.587	2487.41
721.778	2527.9
721.969	2564.91
722.16	2606.56
722.351	2659.07
722.542	2785.58
722.733	2781.71
722.924	2677.09
723.115	2784.42
723.305	2766.21
723.496	2756.52
723.687	2665.07
723.878	2697.43
724.069	2658.49
724.26	2678.25
724.45	2642.41
724.641	2645.89
724.832	2704.02
725.023	2661.39
725.213	2648.99
725.404	2681.74
725.595	2653.06
725.785	2626.91
725.976	2783.07
726.167	2746.45
726.357	2727.27
726.548	2886.91
726.739	2769.12
726.929	2849.13
727.12	2873.74
727.31	2927.8
727.501	2868.51
727.691	2831.7
727.882	2882.46
728.072	2964.03
728.263	2952.59
728.453	2999.48
728.644	3004.13
728.834	2994.25
729.024	2970.61
729.215	2984.37
729.405	2978.94
729.596	3074.07
729.786	3096.94
729.976	3127.35
730.167	3119.8
730.357	3132.39
730.547	3123.87
730.737	3178.5
730.928	3213.57
731.118	3310.45
731.308	3216.48
731.498	3217.45
731.688	3366.83
731.879	3307.73
732.069	3380.39
732.259	3446.07
732.449	3471.84
732.639	3509.04
732.829	3516.98
733.019	3543.72
733.209	3638.65
733.399	3602.42
733.589	3699.49
733.779	3746.96
733.969	3713.83
734.159	3842.67
734.349	3866.69
734.539	3893.63
734.729	3910.48
734.919	3931.21
735.109	3999.02
735.299	3920.36
735.488	3984.49
735.678	3949.23
735.868	3967.25
736.058	4015.69
736.248	3962.21
736.437	3940.9
736.627	3947.49
736.817	4034.87
737.007	3997.28
737.196	4074.2
737.386	4020.72
737.576	4049.79
737.765	4104.23
737.955	4020.34
738.144	4211.76
738.334	4173.4
738.524	4082.14
738.713	4145.3
738.903	4107.72
739.092	4216.02
739.282	4180.56
739.471	4199.75
739.661	4165.26
739.85	4232.3
740.04	4248.38
740.229	4250.12
740.419	4260.97
740.608	4330.91
740.797	4277.83
740.987	4349.32
741.176	4312.12
741.365	4280.15
741.555	4239.66
741.744	4384.19
741.933	4254.38
742.123	4309.6
742.312	4390.97
742.501	4381.09
742.69	4407.44
742.88	4303.59
743.069	4453.94
743.258	4376.06
743.447	4464.99
743.636	4455.1
743.825	4449.49
744.014	4423.72
744.204	4478.74
744.393	4413.06
744.582	4542.1
744.771	4533.18
744.96	4429.14
745.149	4499.47
745.338	4433.02
745.527	4496.76
745.716	4473.9
745.905	4466.15
746.094	4545
746.283	4504.32
746.471	4471.77
746.66	4579.68
746.849	4561.28
747.038	4571.35
747.227	4537.45
747.416	4567.67
747.604	4539.58
747.793	4501.41
747.982	4588.79
748.171	4591.12
748.359	4570.77
748.548	4537.83
748.737	4534.54
748.926	4560.12
749.114	4417.91
749.303	4544.81
749.491	4507.03
749.68	4474.87
749.869	4597.12
750.057	4526.02
750.246	4474.09
750.434	4498.5
750.623	4535.7
750.811	4452
751	4565.35
751.188	4516.13
751.377	4480.49
751.565	4511.68
751.754	4414.22
751.942	4453.75
752.131	4541.52
752.319	4388.65
752.507	4398.34
752.696	4503.54
752.884	4497.15
753.072	4451.62
753.261	4446.58
753.449	4503.15
753.637	4374.7
753.825	4536.67
754.014	4442.51
754.202	4423.52
754.39	4547.52
754.578	4515.17
754.766	4418.87
754.955	4397.17
755.143	4514.78
755.331	4424.49
755.519	4464.79
755.707	4386.52
755.895	4392.14
756.083	4426.62
756.271	4335.56
756.459	4416.16
756.647	4430.5
756.835	4378.19
757.023	4430.5
757.211	4370.24
757.399	4354.94
757.587	4396.59
757.775	4275.31
757.963	4289.26
758.151	4362.49
758.339	4301.85
758.526	4314.25
758.714	4279.18
758.902	4166.23
759.09	4160.03
759.278	3938.77
759.465	3759.94
759.653	3328.66
759.841	3072.72
760.028	2673.79
760.216	2395.18
760.404	2249.49
760.591	1887.37
760.779	1636.28
760.967	1487.87
761.154	1338.29
761.342	1385.37
761.529	1377.04
761.717	1460.55
761.905	1453.77
762.092	1573.31
762.28	1551.41
762.467	1569.05
762.655	1530.68
762.842	1554.51
763.029	1576.6
763.217	1654.88
763.404	1671.34
763.592	1677.16
763.779	1637.63
763.966	1684.71
764.154	1730.44
764.341	1824.99
764.528	1846.1
764.716	1861.6
764.903	1970.88
765.09	2049.54
765.277	2046.25
765.465	2273.51
765.652	2288.82
765.839	2381.23
766.026	2523.06
766.213	2568.78
766.4	2640.47
766.588	2871.03
766.775	2858.05
766.962	2986.31
767.149	3082.6
767.336	3235.66
767.523	3192.26
767.71	3307.73
767.897	3418.17
768.084	3503.03
768.271	3532.09
768.458	3575.88
768.645	3667.72
768.832	3609.59
769.019	3665.39
769.206	3683.41
769.392	3756.06
769.579	3827.17
769.766	3804.11
769.953	3809.15
770.14	3804.7
770.327	3797.53
770.513	3865.92
770.7	3920.56
770.887	3830.46
771.073	3887.04
771.26	3897.69
771.447	3863.01
771.634	3795.2
771.82	3951.56
772.007	3806.63
772.193	3903.12
772.38	3885.68
772.567	3844.61
772.753	3878.32
772.94	3913.97
773.126	3908.54
773.313	3921.14
773.499	3868.63
773.686	3880.84
773.872	3812.25
774.059	3841.51
774.245	3827.94
774.432	3855.84
774.618	3713.83
774.804	3801.98
774.991	3775.25
775.177	3835.11
775.363	3788.42
775.55	3808.18
775.736	3707.05
775.922	3748.51
776.109	3721.58
776.295	3816.9
776.481	3799.27
776.667	3821.36
776.853	3782.22
777.04	3739.21
777.226	3737.66
777.412	3857.98
777.598	3697.75
777.784	3685.15
777.97	3683.41
778.156	3691.16
778.342	3689.03
778.528	3659.58
778.715	3611.53
778.901	3654.35
779.087	3716.73
779.272	3627.22
779.458	3619.86
779.644	3636.13
779.83	3634.39
780.016	3705.11
780.202	3604.17
780.388	3596.8
780.574	3534.61
780.76	3560.38
780.946	3603.39
781.131	3592.74
781.317	3586.15
781.503	3558.83
781.689	3528.02
781.874	3686.7
782.06	3520.47
782.246	3617.15
782.432	3576.85
782.617	3576.27
782.803	3570.84
782.989	3448.01
783.174	3512.33
783.36	3432.12
783.545	3467.19
783.731	3478.42
783.916	3411.58
784.102	3447.04
784.288	3454.98
784.473	3451.3
784.659	3383.49
784.844	3452.85
785.029	3444.71
785.215	3402.09
785.4	3321.3
785.586	3485.4
785.771	3347.06
785.956	3421.66
786.142	3344.74
786.327	3360.63
786.512	3339.51
786.698	3371.86
786.883	3273.25
787.068	3309.28
787.254	3354.04
787.439	3259.88
787.624	3293.78
787.809	3259.3
787.994	3295.14
788.18	3338.93
788.365	3225.2
788.55	3228.68
788.735	3230.04
788.92	3285.65
789.105	3197.1
789.29	3283.9
789.475	3153.9
789.66	3194
789.845	3164.94
790.03	3148.67
790.215	3204.47
790.4	3235.47
790.585	3229.65
790.77	3181.6
790.955	3100.42
791.14	3136.65
791.325	3242.83
791.51	3048.89
791.695	3116.12
791.879	3119.41
792.064	3072.33
792.249	3163.2
792.434	3062.64
792.618	3142.66
792.803	3195.94
792.988	3133.94
793.173	3118.25
793.357	3131.23
793.542	3018.86
793.727	3086.28
793.911	3114.18
794.096	3076.79
794.281	3157.19
794.465	3195.94
794.65	3102.94
794.834	3164.94
795.019	3165.91
795.203	3166.49
795.388	3163.78
795.572	3212.99
795.757	3177.34
795.941	3196.14
796.126	3186.45
796.31	3110.89
796.494	3188.77
796.679	3128.71
796.863	3099.65
797.048	3195.17
797.232	3192.84
797.416	3176.18
797.601	3183.15
797.785	3242.63
797.969	3252.13
798.153	3154.67
798.338	3236.63
798.522	3234.3
798.706	3241.47
798.89	3230.04
799.074	3345.32
799.258	3299.79
799.443	3212.99
799.627	3246.12
799.811	3297.08
799.995	3205.43
800.179	3181.8
800.363	3199.23
800.547	3247.87
800.731	3216.87
800.915	3133.55
801.099	3165.14
801.283	3161.65
801.467	3196.52
801.651	3171.14
801.835	3276.73
802.019	3188.58
802.202	3210.86
802.386	3161.26
802.57	3166.1
802.754	3199.43
802.938	3114.18
803.121	3151.96
803.305	3248.06
803.489	3153.7
803.673	3205.24
803.856	3200.59
804.04	3216.28
804.224	3212.6
804.407	3172.89
804.591	3158.94
804.775	3119.8
804.958	3131.04
805.142	3284.1
805.326	3186.84
805.509	3178.7
805.693	3191.87
805.876	3223.07
806.06	3169.79
806.243	3168.24
806.427	3222.29
806.61	3273.44
806.794	3195.75
806.977	3224.42
807.16	3175.21
807.344	3189.16
807.527	3157.58
807.71	3151.19
807.894	3180.64
808.077	3196.14
808.26	3124.25
808.444	3138.01
808.627	3225.78
808.81	3115.15
808.993	3047.14
809.177	3068.46
809.36	3082.79
809.543	3111.85
809.726	2996.77
809.909	3007.43
810.092	3042.88
810.276	2987.47
810.459	3038.23
810.642	2960.93
810.825	2970.81
811.008	2973.33
811.191	2871.41
811.374	2840.61
811.557	2943.49
811.74	2946.39
811.923	2852.62
812.106	2849.33
812.289	2852.81
812.472	2822.01
812.654	2792.75
812.837	2753.23
813.02	2704.4
813.203	2701.5
813.386	2640.08
813.569	2610.44
813.751	2536.43
813.934	2573.43
814.117	2524.03
814.3	2545.73
814.482	2453.7
814.665	2423.47
814.848	2368.25
815.03	2312.65
815.213	2280.68
815.396	2323.3
815.578	2264.4
815.761	2237.47
815.943	2329.12
816.126	2206.67
816.309	2171.99
816.491	2084.99
816.674	2059.81
816.856	2090.81
817.039	2056.9
817.221	2148.35
817.403	2090.03
817.586	2132.85
817.768	2118.71
817.951	2046.25
818.133	2024.93
818.315	2037.33
818.498	2091.19
818.68	2165.4
818.862	2160.17
819.045	2182.64
819.227	2203.37
819.409	2083.44
819.591	2177.02
819.774	2090.61
819.956	2062.91
820.138	2180.71
820.32	2152.42
820.502	2176.44
820.684	2255.49
820.866	2261.89
821.048	2325.82
821.231	2354.11
821.413	2332.22
821.595	2289.98
821.777	2337.06
821.959	2284.17
822.141	2388.6
822.323	2200.47
822.505	2147.77
822.686	2136.34
822.868	2084.61
823.05	1934.65
823.232	1886.21
823.414	1796.31
823.596	1857.73
823.778	1874.2
823.96	1938.52
824.141	1908.88
824.323	1910.04
824.505	2043.92
824.687	2034.62
824.868	2133.24
825.05	2195.62
825.232	2254.91
825.413	2282.04
825.595	2256.46
825.777	2178.38
825.958	2227.21
826.14	2244.06
826.321	2240.19
826.503	2197.37
826.685	2244.25
826.866	2289.59
827.048	2277.58
827.229	2215
827.411	2173.73
827.592	2134.01
827.773	2121.81
827.955	2050.9
828.136	2092.36
828.318	2025.51
828.499	2076.47
828.68	2028.23
828.862	2053.61
829.043	2110.76
829.224	2056.9
829.406	2010.21
829.587	1995.1
829.768	1998.39
829.949	2042.18
830.131	2010.98
830.312	2075.89
830.493	2021.45
830.674	2056.51
830.855	2007.3
831.036	2037.72
831.218	2058.45
831.399	2126.46
831.58	2058.06
831.761	2026.68
831.942	2018.73
832.123	2059.61
832.304	1951.5
832.485	2013.7
832.666	1982.11
832.847	2026.68
833.028	2011.56
833.209	2026.87
833.389	2012.15
833.57	1917.79
833.751	1973.4
833.932	2030.94
834.113	1980.37
834.294	1962.93
834.475	2009.24
834.655	2014.66
834.836	2056.71
835.017	2037.33
835.198	1976.88
835.378	2001.49
835.559	2077.83
835.74	2003.23
835.92	2037.33
836.101	2001.3
836.281	2045.08
836.462	2066.39
836.643	2050.51
836.823	2054.77
837.004	2063.1
837.184	2096.04
837.365	2077.44
837.545	2122.19
837.726	2046.25
837.906	2127.04
838.087	2046.83
838.267	2071.04
838.448	1990.45
838.628	2051.86
838.808	2066.01
838.989	2116.58
839.169	2028.23
839.349	2078.21
839.53	2094.1
839.71	2079.18
839.89	2028.61
840.07	2108.05
840.251	2007.88
840.431	2084.99
840.611	2017.57
840.791	2022.61
840.971	2073.56
841.151	2009.24
841.332	2015.05
841.512	2051.86
841.692	1963.52
841.872	2045.47
842.052	2011.56
842.232	2021.83
842.412	1979.4
842.592	1988.9
842.772	2015.25
842.952	2029.78
843.132	1969.13
843.312	1948.79
843.492	1979.6
843.672	2051.09
843.851	1927.67
844.031	1988.51
844.211	2010.6
844.391	1970.88
844.571	1984.83
844.751	2020.28
844.93	1995.29
845.11	1927.87
845.29	1976.3
845.47	1994.32
845.649	1953.63
845.829	1972.82
846.009	1902.1
846.188	1973.98
846.368	1970.88
846.547	1951.5
846.727	2015.63
846.907	1919.15
847.086	1920.31
847.266	1985.6
847.445	1927.48
847.625	1924.77
847.804	1932.52
847.984	1945.11
848.163	1886.4
848.343	1867.42
848.522	1904.23
848.701	1902.87
848.881	1843.97
849.06	1891.25
849.239	1885.24
849.419	1913.53
849.598	1803.09
849.777	1812.2
849.957	1799.41
850.136	1744.19
850.315	1713.77
850.494	1737.99
850.674	1720.17
850.853	1775.19
851.032	1762.79
851.211	1826.73
851.39	1811.23
851.569	1734.89
851.748	1737.8
851.927	1799.6
852.107	1768.41
852.286	1724.62
852.465	1738.77
852.644	1802.32
852.823	1789.14
853.002	1726.37
853.181	1735.28
853.359	1796.12
853.538	1743.81
853.717	1773.26
853.896	1670.18
854.075	1583.19
854.254	1560.71
854.433	1492.71
854.611	1547.93
854.79	1471.4
854.969	1545.99
855.148	1561.88
855.327	1512.67
855.505	1574.66
855.684	1526.42
855.863	1568.08
856.041	1570.6
856.22	1684.71
856.399	1611.09
856.577	1687.62
856.756	1678.71
856.934	1807.94
857.113	1771.51
857.291	1697.89
857.47	1661.46
857.648	1685.49
857.827	1694.01
858.005	1715.91
858.184	1643.83
858.362	1776.94
858.541	1683.55
858.719	1687.62
858.898	1619.81
859.076	1629.69
859.254	1721.33
859.433	1647.51
859.611	1628.33
859.789	1575.83
859.967	1717.84
860.146	1731.02
860.324	1601.01
860.502	1604.11
860.68	1571.37
860.859	1596.75
861.037	1616.71
861.215	1638.02
861.393	1670.76
861.571	1626.59
861.749	1607.21
861.927	1629.49
862.105	1602.37
862.283	1532.43
862.461	1598.88
862.639	1550.64
862.817	1558.2
862.995	1577.38
863.173	1566.53
863.351	1562.85
863.529	1595.78
863.707	1633.76
863.885	1595.78
864.063	1502.59
864.241	1547.93
864.418	1632.21
864.596	1562.26
864.774	1503.75
864.952	1564.01
865.129	1582.03
865.307	1505.69
865.485	1475.27
865.663	1517.51
865.84	1472.56
866.018	1463.65
866.196	1313.88
866.373	1349.14
866.551	1313.69
866.728	1263.7
866.906	1301.29
867.084	1356.12
867.261	1391.38
867.439	1401.65
867.616	1420.25
867.794	1401.07
867.971	1402.42
868.149	1393.12
868.326	1466.55
868.503	1462.29
868.681	1451.83
868.858	1423.54
869.035	1376.65
869.213	1451.44
869.39	1409.98
869.567	1495.42
869.745	1388.86
869.922	1447.18
870.099	1451.63
870.276	1464.42
870.454	1461.9
870.631	1457.83
870.808	1402.04
870.985	1456.67
871.162	1515.57
871.339	1429.35
871.517	1378.01
871.694	1387.12
871.871	1406.88
872.048	1403.39
872.225	1359.22
872.402	1428.39
872.579	1347.79
872.756	1415.4
872.933	1316.59
873.11	1372
873.287	1406.1
873.463	1346.24
873.64	1340.81
873.817	1408.43
873.994	1377.04
874.171	1339.84
874.348	1365.8
874.524	1255.37
874.701	1311.94
874.878	1290.05
875.055	1321.63
875.231	1295.09
875.408	1350.69
875.585	1237.74
875.762	1339.46
875.938	1298.96
876.115	1294.89
876.291	1305.16
876.468	1307.87
876.645	1249.94
876.821	1284.62
876.998	1300.12
877.174	1286.76
877.351	1274.94
877.527	1235.41
877.704	1290.24
877.88	1292.37
878.057	1231.15
878.233	1327.44
878.409	1269.32
878.586	1268.16
878.762	1224.56
878.938	1256.92
879.115	1174.58
879.291	1259.83
879.467	1197.05
879.644	1235.03
879.82	1256.73
879.996	1192.79
880.172	1155.2
880.349	1241.81
880.525	1245.29
880.701	1172.45
880.877	1179.03
881.053	1236.77
881.229	1195.69
881.405	1267.38
881.581	1179.42
881.757	1204.99
881.933	1203.83
882.109	1229.02
882.285	1214.88
882.461	1149.39
882.637	1215.65
882.813	1164.31
882.989	1208.68
883.165	1225.14
883.341	1179.23
883.517	1230.57
883.693	1235.99
883.869	1208.09
884.044	1168.18
884.22	1211
884.396	1268.74
884.572	1215.65
884.747	1254.21
884.923	1231.73
885.099	1240.64
885.275	1249.17
885.45	1192.98
885.626	1177.87
885.801	1189.49
885.977	1179.03
886.153	1155.2
886.328	1213.33
886.504	1145.13
886.679	1209.84
886.855	1155.01
887.03	1164.11
887.206	1221.85
887.381	1198.21
887.557	1205.38
887.732	1228.44
887.908	1213.13
888.083	1235.41
888.258	1179.61
888.434	1157.14
888.609	1187.36
888.784	1240.45
888.96	1169.93
889.135	1152.68
889.31	1136.02
889.485	1179.03
889.661	1180.58
889.836	1208.09
890.011	1200.15
890.186	1181.16
890.361	1132.34
890.537	1206.54
890.712	1207.51
890.887	1198.79
891.062	1199.18
891.237	1248.98
891.412	1162.18
891.587	1182.91
891.762	1207.9
891.937	1244.71
892.112	1144.16
892.287	1180.39
892.462	1126.72
892.637	1101.15
892.812	1118.58
892.987	1100.18
893.161	1102.89
893.336	1102.11
893.511	1072.86
893.686	1144.55
893.861	1102.11
894.035	1102.11
894.21	1109.86
894.385	1072.28
894.56	1098.43
894.734	1049.8
894.909	1031.78
895.084	1063.95
895.258	1019.19
895.433	1062.01
895.608	995.36
895.782	973.27
895.957	969.79
896.131	981.41
896.306	887.44
896.48	896.94
896.655	939.75
896.829	823.12
897.004	834.36
897.178	879.31
897.353	842.11
897.527	870.39
897.701	889.96
897.876	819.24
898.05	905.66
898.224	876.79
898.399	911.47
898.573	847.72
898.747	764.61
898.921	805.88
899.096	676.84
899.27	722.18
899.444	715.59
899.618	758.41
899.792	765.58
899.967	765.96
900.141	835.13
900.315	722.18
900.489	781.66
900.663	748.91
900.837	764.22
901.011	706.68
901.185	802.78
901.359	765.96
901.533	770.03
901.707	774.1
901.881	750.08
902.055	717.14
902.229	732.25
902.403	825.06
902.576	777.39
902.75	775.84
902.924	844.62
903.098	832.81
903.272	863.61
903.446	907.21
903.619	872.52
903.793	908.56
903.967	889.19
904.14	958.94
904.314	944.4
904.488	921.93
904.661	945.95
904.835	926.19
905.009	943.44
905.182	959.52
905.356	933.94
905.529	920.57
905.703	917.86
905.876	889.77
906.05	871.75
906.223	850.63
906.397	768.87
906.57	780.88
906.744	774.29
906.917	762.09
907.09	765.38
907.264	766.16
907.437	718.88
907.61	706.68
907.784	716.95
907.957	748.53
908.13	677.03
908.304	749.5
908.477	666.57
908.65	675.68
908.823	665.8
908.996	754.34
909.17	687.69
909.343	669.86
909.516	684.4
909.689	678
909.862	619.49
910.035	635.57
910.208	623.75
910.381	615.42
910.554	712.49
910.727	666.96
910.9	671.8
911.073	629.57
911.246	738.65
911.419	732.83
911.592	674.9
911.765	629.76
911.938	644.1
912.11	661.73
912.283	666.96
912.456	716.56
912.629	700.09
912.802	624.33
912.974	646.62
913.147	583.26
913.32	520.49
913.493	534.63
913.665	578.03
913.838	585
914.01	581.13
914.183	605.35
914.356	596.05
914.528	636.73
914.701	687.5
914.873	665.6
915.046	595.08
915.218	546.45
915.391	497.04
915.563	490.84
915.736	574.54
915.908	610.19
916.081	600.12
916.253	601.28
916.425	584.62
916.598	627.24
916.77	601.47
916.942	535.99
917.115	505.18
917.287	559.82
917.459	527.07
917.632	531.72
917.804	463.33
917.976	550.71
918.148	548
918.32	566.21
918.493	612.13
918.665	637.51
918.837	590.62
919.009	640.03
919.181	653.2
919.353	581.13
919.525	604.18
919.697	577.25
919.869	578.42
920.041	616.39
920.213	693.11
920.385	631.89
920.557	586.36
920.729	643.71
920.901	618.72
921.073	582.48
921.244	600.5
921.416	636.35
921.588	605.54
921.76	569.5
921.932	655.92
922.103	579.77
922.275	579.38
922.447	597.4
922.619	477.67
922.79	591.59
922.962	521.65
923.134	582.1
923.305	512.35
923.477	502.47
923.648	550.52
923.82	538.7
923.991	507.5
924.163	472.24
924.335	506.54
924.506	521.65
924.677	587.33
924.849	497.43
925.02	540.25
925.192	533.27
925.363	516.22
925.535	531.92
925.706	473.6
925.877	550.71
926.049	513.9
926.22	523.39
926.391	522.42
926.562	551.87
926.734	485.22
926.905	525.52
927.076	456.94
927.247	466.62
927.419	456.55
927.59	450.93
927.761	473.41
927.932	434.27
928.103	425.36
928.274	391.84
928.445	381.18
928.616	413.92
928.787	383.51
928.958	408.5
929.129	388.35
929.3	355.8
929.471	331.58
929.642	301.75
929.813	237.23
929.984	348.44
930.155	278.11
930.326	307.56
930.496	287.21
930.667	222.7
930.838	283.92
931.009	190.15
931.18	238.97
931.35	236.84
931.521	243.81
931.692	191.12
931.863	144.03
932.033	194.6
932.204	168.45
932.374	198.09
932.545	146.17
932.716	222.5
932.886	239.36
933.057	102.77
933.227	124.47
933.398	194.22
933.568	113.04
933.739	66.73
933.909	94.82
934.08	146.17
934.25	42.51
934.421	74.29
934.591	114.59
934.761	105.09
934.932	35.92
935.102	139.97
935.272	97.73
935.443	95.4
935.613	90.37
935.783	68.47
935.953	25.66
936.123	207.78
936.294	66.15
936.464	75.64
936.634	57.43
936.804	43.29
936.974	39.02
937.144	103.93
937.314	94.24
937.484	62.27
937.655	47.36
937.825	122.14
937.995	51.23
938.165	110.71
938.334	110.13
938.504	117.88
938.674	75.84
938.844	140.74
939.014	173.87
939.184	178.72
939.354	226.57
939.524	195.38
939.694	117.3
939.863	164.18
940.033	207.97
940.203	214.95
940.373	194.8
940.542	176.58
940.712	136.09
940.882	176.58
941.051	198.48
941.221	180.07
941.391	192.47
941.56	129.31
941.73	135.32
941.899	267.06
942.069	131.64
942.238	171.93
942.408	137.45
942.577	176.97
942.747	138.42
942.916	93.08
943.086	113.23
943.255	180.65
943.425	149.27
943.594	108.39
943.763	72.54
943.933	72.35
944.102	28.17
944.271	118.07
944.441	133.77
944.61	103.35
944.779	121.75
944.948	214.75
945.117	72.74
945.287	129.89
945.456	46.19
945.625	86.49
945.794	126.21
945.963	95.4
946.132	125.24
946.301	86.3
946.47	133.77
946.639	44.64
946.808	90.75
946.977	108.77
947.146	177.36
947.315	107.8
947.484	157.98
947.653	100.83
947.822	102.96
947.991	84.55
948.16	212.82
948.329	156.05
948.498	120.2
948.666	135.9
948.835	148.3
949.004	78.94
949.173	91.34
949.341	100.05
949.51	139.58
949.679	152.56
949.847	135.12
950.016	202.93
950.185	177.36
950.353	120.79
950.522	118.65
950.69	186.47
950.859	110.13
951.028	145.58
951.196	123.11
951.365	91.14
951.533	107.03
951.701	135.32
951.87	152.56
952.038	43.29
952.207	100.64
952.375	180.27
952.543	83.59
952.712	96.18
952.88	90.56
953.048	139.97
953.217	102.77
953.385	94.82
953.553	159.34
953.721	92.69
953.89	92.5
954.058	57.24
954.226	93.85
954.394	100.05
954.562	68.67
954.73	122.14
954.898	106.25
955.067	115.75
955.235	103.93
955.403	141.13
955.571	173.68
955.739	143.84
955.907	76.42
956.075	84.55
956.243	90.95
956.41	115.94
956.578	51.62
956.746	57.04
956.914	84.75
957.082	135.12
957.25	130.86
957.418	93.66
957.585	103.74
957.753	164.38
957.921	101.41
958.089	89.98
958.256	110.52
958.424	128.54
958.592	116.91
958.759	81.84
958.927	161.86
959.095	98.7
959.262	93.08
959.43	128.15
959.597	66.15
959.765	110.32
959.932	75.64
960.1	147.52
960.267	111.87
960.435	117.1
960.602	141.52
960.77	92.69
960.937	78.74
961.104	109.94
961.272	49.87
961.439	110.9
961.606	137.45
961.774	153.53
961.941	90.95
962.108	133.96
962.275	131.83
962.443	171.93
962.61	148.68
962.777	212.23
962.944	161.08
963.111	157.6
963.278	130.86
963.446	138.8
963.613	107.03
963.78	145.97
963.947	141.71
964.114	105.29
964.281	212.04
964.448	138.42
964.615	103.35
964.782	138.8
964.949	165.54
965.116	119.62
965.282	173.48
965.449	120.98
965.616	125.63
965.783	147.52
965.95	125.05
966.117	77.77
966.283	121.95
966.45	112.84
966.617	154.11
966.784	148.3
966.95	178.13
967.117	174.07
967.284	98.12
967.45	126.99
967.617	182.98
967.784	148.88
967.95	219.79
968.117	133.77
968.283	189.37
968.45	277.33
968.616	160.7
968.783	198.67
968.949	144.23
969.116	193.63
969.282	160.89
969.449	171.16
969.615	141.13
969.781	84.17
969.948	133.57
970.114	110.52
970.28	198.67
970.447	141.32
970.613	203.13
970.779	115.55
970.945	176.78
971.112	147.52
971.278	159.53
971.444	138.61
971.61	171.35
971.776	126.6
971.942	196.15
972.108	178.33
972.275	125.24
972.441	166.51
972.607	191.5
972.773	122.34
972.939	132.6
973.105	135.32
973.271	95.4
973.437	99.47
973.602	103.35
973.768	159.92
973.934	118.65
974.1	152.95
974.266	44.45
974.432	119.43
974.598	120.59
974.763	155.08
974.929	114.39
975.095	207.78
975.261	113.23
975.426	103.74
975.592	126.02
975.758	175.42
975.923	82.23
976.089	95.4
976.255	177.36
976.42	143.07
976.586	148.49
976.751	125.05
976.917	228.7
977.082	140.35
977.248	106.64
977.413	45.81
977.579	130.67
977.744	135.9
977.91	67.7
978.075	99.86
978.24	147.72
978.406	89.2
978.571	91.34
978.736	102.96
978.902	137.06
979.067	84.55
979.232	51.04
979.397	110.13
979.563	186.47
979.728	61.11
979.893	104.12
980.058	97.54
980.223	140.55
980.388	102.19
980.554	104.51
980.719	124.66
980.884	129.89
981.049	135.12
981.214	92.5
981.379	135.7
981.544	92.69
981.709	94.63
981.874	92.3
982.039	119.43
982.204	161.08
982.368	112.45
982.533	105.87
982.698	143.45
982.863	176.58
983.028	103.15
983.193	113.42
983.357	126.99
983.522	121.75
983.687	90.75
983.852	119.62
984.016	118.07
984.181	95.99
984.346	123.89
984.51	112.45
984.675	129.7
984.839	142.48
985.004	116.52
985.168	154.69
985.333	120.2
985.498	101.8
985.662	164.57
985.827	133.38
985.991	99.47
986.155	125.05
986.32	152.37
986.484	164.38
986.649	107.61
986.813	63.63
986.977	112.26
987.142	130.09
987.306	55.88
987.47	82.81
987.634	142.29
987.799	119.04
987.963	130.47
988.127	141.9
988.291	190.15
988.455	136.29
988.62	96.18
988.784	131.05
988.948	127.57
989.112	102.57
989.276	116.72
989.44	104.12
989.604	85.91
989.768	107.22
989.932	181.23
990.096	79.9
990.26	84.36
990.424	61.5
990.588	78.35
990.752	194.41
990.915	122.72
991.079	90.95
991.243	71.38
991.407	119.24
991.571	108.39
991.734	137.45
991.898	106.25
992.062	179.3
992.226	93.66
992.389	81.45
992.553	33.41
992.717	60.92
992.88	93.66
993.044	107.8
993.207	71.96
993.371	120.2
993.535	130.86
993.698	84.94
993.862	140.93
994.025	132.41
994.189	90.17
994.352	134.35
994.515	95.6
994.679	150.43
994.842	72.93
995.006	124.66
995.169	62.27
995.332	88.82
995.496	129.12
995.659	35.54
995.822	72.35
995.985	95.21
996.149	136.48
996.312	89.59
996.475	172.13
996.638	62.66
996.801	142.68
996.964	154.3
997.128	77.97
997.291	56.65
997.454	109.35
997.617	54.91
997.78	129.5
997.943	45.22
998.106	134.74
998.269	66.34
998.432	106.64
998.595	94.05
998.758	31.08
998.92	41.35
999.083	8.99
999.246	78.16
999.409	41.16
999.572	3.96
999.735	66.73
999.897	95.02
1000.06	39.22
1000.223	58.98
1000.386	110.71
1000.548	92.5
1000.711	109.35
1000.874	87.85
1001.036	27.79
1001.199	112.84
1001.361	31.66
1001.524	80.29
1001.687	118.07
1001.849	47.94
1002.012	113.62
1002.174	82.04
1002.337	106.06
1002.499	66.34
1002.661	102.77
1002.824	31.86
1002.986	24.49
1003.149	63.44
1003.311	55.49
1003.473	131.64
1003.636	44.06
1003.798	74.29
1003.96	95.02
1004.123	56.65
1004.285	73.9
1004.447	100.25
1004.609	65.76
1004.771	123.11
1004.933	13.06
1005.096	25.66
1005.258	16.36
1005.42	29.72
1005.582	98.31
1005.744	97.92
1005.906	-1.66
1006.068	70.02
1006.23	2.41
1006.392	-0.31
1006.554	13.45
1006.716	96.57
1006.878	61.89
1007.04	-1.47
1007.202	52.59
1007.363	99.67
1007.525	42.71
1007.687	80.29
1007.849	109.94
1008.011	-12.71
1008.172	0.08
1008.334	49.87
1008.496	73.9
1008.658	-8.06
1008.819	25.66
1008.981	11.9
1009.143	2.02
1009.304	41.93
1009.466	84.75
1009.627	123.5
1009.789	161.28
1009.95	56.65
1010.112	34.37
1010.273	70.8
1010.435	30.31
1010.596	48.91
1010.758	40.38
1010.919	31.86
1011.081	-22.59
1011.242	39.99
1011.403	60.53
1011.565	55.3
1011.726	49.49
1011.887	2.6
1012.049	26.82
1012.21	78.55
1012.371	101.22
1012.532	-28.4
1012.693	47.55
1012.855	-6.7
1013.016	56.46
1013.177	84.55
1013.338	20.04
1013.499	106.25
1013.66	53.75
1013.821	64.79
1013.982	62.27
1014.143	54.33
1014.304	26.82
1014.465	54.91
1014.626	79.9
1014.787	24.69
1014.948	130.86
1015.109	-37.7
1015.27	88.43
1015.431	-15.42
1015.592	24.49
1015.752	73.12
1015.913	38.83
1016.074	29.53
1016.235	40.19
1016.395	28.76
1016.556	41.35
1016.717	21.78
1016.877	71.96
1017.038	-11.16
1017.199	38.44
1017.359	37.28
1017.52	55.88
1017.681	7.06
1017.841	21.59
1018.002	14.61
1018.162	-4.76
1018.323	99.28
1018.483	29.72
1018.644	14.03
1018.804	3.18
1018.964	16.36
1019.125	13.64
1019.285	52.39
1019.446	-0.5
1019.606	-4.38
1019.766	-29.56
1019.926	49.49
1020.087	47.74
1020.247	1.63
1020.407	54.33
1020.567	58.59
1020.728	28.95
1020.888	-3.79
1021.048	9.57
1021.208	18.1
1021.368	15.97
1021.528	65.18
1021.688	78.74
1021.848	81.07
1022.008	27.01
1022.168	2.79
1022.328	51.42
1022.488	52
1022.648	23.91
1022.808	14.61
1022.968	32.24
1023.128	-3.41
1023.288	24.49
1023.448	40.19
1023.608	48.91
1023.767	24.88
1023.927	24.88
1024.087	-7.48
1024.247	-9.61
1024.406	-3.99
1024.566	-18.52
1024.726	-17.16
1024.885	34.76
1025.045	18.29
1025.205	17.91
1025.364	30.5
1025.524	22.94
1025.683	1.05
1025.843	39.61
1026.003	15.19
1026.162	70.99
1026.321	49.49
1026.481	46
1026.64	12.09
1026.8	33.02
1026.959	16.74
1027.119	25.85
1027.278	1.05
1027.437	-8.44
1027.597	26.43
1027.756	20.04
1027.915	23.72
1028.074	40.77
1028.234	-4.18
1028.393	7.25
1028.552	7.25
1028.711	-47.58
1028.87	51.04
1029.03	-13.68
1029.189	59.75
1029.348	-27.82
1029.507	-19.88
1029.666	10.93
1029.825	-8.83
1029.984	-3.79
1030.143	43.67
1030.302	-4.57
1030.461	-53.39
1030.62	27.59
1030.779	33.79
1030.938	25.07
1031.097	-18.91
1031.255	29.34
1031.414	64.99
1031.573	63.05
1031.732	-27.82
1031.891	-3.02
1032.049	70.22
1032.208	44.84
1032.367	-0.11
1032.525	1.82
1032.684	9.96
1032.843	-4.96
1033.001	-23.36
1033.16	187.05
1033.319	78.16
1033.477	37.67
1033.636	-18.91
1033.794	-31.5
1033.953	35.92
1034.111	45.03
1034.27	-2.83
1034.428	40.77
1034.587	-24.53
1034.745	7.06
1034.903	23.52
1035.062	43.87
1035.22	-9.99
1035.378	44.64
1035.537	3.18
1035.695	42.32
1035.853	17.13
1036.011	76.8
1036.17	6.09
1036.328	-59.21
1036.486	21.97
1036.644	27.01
1036.802	-65.41
1036.96	-16.58
1037.119	-11.16
1037.277	-4.38
1037.435	-14.26
1037.593	-0.5
1037.751	17.71
1037.909	48.52
1038.067	48.52
