Data from gum_old_FLMT105791__48__15-43-10-258.txt Node

Date: Mon Mar 20 15:43:10 GMT 2023
User: antho
Spectrometer: FLMT10579
Trigger mode: 0
Integration Time (sec): 1.000000E-1
Scans to average: 10
Electric dark correction enabled: true
Nonlinearity correction enabled: false
Boxcar width: 0
XAxis mode: Wavelengths
Number of Pixels in Spectrum: 3648
>>>>>Begin Spectral Data<<<<<
345.248	-148.85
345.464	-148.85
345.681	-148.85
345.898	-192.63
346.114	-159.31
346.331	-32.79
346.548	39.48
346.764	-14.77
346.981	-21.94
347.197	-5.67
347.414	22.43
347.631	-31.63
347.847	48.58
348.064	10.8
348.28	19.52
348.497	-42.87
348.713	8.86
348.93	34.05
349.146	59.63
349.363	24.56
349.579	29.79
349.796	2.08
350.012	22.23
350.229	63.89
350.445	29.98
350.661	23.59
350.878	30.18
351.094	58.85
351.311	47.81
351.527	54.39
351.743	27.27
351.96	88.3
352.176	68.34
352.392	45.48
352.609	71.83
352.825	2.47
353.041	45.48
353.257	43.54
353.474	51.29
353.69	74.35
353.906	40.64
354.122	32.89
354.339	121.43
354.555	66.6
354.771	52.07
354.987	130.73
355.203	119.11
355.42	39.48
355.636	46.26
355.852	22.04
356.068	39.86
356.284	-10.9
356.5	110
356.716	53.81
356.932	67.57
357.148	63.69
357.364	59.24
357.58	66.79
357.796	94.31
358.012	91.21
358.228	76.48
358.444	-16.32
358.66	101.86
358.876	72.03
359.092	39.86
359.308	63.31
359.524	71.64
359.74	48.19
359.956	65.05
360.172	87.14
360.388	99.34
360.604	51.1
360.819	151.66
361.035	75.51
361.251	78.81
361.467	26.11
361.683	75.13
361.898	75.9
362.114	112.52
362.33	67.57
362.546	129.57
362.762	74.74
362.977	75.32
363.193	62.73
363.409	99.54
363.624	57.3
363.84	76.48
364.056	62.34
364.271	93.14
364.487	130.54
364.703	83.26
364.918	60.59
365.134	79.58
365.35	85.39
365.565	192.92
365.781	71.64
365.996	139.45
366.212	178.39
366.427	128.79
366.643	74.74
366.858	88.88
367.074	68.15
367.289	151.85
367.505	195.25
367.72	44.32
367.936	126.66
368.151	145.07
368.367	134.8
368.582	111.16
368.798	75.32
369.013	142.94
369.228	111.16
369.444	116.39
369.659	157.47
369.874	112.71
370.09	193.7
370.305	53.04
370.52	104.96
370.736	166.96
370.951	97.6
371.166	147.2
371.381	155.92
371.597	150.11
371.812	70.86
372.027	90.82
372.242	125.5
372.458	202.61
372.673	66.79
372.888	101.09
373.103	157.27
373.318	200.87
373.533	133.83
373.749	110.19
373.964	55.56
374.179	151.27
374.394	82.88
374.609	139.26
374.824	74.35
375.039	162.7
375.254	82.68
375.469	136.54
375.684	95.08
375.899	154.76
376.114	148.36
376.329	131.7
376.544	166.38
376.759	164.83
376.974	101.86
377.189	159.41
377.404	135.77
377.619	174.13
377.834	93.92
378.049	85.01
378.264	99.15
378.478	178.2
378.693	130.73
378.908	176.46
379.123	170.45
379.338	179.17
379.553	151.46
379.767	159.41
379.982	170.26
380.197	135.19
380.412	134.02
380.626	175.29
380.841	218.11
381.056	177.42
381.271	208.62
381.485	137.9
381.7	98.96
381.915	191.57
382.129	145.84
382.344	128.99
382.559	116.39
382.773	165.22
382.988	73.19
383.202	134.02
383.417	117.17
383.632	194.86
383.846	119.11
384.061	138.87
384.275	117.36
384.49	134.8
384.704	169.48
384.919	174.13
385.133	154.56
385.348	196.22
385.562	114.46
385.777	227.22
385.991	184.21
386.206	148.56
386.42	160.37
386.634	182.66
386.849	205.71
387.063	192.54
387.277	151.27
387.492	128.79
387.706	107.09
387.92	138.29
388.135	200.87
388.349	199.7
388.563	161.92
388.778	185.76
388.992	184.98
389.206	203.77
389.42	262.87
389.635	188.66
389.849	268.68
390.063	260.54
390.277	227.6
390.491	278.56
390.706	229.15
390.92	264.8
391.134	215.79
391.348	284.95
391.562	185.17
391.776	259.77
391.99	238.45
392.205	294.83
392.419	226.25
392.633	232.06
392.847	268.68
393.061	166.77
393.275	267.13
393.489	183.43
393.703	184.98
393.917	162.89
394.131	100.12
394.345	168.12
394.559	226.25
394.773	184.98
394.986	262.29
395.2	257.25
395.414	293.48
395.628	225.67
395.842	286.5
396.056	277.59
396.27	213.85
396.484	274.69
396.697	250.47
396.911	248.53
397.125	206.1
397.339	205.71
397.553	182.46
397.766	251.82
397.98	238.65
398.194	319.83
398.408	286.89
398.621	320.99
398.835	359.35
399.049	355.28
399.262	400.23
399.476	401.59
399.69	409.73
399.903	468.24
400.117	399.26
400.331	395.97
400.544	376.6
400.758	508.93
400.971	421.16
401.185	441.31
401.398	389.19
401.612	475.41
401.826	444.21
402.039	484.71
402.253	442.47
402.466	481.8
402.68	443.83
402.893	483.93
403.106	447.9
403.32	461.07
403.533	464.75
403.747	430.07
403.96	461.07
404.174	462.81
404.387	450.61
404.6	465.33
404.814	518.61
405.027	463.78
405.24	451
405.454	440.34
405.667	525.59
405.88	455.06
406.094	479.09
406.307	512.8
406.52	483.16
406.733	429.68
406.947	421.35
407.16	532.95
407.373	518.81
407.586	446.93
407.799	477.73
408.012	504.08
408.226	472.69
408.439	539.54
408.652	460.49
408.865	536.05
409.078	587.59
409.291	568.99
409.504	506.6
409.717	575.57
409.93	568.99
410.143	524.43
410.357	463.78
410.57	433.56
410.783	495.36
410.996	482.19
411.209	495.56
411.421	576.16
411.634	553.49
411.847	542.83
412.06	570.15
412.273	611.61
412.486	576.93
412.699	655.01
412.912	601.73
413.125	614.13
413.338	604.06
413.55	602.12
413.763	565.89
413.976	604.25
414.189	567.82
414.402	575.57
414.615	627.5
414.827	555.81
415.04	599.79
415.253	621.11
415.466	641.84
415.678	665.67
415.891	594.95
416.104	589.72
416.316	619.36
416.529	614.71
416.742	658.3
416.954	696.47
417.167	632.54
417.38	627.89
417.592	611.03
417.805	572.09
418.017	565.31
418.23	651.14
418.442	581.58
418.655	617.62
418.868	617.62
419.08	643
419.293	682.52
419.505	643.39
419.718	669.15
419.93	682.33
420.142	621.69
420.355	655.4
420.567	697.05
420.78	637.77
420.992	654.04
421.205	700.35
421.417	633.31
421.629	646.49
421.842	671.67
422.054	660.63
422.266	683.1
422.479	717.01
422.691	647.45
422.903	674.58
423.115	623.82
423.328	644.55
423.54	657.14
423.752	647.45
423.964	642.03
424.177	692.4
424.389	674.58
424.601	766.42
424.813	692.6
425.025	711
425.238	685.62
425.45	691.24
425.662	659.85
425.874	965.2
426.086	683.1
426.298	691.63
426.51	700.74
426.722	698.6
426.934	668.77
427.146	730.96
427.358	643.77
427.57	730.96
427.782	702.48
427.994	684.27
428.206	641.84
428.418	664.31
428.63	749.75
428.842	758.86
429.054	711.97
429.266	737.55
429.478	665.28
429.69	683.69
429.902	604.06
430.114	683.88
430.325	653.07
430.537	602.89
430.749	553.87
430.961	505.83
431.173	536.63
431.384	598.82
431.596	488
431.808	645.32
432.02	711.78
432.231	775.72
432.443	830.74
432.655	795.48
432.867	770.48
433.078	793.15
433.29	859.22
433.502	822.02
433.713	868.52
433.925	863.29
434.136	857.09
434.348	733.67
434.56	683.1
434.771	851.86
434.983	725.92
435.194	777.07
435.406	844.3
435.617	870.46
435.829	942.92
436.04	882.86
436.252	844.88
436.463	939.63
436.675	992.71
436.886	908.24
437.098	984.57
437.309	994.07
437.521	941.56
437.732	893.32
437.943	880.34
438.155	909.98
438.366	836.94
438.578	907.85
438.789	854.38
439	878.6
439.211	856.51
439.423	874.91
439.634	866.58
439.845	931.49
440.057	941.95
440.268	980.51
440.479	943.31
440.69	965.2
440.902	943.69
441.113	879.56
441.324	947.38
441.535	1003.56
441.746	1036.69
441.957	977.21
442.168	995.23
442.38	1043.09
442.591	1033.01
442.802	996.2
443.013	1021.77
443.224	1057.62
443.435	1055.49
443.646	1019.45
443.857	1002.01
444.068	1016.54
444.279	984.77
444.49	1143.84
444.701	1053.36
444.912	1169.6
445.123	1125.24
445.334	1086.68
445.545	1081.64
445.756	1067.5
445.967	1031.66
446.178	1063.24
446.388	1053.94
446.599	1063.82
446.81	1057.42
447.021	1023.71
447.232	1101.4
447.443	1128.34
447.653	1084.74
447.864	1169.41
448.075	1156.04
448.286	1171.15
448.496	1111.67
448.707	1181.81
448.918	1108.96
449.129	1225.02
449.339	1113.42
449.55	1171.54
449.761	1154.49
449.971	1184.72
450.182	1119.23
450.393	1197.12
450.603	1162.24
450.814	1236.83
451.024	1209.13
451.235	1228.12
451.446	1295.93
451.656	1277.71
451.867	1206.42
452.077	1218.04
452.288	1305.42
452.498	1278.68
452.709	1188.01
452.919	1206.42
453.13	1153.72
453.34	1204.28
453.55	1104.31
453.761	1169.8
453.971	1182.2
454.182	1217.85
454.392	1184.72
454.602	1257.56
454.813	1241.29
455.023	1241.68
455.233	1190.53
455.444	1238
455.654	1121.55
455.864	1216.49
456.075	1204.28
456.285	1182.78
456.495	1250.98
456.705	1263.76
456.916	1282.95
457.126	1318.21
457.336	1278.68
457.546	1217.07
457.756	1251.95
457.967	1344.36
458.177	1255.82
458.387	1262.02
458.597	1221.53
458.807	1286.24
459.017	1205.83
459.227	1242.65
459.437	1225.6
459.647	1292.83
459.857	1236.64
460.068	1288.76
460.278	1316.46
460.488	1274.23
460.698	1344.75
460.908	1277.71
461.117	1267.64
461.327	1275.2
461.537	1322.86
461.747	1327.51
461.957	1281.01
462.167	1426.9
462.377	1396.29
462.587	1295.73
462.797	1357.54
463.007	1355.6
463.216	1416.05
463.426	1432.13
463.636	1373.81
463.846	1296.9
464.056	1320.15
464.265	1349.59
464.475	1288.76
464.685	1372.26
464.895	1337
465.104	1290.89
465.314	1406.94
465.524	1325.76
465.733	1335.06
465.943	1424.38
466.153	1460.03
466.362	1434.07
466.572	1400.94
466.782	1353.08
466.991	1407.72
467.201	1426.51
467.41	1282.75
467.62	1404.81
467.829	1386.02
468.039	1442.21
468.249	1411.01
468.458	1442.21
468.668	1455.19
468.877	1462.74
469.086	1505.56
469.296	1520.87
469.505	1493.36
469.715	1536.37
469.924	1484.06
470.134	1540.82
470.343	1502.46
470.552	1479.21
470.762	1470.88
470.971	1420.12
471.18	1477.08
471.39	1490.06
471.599	1482.7
471.808	1528.81
472.018	1539.85
472.227	1592.17
472.436	1623.55
472.645	1625.1
472.855	1590.81
473.064	1705.51
473.273	1649.9
473.482	1630.92
473.691	1679.74
473.901	1615.42
474.11	1617.16
474.319	1740.19
474.528	1691.95
474.737	1780.88
474.946	1758.4
475.155	1766.15
475.364	1811.1
475.573	1737.48
475.783	1810.33
475.992	1775.84
476.201	1814.2
476.41	1787.85
476.619	1732.44
476.828	1795.99
477.037	1767.7
477.245	1770.22
477.454	1868.84
477.663	1879.69
477.872	1832.22
478.081	1980.05
478.29	1866.12
478.499	1979.08
478.708	1987.8
478.917	2036.43
479.125	1926.19
479.334	1935.1
479.543	1947.3
479.752	2045.53
479.961	2032.17
480.169	2064.33
480.378	2052.7
480.587	2216.61
480.796	2101.92
481.004	2103.08
481.213	2127.88
481.422	2089.52
481.63	2144.15
481.839	2145.51
482.048	2237.93
482.256	2153.06
482.465	2251.49
482.674	2222.81
482.882	2254.2
483.091	2293.34
483.299	2228.24
483.508	2292.76
483.716	2319.11
483.925	2247.61
484.134	2246.84
484.342	2277.45
484.551	2268.73
484.759	2282.49
484.967	2320.27
485.176	2320.07
485.384	2321.24
485.593	2366.57
485.801	2310
486.01	2237.54
486.218	2150.74
486.426	2036.62
486.635	1989.93
486.843	1962.03
487.051	2069.95
487.26	2068.2
487.468	2111.99
487.676	2247.61
487.885	2232.11
488.093	2278.03
488.301	2360.18
488.509	2373.16
488.717	2479.92
488.926	2420.63
489.134	2375.29
489.342	2418.89
489.55	2391.95
489.758	2402.42
489.967	2464.22
490.175	2584.15
490.383	2540.17
490.591	2659.91
490.799	2559.55
491.007	2643.05
491.215	2618.83
491.423	2564.58
491.631	2628.52
491.839	2606.05
492.047	2627.36
492.255	2478.37
492.463	2471.97
492.671	2461.32
492.879	2554.32
493.087	2540.56
493.295	2575.82
493.503	2614.57
493.711	2722.1
493.919	2700.4
494.127	2661.46
494.334	2712.99
494.542	2602.17
494.75	2718.03
494.958	2672.5
495.166	2833.12
495.374	2775.19
495.581	2815.49
495.789	2761.04
495.997	2895.5
496.205	2738.76
496.412	2730.82
496.62	2762.59
496.828	2813.16
497.035	2799.02
497.243	2802.31
497.451	2794.76
497.658	2853.65
497.866	2824.4
498.074	2856.95
498.281	2774.41
498.489	2891.82
498.696	2773.83
498.904	2718.61
499.112	2730.62
499.319	2831.57
499.527	2808.12
499.734	2874.19
499.942	2755.04
500.149	2752.52
500.357	2890.85
500.564	2741.09
500.771	2795.53
500.979	2730.43
501.186	2719.58
501.394	2776.16
501.601	2724.23
501.808	2751.94
502.016	2730.24
502.223	2703.69
502.43	2736.63
502.638	2683.74
502.845	2756.97
503.052	2884.27
503.26	2748.84
503.467	2886.98
503.674	2897.83
503.881	2853.65
504.089	2897.83
504.296	2828.66
504.503	2766.66
504.71	2782.16
504.917	2764.92
505.125	2824.2
505.332	2928.83
505.539	2894.73
505.746	2964.28
505.953	2969.13
506.16	2960.6
506.367	3038.68
506.574	3065.03
506.781	3040.81
506.988	3025.12
507.195	2953.63
507.402	2959.25
507.609	2983.08
507.816	2924.95
508.023	2939.1
508.23	2889.3
508.437	2821.3
508.644	2911.78
508.851	2952.66
509.058	2975.52
509.265	2962.73
509.472	2995.67
509.679	3110.76
509.885	3003.42
510.092	3016.79
510.299	2964.28
510.506	2947.43
510.713	2973
510.92	2951.69
511.126	3013.11
511.333	2994.31
511.54	3009.81
511.746	3109.59
511.953	3094.09
512.16	3103.78
512.367	3043.14
512.573	3087.31
512.78	3045.08
512.987	3018.53
513.193	2991.02
513.4	2923.6
513.606	3039.26
513.813	3031.71
514.02	3017.56
514.226	3011.36
514.433	3051.28
514.639	2953.05
514.846	2961.77
515.052	2944.91
515.259	3010.2
515.465	3046.82
515.672	3006.91
515.878	3086.93
516.085	3082.28
516.291	3105.53
516.497	3062.71
516.704	2988.31
516.91	2901.51
517.117	2801.54
517.323	2703.5
517.529	2702.34
517.736	2691.49
517.942	2710.86
518.148	2730.24
518.354	2811.42
518.561	2865.09
518.767	2834.28
518.973	2880.2
519.179	2860.82
519.386	2897.44
519.592	2882.91
519.798	2895.7
520.004	3099.91
520.21	2995.09
520.417	3116.38
520.623	3135.94
520.829	3118.12
521.035	3144.86
521.241	3141.37
521.447	3152.22
521.653	3296.17
521.859	3143.11
522.065	3181.09
522.271	3275.25
522.477	3257.04
522.683	3301.6
522.889	3239.41
523.095	3168.3
523.301	3170.82
523.507	3127.03
523.713	3210.15
523.919	3152.41
524.125	3269.82
524.331	3270.21
524.537	3355.27
524.742	3377.74
524.948	3366.5
525.154	3387.23
525.36	3491.28
525.566	3395.57
525.772	3463.18
525.977	3336.86
526.183	3350.62
526.389	3401.38
526.595	3285.13
526.8	3271.76
527.006	3146.21
527.212	3055.15
527.417	3030.16
527.623	3023.76
527.829	3107.66
528.034	3185.35
528.24	3178.76
528.446	3220.81
528.651	3403.7
528.857	3340.35
529.062	3439.74
529.268	3482.75
529.473	3492.44
529.679	3549.4
529.884	3592.22
530.09	3583.69
530.295	3489.92
530.501	3512.2
530.706	3507.75
530.912	3491.28
531.117	3553.66
531.323	3566.45
531.528	3636.59
531.733	3688.51
531.939	3595.9
532.144	3594.93
532.35	3562.58
532.555	3669.52
532.76	3544.94
532.966	3517.43
533.171	3484.69
533.376	3409.71
533.581	3399.25
533.787	3482.56
533.992	3564.9
534.197	3568.19
534.402	3547.08
534.607	3589.31
534.813	3636.59
535.018	3563.35
535.223	3665.46
535.428	3585.05
535.633	3638.72
535.838	3721.84
536.043	3719.32
536.249	3840.22
536.454	3696.07
536.659	3724.94
536.864	3723.97
537.069	3708.85
537.274	3653.83
537.479	3623.8
537.684	3665.07
537.889	3576.33
538.094	3710.4
538.299	3672.62
538.504	3654.8
538.708	3669.33
538.913	3724.55
539.118	3721.64
539.323	3709.82
539.528	3644.14
539.733	3692.77
539.938	3640.27
540.142	3671.85
540.347	3628.45
540.552	3588.54
540.757	3555.02
540.962	3575.36
541.166	3490.5
541.371	3520.14
541.576	3577.49
541.781	3478.88
541.985	3662.94
542.19	3592.99
542.395	3704.98
542.599	3712.92
542.804	3666.81
543.008	3739.27
543.213	3664.29
543.418	3667.01
543.622	3709.05
543.827	3647.44
544.031	3717.19
544.236	3759.42
544.44	3733.46
544.645	3789.65
544.849	3711.57
545.054	3735.4
545.258	3877.22
545.463	3837.89
545.667	3665.84
545.872	3791.78
546.076	3745.86
546.281	3765.04
546.485	3724.16
546.689	3739.85
546.894	3786.55
547.098	3787.13
547.302	3698.97
547.507	3717.19
547.711	3786.93
547.915	3734.24
548.119	3653.06
548.324	3650.54
548.528	3726.87
548.732	3675.53
548.936	3726.29
549.141	3744.89
549.345	3710.21
549.549	3740.63
549.753	3735.98
549.957	3806.5
550.161	3821.81
550.366	3809.02
550.57	3721.06
550.774	3785.97
550.978	3748.19
551.182	3754.39
551.386	3707.89
551.59	3723.77
551.794	3679.6
551.998	3759.23
552.202	3773.37
552.406	3722.8
552.61	3815.61
552.814	3806.12
553.018	3800.3
553.222	3723.97
553.426	3700.52
553.63	3823.36
553.833	3724.55
554.037	3635.23
554.241	3737.53
554.445	3711.76
554.649	3759.81
554.853	3700.91
555.056	3783.83
555.26	3788.1
555.464	3772.4
555.668	3823.55
555.871	3799.33
556.075	3818.52
556.279	3726.29
556.483	3718.35
556.686	3707.69
556.89	3709.44
557.094	3728.42
557.297	3597.84
557.501	3708.47
557.704	3597.84
557.908	3684.64
558.112	3638.14
558.315	3719.12
558.519	3665.26
558.722	3616.05
558.926	3563.93
559.129	3501.74
559.333	3497.86
559.536	3524.02
559.74	3463.96
559.943	3459.11
560.147	3459.89
560.35	3459.31
560.553	3508.13
560.757	3457.37
560.96	3578.27
561.164	3549.21
561.367	3674.17
561.57	3539.91
561.774	3547.46
561.977	3533.13
562.18	3524.79
562.384	3596.09
562.587	3507.55
562.79	3526.73
562.993	3512.78
563.197	3507.36
563.4	3571.88
563.603	3513.95
563.806	3643.76
564.009	3532.54
564.212	3562.96
564.416	3459.31
564.619	3552.89
564.822	3460.86
565.025	3514.53
565.228	3480.43
565.431	3508.91
565.634	3398.86
565.837	3463.38
566.04	3384.13
566.243	3364.18
566.446	3294.62
566.649	3386.07
566.852	3278.93
567.055	3341.12
567.258	3345.38
567.461	3481.4
567.664	3445.55
567.867	3364.57
568.07	3415.13
568.273	3373.28
568.475	3466.86
568.678	3367.67
568.881	3342.28
569.084	3286.29
569.287	3171.59
569.489	3271.18
569.692	3315.55
569.895	3343.45
570.098	3201.43
570.3	3231.07
570.503	3168.3
570.706	3181.28
570.909	3130.91
571.111	3125.68
571.314	3118.31
571.516	3130.71
571.719	3186.51
571.922	3118.12
572.124	3121.61
572.327	3177.79
572.529	3138.46
572.732	3170.04
572.935	3217.51
573.137	3308.77
573.34	3116.38
573.542	3199.69
573.745	3206.66
573.947	3188.64
574.15	3141.37
574.352	3144.86
574.554	3232.62
574.757	3140.4
574.959	3121.8
575.162	3193.49
575.364	3099.91
575.566	3154.74
575.769	3060.38
575.971	3110.37
576.173	2943.17
576.376	3084.02
576.578	3120.06
576.78	3109.59
576.982	2960.02
577.185	3044.69
577.387	3015.05
577.589	3019.31
577.791	3097.97
577.993	3074.53
578.196	3044.5
578.398	3061.93
578.6	3045.66
578.802	2962.73
579.004	2958.86
579.206	2961.18
579.408	3034.81
579.61	2940.07
579.812	3047.21
580.014	2998.58
580.216	2979.78
580.418	3039.26
580.62	3002.84
580.822	2952.85
581.024	3019.5
581.226	3036.75
581.428	2974.94
581.63	3093.71
581.832	2989.67
582.034	3071.81
582.236	3043.33
582.438	3056.12
582.64	3134.59
582.841	3144.66
583.043	3170.04
583.245	3031.9
583.447	3057.48
583.649	3040.81
583.85	3044.3
584.052	3046.82
584.254	3007.49
584.456	3068.13
584.657	2992.96
584.859	3001.87
585.061	2988.12
585.262	3006.13
585.464	2910.23
585.666	2974.75
585.867	2912.94
586.069	2992.57
586.27	2934.06
586.472	2897.44
586.674	2891.24
586.875	2911.97
587.077	2864.12
587.278	2926.7
587.48	2900.15
587.681	3050.11
587.883	2940.84
588.084	2852.69
588.285	2888.53
588.487	2847.65
588.688	2880.39
588.89	2748.45
589.091	2712.22
589.292	2715.13
589.494	2630.65
589.695	2552.18
589.896	2474.49
590.098	2496.97
590.299	2606.24
590.5	2550.83
590.702	2621.55
590.903	2688.58
591.104	2730.62
591.305	2728.11
591.507	2752.91
591.708	2736.44
591.909	2727.53
592.11	2795.14
592.311	2801.92
592.512	2724.81
592.714	2740.51
592.915	2734.11
593.116	2729.85
593.317	2787.2
593.518	2737.6
593.719	2732.56
593.92	2776.54
594.121	2807.54
594.322	2784.68
594.523	2746.71
594.724	2672.89
594.925	2728.11
595.126	2702.73
595.327	2731.79
595.528	2726.17
595.729	2751.74
595.929	2746.32
596.13	2727.33
596.331	2791.07
596.532	2742.44
596.733	2822.27
596.934	2755.23
597.135	2808.71
597.335	2774.61
597.536	2717.26
597.737	2787.97
597.938	2745.16
598.138	2766.86
598.339	2716.68
598.54	2768.6
598.74	2651.19
598.941	2710.28
599.142	2805.8
599.342	2752.52
599.543	2693.81
599.744	2705.63
599.944	2694.78
600.145	2716.29
600.345	2700.01
600.546	2787.39
600.746	2781.77
600.947	2783.91
601.147	2717.26
601.348	2756.59
601.548	2709.51
601.749	2677.34
601.949	2649.83
602.15	2664.36
602.35	2635.11
602.551	2680.44
602.751	2614.18
602.951	2672.11
603.152	2596.16
603.352	2682.19
603.552	2641.7
603.753	2710.09
603.953	2755.04
604.153	2701.95
604.354	2668.82
604.554	2699.04
604.754	2697.69
604.954	2637.43
605.155	2692.46
605.355	2705.44
605.555	2715.71
605.755	2758.72
605.955	2659.13
606.155	2727.33
606.356	2699.24
606.556	2708.93
606.756	2711.83
606.956	2612.63
607.156	2740.31
607.356	2601.2
607.556	2642.66
607.756	2680.25
607.956	2708.54
608.156	2645.57
608.356	2614.18
608.556	2649.25
608.756	2601.2
608.956	2591.51
609.156	2612.63
609.356	2578.92
609.556	2557.61
609.755	2585.12
609.955	2524.28
610.155	2541.72
610.355	2599.26
610.555	2532.81
610.755	2504.33
610.954	2451.24
611.154	2581.63
611.354	2596.94
611.554	2549.47
611.753	2576.01
611.953	2458.99
612.153	2538.23
612.352	2539.4
612.552	2485.34
612.752	2486.12
612.951	2533.58
613.151	2475.65
613.351	2493.48
613.55	2500.45
613.75	2509.37
613.949	2432.64
614.149	2450.27
614.348	2482.43
614.548	2411.91
614.747	2396.99
614.947	2396.8
615.146	2384.59
615.346	2511.88
615.545	2490.57
615.745	2474.68
615.944	2454.34
616.144	2403.19
616.343	2420.05
616.542	2363.47
616.742	2385.37
616.941	2351.07
617.14	2292.37
617.34	2387.89
617.539	2394.47
617.738	2320.07
617.938	2471.39
618.137	2384.79
618.336	2353.79
618.535	2420.24
618.734	2365.61
618.934	2417.92
619.133	2400.09
619.332	2448.72
619.531	2358.63
619.73	2417.53
619.929	2414.62
620.128	2437.29
620.328	2473.33
620.527	2390.79
620.726	2404.55
620.925	2423.73
621.124	2430.12
621.323	2363.47
621.522	2299.73
621.721	2324.14
621.92	2320.07
622.119	2364.06
622.318	2311.74
622.517	2358.44
622.715	2327.44
622.914	2303.02
623.113	2310.58
623.312	2205.57
623.511	2325.89
623.71	2250.52
623.909	2246.45
624.107	2355.72
624.306	2257.69
624.505	2233.28
624.704	2272.03
624.902	2210.99
625.101	2302.06
625.3	2249.16
625.499	2217.97
625.697	2210.41
625.896	2188.71
626.095	2217.19
626.293	2147.25
626.492	2224.75
626.69	2249.94
626.889	2188.71
627.088	2218.36
627.286	2209.06
627.485	2212.93
627.683	2158.3
627.882	2199.95
628.08	2108.12
628.279	2139.7
628.477	2171.28
628.676	2096.68
628.874	2182.51
629.073	2113.93
629.271	2096.3
629.469	2119.93
629.668	2179.03
629.866	2103.47
630.065	2109.08
630.263	2119.74
630.461	2079.44
630.66	2109.28
630.858	2107.34
631.056	2164.88
631.254	2121.29
631.453	2064.52
631.651	2147.45
631.849	2117.61
632.047	2106.18
632.245	2076.53
632.444	2126.52
632.642	2121.68
632.84	2134.08
633.038	2069.56
633.236	2092.81
633.434	2085.64
633.632	2105.4
633.83	2075.76
634.028	2180.19
634.227	2117.22
634.425	2231.73
634.623	2172.05
634.821	2117.8
635.019	2132.33
635.216	2144.15
635.414	2179.61
635.612	2118.96
635.81	2133.11
636.008	2180.19
636.206	2150.55
636.404	2164.88
636.602	2081.38
636.8	2117.03
636.997	2160.43
637.195	2183.87
637.393	2130.98
637.591	2172.63
637.789	2169.73
637.986	2136.21
638.184	2168.95
638.382	2218.94
638.58	2175.35
638.777	2232.69
638.975	2158.1
639.173	2153.65
639.37	2164.88
639.568	2156.55
639.765	2166.05
639.963	2147.83
640.161	2106.37
640.358	2135.82
640.556	2052.12
640.753	2080.99
640.951	2100.75
641.148	2114.51
641.346	2065.3
641.543	2073.82
641.741	2117.8
641.938	2025.77
642.136	2081.18
642.333	2050.18
642.531	2131.17
642.728	2124
642.925	2100.37
643.123	2052.51
643.32	2080.6
643.517	2056.97
643.715	2082.93
643.912	2053.09
644.109	2060.84
644.306	2051.15
644.504	2034.3
644.701	2054.25
644.898	2070.53
645.095	2004.46
645.293	2045.92
645.49	2048.05
645.687	2025
645.884	2063.36
646.081	1938.2
646.278	1956.6
646.475	1963.58
646.672	1980.05
646.87	1996.9
647.067	1972.69
647.264	1988.19
647.461	1928.71
647.658	1916.31
647.855	1982.18
648.052	1909.91
648.249	1838.42
648.446	1928.32
648.642	1905.07
648.839	1891.31
649.036	1877.17
649.233	1822.92
649.43	1862.06
649.627	1809.55
649.824	1841.13
650.021	1830.28
650.217	1817.88
650.414	1835.13
650.611	1881.62
650.808	1920.76
651.004	1883.76
651.201	1887.63
651.398	1968.42
651.595	1924.06
651.791	1868.64
651.988	1937.42
652.185	1838.23
652.381	1889.37
652.578	1803.93
652.775	1898.87
652.971	1872.71
653.168	1855.28
653.364	1874.46
653.561	1804.71
653.757	1825.44
653.954	1904.49
654.15	1831.83
654.347	1900.81
654.543	1858.37
654.74	1803.74
654.936	1794.05
655.133	1820.79
655.329	1804.13
655.525	1787.08
655.722	1822.53
655.918	1727.98
656.115	1776.81
656.311	1657.85
656.507	1585.19
656.704	1516.99
656.9	1580.15
657.096	1577.44
657.292	1590.04
657.489	1616.19
657.685	1652.81
657.881	1648.74
658.077	1703.18
658.273	1718.88
658.47	1787.66
658.666	1750.65
658.862	1813.23
659.058	1756.85
659.254	1809.55
659.45	1749.68
659.646	1770.22
659.842	1789.21
660.038	1833.96
660.234	1737.09
660.43	1803.74
660.626	1891.51
660.822	1847.53
661.018	1842.49
661.214	1819.63
661.41	1787.27
661.606	1844.04
661.802	1865.54
661.998	1850.24
662.194	1801.8
662.39	1852.56
662.586	1837.84
662.781	1853.73
662.977	1876.2
663.173	1811.49
663.369	1801.8
663.564	1834.93
663.76	1850.43
663.956	1784.75
664.152	1813.43
664.347	1743.29
664.543	1809.16
664.739	1774.29
664.934	1732.05
665.13	1712.48
665.326	1839.97
665.521	1813.81
665.717	1740.58
665.912	1781.46
666.108	1684.78
666.304	1785.91
666.499	1771.38
666.695	1658.82
666.89	1762.86
667.086	1789.21
667.281	1770.61
667.477	1798.89
667.672	1791.92
667.867	1757.63
668.063	1766.93
668.258	1748.52
668.454	1786.3
668.649	1823.89
668.844	1757.43
669.04	1768.28
669.235	1733.02
669.43	1735.93
669.626	1692.53
669.821	1754.72
670.016	1721.98
670.211	1754.72
670.407	1702.02
670.602	1757.82
670.797	1689.23
670.992	1784.94
671.187	1714.23
671.382	1767.51
671.578	1718.1
671.773	1704.73
671.968	1680.32
672.163	1697.95
672.358	1728.95
672.553	1676.45
672.748	1681.48
672.943	1785.33
673.138	1698.53
673.333	1739.03
673.528	1616.19
673.723	1749.49
673.918	1700.28
674.113	1657.46
674.308	1779.91
674.503	1720.04
674.698	1736.12
674.892	1673.15
675.087	1721.4
675.282	1706.28
675.477	1672.77
675.672	1694.27
675.867	1658.82
676.061	1656.49
676.256	1637.7
676.451	1672.96
676.646	1668.12
676.84	1639.25
677.035	1613.48
677.23	1625.88
677.424	1696.98
677.619	1704.15
677.814	1740.58
678.008	1725.08
678.203	1655.91
678.397	1639.05
678.592	1670.44
678.787	1698.92
678.981	1672.96
679.176	1713.45
679.37	1670.05
679.565	1638.86
679.759	1632.27
679.954	1653.2
680.148	1659.98
680.342	1715.97
680.537	1656.68
680.731	1644.48
680.926	1682.65
681.12	1638.86
681.314	1644.48
681.509	1618.32
681.703	1631.88
681.897	1642.35
682.092	1635.37
682.286	1611.54
682.48	1674.32
682.674	1633.05
682.869	1618.71
683.063	1651.26
683.257	1661.92
683.451	1567.56
683.645	1648.35
683.839	1615.61
684.034	1575.5
684.228	1602.24
684.422	1558.07
684.616	1559.81
684.81	1597.01
685.004	1556.32
685.198	1564.85
685.392	1584.61
685.586	1535.4
685.78	1588.87
685.974	1633.82
686.168	1550.32
686.362	1638.08
686.556	1479.41
686.75	1453.44
686.944	1412.56
687.138	1399.19
687.331	1293.8
687.525	1288.76
687.719	1212.23
687.913	1299.61
688.107	1308.13
688.301	1254.66
688.494	1346.69
688.688	1267.83
688.882	1245.36
689.076	1253.88
689.269	1279.85
689.463	1359.09
689.657	1295.15
689.85	1305.61
690.044	1330.03
690.238	1325.76
690.431	1351.14
690.625	1319.95
690.818	1378.66
691.012	1413.73
691.205	1411.01
691.399	1341.26
691.593	1404.04
691.786	1442.98
691.98	1438.72
692.173	1498.97
692.366	1432.32
692.56	1516.22
692.753	1492.19
692.947	1397.45
693.14	1481.15
693.333	1493.74
693.527	1431.55
693.72	1457.32
693.914	1420.12
694.107	1436.78
694.3	1457.9
694.493	1414.11
694.687	1474.76
694.88	1431.94
695.073	1504.59
695.266	1477.47
695.46	1435.04
695.653	1514.28
695.846	1509.44
696.039	1430.58
696.232	1474.37
696.425	1541.21
696.618	1539.47
696.812	1541.6
697.005	1595.65
697.198	1685.75
697.391	1597.59
697.584	1628.78
697.777	1644.28
697.97	1580.54
698.163	1627.23
698.356	1608.83
698.549	1669.28
698.742	1653.39
698.935	1622.97
699.127	1660.56
699.32	1616.97
699.513	1612.12
699.706	1627.62
699.899	1676.45
700.092	1645.25
700.285	1697.95
700.477	1607.47
700.67	1709.38
700.863	1707.06
701.056	1800.64
701.248	1775.84
701.441	1742.13
701.634	1694.08
701.826	1809.94
702.019	1728.37
702.212	1779.91
702.404	1707.45
702.597	1745.23
702.79	1775.26
702.982	1793.28
703.175	1833.96
703.367	1834.74
703.56	1862.44
703.752	1969.78
703.945	1901.58
704.137	1911.07
704.33	1926.19
704.522	1943.24
704.715	1955.05
704.907	1978.89
705.1	2016.47
705.292	2002.52
705.484	1997.49
705.677	2023.45
705.869	2049.6
706.061	2072.85
706.254	2164.11
706.446	2124.97
706.638	2088.55
706.831	2191.62
707.023	2132.91
707.215	2233.86
707.407	2221.65
707.599	2246.64
707.792	2300.12
707.984	2271.83
708.176	2307.48
708.368	2250.91
708.56	2342.36
708.752	2333.83
708.944	2288.88
709.136	2361.54
709.329	2334.8
709.521	2457.83
709.713	2423.15
709.905	2444.46
710.097	2462.09
710.289	2455.12
710.481	2461.51
710.672	2509.75
710.864	2513.24
711.056	2533.2
711.248	2517.12
711.44	2567.3
711.632	2582.99
711.824	2591.9
712.016	2666.88
712.207	2680.25
712.399	2661.84
712.591	2754.84
712.783	2708.73
712.975	2750.58
713.166	2716.48
713.358	2682.58
713.55	2793.79
713.741	2778.09
713.933	2811.81
714.125	2775.38
714.316	2786.62
714.508	2834.47
714.7	2916.82
714.891	2838.15
715.083	2934.64
715.274	2870.7
715.466	2914.88
715.657	2943.75
715.849	2884.85
716.04	2909.84
716.232	2872.64
716.423	2931.54
716.615	2825.17
716.806	2854.04
716.998	2807.35
717.189	2725.39
717.381	2676.96
717.572	2609.73
717.763	2614.76
717.955	2600.23
718.146	2582.6
718.337	2549.28
718.528	2508.78
718.72	2438.07
718.911	2507.23
719.102	2452.6
719.293	2498.52
719.485	2493.28
719.676	2456.09
719.867	2427.99
720.058	2441.55
720.249	2445.62
720.44	2451.24
720.632	2544.24
720.823	2601.59
721.014	2691.68
721.205	2718.61
721.396	2837.19
721.587	2922.63
721.778	2985.02
721.969	3043.72
722.16	3115.6
722.351	3124.9
722.542	3272.54
722.733	3268.66
722.924	3220.22
723.115	3264.59
723.305	3232.62
723.496	3264.01
723.687	3103.59
723.878	3124.51
724.069	3142.34
724.26	3161.13
724.45	3104.36
724.641	3103.2
724.832	3124.9
725.023	3075.5
725.213	3107.66
725.404	3095.84
725.595	3091.58
725.785	3059.8
725.976	3181.67
726.167	3183.41
726.357	3182.25
726.548	3330.27
726.739	3213.06
726.929	3328.72
727.12	3324.85
727.31	3346.35
727.501	3315.94
727.691	3326.4
727.882	3345.97
728.072	3385.3
728.263	3366.7
728.453	3479.26
728.644	3474.42
728.834	3416.68
729.024	3421.14
729.215	3450.98
729.405	3445.94
729.596	3514.33
729.786	3493.6
729.976	3584.66
730.167	3575.75
730.357	3573.23
730.547	3569.36
730.737	3589.7
730.928	3668.36
731.118	3738.3
731.308	3657.32
731.498	3660.81
731.688	3791.78
731.879	3797.98
732.069	3833.24
732.259	3880.9
732.449	3917.33
732.639	4001.03
732.829	4008.78
733.019	4056.82
733.209	4069.61
733.399	4142.27
733.589	4237.98
733.779	4270.14
733.969	4241.27
734.159	4318
734.349	4355.78
734.539	4417.39
734.729	4442.96
734.919	4462.53
735.109	4556.5
735.299	4421.46
735.488	4484.42
735.678	4491.4
735.868	4505.54
736.058	4507.09
736.248	4509.81
736.437	4392.39
736.627	4419.52
736.817	4619.47
737.007	4537.71
737.196	4615.98
737.386	4548.17
737.576	4530.15
737.765	4658.41
737.955	4571.61
738.144	4739.4
738.334	4610.75
738.524	4541.19
738.713	4632.84
738.903	4659.57
739.092	4688.63
739.282	4673.33
739.471	4744.43
739.661	4677.4
739.85	4780.28
740.04	4742.3
740.229	4794.81
740.419	4803.72
740.608	4811.28
740.797	4827.16
740.987	4898.08
741.176	4857.78
741.365	4791.13
741.555	4708.98
741.744	4912.22
741.933	4813.02
742.123	4822.71
742.312	4924.81
742.501	4925.2
742.69	4896.33
742.88	4825.61
743.069	4966.27
743.258	4912.61
743.447	4976.93
743.636	4947.67
743.825	4935.27
744.014	4942.64
744.204	5021.88
744.393	4929.46
744.582	5036.6
744.771	5014.32
744.96	4938.96
745.149	5043.19
745.338	4927.52
745.527	5123.21
745.716	5006.19
745.905	4956.39
746.094	5083.1
746.283	5032.34
746.471	5071.09
746.66	5105.97
746.849	5082.14
747.038	5123.98
747.227	5075.94
747.416	5100.73
747.604	5049.78
747.793	5066.25
747.982	5083.49
748.171	5088.14
748.359	5061.79
748.548	5071.29
748.737	5066.44
748.926	5122.24
749.114	5004.05
749.303	5071.29
749.491	5099.57
749.68	4990.11
749.869	5092.79
750.057	5023.82
750.246	5013.74
750.434	5043.97
750.623	5043
750.811	5005.41
751	5049.78
751.188	5007.54
751.377	4986.23
751.565	4982.94
751.754	4981.58
751.942	4951.55
752.131	5063.73
752.319	4964.72
752.507	4904.47
752.696	4980.42
752.884	5029.05
753.072	4941.47
753.261	5031.18
753.449	4980.03
753.637	4922.29
753.825	5020.91
754.014	4974.61
754.202	5026.53
754.39	5034.09
754.578	5044.94
754.766	4970.34
754.955	4905.63
755.143	5007.74
755.331	4922.68
755.519	4987.01
755.707	4973.44
755.895	4926.75
756.083	4935.08
756.271	4875.79
756.459	4906.02
756.647	4952.52
756.835	4860.88
757.023	4841.89
757.211	4849.44
757.399	4805.46
757.587	4852.54
757.775	4780.86
757.963	4810.31
758.151	4813.21
758.339	4753.93
758.526	4752.76
758.714	4813.8
758.902	4711.3
759.09	4622.37
759.278	4393.17
759.465	4123.86
759.653	3699.17
759.841	3440.51
760.028	3008.85
760.216	2650.22
760.404	2513.82
760.591	2159.07
760.779	1878.72
760.967	1677.42
761.154	1470.49
761.342	1557.1
761.529	1550.51
761.717	1648.74
761.905	1680.71
762.092	1835.51
762.28	1777
762.467	1784.36
762.655	1716.55
762.842	1753.36
763.029	1840.36
763.217	1824.66
763.404	1851.4
763.592	1885.31
763.779	1850.63
763.966	1916.89
764.154	1995.55
764.341	2062
764.528	2071.88
764.716	2146.48
764.903	2199.95
765.09	2285.39
765.277	2334.02
765.465	2539.78
765.652	2605.08
765.839	2673.86
766.026	2825.37
766.213	2912.75
766.4	2997.41
766.588	3193.68
766.775	3251.61
766.962	3334.15
767.149	3418.43
767.336	3598.81
767.523	3563.93
767.71	3702.65
767.897	3863.08
768.084	3886.71
768.271	3934.18
768.458	3957.82
768.645	4054.89
768.832	4019.82
769.019	4092.09
769.206	4070
769.392	4141.3
769.579	4264.91
769.766	4249.8
769.953	4212.99
770.14	4270.72
770.327	4292.42
770.513	4308.31
770.7	4412.35
770.887	4302.3
771.073	4303.66
771.26	4380.38
771.447	4283.51
771.634	4277.7
771.82	4415.06
772.007	4247.08
772.193	4318.38
772.38	4349.96
772.567	4324
772.753	4247.86
772.94	4378.83
773.126	4295.72
773.313	4346.28
773.499	4288.35
773.686	4365.27
773.872	4257.16
774.059	4287.77
774.245	4247.86
774.432	4294.36
774.618	4207.95
774.804	4255.8
774.991	4197.68
775.177	4226.93
775.363	4209.3
775.55	4236.82
775.736	4153.7
775.922	4190.7
776.109	4249.41
776.295	4211.44
776.481	4219.96
776.667	4223.25
776.853	4211.82
777.04	4156.99
777.226	4136.65
777.412	4226.93
777.598	4106.23
777.784	4141.1
777.97	4087.05
778.156	4193.8
778.342	4154.86
778.528	4081.24
778.715	4029.7
778.901	4107.39
779.087	4084.92
779.272	4016.53
779.458	4012.26
779.644	4082.01
779.83	4044.04
780.016	4128.9
780.202	4095.77
780.388	3979.71
780.574	3939.61
780.76	4020.98
780.946	4040.16
781.131	3996.57
781.317	3944.26
781.503	3954.91
781.689	3946
781.874	4090.73
782.06	3954.53
782.246	3969.64
782.432	3956.66
782.617	3930.11
782.803	3962.86
782.989	3862.11
783.174	3883.81
783.36	3824.72
783.545	3858.23
783.731	3915.2
783.916	3771.63
784.102	3825.1
784.288	3778.41
784.473	3869.28
784.659	3789.65
784.844	3842.54
785.029	3770.08
785.215	3788.68
785.4	3752.64
785.586	3833.63
785.771	3700.14
785.956	3818.52
786.142	3736.37
786.327	3739.47
786.512	3723.19
786.698	3727.07
786.883	3638.14
787.068	3677.86
787.254	3716.8
787.439	3628.06
787.624	3665.84
787.809	3647.24
787.994	3648.41
788.18	3725.71
788.365	3570.13
788.55	3617.41
788.735	3630.39
788.92	3626.9
789.105	3611.59
789.29	3638.14
789.475	3530.61
789.66	3542.23
789.845	3499.41
790.03	3479.46
790.215	3549.21
790.4	3588.93
790.585	3574.39
790.77	3478.68
790.955	3450.2
791.14	3507.36
791.325	3544.75
791.51	3438
791.695	3463.57
791.879	3486.24
792.064	3431.99
792.249	3528.48
792.434	3432.96
792.618	3432.18
792.803	3532.54
792.988	3428.89
793.173	3499.22
793.357	3485.66
793.542	3405.64
793.727	3446.91
793.911	3477.91
794.096	3447.68
794.281	3467.83
794.465	3548.04
794.65	3460.86
794.834	3508.91
795.019	3523.24
795.203	3595.32
795.388	3514.53
795.572	3555.6
795.757	3537.19
795.941	3522.86
796.126	3484.69
796.31	3457.95
796.494	3538.55
796.679	3493.99
796.863	3432.76
797.048	3590.48
797.232	3511.23
797.416	3512.01
797.601	3474.81
797.785	3573.62
797.969	3576.33
798.153	3462.21
798.338	3594.16
798.522	3623.61
798.706	3596.09
798.89	3581.37
799.074	3667.01
799.258	3657.32
799.443	3561.8
799.627	3537
799.811	3659.26
799.995	3532.74
800.179	3530.61
800.363	3521.89
800.547	3576.14
800.731	3598.81
800.915	3458.92
801.099	3527.51
801.283	3498.25
801.467	3554.83
801.651	3510.26
801.835	3605.39
802.019	3524.02
802.202	3551.73
802.386	3485.27
802.57	3479.07
802.754	3502.9
802.938	3501.16
803.121	3500.38
803.305	3576.72
803.489	3510.65
803.673	3523.83
803.856	3536.03
804.04	3505.81
804.224	3528.86
804.407	3460.28
804.591	3517.05
804.775	3485.27
804.958	3517.63
805.142	3611.79
805.326	3508.71
805.509	3482.36
805.693	3562.19
805.876	3545.53
806.06	3484.69
806.243	3536.42
806.427	3555.02
806.61	3574.78
806.794	3506.2
806.977	3572.07
807.16	3539.91
807.344	3521.89
807.527	3500.58
807.71	3481.98
807.894	3484.5
808.077	3542.43
808.26	3448.46
808.444	3462.99
808.627	3535.26
808.81	3425.79
808.993	3361.27
809.177	3379.29
809.36	3437.41
809.543	3396.92
809.726	3334.54
809.909	3305.86
810.092	3278.35
810.276	3324.27
810.459	3289
810.642	3291.33
810.825	3252.39
811.008	3281.84
811.191	3162.1
811.374	3216.54
811.557	3209.96
811.74	3244.06
811.923	3158.03
812.106	3143.89
812.289	3140.98
812.472	3115.41
812.654	3142.92
812.837	3060.38
813.02	3023.57
813.203	3018.92
813.386	2871.48
813.569	2871.48
813.751	2847.65
813.934	2892.21
814.117	2786.23
814.3	2772.09
814.482	2707.38
814.665	2651.96
814.848	2607.79
815.03	2562.06
815.213	2557.8
815.396	2539.98
815.578	2487.67
815.761	2474.49
815.943	2558.77
816.126	2421.4
816.309	2377.42
816.491	2328.99
816.674	2241.99
816.856	2274.74
817.039	2280.94
817.221	2351.07
817.403	2321.04
817.586	2319.88
817.768	2349.52
817.951	2271.44
818.133	2240.25
818.315	2289.46
818.498	2280.16
818.68	2377.62
818.862	2319.3
819.045	2371.22
819.227	2351.46
819.409	2323.56
819.591	2368.12
819.774	2308.84
819.956	2294.69
820.138	2399.12
820.32	2364.06
820.502	2443.69
820.684	2516.15
820.866	2473.91
821.048	2575.43
821.231	2570.59
821.413	2545.02
821.595	2534.94
821.777	2547.92
821.959	2534.75
822.141	2608.95
822.323	2450.66
822.505	2410.17
822.686	2345.84
822.868	2229.4
823.05	2130.59
823.232	2055.61
823.414	2013.18
823.596	2074.79
823.778	2070.14
823.96	2047.47
824.141	2159.26
824.323	2107.92
824.505	2205.96
824.687	2229.79
824.868	2333.83
825.05	2373.16
825.232	2466.74
825.413	2515.57
825.595	2479.14
825.777	2406.68
825.958	2476.82
826.14	2440.2
826.321	2500.26
826.503	2427.6
826.685	2497.55
826.866	2532.42
827.048	2438.84
827.229	2443.69
827.411	2413.85
827.592	2351.07
827.773	2341.58
827.955	2287.72
828.136	2314.65
828.318	2273.38
828.499	2305.35
828.68	2242.96
828.862	2283.65
829.043	2266.79
829.224	2220.29
829.406	2172.05
829.587	2232.31
829.768	2225.14
829.949	2240.64
830.131	2226.49
830.312	2310.19
830.493	2288.3
830.674	2258.85
830.855	2211.96
831.036	2218.16
831.218	2312.32
831.399	2300.31
831.58	2233.86
831.761	2261.76
831.942	2231.14
832.123	2251.49
832.304	2152.68
832.485	2216.42
832.666	2235.6
832.847	2258.66
833.028	2198.6
833.209	2238.12
833.389	2225.91
833.57	2132.91
833.751	2192.4
833.932	2221.65
834.113	2215.84
834.294	2201.31
834.475	2261.56
834.655	2264.47
834.836	2252.07
835.017	2257.69
835.198	2202.66
835.378	2219.33
835.559	2280.74
835.74	2235.79
835.92	2238.51
836.101	2180
836.281	2257.49
836.462	2290.24
836.643	2295.27
836.823	2231.14
837.004	2323.95
837.184	2355.53
837.365	2317.17
837.545	2323.76
837.726	2261.56
837.906	2334.41
838.087	2346.81
838.267	2277.06
838.448	2242.96
838.628	2238.51
838.808	2261.18
838.989	2342.16
839.169	2216.81
839.349	2291.59
839.53	2326.86
839.71	2343.13
839.89	2219.91
840.07	2295.66
840.251	2242.96
840.431	2271.06
840.611	2210.99
840.791	2196.85
840.971	2252.65
841.151	2259.04
841.332	2225.53
841.512	2261.76
841.692	2175.35
841.872	2255.94
842.052	2227.27
842.232	2250.33
842.412	2149.58
842.592	2169.92
842.772	2246.84
842.952	2264.28
843.132	2196.08
843.312	2197.43
843.492	2168.76
843.672	2220.49
843.851	2113.93
844.031	2171.08
844.211	2174.96
844.391	2128.26
844.571	2115.67
844.751	2208.86
844.93	2191.23
845.11	2149.58
845.29	2180.96
845.47	2173.8
845.649	2150.35
845.829	2165.27
846.009	2126.71
846.188	2173.02
846.368	2137.76
846.547	2148.41
846.727	2192.2
846.907	2138.73
847.086	2118
847.266	2193.56
847.445	2088.55
847.625	2090.68
847.804	2084.28
847.984	2122.45
848.163	2105.21
848.343	2123.61
848.522	2090.68
848.701	2096.68
848.881	2066.85
849.06	2107.92
849.239	2071.69
849.419	2066.27
849.598	2017.05
849.777	1978.89
849.957	1968.04
850.136	1926.96
850.315	1894.61
850.494	1896.16
850.674	1887.05
850.853	1991.29
851.032	1963.77
851.211	2022.29
851.39	1975.4
851.569	1907.59
851.748	1893.83
851.927	1968.42
852.107	1925.02
852.286	1906.04
852.465	1892.67
852.644	1938.78
852.823	1969.59
853.002	1944.4
853.181	1932
853.359	1922.31
853.538	1887.82
853.717	1949.05
853.896	1804.13
854.075	1750.26
854.254	1720.04
854.433	1644.09
854.611	1664.82
854.79	1618.9
854.969	1695.63
855.148	1696.6
855.327	1653.58
855.505	1717.52
855.684	1685.16
855.863	1752.78
856.041	1737.67
856.22	1782.43
856.399	1748.33
856.577	1890.15
856.756	1874.84
856.934	1911.46
857.113	1909.91
857.291	1909.33
857.47	1815.94
857.648	1868.64
857.827	1869.03
858.005	1916.69
858.184	1791.92
858.362	1874.84
858.541	1802.58
858.719	1835.71
858.898	1795.79
859.076	1787.66
859.254	1888.99
859.433	1774.29
859.611	1824.28
859.789	1780.29
859.967	1811.68
860.146	1858.18
860.324	1725.85
860.502	1779.33
860.68	1770.8
860.859	1735.73
861.037	1755.5
861.215	1819.04
861.393	1782.43
861.571	1748.33
861.749	1775.64
861.927	1814.39
862.105	1772.93
862.283	1736.12
862.461	1738.64
862.639	1704.73
862.817	1707.83
862.995	1709.58
863.173	1732.44
863.351	1708.03
863.529	1732.44
863.707	1761.5
863.885	1746.78
864.063	1646.8
864.241	1685.94
864.418	1738.25
864.596	1680.52
864.774	1648.74
864.952	1668.89
865.129	1708.8
865.307	1668.89
865.485	1601.85
865.663	1691.56
865.84	1572.4
866.018	1589.07
866.196	1492
866.373	1468.94
866.551	1400.94
866.728	1370.71
866.906	1441.24
867.084	1479.02
867.261	1479.41
867.439	1526.49
867.616	1546.25
867.794	1547.41
867.971	1586.94
868.149	1535.79
868.326	1614.83
868.503	1593.91
868.681	1610.96
868.858	1547.02
869.035	1539.66
869.213	1604.37
869.39	1550.51
869.567	1663.85
869.745	1530.75
869.922	1568.34
870.099	1591.2
870.276	1583.06
870.454	1585.19
870.631	1586.16
870.808	1540.24
870.985	1576.67
871.162	1604.95
871.339	1591.59
871.517	1496.84
871.694	1493.74
871.871	1529.2
872.048	1523
872.225	1529.97
872.402	1513.31
872.579	1489.67
872.756	1508.27
872.933	1488.51
873.11	1482.7
873.287	1526.87
873.463	1500.33
873.64	1468.75
873.817	1512.15
873.994	1501.49
874.171	1443.95
874.348	1504.21
874.524	1381.95
874.701	1441.82
874.878	1397.06
875.055	1444.53
875.231	1458.09
875.408	1462.16
875.585	1380.79
875.762	1415.28
875.938	1432.13
876.115	1413.14
876.291	1404.43
876.468	1404.04
876.645	1371.88
876.821	1418.76
876.998	1381.56
877.174	1403.26
877.351	1354.24
877.527	1376.14
877.704	1410.63
877.88	1376.91
878.057	1361.41
878.233	1432.91
878.409	1338.74
878.586	1355.41
878.762	1374.78
878.938	1369.36
879.115	1323.05
879.291	1373.81
879.467	1329.45
879.644	1345.33
879.82	1365.48
879.996	1351.14
880.172	1313.36
880.349	1343.01
880.525	1368.58
880.701	1261.44
880.877	1283.53
881.053	1299.03
881.229	1299.22
881.405	1371.1
881.581	1287.79
881.757	1321.31
881.933	1347.46
882.109	1364.32
882.285	1308.91
882.461	1268.22
882.637	1301.74
882.813	1285.85
882.989	1308.13
883.165	1361.22
883.341	1270.35
883.517	1341.46
883.693	1325.18
883.869	1358.7
884.044	1285.27
884.22	1330.03
884.396	1351.73
884.572	1333.13
884.747	1371.29
884.923	1349.21
885.099	1338.74
885.275	1341.65
885.45	1318.79
885.626	1279.65
885.801	1256.01
885.977	1308.91
886.153	1239.35
886.328	1279.07
886.504	1283.72
886.679	1309.3
886.855	1300.19
887.03	1310.85
887.206	1328.09
887.381	1324.99
887.557	1316.08
887.732	1346.3
887.908	1299.03
888.083	1332.16
888.258	1279.65
888.434	1289.53
888.609	1292.25
888.784	1334.87
888.96	1324.02
889.135	1288.37
889.31	1279.07
889.485	1342.62
889.661	1301.35
889.836	1358.89
890.011	1304.45
890.186	1282.17
890.361	1271.13
890.537	1302.71
890.712	1294.18
890.887	1309.88
891.062	1283.33
891.237	1333.13
891.412	1264.35
891.587	1288.56
891.762	1306
891.937	1342.62
892.112	1256.4
892.287	1272.1
892.462	1235.09
892.637	1222.5
892.812	1204.87
892.987	1204.09
893.161	1214.94
893.336	1232.77
893.511	1200.02
893.686	1198.67
893.861	1220.56
894.035	1210.48
894.21	1224.82
894.385	1127.95
894.56	1156.43
894.734	1145.19
894.909	1137.83
895.084	1136.47
895.258	1115.16
895.433	1111.29
895.608	1116.9
895.782	1068.08
895.957	1062.27
896.131	1043.86
896.306	1005.89
896.48	1008.21
896.655	972.18
896.829	932.46
897.004	943.89
897.178	937.11
897.353	933.04
897.527	992.13
897.701	968.69
897.876	912.69
898.05	999.3
898.224	957.26
898.399	1005.89
898.573	931.49
898.747	824.93
898.921	886.54
899.096	774.55
899.27	813.3
899.444	779.98
899.618	803.62
899.792	846.24
899.967	863.29
900.141	883.05
900.315	798.97
900.489	838.68
900.663	824.15
900.837	835.97
901.011	777.65
901.185	888.48
901.359	805.17
901.533	841.59
901.707	847.79
901.881	812.53
902.055	780.75
902.229	806.33
902.403	860
902.576	811.75
902.75	844.88
902.924	964.23
903.098	915.79
903.272	938.27
903.446	982.83
903.619	953.77
903.793	982.83
903.967	983.99
904.14	1011.89
904.314	1033.79
904.488	990.58
904.661	1001.24
904.835	965.2
905.009	1047.54
905.182	1089.97
905.356	1013.06
905.529	1012.67
905.703	976.63
905.876	966.94
906.05	920.44
906.223	905.53
906.397	871.62
906.57	849.34
906.744	811.56
906.917	841.59
907.09	814.27
907.264	812.72
907.437	800.32
907.61	763.12
907.784	793.35
907.957	791.41
908.13	740.84
908.304	796.83
908.477	724.95
908.65	750.72
908.823	701.12
908.996	793.35
909.17	726.12
909.343	722.82
909.516	766.42
909.689	720.5
909.862	710.81
910.035	750.92
910.208	721.27
910.381	702.87
910.554	816.79
910.727	744.72
910.9	692.02
911.073	690.27
911.246	794.7
911.419	788.7
911.592	785.21
911.765	692.6
911.938	683.1
912.11	726.7
912.283	745.1
912.456	783.85
912.629	739.1
912.802	725.34
912.974	650.94
913.147	622.85
913.32	579.26
913.493	614.52
913.665	646.87
913.838	666.25
914.01	651.52
914.183	653.27
914.356	640.67
914.528	698.99
914.701	731.35
914.873	688.92
915.046	652.69
915.218	591.27
915.391	536.83
915.563	552.13
915.736	621.88
915.908	634.86
916.081	623.04
916.253	615.1
916.425	659.66
916.598	671.29
916.77	668.96
916.942	650.36
917.115	565.89
917.287	641.84
917.459	623.62
917.632	541.28
917.804	514.93
917.976	629.24
918.148	612
918.32	600.96
918.493	631.18
918.665	698.99
918.837	643.97
919.009	716.82
919.181	681.17
919.353	652.49
919.525	650.75
919.697	640.29
919.869	658.11
920.041	706.74
920.213	758.08
920.385	699.77
920.557	647.26
920.729	674.77
920.901	679.81
921.073	665.09
921.244	660.44
921.416	673.42
921.588	653.27
921.76	619.94
921.932	689.3
922.103	641.84
922.275	646.49
922.447	662.95
922.619	571.7
922.79	625.95
922.962	620.52
923.134	638.74
923.305	591.27
923.477	581.97
923.648	590.49
923.82	574.61
923.991	572.86
924.163	511.06
924.335	579.64
924.506	576.74
924.677	616.46
924.849	561.24
925.02	599.6
925.192	598.24
925.363	578.87
925.535	611.03
925.706	549.61
925.877	603.67
926.049	543.22
926.22	564.72
926.391	562.4
926.562	602.7
926.734	540.12
926.905	584.87
927.076	502.92
927.247	556.78
927.419	489.36
927.59	524.43
927.761	531.98
927.932	479.86
928.103	515.51
928.274	403.91
928.445	431.43
928.616	437.82
928.787	424.84
928.958	441.89
929.129	415.73
929.3	420.38
929.471	370.01
929.642	339.98
929.813	270.23
929.984	377.95
930.155	305.68
930.326	370.01
930.496	321.96
930.667	264.42
930.838	270.81
931.009	262.87
931.18	263.45
931.35	244.85
931.521	262.87
931.692	202.22
931.863	148.56
932.033	210.36
932.204	216.37
932.374	227.02
932.545	153.98
932.716	228.38
932.886	209.39
933.057	120.07
933.227	142.16
933.398	230.9
933.568	119.69
933.739	85.2
933.909	119.69
934.08	154.95
934.25	49.16
934.421	113.49
934.591	128.41
934.761	134.41
934.932	76.68
935.102	152.04
935.272	91.98
935.443	114.46
935.613	94.89
935.783	106.9
935.953	83.26
936.123	256.86
936.294	97.21
936.464	76.09
936.634	102.25
936.804	77.45
936.974	63.89
937.144	108.45
937.314	106.32
937.484	85.01
937.655	41.99
937.825	139.64
937.995	93.14
938.165	168.32
938.334	115.81
938.504	150.49
938.674	140.42
938.844	140.03
939.014	200.29
939.184	187.5
939.354	251.82
939.524	232.84
939.694	151.85
939.863	165.99
940.033	240.78
940.203	211.91
940.373	200.87
940.542	209.78
940.712	189.44
940.882	240.78
941.051	213.85
941.221	185.95
941.391	216.17
941.56	145.84
941.73	163.67
941.899	277.2
942.069	166.96
942.238	200.09
942.408	124.53
942.577	198.74
942.747	182.85
942.916	114.26
943.086	141
943.255	207.45
943.425	185.76
943.594	149.14
943.763	91.4
943.933	91.21
944.102	67.96
944.271	147.39
944.441	147.39
944.61	128.41
944.779	137.12
944.948	216.37
945.117	93.73
945.287	122.4
945.456	33.28
945.625	86.36
945.794	132.86
945.963	137.32
946.132	147.01
946.301	113.68
946.47	172.39
946.639	64.28
946.808	126.08
946.977	146.04
947.146	184.4
947.315	131.89
947.484	178.59
947.653	128.79
947.822	110
947.991	92.18
948.16	182.27
948.329	180.72
948.498	105.35
948.666	113.29
948.835	172.77
949.004	93.92
949.173	75.51
949.341	173.74
949.51	131.89
949.679	184.01
949.847	139.06
950.016	194.09
950.185	187.89
950.353	115.42
950.522	154.76
950.69	204.74
950.859	123.76
951.028	199.32
951.196	154.37
951.365	124.34
951.533	114.65
951.701	169.09
951.87	178.39
952.038	76.29
952.207	135.38
952.375	182.66
952.543	107.29
952.712	136.74
952.88	106.9
953.048	215.79
953.217	120.66
953.385	128.02
953.553	179.36
953.721	108.06
953.89	134.61
954.058	102.06
954.226	102.64
954.394	160.37
954.562	91.01
954.73	124.14
954.898	144.29
955.067	149.91
955.235	104.96
955.403	162.12
955.571	185.95
955.739	123.76
955.907	102.83
956.075	136.16
956.243	105.54
956.41	152.24
956.578	95.28
956.746	91.21
956.914	106.9
957.082	139.84
957.25	161.73
957.418	103.03
957.585	124.53
957.753	152.24
957.921	104.77
958.089	129.37
958.256	159.21
958.424	113.87
958.592	138.67
958.759	101.67
958.927	151.46
959.095	100.12
959.262	134.61
959.43	118.52
959.597	66.02
959.765	129.37
959.932	79.19
960.1	145.65
960.267	139.84
960.435	140.03
960.602	167.93
960.77	145.46
960.937	110.97
961.104	122.98
961.272	108.84
961.439	107.68
961.606	126.66
961.774	153.01
961.941	127.63
962.108	140.61
962.275	145.46
962.443	154.56
962.61	151.27
962.777	219.66
962.944	136.93
963.111	154.37
963.278	161.34
963.446	149.52
963.613	141.77
963.78	157.66
963.947	171.03
964.114	141.58
964.281	226.64
964.448	163.47
964.615	105.93
964.782	167.93
964.949	182.46
965.116	182.07
965.282	193.7
965.449	129.57
965.616	103.41
965.783	200.87
965.95	177.81
966.117	103.8
966.283	126.27
966.45	143.71
966.617	149.52
966.784	183.82
966.95	172
967.117	174.71
967.284	135.57
967.45	119.69
967.617	199.9
967.784	160.37
967.95	228.77
968.117	164.64
968.283	210.17
968.45	242.91
968.616	168.32
968.783	210.36
968.949	182.85
969.116	213.46
969.282	161.34
969.449	160.37
969.615	175.87
969.781	114.07
969.948	174.71
970.114	116.01
970.28	198.54
970.447	165.41
970.613	216.37
970.779	148.56
970.945	185.56
971.112	173.36
971.278	157.08
971.444	161.73
971.61	204.94
971.776	165.22
971.942	182.46
972.108	219.66
972.275	170.84
972.441	191.76
972.607	195.06
972.773	141.77
972.939	182.85
973.105	170.26
973.271	102.83
973.437	135.38
973.602	136.54
973.768	163.86
973.934	143.52
974.1	158.24
974.266	71.06
974.432	163.67
974.598	133.06
974.763	190.79
974.929	133.83
975.095	208.81
975.261	129.37
975.426	93.14
975.592	116.2
975.758	227.99
975.923	71.25
976.089	119.11
976.255	164.25
976.42	157.86
976.586	157.08
976.751	161.73
976.917	225.86
977.082	173.55
977.248	104.38
977.413	71.25
977.579	125.69
977.744	157.86
977.91	104.58
978.075	97.41
978.24	164.83
978.406	110.19
978.571	133.06
978.736	115.42
978.902	169.67
979.067	110.97
979.232	72.22
979.397	154.95
979.563	189.05
979.728	103.8
979.893	122.4
980.058	116.97
980.223	153.59
980.388	146.04
980.554	135.19
980.719	91.01
980.884	143.13
981.049	183.43
981.214	113.87
981.379	147.01
981.544	98.96
981.709	133.44
981.874	138.87
982.039	135.96
982.204	170.64
982.368	117.36
982.533	112.32
982.698	148.94
982.863	166.57
983.028	87.72
983.193	94.89
983.357	132.86
983.522	137.71
983.687	139.64
983.852	116.97
984.016	113.29
984.181	156.69
984.346	147.59
984.51	147.59
984.675	131.31
984.839	164.83
985.004	127.24
985.168	183.04
985.333	139.06
985.498	116.39
985.662	160.76
985.827	149.33
985.991	141.77
986.155	142.36
986.32	161.73
986.484	140.03
986.649	152.62
986.813	85.59
986.977	113.29
987.142	122.59
987.306	109.22
987.47	98.96
987.634	126.08
987.799	148.94
987.963	141.58
988.127	151.46
988.291	203
988.455	125.5
988.62	149.91
988.784	132.09
988.948	144.49
989.112	80.36
989.276	139.06
989.44	143.71
989.604	111.55
989.768	88.3
989.932	209.39
990.096	96.05
990.26	99.54
990.424	77.45
990.588	117.94
990.752	177.42
990.915	141.19
991.079	109.42
991.243	86.94
991.407	132.09
991.571	115.23
991.734	161.15
991.898	123.17
992.062	186.34
992.226	114.84
992.389	86.94
992.553	43.54
992.717	100.31
992.88	83.46
993.044	137.32
993.207	104.58
993.371	136.54
993.535	134.8
993.698	117.56
993.862	146.23
994.025	159.6
994.189	132.09
994.352	108.26
994.515	113.49
994.679	138.87
994.842	99.93
995.006	150.3
995.169	90.82
995.332	86.75
995.496	148.56
995.659	74.74
995.822	116.2
995.985	96.44
996.149	160.76
996.312	91.79
996.475	162.51
996.638	76.48
996.801	161.34
996.964	173.74
997.128	108.45
997.291	111.94
997.454	94.31
997.617	76.09
997.78	122.01
997.943	66.79
998.106	123.76
998.269	71.25
998.432	94.11
998.595	95.47
998.758	64.86
998.92	84.62
999.083	63.5
999.246	95.28
999.409	71.06
999.572	26.3
999.735	84.23
999.897	107.09
1000.06	66.6
1000.223	79.39
1000.386	135.57
1000.548	108.64
1000.711	106.9
1000.874	97.99
1001.036	29.21
1001.199	141.77
1001.361	63.31
1001.524	85.01
1001.687	117.94
1001.849	62.14
1002.012	91.01
1002.174	89.27
1002.337	101.48
1002.499	93.73
1002.661	114.65
1002.824	79.78
1002.986	66.79
1003.149	81.52
1003.311	62.73
1003.473	113.29
1003.636	59.82
1003.798	116.59
1003.96	114.26
1004.123	80.94
1004.285	60.98
1004.447	69.89
1004.609	95.08
1004.771	103.22
1004.933	54.59
1005.096	43.16
1005.258	42.96
1005.42	71.06
1005.582	104.96
1005.744	68.34
1005.906	26.3
1006.068	73.38
1006.23	27.08
1006.392	9.06
1006.554	30.95
1006.716	115.81
1006.878	81.13
1007.04	8.28
1007.202	39.28
1007.363	69.51
1007.525	91.01
1007.687	77.45
1007.849	119.3
1008.011	21.65
1008.172	53.43
1008.334	67.96
1008.496	95.66
1008.658	27.27
1008.819	29.01
1008.981	35.21
1009.143	31.34
1009.304	80.94
1009.466	82.1
1009.627	83.26
1009.789	179.75
1009.95	87.91
1010.112	53.04
1010.273	61.76
1010.435	23.78
1010.596	54.98
1010.758	35.6
1010.919	47.81
1011.081	22.43
1011.242	46.45
1011.403	108.06
1011.565	51.68
1011.726	78.42
1011.887	2.66
1012.049	61.37
1012.21	89.46
1012.371	101.86
1012.532	-11.87
1012.693	85.59
1012.855	39.28
1013.016	53.62
1013.177	68.34
1013.338	45.09
1013.499	116.39
1013.66	83.46
1013.821	81.71
1013.982	55.36
1014.143	61.76
1014.304	39.09
1014.465	91.98
1014.626	82.29
1014.787	55.94
1014.948	147.2
1015.109	-21.36
1015.27	77.84
1015.431	38.51
1015.592	23.78
1015.752	100.7
1015.913	71.83
1016.074	64.08
1016.235	47.81
1016.395	41.03
1016.556	58.66
1016.717	63.89
1016.877	101.28
1017.038	23.78
1017.199	49.36
1017.359	52.26
1017.52	55.36
1017.681	30.37
1017.841	40.06
1018.002	30.18
1018.162	25.72
1018.323	95.66
1018.483	44.13
1018.644	30.56
1018.804	-1.6
1018.964	1.89
1019.125	46.06
1019.285	49.36
1019.446	31.14
1019.606	5.18
1019.766	-20.59
1019.926	61.95
1020.087	66.41
1020.247	-12.84
1020.407	42.96
1020.567	76.48
1020.728	39.09
1020.888	31.73
1021.048	25.14
1021.208	8.67
1021.368	17
1021.528	101.28
1021.688	76.48
1021.848	76.68
1022.008	35.41
1022.168	57.3
1022.328	46.26
1022.488	74.16
1022.648	34.24
1022.808	39.09
1022.968	54.2
1023.128	11.58
1023.288	8.09
1023.448	26.69
1023.608	47.81
1023.767	42.38
1023.927	10.61
1024.087	14.87
1024.247	-5.67
1024.406	28.82
1024.566	-12.84
1024.726	5.76
1024.885	17.58
1025.045	55.36
1025.205	31.14
1025.364	5.57
1025.524	30.76
1025.683	32.11
1025.843	51.1
1026.003	19.52
1026.162	86.36
1026.321	65.83
1026.481	43.74
1026.64	25.53
1026.8	25.33
1026.959	31.53
1027.119	38.7
1027.278	22.81
1027.437	10.03
1027.597	51.29
1027.756	36.18
1027.915	49.36
1028.074	57.3
1028.234	21.65
1028.393	38.51
1028.552	22.23
1028.711	-24.07
1028.87	74.16
1029.03	13.51
1029.189	23.98
1029.348	-15.55
1029.507	18.75
1029.666	34.24
1029.825	-3.34
1029.984	-16.32
1030.143	33.47
1030.302	19.71
1030.461	-41.9
1030.62	14.1
1030.779	44.51
1030.938	-18.65
1031.097	-19.81
1031.255	65.83
1031.414	91.01
1031.573	92.95
1031.732	-14.39
1031.891	5.96
1032.049	84.43
1032.208	54.01
1032.367	3.63
1032.525	-3.92
1032.684	19.91
1032.843	12.74
1033.001	-20.97
1033.16	169.29
1033.319	80.94
1033.477	34.44
1033.636	33.08
1033.794	1.11
1033.953	40.83
1034.111	54.39
1034.27	1.7
1034.428	49.74
1034.587	-8.96
1034.745	46.26
1034.903	24.56
1035.062	37.73
1035.22	-4.5
1035.378	70.86
1035.537	-6.44
1035.695	77.06
1035.853	31.14
1036.011	59.82
1036.17	35.79
1036.328	-35.7
1036.486	1.31
1036.644	9.64
1036.802	-80.84
1036.96	1.7
1037.119	-12.84
1037.277	7.9
1037.435	-16.32
1037.593	-23.88
1037.751	34.05
1037.909	52.46
1038.067	52.46
