Data from gum_old_FLMT105791__23__15-42-45-259.txt Node

Date: Mon Mar 20 15:42:45 GMT 2023
User: antho
Spectrometer: FLMT10579
Trigger mode: 0
Integration Time (sec): 1.000000E-1
Scans to average: 10
Electric dark correction enabled: true
Nonlinearity correction enabled: false
Boxcar width: 0
XAxis mode: Wavelengths
Number of Pixels in Spectrum: 3648
>>>>>Begin Spectral Data<<<<<
345.248	-176.08
345.464	-176.08
345.681	-176.08
345.898	-182.48
346.114	-173.18
346.331	-40.07
346.548	35.49
346.764	-5.78
346.981	-3.65
347.197	-18.18
347.414	8.94
347.631	-20.5
347.847	54.28
348.064	-5.39
348.28	40.72
348.497	-39.1
348.713	-6.75
348.93	18.63
349.146	31.61
349.363	1.39
349.579	42.08
349.796	8.75
350.012	31.03
350.229	41.11
350.445	51.76
350.661	-12.56
350.878	20.38
351.094	21.54
351.311	44.98
351.527	21.15
351.743	24.25
351.96	28.71
352.176	42.46
352.392	41.11
352.609	50.6
352.825	27.35
353.041	37.43
353.257	21.54
353.474	33.74
353.69	63.39
353.906	39.94
354.122	6.04
354.339	58.93
354.555	18.05
354.771	34.52
354.987	100.39
355.203	87.41
355.42	12.43
355.636	26.77
355.852	11.46
356.068	40.33
356.284	-12.56
356.5	76.56
356.716	50.21
356.932	25.03
357.148	67.07
357.364	22.89
357.58	77.34
357.796	77.14
358.012	87.8
358.228	67.46
358.444	-37.75
358.66	77.14
358.876	24.44
359.092	13.21
359.308	45.37
359.524	66.29
359.74	-2.49
359.956	35.49
360.172	37.43
360.388	81.6
360.604	30.06
360.819	149.8
361.035	65.91
361.251	95.94
361.467	10.49
361.683	97.49
361.898	57.77
362.114	74.04
362.33	52.15
362.546	81.21
362.762	39.17
362.977	60.48
363.193	19.02
363.409	84.51
363.624	38.2
363.84	45.37
364.056	14.95
364.271	75.79
364.487	64.36
364.703	67.07
364.918	26.77
365.134	35.88
365.35	40.91
365.565	172.27
365.781	65.13
365.996	97.87
366.212	134.49
366.427	76.37
366.643	42.66
366.858	75.4
367.074	31.23
367.289	125.58
367.505	178.86
367.72	36.46
367.936	68.23
368.151	105.62
368.367	104.27
368.582	81.99
368.798	54.28
369.013	123.06
369.228	57.96
369.444	94.19
369.659	145.73
369.874	103.49
370.09	126.74
370.305	8.56
370.52	92.64
370.736	143.99
370.951	81.02
371.166	126.94
371.381	124.81
371.597	132.17
371.812	46.92
372.027	46.73
372.242	94.39
372.458	162.39
372.673	59.51
372.888	78.11
373.103	94.77
373.318	163.17
373.533	88.77
373.749	95.36
373.964	36.26
374.179	111.05
374.394	44.98
374.609	122.48
374.824	28.13
375.039	108.72
375.254	67.65
375.469	119.77
375.684	81.99
375.899	123.64
376.114	88.38
376.329	83.92
376.544	143.79
376.759	132.17
376.974	89.16
377.189	70.36
377.404	90.9
377.619	123.45
377.834	53.89
378.049	84.51
378.264	80.24
378.478	145.34
378.693	96.91
378.908	160.84
379.123	102.91
379.338	143.02
379.553	112.21
379.767	101.56
379.982	118.99
380.197	124.81
380.412	94
380.626	118.61
380.841	214.12
381.056	123.06
381.271	182.35
381.485	75.79
381.7	94.58
381.915	110.08
382.129	105.04
382.344	115.89
382.559	83.73
382.773	148.44
382.988	48.86
383.202	100.97
383.417	85.86
383.632	148.64
383.846	98.84
384.061	99.81
384.275	86.83
384.49	120.54
384.704	126.55
384.919	121.71
385.133	129.07
385.348	178.86
385.562	96.52
385.777	189.32
385.991	121.71
386.206	99.04
386.42	117.83
386.634	185.64
386.849	146.12
387.063	150.96
387.277	97.1
387.492	106.4
387.706	96.71
387.92	91.87
388.135	187.19
388.349	166.65
388.563	141.47
388.778	146.7
388.992	160.45
389.206	161.04
389.42	246.67
389.635	139.34
389.849	181.96
390.063	219.16
390.277	174.6
390.491	232.14
390.706	209.67
390.92	202.69
391.134	167.43
391.348	210.25
391.562	161.62
391.776	200.37
391.99	193.39
392.205	226.33
392.419	182.35
392.633	174.79
392.847	228.27
393.061	162
393.275	197.46
393.489	135.27
393.703	104.85
393.917	145.34
394.131	109.11
394.345	169.75
394.559	198.62
394.773	138.17
394.986	188.94
395.2	173.63
395.414	231.75
395.628	173.24
395.842	235.44
396.056	215.09
396.27	149.41
396.484	199.4
396.697	183.7
396.911	215.67
397.125	181.38
397.339	169.95
397.553	154.45
397.766	203.08
397.98	223.23
398.194	245.51
398.408	233.3
398.621	236.4
398.835	304.6
399.049	278.64
399.262	332.5
399.476	335.8
399.69	299.57
399.903	364.28
400.117	303.44
400.331	335.99
400.544	311.19
400.758	416.78
400.971	339.86
401.185	351.3
401.398	289.68
401.612	377.65
401.826	375.13
402.039	360.4
402.253	355.95
402.466	376.48
402.68	340.64
402.893	358.66
403.106	366.8
403.32	331.92
403.533	385.98
403.747	328.05
403.96	362.53
404.174	365.05
404.387	332.31
404.6	370.67
404.814	413.49
405.027	347.03
405.24	364.86
405.454	362.73
405.667	428.41
405.88	303.44
406.094	409.03
406.307	404.19
406.52	351.88
406.733	316.23
406.947	317.2
407.16	424.73
407.373	407.1
407.586	345.87
407.799	335.8
408.012	408.06
408.226	390.24
408.439	450.88
408.652	374.55
408.865	427.24
409.078	475.29
409.291	426.47
409.504	380.36
409.717	460.57
409.93	439.64
410.143	418.33
410.357	329.6
410.57	368.93
410.783	358.46
410.996	380.94
411.209	414.85
411.421	458.05
411.634	447.2
411.847	407.48
412.06	454.56
412.273	461.73
412.486	473.55
412.699	550.27
412.912	460.38
413.125	468.71
413.338	466.96
413.55	493.7
413.763	455.14
413.976	471.81
414.189	460.18
414.402	484.21
414.615	510.56
414.827	434.61
415.04	488.47
415.253	482.08
415.466	508.81
415.678	554.92
415.891	496.8
416.104	513.66
416.316	475.68
416.529	468.71
416.742	524.51
416.954	521.6
417.167	497.96
417.38	492.34
417.592	514.24
417.805	482.08
418.017	445.84
418.23	484.59
418.442	457.47
418.655	478.2
418.868	492.54
419.08	543.11
419.293	537.29
419.505	533.81
419.718	536.13
419.93	541.75
420.142	504.55
420.355	547.56
420.567	544.27
420.78	537.49
420.992	504.94
421.205	570.42
421.417	524.89
421.629	533.61
421.842	527.41
422.054	500.09
422.266	568.29
422.479	583.41
422.691	520.63
422.903	573.91
423.115	529.35
423.328	489.05
423.54	488.28
423.752	509.78
423.964	516.95
424.177	552.21
424.389	518.69
424.601	659.55
424.813	568.49
425.025	590.19
425.238	605.69
425.45	544.27
425.662	510.56
425.874	863.76
426.086	535.94
426.298	562.87
426.51	555.89
426.722	547.76
426.934	565.39
427.146	572.36
427.358	515.21
427.57	585.92
427.782	546.01
427.994	543.3
428.206	537.68
428.418	525.09
428.63	602
428.842	620.99
429.054	577.21
429.266	600.07
429.478	509.39
429.69	539.42
429.902	469.09
430.114	561.12
430.325	523.54
430.537	464.44
430.749	463.86
430.961	357.11
431.173	403.03
431.384	475.49
431.596	394.89
431.808	488.28
432.02	579.53
432.231	656.25
432.443	698.1
432.655	669.62
432.867	632.42
433.078	655.09
433.29	693.26
433.502	670.98
433.713	714.18
433.925	675.63
434.136	714.77
434.348	598.71
434.56	578.37
434.771	712.25
434.983	560.16
435.194	598.9
435.406	692.68
435.617	715.35
435.829	746.35
436.04	697.33
436.252	701.01
436.463	753.9
436.675	770.37
436.886	766.11
437.098	770.76
437.309	852.52
437.521	748.28
437.732	714.77
437.943	734.53
438.155	712.63
438.366	675.44
438.578	764.56
438.789	694.62
439	729.88
439.211	682.6
439.423	685.9
439.634	709.15
439.845	760.88
440.057	734.72
440.268	795.17
440.479	774.25
440.69	789.55
440.902	746.93
441.113	764.95
441.324	750.61
441.535	816.29
441.746	835.47
441.957	781.03
442.168	815.51
442.38	847.1
442.591	833.92
442.802	801.56
443.013	835.86
443.224	858.33
443.435	815.32
443.646	839.35
443.857	822.3
444.068	846.71
444.279	814.16
444.49	933.7
444.701	863.18
444.912	963.92
445.123	907.54
445.334	863.76
445.545	883.91
445.756	848.45
445.967	812.61
446.178	856.2
446.388	880.23
446.599	866.08
446.81	870.93
447.021	830.63
447.232	905.22
447.443	910.06
447.653	876.74
447.864	954.62
448.075	910.64
448.286	932.93
448.496	927.11
448.707	970.12
448.918	879.06
449.129	993.96
449.339	871.12
449.55	949.01
449.761	907.93
449.971	969.16
450.182	930.02
450.393	971.09
450.603	948.04
450.814	1018.37
451.024	981.36
451.235	1027.47
451.446	1059.64
451.656	1053.05
451.867	977.87
452.077	961.21
452.288	1041.04
452.498	1009.07
452.709	937.38
452.919	965.86
453.13	925.95
453.34	969.16
453.55	886.43
453.761	962.57
453.971	915.68
454.182	968.77
454.392	950.36
454.602	1022.44
454.813	1015.46
455.023	1010.04
455.233	936.61
455.444	972.06
455.654	876.54
455.864	968.57
456.075	961.79
456.285	954.24
456.495	998.02
456.705	979.42
456.916	1053.44
457.126	1085.02
457.336	1021.08
457.546	944.94
457.756	988.14
457.967	1073.2
458.177	999.57
458.387	1005.58
458.597	961.21
458.807	1002.09
459.017	975.74
459.227	998.61
459.437	989.31
459.647	1048.4
459.857	1035.42
460.068	1031.35
460.278	1046.65
460.488	1046.65
460.698	1074.55
460.908	1038.9
461.117	1041.04
461.327	1078.04
461.537	1058.09
461.747	1084.24
461.957	1097.8
462.167	1161.16
462.377	1142.56
462.587	1066.03
462.797	1110.01
463.007	1096.06
463.216	1154.57
463.426	1181.5
463.636	1121.25
463.846	1034.64
464.056	1090.64
464.265	1116.4
464.475	1063.51
464.685	1121.05
464.895	1117.18
465.104	1075.91
465.314	1096.25
465.524	1075.52
465.733	1080.37
465.943	1170.07
466.153	1142.75
466.362	1184.6
466.572	1156.9
466.782	1101.49
466.991	1141.59
467.201	1136.36
467.41	1063.51
467.62	1141.4
467.829	1154.38
468.039	1136.94
468.249	1147.6
468.458	1163.68
468.668	1180.34
468.877	1186.93
469.086	1251.25
469.296	1217.93
469.505	1193.32
469.715	1254.55
469.924	1228.58
470.134	1268.69
470.343	1245.83
470.552	1159.42
470.762	1202.82
470.971	1171.62
471.18	1185.96
471.39	1224.9
471.599	1194.87
471.808	1259.97
472.018	1225.48
472.227	1321.78
472.436	1324.49
472.645	1305.5
472.855	1270.43
473.064	1367.31
473.273	1386.29
473.482	1345.8
473.691	1353.74
473.901	1337.86
474.11	1318.29
474.319	1427.56
474.528	1355.1
474.737	1432.21
474.946	1411.67
475.155	1397.34
475.364	1485.49
475.573	1417.87
475.783	1482.2
475.992	1453.72
476.201	1502.15
476.41	1436.67
476.619	1399.66
476.828	1423.3
477.037	1390.36
477.245	1430.66
477.454	1437.64
477.663	1469.02
477.872	1495.76
478.081	1562.41
478.29	1492.47
478.499	1640.1
478.708	1604.45
478.917	1653.47
479.125	1517.85
479.334	1564.54
479.543	1586.24
479.752	1598.64
479.961	1618.98
480.169	1691.25
480.378	1625.77
480.587	1785.41
480.796	1639.13
481.004	1694.55
481.213	1694.93
481.422	1689.9
481.63	1706.56
481.839	1733.88
482.048	1812.15
482.256	1707.91
482.465	1766.43
482.674	1754.41
482.882	1820.48
483.091	1850.32
483.299	1795.68
483.508	1846.06
483.716	1836.37
483.925	1828.04
484.134	1778.24
484.342	1811.96
484.551	1814.67
484.759	1802.46
484.967	1861.75
485.176	1836.76
485.384	1868.14
485.593	1857.68
485.801	1859.62
486.01	1792
486.218	1709.85
486.426	1590.31
486.635	1588.37
486.843	1553.89
487.051	1641.65
487.26	1636.62
487.468	1703.46
487.676	1794.13
487.885	1764.29
488.093	1787.74
488.301	1866.79
488.509	1903.79
488.717	1905.54
488.926	1932.66
489.134	1903.02
489.342	1936.73
489.55	1873.57
489.758	1902.44
489.967	1925.49
490.175	2069.25
490.383	2038.83
490.591	2138.23
490.799	2028.57
491.007	2108.97
491.215	2071.58
491.423	2014.23
491.631	2053.75
491.839	2029.34
492.047	2043.87
492.255	1977.8
492.463	1945.64
492.671	1915.8
492.879	2039.42
493.087	2000.08
493.295	2055.88
493.503	2072.93
493.711	2158.18
493.919	2138.23
494.127	2125.83
494.334	2128.54
494.542	2065.96
494.75	2093.47
494.958	2094.63
495.166	2196.54
495.374	2209.33
495.581	2196.54
495.789	2217.08
495.997	2257.77
496.205	2142.1
496.412	2181.43
496.62	2197.51
496.828	2206.62
497.035	2176.39
497.243	2236.65
497.451	2263.97
497.658	2244.01
497.866	2247.5
498.074	2363.36
498.281	2203.91
498.489	2311.82
498.696	2180.08
498.904	2207.98
499.112	2155.28
499.319	2259.12
499.527	2217.28
499.734	2300.01
499.942	2210.88
500.149	2221.34
500.357	2247.31
500.564	2169.81
500.771	2244.79
500.979	2170.19
501.186	2143.26
501.394	2222.31
501.601	2151.21
501.808	2184.92
502.016	2145.78
502.223	2159.93
502.43	2228.71
502.638	2197.13
502.845	2194.03
503.052	2337.98
503.26	2266.68
503.467	2357.94
503.674	2291.09
503.881	2305.82
504.089	2385.25
504.296	2308.72
504.503	2237.43
504.71	2261.06
504.917	2215.53
505.125	2298.07
505.332	2323.84
505.539	2315.51
505.746	2393.2
505.953	2369.75
506.16	2398.43
506.367	2459.85
506.574	2471.47
506.781	2469.15
506.988	2417.03
507.195	2434.27
507.402	2408.12
507.609	2458.49
507.816	2334.3
508.023	2322.09
508.23	2306.21
508.437	2263.58
508.644	2393.59
508.851	2347.47
509.058	2387
509.265	2363.75
509.472	2428.07
509.679	2499.37
509.885	2411.22
510.092	2416.25
510.299	2441.25
510.506	2383.51
510.713	2403.08
510.92	2389.13
511.126	2413.74
511.333	2488.52
511.54	2438.15
511.746	2494.14
511.953	2496.27
512.16	2552.65
512.367	2476.7
512.573	2476.32
512.78	2464.3
512.987	2440.86
513.193	2407.15
513.4	2383.9
513.606	2416.06
513.813	2427.88
514.02	2383.7
514.226	2475.93
514.433	2457.52
514.639	2354.06
514.846	2401.14
515.052	2407.54
515.259	2458.88
515.465	2429.24
515.672	2436.02
515.878	2524.95
516.085	2451.32
516.291	2518.36
516.497	2444.54
516.704	2386.22
516.91	2349.6
517.117	2276.95
517.323	2162.83
517.529	2170.39
517.736	2216.11
517.942	2176.59
518.148	2224.44
518.354	2306.01
518.561	2281.6
518.767	2252.54
518.973	2332.75
519.179	2340.11
519.386	2336.43
519.592	2328.29
519.798	2371.89
520.004	2500.53
520.21	2438.53
520.417	2505.57
520.623	2540.64
520.829	2549.36
521.035	2558.27
521.241	2578.61
521.447	2587.33
521.653	2694.28
521.859	2587.72
522.065	2642.36
522.271	2716.95
522.477	2682.27
522.683	2705.13
522.889	2678.59
523.095	2649.91
523.301	2630.73
523.507	2583.65
523.713	2602.25
523.919	2602.06
524.125	2740.39
524.331	2722.37
524.537	2798.52
524.742	2796.58
524.948	2760.35
525.154	2808.98
525.36	2909.92
525.566	2752.6
525.772	2850.64
525.977	2777.01
526.183	2848.31
526.389	2882.6
526.595	2718.5
526.8	2732.26
527.006	2611.16
527.212	2546.06
527.417	2507.32
527.623	2543.93
527.829	2654.56
528.034	2678.98
528.24	2715.01
528.446	2723.54
528.651	2791.15
528.857	2858
529.062	2904.88
529.268	2894.03
529.473	2915.35
529.679	2969.21
529.884	2993.43
530.09	2970.37
530.295	2936.08
530.501	2966.88
530.706	2986.65
530.912	2941.89
531.117	2971.15
531.323	2967.85
531.528	3064.73
531.733	3082.74
531.939	2977.54
532.144	3045.35
532.35	3025.4
532.555	3049.42
532.76	2985.29
532.966	2990.52
533.171	2938.79
533.376	2907.98
533.581	2828.16
533.787	2867.49
533.992	3008.73
534.197	2977.73
534.402	2968.63
534.607	2990.13
534.813	3087.2
535.018	3015.51
535.223	3014.93
535.428	3030.05
535.633	3078.87
535.838	3098.05
536.043	3123.43
536.249	3197.06
536.454	3096.31
536.659	3130.02
536.864	3064.53
537.069	3069.38
537.274	3057.94
537.479	3046.71
537.684	3054.26
537.889	2982.58
538.094	3117.23
538.299	3047.48
538.504	3092.82
538.708	3103.67
538.913	3169.93
539.118	3165.67
539.323	3089.53
539.528	3070.34
539.733	3072.67
539.938	3072.48
540.142	3066.66
540.347	3027.14
540.552	2987.42
540.757	2983.55
540.962	3046.9
541.166	2931.62
541.371	2936.66
541.576	2989.16
541.781	2921.16
541.985	3057.17
542.19	3045.16
542.395	3160.05
542.599	3124.21
542.804	3064.73
543.008	3120.53
543.213	3080.81
543.418	3049.42
543.622	3135.44
543.827	3027.91
544.031	3150.94
544.236	3143.97
544.44	3137.38
544.645	3229.02
544.849	3092.24
545.054	3193.37
545.258	3212.36
545.463	3207.52
545.667	3088.56
545.872	3207.91
546.076	3166.44
546.281	3183.11
546.485	3077.71
546.689	3157.34
546.894	3190.66
547.098	3147.07
547.302	3089.14
547.507	3143.58
547.711	3207.52
547.915	3196.86
548.119	3089.91
548.324	3101.15
548.528	3179.23
548.732	3118.01
548.936	3167.02
549.141	3149.97
549.345	3148.04
549.549	3146.1
549.753	3161.02
549.957	3230.96
550.161	3258.09
550.366	3177.49
550.57	3171.87
550.774	3125.76
550.978	3161.41
551.182	3192.6
551.386	3127.11
551.59	3140.09
551.794	3157.92
551.998	3178.26
552.202	3162.96
552.406	3141.64
552.61	3192.6
552.814	3156.95
553.018	3210.42
553.222	3118.98
553.426	3108.71
553.63	3198.02
553.833	3167.02
554.037	3041.67
554.241	3136.02
554.445	3145.52
554.649	3157.53
554.853	3132.92
555.056	3168.19
555.26	3208.87
555.464	3130.6
555.668	3174
555.871	3148.81
556.075	3186.98
556.279	3121.3
556.483	3105.99
556.686	3138.16
556.89	3137.38
557.094	3138.16
557.297	3008.93
557.501	3110.06
557.704	3011.06
557.908	3084.88
558.112	3007.96
558.315	3131.57
558.519	3059.49
558.722	3020.75
558.926	3043.41
559.129	2920.38
559.333	2938.6
559.536	2931.04
559.74	2926.78
559.943	2912.63
560.147	2915.73
560.35	2886.67
560.553	2920.58
560.757	2907.98
560.96	3008.54
561.164	2948.67
561.367	3063.18
561.57	2983.16
561.774	3016.29
561.977	2967.46
562.18	2932.78
562.384	3053.29
562.587	2935.3
562.79	2935.5
562.993	2920.58
563.197	2969.21
563.4	3008.54
563.603	3008.73
563.806	3035.47
564.009	2923.48
564.212	2969.79
564.416	2883.18
564.619	2943.05
564.822	2867.1
565.025	2981.03
565.228	2934.72
565.431	2914.38
565.634	2830.68
565.837	2862.84
566.04	2823.32
566.243	2825.25
566.446	2729.74
566.649	2835.14
566.852	2726.83
567.055	2836.69
567.258	2839.79
567.461	2903.53
567.664	2890.35
567.867	2776.04
568.07	2806.65
568.273	2847.15
568.475	2894.62
568.678	2787.28
568.881	2758.02
569.084	2746.59
569.287	2621.63
569.489	2674.52
569.692	2735.74
569.895	2783.99
570.098	2715.79
570.3	2654.37
570.503	2638.29
570.706	2628.99
570.909	2644.29
571.111	2577.26
571.314	2530.95
571.516	2592.56
571.719	2594.89
571.922	2558.46
572.124	2582.3
572.327	2638.09
572.529	2554.59
572.732	2595.08
572.935	2668.13
573.137	2698.35
573.34	2599.15
573.542	2694.09
573.745	2647.78
573.947	2644.29
574.15	2631.31
574.352	2599.15
574.554	2693.89
574.757	2606.51
574.959	2580.94
575.162	2576.68
575.364	2589.46
575.566	2651.27
575.769	2553.43
575.971	2566.41
576.173	2431.95
576.376	2540.64
576.578	2589.66
576.78	2597.02
576.982	2490.65
577.185	2524.36
577.387	2484.26
577.589	2504.99
577.791	2520.3
577.993	2531.34
578.196	2466.05
578.398	2519.13
578.6	2506.15
578.802	2380.02
579.004	2404.24
579.206	2431.37
579.408	2531.34
579.61	2434.27
579.812	2498.02
580.014	2434.27
580.216	2463.14
580.418	2461.4
580.62	2413.93
580.822	2410.05
581.024	2477.09
581.226	2517.39
581.428	2462.75
581.63	2562.15
581.832	2440.28
582.034	2491.43
582.236	2476.51
582.438	2478.45
582.64	2542.38
582.841	2526.3
583.043	2587.91
583.245	2486.78
583.447	2519.13
583.649	2446.48
583.85	2492.78
584.052	2493.56
584.254	2441.44
584.456	2511.38
584.657	2438.15
584.859	2516.03
585.061	2450.55
585.262	2453.45
585.464	2397.85
585.666	2462.37
585.867	2395.72
586.069	2465.27
586.27	2427.1
586.472	2387.58
586.674	2385.25
586.875	2339.72
587.077	2366.07
587.278	2428.85
587.48	2366.07
587.681	2505.18
587.883	2387.77
588.084	2329.84
588.285	2358.71
588.487	2324.03
588.688	2382.54
588.89	2241.11
589.091	2207.01
589.292	2231.23
589.494	2146.17
589.695	2123.11
589.896	2062.08
590.098	2034.38
590.299	2095.8
590.5	2050.46
590.702	2109.75
590.903	2123.31
591.104	2215.73
591.305	2225.03
591.507	2247.11
591.708	2292.84
591.909	2203.91
592.11	2263.58
592.311	2250.79
592.512	2205.65
592.714	2156.63
592.915	2173.1
593.116	2203.13
593.317	2220.38
593.518	2229.48
593.719	2207.2
593.92	2239.94
594.121	2276.17
594.322	2258.35
594.523	2261.06
594.724	2186.66
594.925	2239.17
595.126	2225.41
595.327	2204.29
595.528	2222.31
595.729	2227.74
595.929	2202.94
596.13	2231.81
596.331	2218.05
596.532	2247.89
596.733	2321.9
596.934	2290.12
597.135	2293.42
597.335	2290.51
597.536	2240.53
597.737	2274.62
597.938	2219.99
598.138	2277.72
598.339	2228.13
598.54	2235.88
598.74	2217.08
598.941	2235.1
599.142	2332.94
599.342	2257.96
599.543	2217.47
599.744	2213.4
599.944	2216.89
600.145	2202.36
600.345	2246.34
600.546	2285.47
600.746	2274.82
600.947	2320.16
601.147	2218.83
601.348	2286.06
601.548	2197.9
601.749	2216.31
601.949	2160.51
602.15	2202.94
602.35	2174.07
602.551	2190.34
602.751	2207.01
602.951	2187.63
603.152	2183.95
603.352	2227.16
603.552	2194.03
603.753	2224.25
603.953	2260.29
604.153	2252.15
604.354	2236.07
604.554	2217.47
604.754	2243.43
604.954	2177.56
605.155	2217.47
605.355	2189.38
605.555	2287.99
605.755	2296.13
605.955	2211.46
606.155	2276.56
606.356	2229.48
606.556	2216.69
606.756	2272.88
606.956	2149.66
607.156	2278.89
607.356	2176.78
607.556	2203.71
607.756	2195.38
607.956	2250.21
608.156	2218.63
608.356	2155.28
608.556	2243.04
608.756	2178.53
608.956	2145.59
609.156	2194.41
609.356	2117.88
609.556	2106.26
609.755	2199.06
609.955	2127.96
610.155	2145.4
610.355	2164.38
610.555	2085.14
610.755	2139.97
610.954	2064.22
611.154	2113.43
611.354	2157.8
611.554	2134.35
611.753	2134.16
611.953	2094.83
612.153	2130.86
612.352	2124.28
612.552	2038.64
612.752	2026.24
612.951	2113.04
613.151	2080.88
613.351	2040.77
613.55	2091.34
613.75	2083.59
613.949	2020.04
614.149	2089.6
614.348	2081.07
614.548	2018.68
614.747	1975.48
614.947	2005.7
615.146	1935.76
615.346	2063.05
615.545	2057.43
615.745	2027.6
615.944	2014.81
616.144	2037.09
616.343	2021.59
616.542	1998.15
616.742	1998.34
616.941	2006.28
617.14	1945.45
617.34	1956.3
617.539	1976.45
617.738	1933.63
617.938	2028.76
618.137	1977.22
618.336	1966.18
618.535	2028.57
618.734	2023.14
618.934	2011.52
619.133	1988.27
619.332	2028.57
619.531	1952.04
619.73	2012.87
619.929	2032.44
620.128	2031.86
620.328	2039.8
620.527	2033.6
620.726	1982.84
620.925	1999.7
621.124	2004.73
621.323	2020.04
621.522	1924.14
621.721	1942.93
621.92	1902.82
622.119	1999.5
622.318	1947.39
622.517	1942.74
622.715	1950.87
622.914	1945.64
623.113	1934.79
623.312	1876.47
623.511	1949.32
623.71	1862.91
623.909	1862.33
624.107	1970.44
624.306	1864.85
624.505	1854.77
624.704	1874.73
624.902	1866.4
625.101	1954.55
625.3	1891.39
625.499	1833.27
625.697	1850.51
625.896	1851.67
626.095	1879.77
626.293	1791.03
626.492	1818.16
626.69	1873.96
626.889	1816.03
627.088	1874.73
627.286	1825.52
627.485	1811.57
627.683	1843.54
627.882	1854.97
628.08	1767.78
628.279	1783.28
628.477	1855.36
628.676	1760.23
628.874	1802.27
629.073	1778.44
629.271	1773.79
629.469	1813.12
629.668	1788.13
629.866	1777.08
630.065	1788.32
630.263	1784.83
630.461	1754.8
630.66	1757.71
630.858	1788.71
631.056	1828.42
631.254	1832.11
631.453	1741.63
631.651	1807.11
631.849	1798.01
632.047	1770.88
632.245	1781.15
632.444	1754.41
632.642	1793.74
632.84	1765.65
633.038	1733.68
633.236	1733.49
633.434	1753.83
633.632	1720.7
633.83	1703.26
634.028	1799.75
634.227	1766.62
634.425	1807.89
634.623	1758.09
634.821	1777.47
635.019	1788.9
635.216	1746.66
635.414	1779.6
635.612	1756.74
635.81	1740.27
636.008	1797.04
636.206	1734.65
636.404	1784.06
636.602	1728.45
636.8	1760.81
636.997	1812.93
637.195	1796.65
637.393	1757.71
637.591	1829.39
637.789	1775.92
637.986	1779.41
638.184	1776.5
638.382	1798.01
638.58	1788.71
638.777	1848.96
638.975	1735.23
639.173	1757.51
639.37	1794.71
639.568	1782.51
639.765	1784.83
639.963	1732.33
640.161	1795.29
640.358	1783.09
640.556	1690.09
640.753	1676.91
640.951	1668
641.148	1704.23
641.346	1710.43
641.543	1685.44
641.741	1730.78
641.938	1667.03
642.136	1708.5
642.333	1649.79
642.531	1744.53
642.728	1749.38
642.925	1717.6
643.123	1708.69
643.32	1697.06
643.517	1680.6
643.715	1705.2
643.912	1658.7
644.109	1669.75
644.306	1683.11
644.504	1697.45
644.701	1693.38
644.898	1701.71
645.095	1634.48
645.293	1667.23
645.49	1662.38
645.687	1669.75
645.884	1674.59
646.081	1612.78
646.278	1646.69
646.475	1610.85
646.672	1617.63
646.87	1642.04
647.067	1620.92
647.264	1640.1
647.461	1588.37
647.658	1559.89
647.855	1633.71
648.052	1570.35
648.249	1487.43
648.446	1567.25
648.642	1573.45
648.839	1546.33
649.036	1508.35
649.233	1541.68
649.43	1508.16
649.627	1493.82
649.824	1512.81
650.021	1494.79
650.217	1511.07
650.414	1523.08
650.611	1530.64
650.808	1557.76
651.004	1566.67
651.201	1545.17
651.398	1599.03
651.595	1523.85
651.791	1513.2
651.988	1601.93
652.185	1499.64
652.381	1561.25
652.578	1497.12
652.775	1520.17
652.971	1531.22
653.168	1561.05
653.364	1580.43
653.561	1487.04
653.757	1533.35
653.954	1588.37
654.15	1492.66
654.347	1605.42
654.543	1530.64
654.74	1477.55
654.936	1490.72
655.133	1501.19
655.329	1517.46
655.525	1496.54
655.722	1536.84
655.918	1446.94
656.115	1439.96
656.311	1373.7
656.507	1301.63
656.704	1273.15
656.9	1292.33
657.096	1314.61
657.292	1291.16
657.489	1397.14
657.685	1364.4
657.881	1365.76
658.077	1405.09
658.273	1417.49
658.47	1494.99
658.666	1424.66
658.862	1444.03
659.058	1443.64
659.254	1499.05
659.45	1456.43
659.646	1458.76
659.842	1471.93
660.038	1549.43
660.234	1423.49
660.43	1488.59
660.626	1557.57
660.822	1506.42
661.018	1507.77
661.214	1473.87
661.41	1472.12
661.606	1486.85
661.802	1534.51
661.998	1508.55
662.194	1441.12
662.39	1527.15
662.586	1543.23
662.781	1489.56
662.977	1499.64
663.173	1479.1
663.369	1518.62
663.564	1478.13
663.76	1482
663.956	1492.47
664.152	1500.6
664.347	1390.56
664.543	1490.92
664.739	1434.73
664.934	1397.92
665.13	1428.92
665.326	1460.11
665.521	1489.75
665.717	1374.09
665.912	1447.13
666.108	1374.09
666.304	1417.68
666.499	1417.29
666.695	1336.31
666.89	1445.77
667.086	1447.91
667.281	1450.62
667.477	1518.62
667.672	1461.47
667.867	1452.36
668.063	1438.8
668.258	1388.81
668.454	1435.12
668.649	1468.44
668.844	1435.12
669.04	1443.64
669.235	1404.51
669.43	1418.07
669.626	1362.85
669.821	1376.99
670.016	1371.76
670.211	1408.57
670.407	1352.39
670.602	1416.32
670.797	1377.77
670.992	1418.26
671.187	1377.58
671.382	1433.18
671.578	1356.84
671.773	1406.83
671.968	1356.84
672.163	1403.15
672.358	1399.47
672.553	1357.43
672.748	1366.73
672.943	1480.65
673.138	1361.3
673.333	1399.47
673.528	1321.97
673.723	1389.39
673.918	1389.97
674.113	1288.26
674.308	1470.96
674.503	1403.34
674.698	1416.32
674.892	1386.29
675.087	1375.64
675.282	1397.53
675.477	1334.76
675.672	1387.46
675.867	1349.68
676.061	1308.6
676.256	1289.42
676.451	1383.77
676.646	1358.01
676.84	1348.13
677.035	1302.59
677.23	1325.26
677.424	1351.03
677.619	1378.74
677.814	1406.64
678.008	1355.1
678.203	1286.9
678.397	1303.76
678.592	1326.04
678.787	1388.42
678.981	1315.96
679.176	1350.06
679.37	1328.36
679.565	1291.94
679.759	1338.24
679.954	1356.26
680.148	1332.24
680.342	1360.53
680.537	1309.57
680.731	1328.94
680.926	1370.99
681.12	1374.09
681.314	1317.51
681.509	1321
681.703	1333.79
681.897	1330.3
682.092	1318.09
682.286	1298.14
682.48	1401.41
682.674	1341.15
682.869	1325.07
683.063	1341.73
683.257	1380.29
683.451	1294.85
683.645	1323.13
683.839	1291.36
684.034	1299.3
684.228	1299.49
684.422	1242.53
684.616	1275.66
684.81	1317.9
685.004	1275.28
685.198	1262.3
685.392	1314.41
685.586	1263.26
685.78	1287.1
685.974	1305.69
686.168	1287.87
686.362	1346.58
686.556	1218.9
686.75	1180.34
686.944	1179.57
687.138	1172.98
687.331	1049.17
687.525	1074.75
687.719	1003.06
687.913	1058.47
688.107	1078.04
688.301	1028.06
688.494	1094.9
688.688	1028.64
688.882	989.89
689.076	990.08
689.269	1061.38
689.463	1135.78
689.657	1067.39
689.85	1087.92
690.044	1089.09
690.238	1064.48
690.431	1108.65
690.625	1103.23
690.818	1120.47
691.012	1110.59
691.205	1143.33
691.399	1116.4
691.593	1138.88
691.786	1200.49
691.98	1226.45
692.173	1222
692.366	1232.65
692.56	1229.55
692.753	1237.88
692.947	1211.73
693.14	1226.06
693.333	1222.96
693.527	1163.29
693.72	1228.39
693.914	1203.98
694.107	1169.49
694.3	1190.42
694.493	1164.45
694.687	1262.88
694.88	1188.87
695.073	1235.75
695.266	1206.88
695.46	1247.38
695.653	1253.58
695.846	1268.88
696.039	1179.57
696.232	1221.61
696.425	1272.18
696.618	1293.68
696.812	1285.93
697.005	1347.93
697.198	1396.37
697.391	1326.23
697.584	1340.38
697.777	1409.54
697.97	1389.01
698.163	1371.57
698.356	1346.38
698.549	1450.23
698.742	1404.89
698.935	1368.86
699.127	1399.08
699.32	1337.47
699.513	1348.51
699.706	1412.64
699.899	1414.58
700.092	1369.63
700.285	1434.34
700.477	1378.74
700.67	1417.87
700.863	1449.65
701.056	1568.8
701.248	1466.31
701.441	1511.45
701.634	1499.83
701.826	1553.89
702.019	1457.21
702.212	1548.65
702.404	1456.24
702.597	1472.7
702.79	1504.48
702.982	1523.85
703.175	1593.6
703.367	1613.37
703.56	1581.2
703.752	1656.57
703.945	1637.39
704.137	1643.59
704.33	1710.43
704.522	1692.41
704.715	1705.4
704.907	1675.56
705.1	1787.93
705.292	1772.04
705.484	1712.95
705.677	1816.22
705.869	1755.96
706.061	1825.71
706.254	1849.35
706.446	1810.99
706.638	1829.2
706.831	1921.04
707.023	1841.6
707.215	1955.72
707.407	1950.49
707.599	1945.84
707.792	1968.31
707.984	1952.62
708.176	1979.55
708.368	1948.94
708.56	2015.58
708.752	2012.48
708.944	2031.28
709.136	2073.32
709.329	2044.84
709.521	2167.48
709.713	2119.63
709.905	2124.86
710.097	2183.18
710.289	2143.07
710.481	2183.56
710.672	2148.5
710.864	2243.43
711.056	2253.89
711.248	2231.42
711.44	2280.05
711.632	2259.71
711.824	2299.62
712.016	2360.65
712.207	2342.82
712.399	2345.34
712.591	2400.75
712.783	2450.16
712.975	2413.54
713.166	2338.56
713.358	2386.42
713.55	2469.15
713.741	2477.67
713.933	2476.12
714.125	2486.2
714.316	2455.58
714.508	2570.28
714.7	2538.51
714.891	2520.68
715.083	2641.78
715.274	2586.56
715.466	2565.05
715.657	2672.58
715.849	2532.11
716.04	2620.85
716.232	2573.19
716.423	2623.76
716.615	2561.56
716.806	2595.08
716.998	2533.28
717.189	2427.49
717.381	2375.76
717.572	2303.69
717.763	2415.67
717.955	2342.63
718.146	2352.9
718.337	2291.09
718.528	2262.42
718.72	2165.93
718.911	2243.82
719.102	2184.53
719.293	2268.81
719.485	2229.09
719.676	2223.86
719.867	2197.13
720.058	2225.03
720.249	2193.83
720.44	2262.22
720.632	2279.66
720.823	2328.68
721.014	2484.65
721.205	2488.91
721.396	2609.23
721.587	2689.05
721.778	2703.97
721.969	2798.9
722.16	2800.84
722.351	2864.97
722.542	3008.93
722.733	3014.55
722.924	2893.84
723.115	2996.33
723.305	2940.15
723.496	3003.89
723.687	2819.25
723.878	2863.62
724.069	2852.57
724.26	2919.03
724.45	2829.9
724.641	2827.39
724.832	2889.77
725.023	2854.9
725.213	2833.59
725.404	2773.14
725.595	2847.15
725.785	2802
725.976	2923.48
726.167	2910.12
726.357	2910.5
726.548	3044.96
726.739	2932.4
726.929	3004.28
727.12	3065.89
727.31	3105.41
727.501	3058.72
727.691	3039.35
727.882	3063.37
728.072	3127.11
728.263	3167.8
728.453	3157.72
728.644	3193.18
728.834	3168.77
729.024	3189.89
729.215	3159.66
729.405	3201.71
729.596	3288.12
729.786	3289.28
729.976	3347.6
730.167	3286.18
730.357	3313.11
730.547	3326.09
730.737	3373.17
730.928	3405.33
731.118	3462.1
731.308	3390.8
731.498	3408.43
731.688	3560.72
731.879	3556.84
732.069	3629.31
732.259	3590.56
732.449	3645.58
732.639	3764.54
732.829	3761.44
733.019	3817.63
733.209	3896.1
733.399	3895.51
733.589	3952.28
733.779	3970.69
733.969	3956.74
734.159	4044.7
734.349	4091.39
734.539	4127.62
734.729	4124.91
734.919	4192.33
735.109	4261.89
735.299	4161.14
735.488	4209
735.678	4194.85
735.868	4243.1
736.058	4217.91
736.248	4231.28
736.437	4194.85
736.627	4165.79
736.817	4311.49
737.007	4254.14
737.196	4305.68
737.386	4244.26
737.576	4242.52
737.765	4325.63
737.955	4301.61
738.144	4456.8
738.334	4396.93
738.524	4305.87
738.713	4389.76
738.903	4371.16
739.092	4454.67
739.282	4376.39
739.471	4443.04
739.661	4402.94
739.85	4452.92
740.04	4449.63
740.229	4528.1
740.419	4501.36
740.608	4548.05
740.797	4465.13
740.987	4590.1
741.176	4547.47
741.365	4503.69
741.555	4474.82
741.744	4630.78
741.933	4503.88
742.123	4616.45
742.312	4583.51
742.501	4601.34
742.69	4640.08
742.88	4573.05
743.069	4715.84
743.258	4671.47
743.447	4725.91
743.636	4678.64
743.825	4677.48
744.014	4693.37
744.204	4769.12
744.393	4620.71
744.582	4762.92
744.771	4826.47
744.96	4733.66
745.149	4746.26
745.338	4701.89
745.527	4815.43
745.716	4742.58
745.905	4742.77
746.094	4818.53
746.283	4807.29
746.471	4792.37
746.66	4806.9
746.849	4833.06
747.038	4838.87
747.227	4781.33
747.416	4822.21
747.604	4785.2
747.793	4761.37
747.982	4805.74
748.171	4813.68
748.359	4846.81
748.548	4815.81
748.737	4840.61
748.926	4814.07
749.114	4668.95
749.303	4757.88
749.491	4810
749.68	4725.72
749.869	4820.08
750.057	4735.6
750.246	4762.92
750.434	4748.2
750.623	4750.91
750.811	4742
751	4782.1
751.188	4751.3
751.377	4724.95
751.565	4762.15
751.754	4645.32
751.942	4690.65
752.131	4784.04
752.319	4675.15
752.507	4659.65
752.696	4787.72
752.884	4758.85
753.072	4641.44
753.261	4727.27
753.449	4714.68
753.637	4643.77
753.825	4784.04
754.014	4687.17
754.202	4753.23
754.39	4815.62
754.578	4779
754.766	4749.55
754.955	4639.7
755.143	4761.18
755.331	4649
755.519	4672.25
755.707	4654.62
755.895	4631.37
756.083	4670.89
756.271	4646.87
756.459	4639.31
756.647	4682.71
756.835	4603.85
757.023	4607.92
757.211	4634.27
757.399	4604.82
757.587	4606.76
757.775	4542.44
757.963	4596.1
758.151	4580.41
758.339	4518.61
758.526	4517.83
758.714	4582.35
758.902	4464.74
759.09	4383.95
759.278	4183.62
759.465	3919.15
759.653	3473.34
759.841	3249.37
760.028	2861.68
760.216	2513.32
760.404	2373.63
760.591	2041.35
760.779	1794.13
760.967	1626.15
761.154	1438.22
761.342	1470.38
761.529	1496.92
761.717	1573.07
761.905	1588.57
762.092	1699.58
762.28	1653.66
762.467	1684.47
762.655	1648.63
762.842	1688.54
763.029	1711.4
763.217	1730.97
763.404	1747.44
763.592	1742.4
763.779	1780.76
763.966	1849.35
764.154	1873.37
764.341	1883.26
764.528	1963.66
764.716	2015.2
764.903	2075.26
765.09	2175.23
765.277	2203.71
765.465	2410.25
765.652	2450.93
765.839	2508.87
766.026	2692.93
766.213	2720.82
766.4	2836.69
766.588	3037.21
766.775	3065.89
766.962	3159.08
767.149	3211.59
767.336	3425.48
767.523	3365.23
767.71	3506.66
767.897	3608.77
768.084	3724.82
768.271	3746.13
768.458	3768.42
768.645	3884.47
768.832	3828.28
769.019	3800.97
769.206	3914.7
769.392	3960.61
769.579	4023.39
769.766	4023.39
769.953	3967.59
770.14	4037.72
770.327	3990.06
770.513	4101.47
770.7	4128.79
770.887	4035.79
771.073	4098.37
771.26	4084.03
771.447	4029.39
771.634	4071.63
771.82	4145.84
772.007	3959.64
772.193	4085.19
772.38	4080.16
772.567	4070.47
772.753	4066.21
772.94	4116.19
773.126	4126.65
773.313	4136.73
773.499	4059.42
773.686	4113.87
773.872	4026.1
774.059	4068.53
774.245	3975.14
774.432	4042.57
774.618	3949.76
774.804	3997.23
774.991	3954.22
775.177	4004.59
775.363	3981.93
775.55	4018.35
775.736	3954.99
775.922	3985.03
776.109	3973.21
776.295	3945.69
776.481	3953.64
776.667	3946.86
776.853	3930.58
777.04	3951.51
777.226	3967.01
777.412	4009.24
777.598	3894.74
777.784	3907.33
777.97	3847.46
778.156	3915.28
778.342	3902.68
778.528	3894.74
778.715	3831.96
778.901	3810.85
779.087	3891.45
779.272	3836.61
779.458	3799.03
779.644	3868.78
779.83	3822.08
780.016	3891.06
780.202	3834.68
780.388	3793.8
780.574	3715.52
780.76	3795.73
780.946	3834.48
781.131	3834.29
781.317	3735.67
781.503	3739.16
781.689	3769.19
781.874	3893.77
782.06	3673.09
782.246	3761.63
782.432	3695.37
782.617	3765.9
782.803	3750.4
782.989	3686.07
783.174	3694.4
783.36	3627.95
783.545	3675.03
783.731	3670.77
783.916	3542.12
784.102	3644.42
784.288	3615.16
784.473	3646.55
784.659	3600.05
784.844	3669.99
785.029	3583.39
785.215	3544.83
785.4	3493.88
785.586	3610.51
785.771	3522.55
785.956	3552.39
786.142	3543.67
786.327	3522.74
786.512	3526.04
786.698	3540.57
786.883	3442.34
787.068	3493.88
787.254	3541.73
787.439	3450.48
787.624	3483.22
787.809	3410.95
787.994	3418.12
788.18	3495.81
788.365	3373.95
788.55	3419.67
788.735	3437.11
788.92	3400.68
789.105	3397.78
789.29	3425.48
789.475	3402.23
789.66	3355.15
789.845	3305.75
790.03	3372.98
790.215	3344.11
790.4	3365.81
790.585	3378.79
790.77	3277.27
790.955	3258.86
791.14	3278.43
791.325	3354.77
791.51	3217.21
791.695	3284.44
791.879	3311.56
792.064	3220.11
792.249	3313.5
792.434	3296.45
792.618	3244.33
792.803	3281.72
792.988	3262.93
793.173	3252.27
793.357	3320.67
793.542	3243.55
793.727	3254.02
793.911	3296.64
794.096	3285.99
794.281	3285.99
794.465	3383.83
794.65	3267.97
794.834	3323.57
795.019	3376.47
795.203	3346.24
795.388	3321.44
795.572	3359.61
795.757	3343.72
795.941	3346.82
796.126	3334.03
796.31	3293.15
796.494	3291.22
796.679	3298
796.863	3269.13
797.048	3389.45
797.232	3357.28
797.416	3346.43
797.601	3281.14
797.785	3345.66
797.969	3367.55
798.153	3324.35
798.338	3401.85
798.522	3411.34
798.706	3405.33
798.89	3366.39
799.074	3464.43
799.258	3489.23
799.443	3407.66
799.627	3363.48
799.811	3406.88
799.995	3409.6
800.179	3338.88
800.363	3341.01
800.547	3386.73
800.731	3405.53
800.915	3308.27
801.099	3319.31
801.283	3337.33
801.467	3356.9
801.651	3336.75
801.835	3387.32
802.019	3394.1
802.202	3400.68
802.386	3309.04
802.57	3256.73
802.754	3331.13
802.938	3304.97
803.121	3328.8
803.305	3363.87
803.489	3302.65
803.673	3378.98
803.856	3346.43
804.04	3330.35
804.224	3360.38
804.407	3274.55
804.591	3303.62
804.775	3313.3
804.958	3312.33
805.142	3400.1
805.326	3303.23
805.509	3327.45
805.693	3373.75
805.876	3345.47
806.06	3348.57
806.243	3370.27
806.427	3389.64
806.61	3411.92
806.794	3316.21
806.977	3384.41
807.16	3348.95
807.344	3378.21
807.527	3313.3
807.71	3330.55
807.894	3340.43
808.077	3347.21
808.26	3295.87
808.444	3237.16
808.627	3331.9
808.81	3263.51
808.993	3202.67
809.177	3216.04
809.36	3222.24
809.543	3221.08
809.726	3149.78
809.909	3163.34
810.092	3141.06
810.276	3107.54
810.459	3123.43
810.642	3153.07
810.825	3100.76
811.008	3114.33
811.191	3019
811.374	3001.37
811.557	3084.49
811.74	3087.59
811.923	2997.69
812.106	3007.38
812.289	2975.99
812.472	2972.89
812.654	2960.49
812.837	2922.9
813.02	2865.36
813.203	2830.49
813.386	2750.86
813.569	2717.14
813.751	2653.4
813.934	2691.76
814.117	2669.87
814.3	2608.45
814.482	2534.83
814.665	2512.74
814.848	2477.28
815.03	2441.63
815.213	2412.38
815.396	2404.44
815.578	2358.9
815.761	2344.95
815.943	2421.1
816.126	2281.41
816.309	2279.86
816.491	2224.06
816.674	2153.53
816.856	2189.96
817.039	2185.11
817.221	2263.77
817.403	2172.13
817.586	2201.39
817.768	2248.47
817.951	2142.1
818.133	2130.67
818.315	2164
818.498	2183.76
818.68	2247.89
818.862	2225.03
819.045	2246.34
819.227	2194.61
819.409	2249.24
819.591	2233.16
819.774	2190.73
819.956	2167.87
820.138	2296.52
820.32	2242.66
820.502	2297.1
820.684	2357.74
820.866	2375.95
821.048	2402.11
821.231	2437.37
821.413	2438.73
821.595	2389.13
821.777	2420.71
821.959	2376.15
822.141	2464.88
822.323	2391.45
822.505	2289.35
822.686	2221.93
822.868	2147.14
823.05	2040.97
823.232	1991.37
823.414	1920.45
823.596	1946.61
823.778	1946.61
823.96	2004.73
824.141	1988.65
824.323	2025.66
824.505	2103.35
824.687	2137.65
824.868	2195.38
825.05	2301.56
825.232	2344.37
825.413	2401.92
825.595	2366.46
825.777	2322.87
825.958	2352.12
826.14	2354.45
826.321	2362.59
826.503	2334.49
826.685	2340.69
826.866	2367.62
827.048	2396.88
827.229	2318.61
827.411	2270.17
827.592	2192.09
827.773	2212.24
827.955	2148.69
828.136	2187.83
828.318	2134.55
828.499	2173.49
828.68	2104.13
828.862	2124.08
829.043	2162.25
829.224	2091.34
829.406	2099.28
829.587	2059.95
829.768	2118.46
829.949	2090.18
830.131	2106.26
830.312	2152.56
830.493	2109.55
830.674	2171.16
830.855	2126.41
831.036	2079.13
831.218	2174.07
831.399	2191.7
831.58	2125.44
831.761	2141.71
831.942	2133.19
832.123	2104.71
832.304	2070.03
832.485	2069.83
832.666	2105.1
832.847	2116.33
833.028	2086.5
833.209	2093.86
833.389	2095.41
833.57	1995.82
833.751	2043.1
833.932	2099.86
834.113	2051.82
834.294	2055.5
834.475	2122.15
834.655	2137.84
834.836	2133.19
835.017	2102.19
835.198	2042.52
835.378	2083.59
835.559	2177.36
835.74	2062.67
835.92	2161.67
836.101	2072.74
836.281	2127.96
836.462	2133.96
836.643	2167.48
836.823	2123.89
837.004	2184.53
837.184	2205.07
837.365	2188.41
837.545	2235.29
837.726	2155.47
837.906	2197.9
838.087	2169.23
838.267	2165.16
838.448	2083.2
838.628	2126.02
838.808	2127.38
838.989	2174.26
839.169	2111.68
839.349	2162.06
839.53	2161.28
839.71	2179.11
839.89	2121.56
840.07	2169.42
840.251	2130.09
840.431	2160.31
840.611	2166.13
840.791	2113.43
840.971	2143.65
841.151	2115.56
841.332	2101.8
841.512	2183.37
841.692	2053.17
841.872	2127.38
842.052	2056.08
842.232	2134.16
842.412	2021.01
842.592	2059.18
842.772	2107.23
842.952	2104.71
843.132	2074.87
843.312	2061.12
843.492	2041.35
843.672	2076.42
843.851	1991.37
844.031	2038.06
844.211	2033.6
844.391	2012.87
844.571	2040.58
844.751	2067.9
844.93	2062.08
845.11	2017.33
845.29	2058.21
845.47	2064.99
845.649	2050.46
845.829	2060.53
846.009	2013.84
846.188	2055.11
846.368	2053.75
846.547	2029.15
846.727	2100.25
846.907	1979.94
847.086	2047.94
847.266	2071
847.445	2038.64
847.625	1993.89
847.804	1965.99
847.984	1970.44
848.163	1972.77
848.343	1968.5
848.522	1976.25
848.701	2000.67
848.881	1903.21
849.06	1979.16
849.239	1951.26
849.419	1963.08
849.598	1896.43
849.777	1874.54
849.957	1855.55
850.136	1794.71
850.315	1809.24
850.494	1776.31
850.674	1766.62
850.853	1887.91
851.032	1852.26
851.211	1869.69
851.39	1841.41
851.569	1808.47
851.748	1796.65
851.927	1879.19
852.107	1858.07
852.286	1791.81
852.465	1772.24
852.644	1881.9
852.823	1865.04
853.002	1831.33
853.181	1826.29
853.359	1873.57
853.538	1754.99
853.717	1835.79
853.896	1726.71
854.075	1662
854.254	1633.32
854.433	1549.24
854.611	1605.42
854.79	1523.08
854.969	1579.65
855.148	1606
855.327	1577.33
855.505	1656.38
855.684	1657.73
855.863	1662.77
856.041	1638.94
856.22	1689.12
856.399	1685.05
856.577	1743.37
856.756	1728.06
856.934	1887.91
857.113	1837.53
857.291	1751.31
857.47	1714.11
857.648	1781.34
857.827	1761.39
858.005	1798.98
858.184	1715.86
858.362	1864.85
858.541	1706.75
858.719	1763.13
858.898	1741.04
859.076	1762.36
859.254	1781.15
859.433	1720.31
859.611	1766.62
859.789	1669.36
859.967	1740.46
860.146	1805.18
860.324	1684.08
860.502	1689.12
860.68	1650.37
860.859	1644.17
861.037	1676.14
861.215	1662.96
861.393	1653.08
861.571	1664.51
861.749	1643.2
861.927	1704.04
862.105	1657.15
862.283	1659.09
862.461	1648.63
862.639	1588.18
862.817	1621.7
862.995	1648.82
863.173	1626.73
863.351	1627.51
863.529	1640.49
863.707	1679.05
863.885	1638.55
864.063	1563.18
864.241	1567.25
864.418	1665.48
864.596	1608.13
864.774	1577.72
864.952	1591.47
865.129	1652.31
865.307	1577.72
865.485	1480.84
865.663	1569.58
865.84	1508.94
866.018	1523.47
866.196	1398.69
866.373	1404.12
866.551	1390.17
866.728	1332.24
866.906	1351.23
867.084	1357.04
867.261	1433.96
867.439	1462.82
867.616	1501.38
867.794	1457.4
867.971	1468.64
868.149	1457.01
868.326	1536.06
868.503	1488.59
868.681	1515.33
868.858	1462.63
869.035	1438.99
869.213	1493.24
869.39	1465.54
869.567	1532.96
869.745	1475.22
869.922	1442.87
870.099	1517.27
870.276	1509.32
870.454	1481.23
870.631	1480.65
870.808	1493.05
870.985	1477.55
871.162	1549.24
871.339	1512.23
871.517	1443.84
871.694	1446.94
871.871	1440.16
872.048	1451.59
872.225	1423.88
872.402	1474.45
872.579	1398.89
872.756	1449.26
872.933	1417.29
873.11	1432.41
873.287	1450.81
873.463	1402.76
873.64	1403.92
873.817	1417.49
873.994	1426.01
874.171	1366.53
874.348	1374.28
874.524	1309.76
874.701	1376.22
874.878	1330.3
875.055	1404.89
875.231	1376.03
875.408	1388.23
875.585	1348.32
875.762	1356.84
875.938	1365.76
876.115	1323.33
876.291	1328.36
876.468	1336.31
876.645	1292.33
876.821	1325.65
876.998	1315.19
877.174	1365.37
877.351	1343.48
877.527	1295.43
877.704	1314.61
877.88	1318.09
878.057	1286.13
878.233	1362.46
878.409	1286.32
878.586	1312.28
878.762	1264.43
878.938	1322.16
879.115	1217.15
879.291	1286.13
879.467	1221.61
879.644	1268.3
879.82	1276.25
879.996	1276.83
880.172	1211.34
880.349	1276.63
880.525	1292.13
880.701	1208.05
880.877	1198.17
881.053	1269.08
881.229	1262.3
881.405	1265.78
881.581	1213.47
881.757	1247.76
881.933	1246.8
882.109	1279.15
882.285	1268.11
882.461	1195.84
882.637	1242.53
882.813	1185.77
882.989	1223.74
883.165	1275.08
883.341	1217.54
883.517	1263.46
883.693	1240.01
883.869	1269.08
884.044	1197.58
884.22	1263.85
884.396	1293.88
884.572	1293.88
884.747	1274.5
884.923	1250.48
885.099	1277.41
885.275	1312.86
885.45	1260.94
885.626	1236.14
885.801	1235.17
885.977	1225.29
886.153	1175.69
886.328	1252.03
886.504	1216.76
886.679	1249.7
886.855	1222
887.03	1234.4
887.206	1245.63
887.381	1204.75
887.557	1257.06
887.732	1233.62
887.908	1215.02
888.083	1205.53
888.258	1225.87
888.434	1215.21
888.609	1219.48
888.784	1254.16
888.96	1200.88
889.135	1209.21
889.31	1211.15
889.485	1213.66
889.661	1227.23
889.836	1274.7
890.011	1256.87
890.186	1200.88
890.361	1214.25
890.537	1230.91
890.712	1269.46
890.887	1245.83
891.062	1233.04
891.237	1263.26
891.412	1213.66
891.587	1245.63
891.762	1258.61
891.937	1289.81
892.112	1170.46
892.287	1191.97
892.462	1175.88
892.637	1135.58
892.812	1116.6
892.987	1186.93
893.161	1127.45
893.336	1141.78
893.511	1109.82
893.686	1153.02
893.861	1111.75
894.035	1162.32
894.21	1156.51
894.385	1129
894.56	1119.31
894.734	1059.05
894.909	1050.53
895.084	1056.15
895.258	1056.54
895.433	1053.24
895.608	1044.14
895.782	986.98
895.957	1014.69
896.131	998.02
896.306	911.23
896.48	982.91
896.655	949.01
896.829	878.87
897.004	875.58
897.178	887.59
897.353	868.6
897.527	915.1
897.701	883.91
897.876	845.55
898.05	931.76
898.224	944.36
898.399	949.2
898.573	908.32
898.747	789.75
898.921	802.34
899.096	734.33
899.27	737.24
899.444	753.52
899.618	750.22
899.792	800.98
899.967	807.76
900.141	830.82
900.315	773.66
900.489	800.98
900.663	727.75
900.837	812.41
901.011	715.35
901.185	833.15
901.359	820.16
901.533	781.61
901.707	764.56
901.881	786.84
902.055	744.22
902.229	771.92
902.403	849.42
902.576	782.19
902.75	785.68
902.924	896.89
903.098	839.35
903.272	879.84
903.446	940.29
903.619	905.22
903.793	921.3
903.967	917.04
904.14	976.52
904.314	953.66
904.488	920.91
904.661	978.65
904.835	924.01
905.009	1007.32
905.182	1013.52
905.356	953.46
905.529	968.19
905.703	926.73
905.876	908.71
906.05	897.28
906.223	882.74
906.397	841.48
906.57	798.66
906.744	777.35
906.917	776.57
907.09	765.92
907.264	760.88
907.437	751.19
907.61	715.54
907.784	725.62
907.957	758.55
908.13	700.62
908.304	755.45
908.477	678.92
908.65	731.62
908.823	672.14
908.996	772.11
909.17	719.03
909.343	722.52
909.516	708.18
909.689	700.23
909.862	670.2
910.035	715.35
910.208	664.2
910.381	669.62
910.554	762.04
910.727	685.51
910.9	677.37
911.073	679.31
911.246	732.01
911.419	751.97
911.592	703.14
911.765	650.05
911.938	647.54
912.11	698.88
912.283	699.07
912.456	731.43
912.629	690.35
912.802	684.73
912.974	605.69
913.147	610.14
913.32	540.39
913.493	590.57
913.665	600.84
913.838	592.9
914.01	616.73
914.183	611.5
914.356	606.46
914.528	668.27
914.701	689.58
914.873	650.64
915.046	608.59
915.218	585.15
915.391	493.7
915.563	534.77
915.736	585.15
915.908	591.16
916.081	606.07
916.253	617.31
916.425	621.77
916.598	634.17
916.77	607.62
916.942	550.86
917.115	533.22
917.287	572.56
917.459	558.61
917.632	530.12
917.804	459.99
917.976	553.76
918.148	569.07
918.32	565.58
918.493	602.2
918.665	635.72
918.837	608.2
919.009	639.01
919.181	645.4
919.353	609.56
919.525	617.12
919.697	611.5
919.869	600.07
920.041	673.3
920.213	725.23
920.385	618.47
920.557	603.55
920.729	648.12
920.901	603.75
921.073	572.75
921.244	613.63
921.416	654.32
921.588	596.39
921.76	603.75
921.932	640.56
922.103	597.94
922.275	622.54
922.447	603.17
922.619	561.32
922.79	571.39
922.962	586.12
923.134	589.02
923.305	546.79
923.477	520.05
923.648	538.26
923.82	550.86
923.991	519.27
924.163	522.76
924.335	540.01
924.506	503.58
924.677	555.89
924.849	521.99
925.02	538.46
925.192	568.1
925.363	530.71
925.535	556.09
925.706	512.69
925.877	548.14
926.049	502.61
926.22	549.89
926.391	560.74
926.562	561.32
926.734	500.87
926.905	582.05
927.076	468.51
927.247	514.24
927.419	477.23
927.59	458.44
927.761	486.53
927.932	442.36
928.103	470.64
928.274	415.43
928.445	401.09
928.616	406.51
928.787	392.37
928.958	427.05
929.129	384.04
929.3	381.33
929.471	375.32
929.642	316.81
929.813	255.97
929.984	359.05
930.155	265.08
930.326	303.83
930.496	265.08
930.667	200.95
930.838	255.78
931.009	217.42
931.18	261.2
931.35	213.74
931.521	240.67
931.692	172.66
931.863	161.23
932.033	207.34
932.204	215.09
932.374	178.28
932.545	143.02
932.716	208.7
932.886	197.07
933.057	113.18
933.227	124.81
933.398	200.37
933.568	120.16
933.739	55.25
933.909	98.46
934.08	154.26
934.25	75.21
934.421	77.92
934.591	116.86
934.761	70.75
934.932	57.77
935.102	106.59
935.272	85.86
935.443	98.84
935.613	93.81
935.783	106.01
935.953	67.84
936.123	221.1
936.294	85.09
936.464	65.91
936.634	82.57
936.804	26.96
936.974	36.07
937.144	118.99
937.314	120.35
937.484	79.08
937.655	63
937.825	136.24
937.995	52.34
938.165	133.14
938.334	92.64
938.504	118.22
938.674	103.3
938.844	124.81
939.014	180.41
939.184	174.99
939.354	219.94
939.524	204.82
939.694	144.37
939.863	177.89
940.033	198.24
940.203	198.62
940.373	187.19
940.542	165.69
940.712	161.04
940.882	209.47
941.051	197.46
941.221	193.59
941.391	191.84
941.56	159.49
941.73	165.69
941.899	236.21
942.069	155.03
942.238	183.51
942.408	114.92
942.577	166.85
942.747	146.89
942.916	87.02
943.086	111.63
943.255	187.39
943.425	179.64
943.594	134.88
943.763	67.26
943.933	56.03
944.102	53.7
944.271	123.45
944.441	125.39
944.61	84.89
944.779	125.77
944.948	230.79
945.117	93.03
945.287	94.77
945.456	64.55
945.625	73.66
945.794	127.13
945.963	77.72
946.132	138.56
946.301	106.59
946.47	139.14
946.639	43.24
946.808	101.17
946.977	134.88
947.146	149.8
947.315	94
947.484	149.02
947.653	102.14
947.822	103.11
947.991	78.11
948.16	181.19
948.329	162.78
948.498	100.59
948.666	114.92
948.835	125.77
949.004	60.68
949.173	94.77
949.341	111.05
949.51	127.13
949.679	123.45
949.847	146.12
950.016	179.64
950.185	147.28
950.353	108.72
950.522	121.51
950.69	192.42
950.859	94.77
951.028	166.27
951.196	130.23
951.365	109.5
951.533	117.83
951.701	164.52
951.87	141.66
952.038	97.1
952.207	100.59
952.375	174.21
952.543	99.23
952.712	94.39
952.88	92.45
953.048	214.12
953.217	108.53
953.385	119.57
953.553	148.44
953.721	83.34
953.89	113.96
954.058	49.24
954.226	86.25
954.394	128.68
954.562	69.59
954.73	112.79
954.898	95.74
955.067	152.51
955.235	122.67
955.403	139.92
955.571	178.47
955.739	110.08
955.907	107.17
956.075	105.62
956.243	97.29
956.41	143.99
956.578	51.76
956.746	91.09
956.914	101.56
957.082	127.32
957.25	149.22
957.418	82.76
957.585	84.12
957.753	160.26
957.921	91.87
958.089	125
958.256	115.89
958.424	120.16
958.592	141.66
958.759	103.3
958.927	142.24
959.095	72.3
959.262	149.8
959.43	122.48
959.597	86.44
959.765	126.16
959.932	108.72
960.1	134.3
960.267	96.32
960.435	91.67
960.602	125.19
960.77	103.3
960.937	62.23
961.104	133.72
961.272	77.14
961.439	95.74
961.606	141.08
961.774	130.23
961.941	103.11
962.108	112.6
962.275	136.62
962.443	153.09
962.61	154.06
962.777	181.19
962.944	160.65
963.111	125.39
963.278	148.06
963.446	104.85
963.613	111.24
963.78	164.33
963.947	156.77
964.114	119.57
964.281	209.67
964.448	125
964.615	116.86
964.782	142.44
964.949	137.59
965.116	139.53
965.282	180.41
965.449	118.8
965.616	95.94
965.783	136.04
965.95	158.91
966.117	98.65
966.283	114.54
966.45	137.79
966.617	159.29
966.784	150.19
966.95	180.22
967.117	172.66
967.284	83.73
967.45	92.06
967.617	163.75
967.784	167.43
967.95	202.11
968.117	143.21
968.283	146.7
968.45	239.89
968.616	134.49
968.783	182.93
968.949	179.64
969.116	213.15
969.282	148.06
969.449	150.38
969.615	169.37
969.781	111.44
969.948	137.59
970.114	105.43
970.28	213.15
970.447	138.17
970.613	203.85
970.779	131.01
970.945	163.94
971.112	162
971.278	165.3
971.444	149.02
971.61	178.09
971.776	124.22
971.942	168.59
972.108	166.27
972.275	151.16
972.441	161.62
972.607	217.42
972.773	117.25
972.939	166.07
973.105	137.21
973.271	107.17
973.437	113.18
973.602	83.15
973.768	147.86
973.934	154.26
974.1	144.57
974.266	60.29
974.432	156
974.598	138.76
974.763	154.84
974.929	114.34
975.095	203.85
975.261	115.51
975.426	90.9
975.592	132.17
975.758	202.3
975.923	59.32
976.089	81.99
976.255	160.65
976.42	166.65
976.586	144.96
976.751	149.02
976.917	218
977.082	173.63
977.248	91.48
977.413	64.94
977.579	116.09
977.744	132.94
977.91	73.07
978.075	80.63
978.24	169.17
978.406	108.72
978.571	100.01
978.736	90.51
978.902	135.66
979.067	81.02
979.232	66.49
979.397	115.7
979.563	189.52
979.728	86.44
979.893	94.58
980.058	108.72
980.223	156.97
980.388	131.2
980.554	113.18
980.719	99.42
980.884	124.42
981.049	167.24
981.214	108.92
981.379	114.15
981.544	111.44
981.709	124.42
981.874	149.22
982.039	104.46
982.204	145.54
982.368	102.14
982.533	99.23
982.698	127.71
982.863	161.81
983.028	96.13
983.193	107.95
983.357	141.86
983.522	142.24
983.687	109.31
983.852	79.27
984.016	106.98
984.181	135.66
984.346	134.11
984.51	118.61
984.675	115.89
984.839	136.04
985.004	124.81
985.168	149.02
985.333	121.9
985.498	102.33
985.662	162.59
985.827	125.19
985.991	92.26
986.155	69.78
986.32	143.6
986.484	172.66
986.649	132.75
986.813	67.65
986.977	108.53
987.142	125.39
987.306	75.98
987.47	60.87
987.634	100.97
987.799	121.9
987.963	134.11
988.127	113.76
988.291	208.7
988.455	132.75
988.62	118.8
988.784	128.68
988.948	144.18
989.112	87.8
989.276	102.91
989.44	110.08
989.604	87.02
989.768	85.28
989.932	169.37
990.096	58.16
990.26	61.26
990.424	58.74
990.588	102.72
990.752	177.31
990.915	136.04
991.079	75.4
991.243	71.91
991.407	109.69
991.571	104.46
991.734	112.6
991.898	106.79
992.062	172.47
992.226	103.69
992.389	73.27
992.553	43.43
992.717	84.31
992.88	94.19
993.044	108.34
993.207	93.22
993.371	102.72
993.535	97.49
993.698	136.04
993.862	125
994.025	122.48
994.189	104.85
994.352	129.07
994.515	116.67
994.679	136.82
994.842	67.65
995.006	121.9
995.169	96.71
995.332	73.46
995.496	133.33
995.659	50.79
995.822	89.35
995.985	94.19
996.149	141.27
996.312	92.06
996.475	123.06
996.638	80.63
996.801	118.02
996.964	142.82
997.128	89.74
997.291	56.22
997.454	91.09
997.617	44.59
997.78	138.37
997.943	59.71
998.106	126.55
998.269	70.17
998.432	101.94
998.595	86.83
998.758	37.23
998.92	49.44
999.083	36.07
999.246	88.38
999.409	56.03
999.572	24.25
999.735	59.71
999.897	87.8
1000.06	65.52
1000.223	67.84
1000.386	77.72
1000.548	123.06
1000.711	67.84
1000.874	90.32
1001.036	31.03
1001.199	114.34
1001.361	71.91
1001.524	81.6
1001.687	116.67
1001.849	65.71
1002.012	72.3
1002.174	91.48
1002.337	99.42
1002.499	70.94
1002.661	95.55
1002.824	48.28
1002.986	58.74
1003.149	82.96
1003.311	40.53
1003.473	118.02
1003.636	46.14
1003.798	76.95
1003.96	97.87
1004.123	81.79
1004.285	35.49
1004.447	44.21
1004.609	75.21
1004.771	126.16
1004.933	23.28
1005.096	19.41
1005.258	15.73
1005.42	44.4
1005.582	80.82
1005.744	47.5
1005.906	18.05
1006.068	71.72
1006.23	7.78
1006.392	21.15
1006.554	27.54
1006.716	85.28
1006.878	100.2
1007.04	5.26
1007.202	52.54
1007.363	56.03
1007.525	40.53
1007.687	83.54
1007.849	108.34
1008.011	3.13
1008.172	9.14
1008.334	47.89
1008.496	78.5
1008.658	-9.46
1008.819	46.34
1008.981	20.18
1009.143	47.31
1009.304	37.81
1009.466	66.49
1009.627	118.61
1009.789	152.71
1009.95	57.58
1010.112	41.69
1010.273	85.47
1010.435	6.43
1010.596	44.98
1010.758	52.73
1010.919	40.14
1011.081	17.66
1011.242	45.56
1011.403	66.1
1011.565	65.52
1011.726	65.33
1011.887	14.56
1012.049	43.04
1012.21	52.93
1012.371	105.24
1012.532	-23.6
1012.693	39.56
1012.855	-5.59
1013.016	44.21
1013.177	95.94
1013.338	30.26
1013.499	96.32
1013.66	89.54
1013.821	86.83
1013.982	48.28
1014.143	39.17
1014.304	24.83
1014.465	62.61
1014.626	62.03
1014.787	38.78
1014.948	123.84
1015.109	-37.17
1015.27	60.29
1015.431	10.69
1015.592	21.54
1015.752	70.75
1015.913	57.19
1016.074	32.78
1016.235	50.02
1016.395	45.18
1016.556	37.81
1016.717	35.29
1016.877	81.41
1017.038	22.12
1017.199	71.33
1017.359	46.73
1017.52	44.79
1017.681	14.56
1017.841	49.44
1018.002	56.8
1018.162	16.89
1018.323	107.95
1018.483	28.9
1018.644	44.01
1018.804	-6.56
1018.964	-5.59
1019.125	9.72
1019.285	33.55
1019.446	20.38
1019.606	-14.11
1019.766	-20.89
1019.926	35.1
1020.087	82.76
1020.247	11.08
1020.407	27.54
1020.567	99.62
1020.728	7.2
1020.888	5.07
1021.048	16.69
1021.208	9.72
1021.368	5.26
1021.528	68.04
1021.688	85.47
1021.848	75.4
1022.008	28.51
1022.168	21.93
1022.328	75.98
1022.488	66.1
1022.648	13.98
1022.808	36.84
1022.968	29.29
1023.128	-2.68
1023.288	10.49
1023.448	42.08
1023.608	47.89
1023.767	34.52
1023.927	-17.02
1024.087	4.68
1024.247	-7.91
1024.406	21.54
1024.566	-11.79
1024.726	9.33
1024.885	12.82
1025.045	59.32
1025.205	14.37
1025.364	2.55
1025.524	64.16
1025.683	5.26
1025.843	31.42
1026.003	2.16
1026.162	81.79
1026.321	48.66
1026.481	23.09
1026.64	0.23
1026.8	40.91
1026.959	14.95
1027.119	29.48
1027.278	-0.16
1027.437	-9.66
1027.597	29.48
1027.756	31.42
1027.915	45.37
1028.074	44.21
1028.234	18.24
1028.393	36.84
1028.552	-3.84
1028.711	-56.35
1028.87	43.43
1029.03	-8.49
1029.189	-1.91
1029.348	-28.25
1029.507	-11.79
1029.666	27.16
1029.825	-13.14
1029.984	10.69
1030.143	24.83
1030.302	-6.75
1030.461	-55.19
1030.62	19.41
1030.779	26.19
1030.938	-4.62
1031.097	-5.97
1031.255	22.51
1031.414	59.13
1031.573	65.71
1031.732	-31.94
1031.891	-5.2
1032.049	68.81
1032.208	50.79
1032.367	-20.7
1032.525	-13.72
1032.684	16.31
1032.843	28.13
1033.001	-45.69
1033.16	161.81
1033.319	67.65
1033.477	29.68
1033.636	13.79
1033.794	-19.73
1033.953	26.58
1034.111	-5.2
1034.27	1.39
1034.428	44.21
1034.587	-8.88
1034.745	24.44
1034.903	24.06
1035.062	21.15
1035.22	-19.34
1035.378	66.49
1035.537	-31.94
1035.695	32.58
1035.853	-5.2
1036.011	30.84
1036.17	22.7
1036.328	-13.72
1036.486	29.87
1036.644	22.51
1036.802	-57.12
1036.96	-16.63
1037.119	19.99
1037.277	-32.9
1037.435	-22.25
1037.593	-28.84
1037.751	22.12
1037.909	47.69
1038.067	47.69
