Data from gum_old_FLMT105791__101__15-45-50-253.txt Node

Date: Mon Mar 20 15:45:50 GMT 2023
User: antho
Spectrometer: FLMT10579
Trigger mode: 0
Integration Time (sec): 1.000000E-1
Scans to average: 10
Electric dark correction enabled: true
Nonlinearity correction enabled: false
Boxcar width: 0
XAxis mode: Wavelengths
Number of Pixels in Spectrum: 3648
>>>>>Begin Spectral Data<<<<<
345.248	-186.77
345.464	-186.77
345.681	-186.77
345.898	-190.07
346.114	-179.22
346.331	-43.59
346.548	26.74
346.764	-2.32
346.981	-25.19
347.197	-6.39
347.414	13.17
347.631	-32.74
347.847	69.75
348.064	-2.13
348.28	41.46
348.497	-38.94
348.713	0.19
348.93	34.87
349.146	43.98
349.363	-10.07
349.579	10.07
349.796	12.98
350.012	-18.79
350.229	27.71
350.445	20.92
350.661	-18.02
350.878	-0.39
351.094	7.75
351.311	12.79
351.527	36.81
351.743	1.55
351.96	34.87
352.176	51.34
352.392	36.81
352.609	55.41
352.825	14.34
353.041	0
353.257	9.3
353.474	27.32
353.69	38.56
353.906	35.07
354.122	-10.85
354.339	62.97
354.555	9.88
354.771	6.97
354.987	67.42
355.203	51.15
355.42	-25.38
355.636	-9.3
355.852	18.41
356.068	24.41
356.284	-31.19
356.5	85.83
356.716	27.71
356.932	3.49
357.148	41.27
357.364	23.83
357.58	64.32
357.796	69.94
358.012	78.86
358.228	44.17
358.444	-40.3
358.66	73.62
358.876	29.45
359.092	16.08
359.308	46.31
359.524	38.56
359.74	23.64
359.956	-13.56
360.172	21.31
360.388	67.23
360.604	10.85
360.819	110.82
361.035	36.81
361.251	51.73
361.467	-5.04
361.683	51.15
361.898	38.56
362.114	51.34
362.33	26.93
362.546	49.02
362.762	29.64
362.977	25.38
363.193	-17.82
363.409	63.16
363.624	-27.32
363.84	13.56
364.056	-9.69
364.271	52.7
364.487	22.09
364.703	25.96
364.918	4.26
365.134	17.44
365.35	22.28
365.565	116.83
365.781	43.79
365.996	46.5
366.212	103.27
366.427	56.38
366.643	12.59
366.858	9.69
367.074	-4.26
367.289	88.15
367.505	146.28
367.72	-7.56
367.936	33.32
368.151	84.86
368.367	52.12
368.582	31.19
368.798	21.12
369.013	103.46
369.228	46.31
369.444	40.11
369.659	76.53
369.874	80.41
370.09	103.07
370.305	-20.54
370.52	2.91
370.736	79.82
370.951	56.77
371.166	82.54
371.381	94.94
371.597	67.42
371.812	20.15
372.027	21.89
372.242	39.91
372.458	125.94
372.673	31.39
372.888	48.05
373.103	52.51
373.318	141.44
373.533	67.42
373.749	64.71
373.964	-16.86
374.179	66.46
374.394	-13.17
374.609	73.04
374.824	-1.55
375.039	79.44
375.254	7.94
375.469	120.7
375.684	49.6
375.899	79.44
376.114	43.59
376.329	50.37
376.544	64.13
376.759	63.94
376.974	35.46
377.189	21.89
377.404	26.74
377.619	86.22
377.834	-13.56
378.049	12.59
378.264	14.92
378.478	44.95
378.693	18.6
378.908	93.77
379.123	50.96
379.338	86.99
379.553	53.09
379.767	59.48
379.982	71.88
380.197	68.59
380.412	23.06
380.626	50.37
380.841	140.85
381.056	92.03
381.271	108.89
381.485	19.37
381.7	-1.55
381.915	50.18
382.129	30.81
382.344	55.99
382.559	32.16
382.773	71.3
382.988	-22.67
383.202	50.96
383.417	7.75
383.632	166.24
383.846	41.07
384.061	55.02
384.275	49.02
384.49	57.16
384.704	81.57
384.919	78.47
385.133	47.86
385.348	77.11
385.562	27.9
385.777	89.32
385.991	58.32
386.206	36.81
386.42	60.06
386.634	92.61
386.849	101.91
387.063	84.47
387.277	68.2
387.492	37.2
387.706	17.63
387.92	6.2
388.135	105.2
388.349	88.35
388.563	102.69
388.778	72.27
388.992	75.56
389.206	114.31
389.42	140.27
389.635	54.44
389.849	100.55
390.063	108.5
390.277	111.21
390.491	144.73
390.706	91.06
390.92	142.02
391.134	76.34
391.348	123.22
391.562	37.78
391.776	88.54
391.99	85.83
392.205	120.7
392.419	70.52
392.633	71.11
392.847	158.1
393.061	71.3
393.275	158.68
393.489	76.14
393.703	73.04
393.917	105.59
394.131	22.47
394.345	75.17
394.559	106.95
394.773	39.33
394.986	98.81
395.2	111.4
395.414	131.94
395.628	77.5
395.842	81.76
396.056	96.68
396.27	30.81
396.484	110.44
396.697	111.99
396.911	130.78
397.125	114.7
397.339	106.37
397.553	82.92
397.766	176.5
397.98	113.73
398.194	137.56
398.408	117.41
398.621	159.07
398.835	171.27
399.049	146.47
399.262	194.13
399.476	191.03
399.69	158.29
399.903	258.46
400.117	153.64
400.331	168.75
400.544	138.72
400.758	263.69
400.971	168.56
401.185	190.07
401.398	132.91
401.612	235.79
401.826	207.12
402.039	191.81
402.253	158.49
402.466	241.8
402.68	161.78
402.893	197.43
403.106	177.47
403.32	173.02
403.533	205.95
403.747	182.7
403.96	222.81
404.174	215.25
404.387	126.32
404.6	190.84
404.814	226.68
405.027	179.6
405.24	194.72
405.454	181.93
405.667	221.65
405.88	134.07
406.094	206.53
406.307	230.95
406.52	174.18
406.733	151.32
406.947	123.61
407.16	247.61
407.373	237.53
407.586	165.07
407.799	161.78
408.012	224.17
408.226	197.43
408.439	248.38
408.652	167.4
408.865	232.3
409.078	280.16
409.291	257.3
409.504	160.42
409.717	239.08
409.93	248.97
410.143	234.05
410.357	141.82
410.57	130.97
410.783	210.02
410.996	216.8
411.209	223.97
411.421	262.72
411.634	217.97
411.847	191.03
412.06	261.95
412.273	210.99
412.486	225.52
412.699	310.38
412.912	200.33
413.125	273.96
413.338	249.16
413.55	254.78
413.763	238.5
413.976	258.27
414.189	188.32
414.402	231.53
414.615	299.15
414.827	180.77
415.04	300.89
415.253	268.53
415.466	290.04
415.678	317.75
415.891	209.05
416.104	232.3
416.316	248.19
416.529	219.9
416.742	280.74
416.954	283.45
417.167	248.97
417.38	237.34
417.592	291.78
417.805	195.49
418.017	204.4
418.23	275.51
418.442	209.63
418.655	237.53
418.868	265.82
419.08	280.35
419.293	286.36
419.505	273.18
419.718	256.33
419.93	292.75
420.142	278.8
420.355	292.17
420.567	297.6
420.78	287.33
420.992	241.41
421.205	333.05
421.417	215.64
421.629	277.25
421.842	266.01
422.054	243.93
422.266	289.46
422.479	286.16
422.691	231.92
422.903	303.6
423.115	249.93
423.328	239.47
423.54	268.73
423.752	272.8
423.964	224.94
424.177	276.09
424.389	249.74
424.601	384.78
424.813	307.28
425.025	321.23
425.238	295.66
425.45	271.05
425.662	272.21
425.874	592.87
426.086	287.71
426.298	291.4
426.51	307.09
426.722	267.18
426.934	259.23
427.146	319.88
427.358	270.66
427.57	320.46
427.782	266.21
427.994	263.11
428.206	276.48
428.418	240.83
428.63	308.06
428.842	344.68
429.054	280.93
429.266	302.63
429.478	250.71
429.69	277.06
429.902	231.14
430.114	332.08
430.325	302.63
430.537	237.73
430.749	248.58
430.961	175.53
431.173	207.7
431.384	260.98
431.596	139.3
431.808	224.17
432.02	283.84
432.231	314.45
432.443	357.27
432.655	300.7
432.867	311.93
433.078	320.07
433.29	404.35
433.502	332.28
433.713	397.18
433.925	335.76
434.136	403.38
434.348	265.63
434.56	233.66
434.771	404.35
434.983	273.76
435.194	300.11
435.406	336.35
435.617	381.49
435.829	412.68
436.04	376.84
436.252	378.19
436.463	403.77
436.675	386.53
436.886	362.89
437.098	382.07
437.309	438.26
437.521	351.84
437.732	399.31
437.943	386.72
438.155	365.79
438.366	324.14
438.578	399.31
438.789	350.68
439	375.87
439.211	337.9
439.423	398.34
439.634	382.65
439.845	419.27
440.057	393.31
440.268	403.58
440.479	351.84
440.69	375.09
440.902	349.91
441.113	353.98
441.324	361.73
441.535	416.17
441.746	471.77
441.957	354.56
442.168	385.17
442.38	420.82
442.591	434.58
442.802	372.19
443.013	414.81
443.224	421.21
443.435	392.34
443.646	409.97
443.857	422.37
444.068	417.14
444.279	378.97
444.49	467.9
444.701	436.51
444.912	521.76
445.123	488.44
445.334	438.45
445.545	463.44
445.756	384.39
445.967	427.79
446.178	427.21
446.388	449.69
446.599	454.14
446.81	467.12
447.021	428.57
447.232	455.69
447.443	472.74
447.653	408.03
447.864	485.92
448.075	466.74
448.286	516.53
448.496	470.61
448.707	480.3
448.918	426.44
449.129	526.99
449.339	428.76
449.55	506.46
449.761	471
449.971	504.32
450.182	451.43
450.393	490.96
450.603	449.49
450.814	537.84
451.024	520.41
451.235	540.75
451.446	577.17
451.656	521.57
451.867	469.45
452.077	525.44
452.288	571.75
452.498	555.86
452.709	482.82
452.919	512.07
453.13	475.07
453.34	540.36
453.55	459.57
453.761	502.97
453.971	483.01
454.182	498.32
454.392	518.08
454.602	572.14
454.813	522.92
455.023	520.79
455.233	457.24
455.444	509.75
455.654	388.08
455.864	508.01
456.075	482.82
456.285	488.44
456.495	502.77
456.705	489.79
456.916	559.15
457.126	589.96
457.336	511.69
457.546	457.05
457.756	485.92
457.967	551.79
458.177	497.16
458.387	524.47
458.597	462.86
458.807	519.82
459.017	520.6
459.227	482.24
459.437	512.66
459.647	540.75
459.857	560.32
460.068	505.1
460.278	592.87
460.488	524.47
460.698	603.33
460.908	515.56
461.117	464.99
461.327	528.35
461.537	525.83
461.747	535.32
461.957	563.8
462.167	630.84
462.377	591.32
462.587	575.82
462.797	601.39
463.007	536.29
463.216	582.79
463.426	587.44
463.636	601.2
463.846	479.91
464.056	543.27
464.265	615.92
464.475	525.83
464.685	563.42
464.895	584.73
465.104	545.59
465.314	592.48
465.524	540.17
465.733	525.44
465.943	638.2
466.153	627.35
466.362	603.72
466.572	581.24
466.782	567.1
466.991	557.22
467.201	630.26
467.41	490.76
467.62	580.27
467.829	572.52
468.039	601.59
468.249	575.04
468.458	586.67
468.668	601.2
468.877	619.02
469.086	669.59
469.296	653.51
469.505	615.73
469.715	700.4
469.924	620.57
470.134	648.08
470.343	679.08
470.552	593.06
470.762	611.66
470.971	578.72
471.18	636.85
471.39	598.68
471.599	586.47
471.808	647.5
472.018	601.59
472.227	685.48
472.436	682.18
472.645	644.21
472.855	628.13
473.064	700.59
473.273	654.67
473.482	697.1
473.691	706.98
473.901	700.78
474.11	676.18
474.319	785.84
474.528	696.52
474.737	762.59
474.946	695.36
475.155	719.77
475.364	759.3
475.573	714.35
475.783	736.05
475.992	745.15
476.201	775.57
476.41	726.55
476.619	704.85
476.828	738.18
477.037	694.39
477.245	723.26
477.454	756.58
477.663	724.61
477.872	750
478.081	809.67
478.29	717.64
478.499	832.14
478.708	825.17
478.917	849.78
479.125	759.3
479.334	825.17
479.543	806.38
479.752	831.37
479.961	788.55
480.169	832.14
480.378	824.78
480.587	965.64
480.796	844.16
481.004	848.23
481.213	846.87
481.422	867.21
481.63	851.13
481.839	876.9
482.048	947.42
482.256	893.37
482.465	923.59
482.674	937.16
482.882	901.51
483.091	971.64
483.299	913.13
483.508	931.34
483.716	899.96
483.925	931.34
484.134	858.49
484.342	898.02
484.551	937.35
484.759	922.62
484.967	934.06
485.176	960.02
485.384	981.72
485.593	951.69
485.801	958.66
486.01	939.29
486.218	900.15
486.426	785.45
486.635	844.16
486.843	779.06
487.051	824.59
487.26	855.98
487.468	869.73
487.676	945.68
487.885	880.58
488.093	930.96
488.301	945.68
488.509	960.41
488.717	971.64
488.926	955.37
489.134	962.54
489.342	957.89
489.55	963.5
489.758	954.01
489.967	973
490.175	1088.86
490.383	986.17
490.591	1097.38
490.799	977.07
491.007	1076.27
491.215	1037.32
491.423	1053.6
491.631	1024.73
491.839	1059.8
492.047	1053.4
492.255	1017.56
492.463	964.09
492.671	1002.25
492.879	1050.69
493.087	1030.54
493.295	1047.98
493.503	1068.9
493.711	1094.67
493.919	1126.45
494.127	1096.03
494.334	1085.57
494.542	1043.33
494.75	1098.55
494.958	1071.62
495.166	1150.66
495.374	1133.42
495.581	1112.88
495.789	1159.19
495.997	1173.33
496.205	1068.13
496.412	1121.22
496.62	1118.7
496.828	1117.15
497.035	1128.19
497.243	1153.76
497.451	1145.05
497.658	1164.81
497.866	1142.53
498.074	1196
498.281	1102.42
498.489	1250.83
498.696	1128.97
498.904	1108.62
499.112	1124.12
499.319	1207.05
499.527	1140.59
499.734	1190.58
499.942	1111.14
500.149	1109.78
500.357	1163.06
500.564	1101.84
500.771	1143.5
500.979	1101.45
501.186	1097.97
501.394	1160.55
501.601	1143.3
501.808	1148.53
502.016	1134
502.223	1085.37
502.43	1114.63
502.638	1110.56
502.845	1093.7
503.052	1190
503.26	1136.33
503.467	1224.68
503.674	1158.03
503.881	1192.71
504.089	1221.38
504.296	1212.47
504.503	1107.85
504.71	1143.5
504.917	1118.89
505.125	1180.11
505.332	1181.28
505.539	1186.7
505.746	1287.84
505.953	1243.28
506.16	1226.61
506.367	1252.77
506.574	1268.27
506.781	1292.68
506.988	1204.72
507.195	1229.52
507.402	1238.43
507.609	1255.48
507.816	1221.77
508.023	1211.89
508.23	1216.73
508.437	1146.98
508.644	1179.53
508.851	1260.52
509.058	1229.33
509.265	1220.03
509.472	1278.34
509.679	1353.13
509.885	1259.36
510.092	1294.43
510.299	1249.09
510.506	1227.39
510.713	1263.04
510.92	1279.51
511.126	1268.27
511.333	1338.79
511.54	1306.05
511.746	1331.24
511.953	1371.92
512.16	1357.2
512.367	1314.19
512.573	1304.31
512.78	1311.47
512.987	1302.18
513.193	1307.41
513.4	1204.91
513.606	1268.27
513.813	1307.41
514.02	1262.26
514.226	1384.52
514.433	1391.11
514.639	1267.11
514.846	1297.72
515.052	1281.06
515.259	1283.96
515.465	1310.51
515.672	1326.39
515.878	1423.65
516.085	1312.44
516.291	1385.68
516.497	1320.19
516.704	1302.56
516.91	1266.53
517.117	1218.28
517.323	1165.39
517.529	1220.8
517.736	1202.2
517.942	1209.95
518.148	1219.06
518.354	1283.58
518.561	1302.95
518.767	1264.98
518.973	1301.79
519.179	1320.58
519.386	1301.4
519.592	1304.11
519.798	1326.78
520.004	1401.76
520.21	1363.79
520.417	1420.55
520.623	1422.3
520.829	1457.95
521.035	1444.77
521.241	1451.94
521.447	1468.99
521.653	1555.6
521.859	1456.4
522.065	1474.61
522.271	1575.55
522.477	1499.41
522.683	1555.02
522.889	1558.7
523.095	1516.07
523.301	1512.39
523.507	1440.51
523.713	1500.38
523.919	1492.82
524.125	1590.08
524.331	1535.45
524.537	1642.01
524.742	1613.72
524.948	1623.02
525.154	1621.47
525.36	1721.06
525.566	1622.44
525.772	1711.56
525.977	1598.41
526.183	1645.11
526.389	1718.54
526.595	1581.75
526.8	1593.38
527.006	1510.65
527.212	1474.03
527.417	1455.43
527.623	1445.16
527.829	1568.77
528.034	1586.21
528.24	1620.5
528.446	1573.23
528.651	1685.79
528.857	1672.43
529.062	1730.74
529.268	1732.68
529.473	1720.28
529.679	1734.23
529.884	1815.61
530.09	1781.7
530.295	1819.29
530.501	1797.59
530.706	1741.01
530.912	1733.46
531.117	1771.82
531.323	1802.24
531.528	1822.39
531.733	1814.44
531.939	1775.69
532.144	1814.44
532.35	1810.37
532.555	1857.65
532.76	1803.4
532.966	1822.39
533.171	1785.77
533.376	1704.39
533.581	1719.7
533.787	1772.98
533.992	1802.24
534.197	1830.72
534.402	1788.09
534.607	1807.66
534.813	1947.93
535.018	1819.67
535.223	1835.37
535.428	1830.52
535.633	1889.04
535.838	1881.87
536.043	1918.87
536.249	1975.64
536.454	1885.94
536.659	1947.55
536.864	1877.02
537.069	1880.9
537.274	1910.35
537.479	1872.57
537.684	1883.61
537.889	1853.77
538.094	1972.15
538.299	1918.68
538.504	1902.6
538.708	1903.76
538.913	1927.2
539.118	1931.47
539.323	1926.62
539.528	1862.69
539.733	1874.31
539.938	1905.89
540.142	1915.97
540.347	1899.69
540.552	1870.24
540.757	1884.39
540.962	1878.57
541.166	1808.24
541.371	1827.04
541.576	1878.38
541.781	1742.37
541.985	1925.07
542.19	1910.93
542.395	1957.82
542.599	1962.47
542.804	1964.98
543.008	1964.4
543.213	1892.52
543.418	1880.7
543.622	1946.77
543.827	1891.17
544.031	2013.81
544.236	1981.65
544.44	1962.27
544.645	2049.07
544.849	1945.61
545.054	2024.08
545.258	2071.16
545.463	2020.01
545.667	1902.79
545.872	1962.08
546.076	1989.78
546.281	1983.39
546.485	1948.13
546.689	1964.4
546.894	2029.11
547.098	1968.86
547.302	1956.46
547.507	1979.52
547.711	1995.6
547.915	2040.16
548.119	1925.07
548.324	1940.96
548.528	2038.22
548.732	1936.12
548.936	2030.08
549.141	2002.38
549.345	2003.54
549.549	1976.22
549.753	2040.35
549.957	2069.03
550.161	2077.94
550.366	2009.55
550.57	1981.45
550.774	2017.88
550.978	1994.24
551.182	2038.22
551.386	1972.15
551.59	1994.43
551.794	2003.35
551.998	2003.93
552.202	1995.4
552.406	1952.39
552.61	2007.22
552.814	2015.94
553.018	2062.05
553.222	1984.36
553.426	1954.72
553.63	2068.45
553.833	1972.93
554.037	1947.74
554.241	2003.54
554.445	1978.35
554.649	1985.91
554.853	1978.93
555.056	2047.33
555.26	2067.48
555.464	2058.76
555.668	2032.02
555.871	2065.15
556.075	2048.68
556.279	1969.83
556.483	1938.44
556.686	1981.26
556.89	1991.33
557.094	2021.95
557.297	1913.64
557.501	2005.09
557.704	1907.05
557.908	1968.28
558.112	1927.78
558.315	2003.73
558.519	1953.17
558.722	1908.41
558.926	1911.7
559.129	1851.84
559.333	1840.99
559.536	1855.52
559.74	1821.61
559.943	1792.36
560.147	1809.21
560.35	1828.01
560.553	1866.37
560.757	1799.91
560.96	1910.54
561.164	1859
561.367	1961.5
561.57	1894.85
561.774	1884.77
561.977	1879.35
562.18	1851.45
562.384	1956.65
562.587	1853
562.79	1863.46
562.993	1845.44
563.197	1850.09
563.4	1903.37
563.603	1905.7
563.806	1911.7
564.009	1834.98
564.212	1877.22
564.416	1773.17
564.619	1867.34
564.822	1740.24
565.025	1890
565.228	1832.27
565.431	1821.81
565.634	1741.21
565.837	1773.37
566.04	1756.51
566.243	1739.85
566.446	1674.17
566.649	1788.09
566.852	1712.34
567.055	1750.51
567.258	1753.61
567.461	1815.22
567.664	1788.67
567.867	1685.02
568.07	1784.02
568.273	1745.08
568.475	1807.27
568.678	1720.09
568.881	1720.86
569.084	1710.4
569.287	1619.34
569.489	1621.66
569.692	1713.89
569.895	1709.24
570.098	1635.03
570.3	1632.71
570.503	1554.24
570.706	1600.74
570.909	1569.16
571.111	1508.9
571.314	1574.58
571.516	1594.35
571.719	1590.47
571.922	1566.25
572.124	1534.09
572.327	1612.56
572.529	1532.93
572.732	1525.18
572.935	1565.09
573.137	1648.6
573.34	1579.04
573.542	1624.18
573.745	1626.9
573.947	1590.86
574.15	1577.3
574.352	1535.83
574.554	1637.94
574.757	1526.34
574.959	1512.97
575.162	1533.7
575.364	1508.32
575.566	1604.03
575.769	1510.45
575.971	1521.11
576.173	1405.83
576.376	1506.58
576.578	1557.73
576.78	1566.06
576.982	1426.17
577.185	1487.4
577.387	1437.6
577.589	1429.85
577.791	1497.47
577.993	1495.34
578.196	1468.41
578.398	1495.73
578.6	1510.65
578.802	1427.72
579.004	1427.53
579.206	1415.9
579.408	1455.62
579.61	1426.17
579.812	1485.65
580.014	1447.87
580.216	1389.36
580.418	1425.4
580.62	1403.12
580.822	1382
581.024	1459.3
581.226	1454.65
581.428	1436.44
581.63	1521.3
581.832	1401.95
582.034	1474.42
582.236	1431.6
582.438	1458.72
582.64	1472.87
582.841	1493.79
583.043	1508.52
583.245	1487.4
583.447	1451.75
583.649	1433.73
583.85	1406.41
584.052	1475.97
584.254	1386.65
584.456	1454.07
584.657	1352.94
584.859	1440.7
585.061	1396.14
585.262	1377.74
585.464	1369.41
585.666	1442.06
585.867	1360.11
586.069	1449.81
586.27	1388.59
586.472	1397.5
586.674	1378.32
586.875	1348.09
587.077	1332.01
587.278	1372.89
587.48	1379.87
587.681	1465.12
587.883	1391.49
588.084	1307.99
588.285	1335.89
588.487	1335.69
588.688	1362.04
588.89	1275.44
589.091	1270.98
589.292	1296.56
589.494	1221.77
589.695	1226.23
589.896	1134
590.098	1165.97
590.299	1215.57
590.5	1171.78
590.702	1221.96
590.903	1192.71
591.104	1288.42
591.305	1291.13
591.507	1300.63
591.708	1283.58
591.909	1238.63
592.11	1309.34
592.311	1296.75
592.512	1247.34
592.714	1204.72
592.915	1244.44
593.116	1216.35
593.317	1255.29
593.518	1248.31
593.719	1219.64
593.92	1285.32
594.121	1319.42
594.322	1272.92
594.523	1271.56
594.724	1238.82
594.925	1252.77
595.126	1258.97
595.327	1255.29
595.528	1249.09
595.729	1265.17
595.929	1256.26
596.13	1248.12
596.331	1274.86
596.532	1268.27
596.733	1318.84
596.934	1274.08
597.135	1297.53
597.335	1268.08
597.536	1285.9
597.737	1274.86
597.938	1218.48
598.138	1291.91
598.339	1256.26
598.54	1266.72
598.74	1241.92
598.941	1242.31
599.142	1328.52
599.342	1254.51
599.543	1220.22
599.744	1226.42
599.944	1267.49
600.145	1211.11
600.345	1256.64
600.546	1296.94
600.746	1274.66
600.947	1312.64
601.147	1237.27
601.348	1285.51
601.548	1189.61
601.749	1262.26
601.949	1202.4
602.15	1183.8
602.35	1185.15
602.551	1271.37
602.751	1191.74
602.951	1190.77
603.152	1132.84
603.352	1272.73
603.552	1214.02
603.753	1238.82
603.953	1236.69
604.153	1238.04
604.354	1191.16
604.554	1196.58
604.754	1235.53
604.954	1168.88
605.155	1234.36
605.355	1206.66
605.555	1244.44
605.755	1274.28
605.955	1203.56
606.155	1262.84
606.356	1232.23
606.556	1250.25
606.756	1228.55
606.956	1152.6
607.156	1244.24
607.356	1159.38
607.556	1220.61
607.756	1206.85
607.956	1259.55
608.156	1207.05
608.356	1171.98
608.556	1225.06
608.756	1192.13
608.956	1149.31
609.156	1198.52
609.356	1168.3
609.556	1164.81
609.755	1173.33
609.955	1101.84
610.155	1186.7
610.355	1173.14
610.555	1122.18
610.755	1174.5
610.954	1074.91
611.154	1165.58
611.354	1172.17
611.554	1078.01
611.753	1142.33
611.953	1086.92
612.153	1178.76
612.352	1157.83
612.552	1073.55
612.752	1037.13
612.951	1106.49
613.151	1122.57
613.351	1101.26
613.55	1120.63
613.75	1136.52
613.949	1092.93
614.149	1127.03
614.348	1113.27
614.548	1074.13
614.747	1044.3
614.947	1065.61
615.146	993.15
615.346	1108.23
615.545	1117.73
615.745	1104.55
615.944	1113.47
616.144	1087.5
616.343	1106.1
616.542	1060.77
616.742	1083.63
616.941	1043.91
617.14	1007.1
617.34	1069.48
617.539	1054.76
617.738	1045.85
617.938	1122.57
618.137	1038.68
618.336	1006.32
618.535	1098.93
618.734	1046.43
618.934	1078.4
619.133	1082.27
619.332	1109.98
619.531	1045.27
619.73	1038.68
619.929	1105.13
620.128	1064.06
620.328	1104.75
620.527	1024.73
620.726	1045.65
620.925	1059.22
621.124	1058.44
621.323	1071.42
621.522	987.72
621.721	1022.99
621.92	963.12
622.119	1044.1
622.318	1005.74
622.517	1009.42
622.715	1017.37
622.914	958.47
623.113	1002.25
623.312	959.63
623.511	1032.09
623.71	994.5
623.909	987.72
624.107	1080.72
624.306	973
624.505	982.69
624.704	963.7
624.902	992.37
625.101	1063.28
625.3	985.4
625.499	937.54
625.697	979.2
625.896	969.9
626.095	978.81
626.293	946.65
626.492	949.75
626.69	983.85
626.889	951.3
627.088	991.02
627.286	927.47
627.485	966.02
627.683	942.19
627.882	969.32
628.08	881.36
628.279	967.57
628.477	1027.25
628.676	908.29
628.874	970.48
629.073	941.42
629.271	903.06
629.469	965.05
629.668	956.92
629.866	941.22
630.065	917.39
630.263	934.44
630.461	921.85
630.66	939.87
630.858	932.51
631.056	975.52
631.254	984.04
631.453	904.8
631.651	954.01
631.849	922.82
632.047	930.18
632.245	926.31
632.444	954.4
632.642	989.66
632.84	957.11
633.038	931.92
633.236	873.8
633.434	901.31
633.632	905.19
633.83	908.48
634.028	943.74
634.227	925.72
634.425	977.45
634.623	903.83
634.821	938.32
635.019	922.04
635.216	917.39
635.414	948.97
635.612	922.43
635.81	899.37
636.008	998.96
636.206	896.86
636.404	918.36
636.602	885.04
636.8	899.37
636.997	929.6
637.195	960.99
637.393	941.81
637.591	979
637.789	920.88
637.986	907.71
638.184	901.7
638.382	1000.12
638.58	930.18
638.777	989.08
638.975	930.18
639.173	892.4
639.37	906.54
639.568	912.74
639.765	922.24
639.963	892.98
640.161	962.92
640.358	930.96
640.556	870.89
640.753	888.72
640.951	855.39
641.148	900.92
641.346	872.44
641.543	875.54
641.741	910.61
641.938	844.35
642.136	900.15
642.333	841.06
642.531	930.37
642.728	967.19
642.925	898.79
643.123	844.74
643.32	878.45
643.517	857.14
643.715	879.42
643.912	854.23
644.109	869.34
644.306	853.84
644.504	822.65
644.701	867.21
644.898	872.06
645.095	852.1
645.293	855.78
645.49	879.22
645.687	846.09
645.884	885.62
646.081	770.15
646.278	845.51
646.475	783.13
646.672	821.88
646.87	862.76
647.067	849.58
647.264	865.86
647.461	825.17
647.658	768.98
647.855	840.48
648.052	799.79
648.249	730.81
648.446	824.59
648.642	782.55
648.839	776.15
649.036	782.35
649.233	767.82
649.43	729.46
649.627	712.21
649.824	760.26
650.021	743.21
650.217	739.15
650.414	754.84
650.611	785.84
650.808	790.49
651.004	786.23
651.201	767.63
651.398	832.73
651.595	794.36
651.791	774.02
651.988	798.43
652.185	779.25
652.381	798.24
652.578	729.26
652.775	805.02
652.971	751.74
653.168	798.43
653.364	786.81
653.561	728.3
653.757	766.85
653.954	774.02
654.15	751.35
654.347	838.54
654.543	768.79
654.74	732.17
654.936	723.65
655.133	778.09
655.329	763.95
655.525	752.71
655.722	789.91
655.918	730.23
656.115	767.63
656.311	694.39
656.507	640.33
656.704	594.03
656.9	673.85
657.096	641.3
657.292	646.15
657.489	704.46
657.685	729.85
657.881	672.3
658.077	699.04
658.273	706.6
658.47	770.34
658.666	712.41
658.862	720.74
659.058	729.26
659.254	757.55
659.45	695.75
659.646	755.81
659.842	736.05
660.038	792.04
660.234	728.3
660.43	754.06
660.626	835.83
660.822	777.12
661.018	781
661.214	733.72
661.41	707.18
661.606	775.76
661.802	783.71
661.998	745.54
662.194	694
662.39	754.65
662.586	755.42
662.781	768.6
662.977	747.09
663.173	763.75
663.369	751.16
663.564	754.84
663.76	766.85
663.956	718.41
664.152	790.49
664.347	687.03
664.543	732.95
664.739	713.76
664.934	676.76
665.13	666.68
665.326	742.83
665.521	754.84
665.717	709.11
665.912	694.78
666.108	617.47
666.304	689.55
666.499	710.47
666.695	650.8
666.89	732.36
667.086	781.19
667.281	725
667.477	781.19
667.672	722.48
667.867	718.61
668.063	768.6
668.258	679.67
668.454	727.13
668.649	799.98
668.844	694
669.04	705.43
669.235	697.49
669.43	693.42
669.626	658.93
669.821	698.65
670.016	665.33
670.211	691.87
670.407	654.48
670.602	731.59
670.797	676.57
670.992	725.58
671.187	685.09
671.382	725.39
671.578	690.9
671.773	708.92
671.968	683.93
672.163	691.68
672.358	725.78
672.553	664.55
672.748	692.26
672.943	790.29
673.138	666.3
673.333	726.75
673.528	676.95
673.723	716.09
673.918	686.83
674.113	631.81
674.308	783.13
674.503	727.52
674.698	743.8
674.892	702.33
675.087	687.42
675.282	732.75
675.477	651.96
675.672	711.63
675.867	680.83
676.061	644.4
676.256	613.6
676.451	674.05
676.646	701.75
676.84	663.58
677.035	643.24
677.23	639.75
677.424	687.03
677.619	708.53
677.814	725
678.008	706.79
678.203	630.26
678.397	654.48
678.592	685.67
678.787	714.35
678.981	658.16
679.176	698.27
679.37	693.23
679.565	652.54
679.759	676.76
679.954	707.56
680.148	723.26
680.342	744.76
680.537	708.15
680.731	681.6
680.926	734.11
681.12	700.78
681.314	656.03
681.509	645.37
681.703	682.38
681.897	702.14
682.092	686.45
682.286	650.41
682.48	756.58
682.674	724.42
682.869	672.3
683.063	690.32
683.257	746.31
683.451	690.52
683.645	682.38
683.839	652.93
684.034	657.58
684.228	714.73
684.422	621.54
684.616	626.58
684.81	683.15
685.004	654.87
685.198	647.89
685.392	706.21
685.586	621.73
685.78	662.03
685.974	675.79
686.168	705.82
686.362	767.43
686.556	652.15
686.75	645.57
686.944	620.18
687.138	630.45
687.331	552.37
687.525	553.73
687.719	503.94
687.913	585.12
688.107	572.52
688.301	534.55
688.494	597.9
688.688	539.59
688.882	536.1
689.076	511.11
689.269	569.42
689.463	651.18
689.657	583.57
689.85	581.24
690.044	571.55
690.238	566.52
690.431	571.36
690.625	550.44
690.818	622.12
691.012	607.2
691.205	617.86
691.399	581.44
691.593	637.43
691.786	664.55
691.98	683.15
692.173	705.63
692.366	624.25
692.56	632.2
692.753	724.03
692.947	627.55
693.14	687.61
693.333	702.72
693.527	613.98
693.72	675.98
693.914	634.52
694.107	629.29
694.3	676.57
694.493	637.62
694.687	690.9
694.88	633.94
695.073	748.25
695.266	708.34
695.46	679.86
695.653	732.17
695.846	745.35
696.039	635.49
696.232	685.48
696.425	693.03
696.618	692.65
696.812	741.28
697.005	795.14
697.198	876.9
697.391	762.4
697.584	822.84
697.777	816.26
697.97	812.38
698.163	866.24
698.356	834.28
698.549	898.6
698.742	850.74
698.935	806.57
699.127	854.62
699.32	825.36
699.513	841.83
699.706	873.41
699.899	902.09
700.092	852.49
700.285	912.94
700.477	842.8
700.67	918.56
700.863	928.05
701.056	1017.75
701.248	963.31
701.441	983.46
701.634	941.61
701.826	1075.3
702.019	958.27
702.212	1027.05
702.404	981.33
702.597	993.54
702.79	1011.75
702.982	1047.98
703.175	1092.73
703.367	1071.81
703.56	1090.41
703.752	1185.54
703.945	1121.8
704.137	1160.74
704.33	1181.86
704.522	1199.49
704.715	1231.26
704.907	1209.37
705.1	1244.83
705.292	1321.36
705.484	1271.37
705.677	1291.33
705.869	1279.12
706.061	1371.92
706.254	1382
706.446	1333.37
706.638	1332.21
706.831	1397.89
707.023	1386.07
707.215	1483.91
707.407	1478.49
707.599	1482.75
707.792	1506.19
707.984	1506.58
708.176	1528.08
708.368	1525.18
708.56	1568.58
708.752	1540.68
708.944	1496.31
709.136	1584.27
709.329	1555.98
709.521	1730.16
709.713	1651.31
709.905	1706.72
710.097	1711.76
710.289	1648.4
710.481	1705.56
710.672	1753.99
710.864	1747.6
711.056	1804.76
711.248	1784.22
711.44	1828.2
711.632	1816.77
711.824	1833.24
712.016	1871.6
712.207	1926.62
712.399	1884.19
712.591	1941.93
712.783	1974.87
712.975	1956.85
713.166	1904.92
713.358	1941.73
713.55	2025.05
713.741	2068.06
713.933	2071.74
714.125	2032.21
714.316	2051.78
714.508	2099.06
714.7	2147.3
714.891	2136.06
715.083	2212.01
715.274	2132.58
715.466	2186.82
715.657	2232.94
715.849	2128.7
716.04	2219.57
716.232	2177.53
716.423	2212.98
716.615	2178.49
716.806	2115.72
716.998	2130.44
717.189	2094.41
717.381	1995.98
717.572	1997.15
717.763	2007.8
717.955	2023.3
718.146	1995.98
718.337	1971.96
718.528	1891.94
718.72	1858.04
718.911	1915.97
719.102	1863.46
719.293	1921.2
719.485	1945.42
719.676	1939.22
719.867	1862.1
720.058	1903.57
720.249	1915.77
720.44	1950.84
720.632	1986.3
720.823	2037.64
721.014	2164.16
721.205	2125.6
721.396	2221.7
721.587	2292.22
721.778	2378.25
721.969	2409.83
722.16	2457.88
722.351	2454.97
722.542	2602.03
722.733	2626.24
722.924	2525.88
723.115	2609
723.305	2600.09
723.496	2662.67
723.687	2464.27
723.878	2517.55
724.069	2473.76
724.26	2551.84
724.45	2507.86
724.641	2470.86
724.832	2526.08
725.023	2483.84
725.213	2536.54
725.404	2491.59
725.595	2526.27
725.785	2500.11
725.976	2569.28
726.167	2589.63
726.357	2597.76
726.548	2700.26
726.739	2578.97
726.929	2695.41
727.12	2711.88
727.31	2757.22
727.501	2706.26
727.691	2750.63
727.882	2728.74
728.072	2789.77
728.263	2782.21
728.453	2853.32
728.644	2863.78
728.834	2815.15
729.024	2792.67
729.215	2787.05
729.405	2791.12
729.596	2917.25
729.786	2934.5
729.976	2950.58
730.167	2937.98
730.357	2936.05
730.547	2964.91
730.737	3012.58
730.928	3037.57
731.118	3070.31
731.308	3067.21
731.498	3060.62
731.688	3121.85
731.879	3124.17
732.069	3204.58
732.259	3222.4
732.449	3256.89
732.639	3361.51
732.829	3376.43
733.019	3384.18
733.209	3451.41
733.399	3457.81
733.589	3523.68
733.779	3525.42
733.969	3527.75
734.159	3637.41
734.349	3669.57
734.539	3750.75
734.729	3681
734.919	3757.53
735.109	3808.1
735.299	3711.62
735.488	3782.91
735.678	3749.01
735.868	3755.02
736.058	3777.1
736.248	3737.38
736.437	3681.97
736.627	3733.12
736.817	3892.58
737.007	3788.15
737.196	3847.43
737.386	3858.86
737.576	3836
737.765	3833.29
737.955	3815.85
738.144	4003.98
738.334	3936.56
738.524	3872.04
738.713	3928.42
738.903	3943.53
739.092	3945.66
739.282	3958.06
739.471	3995.26
739.661	3927.26
739.85	4042.73
740.04	4044.09
740.229	4052.22
740.419	4064.24
740.608	4089.23
740.797	4059.39
740.987	4135.73
741.176	4055.32
741.365	4028.2
741.555	4027.81
741.744	4157.43
741.933	4090
742.123	4106.47
742.312	4154.72
742.501	4182.23
742.69	4182.03
742.88	4131.27
743.069	4238.22
743.258	4194.43
743.447	4263.99
743.636	4267.86
743.825	4211.68
744.014	4223.3
744.204	4267.67
744.393	4181.07
744.582	4287.63
744.771	4316.69
744.96	4276.39
745.149	4308.55
745.338	4260.5
745.527	4332.19
745.716	4288.79
745.905	4314.36
746.094	4355.05
746.283	4278.52
746.471	4310.68
746.66	4344.78
746.849	4373.84
747.038	4350.01
747.227	4358.93
747.416	4355.24
747.604	4325.99
747.793	4320.18
747.982	4322.11
748.171	4370.36
748.359	4388.76
748.548	4385.47
748.737	4380.82
748.926	4348.46
749.114	4218.46
749.303	4350.59
749.491	4354.47
749.68	4269.61
749.869	4337.03
750.057	4263.41
750.246	4330.06
750.434	4314.36
750.623	4279.1
750.811	4296.54
751	4295.96
751.188	4327.15
751.377	4317.46
751.565	4235.9
751.754	4238.22
751.942	4240.93
752.131	4298.86
752.319	4255.08
752.507	4217.3
752.696	4285.69
752.884	4280.07
753.072	4248.3
753.261	4263.8
753.449	4278.52
753.637	4214.78
753.825	4369.97
754.014	4304.48
754.202	4277.75
754.39	4307.97
754.578	4296.15
754.766	4215.16
754.955	4233.38
755.143	4344.59
755.331	4237.06
755.519	4244.42
755.707	4252.17
755.895	4255.85
756.083	4195.01
756.271	4175.25
756.459	4218.65
756.647	4232.8
756.835	4223.11
757.023	4185.72
757.211	4216.91
757.399	4150.07
757.587	4207.22
757.775	4121.78
757.963	4131.66
758.151	4171.57
758.339	4124.49
758.526	4065.4
758.714	4115.97
758.902	3997.78
759.09	3980.34
759.278	3789.89
759.465	3605.64
759.653	3184.82
759.841	3005.02
760.028	2580.71
760.216	2303.27
760.404	2166.87
760.591	1827.23
760.779	1621.66
760.967	1460.47
761.154	1280.86
761.342	1298.3
761.529	1325.23
761.717	1397.31
761.905	1412.42
762.092	1552.69
762.28	1474.22
762.467	1557.92
762.655	1472.29
762.842	1538.74
763.029	1559.47
763.217	1570.9
763.404	1555.4
763.592	1637.75
763.779	1583.88
763.966	1648.01
764.154	1656.35
764.341	1754.77
764.528	1730.74
764.716	1816.57
764.903	1891.17
765.09	1958.2
765.277	1995.4
765.465	2177.33
765.652	2224.8
765.839	2309.47
766.026	2462.14
766.213	2432.5
766.4	2550.1
766.588	2724.09
766.775	2772.91
766.962	2868.62
767.149	2918.03
767.336	3085.23
767.523	3051.71
767.71	3166.8
767.897	3319.67
768.084	3333.81
768.271	3384.57
768.458	3458.19
768.645	3517.29
768.832	3466.91
769.019	3496.94
769.206	3561.27
769.392	3666.86
769.579	3695.53
769.766	3619
769.953	3613.77
770.14	3693.4
770.327	3637.22
770.513	3727.5
770.7	3809.65
770.887	3662.21
771.073	3734.87
771.26	3726.15
771.447	3687.2
771.634	3692.43
771.82	3754.63
772.007	3670.54
772.193	3745.33
772.38	3722.85
772.567	3705.61
772.753	3700.18
772.94	3729.25
773.126	3755.4
773.313	3755.98
773.499	3738.74
773.686	3773.42
773.872	3687.2
774.059	3702.32
774.245	3671.12
774.432	3681.39
774.618	3588.59
774.804	3663.95
774.991	3592.07
775.177	3658.92
775.363	3626.95
775.55	3651.36
775.736	3582.39
775.922	3609.9
776.109	3613.97
776.295	3642.06
776.481	3630.63
776.667	3669.19
776.853	3613.39
777.04	3580.84
777.226	3588.97
777.412	3687.98
777.598	3556.42
777.784	3551.77
777.97	3496.36
778.156	3602.34
778.342	3503.14
778.528	3541.51
778.715	3486.68
778.901	3487.45
779.087	3545.57
779.272	3510.31
779.458	3485.13
779.644	3518.64
779.83	3485.51
780.016	3580.26
780.202	3505.66
780.388	3429.91
780.574	3432.81
780.76	3416.15
780.946	3482.22
781.131	3468.85
781.317	3372.56
781.503	3346.4
781.689	3377.21
781.874	3518.64
782.06	3401.43
782.246	3410.73
782.432	3392.13
782.617	3437.46
782.803	3468.46
782.989	3347.56
783.174	3347.56
783.36	3319.86
783.545	3323.73
783.731	3321.6
783.916	3206.32
784.102	3324.31
784.288	3309.98
784.473	3320.05
784.659	3247.98
784.844	3302.81
785.029	3295.45
785.215	3227.25
785.4	3240.23
785.586	3331.29
785.771	3182.49
785.956	3257.47
786.142	3197.02
786.327	3189.85
786.512	3194.5
786.698	3192.76
786.883	3220.66
787.068	3160.21
787.254	3196.64
787.439	3193.34
787.624	3154.98
787.809	3178.04
787.994	3110.22
788.18	3202.25
788.365	3110.61
788.55	3094.92
788.735	3133.47
788.92	3120.49
789.105	3063.92
789.29	3137.93
789.475	3060.43
789.66	3102.67
789.845	3015.87
790.03	3028.27
790.215	3056.94
790.4	3097.44
790.585	3076.71
790.77	3026.14
790.955	2951.16
791.14	3005.02
791.325	3096.27
791.51	2938.37
791.695	3020.52
791.879	3014.9
792.064	2930.62
792.249	3052.1
792.434	2974.6
792.618	3006.57
792.803	3055.78
792.988	2975.18
793.173	3026.53
793.357	3027.49
793.542	2951.74
793.727	2990.49
793.911	3006.76
794.096	2992.04
794.281	2993.59
794.465	3123.21
794.65	3024.59
794.834	3048.03
795.019	3013.16
795.203	3074.57
795.388	3057.14
795.572	3076.9
795.757	3047.06
795.941	3081.55
796.126	3022.26
796.31	2974.79
796.494	3031.56
796.679	3028.08
796.863	2982.54
797.048	3056.56
797.232	3036.41
797.416	3049.78
797.601	3042.61
797.785	3131.92
797.969	3114.29
798.153	3052.1
798.338	3048.23
798.522	3096.47
798.706	3094.34
798.89	3098.79
799.074	3214.07
799.258	3181.91
799.443	3132.51
799.627	3087.56
799.811	3153.62
799.995	3055.2
800.179	3100.92
800.363	3058.88
800.547	3109.06
800.731	3121.07
800.915	2996.69
801.099	3016.26
801.283	3047.26
801.467	3065.08
801.651	3064.5
801.835	3130.18
802.019	3065.86
802.202	3083.29
802.386	3005.6
802.57	3011.41
802.754	3048.23
802.938	3020.52
803.121	3017.03
803.305	3097.05
803.489	3037.76
803.673	3074.38
803.856	3065.27
804.04	3077.48
804.224	3062.76
804.407	3045.32
804.591	3039.7
804.775	3019.55
804.958	3059.66
805.142	3135.61
805.326	3040.67
805.509	3054.23
805.693	3088.72
805.876	3088.14
806.06	3045.9
806.243	3076.71
806.427	3084.46
806.61	3108.48
806.794	3025.17
806.977	3134.06
807.16	3088.72
807.344	3050.55
807.527	3069.73
807.71	3028.08
807.894	3088.52
808.077	3106.54
808.26	3016.45
808.444	3021.29
808.627	3101.89
808.81	3012.77
808.993	2956.39
809.177	2932.95
809.36	2957.36
809.543	3024.59
809.726	2919.96
809.909	2894.97
810.092	2877.92
810.276	2873.85
810.459	2889.55
810.642	2837.23
810.825	2814.18
811.008	2876.57
811.191	2749.85
811.374	2822.12
811.557	2762.25
811.74	2875.6
811.923	2761.87
812.106	2749.08
812.289	2697.54
812.472	2677.97
812.654	2745.59
812.837	2708.59
813.02	2648.14
813.203	2607.64
813.386	2508.06
813.569	2470.86
813.751	2452.45
813.934	2526.27
814.117	2435.79
814.3	2406.53
814.482	2348.8
814.665	2310.44
814.848	2287.96
815.03	2259.09
815.213	2259.48
815.396	2235.46
815.578	2202.71
815.761	2187.79
815.943	2238.94
816.126	2107
816.309	2057.98
816.491	2013.42
816.674	1959.37
816.856	1998.31
817.039	1997.34
817.221	2065.15
817.403	2049.07
817.586	2000.63
817.768	2034.73
817.951	1955.1
818.133	1969.63
818.315	1973.51
818.498	2027.18
818.68	2071.55
818.862	2045.39
819.045	2089.37
819.227	2059.53
819.409	2041.71
819.591	2056.05
819.774	2032.6
819.956	2026.01
820.138	2111.26
820.32	2079.1
820.502	2081.04
820.684	2199.61
820.866	2146.14
821.048	2238.94
821.231	2260.06
821.413	2213.17
821.595	2203.68
821.777	2223.44
821.959	2209.11
822.141	2299.97
822.323	2146.53
822.505	2101.19
822.686	2042.29
822.868	1966.15
823.05	1854.55
823.232	1809.79
823.414	1722.03
823.596	1809.02
823.778	1810.76
823.96	1859.97
824.141	1849.51
824.323	1843.12
824.505	1903.95
824.687	1996.95
824.868	1997.34
825.05	2110.29
825.232	2148.85
825.413	2212.4
825.595	2158.93
825.777	2080.46
825.958	2100.99
826.14	2106.81
826.321	2168.42
826.503	2145.17
826.685	2162.03
826.866	2188.18
827.048	2188.57
827.229	2127.15
827.411	2100.41
827.592	2044.81
827.773	2052.56
827.955	1950.07
828.136	1994.82
828.318	1946.77
828.499	2013.81
828.68	1944.06
828.862	1972.93
829.043	2008.77
829.224	1982.62
829.406	1877.99
829.587	1930.5
829.768	1920.04
829.949	1944.83
830.131	1923.52
830.312	2021.36
830.493	1944.64
830.674	1933.21
830.855	1895.82
831.036	1909.38
831.218	1996.95
831.399	2000.25
831.58	1957.82
831.761	1973.12
831.942	1952
832.123	1947.35
832.304	1876.44
832.485	1868.89
832.666	1928.37
832.847	1970.41
833.028	1928.75
833.209	1942.12
833.389	1915.19
833.57	1862.49
833.751	1894.07
833.932	1971.96
834.113	1929.53
834.294	1880.12
834.475	1958.78
834.655	1999.28
834.836	1971.38
835.017	1972.54
835.198	1876.64
835.378	1940.57
835.559	1989.2
835.74	1956.46
835.92	1923.13
836.101	1886.52
836.281	1959.95
836.462	1944.06
836.643	2025.24
836.823	1977.38
837.004	2000.25
837.184	2037.06
837.365	2028.53
837.545	2028.34
837.726	1968.28
837.906	2013.42
838.087	1960.14
838.267	2003.15
838.448	1944.25
838.628	1950.45
838.808	1949.48
838.989	2038.22
839.169	1911.9
839.349	1977.38
839.53	1983.39
839.71	2032.6
839.89	1913.64
840.07	2035.7
840.251	1911.7
840.431	2015.55
840.611	1964.02
840.791	1947.35
840.971	2022.14
841.151	1978.55
841.332	1931.85
841.512	1963.82
841.692	1865.4
841.872	1961.3
842.052	1922.17
842.232	1957.43
842.412	1880.12
842.592	1922.94
842.772	1954.52
842.952	1961.5
843.132	1894.07
843.312	1874.12
843.492	1872.37
843.672	1942.51
843.851	1821.22
844.031	1895.82
844.211	1901.24
844.391	1851.25
844.571	1876.05
844.751	1921
844.93	1894.65
845.11	1884.39
845.29	1857.84
845.47	1893.3
845.649	1841.18
845.829	1893.1
846.009	1851.06
846.188	1889.04
846.368	1878.19
846.547	1842.73
846.727	1902.99
846.907	1821.81
847.086	1872.37
847.266	1862.69
847.445	1835.75
847.625	1822.97
847.804	1829.36
847.984	1872.76
848.163	1827.42
848.343	1815.02
848.522	1840.79
848.701	1852.03
848.881	1769.49
849.06	1812.31
849.239	1832.66
849.419	1806.89
849.598	1722.41
849.777	1763.68
849.957	1758.26
850.136	1645.69
850.315	1634.84
850.494	1664.68
850.674	1625.35
850.853	1711.18
851.032	1713.11
851.211	1764.46
851.39	1743.53
851.569	1661.58
851.748	1650.53
851.927	1721.25
852.107	1741.79
852.286	1685.41
852.465	1661.19
852.644	1737.53
852.823	1696.84
853.002	1705.75
853.181	1698.97
853.359	1689.86
853.538	1641.23
853.717	1707.11
853.896	1600.74
854.075	1496.7
854.254	1525.95
854.433	1431.79
854.611	1467.44
854.79	1402.15
854.969	1458.34
855.148	1490.5
855.327	1451.17
855.505	1461.44
855.684	1508.71
855.863	1529.05
856.041	1505.61
856.22	1574.97
856.399	1512.2
856.577	1597.06
856.756	1574.78
856.934	1699.74
857.113	1692.96
857.291	1634.26
857.47	1575.94
857.648	1604.81
857.827	1615.27
858.005	1670.68
858.184	1578.26
858.362	1668.36
858.541	1634.45
858.719	1586.79
858.898	1594.54
859.076	1590.28
859.254	1661.19
859.433	1580.4
859.611	1565.67
859.789	1526.53
859.967	1631.16
860.146	1631.93
860.324	1518.59
860.502	1549.78
860.68	1481
860.859	1529.63
861.037	1541.84
861.215	1567.42
861.393	1553.47
861.571	1548.43
861.749	1508.71
861.927	1562.77
862.105	1563.15
862.283	1504.45
862.461	1499.99
862.639	1458.72
862.817	1529.83
862.995	1521.5
863.173	1517.62
863.351	1499.99
863.529	1539.9
863.707	1550.37
863.885	1539.71
864.063	1433.92
864.241	1479.07
864.418	1562.57
864.596	1445.74
864.774	1450
864.952	1474.03
865.129	1467.64
865.307	1417.07
865.485	1378.9
865.663	1505.8
865.84	1406.8
866.018	1434.31
866.196	1279.31
866.373	1315.74
866.551	1264.39
866.728	1184.57
866.906	1252.38
867.084	1268.46
867.261	1292.88
867.439	1331.82
867.616	1353.91
867.794	1350.03
867.971	1330.27
868.149	1351.77
868.326	1407.96
868.503	1376.38
868.681	1359.91
868.858	1356.62
869.035	1317.09
869.213	1402.92
869.39	1358.56
869.567	1438.38
869.745	1384.52
869.922	1373.09
870.099	1380.26
870.276	1399.44
870.454	1413.97
870.631	1382.58
870.808	1360.11
870.985	1412.03
871.162	1406.22
871.339	1384.32
871.517	1295.01
871.694	1306.24
871.871	1344.02
872.048	1314.77
872.225	1306.24
872.402	1341.31
872.579	1271.56
872.756	1352.36
872.933	1227.39
873.11	1330.07
873.287	1325.04
873.463	1299.46
873.64	1276.41
873.817	1320.97
873.994	1301.4
874.171	1260.52
874.348	1276.79
874.524	1228.16
874.701	1270.59
874.878	1224.68
875.055	1307.21
875.231	1298.88
875.408	1317.67
875.585	1199.49
875.762	1267.3
875.938	1257.23
876.115	1251.41
876.291	1244.44
876.468	1218.28
876.645	1216.54
876.821	1228.16
876.998	1195.61
877.174	1250.83
877.351	1219.64
877.527	1214.8
877.704	1242.69
877.88	1189.8
878.057	1188.64
878.233	1278.54
878.409	1209.18
878.586	1222.35
878.762	1165.97
878.938	1192.9
879.115	1133.23
879.291	1195.61
879.467	1148.34
879.644	1145.82
879.82	1181.28
879.996	1151.83
880.172	1082.85
880.349	1164.03
880.525	1186.31
880.701	1132.84
880.877	1105.13
881.053	1182.25
881.229	1118.12
881.405	1199.3
881.581	1118.12
881.757	1147.18
881.933	1167.13
882.109	1162.87
882.285	1170.04
882.461	1084.02
882.637	1141.17
882.813	1115.79
882.989	1116.18
883.165	1183.02
883.341	1101.07
883.517	1182.25
883.693	1177.01
883.869	1153.38
884.044	1138.07
884.22	1183.8
884.396	1197.16
884.572	1161.13
884.747	1173.14
884.923	1159.77
885.099	1196
885.275	1183.21
885.45	1131.1
885.626	1135.17
885.801	1129.74
885.977	1116.37
886.153	1085.57
886.328	1134.58
886.504	1101.07
886.679	1134
886.855	1123.54
887.03	1136.71
887.206	1179.34
887.381	1174.11
887.557	1155.9
887.732	1137.1
887.908	1166.55
888.083	1165.2
888.258	1124.7
888.434	1143.88
888.609	1117.53
888.784	1184.57
888.96	1126.25
889.135	1140.59
889.31	1075.1
889.485	1133.23
889.661	1134.39
889.836	1194.45
890.011	1161.13
890.186	1141.95
890.361	1122.57
890.537	1127.03
890.712	1170.62
890.887	1158.41
891.062	1117.34
891.237	1228.36
891.412	1101.65
891.587	1170.43
891.762	1193.1
891.937	1198.33
892.112	1079.37
892.287	1115.98
892.462	1089.83
892.637	1046.62
892.812	1037.71
892.987	1072.97
893.161	1052.82
893.336	1058.83
893.511	1062.32
893.686	1075.88
893.861	1050.69
894.035	1082.66
894.21	1077.23
894.385	1015.04
894.56	1065.8
894.734	983.46
894.909	993.73
895.084	1000.7
895.258	962.92
895.433	987.53
895.608	980.55
895.782	906.74
895.957	931.73
896.131	938.71
896.306	875.93
896.48	840.86
896.655	862.37
896.829	799.79
897.004	821.68
897.178	823.43
897.353	800.56
897.527	869.93
897.701	820.52
897.876	760.26
898.05	881.16
898.224	847.64
898.399	870.7
898.573	838.34
898.747	694.2
898.921	772.08
899.096	695.36
899.27	688.38
899.444	682.57
899.618	691.1
899.792	729.85
899.967	738.76
900.141	775.76
900.315	702.91
900.489	731.01
900.663	740.11
900.837	733.53
901.011	695.55
901.185	786.42
901.359	735.08
901.533	732.36
901.707	738.76
901.881	742.63
902.055	699.62
902.229	708.92
902.403	777.31
902.576	703.5
902.75	730.43
902.924	853.46
903.098	788.74
903.272	803.08
903.446	849.58
903.619	846.48
903.793	868.18
903.967	840.09
904.14	899.76
904.314	903.83
904.488	882.13
904.661	889.88
904.835	862.56
905.009	936.57
905.182	949.56
905.356	914.29
905.529	895.69
905.703	840.48
905.876	822.26
906.05	817.42
906.223	814.13
906.397	749.61
906.57	722.29
906.744	729.65
906.917	727.91
907.09	751.35
907.264	721.32
907.437	686.06
907.61	675.98
907.784	674.63
907.957	684.32
908.13	647.31
908.304	699.43
908.477	636.27
908.65	661.84
908.823	628.13
908.996	725.58
909.17	655.64
909.343	650.99
909.516	639.37
909.689	607.98
909.862	637.23
910.035	651.57
910.208	605.65
910.381	590.54
910.554	705.43
910.727	642.66
910.9	627.16
911.073	607.2
911.246	678.31
911.419	686.25
911.592	655.25
911.765	618.44
911.938	630.65
912.11	632.97
912.283	617.08
912.456	665.33
912.629	648.86
912.802	622.32
912.974	616.31
913.147	558.96
913.32	483.21
913.493	524.86
913.665	533.19
913.838	556.44
914.01	548.89
914.183	560.7
914.356	553.92
914.528	618.44
914.701	661.07
914.873	632
915.046	561.67
915.218	531.64
915.391	469.45
915.563	482.04
915.736	514.98
915.908	537.45
916.081	553.73
916.253	573.88
916.425	575.62
916.598	586.67
916.77	556.83
916.942	558.57
917.115	470.61
917.287	555.47
917.459	511.11
917.632	484.95
917.804	418.69
917.976	525.25
918.148	545.59
918.32	545.59
918.493	544.24
918.665	580.08
918.837	575.04
919.009	612.43
919.181	612.24
919.353	558.77
919.525	557.02
919.697	557.99
919.869	543.46
920.041	627.93
920.213	690.9
920.385	608.17
920.557	579.5
920.729	610.5
920.901	584.73
921.073	563.42
921.244	560.32
921.416	605.07
921.588	553.54
921.76	537.45
921.932	634.72
922.103	550.63
922.275	546.56
922.447	577.17
922.619	480.69
922.79	548.11
922.962	548.11
923.134	555.86
923.305	511.69
923.477	502.77
923.648	511.88
923.82	500.84
923.991	465.19
924.163	439.61
924.335	507.42
924.506	476.23
924.677	554.12
924.849	439.81
925.02	524.67
925.192	502.58
925.363	511.49
925.535	491.92
925.706	459.96
925.877	543.27
926.049	490.96
926.22	478.56
926.391	503.36
926.562	498.9
926.734	445.81
926.905	515.95
927.076	443.87
927.247	464.02
927.419	432.44
927.59	421.79
927.761	436.13
927.932	404.93
928.103	411.71
928.274	345.65
928.445	372.77
928.616	384.01
928.787	368.7
928.958	384.59
929.129	404.35
929.3	364.63
929.471	301.66
929.642	282.68
929.813	240.63
929.984	323.75
930.155	257.49
930.326	299.15
930.496	256.13
930.667	187.93
930.838	258.27
931.009	192.39
931.18	227.46
931.35	226.88
931.521	227.65
931.692	187.35
931.863	134.27
932.033	193.36
932.204	190.84
932.374	166.24
932.545	102.69
932.716	178.25
932.886	202.27
933.057	90.67
933.227	121.87
933.398	209.44
933.568	123.03
933.739	60.64
933.909	56.38
934.08	128.45
934.25	40.69
934.421	66.26
934.591	109.66
934.761	79.44
934.932	42.04
935.102	91.64
935.272	74.21
935.443	93.39
935.613	64.91
935.783	106.95
935.953	52.51
936.123	246.06
936.294	49.79
936.464	44.17
936.634	77.31
936.804	21.51
936.974	13.17
937.144	99.59
937.314	95.32
937.484	68.78
937.655	44.76
937.825	104.04
937.995	31.39
938.165	115.09
938.334	43.01
938.504	106.37
938.674	88.74
938.844	111.6
939.014	162.36
939.184	146.09
939.354	228.82
939.524	179.41
939.694	113.15
939.863	122.06
940.033	198.78
940.203	181.35
940.373	177.47
940.542	183.09
940.712	150.93
940.882	176.7
941.051	177.86
941.221	188.71
941.391	168.95
941.56	114.31
941.73	120.51
941.899	239.47
942.069	153.84
942.238	174.76
942.408	138.14
942.577	154.42
942.747	133.69
942.916	114.5
943.086	109.27
943.255	179.22
943.425	139.3
943.594	120.51
943.763	25.77
943.933	56.77
944.102	50.57
944.271	110.05
944.441	144.92
944.61	76.53
944.779	106.17
944.948	191.42
945.117	68.78
945.287	97.84
945.456	43.21
945.625	59.48
945.794	114.5
945.963	88.54
946.132	111.21
946.301	101.52
946.47	158.29
946.639	33.52
946.808	87.96
946.977	121.29
947.146	158.29
947.315	83.89
947.484	123.8
947.653	95.13
947.822	75.56
947.991	51.15
948.16	199.95
948.329	151.7
948.498	91.25
948.666	94.74
948.835	121.48
949.004	57.74
949.173	70.14
949.341	116.44
949.51	114.89
949.679	150.93
949.847	116.64
950.016	190.65
950.185	154.8
950.353	82.54
950.522	97.84
950.69	164.69
950.859	100.17
951.028	146.86
951.196	128.65
951.365	85.06
951.533	92.22
951.701	131.36
951.87	134.07
952.038	55.41
952.207	138.72
952.375	170.5
952.543	78.86
952.712	99.97
952.88	53.09
953.048	164.1
953.217	93.77
953.385	105.4
953.553	161.59
953.721	83.7
953.89	119.15
954.058	46.31
954.226	73.62
954.394	113.92
954.562	39.14
954.73	103.07
954.898	75.76
955.067	137.37
955.235	110.63
955.403	138.53
955.571	182.12
955.739	112.95
955.907	69.17
956.075	81.96
956.243	67.42
956.41	127.68
956.578	50.57
956.746	59.09
956.914	100.55
957.082	115.67
957.25	125.55
957.418	76.53
957.585	87.57
957.753	151.12
957.921	58.71
958.089	111.21
958.256	150.35
958.424	118.38
958.592	101.52
958.759	65.87
958.927	110.05
959.095	66.46
959.262	79.82
959.43	97.07
959.597	70.33
959.765	89.9
959.932	53.86
960.1	159.07
960.267	91.25
960.435	70.14
960.602	117.6
960.77	118.77
960.937	53.47
961.104	116.44
961.272	65.49
961.439	64.91
961.606	116.83
961.774	110.24
961.941	76.92
962.108	117.22
962.275	135.82
962.443	150.15
962.61	137.56
962.777	172.44
962.944	126.13
963.111	139.89
963.278	143.18
963.446	109.47
963.613	130.97
963.78	121.48
963.947	153.45
964.114	107.92
964.281	217.19
964.448	139.3
964.615	93.58
964.782	145.89
964.949	139.11
965.116	111.99
965.282	166.43
965.449	102.3
965.616	83.12
965.783	115.28
965.95	150.54
966.117	80.79
966.283	99.97
966.45	129.42
966.617	148.6
966.784	155.97
966.95	163.14
967.117	154.8
967.284	81.96
967.45	103.65
967.617	163.52
967.784	137.56
967.95	198.98
968.117	112.37
968.283	177.67
968.45	245.09
968.616	134.07
968.783	179.02
968.949	159.45
969.116	183.87
969.282	124
969.449	149.77
969.615	106.56
969.781	100.94
969.948	126.32
970.114	87.57
970.28	199.37
970.447	136.4
970.613	201.3
970.779	127.68
970.945	158.68
971.112	118.57
971.278	133.69
971.444	110.44
971.61	155.19
971.776	102.1
971.942	143.37
972.108	167.59
972.275	128.07
972.441	135.62
972.607	214.48
972.773	107.72
972.939	151.32
973.105	128.45
973.271	86.02
973.437	117.41
973.602	97.65
973.768	126.52
973.934	109.47
974.1	111.02
974.266	43.79
974.432	148.22
974.598	95.32
974.763	127.1
974.929	93.39
975.095	182.9
975.261	81.76
975.426	84.86
975.592	142.4
975.758	181.54
975.923	80.02
976.089	94.35
976.255	123.42
976.42	113.92
976.586	119.74
976.751	138.53
976.917	236.95
977.082	149.57
977.248	56.19
977.413	50.37
977.579	122.84
977.744	122.84
977.91	74.79
978.075	84.28
978.24	153.45
978.406	109.08
978.571	77.11
978.736	69.17
978.902	145.12
979.067	63.36
979.232	63.16
979.397	125.55
979.563	167.4
979.728	84.67
979.893	105.98
980.058	82.54
980.223	111.99
980.388	109.85
980.554	112.37
980.719	109.47
980.884	105.4
981.049	173.21
981.214	78.08
981.379	112.57
981.544	84.28
981.709	94.94
981.874	96.29
982.039	103.85
982.204	151.51
982.368	105.79
982.533	84.67
982.698	122.45
982.863	141.44
983.028	84.47
983.193	106.17
983.357	108.11
983.522	131.75
983.687	104.04
983.852	86.41
984.016	105.2
984.181	101.33
984.346	117.41
984.51	142.21
984.675	92.03
984.839	133.88
985.004	139.11
985.168	142.6
985.333	89.9
985.498	93.58
985.662	133.3
985.827	127.29
985.991	108.5
986.155	104.24
986.32	153.25
986.484	142.79
986.649	133.69
986.813	27.71
986.977	88.54
987.142	135.04
987.306	55.02
987.47	74.21
987.634	98.81
987.799	98.62
987.963	109.08
988.127	122.45
988.291	163.33
988.455	102.69
988.62	81.18
988.784	108.89
988.948	120.51
989.112	61.22
989.276	115.28
989.44	119.35
989.604	89.9
989.768	75.76
989.932	180.38
990.096	49.21
990.26	52.12
990.424	57.16
990.588	66.84
990.752	155.77
990.915	96.87
991.079	62.19
991.243	68.59
991.407	147.25
991.571	79.63
991.734	133.88
991.898	117.6
992.062	167.4
992.226	86.41
992.389	66.26
992.553	41.27
992.717	55.02
992.88	69.36
993.044	84.28
993.207	74.98
993.371	120.32
993.535	115.09
993.698	73.43
993.862	128.07
994.025	109.47
994.189	99.59
994.352	96.1
994.515	118.57
994.679	125.74
994.842	72.66
995.006	114.5
995.169	50.57
995.332	65.1
995.496	120.9
995.659	40.3
995.822	81.37
995.985	91.06
996.149	130.59
996.312	72.27
996.475	164.1
996.638	63.36
996.801	126.32
996.964	139.11
997.128	72.07
997.291	65.29
997.454	86.61
997.617	28.67
997.78	111.99
997.943	50.37
998.106	91.45
998.269	46.89
998.432	92.61
998.595	87.57
998.758	21.51
998.92	21.31
999.083	11.24
999.246	79.05
999.409	49.41
999.572	-6.39
999.735	59.87
999.897	89.9
1000.06	48.44
1000.223	74.01
1000.386	106.56
1000.548	99.97
1000.711	105.79
1000.874	95.32
1001.036	31.77
1001.199	96.29
1001.361	32.16
1001.524	74.01
1001.687	86.61
1001.849	57.93
1002.012	58.71
1002.174	87.77
1002.337	91.84
1002.499	59.87
1002.661	118.38
1002.824	29.45
1002.986	51.54
1003.149	55.41
1003.311	7.36
1003.473	124.77
1003.636	57.35
1003.798	85.64
1003.96	63.74
1004.123	57.16
1004.285	50.57
1004.447	55.22
1004.609	41.66
1004.771	114.31
1004.933	-1.74
1005.096	47.08
1005.258	6.01
1005.42	33.71
1005.582	91.45
1005.744	71.88
1005.906	29.06
1006.068	71.88
1006.23	4.84
1006.392	-12.98
1006.554	7.36
1006.716	100.75
1006.878	85.44
1007.04	-6.39
1007.202	21.89
1007.363	52.51
1007.525	74.79
1007.687	76.34
1007.849	97.65
1008.011	-5.23
1008.172	9.88
1008.334	35.26
1008.496	57.16
1008.658	-20.34
1008.819	16.27
1008.981	20.92
1009.143	22.86
1009.304	12.21
1009.466	75.37
1009.627	122.84
1009.789	156.35
1009.95	51.54
1010.112	8.14
1010.273	53.09
1010.435	9.88
1010.596	31
1010.758	34.1
1010.919	29.64
1011.081	11.62
1011.242	37.2
1011.403	55.41
1011.565	46.11
1011.726	72.07
1011.887	21.51
1012.049	35.07
1012.21	55.99
1012.371	77.69
1012.532	-12.4
1012.693	22.86
1012.855	14.34
1013.016	44.56
1013.177	69.56
1013.338	46.69
1013.499	126.71
1013.66	61.81
1013.821	82.92
1013.982	37.2
1014.143	26.54
1014.304	21.51
1014.465	53.28
1014.626	69.94
1014.787	18.79
1014.948	126.32
1015.109	-28.09
1015.27	74.98
1015.431	-1.16
1015.592	11.62
1015.752	97.26
1015.913	67.62
1016.074	52.31
1016.235	74.79
1016.395	27.9
1016.556	13.37
1016.717	23.25
1016.877	83.7
1017.038	-4.07
1017.199	20.34
1017.359	34.1
1017.52	28.09
1017.681	11.04
1017.841	42.62
1018.002	50.37
1018.162	9.11
1018.323	77.69
1018.483	19.76
1018.644	21.51
1018.804	-12.98
1018.964	-5.62
1019.125	5.81
1019.285	53.47
1019.446	-10.07
1019.606	-5.62
1019.766	-46.31
1019.926	59.29
1020.087	31
1020.247	2.52
1020.407	57.93
1020.567	82.73
1020.728	22.47
1020.888	-18.02
1021.048	-27.32
1021.208	11.82
1021.368	-1.74
1021.528	74.4
1021.688	39.72
1021.848	49.99
1022.008	33.91
1022.168	9.11
1022.328	47.47
1022.488	19.37
1022.648	-13.95
1022.808	31
1022.968	57.35
1023.128	0.39
1023.288	19.37
1023.448	23.44
1023.608	32.16
1023.767	29.26
1023.927	10.07
1024.087	6.59
1024.247	-24.02
1024.406	-7.94
1024.566	-12.21
1024.726	-27.51
1024.885	29.26
1025.045	32.94
1025.205	1.74
1025.364	-3.87
1025.524	32.55
1025.683	27.32
1025.843	29.45
1026.003	13.56
1026.162	73.24
1026.321	69.36
1026.481	54.83
1026.64	14.14
1026.8	26.93
1026.959	21.31
1027.119	21.12
1027.278	-20.92
1027.437	-15.89
1027.597	14.14
1027.756	52.7
1027.915	25.57
1028.074	26.74
1028.234	-20.34
1028.393	0.19
1028.552	3.1
1028.711	-76.72
1028.87	55.02
1029.03	8.33
1029.189	4.84
1029.348	-71.88
1029.507	-2.91
1029.666	15.5
1029.825	-51.34
1029.984	-29.45
1030.143	29.84
1030.302	-16.66
1030.461	-40.3
1030.62	32.74
1030.779	39.14
1030.938	0.58
1031.097	-7.56
1031.255	57.16
1031.414	96.29
1031.573	79.44
1031.732	-46.5
1031.891	-0.77
1032.049	64.52
1032.208	43.01
1032.367	-22.86
1032.525	-8.14
1032.684	17.44
1032.843	29.84
1033.001	-26.93
1033.16	180.18
1033.319	60.26
1033.477	41.07
1033.636	-6.01
1033.794	-29.45
1033.953	23.44
1034.111	55.8
1034.27	1.74
1034.428	24.02
1034.587	-4.07
1034.745	-1.94
1034.903	14.92
1035.062	30.61
1035.22	-48.05
1035.378	71.3
1035.537	-5.81
1035.695	39.72
1035.853	30.81
1036.011	44.56
1036.17	12.98
1036.328	-37.01
1036.486	15.11
1036.644	16.86
1036.802	-70.91
1036.96	-7.75
1037.119	1.94
1037.277	-8.52
1037.435	-52.7
1037.593	-24.02
1037.751	14.72
1037.909	47.66
1038.067	47.66
