Data from gum_old_FLMT105791__1__15-42-23-260.txt Node

Date: Mon Mar 20 15:42:23 GMT 2023
User: antho
Spectrometer: FLMT10579
Trigger mode: 0
Integration Time (sec): 1.000000E-1
Scans to average: 10
Electric dark correction enabled: true
Nonlinearity correction enabled: false
Boxcar width: 0
XAxis mode: Wavelengths
Number of Pixels in Spectrum: 3648
>>>>>Begin Spectral Data<<<<<
345.248	-160.25
345.464	-160.25
345.681	-160.25
345.898	-198.22
346.114	-174.19
346.331	-40.32
346.548	4.25
346.764	-5.05
346.981	-11.83
347.197	0.18
347.414	-0.98
347.631	-14.16
347.847	65.47
348.064	1.92
348.28	32.53
348.497	-25.98
348.713	-6.02
348.93	49.39
349.146	15.48
349.363	17.23
349.579	28.08
349.796	10.25
350.012	-11.25
350.229	37.57
350.445	19.75
350.661	1.15
350.878	32.15
351.094	50.75
351.311	45.32
351.527	41.83
351.743	18.97
351.96	49.2
352.176	61.21
352.392	44.74
352.609	32.15
352.825	17.03
353.041	28.27
353.257	22.65
353.474	7.73
353.69	43.38
353.906	33.11
354.122	9.86
354.339	69.54
354.555	38.73
354.771	19.75
354.987	91.43
355.203	76.71
355.42	12.58
355.636	19.16
355.852	20.71
356.068	35.05
356.284	0.57
356.5	97.05
356.716	49.78
356.932	31.18
357.148	57.33
357.364	45.9
357.58	55.98
357.796	80.58
358.012	72.06
358.228	73.8
358.444	-37.02
358.66	85.04
358.876	40.28
359.092	36.02
359.308	55.78
359.524	57.33
359.74	20.52
359.956	22.65
360.172	52.3
360.388	71.67
360.604	22.07
360.819	125.73
361.035	46.29
361.251	55.98
361.467	29.63
361.683	55.2
361.898	79.81
362.114	82.33
362.33	64.5
362.546	95.11
362.762	59.27
362.977	67.21
363.193	47.26
363.409	64.7
363.624	17.42
363.84	25.56
364.056	41.45
364.271	85.81
364.487	70.7
364.703	56.17
364.918	40.09
365.134	17.23
365.35	53.85
365.565	156.14
365.781	79.81
365.996	86.01
366.212	133.09
366.427	92.01
366.643	48.42
366.858	74.19
367.074	46.68
367.289	88.72
367.505	158.86
367.72	54.81
367.936	55.78
368.151	95.89
368.367	108.48
368.582	75.74
368.798	57.14
369.013	117.01
369.228	89.88
369.444	87.75
369.659	141.23
369.874	84.26
370.09	113.71
370.305	17.03
370.52	51.91
370.736	112.55
370.951	53.07
371.166	97.24
371.381	117.98
371.597	126.5
371.812	61.79
372.027	64.5
372.242	84.85
372.458	161.38
372.673	53.65
372.888	89.5
373.103	84.07
373.318	168.93
373.533	100.15
373.749	82.71
373.964	27.11
374.179	124.56
374.394	45.32
374.609	95.69
374.824	25.75
375.039	136.77
375.254	32.53
375.469	114.49
375.684	61.4
375.899	115.65
376.114	62.18
376.329	115.46
376.544	104.61
376.759	82.33
376.974	58.11
377.189	97.44
377.404	74.19
377.619	136.58
377.834	66.25
378.049	60.82
378.264	66.63
378.478	108.48
378.693	107.9
378.908	113.33
379.123	81.75
379.338	132.31
379.553	131.15
379.767	124.56
379.982	125.34
380.197	127.66
380.412	104.99
380.626	120.11
380.841	178.81
381.056	129.79
381.271	177.84
381.485	114.1
381.7	51.33
381.915	118.56
382.129	88.14
382.344	86.01
382.559	94.53
382.773	120.11
382.988	44.93
383.202	122.24
383.417	60.05
383.632	174.36
383.846	64.11
384.061	93.95
384.275	71.09
384.49	98.41
384.704	127.66
384.919	121.46
385.133	108.09
385.348	150.72
385.562	74.58
385.777	159.83
385.991	143.94
386.206	93.56
386.42	92.98
386.634	152.85
386.849	134.64
387.063	139.48
387.277	128.83
387.492	90.27
387.706	59.46
387.92	82.91
388.135	140.45
388.349	122.24
388.563	158.28
388.778	142.58
388.992	154.98
389.206	152.66
389.42	206.71
389.635	133.86
389.849	173.39
390.063	213.88
390.277	176.1
390.491	232.48
390.706	185.59
390.92	222.99
391.134	181.72
391.348	198.96
391.562	119.53
391.776	170.29
391.99	143.55
392.205	227.44
392.419	151.88
392.633	163.12
392.847	216.98
393.061	121.46
393.275	201.09
393.489	123.59
393.703	117.78
393.917	149.17
394.131	98.41
394.345	114.68
394.559	166.61
394.773	139.09
394.986	169.51
395.2	187.14
395.414	207.87
395.628	168.74
395.842	193.15
396.056	215.43
396.27	126.89
396.484	198.38
396.697	169.9
396.911	202.64
397.125	158.47
397.339	158.47
397.553	150.14
397.766	197.99
397.98	206.71
398.194	241.59
398.408	210.01
398.621	237.71
398.835	281.5
399.049	269.87
399.262	285.37
399.476	311.72
399.69	285.18
399.903	362.48
400.117	282.47
400.331	312.5
400.544	267.74
400.758	408.79
400.971	303.2
401.185	309.2
401.398	285.57
401.612	375.47
401.826	314.82
402.039	327.03
402.253	292.93
402.466	345.05
402.68	308.82
402.893	375.66
403.106	350.47
403.32	338.85
403.533	345.82
403.747	350.67
403.96	329.16
404.174	360.93
404.387	293.32
404.6	336.52
404.814	366.17
405.027	345.63
405.24	339.43
405.454	316.76
405.667	388.06
405.88	284.21
406.094	347.76
406.307	398.33
406.52	345.24
406.733	323.74
406.947	275.69
407.16	391.93
407.373	369.46
407.586	334.78
407.799	333.42
408.012	373.14
408.226	369.85
408.439	383.22
408.652	334.97
408.865	407.82
409.078	431.07
409.291	424.87
409.504	368.49
409.717	442.31
409.93	408.02
410.143	364.62
410.357	345.63
410.57	318.89
410.783	362.87
410.996	361.13
411.209	378.95
411.421	453.55
411.634	417.7
411.847	381.67
412.06	431.46
412.273	416.15
412.486	421.77
412.699	516.13
412.912	433.98
413.125	437.47
413.338	408.79
413.55	452.77
413.763	392.52
413.976	444.25
414.189	394.45
414.402	421.77
414.615	505.28
414.827	433.4
415.04	461.49
415.253	472.92
415.466	470.4
415.678	523.3
415.891	447.35
416.104	466.72
416.316	422.93
416.529	426.03
416.742	476.8
416.954	513.61
417.167	494.43
417.38	457.61
417.592	489.2
417.805	424.68
418.017	398.91
418.23	476.99
418.442	406.27
418.655	452.19
418.868	467.69
419.08	470.79
419.293	479.7
419.505	496.36
419.718	487.84
419.93	492.88
420.142	478.15
420.355	497.53
420.567	507.02
420.78	491.33
420.992	488.03
421.205	546.16
421.417	462.46
421.629	502.76
421.842	462.65
422.054	449.09
422.266	545.38
422.479	543.44
422.691	444.05
422.903	491.33
423.115	442.89
423.328	458.78
423.54	480.67
423.752	472.34
423.964	464.78
424.177	548.87
424.389	486.87
424.601	644.97
424.813	497.33
425.025	531.82
425.238	542.48
425.45	504.7
425.662	513.03
425.874	796.48
426.086	493.26
426.298	533.76
426.51	536.66
426.722	533.56
426.934	529.11
427.146	574.64
427.358	488.81
427.57	542.09
427.782	479.7
427.994	506.63
428.206	511.86
428.418	492.3
428.63	545.58
428.842	570.96
429.054	526.98
429.266	546.54
429.478	504.31
429.69	503.53
429.902	439.4
430.114	507.41
430.325	480.48
430.537	420.03
430.749	431.65
430.961	380.89
431.173	403.75
431.384	471.76
431.596	397.36
431.808	472.92
432.02	507.21
432.231	580.06
432.443	648.84
432.655	589.56
432.867	579.87
433.078	577.74
433.29	659.11
433.502	621.14
433.713	656.4
433.925	626.17
434.136	656.21
434.348	524.65
434.56	533.95
434.771	627.53
434.983	535.89
435.194	593.43
435.406	618.04
435.617	665.89
435.829	701.54
436.04	700.57
436.252	660.66
436.463	730.8
436.675	728.09
436.886	731.57
437.098	715.1
437.309	770.71
437.521	695.15
437.732	695.15
437.943	690.89
438.155	683.52
438.366	630.63
438.578	722.85
438.789	661.05
439	649.62
439.211	634.12
439.423	651.56
439.634	674.42
439.845	677.32
440.057	686.24
440.268	730.02
440.479	700.38
440.69	718.59
440.902	707.16
441.113	685.07
441.324	677.52
441.535	756.18
441.746	784.27
441.957	739.52
442.168	746.1
442.38	778.46
442.591	796.87
442.802	761.6
443.013	760.25
443.224	812.95
443.435	780.2
443.646	757.73
443.857	728.67
444.068	768.39
444.279	755.02
444.49	853.63
444.701	825.35
444.912	892
445.123	840.07
445.334	821.08
445.545	828.64
445.756	792.02
445.967	750.37
446.178	818.37
446.388	817.02
446.599	787.57
446.81	811.98
447.021	789.89
447.232	820.5
447.443	853.44
447.653	790.67
447.864	917.57
448.075	836.78
448.286	904.01
448.496	878.05
448.707	890.83
448.918	850.73
449.129	917.96
449.339	832.13
449.55	888.9
449.761	847.63
449.971	876.69
450.182	860.22
450.393	905.36
450.603	868.36
450.814	908.27
451.024	898.2
451.235	974.34
451.446	1007.08
451.656	988.68
451.867	906.91
452.077	912.73
452.288	983.64
452.498	974.14
452.709	906.91
452.919	896.26
453.13	841.43
453.34	895.48
453.55	810.23
453.761	884.44
453.971	870.3
454.182	909.82
454.392	879.21
454.602	991.39
454.813	927.84
455.023	970.85
455.233	864.1
455.444	925.9
455.654	821.08
455.864	895.87
456.075	923.58
456.285	890.06
456.495	880.95
456.705	924.16
456.916	973.18
457.126	1018.32
457.336	943.34
457.546	883.47
457.756	910.98
457.967	993.13
458.177	920.86
458.387	920.48
458.597	907.3
458.807	939.85
459.017	923.77
459.227	909.05
459.437	919.9
459.647	950.51
459.857	980.34
460.068	949.93
460.278	1002.82
460.488	966.59
460.698	1017.74
460.908	950.31
461.117	938.11
461.327	982.28
461.537	971.43
461.747	1017.93
461.957	1012.51
462.167	1083.81
462.377	1036.34
462.587	1003.98
462.797	1074.51
463.007	1022.58
463.216	1074.51
463.426	1106.09
463.636	1053.19
463.846	987.32
464.056	987.71
464.265	1009.6
464.475	955.35
464.685	1026.07
464.895	1066.17
465.104	1009.41
465.314	1055.33
465.524	992.74
465.733	976.47
465.943	1114.42
466.153	1125.66
466.362	1073.54
466.572	1075.86
466.782	1051.45
466.991	1049.32
467.201	1088.65
467.41	965.04
467.62	1065.21
467.829	1064.24
468.039	1070.63
468.249	1044.86
468.458	1108.41
468.668	1077.99
468.877	1113.64
469.086	1130.69
469.296	1155.3
469.505	1114.22
469.715	1198.89
469.924	1106.28
470.134	1171.38
470.343	1144.45
470.552	1115.19
470.762	1121.59
470.971	1110.93
471.18	1120.23
471.39	1126.04
471.599	1091.17
471.808	1191.72
472.018	1116.94
472.227	1211.87
472.436	1260.7
472.645	1195.02
472.855	1218.27
473.064	1285.88
473.273	1286.66
473.482	1242.29
473.691	1296.54
473.901	1307.78
474.11	1226.79
474.319	1342.85
474.528	1267.87
474.737	1386.83
474.946	1289.95
475.155	1313.4
475.364	1364.74
475.573	1346.14
475.783	1350.98
475.992	1354.28
476.201	1380.05
476.41	1339.16
476.619	1313.98
476.828	1331.41
477.037	1307.97
477.245	1336.84
477.454	1408.91
477.663	1358.35
477.872	1408.14
478.081	1462.19
478.29	1408.53
478.499	1517.41
478.708	1500.56
478.917	1573.6
479.125	1442.43
479.334	1450.96
479.543	1470.91
479.752	1489.51
479.961	1515.28
480.169	1565.66
480.378	1556.36
480.587	1654.78
480.796	1597.62
481.004	1523.22
481.213	1599.37
481.422	1554.22
481.63	1592.97
481.839	1648.58
482.048	1666.4
482.256	1620.68
482.465	1660.2
482.674	1663.5
482.882	1675.51
483.091	1733.83
483.299	1660.2
483.508	1708.25
483.716	1687.52
483.925	1719.88
484.134	1674.93
484.342	1689.46
484.551	1683.84
484.759	1677.83
484.967	1777.81
485.176	1756.69
485.384	1727.82
485.593	1754.56
485.801	1726.08
486.01	1687.72
486.218	1600.53
486.426	1480.02
486.635	1495.71
486.843	1465.88
487.051	1552.09
487.26	1522.45
487.468	1596.46
487.676	1655.94
487.885	1631.72
488.093	1712.32
488.301	1758.43
488.509	1749.33
488.717	1815.98
488.926	1775.29
489.134	1797.76
489.342	1775.48
489.55	1708.25
489.758	1805.9
489.967	1827.21
490.175	1926.8
490.383	1863.25
490.591	1955.67
490.799	1876.23
491.007	1960.9
491.215	1919.24
491.423	1882.43
491.631	1903.94
491.839	1903.16
492.047	1920.6
492.255	1807.06
492.463	1811.33
492.671	1803.58
492.879	1899.87
493.087	1854.53
493.295	1915.76
493.503	1976.98
493.711	2006.24
493.919	2024.25
494.127	2031.04
494.334	1996.94
494.542	1931.64
494.75	2001.97
494.958	1988.02
495.166	2104.85
495.374	2063
495.581	2043.05
495.789	2050.41
495.997	2089.16
496.205	2016.31
496.412	2025.8
496.62	2053.7
496.828	2056.22
497.035	2051.19
497.243	2106.98
497.451	2091.68
497.658	2085.48
497.866	2089.74
498.074	2168.21
498.281	2054.87
498.489	2163.56
498.696	2063
498.904	2007.4
499.112	1986.47
499.319	2136.82
499.527	2044.6
499.734	2139.53
499.942	2038.98
500.149	2091.87
500.357	2102.53
500.564	2006.82
500.771	2048.86
500.979	2016.51
501.186	2036.65
501.394	2093.04
501.601	2002.94
501.808	2028.52
502.016	2039.37
502.223	1990.16
502.43	2036.27
502.638	2026.97
502.845	2024.84
503.052	2147.09
503.26	2067.65
503.467	2187.78
503.674	2122.48
503.881	2152.13
504.089	2213.16
504.296	2126.36
504.503	2040.53
504.71	2106.21
504.917	2022.7
505.125	2134.5
505.332	2149.61
505.539	2140.7
505.746	2256.95
505.953	2210.83
506.16	2264.7
506.367	2278.65
506.574	2289.3
506.781	2268.18
506.988	2229.82
507.195	2216.26
507.402	2187.39
507.609	2256.95
507.816	2166.27
508.023	2181.97
508.23	2147.48
508.437	2096.14
508.644	2195.14
508.851	2219.75
509.058	2270.51
509.265	2213.16
509.472	2273.8
509.679	2333.86
509.885	2259.27
510.092	2244.35
510.299	2250.75
510.506	2246.1
510.713	2258.11
510.92	2241.06
511.126	2269.54
511.333	2285.62
511.54	2267.02
511.746	2315.26
511.953	2352.08
512.16	2387.53
512.367	2313.91
512.573	2302.28
512.78	2304.03
512.987	2275.93
513.193	2258.11
513.4	2145.93
513.606	2262.76
513.813	2276.9
514.02	2255.2
514.226	2320.69
514.433	2275.93
514.639	2215.48
514.846	2285.04
515.052	2213.55
515.259	2284.65
515.465	2249.2
515.672	2267.6
515.878	2352.66
516.085	2291.82
516.291	2335.22
516.497	2316.43
516.704	2255.4
516.91	2212.19
517.117	2143.6
517.323	2046.73
517.529	2027.16
517.736	2013.99
517.942	2070.95
518.148	2126.36
518.354	2168.4
518.561	2158.52
518.767	2139.73
518.973	2162.59
519.179	2199.4
519.386	2199.98
519.592	2199.98
519.798	2211.8
520.004	2331.54
520.21	2307.13
520.417	2351.69
520.623	2374.74
520.829	2428.02
521.035	2385.01
521.241	2403.42
521.447	2435.39
521.653	2563.07
521.859	2383.85
522.065	2475.3
522.271	2514.82
522.477	2485.76
522.683	2570.04
522.889	2514.44
523.095	2428.22
523.301	2443.52
523.507	2418.92
523.713	2445.85
523.919	2417.56
524.125	2498.94
524.331	2502.62
524.537	2644.63
524.742	2614.02
524.948	2641.34
525.154	2610.15
525.36	2708.76
525.566	2609.57
525.772	2659.16
525.977	2562.29
526.183	2622.93
526.389	2655.1
526.595	2539.04
526.8	2516.76
527.006	2433.26
527.212	2371.84
527.417	2341.03
527.623	2370.67
527.829	2448.95
528.034	2493.9
528.24	2526.06
528.446	2544.08
528.651	2649.28
528.857	2614.41
529.062	2744.41
529.268	2688.61
529.473	2695.59
529.679	2754.88
529.884	2812.81
530.09	2768.05
530.295	2725.62
530.501	2737.83
530.706	2716.71
530.912	2746.93
531.117	2784.33
531.323	2782.78
531.528	2805.83
531.733	2861.63
531.939	2793.04
532.144	2860.47
532.35	2796.73
532.555	2876.74
532.76	2766.5
532.966	2773.28
533.171	2743.64
533.376	2702.56
533.581	2655.68
533.787	2718.26
533.992	2803.12
534.197	2750.23
534.402	2770.18
534.607	2783.55
534.813	2903.48
535.018	2779.09
535.223	2809.32
535.428	2815.32
535.633	2919.56
535.838	2910.45
536.043	2936.22
536.249	2997.25
536.454	2909.29
536.659	2954.82
536.864	2905.42
537.069	2890.11
537.274	2882.17
537.479	2897.28
537.684	2871.71
537.889	2830.82
538.094	2930.99
538.299	2871.32
538.504	2915.88
538.708	2858.34
538.913	2962.57
539.118	2901.15
539.323	2898.83
539.528	2892.44
539.733	2913.94
539.938	2896.12
540.142	2881.78
540.347	2836.64
540.552	2849.04
540.757	2787.62
540.962	2818.04
541.166	2737.05
541.371	2739.76
541.576	2782.19
541.781	2726.78
541.985	2913.75
542.19	2838.77
542.395	2958.12
542.599	2969.94
542.804	2893.6
543.008	2974.78
543.213	2887.21
543.418	2844.19
543.622	2900.57
543.827	2865.51
544.031	2925.37
544.236	2929.25
544.44	2953.66
544.645	3015.08
544.849	2971.68
545.054	2988.34
545.258	3035.81
545.463	3008.3
545.667	2885.46
545.872	2988.73
546.076	2998.8
546.281	2969.35
546.485	2936.22
546.689	2954.82
546.894	3010.23
547.098	2963.35
547.302	2946.1
547.507	2972.26
547.711	2972.07
547.915	3000.74
548.119	2894.18
548.324	2884.69
548.528	2976.33
548.732	2915.3
548.936	2962.77
549.141	3020.89
549.345	2952.69
549.549	2967.8
549.753	2926.73
549.957	3082.5
550.161	3053.44
550.366	2995.7
550.57	2963.15
550.774	2987.18
550.978	2980.2
551.182	3005.39
551.386	2924.02
551.59	2948.62
551.794	2944.17
551.998	3019.15
552.202	2938.74
552.406	2952.5
552.61	2995.32
552.814	3025.54
553.018	3062.93
553.222	2948.43
553.426	2967.8
553.63	3014.5
553.833	2966.64
554.037	2903.29
554.241	2968.39
554.445	3003.26
554.649	2976.52
554.853	2954.05
555.056	3004.81
555.26	3073.4
555.464	2984.27
555.668	2998.61
555.871	3003.65
556.075	3056.15
556.279	2980.4
556.483	2947.65
556.686	2930.6
556.89	2986.02
557.094	2938.35
557.297	2873.06
557.501	2949.01
557.704	2865.31
557.908	2934.29
558.112	2868.02
558.315	2983.11
558.519	2919.75
558.722	2887.4
558.926	2855.43
559.129	2750.61
559.333	2775.03
559.536	2764.56
559.74	2751.78
559.943	2741.7
560.147	2749.06
560.35	2761.46
560.553	2769.02
560.757	2725.81
560.96	2817.07
561.164	2794.4
561.367	2886.82
561.57	2838.96
561.774	2837.99
561.977	2813.97
562.18	2785.68
562.384	2858.34
562.587	2761.08
562.79	2773.86
562.993	2760.11
563.197	2783.16
563.4	2851.56
563.603	2770.57
563.806	2856.01
564.009	2786.07
564.212	2768.83
564.416	2690.94
564.619	2768.83
564.822	2694.81
565.025	2801.57
565.228	2716.9
565.431	2774.06
565.634	2649.28
565.837	2699.27
566.04	2668.27
566.243	2643.08
566.446	2549.89
566.649	2612.86
566.852	2610.53
567.055	2637.66
567.258	2645.41
567.461	2701.98
567.664	2709.15
567.867	2593.87
568.07	2625.07
568.273	2654.9
568.475	2664.98
568.678	2593.48
568.881	2602.59
569.084	2607.82
569.287	2497.58
569.489	2533.81
569.692	2557.25
569.895	2581.08
570.098	2525.09
570.3	2532.65
570.503	2465.8
570.706	2460.77
570.909	2459.41
571.111	2404.58
571.314	2381.72
571.516	2418.34
571.719	2458.44
571.922	2380.56
572.124	2413.69
572.327	2441.39
572.529	2414.07
572.732	2455.34
572.935	2482.27
573.137	2553.96
573.34	2429.38
573.542	2490.02
573.745	2512.11
573.947	2484.6
574.15	2452.05
574.352	2453.21
574.554	2487.7
574.757	2425.7
574.959	2409.81
575.162	2418.92
575.364	2387.53
575.566	2528.19
575.769	2396.06
575.971	2392.96
576.173	2288.33
576.376	2354.98
576.578	2411.56
576.78	2413.49
576.982	2307.9
577.185	2374.94
577.387	2314.1
577.589	2332.89
577.791	2403.03
577.993	2413.88
578.196	2364.67
578.398	2356.73
578.6	2370.48
578.802	2251.13
579.004	2270.9
579.206	2283.68
579.408	2356.14
579.61	2288.91
579.812	2377.26
580.014	2290.08
580.216	2261.98
580.418	2318.94
580.62	2313.91
580.822	2270.9
581.024	2338.71
581.226	2337.16
581.428	2294.34
581.63	2379.97
581.832	2292.79
582.034	2376.49
582.236	2337.74
582.438	2328.83
582.64	2392.57
582.841	2402.06
583.043	2425.51
583.245	2350.72
583.447	2366.8
583.649	2319.72
583.85	2323.98
584.052	2440.04
584.254	2290.46
584.456	2373.39
584.657	2261.79
584.859	2293.18
585.061	2280.39
585.262	2268.96
585.464	2241.45
585.666	2312.36
585.867	2246.68
586.069	2297.05
586.27	2259.08
586.472	2234.08
586.674	2199.98
586.875	2207.35
587.077	2190.1
587.278	2234.47
587.48	2228.08
587.681	2355.76
587.883	2261.98
588.084	2179.06
588.285	2228.66
588.487	2196.88
588.688	2169.18
588.89	2087.42
589.091	2063.2
589.292	2093.81
589.494	1996.16
589.695	1973.11
589.896	1920.41
590.098	1927.77
590.299	1963.42
590.5	1948.31
590.702	1964.97
590.903	2018.05
591.104	2080.83
591.305	2115.7
591.507	2126.55
591.708	2128.3
591.909	2095.17
592.11	2145.15
592.311	2124.03
592.512	2060.68
592.714	2022.51
592.915	2058.55
593.116	2076.57
593.317	2106.79
593.518	2096.52
593.719	2085.09
593.92	2125.78
594.121	2145.54
594.322	2108.73
594.523	2089.74
594.724	2041.5
594.925	2069.4
595.126	2045.76
595.327	2082.19
595.528	2070.56
595.729	2044.6
595.929	2045.76
596.13	2068.04
596.331	2096.91
596.532	2099.24
596.733	2124.81
596.934	2129.46
597.135	2126.94
597.335	2143.8
597.536	2094.59
597.737	2096.72
597.938	2066.3
598.138	2099.62
598.339	2087.22
598.54	2086.64
598.74	2062.04
598.941	2038.79
599.142	2143.6
599.342	2080.05
599.543	2065.33
599.744	2064.36
599.944	2053.51
600.145	2051.96
600.345	2064.75
600.546	2086.25
600.746	2137.6
600.947	2180.61
601.147	2054.87
601.348	2110.86
601.548	2027.35
601.749	2062.42
601.949	2005.07
602.15	2032.59
602.35	1991.9
602.551	2041.5
602.751	1936.29
602.951	2008.76
603.152	1946.17
603.352	2064.36
603.552	1986.86
603.753	2063
603.953	2069.59
604.153	2092.45
604.354	2027.35
604.554	2052.54
604.754	2113.18
604.954	2002.56
605.155	2068.24
605.355	2017.09
605.555	2089.16
605.755	2127.91
605.955	2043.63
606.155	2061.84
606.356	2033.36
606.556	2042.47
606.756	2056.61
606.956	2002.75
607.156	2132.75
607.356	2005.66
607.556	2027.16
607.756	2011.47
607.956	2085.09
608.156	2043.24
608.356	1992.09
608.556	2050.22
608.756	2017.86
608.956	1990.35
609.156	2026.97
609.356	1997.71
609.556	1943.66
609.755	1963.22
609.955	1949.86
610.155	1969.04
610.355	1973.11
610.555	1919.24
610.755	1937.65
610.954	1897.35
611.154	1967.29
611.354	1974.46
611.554	1934.16
611.753	1944.04
611.953	1880.3
612.153	1925.64
612.352	1964.77
612.552	1857.63
612.752	1872.55
612.951	1944.62
613.151	1901.81
613.351	1892.12
613.55	1907.81
613.75	1893.09
613.949	1896.38
614.149	1920.41
614.348	1902.58
614.548	1842.52
614.747	1832.83
614.947	1845.04
615.146	1808.61
615.346	1889.41
615.545	1857.83
615.745	1879.91
615.944	1868.68
616.144	1880.3
616.343	1845.04
616.542	1818.69
616.742	1846.01
616.941	1823.53
617.14	1753.98
617.34	1834.96
617.539	1810.55
617.738	1783.23
617.938	1876.04
618.137	1792.15
618.336	1779.16
618.535	1823.53
618.734	1837.48
618.934	1852.01
619.133	1842.71
619.332	1816.95
619.531	1799.51
619.73	1813.26
619.929	1858.99
620.128	1831.48
620.328	1895.61
620.527	1826.05
620.726	1819.46
620.925	1822.56
621.124	1856.86
621.323	1836.32
621.522	1747.39
621.721	1798.73
621.92	1759.21
622.119	1847.17
622.318	1776.45
622.517	1763.08
622.715	1807.65
622.914	1747.2
623.113	1769.09
623.312	1724.53
623.511	1775.87
623.71	1751.65
623.909	1703.8
624.107	1796.99
624.306	1718.13
624.505	1710.38
624.704	1703.8
624.902	1748.17
625.101	1800.48
625.3	1729.76
625.499	1699.15
625.697	1708.45
625.896	1697.4
626.095	1717.55
626.293	1624.94
626.492	1674.35
626.69	1735.96
626.889	1730.34
627.088	1745.45
627.286	1708.83
627.485	1680.93
627.683	1694.5
627.882	1676.09
628.08	1633.85
628.279	1636.37
628.477	1699.92
628.676	1641.8
628.874	1660.59
629.073	1629.01
629.271	1617.39
629.469	1676.67
629.668	1644.32
629.866	1626.3
630.065	1632.11
630.263	1625.52
630.461	1610.02
630.66	1639.09
630.858	1658.85
631.056	1680.93
631.254	1690.04
631.453	1593.75
631.651	1681.13
631.849	1627.46
632.047	1636.76
632.245	1594.14
632.444	1648.77
632.642	1670.67
632.84	1668.53
633.038	1604.99
633.236	1578.25
633.434	1598.98
633.632	1595.88
633.83	1599.95
634.028	1635.99
634.227	1631.92
634.425	1679.58
634.623	1604.21
634.821	1630.75
635.019	1602.85
635.216	1639.67
635.414	1673.77
635.612	1630.56
635.81	1635.4
636.008	1674.35
636.206	1640.25
636.404	1637.34
636.602	1571.66
636.8	1559.46
636.997	1619.32
637.195	1629.59
637.393	1608.67
637.591	1665.44
637.789	1642.19
637.986	1617
638.184	1627.27
638.382	1672.8
638.58	1647.8
638.777	1677.83
638.975	1606.73
639.173	1604.4
639.37	1609.44
639.568	1628.24
639.765	1655.17
639.963	1577.86
640.161	1596.27
640.358	1625.91
640.556	1572.63
640.753	1566.43
640.951	1542.41
641.148	1590.26
641.346	1542.6
641.543	1556.16
641.741	1583.09
641.938	1543.96
642.136	1553.84
642.333	1536.4
642.531	1551.12
642.728	1593.55
642.925	1500.36
643.123	1556.55
643.32	1569.34
643.517	1507.14
643.715	1532.52
643.912	1542.6
644.109	1561.78
644.306	1518.19
644.504	1503.07
644.701	1534.07
644.898	1568.56
645.095	1517.99
645.293	1534.85
645.49	1535.24
645.687	1518.19
645.884	1552.29
646.081	1457.74
646.278	1464.33
646.475	1480.02
646.672	1468.59
646.87	1527.1
647.067	1504.24
647.264	1481.57
647.461	1444.37
647.658	1416.66
647.855	1472.85
648.052	1426.16
648.249	1381.6
648.446	1438.56
648.642	1411.04
648.839	1404.07
649.036	1406.98
649.233	1396.71
649.43	1408.14
649.627	1358.73
649.824	1376.17
650.021	1365.51
650.217	1353.7
650.414	1407.94
650.611	1397.87
650.808	1441.85
651.004	1423.44
651.201	1444.76
651.398	1467.04
651.595	1421.7
651.791	1389.54
651.988	1458.71
652.185	1355.44
652.381	1453.28
652.578	1325.6
652.775	1394.96
652.971	1412.59
653.168	1409.49
653.364	1429.84
653.561	1352.53
653.757	1391.09
653.954	1448.83
654.15	1382.76
654.347	1432.36
654.543	1398.26
654.74	1347.11
654.936	1333.74
655.133	1382.95
655.329	1373.46
655.525	1330.06
655.722	1368.81
655.918	1299.25
656.115	1311.65
656.311	1242.29
656.507	1184.75
656.704	1134.57
656.9	1164.02
657.096	1147.94
657.292	1199.09
657.489	1229.89
657.685	1251.4
657.881	1256.43
658.077	1265.15
658.273	1272.71
658.47	1335.1
658.666	1277.94
658.862	1342.26
659.058	1313.01
659.254	1383.34
659.45	1340.33
659.646	1370.36
659.842	1337.61
660.038	1366.68
660.234	1315.92
660.43	1342.65
660.626	1402.71
660.822	1379.08
661.018	1407.17
661.214	1348.27
661.41	1301.38
661.606	1351.95
661.802	1373.07
661.998	1364.93
662.194	1343.62
662.39	1335.87
662.586	1370.36
662.781	1382.76
662.977	1397.1
663.173	1377.91
663.369	1342.46
663.564	1386.63
663.76	1390.12
663.956	1350.21
664.152	1388.18
664.347	1284.72
664.543	1353.11
664.739	1339.36
664.934	1284.72
665.13	1266.12
665.326	1332.96
665.521	1331.03
665.717	1305.84
665.912	1310.49
666.108	1230.47
666.304	1317.27
666.499	1305.45
666.695	1240.93
666.89	1343.62
667.086	1372.68
667.281	1311.07
667.477	1379.85
667.672	1318.82
667.867	1326.18
668.063	1345.36
668.258	1274.65
668.454	1322.31
668.649	1372.3
668.844	1351.56
669.04	1337.03
669.235	1296.35
669.43	1307
669.626	1267.48
669.821	1293.05
670.016	1268.64
670.211	1284.72
670.407	1266.32
670.602	1286.08
670.797	1278.52
670.992	1304.1
671.187	1289.37
671.382	1335.29
671.578	1258.76
671.773	1294.6
671.968	1274.65
672.163	1276.97
672.358	1281.62
672.553	1222.72
672.748	1269.61
672.943	1312.04
673.138	1263.22
673.333	1302.55
673.528	1229.31
673.723	1271.93
673.918	1224.85
674.113	1220.2
674.308	1349.05
674.503	1286.85
674.698	1260.31
674.892	1260.31
675.087	1256.43
675.282	1281.82
675.477	1236.87
675.672	1295.38
675.867	1257.6
676.061	1215.55
676.256	1184.17
676.451	1224.27
676.646	1263.99
676.84	1213.42
677.035	1166.92
677.23	1212.84
677.424	1251.98
677.619	1278.91
677.814	1259.73
678.008	1272.52
678.203	1160.92
678.397	1237.25
678.592	1234.73
678.787	1300.22
678.981	1234.54
679.176	1244.81
679.37	1228.73
679.565	1191.92
679.759	1234.93
679.954	1234.15
680.148	1287.63
680.342	1285.11
680.537	1235.12
680.731	1208.77
680.926	1251.78
681.12	1255.08
681.314	1181.26
681.509	1215.36
681.703	1232.99
681.897	1251.01
682.092	1192.5
682.286	1197.54
682.48	1274.07
682.674	1233.96
682.869	1193.08
683.063	1194.63
683.257	1283.56
683.451	1190.17
683.645	1262.83
683.839	1235.51
684.034	1193.08
684.228	1233.96
684.422	1156.46
684.616	1147.35
684.81	1219.04
685.004	1167.12
685.198	1203.35
685.392	1193.85
685.586	1163.05
685.78	1181.26
685.974	1194.82
686.168	1184.75
686.362	1229.31
686.556	1126.82
686.75	1086.13
686.944	1065.4
687.138	1065.21
687.331	993.71
687.525	983.64
687.719	926.1
687.913	999.91
688.107	988.68
688.301	953.61
688.494	1002.43
688.688	955.74
688.882	974.73
689.076	942.37
689.269	1000.88
689.463	1053.19
689.657	992.94
689.85	974.53
690.044	1002.24
690.238	1017.54
690.431	996.43
690.625	1003.79
690.818	1026.46
691.012	1053.58
691.205	1057.65
691.399	1003.79
691.593	1078.38
691.786	1080.9
691.98	1108.02
692.173	1133.6
692.366	1097.56
692.56	1137.86
692.753	1148.52
692.947	1053.39
693.14	1143.48
693.333	1141.74
693.527	1083.42
693.72	1090.01
693.914	1070.63
694.107	1081.67
694.3	1096.59
694.493	1073.34
694.687	1143.87
694.88	1068.11
695.073	1177.39
695.266	1170.6
695.46	1114.61
695.653	1164.02
695.846	1140.96
696.039	1071.99
696.232	1113.84
696.425	1167.5
696.618	1167.31
696.812	1149.87
697.005	1213.62
697.198	1291.7
697.391	1174.48
697.584	1236.48
697.777	1297.7
697.97	1268.45
698.163	1280.27
698.356	1255.47
698.549	1313.01
698.742	1305.65
698.935	1267.87
699.127	1276.78
699.32	1247.33
699.513	1276.2
699.706	1297.51
699.899	1317.85
700.092	1267.48
700.285	1337.42
700.477	1251.59
700.67	1327.15
700.863	1333.93
701.056	1399.42
701.248	1380.43
701.441	1387.02
701.634	1374.04
701.826	1445.53
702.019	1346.53
702.212	1431
702.404	1389.35
702.597	1360.67
702.79	1372.3
702.982	1460.06
703.175	1466.46
703.367	1505.79
703.56	1495.32
703.752	1601.89
703.945	1549.96
704.137	1581.15
704.33	1618.16
704.522	1587.74
704.715	1614.48
704.907	1613.7
705.1	1665.24
705.292	1641.8
705.484	1662.72
705.677	1700.5
705.869	1687.13
706.061	1727.63
706.254	1783.62
706.446	1741.58
706.638	1755.91
706.831	1818.88
707.023	1800.28
707.215	1893.28
707.407	1849.3
707.599	1853.76
707.792	1897.74
707.984	1914.59
708.176	1939.59
708.368	1881.27
708.56	1950.05
708.752	1901.42
708.944	1929.13
709.136	1984.73
709.329	1979.89
709.521	2085.09
709.713	2016.51
709.905	2061.65
710.097	2132.95
710.289	2064.17
710.481	2117.25
710.672	2131.98
710.864	2139.15
711.056	2159.68
711.248	2172.67
711.44	2173.44
711.632	2183.9
711.824	2216.26
712.016	2283.88
712.207	2297.44
712.399	2273.03
712.591	2353.24
712.783	2335.41
712.975	2367.57
713.166	2315.65
713.358	2343.55
713.55	2425.7
713.741	2417.56
713.933	2401.87
714.125	2437.91
714.316	2421.05
714.508	2460.77
714.7	2515.6
714.891	2486.92
715.083	2551.63
715.274	2511.72
715.466	2544.08
715.657	2626.42
715.849	2529.55
716.04	2555.51
716.232	2506.88
716.423	2590.97
716.615	2512.89
716.806	2466.19
716.998	2461.15
717.189	2378.23
717.381	2344.52
717.572	2270.51
717.763	2323.98
717.955	2294.92
718.146	2290.08
718.337	2218.78
718.528	2179.45
718.72	2094.2
718.911	2220.33
719.102	2172.47
719.293	2209.09
719.485	2200.76
719.676	2198.24
719.867	2108.15
720.058	2179.45
720.249	2173.44
720.44	2209.86
720.632	2230.01
720.823	2310.03
721.014	2432.48
721.205	2453.02
721.396	2543.88
721.587	2623.9
721.778	2682.03
721.969	2682.03
722.16	2746.74
722.351	2783.74
722.542	2912
722.733	2928.47
722.924	2837.99
723.115	2954.44
723.305	2919.17
723.496	2931.77
723.687	2773.28
723.878	2801.57
724.069	2810.09
724.26	2821.14
724.45	2760.69
724.641	2779.48
724.832	2815.91
725.023	2775.99
725.213	2837.61
725.404	2836.83
725.595	2803.51
725.785	2804.47
725.976	2882.75
726.167	2851.56
726.357	2879.26
726.548	3010.82
726.739	2872.87
726.929	2969.94
727.12	3024.96
727.31	3029.42
727.501	3026.9
727.691	3028.06
727.882	3053.83
728.072	3088.31
728.263	3073.78
728.453	3140.63
728.644	3167.75
728.834	3113.7
729.024	3140.63
729.215	3104.98
729.405	3147.02
729.596	3214.44
729.786	3205.92
729.976	3292.52
730.167	3253.77
730.357	3232.66
730.547	3241.57
730.737	3313.06
730.928	3384.55
731.118	3391.92
731.308	3377
731.498	3360.92
731.688	3510.1
731.879	3445.78
732.069	3509.71
732.259	3547.88
732.449	3561.25
732.639	3702.3
732.829	3698.42
733.019	3780.57
733.209	3806.54
733.399	3817
733.589	3872.02
733.779	3899.34
733.969	3906.7
734.159	3959.4
734.349	3985.36
734.539	4126.22
734.729	4093.86
734.919	4121.57
735.109	4184.34
735.299	4023.53
735.488	4126.61
735.678	4089.02
735.868	4097.54
736.058	4135.71
736.248	4125.06
736.437	4069.45
736.627	4094.44
736.817	4213.02
737.007	4148.5
737.196	4234.72
737.386	4239.37
737.576	4165.36
737.765	4264.94
737.955	4221.35
738.144	4376.73
738.334	4294.97
738.524	4263.78
738.713	4288.39
738.903	4293.62
739.092	4316.28
739.282	4333.53
739.471	4325.58
739.661	4329.65
739.85	4397.85
740.04	4383.13
740.229	4395.72
740.419	4371.89
740.608	4465.08
740.797	4423.23
740.987	4538.51
741.176	4500.93
741.365	4465.28
741.555	4400.56
741.744	4462.37
741.933	4446.29
742.123	4555.37
742.312	4549.17
742.501	4554.59
742.69	4570.87
742.88	4471.48
743.069	4601.48
743.258	4577.46
743.447	4644.88
743.636	4599.54
743.825	4618.14
744.014	4621.44
744.204	4656.12
744.393	4598.38
744.582	4701.26
744.771	4714.63
744.96	4643.91
745.149	4693.9
745.338	4621.24
745.527	4725.09
745.716	4653.21
745.905	4653.79
746.094	4719.09
746.283	4728.19
746.471	4656.31
746.66	4727.42
746.849	4697.39
747.038	4754.54
747.227	4736.52
747.416	4733.81
747.604	4697.58
747.793	4718.31
747.982	4764.81
748.171	4716.95
748.359	4750.86
748.548	4734.2
748.737	4716.37
748.926	4741.95
749.114	4589.86
749.303	4703.59
749.491	4682.66
749.68	4583.27
749.869	4687.31
750.057	4649.72
750.246	4656.89
750.434	4652.63
750.623	4657.28
750.811	4658.83
751	4690.99
751.188	4648.37
751.377	4647.59
751.565	4648.17
751.754	4643.52
751.942	4593.54
752.131	4664.45
752.319	4630.74
752.507	4642.36
752.696	4682.66
752.884	4681.3
753.072	4609.81
753.261	4665.03
753.449	4626.09
753.637	4566.02
753.825	4719.47
754.014	4631.9
754.202	4583.46
754.39	4697.77
754.578	4674.72
754.766	4570.87
754.955	4583.46
755.143	4681.11
755.331	4609.81
755.519	4618.34
755.707	4589.86
755.895	4568.16
756.083	4554.98
756.271	4552.46
756.459	4603.61
756.647	4555.56
756.835	4523.79
757.023	4549.56
757.211	4557.5
757.399	4549.94
757.587	4477.87
757.775	4497.83
757.963	4542.19
758.151	4557.89
758.339	4472.25
758.526	4453.65
758.714	4467.41
758.902	4383.71
759.09	4319.97
759.278	4089.99
759.465	3868.34
759.653	3453.14
759.841	3187.13
760.028	2825.59
760.216	2465.61
760.404	2307.9
760.591	1980.47
760.779	1704.96
760.967	1579.61
761.154	1395.74
761.342	1449.41
761.529	1469.36
761.717	1541.63
761.905	1560.23
762.092	1658.27
762.28	1644.9
762.467	1710.58
762.655	1615.84
762.842	1701.08
763.029	1684.03
763.217	1711.35
763.404	1722.2
763.592	1784.2
763.779	1755.91
763.966	1802.41
764.154	1813.26
764.341	1918.08
764.528	1944.24
764.716	1959.74
764.903	2039.17
765.09	2129.65
765.277	2179.06
765.465	2395.09
765.652	2421.44
765.839	2485.37
766.026	2667.69
766.213	2680.67
766.4	2798.86
766.588	2971.1
766.775	3036.78
766.962	3146.63
767.149	3193.71
767.336	3371.19
767.523	3288.65
767.71	3438.22
767.897	3540.71
768.084	3634.1
768.271	3697.26
768.458	3727.29
768.645	3794.52
768.832	3785.22
769.019	3847.03
769.206	3818.35
769.392	3852.65
769.579	3944.29
769.766	3892.95
769.953	3923.37
770.14	4000.86
770.327	3951.07
770.513	3985.56
770.7	4043.68
770.887	3975.48
771.073	3991.18
771.26	4022.56
771.447	3970.45
771.634	3953.98
771.82	4044.46
772.007	3949.33
772.193	3991.18
772.38	4061.31
772.567	4002.8
772.753	3969.67
772.94	4083.21
773.126	3993.31
773.313	4069.45
773.499	4027.41
773.686	4013.46
773.872	3952.43
774.059	4036.13
774.245	3973.55
774.432	3964.63
774.618	3879.19
774.804	3940.41
774.991	3906.12
775.177	3954.36
775.363	3929.18
775.55	3979.36
775.736	3890.62
775.922	3907.87
776.109	3904.38
776.295	3920.85
776.481	3903.22
776.667	3900.31
776.853	3870.67
777.04	3876.09
777.226	3857.49
777.412	3944.68
777.598	3872.02
777.784	3841.02
777.97	3813.12
778.156	3818.35
778.342	3820.87
778.528	3743.18
778.715	3734.07
778.901	3762.56
779.087	3771.27
779.272	3745.31
779.458	3722.84
779.644	3777.86
779.83	3752.48
780.016	3810.8
780.202	3721.09
780.388	3775.92
780.574	3624.03
780.76	3682.73
780.946	3747.06
781.131	3750.35
781.317	3698.23
781.503	3684.09
781.689	3669.56
781.874	3741.24
782.06	3662.19
782.246	3662.58
782.432	3657.74
782.617	3697.46
782.803	3683.51
782.989	3619.18
783.174	3613.37
783.36	3569
783.545	3605.23
783.731	3612.79
783.916	3453.72
784.102	3567.06
784.288	3530.06
784.473	3569.58
784.659	3489.57
784.844	3589.54
785.029	3532.77
785.215	3521.73
785.4	3448.88
785.586	3573.85
785.771	3468.45
785.956	3529.09
786.142	3448.68
786.327	3452.37
786.512	3492.47
786.698	3447.72
786.883	3365.18
787.068	3417.3
787.254	3460.12
787.439	3448.68
787.624	3414
787.809	3391.34
787.994	3381.65
788.18	3423.11
788.365	3316.16
788.55	3327.98
788.735	3388.82
788.92	3358.4
789.105	3350.07
789.29	3381.07
789.475	3299.69
789.66	3304.34
789.845	3280.9
790.03	3295.04
790.215	3274.12
790.4	3280.51
790.585	3312.67
790.77	3242.54
790.955	3201.27
791.14	3243.12
791.325	3338.05
791.51	3161.16
791.695	3235.56
791.879	3215.41
792.064	3172.21
792.249	3279.35
792.434	3248.93
792.618	3218.51
792.803	3277.41
792.988	3183.44
793.173	3188.09
793.357	3274.12
793.542	3184.03
793.727	3174.14
793.911	3275.86
794.096	3204.76
794.281	3224.91
794.465	3292.72
794.65	3172.4
794.834	3269.66
795.019	3277.02
795.203	3290.97
795.388	3256.1
795.572	3341.74
795.757	3244.47
795.941	3301.82
796.126	3264.24
796.31	3207.08
796.494	3252.61
796.679	3287.49
796.863	3214.06
797.048	3323.33
797.232	3296.01
797.416	3314.61
797.601	3266.95
797.785	3326.82
797.969	3325.85
798.153	3228.2
798.338	3314.42
798.522	3317.32
798.706	3348.71
798.89	3335.54
799.074	3399.86
799.258	3400.83
799.443	3314.03
799.627	3308.22
799.811	3392.3
799.995	3289.62
800.179	3228.01
800.363	3257.65
800.547	3291.17
800.731	3336.5
800.915	3207.86
801.099	3265.79
801.283	3255.13
801.467	3325.07
801.651	3288.65
801.835	3315.77
802.019	3306.28
802.202	3336.5
802.386	3246.22
802.57	3238.08
802.754	3249.32
802.938	3273.15
803.121	3248.54
803.305	3314.22
803.489	3301.05
803.673	3255.71
803.856	3240.79
804.04	3226.46
804.224	3314.03
804.407	3236.34
804.591	3282.26
804.775	3265.21
804.958	3274.31
805.142	3359.56
805.326	3263.66
805.509	3251.45
805.693	3332.63
805.876	3294.85
806.06	3256.1
806.243	3341.35
806.427	3311.9
806.61	3349.68
806.794	3255.52
806.977	3307.25
807.16	3267.92
807.344	3273.92
807.527	3247.38
807.71	3204.95
807.894	3270.44
808.077	3265.79
808.26	3234.79
808.444	3176.28
808.627	3285.74
808.81	3188.09
808.993	3145.86
809.177	3108.46
809.36	3153.61
809.543	3215.99
809.726	3085.21
809.909	3078.24
810.092	3083.86
810.276	3034.07
810.459	3121.45
810.642	3061.19
810.825	3034.84
811.008	3042.78
811.191	2937.77
811.374	2956.95
811.557	2982.53
811.74	3074.36
811.923	2934.29
812.106	2891.85
812.289	2906.77
812.472	2924.99
812.654	2906.97
812.837	2887.98
813.02	2817.07
813.203	2782.19
813.386	2692.49
813.569	2673.89
813.751	2602.98
813.934	2632.23
814.117	2604.92
814.3	2548.34
814.482	2536.14
814.665	2478.79
814.848	2434.81
815.03	2386.37
815.213	2392.37
815.396	2342.19
815.578	2353.24
815.761	2322.24
815.943	2369.9
816.126	2227.5
816.309	2224.59
816.491	2198.05
816.674	2113.96
816.856	2160.27
817.039	2141.67
817.221	2228.66
817.403	2160.65
817.586	2158.72
817.768	2190.49
817.951	2134.69
818.133	2078.7
818.315	2115.51
818.498	2153.1
818.68	2220.33
818.862	2184.1
819.045	2229.63
819.227	2182.93
819.409	2185.65
819.591	2213.35
819.774	2145.73
819.956	2136.24
820.138	2233.89
820.32	2238.73
820.502	2243.96
820.684	2334.06
820.866	2302.28
821.048	2434.22
821.231	2349.17
821.413	2372.42
821.595	2341.03
821.777	2352.46
821.959	2353.82
822.141	2399.35
822.323	2301.7
822.505	2243.58
822.686	2185.45
822.868	2064.36
823.05	1986.28
823.232	1938.23
823.414	1858.21
823.596	1964.39
823.778	1925.64
823.96	1943.27
824.141	1942.69
824.323	1983.37
824.505	2037.24
824.687	2102.92
824.868	2170.92
825.05	2270.51
825.232	2294.53
825.413	2364.67
825.595	2336.58
825.777	2259.08
825.958	2280.19
826.14	2262.56
826.321	2306.54
826.503	2291.24
826.685	2301.51
826.866	2341.23
827.048	2303.44
827.229	2261.98
827.411	2250.36
827.592	2195.91
827.773	2190.88
827.955	2137.02
828.136	2090.71
828.318	2084.12
828.499	2112.99
828.68	2095.17
828.862	2113.57
829.043	2122.48
829.224	2090.13
829.406	2055.84
829.587	2057.97
829.768	2072.3
829.949	2096.14
830.131	2089.16
830.312	2150.97
830.493	2052.93
830.674	2061.84
830.855	2079.28
831.036	2072.69
831.218	2131.78
831.399	2152.9
831.58	2095.55
831.761	2120.35
831.942	2077.73
832.123	2061.45
832.304	2033.17
832.485	2034.14
832.666	2028.9
832.847	2097.69
833.028	2068.82
833.209	2084.51
833.389	2059.32
833.57	2020.77
833.751	2006.62
833.932	2070.95
834.113	2047.5
834.294	1982.6
834.475	2085.48
834.655	2099.04
834.836	2106.21
835.017	2067.07
835.198	2037.82
835.378	2067.85
835.559	2091.49
835.74	2088.19
835.92	2082.19
836.101	2072.5
836.281	2114.73
836.462	2098.65
836.643	2123.26
836.823	2132.75
837.004	2154.07
837.184	2156.78
837.365	2126.36
837.545	2180.61
837.726	2082.57
837.906	2185.65
838.087	2112.41
838.267	2115.9
838.448	2061.45
838.628	2098.85
838.808	2110.47
838.989	2126.17
839.169	2028.71
839.349	2110.47
839.53	2141.86
839.71	2140.31
839.89	2072.89
840.07	2151.16
840.251	2052.93
840.431	2127.72
840.611	2106.6
840.791	2071.14
840.971	2126.75
841.151	2073.08
841.332	2080.05
841.512	2101.75
841.692	2051.38
841.872	2067.85
842.052	2045.37
842.232	2106.6
842.412	2004.49
842.592	2020.57
842.772	2071.72
842.952	2063.59
843.132	2040.72
843.312	1990.74
843.492	2009.14
843.672	2063.59
843.851	1960.9
844.031	1996.55
844.211	1982.02
844.391	1985.12
844.571	2034.52
844.751	2070.95
844.93	2006.43
845.11	1992.09
845.29	2002.75
845.47	2019.99
845.649	1971.75
845.829	2006.43
846.009	1983.18
846.188	2032.78
846.368	2008.37
846.547	1996.94
846.727	2005.07
846.907	1986.28
847.086	2003.91
847.266	2021.74
847.445	2009.92
847.625	1981.82
847.804	1939.59
847.984	1976.98
848.163	1952.57
848.343	1918.47
848.522	1981.82
848.701	2018.05
848.881	1923.7
849.06	1947.14
849.239	1925.25
849.419	1926.8
849.598	1865.38
849.777	1872.36
849.957	1851.24
850.136	1762.7
850.315	1722.59
850.494	1742.16
850.674	1767.35
850.853	1835.35
851.032	1785.36
851.211	1833.03
851.39	1815.2
851.569	1773.35
851.748	1803.58
851.927	1842.71
852.107	1814.62
852.286	1772.38
852.465	1772
852.644	1811.71
852.823	1809.97
853.002	1790.98
853.181	1796.8
853.359	1804.74
853.538	1731.12
853.717	1844.46
853.896	1691.2
854.075	1621.84
854.254	1581.35
854.433	1521.29
854.611	1574.57
854.79	1503.66
854.969	1574.37
855.148	1562.36
855.327	1559.46
855.505	1578.83
855.684	1603.63
855.863	1617.19
856.041	1625.91
856.22	1656.52
856.399	1636.37
856.577	1715.81
856.756	1726.47
856.934	1849.69
857.113	1824.31
857.291	1724.72
857.47	1697.21
857.648	1765.6
857.827	1717.94
858.005	1774.51
858.184	1687.33
858.362	1808.03
858.541	1711.35
858.719	1709.22
858.898	1698.18
859.076	1679
859.254	1772.19
859.433	1684.03
859.611	1661.17
859.789	1638.12
859.967	1679.38
860.146	1744.1
860.324	1626.69
860.502	1619.9
860.68	1590.65
860.859	1632.11
861.037	1646.25
861.215	1668.15
861.393	1677.83
861.571	1654.2
861.749	1639.86
861.927	1628.62
862.105	1639.67
862.283	1636.37
862.461	1630.37
862.639	1575.92
862.817	1613.51
862.995	1631.72
863.173	1585.22
863.351	1580.96
863.529	1636.18
863.707	1640.83
863.885	1616.03
864.063	1502.49
864.241	1549.19
864.418	1630.56
864.596	1576.51
864.774	1531.17
864.952	1549.38
865.129	1574.18
865.307	1574.18
865.485	1468.2
865.663	1556.36
865.84	1495.91
866.018	1469.75
866.196	1360.67
866.373	1378.69
866.551	1336.84
866.728	1289.37
866.906	1358.54
867.084	1338.2
867.261	1411.82
867.439	1416.66
867.616	1420.93
867.794	1439.53
867.971	1452.12
868.149	1446.89
868.326	1455.41
868.503	1479.24
868.681	1486.03
868.858	1438.36
869.035	1418.41
869.213	1463.36
869.39	1454.25
869.567	1524.19
869.745	1438.56
869.922	1431.19
870.099	1468.39
870.276	1471.3
870.454	1462.58
870.631	1500.17
870.808	1417.24
870.985	1479.05
871.162	1502.49
871.339	1454.83
871.517	1398.45
871.694	1391.86
871.871	1399.23
872.048	1430.03
872.225	1382.37
872.402	1426.93
872.579	1391.67
872.756	1452.89
872.933	1391.28
873.11	1390.31
873.287	1430.03
873.463	1365.32
873.64	1371.52
873.817	1405.81
873.994	1376.17
874.171	1329.09
874.348	1411.82
874.524	1302.16
874.701	1351.95
874.878	1288.4
875.055	1383.53
875.231	1319.21
875.408	1371.13
875.585	1297.7
875.762	1342.65
875.938	1294.6
876.115	1313.59
876.291	1306.62
876.468	1309.91
876.645	1257.98
876.821	1259.53
876.998	1291.89
877.174	1325.02
877.351	1276.58
877.527	1291.89
877.704	1322.89
877.88	1298.28
878.057	1248.88
878.233	1313.59
878.409	1313.01
878.586	1338.58
878.762	1281.82
878.938	1242.48
879.115	1193.47
879.291	1259.73
879.467	1216.33
879.644	1218.65
879.82	1254.69
879.996	1225.82
880.172	1197.15
880.349	1254.69
880.525	1257.4
880.701	1189.98
880.877	1191.14
881.053	1220.79
881.229	1185.52
881.405	1256.05
881.581	1192.69
881.757	1191.72
881.933	1222.34
882.109	1239
882.285	1222.72
882.461	1167.12
882.637	1212.65
882.813	1183.59
882.989	1232.6
883.165	1273.87
883.341	1179.9
883.517	1265.35
883.693	1242.48
883.869	1245
884.044	1185.72
884.22	1254.5
884.396	1248.88
884.572	1212.45
884.747	1251.01
884.923	1247.33
885.099	1234.54
885.275	1274.84
885.45	1193.47
885.626	1209.16
885.801	1210.71
885.977	1205.48
886.153	1148.71
886.328	1232.22
886.504	1197.15
886.679	1214.2
886.855	1178.94
887.03	1225.44
887.206	1220.98
887.381	1201.22
887.557	1214.2
887.732	1210.32
887.908	1219.82
888.083	1259.92
888.258	1206.45
888.434	1225.44
888.609	1193.27
888.784	1254.88
888.96	1165.37
889.135	1190.75
889.31	1199.09
889.485	1203.54
889.661	1240.35
889.836	1261.47
890.011	1247.13
890.186	1177.19
890.361	1173.32
890.537	1209.55
890.712	1205.48
890.887	1199.09
891.062	1209.35
891.237	1222.92
891.412	1173.9
891.587	1200.44
891.762	1231.63
891.937	1239.77
892.112	1151.81
892.287	1194.63
892.462	1171.96
892.637	1130.11
892.812	1097.17
892.987	1146.97
893.161	1138.25
893.336	1133.41
893.511	1105.7
893.686	1171.96
893.861	1145.8
894.035	1154.14
894.21	1119.46
894.385	1054.94
894.56	1104.54
894.734	1034.98
894.909	1020.64
895.084	1070.82
895.258	1034.01
895.433	1020.84
895.608	991.19
895.782	961.16
895.957	976.86
896.131	998.94
896.306	945.66
896.48	916.6
896.655	906.33
896.829	844.72
897.004	833.68
897.178	842.78
897.353	852.08
897.527	912.73
897.701	862.35
897.876	831.35
898.05	908.27
898.224	869.91
898.399	927.45
898.573	873.59
898.747	769.16
898.921	819.73
899.096	726.54
899.27	702.51
899.444	734.67
899.618	755.79
899.792	766.84
899.967	749.98
900.141	833.68
900.315	744.36
900.489	745.33
900.663	750.17
900.837	796.09
901.011	699.61
901.185	814.69
901.359	765.09
901.533	763.74
901.707	785.44
901.881	788.54
902.055	736.61
902.229	778.27
902.403	806.36
902.576	769.74
902.75	777.88
902.924	887.35
903.098	850.73
903.272	885.41
903.446	909.82
903.619	854.22
903.793	917.96
903.967	927.84
904.14	963.88
904.314	935.2
904.488	911.37
904.661	928.03
904.835	929.78
905.009	961.36
905.182	986.74
905.356	914.08
905.529	933.46
905.703	906.72
905.876	871.65
906.05	876.11
906.223	857.32
906.397	776.91
906.57	785.24
906.744	791.83
906.917	779.43
907.09	780.4
907.264	763.15
907.437	728.28
907.61	694.96
907.784	712.2
907.957	724.02
908.13	683.91
908.304	750.95
908.477	679.65
908.65	695.34
908.823	641.48
908.996	740.87
909.17	673.45
909.343	679.07
909.516	675.39
909.689	663.76
909.862	673.26
910.035	678.49
910.208	667.25
910.381	631.21
910.554	728.67
910.727	641.29
910.9	650.2
911.073	647.29
911.246	731.38
911.419	712.2
911.592	702.12
911.765	655.82
911.938	642.45
912.11	658.92
912.283	670.74
912.456	714.91
912.629	678.87
912.802	637.99
912.974	598.28
913.147	574.83
913.32	546.16
913.493	577.93
913.665	569.41
913.838	565.53
914.01	551.58
914.183	620.75
914.356	598.28
914.528	641.87
914.701	689.92
914.873	653.88
915.046	600.6
915.218	550.03
915.391	504.89
915.563	509.35
915.736	567.08
915.908	618.43
916.081	592.46
916.253	594.98
916.425	606.41
916.598	629.27
916.77	606.22
916.942	554.1
917.115	495.01
917.287	593.63
917.459	517.48
917.632	493.46
917.804	496.56
917.976	540.93
918.148	535.5
918.32	547.71
918.493	581.23
918.665	621.91
918.837	580.45
919.009	638.38
919.181	639.74
919.353	610.29
919.525	613.58
919.697	621.33
919.869	604.48
920.041	650.78
920.213	722.47
920.385	658.92
920.557	598.08
920.729	637.22
920.901	651.75
921.073	608.74
921.244	600.21
921.416	649.23
921.588	576.96
921.76	587.81
921.932	668.41
922.103	598.86
922.275	589.94
922.447	585.68
922.619	500.63
922.79	603.7
922.962	564.37
923.134	574.83
923.305	539.57
923.477	515.35
923.648	529.88
923.82	543.83
923.991	501.6
924.163	456.45
924.335	534.92
924.506	492.68
924.677	562.63
924.849	476.6
925.02	537.83
925.192	587.43
925.363	532.98
925.535	502.37
925.706	491.71
925.877	523.1
926.049	495.59
926.22	515.74
926.391	533.56
926.562	560.3
926.734	503.92
926.905	534.73
927.076	459.55
927.247	472.34
927.419	446.96
927.59	426.03
927.761	477.76
927.932	435.14
928.103	465.17
928.274	406.27
928.445	379.92
928.616	406.47
928.787	403.75
928.958	428.75
929.129	409.95
929.3	366.55
929.471	345.82
929.642	296.8
929.813	228.22
929.984	350.86
930.155	283.05
930.326	343.89
930.496	263.87
930.667	217.17
930.838	277.62
931.009	208.07
931.18	278.98
931.35	234.81
931.521	241.59
931.692	190.24
931.863	138.51
932.033	191.02
932.204	185.98
932.374	177.84
932.545	130.96
932.716	198.96
932.886	191.6
933.057	120.69
933.227	114.88
933.398	218.72
933.568	112.55
933.739	93.18
933.909	94.15
934.08	124.37
934.25	62.76
934.421	74.19
934.591	117.98
934.761	74.19
934.932	44.16
935.102	106.93
935.272	72.83
935.443	75.35
935.613	104.99
935.783	117.78
935.953	38.93
936.123	217.76
936.294	70.7
936.464	68.57
936.634	76.32
936.804	42.22
936.974	51.71
937.144	83.49
937.314	111.39
937.484	39.7
937.655	60.82
937.825	112.74
937.995	77.1
938.165	128.63
938.334	96.08
938.504	104.61
938.674	94.15
938.844	81.36
939.014	163.12
939.184	165.83
939.354	225.7
939.524	179.2
939.694	111.78
939.863	143.55
940.033	210.01
940.203	205.36
940.373	167.19
940.542	201.09
940.712	156.53
940.882	182.11
941.051	206.52
941.221	192.37
941.391	198.38
941.56	140.64
941.73	116.23
941.899	245.85
942.069	143.55
942.238	163.31
942.408	123.79
942.577	176.1
942.747	129.21
942.916	94.73
943.086	113.91
943.255	170.48
943.425	124.76
943.594	117.98
943.763	43.77
943.933	78.26
944.102	44.74
944.271	128.05
944.441	123.4
944.61	91.82
944.779	139.29
944.948	198.38
945.117	61.4
945.287	118.75
945.456	56.95
945.625	72.45
945.794	131.34
945.963	75.93
946.132	122.24
946.301	99.76
946.47	141.61
946.639	47.06
946.808	79.03
946.977	129.79
947.146	162.73
947.315	130.96
947.484	155.95
947.653	131.93
947.822	84.26
947.991	83.3
948.16	172.03
948.329	156.53
948.498	111.78
948.666	107.71
948.835	166.99
949.004	93.56
949.173	57.53
949.341	118.94
949.51	138.71
949.679	146.65
949.847	130.96
950.016	174.36
950.185	186.37
950.353	105.19
950.522	115.46
950.69	166.99
950.859	103.06
951.028	155.18
951.196	116.23
951.365	110.42
951.533	83.68
951.701	142.97
951.87	145.68
952.038	88.33
952.207	91.82
952.375	173.39
952.543	109.84
952.712	94.34
952.88	69.73
953.048	152.08
953.217	127.08
953.385	116.04
953.553	167.58
953.721	85.04
953.89	93.76
954.058	48.03
954.226	86.98
954.394	121.08
954.562	57.33
954.73	114.29
954.898	101.7
955.067	159.44
955.235	84.07
955.403	131.54
955.571	178.81
955.739	141.61
955.907	87.75
956.075	92.6
956.243	81.36
956.41	120.49
956.578	35.25
956.746	90.85
956.914	63.53
957.082	119.33
957.25	129.21
957.418	99.18
957.585	106.16
957.753	160.02
957.921	81.16
958.089	113.13
958.256	107.9
958.424	115.84
958.592	102.09
958.759	96.86
958.927	127.66
959.095	85.43
959.262	95.5
959.43	113.13
959.597	81.94
959.765	130.57
959.932	66.63
960.1	129.41
960.267	131.54
960.435	88.72
960.602	137.35
960.77	122.63
960.937	83.49
961.104	105.58
961.272	71.09
961.439	105.77
961.606	118.56
961.774	159.83
961.941	96.86
962.108	106.16
962.275	127.47
962.443	139.09
962.61	138.71
962.777	201.67
962.944	132.12
963.111	126.69
963.278	131.93
963.446	134.83
963.613	131.93
963.78	166.61
963.947	142.58
964.114	139.29
964.281	199.54
964.448	159.05
964.615	122.82
964.782	130.38
964.949	139.68
965.116	145.29
965.282	187.92
965.449	105.58
965.616	103.25
965.783	147.43
965.95	130.18
966.117	77.29
966.283	139.29
966.45	129.79
966.617	135.8
966.784	178.43
966.95	161.38
967.117	162.15
967.284	106.54
967.45	76.71
967.617	203.61
967.784	140.06
967.95	195.47
968.117	159.63
968.283	177.84
968.45	247.21
968.616	142.39
968.783	178.43
968.949	158.08
969.116	188.5
969.282	151.11
969.449	149.17
969.615	125.14
969.781	112.16
969.948	134.64
970.114	79.61
970.28	198.19
970.447	152.08
970.613	179.78
970.779	117.59
970.945	149.56
971.112	153.04
971.278	139.29
971.444	140.26
971.61	190.24
971.776	147.62
971.942	177.07
972.108	148.01
972.275	125.53
972.441	128.24
972.607	224.54
972.773	101.7
972.939	151.49
973.105	150.53
973.271	89.11
973.437	101.89
973.602	86.78
973.768	132.51
973.934	134.64
974.1	171.06
974.266	51.52
974.432	141.61
974.598	91.05
974.763	165.25
974.929	113.71
975.095	188.5
975.261	114.49
975.426	101.51
975.592	136.96
975.758	171.06
975.923	62.18
976.089	76.13
976.255	149.56
976.42	110.81
976.586	155.56
976.751	138.9
976.917	216.59
977.082	144.71
977.248	73.61
977.413	76.13
977.579	98.41
977.744	130.57
977.91	113.33
978.075	114.49
978.24	126.69
978.406	103.06
978.571	102.86
978.736	89.5
978.902	141.61
979.067	104.99
979.232	54.81
979.397	125.73
979.563	177.84
979.728	88.53
979.893	77.1
980.058	103.83
980.223	146.65
980.388	141.42
980.554	98.6
980.719	112.16
980.884	112.36
981.049	136.38
981.214	99.96
981.379	126.5
981.544	88.91
981.709	84.07
981.874	100.54
982.039	118.17
982.204	117.59
982.368	146.26
982.533	92.21
982.698	145.68
982.863	164.28
983.028	98.21
983.193	115.26
983.357	130.38
983.522	101.89
983.687	105.58
983.852	113.71
984.016	90.85
984.181	99.18
984.346	145.1
984.51	141.61
984.675	107.32
984.839	143.74
985.004	103.06
985.168	154.59
985.333	114.88
985.498	98.6
985.662	110.81
985.827	129.02
985.991	114.49
986.155	92.01
986.32	153.43
986.484	175.52
986.649	115.07
986.813	74.77
986.977	103.44
987.142	137.93
987.306	77.29
987.47	103.25
987.634	67.41
987.799	118.94
987.963	106.74
988.127	133.48
988.291	187.72
988.455	108.09
988.62	95.31
988.784	144.71
988.948	127.47
989.112	95.69
989.276	104.8
989.44	87.17
989.604	96.28
989.768	92.21
989.932	168.35
990.096	64.31
990.26	57.33
990.424	68.76
990.588	71.48
990.752	144.33
990.915	119.33
991.079	88.72
991.243	66.83
991.407	130.96
991.571	90.08
991.734	127.08
991.898	113.91
992.062	176.68
992.226	90.27
992.389	69.93
992.553	49.78
992.717	91.24
992.88	95.89
993.044	92.4
993.207	99.57
993.371	135.22
993.535	103.83
993.698	110.03
993.862	141.61
994.025	151.69
994.189	86.78
994.352	101.89
994.515	96.86
994.679	138.32
994.842	86.59
995.006	118.75
995.169	82.52
995.332	79.03
995.496	104.41
995.659	55.78
995.822	68.38
995.985	67.8
996.149	145.29
996.312	67.02
996.475	132.31
996.638	87.36
996.801	153.82
996.964	129.41
997.128	66.25
997.291	73.8
997.454	94.92
997.617	61.21
997.78	120.3
997.943	49.58
998.106	129.79
998.269	81.94
998.432	75.93
998.595	50.36
998.758	37.38
998.92	51.52
999.083	32.34
999.246	83.49
999.409	41.06
999.572	24.01
999.735	51.71
999.897	106.16
1000.06	68.96
1000.223	67.8
1000.386	111.78
1000.548	90.27
1000.711	99.57
1000.874	66.25
1001.036	22.26
1001.199	100.54
1001.361	35.05
1001.524	47.06
1001.687	116.04
1001.849	43.19
1002.012	64.5
1002.174	81.55
1002.337	104.41
1002.499	42.03
1002.661	123.98
1002.824	33.11
1002.986	44.74
1003.149	55.4
1003.311	18
1003.473	132.31
1003.636	56.75
1003.798	86.01
1003.96	86.4
1004.123	50.55
1004.285	30.01
1004.447	88.72
1004.609	52.68
1004.771	140.26
1004.933	25.17
1005.096	50.16
1005.258	-11.06
1005.42	51.71
1005.582	81.16
1005.744	66.83
1005.906	9.48
1006.068	72.64
1006.23	14.71
1006.392	-13.38
1006.554	36.21
1006.716	90.85
1006.878	72.25
1007.04	18.39
1007.202	50.36
1007.363	72.45
1007.525	58.11
1007.687	96.28
1007.849	76.71
1008.011	5.99
1008.172	28.66
1008.334	20.91
1008.496	92.01
1008.658	9.67
1008.819	20.91
1008.981	1.92
1009.143	33.11
1009.304	42.8
1009.466	54.43
1009.627	106.35
1009.789	143.74
1009.95	78.06
1010.112	36.21
1010.273	86.01
1010.435	31.18
1010.596	21.49
1010.758	39.9
1010.919	40.28
1011.081	2.31
1011.242	27.5
1011.403	84.26
1011.565	30.21
1011.726	73.61
1011.887	9.86
1012.049	38.15
1012.21	66.44
1012.371	112.55
1012.532	3.08
1012.693	49.2
1012.855	32.92
1013.016	50.75
1013.177	61.4
1013.338	29.43
1013.499	91.63
1013.66	75.35
1013.821	67.6
1013.982	46.68
1014.143	54.04
1014.304	-2.92
1014.465	72.45
1014.626	43
1014.787	34.66
1014.948	118.17
1015.109	-21.13
1015.27	89.3
1015.431	5.99
1015.592	21.68
1015.752	76.32
1015.913	23.43
1016.074	46.48
1016.235	45.32
1016.395	26.72
1016.556	43.19
1016.717	22.85
1016.877	72.64
1017.038	25.95
1017.199	40.48
1017.359	41.45
1017.52	50.16
1017.681	19.94
1017.841	49.78
1018.002	29.43
1018.162	19.75
1018.323	57.53
1018.483	37.38
1018.644	29.82
1018.804	4.05
1018.964	-4.28
1019.125	14.71
1019.285	25.95
1019.446	1.73
1019.606	-3.31
1019.766	-20.75
1019.926	53.07
1020.087	49.97
1020.247	-21.52
1020.407	27.5
1020.567	72.45
1020.728	24.78
1020.888	-19.78
1021.048	16.26
1021.208	-13.38
1021.368	-5.83
1021.528	84.07
1021.688	84.46
1021.848	42.41
1022.008	45.32
1022.168	15.29
1022.328	25.36
1022.488	55.78
1022.648	13.74
1022.808	13.16
1022.968	34.08
1023.128	7.35
1023.288	9.67
1023.448	28.27
1023.608	56.95
1023.767	41.64
1023.927	2.89
1024.087	-7.57
1024.247	-19.39
1024.406	-4.08
1024.566	-9.9
1024.726	-10.09
1024.885	21.88
1025.045	55.98
1025.205	33.31
1025.364	5.8
1025.524	28.46
1025.683	30.6
1025.843	16.45
1026.003	23.81
1026.162	81.94
1026.321	78.65
1026.481	44.35
1026.64	10.45
1026.8	39.31
1026.959	24.2
1027.119	10.25
1027.278	12.77
1027.437	-6.6
1027.597	13.93
1027.756	33.31
1027.915	43.96
1028.074	55.59
1028.234	10.64
1028.393	19.16
1028.552	14.9
1028.711	-62.98
1028.87	36.02
1029.03	-14.55
1029.189	1.34
1029.348	-38.77
1029.507	10.25
1029.666	15.1
1029.825	-5.05
1029.984	-15.32
1030.143	27.88
1030.302	-1.57
1030.461	-44.77
1030.62	5.02
1030.779	20.13
1030.938	-8.93
1031.097	-2.34
1031.255	47.84
1031.414	80.97
1031.573	59.27
1031.732	-43.03
1031.891	26.14
1032.049	47.06
1032.208	28.85
1032.367	-11.64
1032.525	-7.96
1032.684	16.45
1032.843	-20.36
1033.001	-17.26
1033.16	167.38
1033.319	37.38
1033.477	39.31
1033.636	18.78
1033.794	-27.72
1033.953	47.06
1034.111	42.41
1034.27	-14.93
1034.428	26.33
1034.587	-4.08
1034.745	23.62
1034.903	0.18
1035.062	40.48
1035.22	-28.69
1035.378	51.52
1035.537	-24.82
1035.695	36.8
1035.853	34.86
1036.011	39.7
1036.17	35.05
1036.328	-28.3
1036.486	18.39
1036.644	35.25
1036.802	-68.41
1036.96	-5.25
1037.119	0.76
1037.277	-23.46
1037.435	-23.46
1037.593	-16.48
1037.751	-17.26
1037.909	36.41
1038.067	36.41
