Data from gum_old_FLMT105791__56__15-43-44-257.txt Node

Date: Mon Mar 20 15:43:44 GMT 2023
User: antho
Spectrometer: FLMT10579
Trigger mode: 0
Integration Time (sec): 1.000000E-1
Scans to average: 10
Electric dark correction enabled: true
Nonlinearity correction enabled: false
Boxcar width: 0
XAxis mode: Wavelengths
Number of Pixels in Spectrum: 3648
>>>>>Begin Spectral Data<<<<<
345.248	-167.49
345.464	-167.49
345.681	-167.49
345.898	-185.71
346.114	-176.99
346.331	-48.92
346.548	37.1
346.764	-9.59
346.981	-5.13
347.197	6.3
347.414	20.44
347.631	-27.61
347.847	67.91
348.064	-22.57
348.28	28.77
348.497	-38.46
348.713	-8.23
348.93	37.68
349.146	23.93
349.363	23.15
349.579	26.45
349.796	35.75
350.012	-1.45
350.229	70.81
350.445	13.27
350.661	5.91
350.878	3
351.094	31.68
351.311	19.28
351.527	49.11
351.743	21.6
351.96	47.76
352.176	42.72
352.392	57.25
352.609	49.89
352.825	19.67
353.041	6.3
353.257	15.21
353.474	32.84
353.69	30.52
353.906	4.94
354.122	-26.83
354.339	79.73
354.555	9.4
354.771	34.97
354.987	84.18
355.203	77.4
355.42	12.69
355.636	34.78
355.852	14.82
356.068	45.82
356.284	-17.53
356.5	77.79
356.716	45.43
356.932	31.48
357.148	67.33
357.364	24.51
357.58	63.65
357.796	95.81
358.012	49.31
358.228	67.71
358.444	-23.54
358.66	84.96
358.876	48.73
359.092	16.95
359.308	40.01
359.524	60.55
359.74	24.12
359.956	12.11
360.172	38.85
360.388	72.95
360.604	31.87
360.819	127.97
361.035	69.65
361.251	65.58
361.467	10.37
361.683	80.31
361.898	56.86
362.114	73.91
362.33	61.13
362.546	86.12
362.762	43.69
362.977	67.13
363.193	12.69
363.409	61.51
363.624	6.1
363.84	40.4
364.056	30.52
364.271	48.15
364.487	41.95
364.703	21.99
364.918	16.57
365.134	30.13
365.35	42.92
365.565	136.3
365.781	35.75
365.996	67.33
366.212	143.47
366.427	83.41
366.643	44.27
366.858	40.2
367.074	21.41
367.289	108.98
367.505	168.46
367.72	6.3
367.936	26.45
368.151	94.06
368.367	81.86
368.582	72.17
368.798	43.3
369.013	91.16
369.228	63.84
369.444	47.56
369.659	128.75
369.874	81.86
370.09	139.4
370.305	31.68
370.52	54.73
370.736	142.11
370.951	83.41
371.166	85.93
371.381	96.2
371.597	117.12
371.812	49.5
372.027	23.93
372.242	45.24
372.458	149.48
372.673	30.13
372.888	34.39
373.103	74.69
373.318	133.2
373.533	85.54
373.749	63.84
373.964	4.75
374.179	107.63
374.394	51.83
374.609	70.23
374.824	16.57
375.039	98.52
375.254	60.35
375.469	118.86
375.684	84.96
375.899	89.22
376.114	65.58
376.329	66.55
376.544	107.24
376.759	92.71
376.974	59
377.189	58.03
377.404	44.85
377.619	104.53
377.834	21.22
378.049	34.39
378.264	17.34
378.478	84.38
378.693	73.72
378.908	111.11
379.123	84.38
379.338	144.05
379.553	99.1
379.767	103.56
379.982	123.71
380.197	94.45
380.412	46.01
380.626	88.83
380.841	184.54
381.056	111.31
381.271	181.44
381.485	73.91
381.7	82.25
381.915	128.16
382.129	60.16
382.344	72.17
382.559	82.83
382.773	114.99
382.988	20.44
383.202	84.76
383.417	53.96
383.632	154.51
383.846	78.56
384.061	64.03
384.275	74.69
384.49	91.93
384.704	90
384.919	90.96
385.133	78.37
385.348	126.61
385.562	24.9
385.777	147.73
385.991	84.76
386.206	83.02
386.42	51.83
386.634	129.52
386.849	103.56
387.063	114.6
387.277	80.5
387.492	72.56
387.706	60.16
387.92	62.68
388.135	124.1
388.349	106.85
388.563	119.25
388.778	120.03
388.992	114.21
389.206	125.65
389.42	173.5
389.635	110.73
389.849	153.35
390.063	160.13
390.277	141.14
390.491	191.33
390.706	156.45
390.92	168.46
391.134	123.71
391.348	183.38
391.562	103.36
391.776	154.9
391.99	103.56
392.205	169.24
392.419	101.62
392.633	132.04
392.847	176.21
393.061	126.03
393.275	174.66
393.489	117.9
393.703	111.11
393.917	133.39
394.131	57.64
394.345	118.86
394.559	140.37
394.773	102.78
394.986	177.57
395.2	136.69
395.414	191.52
395.628	111.31
395.842	158.97
396.056	139.21
396.27	97.94
396.484	193.46
396.697	140.56
396.911	142.5
397.125	135.33
397.339	141.92
397.553	109.56
397.766	161.49
397.98	180.86
398.194	215.54
398.408	172.14
398.621	189.58
398.835	244.61
399.049	221.16
399.262	235.5
399.476	255.07
399.69	230.66
399.903	289.17
400.117	220.77
400.331	238.6
400.544	212.83
400.758	336.64
400.971	235.31
401.185	277.35
401.398	215.54
401.612	304.86
401.826	259.91
402.039	268.63
402.253	228.14
402.466	308.93
402.68	234.53
402.893	259.72
403.106	270.57
403.32	253.52
403.533	274.64
403.747	245.38
403.96	284.52
404.174	283.55
404.387	235.31
404.6	250.81
404.814	298.47
405.027	282.97
405.24	272.7
405.454	251.77
405.667	324.82
405.88	197.33
406.094	289.17
406.307	298.08
406.52	264.56
406.733	238.6
406.947	223.87
407.16	343.8
407.373	295.17
407.586	269.79
407.799	252.55
408.012	331.6
408.226	323.27
408.439	330.82
408.652	263.4
408.865	302.54
409.078	339.35
409.291	334.7
409.504	262.82
409.717	312.22
409.93	322.49
410.143	314.35
410.357	256.04
410.57	255.84
410.783	272.89
410.996	276.57
411.209	303.51
411.421	351.55
411.634	303.89
411.847	284.52
412.06	331.99
412.273	330.24
412.486	341.09
412.699	394.37
412.912	340.9
413.125	362.6
413.338	358.34
413.55	376.74
413.763	346.32
413.976	351.75
414.189	303.12
414.402	326.95
414.615	403.87
414.827	321.52
415.04	349.42
415.253	365.7
415.466	400.57
415.678	383.91
415.891	359.11
416.104	361.44
416.316	336.83
416.529	371.12
416.742	412.39
416.954	395.53
417.167	387.01
417.38	381.97
417.592	405.8
417.805	310.87
418.017	312.61
418.23	382.17
418.442	334.31
418.655	359.11
418.868	377.71
419.08	417.62
419.293	409.68
419.505	373.25
419.718	392.82
419.93	420.53
420.142	376.94
420.355	407.93
420.567	419.56
420.78	393.6
420.992	369.77
421.205	424.98
421.417	355.43
421.629	384.49
421.842	362.6
422.054	368.22
422.266	426.73
422.479	434.09
422.691	361.44
422.903	430.8
423.115	328.69
423.328	374.61
423.54	400.77
423.752	382.75
423.964	368.99
424.177	414.72
424.389	389.34
424.601	511.01
424.813	406.97
425.025	413.36
425.238	416.65
425.45	393.21
425.662	396.89
425.874	693.52
426.086	416.27
426.298	440.1
426.51	420.72
426.722	427.7
426.934	397.08
427.146	442.62
427.358	350
427.57	441.45
427.782	399.41
427.994	400.57
428.206	361.63
428.418	375.19
428.63	480.2
428.842	462.57
429.054	426.15
429.266	438.74
429.478	396.7
429.69	426.92
429.902	354.27
430.114	418.98
430.325	379.07
430.537	362.79
430.749	343.03
430.961	288.01
431.173	319.2
431.384	343.03
431.596	275.41
431.808	377.52
432.02	436.42
432.231	456.95
432.443	533.29
432.655	479.04
432.867	427.7
433.078	476.72
433.29	537.16
433.502	477.49
433.713	508.49
433.925	498.61
434.136	524.57
434.348	424.21
434.56	382.36
434.771	545.3
434.983	396.89
435.194	448.23
435.406	468.38
435.617	535.81
435.829	559.64
436.04	519.92
436.252	571.26
436.463	553.83
436.675	567.2
436.886	559.25
437.098	581.53
437.309	604.78
437.521	537.55
437.732	544.72
437.943	509.85
438.155	522.44
438.366	470.71
438.578	566.61
438.789	530.96
439	543.36
439.211	477.68
439.423	525.15
439.634	536
439.845	534.65
440.057	556.15
440.268	577.46
440.479	535.61
440.69	562.93
440.902	525.15
441.113	555.57
441.324	552.47
441.535	540.46
441.746	632.1
441.957	550.53
442.168	565.65
442.38	604.78
442.591	622.22
442.802	562.93
443.013	597.81
443.224	628.61
443.435	607.88
443.646	608.85
443.857	580.95
444.068	626.87
444.279	586.96
444.49	690.03
444.701	636.56
444.912	728.78
445.123	657.29
445.334	651.09
445.545	654.38
445.756	606.53
445.967	610.59
446.178	625.51
446.388	650.7
446.599	660.19
446.81	625.71
447.021	585.6
447.232	668.33
447.443	698.17
447.653	616.79
447.864	720.45
448.075	633.07
448.286	673.56
448.496	659.03
448.707	697.78
448.918	668.52
449.129	772.37
449.339	639.27
449.55	652.83
449.761	648.38
449.971	711.92
450.182	667.94
450.393	728.78
450.603	678.6
450.814	703.79
451.024	731.49
451.235	761.72
451.446	758.42
451.656	785.74
451.867	692.36
452.077	707.47
452.288	795.62
452.498	767.34
452.709	724.13
452.919	675.89
453.13	669.69
453.34	717.16
453.55	645.08
453.761	675.89
453.971	714.83
454.182	735.17
454.392	702.43
454.602	767.34
454.813	747.38
455.023	768.5
455.233	691.58
455.444	751.45
455.654	629.97
455.864	690.22
456.075	715.99
456.285	691.19
456.495	668.33
456.705	739.82
456.916	776.25
457.126	780.51
457.336	761.33
457.546	669.11
457.756	742.34
457.967	783.03
458.177	739.44
458.387	758.62
458.597	706.31
458.807	737.89
459.017	715.41
459.227	703.01
459.437	728.2
459.647	733.24
459.857	750.29
460.068	711.15
460.278	796.4
460.488	745.25
460.698	778.57
460.908	758.62
461.117	704.17
461.327	722.39
461.537	764.24
461.747	785.16
461.957	773.54
462.167	888.23
462.377	823.52
462.587	795.04
462.797	840.18
463.007	794.27
463.216	840.77
463.426	852
463.636	825.85
463.846	752.61
464.056	758.62
464.265	821
464.475	779.54
464.685	790.78
464.895	826.43
465.104	791.17
465.314	857.82
465.524	778.96
465.733	786.52
465.943	866.34
466.153	899.47
466.362	832.63
466.572	827.59
466.782	805.12
466.991	848.13
467.201	859.95
467.41	731.88
467.62	839.02
467.829	789.62
468.039	876.61
468.249	850.26
468.458	826.62
468.668	889.98
468.877	864.6
469.086	907.61
469.296	931.44
469.505	840.38
469.715	942.29
469.924	867.5
470.134	932.41
470.343	909.35
470.552	876.42
470.762	884.94
470.971	852.78
471.18	874.87
471.39	893.27
471.599	852.78
471.808	912.65
472.018	887.27
472.227	939
472.436	999.83
472.645	947.13
472.855	921.75
473.064	1003.71
473.273	999.83
473.482	982.2
473.691	1020.18
473.901	1003.13
474.11	929.7
474.319	1065.71
474.528	1005.84
474.737	1076.56
474.946	1051.18
475.155	1020.95
475.364	1075.01
475.573	1039.55
475.783	1081.79
475.992	1086.24
476.201	1086.05
476.41	1040.52
476.619	1025.02
476.828	1055.24
477.037	1058.15
477.245	1009.13
477.454	1109.11
477.663	1052.73
477.872	1082.95
478.081	1159.67
478.29	1083.92
478.499	1225.35
478.708	1162.19
478.917	1211.79
479.125	1158.51
479.334	1141.07
479.543	1170.72
479.752	1180.6
479.961	1158.9
480.169	1232.91
480.378	1185.25
480.587	1348.38
480.796	1210.44
481.004	1230.78
481.213	1207.72
481.422	1259.84
481.63	1260.62
481.839	1267.4
482.048	1342.57
482.256	1255.77
482.465	1296.65
482.674	1318.74
482.882	1340.83
483.091	1393.91
483.299	1309.05
483.508	1337.53
483.716	1354.78
483.925	1346.64
484.134	1293.36
484.342	1303.05
484.551	1342.57
484.759	1326.49
484.967	1366.6
485.176	1327.46
485.384	1355.36
485.593	1379.19
485.801	1327.46
486.01	1326.88
486.218	1263.14
486.426	1187.57
486.635	1164.13
486.843	1133.91
487.051	1187.38
487.26	1196.29
487.468	1242.79
487.676	1287.93
487.885	1256.16
488.093	1313.7
488.301	1375.12
488.509	1398.76
488.717	1416.58
488.926	1431.11
489.134	1422.59
489.342	1404.38
489.55	1332.5
489.758	1415.81
489.967	1435.38
490.175	1522.56
490.383	1471.61
490.591	1571
490.799	1469.86
491.007	1502.61
491.215	1492.53
491.423	1488.46
491.631	1478.78
491.839	1477.81
492.047	1534.38
492.255	1423.75
492.463	1488.08
492.671	1395.27
492.879	1513.07
493.087	1487.11
493.295	1503.19
493.503	1519.08
493.711	1552.4
493.919	1583.4
494.127	1588.05
494.334	1577.59
494.542	1499.51
494.75	1558.21
494.958	1577.78
495.166	1621.57
495.374	1594.44
495.581	1616.53
495.789	1598.51
495.997	1674.65
496.205	1590.76
496.412	1592.12
496.62	1581.85
496.828	1594.44
497.035	1628.74
497.243	1642.49
497.451	1641.14
497.658	1625.64
497.866	1598.9
498.074	1672.14
498.281	1605.1
498.489	1676.98
498.696	1613.82
498.904	1568.09
499.112	1548.52
499.319	1681.24
499.527	1627.19
499.734	1660.7
499.942	1608.97
500.149	1622.73
500.357	1650.82
500.564	1600.26
500.771	1653.92
500.979	1538.06
501.186	1564.41
501.394	1619.44
501.601	1596.57
501.808	1599.29
502.016	1571
502.223	1585.53
502.43	1573.32
502.638	1598.71
502.845	1580.88
503.052	1719.41
503.26	1624.86
503.467	1685.7
503.674	1651.99
503.881	1664.58
504.089	1714.76
504.296	1680.66
504.503	1611.3
504.71	1628.74
504.917	1605.49
505.125	1667.87
505.332	1683.76
505.539	1682.02
505.746	1755.83
505.953	1755.64
506.16	1752.93
506.367	1787.8
506.574	1828.88
506.781	1817.45
506.988	1713.4
507.195	1744.21
507.402	1745.57
507.609	1757.97
507.816	1698.87
508.023	1713.98
508.23	1690.93
508.437	1669.81
508.644	1727.35
508.851	1734.33
509.058	1748.47
509.265	1750.22
509.472	1787.03
509.679	1870.73
509.885	1784.7
510.092	1794.2
510.299	1733.94
510.506	1726
510.713	1738.59
510.92	1777.53
511.126	1826.16
511.333	1819.38
511.54	1822.68
511.746	1863.56
511.953	1830.62
512.16	1874.99
512.367	1815.7
512.573	1808.15
512.78	1791.29
512.987	1803.3
513.193	1821.71
513.4	1690.93
513.606	1765.33
513.813	1826.55
514.02	1798.26
514.226	1841.47
514.433	1821.13
514.639	1746.15
514.846	1750.6
515.052	1757.77
515.259	1781.8
515.465	1800.78
515.672	1784.51
515.878	1860.46
516.085	1835.66
516.291	1860.46
516.497	1821.51
516.704	1764.55
516.91	1709.33
517.117	1636.68
517.323	1597.93
517.529	1615.37
517.736	1629.32
517.942	1629.32
518.148	1616.53
518.354	1710.88
518.561	1682.79
518.767	1691.51
518.973	1739.75
519.179	1736.46
519.386	1741.11
519.592	1701.59
519.798	1716.5
520.004	1880.22
520.21	1795.16
520.417	1858.71
520.623	1913.74
520.829	1880.41
521.035	1886.42
521.241	1858.13
521.447	1914.51
521.653	2049.36
521.859	1912.58
522.065	1961.59
522.271	2050.52
522.477	1966.44
522.683	2026.89
522.889	1945.71
523.095	1962.18
523.301	1936.79
523.507	1918.97
523.713	1963.92
523.919	1935.83
524.125	2005.38
524.331	2017.78
524.537	2114.85
524.742	2115.82
524.948	2076.87
525.154	2052.27
525.36	2173.36
525.566	2083.65
525.772	2126.67
525.977	2069.12
526.183	2089.85
526.389	2140.62
526.595	2034.83
526.8	2053.24
527.006	1969.15
527.212	1909.67
527.417	1913.54
527.623	1894.75
527.829	1989.88
528.034	1999.37
528.24	2006.54
528.446	2021.27
528.651	2148.56
528.857	2148.56
529.062	2215.6
529.268	2170.26
529.473	2254.15
529.679	2237.1
529.884	2288.64
530.09	2292.51
530.295	2250.47
530.501	2280.7
530.706	2229.93
530.912	2201.26
531.117	2296.78
531.323	2234.78
531.528	2333.98
531.733	2286.9
531.939	2271.59
532.144	2325.64
532.35	2313.25
532.555	2308.79
532.76	2245.24
532.966	2260.93
533.171	2251.63
533.376	2158.83
533.581	2166.58
533.787	2185.76
533.992	2253.38
534.197	2256.86
534.402	2258.8
534.607	2280.31
534.813	2375.83
535.018	2252.99
535.223	2313.44
535.428	2280.7
535.633	2346.38
535.838	2351.03
536.043	2362.65
536.249	2478.9
536.454	2355.87
536.659	2375.05
536.864	2348.12
537.069	2317.89
537.274	2307.63
537.479	2348.12
537.684	2312.66
537.889	2253.57
538.094	2394.04
538.299	2330.68
538.504	2342.69
538.708	2348.51
538.913	2389.78
539.118	2379.31
539.323	2370.21
539.528	2334.94
539.733	2327.78
539.938	2342.89
540.142	2344.63
540.347	2332.23
540.552	2261.9
540.757	2249.7
540.962	2297.16
541.166	2241.17
541.371	2217.34
541.576	2296.58
541.781	2162.51
541.985	2329.13
542.19	2296.39
542.395	2366.53
542.599	2391.33
542.804	2347.54
543.008	2442.67
543.213	2330.1
543.418	2278.18
543.622	2383.19
543.827	2351.61
544.031	2418.06
544.236	2373.69
544.44	2389
544.645	2505.44
544.849	2427.75
545.054	2423.29
545.258	2500.79
545.463	2437.44
545.667	2394.04
545.872	2444.8
546.076	2443.64
546.281	2430.66
546.485	2416.51
546.689	2450.22
546.894	2444.02
547.098	2432.01
547.302	2376.41
547.507	2389
547.711	2473.28
547.915	2459.33
548.119	2414.96
548.324	2402.95
548.528	2469.79
548.732	2387.84
548.936	2453.32
549.141	2429.3
549.345	2422.32
549.549	2434.72
549.753	2463.59
549.957	2511.64
550.161	2502.15
550.366	2487.81
550.57	2418.64
550.774	2435.5
550.978	2440.73
551.182	2457.39
551.386	2395.98
551.59	2426.39
551.794	2366.14
551.998	2439.18
552.202	2421.55
552.406	2389.58
552.61	2440.34
552.814	2475.41
553.018	2501.95
553.222	2453.52
553.426	2409.73
553.63	2486.26
553.833	2399.66
554.037	2345.79
554.241	2456.42
554.445	2405.27
554.649	2401.98
554.853	2402.56
555.056	2461.27
555.26	2463.21
555.464	2428.91
555.668	2415.93
555.871	2471.34
556.075	2468.63
556.279	2400.63
556.483	2392.88
556.686	2413.41
556.89	2387.84
557.094	2418.26
557.297	2319.83
557.501	2434.14
557.704	2297.36
557.908	2418.84
558.112	2345.99
558.315	2402.37
558.519	2362.84
558.722	2340.37
558.926	2358
559.129	2266.75
559.333	2262.48
559.536	2282.83
559.74	2256.28
559.943	2260.93
560.147	2232.65
560.35	2266.36
560.553	2262.29
560.757	2227.03
560.96	2325.45
561.164	2279.34
561.367	2385.71
561.57	2318.86
561.774	2287.48
561.977	2267.71
562.18	2274.5
562.384	2352.96
562.587	2280.5
562.79	2294.26
562.993	2280.11
563.197	2297.55
563.4	2340.95
563.603	2362.84
563.806	2378.73
564.009	2283.41
564.212	2295.03
564.416	2227.22
564.619	2290.58
564.822	2213.27
565.025	2313.44
565.228	2232.06
565.431	2251.44
565.634	2185.76
565.837	2172.39
566.04	2167.55
566.243	2179.95
566.446	2079.39
566.649	2167.74
566.852	2098.96
567.055	2154.76
567.258	2184.6
567.461	2205.52
567.664	2217.53
567.867	2121.24
568.07	2177.82
568.273	2187.5
568.475	2228.19
568.678	2115.24
568.881	2156.31
569.084	2122.4
569.287	2022.62
569.489	2061.18
569.692	2116.79
569.895	2115.82
570.098	2035.99
570.3	2032.31
570.503	1982.91
570.706	2030.37
570.909	2007.51
571.111	1961.98
571.314	1972.64
571.516	1981.74
571.719	1993.76
571.922	1955.98
572.124	1981.55
572.327	2014.68
572.529	1932.14
572.732	1951.13
572.935	1993.17
573.137	2105.35
573.34	2011.97
573.542	2073
573.745	2043.94
573.947	2047.62
574.15	1984.84
574.352	1967.02
574.554	2050.52
574.757	2002.47
574.959	1960.63
575.162	1978.26
575.364	1966.44
575.566	2060.6
575.769	1935.44
575.971	1952.29
576.173	1822.68
576.376	1890.49
576.578	1972.44
576.78	1954.43
576.982	1827.52
577.185	1905.79
577.387	1883.71
577.589	1886.23
577.791	1959.85
577.993	1964.5
578.196	1854.65
578.398	1933.5
578.6	1890.68
578.802	1867.05
579.004	1833.33
579.206	1840.31
579.408	1865.11
579.61	1801.95
579.812	1915.68
580.014	1860.26
580.216	1857.75
580.418	1853.87
580.62	1865.69
580.822	1828.88
581.024	1855.61
581.226	1916.06
581.428	1865.88
581.63	1940.86
581.832	1849.61
582.034	1882.54
582.236	1840.31
582.438	1914.71
582.64	1923.23
582.841	1943.19
583.043	1978.64
583.245	1921.49
583.447	1876.73
583.649	1909.09
583.85	1868.4
584.052	1908.31
584.254	1826.75
584.456	1905.02
584.657	1836.24
584.859	1866.27
585.061	1842.05
585.262	1839.15
585.464	1783.35
585.666	1907.15
585.867	1801.56
586.069	1882.35
586.27	1815.51
586.472	1812.21
586.674	1783.73
586.875	1814.15
587.077	1773.08
587.278	1803.88
587.48	1809.89
587.681	1941.83
587.883	1844.57
588.084	1750.41
588.285	1776.95
588.487	1795.36
588.688	1796.91
588.89	1692.67
589.091	1672.72
589.292	1685.5
589.494	1605.1
589.695	1642.69
589.896	1513.84
590.098	1506.48
590.299	1647.92
590.5	1531.09
590.702	1595.8
590.903	1618.66
591.104	1687.25
591.305	1704.3
591.507	1739.37
591.708	1692.87
591.909	1670
592.11	1741.5
592.311	1733.17
592.512	1645.01
592.714	1597.35
592.915	1660.32
593.116	1670.39
593.317	1698.49
593.518	1681.82
593.719	1697.71
593.92	1728.13
594.121	1737.62
594.322	1700.62
594.523	1708.56
594.724	1649.27
594.925	1657.02
595.126	1672.91
595.327	1716.7
595.528	1662.64
595.729	1666.13
595.929	1651.21
596.13	1696.16
596.331	1687.25
596.532	1677.56
596.733	1732.39
596.934	1730.65
597.135	1739.75
597.335	1683.57
597.536	1662.06
597.737	1690.93
597.938	1641.91
598.138	1696.16
598.339	1692.67
598.54	1696.74
598.74	1649.27
598.941	1660.9
599.142	1700.62
599.342	1646.56
599.543	1647.92
599.744	1671.55
599.944	1629.12
600.145	1674.46
600.345	1685.89
600.546	1717.08
600.746	1689.19
600.947	1760.29
601.147	1680.66
601.348	1703.72
601.548	1605.1
601.749	1649.47
601.949	1583.21
602.15	1626.6
602.35	1615.95
602.551	1657.99
602.751	1606.26
602.951	1581.07
603.152	1565.77
603.352	1647.92
603.552	1598.71
603.753	1682.4
603.953	1660.12
604.153	1645.59
604.354	1638.23
604.554	1615.56
604.754	1651.02
604.954	1588.63
605.155	1675.04
605.355	1601.03
605.555	1651.02
605.755	1688.02
605.955	1631.06
606.155	1653.92
606.356	1630.87
606.556	1650.82
606.756	1651.99
606.956	1593.28
607.156	1724.83
607.356	1602.19
607.556	1657.99
607.756	1648.11
607.956	1674.46
608.156	1593.28
608.356	1598.9
608.556	1640.55
608.756	1626.22
608.956	1563.83
609.156	1591.34
609.356	1556.86
609.556	1565.96
609.755	1580.11
609.955	1528.57
610.155	1557.05
610.355	1557.44
610.555	1593.86
610.755	1554.34
610.954	1522.76
611.154	1582.43
611.354	1579.33
611.554	1502.22
611.753	1554.34
611.953	1506.87
612.153	1563.44
612.352	1566.35
612.552	1515.39
612.752	1473.16
612.951	1522.95
613.151	1560.73
613.351	1506.29
613.55	1513.07
613.75	1522.76
613.949	1514.43
614.149	1485.17
614.348	1495.63
614.548	1475.87
614.747	1429.95
614.947	1484.59
615.146	1438.67
615.346	1547.36
615.545	1556.66
615.745	1486.14
615.944	1503.38
616.144	1461.73
616.343	1492.53
616.542	1463.08
616.742	1454.17
616.941	1446.42
617.14	1381.71
617.34	1485.56
617.539	1454.17
617.738	1395.85
617.938	1493.5
618.137	1470.06
618.336	1442.93
618.535	1492.53
618.734	1449.13
618.934	1478.78
619.133	1452.43
619.332	1496.99
619.531	1416.97
619.73	1471.99
619.929	1497.57
620.128	1470.25
620.328	1494.28
620.527	1461.53
620.726	1465.21
620.925	1501.83
621.124	1459.79
621.323	1496.79
621.522	1390.62
621.721	1402.25
621.92	1373.18
622.119	1476.84
622.318	1423.36
622.517	1426.27
622.715	1419.49
622.914	1348.58
623.113	1435.18
623.312	1354.78
623.511	1437.7
623.71	1370.28
623.909	1359.81
624.107	1456.3
624.306	1347.42
624.505	1354
624.704	1368.73
624.902	1336.76
625.101	1451.84
625.3	1385
625.499	1367.95
625.697	1350.13
625.896	1312.35
626.095	1410.58
626.293	1328.62
626.492	1338.12
626.69	1359.81
626.889	1348.38
627.088	1397.98
627.286	1345.67
627.485	1358.85
627.683	1288.71
627.882	1335.98
628.08	1286.97
628.279	1320.48
628.477	1356.91
628.676	1263.91
628.874	1338.7
629.073	1298.01
629.271	1292
629.469	1327.65
629.668	1278.25
629.866	1278.83
630.065	1256.35
630.263	1310.99
630.461	1273.21
630.66	1281.15
630.858	1313.7
631.056	1326.3
631.254	1324.75
631.453	1264.88
631.651	1335.02
631.849	1301.88
632.047	1290.65
632.245	1277.08
632.444	1299.37
632.642	1326.3
632.84	1285.61
633.038	1292
633.236	1237.56
633.434	1260.04
633.632	1274.95
633.83	1261
634.028	1340.63
634.227	1267.01
634.425	1327.46
634.623	1275.34
634.821	1307.89
635.019	1302.66
635.216	1268.17
635.414	1300.72
635.612	1282.32
635.81	1242.21
636.008	1307.12
636.206	1248.8
636.404	1324.17
636.602	1234.65
636.8	1255.19
636.997	1283.28
637.195	1307.31
637.393	1261.2
637.591	1346.83
637.789	1287.55
637.986	1269.72
638.184	1279.6
638.382	1331.33
638.58	1332.3
638.777	1355.55
638.975	1261.39
639.173	1278.05
639.37	1264.69
639.568	1273.79
639.765	1286.58
639.963	1236.98
640.161	1309.63
640.358	1251.7
640.556	1209.85
640.753	1219.15
640.951	1186.02
641.148	1223.8
641.346	1199
641.543	1219.15
641.741	1243.95
641.938	1187.19
642.136	1216.25
642.333	1176.72
642.531	1264.88
642.728	1293.36
642.925	1224.19
643.123	1209.27
643.32	1218.38
643.517	1188.74
643.715	1215.67
643.912	1186.8
644.109	1211.6
644.306	1226.13
644.504	1186.99
644.701	1214.7
644.898	1229.81
645.095	1144.37
645.293	1192.03
645.49	1211.21
645.687	1163.94
645.884	1207.92
646.081	1106.59
646.278	1172.66
646.475	1137.01
646.672	1142.04
646.87	1167.23
647.067	1162
647.264	1168.78
647.461	1114.14
647.658	1117.63
647.855	1164.91
648.052	1105.62
648.249	1085.47
648.446	1112.01
648.642	1112.4
648.839	1120.73
649.036	1114.72
649.233	1061.83
649.43	1096.51
649.627	1102.13
649.824	1069.78
650.021	1064.54
650.217	1081.01
650.414	1072.1
650.611	1090.12
650.808	1114.72
651.004	1110.66
651.201	1124.02
651.398	1180.79
651.595	1107.36
651.791	1075.59
651.988	1132.36
652.185	1064.35
652.381	1134.1
652.578	1067.45
652.775	1146.69
652.971	1085.08
653.168	1105.04
653.364	1145.72
653.561	1039.36
653.757	1106.39
653.954	1104.84
654.15	1080.82
654.347	1149.41
654.543	1112.98
654.74	1047.3
654.936	1025.6
655.133	1082.18
655.329	1119.18
655.525	1050.59
655.722	1095.16
655.918	991.31
656.115	1067.84
656.311	959.73
656.507	939.58
656.704	898.12
656.9	921.56
657.096	937.45
657.292	917.3
657.489	973.29
657.685	979.3
657.881	969.03
658.077	993.63
658.273	994.41
658.47	1098.45
658.666	982.59
658.862	1043.81
659.058	1022.69
659.254	1041.29
659.45	999.83
659.646	1062.99
659.842	1035.87
660.038	1069.19
660.234	1050.01
660.43	1056.79
660.626	1128.09
660.822	1085.86
661.018	1098.84
661.214	1080.04
661.41	1025.79
661.606	1078.88
661.802	1118.41
661.998	1051.95
662.194	1053.31
662.39	1073.46
662.586	1073.26
662.781	1094.57
662.977	1097.48
663.173	1065.71
663.369	1040.13
663.564	1071.13
663.76	1056.41
663.956	1022.89
664.152	1082.18
664.347	992.28
664.543	1050.21
664.739	1025.6
664.934	952.75
665.13	977.75
665.326	1047.49
665.521	1030.64
665.717	996.93
665.912	1008.36
666.108	951.2
666.304	990.15
666.499	1015.14
666.695	960.89
666.89	980.26
667.086	1051.37
667.281	1035.68
667.477	1057.96
667.672	1042.07
667.867	981.04
668.063	1038.39
668.258	995.57
668.454	1042.84
668.649	1075.01
668.844	1006.81
669.04	1035.68
669.235	993.83
669.43	1017.08
669.626	932.8
669.821	974.84
670.016	973.1
670.211	977.94
670.407	952.75
670.602	1016.49
670.797	992.86
670.992	1041.1
671.187	980.46
671.382	1047.49
671.578	951.59
671.773	1002.16
671.968	948.49
672.163	992.28
672.358	1004.87
672.553	959.34
672.748	975.42
672.943	1046.72
673.138	986.08
673.333	1009.91
673.528	906.83
673.723	987.43
673.918	971.16
674.113	934.15
674.308	1068.81
674.503	992.47
674.698	1007
674.892	994.21
675.087	1014.56
675.282	1006.61
675.477	960.89
675.672	968.64
675.867	931.44
676.061	936.09
676.256	914.58
676.451	966.31
676.646	1005.45
676.84	944.61
677.035	933.96
677.23	909.35
677.424	982.59
677.619	998.09
677.814	1005.45
678.008	1023.47
678.203	883
678.397	952.17
678.592	951.2
678.787	985.3
678.981	949.26
679.176	966.9
679.37	981.04
679.565	956.63
679.759	946.94
679.954	984.33
680.148	977.55
680.342	1014.36
680.537	979.3
680.731	948.88
680.926	994.6
681.12	995.96
681.314	922.72
681.509	955.46
681.703	971.74
681.897	1001.38
682.092	957.79
682.286	925.43
682.48	1009.33
682.674	970
682.869	943.26
683.063	942.29
683.257	996.73
683.451	924.66
683.645	954.69
683.839	946.16
684.034	955.66
684.228	988.21
684.422	908.19
684.616	904.32
684.81	960.89
685.004	915.17
685.198	925.63
685.392	966.31
685.586	885.52
685.78	907.42
685.974	950.62
686.168	947.33
686.362	969.8
686.556	872.73
686.75	841.73
686.944	851.03
687.138	877.58
687.331	762.88
687.525	797.75
687.719	735.76
687.913	783.8
688.107	770.82
688.301	747.77
688.494	817.32
688.688	762.1
688.882	739.44
689.076	748.35
689.269	757.84
689.463	872.93
689.657	776.83
689.85	821.59
690.044	788.84
690.238	832.05
690.431	796.79
690.625	779.54
690.818	832.24
691.012	835.15
691.205	853.36
691.399	789.42
691.593	842.12
691.786	860.72
691.98	883.78
692.173	932.21
692.366	869.63
692.56	898.5
692.753	908.77
692.947	836.31
693.14	926.6
693.333	914.39
693.527	856.65
693.72	910.32
693.914	871.18
694.107	876.22
694.3	874.09
694.493	876.61
694.687	910.52
694.88	866.73
695.073	939
695.266	898.5
695.46	901.41
695.653	943.65
695.846	927.95
696.039	866.73
696.232	887.46
696.425	944.81
696.618	962.05
696.812	942.29
697.005	1001
697.198	1087.21
697.391	977.75
697.584	1001.38
697.777	1081.59
697.97	1015.53
698.163	1025.41
698.356	1009.91
698.549	1078.49
698.742	1078.3
698.935	991.7
699.127	999.25
699.32	1028.7
699.513	1024.05
699.706	1040.52
699.899	1064.35
700.092	1020.56
700.285	1102.13
700.477	1007.39
700.67	1073.46
700.863	1094.19
701.056	1170.33
701.248	1124.41
701.441	1166.26
701.634	1098.64
701.826	1191.84
702.019	1116.08
702.212	1150.18
702.404	1120.92
702.597	1141.07
702.79	1163.74
702.982	1185.05
703.175	1205.4
703.367	1203.65
703.56	1232.14
703.752	1308.67
703.945	1254.8
704.137	1289.87
704.33	1311.18
704.522	1284.83
704.715	1291.03
704.907	1316.42
705.1	1345.48
705.292	1368.34
705.484	1365.63
705.677	1382.1
705.869	1408.06
706.061	1461.14
706.254	1464.05
706.446	1413.48
706.638	1454.94
706.831	1508.23
707.023	1451.84
707.215	1565.57
707.407	1531.28
707.599	1531.67
707.792	1568.67
707.984	1539.22
708.176	1571.58
708.368	1567.32
708.56	1603.55
708.752	1634.55
708.944	1605.29
709.136	1686.09
709.329	1654.31
709.521	1774.05
709.713	1685.5
709.905	1716.31
710.097	1801.95
710.289	1726.38
710.481	1777.53
710.672	1756.42
710.864	1788.58
711.056	1850.19
711.248	1825.39
711.44	1880.99
711.632	1851.93
711.824	1871.89
712.016	1921.1
712.207	1932.53
712.399	1930.01
712.591	2020.11
712.783	1997.05
712.975	1994.92
713.166	1957.91
713.358	2011.39
713.55	2059.82
713.741	2066.6
713.933	2042.58
714.125	2072.22
714.316	2031.15
714.508	2135.58
714.7	2116.01
714.891	2080.94
715.083	2153.4
715.274	2133.64
715.466	2180.33
715.657	2224.7
715.849	2121.24
716.04	2219.47
716.232	2137.9
716.423	2214.43
716.615	2111.36
716.806	2131.32
716.998	2131.32
717.189	2026.69
717.381	1975.93
717.572	1981.94
717.763	1982.52
717.955	1993.76
718.146	1969.34
718.337	1934.28
718.528	1893.78
718.72	1810.66
718.911	1890.1
719.102	1831.01
719.293	1914.13
719.485	1918.19
719.676	1859.3
719.867	1840.11
720.058	1871.89
720.249	1870.73
720.44	1895.91
720.632	1982.91
720.823	2024.95
721.014	2068.35
721.205	2112.33
721.396	2201.45
721.587	2301.23
721.778	2311.11
721.969	2355.09
722.16	2401.98
722.351	2419.22
722.542	2576.94
722.733	2552.33
722.924	2459.91
723.115	2516.68
723.305	2533.73
723.496	2544.58
723.687	2442.86
723.878	2436.47
724.069	2455.07
724.26	2471.15
724.45	2412.64
724.641	2395.01
724.832	2445.96
725.023	2460.88
725.213	2465.92
725.404	2443.83
725.595	2422.71
725.785	2463.21
725.976	2501.95
726.167	2519.97
726.357	2524.43
726.548	2643.78
726.739	2516.87
726.929	2627.5
727.12	2658.12
727.31	2709.07
727.501	2637.97
727.691	2655.98
727.882	2676.91
728.072	2703.45
728.263	2699.96
728.453	2771.26
728.644	2785.79
728.834	2741.04
729.024	2706.55
729.215	2740.46
729.405	2795.29
729.596	2817.96
729.786	2834.62
729.976	2876.27
730.167	2884.8
730.357	2811.56
730.547	2889.06
730.737	2893.32
730.928	2889.45
731.118	2999.89
731.308	2923.55
731.498	2970.82
731.688	3004.92
731.879	3044.64
732.069	3090.17
732.259	3082.03
732.449	3164.76
732.639	3224.83
732.829	3241.88
733.019	3279.66
733.209	3350.18
733.399	3334.68
733.589	3425.35
733.779	3464.68
733.969	3417.22
734.159	3510.99
734.349	3564.66
734.539	3580.93
734.729	3577.64
734.919	3614.45
735.109	3641.19
735.299	3610.58
735.488	3679.94
735.678	3674.51
735.868	3638.09
736.058	3653.01
736.248	3591.98
736.437	3594.69
736.627	3640.03
736.817	3752.98
737.007	3659.21
737.196	3783.59
737.386	3711.52
737.576	3648.36
737.765	3788.44
737.955	3743.29
738.144	3876.79
738.334	3813.24
738.524	3750.46
738.713	3818.85
738.903	3801.22
739.092	3842.1
739.282	3813.82
739.471	3889.96
739.661	3782.24
739.85	3895.38
740.04	3906.23
740.229	3925.42
740.419	3942.66
740.608	3955.45
740.797	3934.33
740.987	4003.69
741.176	3985.86
741.365	3944.4
741.555	3920.57
741.744	3989.93
741.933	3954.87
742.123	3996.91
742.312	3995.94
742.501	4062.01
742.69	4043.99
742.88	3946.34
743.069	4122.07
743.258	4023.45
743.447	4108.89
743.636	4065.11
743.825	4041.28
744.014	4116.45
744.204	4148.81
744.393	4079.25
744.582	4177.48
744.771	4194.14
744.96	4141.06
745.149	4188.52
745.338	4113.35
745.527	4152.68
745.716	4134.28
745.905	4113.35
746.094	4200.34
746.283	4176.32
746.471	4179.61
746.66	4257.11
746.849	4243.55
747.038	4264.67
747.227	4195.31
747.416	4235.22
747.604	4171.09
747.793	4177.09
747.982	4192.21
748.171	4225.72
748.359	4201.12
748.548	4233.67
748.737	4219.91
748.926	4195.69
749.114	4109.48
749.303	4212.55
749.491	4200.92
749.68	4087.58
749.869	4244.13
750.057	4139.89
750.246	4162.76
750.434	4169.54
750.623	4140.67
750.811	4110.25
751	4187.75
751.188	4148.23
751.377	4165.27
751.565	4108.31
751.754	4091.26
751.942	4144.16
752.131	4201.89
752.319	4061.23
752.507	4080.22
752.696	4132.92
752.884	4178.64
753.072	4087.58
753.261	4142.03
753.449	4167.02
753.637	4122.26
753.825	4197.44
754.014	4104.44
754.202	4085.06
754.39	4168.18
754.578	4198.21
754.766	4125.56
754.955	4093.59
755.143	4163.53
755.331	4106.38
755.519	4085.64
755.707	4115.48
755.895	4103.47
756.083	4105.21
756.271	4063.75
756.459	4052.13
756.647	4073.24
756.835	4030.23
757.023	4049.61
757.211	4051.16
757.399	4009.11
757.587	4022.1
757.775	3964.55
757.963	4043.41
758.151	3999.04
758.339	3978.7
758.526	3984.31
758.714	4008.92
758.902	3919.22
759.09	3871.17
759.278	3679.36
759.465	3459.26
759.653	3115.55
759.841	2885.57
760.028	2495.56
760.216	2225.48
760.404	2117.37
760.591	1776.76
760.779	1558.21
760.967	1413.29
761.154	1233.88
761.342	1292.58
761.529	1295.49
761.717	1415.03
761.905	1412.13
762.092	1509.39
762.28	1478.78
762.467	1497.76
762.655	1448.16
762.842	1476.45
763.029	1510.55
763.217	1546.78
763.404	1524.89
763.592	1597.54
763.779	1545.62
763.966	1609.75
764.154	1620.02
764.341	1697.9
764.528	1689.19
764.716	1795.94
764.903	1839.73
765.09	1912.19
765.277	1945.13
765.465	2092.57
765.652	2166.77
765.839	2234.78
766.026	2345.6
766.213	2393.07
766.4	2457.59
766.588	2670.51
766.775	2700.74
766.962	2800.33
767.149	2849.15
767.336	2995.43
767.523	2956.1
767.71	3048.9
767.897	3203.71
768.084	3244.78
768.271	3292.06
768.458	3324.61
768.645	3407.53
768.832	3370.33
769.019	3406.75
769.206	3443.76
769.392	3479.99
769.579	3621.23
769.766	3536.57
769.953	3530.95
770.14	3552.45
770.327	3543.15
770.513	3598.56
770.7	3675.87
770.887	3595.85
771.073	3612.71
771.26	3627.24
771.447	3552.26
771.634	3563.3
771.82	3672.77
772.007	3520.48
772.193	3595.08
772.38	3644.48
772.567	3598.18
772.753	3544.7
772.94	3659.79
773.126	3622.2
773.313	3610.77
773.499	3604.38
773.686	3610
773.872	3567.37
774.059	3544.9
774.245	3542.96
774.432	3587.33
774.618	3439.89
774.804	3581.71
774.991	3482.32
775.177	3570.08
775.363	3513.9
775.55	3548.77
775.736	3485.61
775.922	3542.96
776.109	3535.02
776.295	3502.08
776.481	3503.63
776.667	3517.77
776.853	3510.22
777.04	3473.98
777.226	3458.29
777.412	3566.98
777.598	3439.3
777.784	3453.83
777.97	3425.35
778.156	3419.74
778.342	3445.89
778.528	3420.51
778.715	3333.91
778.901	3411.4
779.087	3384.67
779.272	3392.42
779.458	3393.58
779.644	3446.86
779.83	3392.42
780.016	3469.53
780.202	3352.31
780.388	3353.47
780.574	3275.59
780.76	3312.01
780.946	3365.68
781.131	3360.84
781.317	3282.95
781.503	3310.07
781.689	3289.15
781.874	3409.27
782.06	3266.68
782.246	3307.75
782.432	3318.6
782.617	3318.99
782.803	3369.36
782.989	3242.46
783.174	3278.69
783.36	3227.34
783.545	3214.94
783.731	3231.41
783.916	3160.7
784.102	3214.56
784.288	3192.86
784.473	3243.43
784.659	3151.98
784.844	3207.19
785.029	3180.26
785.215	3171.16
785.4	3148.68
785.586	3262.03
785.771	3137.06
785.956	3185.88
786.142	3123.88
786.327	3090.56
786.512	3117.3
786.698	3112.26
786.883	3042.51
787.068	3078.35
787.254	3087.46
787.439	3058.2
787.624	3041.73
787.809	3037.08
787.994	3036.31
788.18	3127.76
788.365	2951.64
788.55	3024.1
788.735	3034.18
788.92	3033.98
789.105	2996.01
789.29	3050.45
789.475	2987.1
789.66	3018.87
789.845	2961.14
790.03	2894.1
790.215	2946.99
790.4	3019.26
790.585	3004.15
790.77	2922
790.955	2880.54
791.14	2937.69
791.325	2973.15
791.51	2829.97
791.695	2931.49
791.879	2904.95
792.064	2867.94
792.249	2973.92
792.434	2896.62
792.618	2887.32
792.803	2943.89
792.988	2924.13
793.173	2902.43
793.357	2947.19
793.542	2854.96
793.727	2923.94
793.911	2936.53
794.096	2878.6
794.281	2969.85
794.465	3003.76
794.65	2852.25
794.834	2949.32
795.019	2968.5
795.203	2911.34
795.388	2956.49
795.572	2995.82
795.757	2977.41
795.941	2957.26
796.126	3008.8
796.31	2902.82
796.494	2984.19
796.679	2916.57
796.863	2884.61
797.048	3015.77
797.232	2961.91
797.416	2995.04
797.601	2948.93
797.785	3015.97
797.969	2997.37
798.153	2895.65
798.338	3001.63
798.522	2993.1
798.706	3040.96
798.89	2987.1
799.074	3074.28
799.258	3038.44
799.443	3027.59
799.627	2990
799.811	3040.77
799.995	3006.09
800.179	2958.23
800.363	2935.75
800.547	2990
800.731	3024.68
800.915	2903.79
801.099	2985.74
801.283	2944.86
801.467	2944.47
801.651	2952.42
801.835	3033.4
802.019	2970.05
802.202	3019.45
802.386	2886.74
802.57	2893.71
802.754	2929.36
802.938	2906.69
803.121	2949.7
803.305	2999.3
803.489	2937.69
803.673	2981.48
803.856	2962.3
804.04	2918.32
804.224	2977.02
804.407	2976.64
804.591	2934.2
804.775	2961.33
804.958	2965.2
805.142	3073.12
805.326	2926.26
805.509	2942.54
805.693	2981.67
805.876	3012.48
806.06	2959.97
806.243	2990.2
806.427	3002.4
806.61	3028.56
806.794	2939.63
806.977	3006.28
807.16	2991.94
807.344	2966.75
807.527	2969.66
807.71	2896.04
807.894	2952.03
808.077	2986.71
808.26	2910.57
808.444	2876.27
808.627	2978.96
808.81	2901.27
808.993	2868.72
809.177	2852.44
809.36	2886.16
809.543	2907.08
809.726	2784.44
809.909	2797.42
810.092	2787.54
810.276	2775.53
810.459	2816.99
810.642	2785.99
810.825	2729.22
811.008	2754.99
811.191	2692.41
811.374	2672.06
811.557	2687.37
811.74	2766.03
811.923	2657.73
812.106	2645.33
812.289	2613.75
812.472	2598.25
812.654	2636.8
812.837	2622.08
813.02	2556.4
813.203	2525.79
813.386	2415.54
813.569	2443.83
813.751	2368.85
813.934	2393.07
814.117	2358.39
814.3	2303.95
814.482	2289.03
814.665	2284.96
814.848	2241.75
815.03	2151.27
815.213	2142.55
815.396	2135.19
815.578	2128.99
815.761	2071.84
815.943	2152.82
816.126	2063.89
816.309	2007.9
816.491	1944.93
816.674	1905.6
816.856	1930.98
817.039	1945.9
817.221	2039.87
817.403	1994.72
817.586	1961.21
817.768	1981.55
817.951	1883.9
818.133	1872.08
818.315	1939.89
818.498	1949.19
818.68	2054.2
818.862	1993.76
819.045	2027.47
819.227	1966.24
819.409	1951.71
819.591	1968.57
819.774	1959.27
819.956	1907.34
820.138	1975.74
820.32	1995.11
820.502	2033.67
820.684	2093.34
820.866	2118.53
821.048	2150.69
821.231	2173.55
821.413	2155.34
821.595	2145.27
821.777	2144.1
821.959	2129.57
822.141	2189.25
822.323	2037.93
822.505	2018.94
822.686	1971.09
822.868	1886.23
823.05	1806.01
823.232	1718.83
823.414	1683.76
823.596	1754.87
823.778	1724.64
823.96	1791.48
824.141	1768.62
824.323	1803.5
824.505	1885.06
824.687	1906.96
824.868	1950.74
825.05	2043.94
825.232	2086.56
825.413	2124.92
825.595	2092.37
825.777	2011.77
825.958	2069.32
826.14	2038.32
826.321	2112.14
826.503	2018.94
826.685	2067.96
826.866	2123.18
827.048	2094.12
827.229	2031.92
827.411	2030.57
827.592	1997.44
827.773	1966.82
827.955	1929.63
828.136	1911.99
828.318	1912.38
828.499	1948.81
828.68	1877.7
828.862	1873.83
829.043	1926.14
829.224	1889.91
829.406	1864.33
829.587	1855.23
829.768	1864.53
829.949	1886.81
830.131	1870.53
830.312	1973.02
830.493	1888.94
830.674	1893.78
830.855	1871.7
831.036	1880.03
831.218	1959.46
831.399	1962.95
831.58	1883.71
831.761	1931.95
831.942	1930.21
832.123	1900.37
832.304	1818.22
832.485	1835.66
832.666	1866.66
832.847	1879.83
833.028	1880.99
833.209	1858.13
833.389	1843.41
833.57	1799.04
833.751	1813.18
833.932	1869.18
834.113	1856.2
834.294	1820.35
834.475	1855.42
834.655	1901.34
834.836	1917.03
835.017	1878.09
835.198	1813.96
835.378	1892.62
835.559	1910.44
835.74	1867.63
835.92	1896.88
836.101	1859.49
836.281	1902.69
836.462	1928.08
836.643	1944.74
836.823	1924.2
837.004	1929.24
837.184	1986.97
837.365	1936.99
837.545	1929.43
837.726	1907.15
837.906	1956.56
838.087	1924.39
838.267	1930.21
838.448	1887.19
838.628	1897.27
838.808	1945.71
838.989	1969.73
839.169	1840.31
839.349	1907.15
839.53	1946.48
839.71	1924.78
839.89	1880.8
840.07	1957.72
840.251	1872.08
840.431	1918.58
840.611	1923.81
840.791	1844.57
840.971	1911.03
841.151	1869.56
841.332	1878.86
841.512	1920.13
841.692	1844.38
841.872	1932.14
842.052	1885.84
842.232	1936.02
842.412	1808.73
842.592	1840.89
842.772	1893.2
842.952	1879.64
843.132	1816.09
843.312	1817.06
843.492	1800.59
843.672	1890.1
843.851	1771.53
844.031	1841.66
844.211	1811.44
844.391	1798.85
844.571	1837.6
844.751	1826.16
844.93	1827.13
845.11	1809.89
845.29	1812.8
845.47	1815.51
845.649	1816.09
845.829	1836.43
846.009	1785.28
846.188	1829.85
846.368	1796.13
846.547	1809.11
846.727	1824.42
846.907	1752.15
847.086	1794.39
847.266	1831.01
847.445	1796.71
847.625	1749.83
847.804	1763.97
847.984	1825.39
848.163	1745.95
848.343	1741.88
848.522	1752.35
848.701	1775.02
848.881	1728.52
849.06	1729.48
849.239	1783.35
849.419	1780.83
849.598	1663.8
849.777	1675.43
849.957	1701.39
850.136	1594.64
850.315	1568.87
850.494	1584.95
850.674	1546.78
850.853	1653.15
851.032	1618.47
851.211	1692.48
851.39	1666.13
851.569	1579.72
851.748	1598.32
851.927	1678.92
852.107	1664.19
852.286	1597.54
852.465	1584.56
852.644	1674.65
852.823	1673.3
853.002	1643.27
853.181	1622.92
853.359	1637.45
853.538	1555.5
853.717	1658.96
853.896	1511.91
854.075	1469.48
854.254	1447.97
854.433	1338.5
854.611	1390.43
854.79	1339.28
854.969	1434.6
855.148	1463.08
855.327	1408.64
855.505	1483.23
855.684	1450.68
855.863	1480.91
856.041	1449.52
856.22	1513.84
856.399	1472.58
856.577	1548.72
856.756	1564.02
856.934	1622.15
857.113	1651.21
857.291	1543.49
857.47	1534.19
857.648	1582.82
857.827	1539.81
858.005	1585.53
858.184	1526.83
858.362	1656.64
858.541	1571.58
858.719	1575.65
858.898	1503.77
859.076	1559.37
859.254	1626.6
859.433	1513.65
859.611	1543.68
859.789	1450.1
859.967	1574.68
860.146	1556.86
860.324	1465.21
860.502	1518.49
860.68	1455.14
860.859	1474.32
861.037	1487.69
861.215	1525.86
861.393	1530.12
861.571	1507.06
861.749	1465.99
861.927	1503.96
862.105	1518.3
862.283	1462.11
862.461	1481.68
862.639	1446.03
862.817	1471.03
862.995	1488.46
863.173	1452.04
863.351	1465.21
863.529	1496.99
863.707	1479.16
863.885	1454.75
864.063	1379.77
864.241	1366.6
864.418	1490.59
864.596	1407.09
864.774	1387.71
864.952	1408.25
865.129	1434.21
865.307	1391.4
865.485	1340.25
865.663	1425.3
865.84	1333.85
866.018	1360.78
866.196	1220.9
866.373	1274.18
866.551	1222.25
866.728	1161.22
866.906	1198.23
867.084	1230.39
867.261	1274.37
867.439	1263.52
867.616	1332.11
867.794	1318.55
867.971	1309.05
868.149	1328.43
868.326	1364.08
868.503	1356.33
868.681	1309.44
868.858	1307.5
869.035	1276.31
869.213	1340.44
869.39	1333.08
869.567	1376.28
869.745	1304.02
869.922	1319.32
870.099	1352.45
870.276	1324.36
870.454	1354
870.631	1346.45
870.808	1290.26
870.985	1336.76
871.162	1344.12
871.339	1332.3
871.517	1266.43
871.694	1270.88
871.871	1284.64
872.048	1269.14
872.225	1310.6
872.402	1295.3
872.579	1244.54
872.756	1310.8
872.933	1224.58
873.11	1249.96
873.287	1264.3
873.463	1276.31
873.64	1230.97
873.817	1274.18
873.994	1247.44
874.171	1209.85
874.348	1225.74
874.524	1173.43
874.701	1241.05
874.878	1185.05
875.055	1249.57
875.231	1238.92
875.408	1240.08
875.585	1129.06
875.762	1217.8
875.938	1233.3
876.115	1207.14
876.291	1181.95
876.468	1155.22
876.645	1183.12
876.821	1178.86
876.998	1184.47
877.174	1176.34
877.351	1151.73
877.527	1182.92
877.704	1174.98
877.88	1177.31
878.057	1172.66
878.233	1217.8
878.409	1167.42
878.586	1182.34
878.762	1172.07
878.938	1162.58
879.115	1109.88
879.291	1158.51
879.467	1050.01
879.644	1131.58
879.82	1161.03
879.996	1150.18
880.172	1078.88
880.349	1152.51
880.525	1154.25
880.701	1074.04
880.877	1072.29
881.053	1108.33
881.229	1130.61
881.405	1153.09
881.581	1076.56
881.757	1120.54
881.933	1145.92
882.109	1145.92
882.285	1081.98
882.461	1066.68
882.637	1153.09
882.813	1071.13
882.989	1103.87
883.165	1172.85
883.341	1104.84
883.517	1165.49
883.693	1112.98
883.869	1155.61
884.044	1072.88
884.22	1129.06
884.396	1153.28
884.572	1123.06
884.747	1160.06
884.923	1150.96
885.099	1158.51
885.275	1134.29
885.45	1111.24
885.626	1105.04
885.801	1072.29
885.977	1107.75
886.153	1040.91
886.328	1087.02
886.504	1061.44
886.679	1104.65
886.855	1065.51
887.03	1138.36
887.206	1133.71
887.381	1100.39
887.557	1131.58
887.732	1084.89
887.908	1131.77
888.083	1149.79
888.258	1080.63
888.434	1085.08
888.609	1077.53
888.784	1160.06
888.96	1089.73
889.135	1099.42
889.31	1072.68
889.485	1074.04
889.661	1116.66
889.836	1129.06
890.011	1098.26
890.186	1103.1
890.361	1069.19
890.537	1079.27
890.712	1104.84
890.887	1087.79
891.062	1084.89
891.237	1187.96
891.412	1091.28
891.587	1105.81
891.762	1114.72
891.937	1157.35
892.112	1058.93
892.287	1078.88
892.462	1067.64
892.637	1038
892.812	1030.64
892.987	1052.14
893.161	1041.29
893.336	1027.34
893.511	1036.64
893.686	1036.26
893.861	1014.94
894.035	1018.63
894.21	1033.16
894.385	958.95
894.56	985.11
894.734	950.04
894.909	932.8
895.084	959.15
895.258	936.86
895.433	953.14
895.608	930.66
895.782	890.17
895.957	939.96
896.131	936.28
896.306	835.53
896.48	852
896.655	851.81
896.829	788.84
897.004	789.81
897.178	771.6
897.353	787.68
897.527	826.04
897.701	805.89
897.876	762.3
898.05	866.73
898.224	812.29
898.399	863.05
898.573	789.42
898.747	694.1
898.921	738.86
899.096	664.84
899.27	661.94
899.444	642.56
899.618	706.5
899.792	722.97
899.967	697.97
900.141	750.09
900.315	674.92
900.489	710.18
900.663	734.4
900.837	701.85
901.011	664.84
901.185	784.58
901.359	697.59
901.533	713.47
901.707	668.52
901.881	704.37
902.055	630.94
902.229	699.72
902.403	757.26
902.576	707.47
902.75	707.66
902.924	807.25
903.098	750.87
903.272	794.46
903.446	831.66
903.619	780.51
903.793	805.89
903.967	830.88
904.14	885.72
904.314	857.23
904.488	834.37
904.661	870.02
904.835	837.28
905.009	903.35
905.182	883.78
905.356	870.8
905.529	849.87
905.703	811.9
905.876	827.2
906.05	755.32
906.223	775.47
906.397	699.52
906.57	729.75
906.744	695.46
906.917	698.94
907.09	704.76
907.264	680.34
907.437	668.91
907.61	642.18
907.784	664.46
907.957	653.03
908.13	649.54
908.304	692.36
908.477	636.75
908.65	636.36
908.823	615.63
908.996	663.87
909.17	622.8
909.343	644.69
909.516	636.75
909.689	642.56
909.862	598.97
910.035	617.96
910.208	584.05
910.381	581.92
910.554	682.09
910.727	594.51
910.9	592.58
911.073	584.24
911.246	671.62
911.419	666.2
911.592	640.43
911.765	595.09
911.938	588.51
912.11	606.72
912.283	628.42
912.456	668.72
912.629	643.92
912.802	594.71
912.974	580.76
913.147	552.86
913.32	502.1
913.493	525.73
913.665	524.96
913.838	571.65
914.01	532.71
914.183	553.63
914.356	581.73
914.528	605.94
914.701	627.84
914.873	609.24
915.046	566.42
915.218	522.25
915.391	455.21
915.563	460.05
915.736	532.13
915.908	528.83
916.081	524.18
916.253	526.12
916.425	536.2
916.598	546.66
916.77	598.58
916.942	494.73
917.115	431.96
917.287	511.01
917.459	486.21
917.632	455.4
917.804	408.32
917.976	483.88
918.148	505.58
918.32	490.08
918.493	525.54
918.665	567.97
918.837	539.68
919.009	591.8
919.181	580.56
919.353	549.56
919.525	561.58
919.697	530.77
919.869	545.69
920.041	606.91
920.213	643.92
920.385	597.03
920.557	534.65
920.729	585.02
920.901	556.73
921.073	568.74
921.244	538.13
921.416	577.85
921.588	534.26
921.76	566.42
921.932	596.45
922.103	517.6
922.275	522.44
922.447	565.26
922.619	470.71
922.79	539.3
922.962	516.63
923.134	587.54
923.305	483.11
923.477	475.94
923.648	459.86
923.82	488.15
923.991	438.93
924.163	453.85
924.335	496.09
924.506	452.88
924.677	535.81
924.849	462.18
925.02	473.03
925.192	526.7
925.363	486.98
925.535	490.47
925.706	472.65
925.877	551.31
926.049	425.95
926.22	483.69
926.391	481.56
926.562	506.55
926.734	466.25
926.905	500.74
927.076	437.38
927.247	455.6
927.419	415.49
927.59	392.05
927.761	413.94
927.932	402.32
928.103	442.62
928.274	364.15
928.445	379.84
928.616	389.53
928.787	370.35
928.958	394.57
929.129	378.49
929.3	365.31
929.471	301.57
929.642	263.4
929.813	253.52
929.984	328.3
930.155	256.42
930.326	297.5
930.496	266.89
930.667	186.09
930.838	242.28
931.009	201.59
931.18	204.11
931.35	190.94
931.521	225.23
931.692	171.56
931.863	136.49
932.033	176.41
932.204	174.28
932.374	147.54
932.545	137.08
932.716	183.19
932.886	198.11
933.057	103.36
933.227	105.3
933.398	199.46
933.568	107.05
933.739	70.04
933.909	74.3
934.08	125.26
934.25	42.72
934.421	70.23
934.591	115.18
934.761	59
934.932	72.95
935.102	112.47
935.272	111.5
935.443	89.03
935.613	74.11
935.783	102.59
935.953	55.7
936.123	233.37
936.294	60.93
936.464	68.1
936.634	99.3
936.804	70.04
936.974	38.65
937.144	86.51
937.314	103.56
937.484	58.8
937.655	34.39
937.825	121.58
937.995	68.68
938.165	122.16
938.334	84.38
938.504	88.64
938.674	89.8
938.844	95.23
939.014	177.96
939.184	159.36
939.354	187.06
939.524	187.06
939.694	118.09
939.863	117.7
940.033	203.92
940.203	192.1
940.373	170.01
940.542	194.23
940.712	135.14
940.882	156.84
941.051	193.46
941.221	175.05
941.391	187.64
941.56	121.38
941.73	139.59
941.899	246.16
942.069	140.18
942.238	182.61
942.408	113.25
942.577	173.89
942.747	122.55
942.916	92.71
943.086	76.63
943.255	137.66
943.425	138.43
943.594	97.55
943.763	63.26
943.933	69.65
944.102	21.6
944.271	110.73
944.441	103.75
944.61	116.93
944.779	122.74
944.948	186.29
945.117	83.02
945.287	108.01
945.456	63.26
945.625	82.44
945.794	118.67
945.963	99.1
946.132	102.2
946.301	106.08
946.47	136.69
946.639	26.64
946.808	94.45
946.977	125.84
947.146	152.96
947.315	89.03
947.484	145.21
947.653	88.83
947.822	91.35
947.991	77.6
948.16	179.7
948.329	147.93
948.498	86.31
948.666	113.44
948.835	127.97
949.004	65
949.173	61.32
949.341	107.43
949.51	114.02
949.679	148.12
949.847	130.1
950.016	184.93
950.185	168.46
950.353	97.16
950.522	99.1
950.69	170.4
950.859	96
951.028	150.64
951.196	152.19
951.365	85.35
951.533	100.65
951.701	134.17
951.87	133.78
952.038	85.93
952.207	113.63
952.375	154.13
952.543	66.36
952.712	99.1
952.88	81.86
953.048	152.58
953.217	105.11
953.385	81.28
953.553	149.67
953.721	82.05
953.89	92.32
954.058	56.86
954.226	102.78
954.394	99.1
954.562	41.75
954.73	96.78
954.898	78.18
955.067	138.43
955.235	80.11
955.403	122.93
955.571	155.68
955.739	110.73
955.907	96
956.075	101.23
956.243	76.82
956.41	124.1
956.578	56.67
956.746	64.42
956.914	92.71
957.082	107.82
957.25	103.17
957.418	84.18
957.585	100.46
957.753	140.37
957.921	61.32
958.089	85.73
958.256	114.6
958.424	115.18
958.592	96.78
958.759	66.36
958.927	133.59
959.095	74.5
959.262	103.17
959.43	102.59
959.597	64.42
959.765	77.98
959.932	85.35
960.1	139.21
960.267	113.83
960.435	68.1
960.602	152.96
960.77	90.58
960.937	59.96
961.104	90.96
961.272	51.05
961.439	97.16
961.606	120.8
961.774	132.04
961.941	78.76
962.108	138.63
962.275	131.84
962.443	148.89
962.61	141.53
962.777	165.94
962.944	128.16
963.111	123.9
963.278	127.39
963.446	145.21
963.613	129.52
963.78	137.08
963.947	146.18
964.114	127.58
964.281	198.88
964.448	176.6
964.615	94.06
964.782	121.58
964.949	151.8
965.116	148.31
965.282	157.61
965.449	133.59
965.616	58.61
965.783	153.74
965.95	112.47
966.117	74.3
966.283	125.65
966.45	107.63
966.617	126.42
966.784	177.18
966.95	148.51
967.117	145.6
967.284	93.1
967.45	114.21
967.617	167.88
967.784	141.73
967.95	183.77
968.117	98.52
968.283	157.42
968.45	222.52
968.616	145.21
968.783	166.91
968.949	155.68
969.116	165.75
969.282	123.71
969.449	133.98
969.615	143.47
969.781	90.77
969.948	129.13
970.114	96.97
970.28	177.18
970.447	139.79
970.613	175.24
970.779	143.08
970.945	145.21
971.112	136.88
971.278	141.53
971.444	126.42
971.61	166.72
971.776	123.9
971.942	164.78
972.108	159.16
972.275	122.93
972.441	153.16
972.607	198.88
972.773	108.79
972.939	158.19
973.105	115.38
973.271	91.55
973.437	90.19
973.602	94.26
973.768	148.7
973.934	108.01
974.1	134.17
974.266	23.93
974.432	114.99
974.598	92.51
974.763	149.86
974.929	105.69
975.095	193.84
975.261	98.71
975.426	55.9
975.592	107.24
975.758	186.87
975.923	72.17
976.089	82.05
976.255	137.66
976.42	117.9
976.586	118.48
976.751	100.46
976.917	207.41
977.082	149.67
977.248	60.93
977.413	56.28
977.579	99.49
977.744	119.25
977.91	67.71
978.075	86.7
978.24	118.67
978.406	120.41
978.571	94.45
978.736	55.12
978.902	135.91
979.067	95.03
979.232	50.47
979.397	95.42
979.563	164.59
979.728	65.39
979.893	88.25
980.058	110.34
980.223	128.94
980.388	129.71
980.554	109.18
980.719	96.97
980.884	113.44
981.049	149.86
981.214	112.08
981.379	120.22
981.544	88.83
981.709	94.06
981.874	105.5
982.039	74.3
982.204	149.48
982.368	85.54
982.533	107.24
982.698	122.55
982.863	138.63
983.028	79.15
983.193	118.28
983.357	113.25
983.522	123.32
983.687	106.85
983.852	87.48
984.016	121.58
984.181	105.3
984.346	135.72
984.51	146.38
984.675	123.51
984.839	115.76
985.004	124.87
985.168	120.22
985.333	123.32
985.498	86.7
985.662	122.55
985.827	109.18
985.991	96.97
986.155	107.63
986.32	139.21
986.484	155.68
986.649	108.6
986.813	41.37
986.977	119.83
987.142	115.38
987.306	51.25
987.47	59
987.634	83.8
987.799	113.44
987.963	96.58
988.127	111.5
988.291	164.2
988.455	112.47
988.62	89.22
988.784	120.22
988.948	117.9
989.112	67.52
989.276	96.39
989.44	97.36
989.604	98.13
989.768	98.52
989.932	190.36
990.096	75.27
990.26	62.87
990.424	62.1
990.588	98.52
990.752	141.14
990.915	117.12
991.079	104.91
991.243	54.35
991.407	133.39
991.571	100.26
991.734	112.86
991.898	123.9
992.062	193.65
992.226	89.61
992.389	73.33
992.553	40.98
992.717	58.41
992.88	67.52
993.044	86.7
993.207	79.34
993.371	112.86
993.535	98.33
993.698	72.36
993.862	111.11
994.025	133.98
994.189	75.46
994.352	88.25
994.515	97.55
994.679	115.18
994.842	97.16
995.006	97.94
995.169	39.43
995.332	65.78
995.496	118.67
995.659	25.48
995.822	84.38
995.985	63.26
996.149	126.23
996.312	82.25
996.475	168.46
996.638	75.46
996.801	147.15
996.964	146.76
997.128	86.7
997.291	66.55
997.454	114.8
997.617	36.72
997.78	128.16
997.943	70.43
998.106	137.85
998.269	55.12
998.432	73.91
998.595	78.95
998.758	39.62
998.92	60.35
999.083	27.61
999.246	82.05
999.409	68.49
999.572	0.68
999.735	55.31
999.897	80.7
1000.06	56.28
1000.223	58.41
1000.386	100.46
1000.548	91.35
1000.711	90.96
1000.874	72.36
1001.036	29.93
1001.199	90.19
1001.361	44.08
1001.524	83.8
1001.687	94.84
1001.849	57.06
1002.012	86.7
1002.174	83.21
1002.337	106.46
1002.499	73.91
1002.661	93.1
1002.824	35.75
1002.986	43.3
1003.149	65.58
1003.311	34
1003.473	138.04
1003.636	29.93
1003.798	101.81
1003.96	91.35
1004.123	51.63
1004.285	40.59
1004.447	53.18
1004.609	35.75
1004.771	133.98
1004.933	-6.3
1005.096	42.53
1005.258	-7.46
1005.42	26.45
1005.582	105.88
1005.744	52.6
1005.906	12.11
1006.068	30.9
1006.23	23.73
1006.392	9.78
1006.554	10.75
1006.716	80.89
1006.878	77.98
1007.04	-10.37
1007.202	35.94
1007.363	38.27
1007.525	95.81
1007.687	80.89
1007.849	100.65
1008.011	-4.94
1008.172	7.27
1008.334	15.4
1008.496	45.43
1008.658	-16.57
1008.819	21.6
1008.981	22.57
1009.143	33.03
1009.304	52.6
1009.466	77.4
1009.627	104.72
1009.789	129.52
1009.95	49.11
1010.112	60.35
1010.273	64.42
1010.435	13.47
1010.596	26.06
1010.758	6.49
1010.919	44.27
1011.081	17.34
1011.242	48.73
1011.403	55.7
1011.565	34
1011.726	59.19
1011.887	-6.3
1012.049	77.4
1012.21	69.85
1012.371	97.55
1012.532	-41.95
1012.693	49.89
1012.855	44.08
1013.016	44.66
1013.177	70.04
1013.338	34.97
1013.499	83.21
1013.66	72.17
1013.821	100.26
1013.982	48.34
1014.143	60.55
1014.304	17.92
1014.465	77.98
1014.626	83.41
1014.787	32.84
1014.948	112.08
1015.109	-9.4
1015.27	72.36
1015.431	32.45
1015.592	25.48
1015.752	96.58
1015.913	19.28
1016.074	56.86
1016.235	62.48
1016.395	43.69
1016.556	25.67
1016.717	27.8
1016.877	88.45
1017.038	8.23
1017.199	52.41
1017.359	30.71
1017.52	66.55
1017.681	3
1017.841	28
1018.002	42.33
1018.162	37.49
1018.323	92.71
1018.483	32.45
1018.644	7.85
1018.804	-4.36
1018.964	1.26
1019.125	22.38
1019.285	59.77
1019.446	1.45
1019.606	-3.97
1019.766	-13.66
1019.926	55.7
1020.087	57.83
1020.247	-6.49
1020.407	37.68
1020.567	66.94
1020.728	27.22
1020.888	3
1021.048	6.68
1021.208	21.8
1021.368	25.48
1021.528	75.66
1021.688	61.13
1021.848	64.23
1022.008	39.62
1022.168	21.8
1022.328	41.95
1022.488	62.87
1022.648	26.83
1022.808	46.98
1022.968	44.27
1023.128	-5.13
1023.288	7.85
1023.448	33.23
1023.608	53.96
1023.767	53.57
1023.927	8.62
1024.087	15.6
1024.247	-14.05
1024.406	9.4
1024.566	-9.59
1024.726	-2.03
1024.885	26.64
1025.045	73.14
1025.205	15.98
1025.364	0.29
1025.524	35.94
1025.683	11.33
1025.843	42.33
1026.003	29.74
1026.162	88.25
1026.321	58.8
1026.481	15.02
1026.64	2.81
1026.8	21.6
1026.959	50.08
1027.119	38.07
1027.278	24.32
1027.437	-22.77
1027.597	12.69
1027.756	33.03
1027.915	48.34
1028.074	29.74
1028.234	-10.17
1028.393	47.37
1028.552	8.23
1028.711	-40.98
1028.87	42.14
1029.03	-15.98
1029.189	20.83
1029.348	-47.95
1029.507	3.78
1029.666	0.1
1029.825	-6.49
1029.984	-18.31
1030.143	25.67
1030.302	0.68
1030.461	-22.38
1030.62	40.2
1030.779	37.88
1030.938	10.75
1031.097	-8.82
1031.255	35.75
1031.414	82.25
1031.573	53.76
1031.732	-30.13
1031.891	44.27
1032.049	39.23
1032.208	55.12
1032.367	-25.48
1032.525	-6.49
1032.684	14.43
1032.843	26.06
1033.001	-30.32
1033.16	157.81
1033.319	66.94
1033.477	27.42
1033.636	-4.75
1033.794	-24.7
1033.953	43.5
1034.111	50.47
1034.27	6.88
1034.428	35.36
1034.587	-9.59
1034.745	10.56
1034.903	33.42
1035.062	31.87
1035.22	-23.73
1035.378	53.76
1035.537	-20.44
1035.695	51.44
1035.853	-7.85
1036.011	41.75
1036.17	52.21
1036.328	-33.03
1036.486	10.95
1036.644	54.54
1036.802	-65.78
1036.96	-0.48
1037.119	3.97
1037.277	-14.24
1037.435	-31.68
1037.593	-12.69
1037.751	18.31
1037.909	27.8
1038.067	27.8
