Data from gum_old_FLMT105791__68__15-43-56-257.txt Node

Date: Mon Mar 20 15:43:56 GMT 2023
User: antho
Spectrometer: FLMT10579
Trigger mode: 0
Integration Time (sec): 1.000000E-1
Scans to average: 10
Electric dark correction enabled: true
Nonlinearity correction enabled: false
Boxcar width: 0
XAxis mode: Wavelengths
Number of Pixels in Spectrum: 3648
>>>>>Begin Spectral Data<<<<<
345.248	-198.7
345.464	-198.7
345.681	-198.7
345.898	-202.39
346.114	-169.84
346.331	-40.02
346.548	37.86
346.764	-21.62
346.981	-22.59
347.197	-37.31
347.414	10.35
347.631	-22.98
347.847	79.32
348.064	18.1
348.28	37.86
348.497	-47.58
348.713	8.61
348.93	18.1
349.146	5.12
349.363	10.35
349.579	25.46
349.796	-2.24
350.012	4.73
350.229	56.46
350.445	16.94
350.661	-17.94
350.878	3.96
351.094	35.92
351.311	32.24
351.527	40.96
351.743	-12.71
351.96	58.59
352.176	64.21
352.392	37.67
352.609	53.55
352.825	-12.32
353.041	30.69
353.257	-5.15
353.474	39.8
353.69	30.69
353.906	10.93
354.122	2.21
354.339	100.83
354.555	17.52
354.771	-6.7
354.987	84.55
355.203	77.39
355.42	2.21
355.636	7.25
355.852	10.93
356.068	36.7
356.284	-10.58
356.5	66.15
356.716	43.48
356.932	32.63
357.148	37.28
357.364	12.87
357.58	60.72
357.796	72.54
358.012	45.22
358.228	57.24
358.444	-54.56
358.66	51.81
358.876	42.71
359.092	-2.63
359.308	17.91
359.524	33.79
359.74	41.16
359.956	12.67
360.172	26.04
360.388	47.94
360.604	8.02
360.819	112.84
361.035	22.94
361.251	49.49
361.467	-9.41
361.683	73.9
361.898	32.44
362.114	48.13
362.33	61.11
362.546	77.97
362.762	10.74
362.977	43.87
363.193	28.76
363.409	78.74
363.624	5.31
363.84	-3.41
364.056	28.95
364.271	51.23
364.487	56.65
364.703	5.31
364.918	17.91
365.134	43.67
365.35	29.14
365.565	143.45
365.781	32.05
365.996	70.22
366.212	109.16
366.427	55.3
366.643	27.98
366.858	42.9
367.074	9.77
367.289	110.32
367.505	137.45
367.72	1.82
367.936	49.29
368.151	87.85
368.367	81.65
368.582	62.08
368.798	48.71
369.013	138.61
369.228	72.15
369.444	46.19
369.659	119.82
369.874	63.82
370.09	125.44
370.305	-16.19
370.52	45.42
370.736	126.4
370.951	50.26
371.166	105.87
371.381	126.79
371.597	78.35
371.812	30.5
372.027	35.15
372.242	66.34
372.458	144.81
372.673	29.72
372.888	25.27
373.103	86.1
373.318	122.92
373.533	77.19
373.749	30.31
373.964	17.13
374.179	127.76
374.394	32.44
374.609	97.15
374.824	28.17
375.039	102.38
375.254	27.79
375.469	94.44
375.684	65.37
375.899	98.89
376.114	75.25
376.329	63.82
376.544	77
376.759	78.94
376.974	39.61
377.189	71.38
377.404	60.53
377.619	85.72
377.834	4.54
378.049	27.79
378.264	38.06
378.478	100.05
378.693	75.25
378.908	92.11
379.123	70.02
379.338	110.32
379.553	70.99
379.767	79.32
379.982	104.7
380.197	94.24
380.412	94.44
380.626	82.81
380.841	164.57
381.056	117.49
381.271	170.38
381.485	56.85
381.7	60.34
381.915	102.57
382.129	87.07
382.344	64.79
382.559	51.42
382.773	101.02
382.988	38.83
383.202	68.86
383.417	44.45
383.632	162.63
383.846	61.11
384.061	71.57
384.275	52.97
384.49	86.1
384.704	73.51
384.919	96.95
385.133	84.55
385.348	111.49
385.562	58.79
385.777	143.65
385.991	94.63
386.206	77.19
386.42	75.84
386.634	131.83
386.849	137.25
387.063	109.55
387.277	60.92
387.492	88.82
387.706	70.99
387.92	59.75
388.135	129.12
388.349	107.61
388.563	112.45
388.778	113.62
388.992	126.79
389.206	110.32
389.42	181.04
389.635	114.2
389.849	141.52
390.063	176.78
390.277	135.51
390.491	194.02
390.706	153.33
390.92	176.2
391.134	148.49
391.348	133.38
391.562	103.93
391.776	107.42
391.99	121.75
392.205	163.6
392.419	130.86
392.633	155.08
392.847	184.14
393.061	90.95
393.275	182.2
393.489	102.38
393.703	97.92
393.917	116.52
394.131	66.34
394.345	110.71
394.559	168.45
394.773	80.68
394.986	156.63
395.2	140.16
395.414	175.81
395.628	130.28
395.842	163.8
396.056	126.21
396.27	94.05
396.484	142.68
396.697	154.69
396.911	179.88
397.125	106.45
397.339	132.22
397.553	127.95
397.766	171.74
397.98	175.62
398.194	219.02
398.408	156.24
398.621	230.83
398.835	242.26
399.049	224.05
399.262	263.96
399.476	213.2
399.69	245.95
399.903	310.85
400.117	228.9
400.331	234.9
400.544	231.8
400.758	345.73
400.971	277.72
401.185	272.68
401.398	211.46
401.612	302.52
401.826	275.78
402.039	287.21
402.253	219.79
402.466	300.2
402.68	239.16
402.893	269.78
403.106	277.91
403.32	275.78
403.533	263.58
403.747	245.36
403.96	304.46
404.174	286.05
404.387	242.46
404.6	269
404.814	310.66
405.027	263.77
405.24	276.75
405.454	244.4
405.667	294.77
405.88	226.57
406.094	281.6
406.307	328.29
406.52	277.91
406.733	236.65
406.947	242.85
407.16	361.61
407.373	329.06
407.586	255.44
407.799	242.07
408.012	330.81
408.226	290.31
408.439	340.69
408.652	274.04
408.865	304.26
409.078	368.78
409.291	338.94
409.504	320.34
409.717	337.2
409.93	349.6
410.143	330.23
410.357	274.43
410.57	235.48
410.783	293.03
410.996	295.93
411.209	316.47
411.421	358.51
411.634	357.54
411.847	324.03
412.06	355.61
412.273	356.38
412.486	363.74
412.699	438.14
412.912	359.68
413.125	380.02
413.338	340.88
413.55	370.14
413.763	357.93
413.976	369.94
414.189	342.43
414.402	344.37
414.615	408.69
414.827	331.58
415.04	399.2
415.253	380.79
415.466	396.49
415.678	424.19
415.891	351.54
416.104	350.38
416.316	327.9
416.529	344.37
416.742	400.94
416.954	430.2
417.167	388.93
417.38	362.39
417.592	401.72
417.805	346.11
418.017	320.15
418.23	404.62
418.442	330.23
418.655	365.1
418.868	373.43
419.08	389.13
419.293	425.16
419.505	410.44
419.718	407.14
419.93	453.06
420.142	373.04
420.355	413.73
420.567	426.91
420.78	419.74
420.992	408.69
421.205	461.01
421.417	379.24
421.629	421.29
421.842	374.4
422.054	380.02
422.266	456.74
422.479	451.32
422.691	384.86
422.903	457.52
423.115	368.98
423.328	396.1
423.54	405.21
423.752	405.79
423.964	366.26
424.177	421.87
424.389	413.73
424.601	552.26
424.813	438.14
425.025	446.09
425.238	436.21
425.45	440.47
425.662	401.91
425.874	725.08
426.086	411.79
426.298	457.13
426.51	421.09
426.722	430.2
426.934	403.27
427.146	469.92
427.358	411.41
427.57	465.46
427.782	411.79
427.994	422.84
428.206	396.1
428.418	398.04
428.63	455.77
428.842	503.44
429.054	430.39
429.266	456.94
429.478	396.88
429.69	410.63
429.902	380.02
430.114	426.32
430.325	408.89
430.537	371.88
430.749	362.39
430.961	278.5
431.173	357.54
431.384	369.17
431.596	289.93
431.808	376.73
432.02	433.11
432.231	495.88
432.443	565.05
432.655	486.19
432.867	467.01
433.078	514.48
433.29	541.02
433.502	525.52
433.713	499.37
433.925	535.21
434.136	556.91
434.348	452.29
434.56	424.97
434.771	556.52
434.983	416.44
435.194	468.17
435.406	529.01
435.617	545.87
435.829	613.87
436.04	581.52
436.252	572.22
436.463	606.7
436.675	623.95
436.886	586.94
437.098	597.98
437.309	655.72
437.521	568.73
437.732	580.74
437.943	552.45
438.155	544.12
438.366	512.35
438.578	623.17
438.789	541.02
439	548.97
439.211	517.58
439.423	553.81
439.634	579.19
439.845	576.87
440.057	598.76
440.268	612.71
440.479	557.3
440.69	614.84
440.902	550.71
441.113	577.25
441.324	562.14
441.535	591.78
441.746	653.59
441.957	574.74
442.168	613.48
442.38	637.7
442.591	667.93
442.802	614.07
443.013	599.73
443.224	667.54
443.435	628.6
443.646	659.02
443.857	595.08
444.068	611.16
444.279	616.97
444.49	727.8
444.701	659.6
444.912	773.71
445.123	715.2
445.334	657.47
445.545	691.76
445.756	639.64
445.967	626.27
446.178	645.65
446.388	647.58
446.599	679.94
446.81	690.21
447.021	628.6
447.232	695.44
447.443	710.16
447.653	669.28
447.864	731.28
448.075	706.68
448.286	715.4
448.496	711.52
448.707	754.14
448.918	695.05
449.129	783.01
449.339	680.52
449.55	711.33
449.761	679.94
449.971	769.45
450.182	724.5
450.393	756.47
450.603	701.64
450.814	763.44
451.024	739.23
451.235	816.73
451.446	822.34
451.656	849.47
451.867	751.43
452.077	769.45
452.288	819.63
452.498	812.46
452.709	744.85
452.919	771.97
453.13	704.16
453.34	758.99
453.55	708.61
453.761	749.3
453.971	751.82
454.182	758.02
454.392	742.52
454.602	818.28
454.813	772.36
455.023	752.4
455.233	715.4
455.444	761.7
455.654	661.34
455.864	774.29
456.075	766.54
456.285	724.11
456.495	760.93
456.705	771
456.916	801.81
457.126	839.97
457.336	767.51
457.546	728.18
457.756	733.03
457.967	831.84
458.177	779.53
458.387	801.23
458.597	745.43
458.807	751.63
459.017	752.4
459.227	737.29
459.437	729.73
459.647	837.65
459.857	818.66
460.068	747.75
460.278	830.87
460.488	799.48
460.698	869.42
460.908	789.79
461.117	775.65
461.327	802.78
461.537	811.69
461.747	823.12
461.957	834.36
462.167	936.65
462.377	864.19
462.587	841.72
462.797	860.12
463.007	814.98
463.216	925.42
463.426	944.79
463.636	880.47
463.846	813.04
464.056	826.03
464.265	872.33
464.475	814.21
464.685	836.49
464.895	860.51
465.104	798.13
465.314	895.19
465.524	816.92
465.733	804.33
465.943	924.64
466.153	931.42
466.362	907.01
466.572	889.57
466.782	868.65
466.991	880.47
467.201	914.57
467.41	803.94
467.62	900.23
467.829	846.76
468.039	924.06
468.249	880.86
468.458	910.69
468.668	920.96
468.877	945.95
469.086	944.4
469.296	959.9
469.505	891.51
469.715	975.21
469.924	944.6
470.134	979.86
470.343	1001.37
470.552	921.93
470.762	901.2
470.971	911.08
471.18	915.15
471.39	942.47
471.599	896.16
471.808	982.96
472.018	949.83
472.227	1013.38
472.436	1042.44
472.645	997.1
472.855	982.38
473.064	1058.72
473.273	1076.15
473.482	1031.98
473.691	1074.22
473.901	1052.71
474.11	1002.34
474.319	1114.32
474.528	1042.25
474.737	1129.63
474.946	1096.5
475.155	1110.45
475.364	1144.35
475.573	1144.74
475.783	1132.53
475.992	1119.75
476.201	1150.36
476.41	1107.15
476.619	1070.34
476.828	1116.26
477.037	1115.87
477.245	1092.43
477.454	1164.89
477.663	1137.38
477.872	1189.69
478.081	1271.06
478.29	1136.21
478.499	1312.33
478.708	1258.86
478.917	1284.04
479.125	1172.25
479.334	1221.27
479.543	1229.21
479.752	1257.89
479.961	1245.1
480.169	1293.73
480.378	1258.28
480.587	1413.47
480.796	1321.24
481.004	1284.04
481.213	1327.44
481.422	1311.75
481.63	1342.56
481.839	1372.97
482.048	1435.17
482.256	1321.63
482.465	1390.8
482.674	1377.24
482.882	1409.01
483.091	1434
483.299	1397.58
483.508	1397.58
483.716	1416.18
483.925	1403.97
484.134	1335.58
484.342	1387.7
484.551	1468.1
484.759	1400.68
484.967	1400.49
485.176	1454.93
485.384	1465.97
485.593	1451.05
485.801	1467.91
486.01	1404.94
486.218	1324.92
486.426	1272.03
486.635	1243.36
486.843	1262.15
487.051	1259.83
487.26	1277.46
487.468	1363.87
487.676	1384.02
487.885	1373.17
488.093	1397.97
488.301	1441.95
488.509	1480.12
488.717	1554.71
488.926	1503.75
489.134	1471.59
489.342	1494.26
489.55	1463.65
489.758	1479.53
489.967	1521.58
490.175	1640.93
490.383	1585.9
490.591	1688.59
490.799	1535.53
491.007	1592.49
491.215	1596.17
491.423	1566.72
491.631	1613.41
491.839	1573.7
492.047	1594.81
492.255	1523.9
492.463	1517.51
492.671	1487.28
492.879	1572.34
493.087	1572.53
493.295	1602.56
493.503	1621.16
493.711	1666.31
493.919	1669.02
494.127	1670.38
494.334	1649.84
494.542	1602.56
494.75	1668.44
494.958	1680.06
495.166	1719.78
495.374	1748.07
495.581	1742.64
495.789	1714.16
495.997	1787.01
496.205	1646.93
496.412	1656.62
496.62	1696.34
496.828	1706.99
497.035	1696.92
497.243	1757.95
497.451	1763.18
497.658	1758.14
497.866	1763.37
498.074	1825.57
498.281	1682.58
498.489	1814.52
498.696	1765.51
498.904	1675.03
499.112	1666.5
499.319	1789.92
499.527	1745.74
499.734	1785.07
499.942	1700.99
500.149	1733.92
500.357	1747.87
500.564	1709.13
500.771	1710.09
500.979	1705.25
501.186	1638.41
501.394	1728.69
501.601	1680.26
501.808	1706.99
502.016	1687.23
502.223	1694.21
502.43	1709.71
502.638	1677.93
502.845	1680.64
503.052	1791.47
503.26	1743.03
503.467	1809.49
503.674	1790.69
503.881	1809.29
504.089	1840.49
504.296	1810.07
504.503	1728.11
504.71	1729.66
504.917	1679.87
505.125	1760.86
505.332	1783.52
505.539	1824.02
505.746	1880.01
505.953	1848.43
506.16	1819.17
506.367	1900.74
506.574	1925.15
506.781	1911.2
506.988	1866.25
507.195	1863.93
507.402	1840.29
507.609	1880.2
507.816	1816.27
508.023	1785.85
508.23	1837.19
508.437	1730.63
508.644	1826.73
508.851	1896.09
509.058	1874.2
509.265	1834.09
509.472	1883.3
509.679	1995.1
509.885	1865.48
510.092	1879.82
510.299	1890.08
510.506	1856.37
510.713	1873.81
510.92	1869.94
511.126	1934.84
511.333	1941.62
511.54	1945.69
511.746	1966.62
511.953	1970.88
512.16	1998.78
512.367	1908.49
512.573	1951.31
512.78	1949.95
512.987	1929.8
513.193	1908.68
513.4	1845.33
513.606	1906.75
513.813	1917.4
514.02	1921.28
514.226	1969.72
514.433	1975.14
514.639	1862.77
514.846	1892.22
515.052	1866.84
515.259	1894.73
515.465	1892.6
515.672	1937.36
515.878	2008.85
516.085	1951.7
516.291	1985.21
516.497	1930
516.704	1913.53
516.91	1860.05
517.117	1787.4
517.323	1710.87
517.529	1689.17
517.736	1723.66
517.942	1739.16
518.148	1770.74
518.354	1812.97
518.561	1860.83
518.767	1814.91
518.973	1892.22
519.179	1867.03
519.386	1864.7
519.592	1872.26
519.798	1863.35
520.004	1984.05
520.21	1957.32
520.417	2014.47
520.623	2040.82
520.829	2028.03
521.035	2045.86
521.241	2046.63
521.447	2047.99
521.653	2159.59
521.859	2042.18
522.065	2100.69
522.271	2189.62
522.477	2153
522.683	2171.41
522.889	2130.72
523.095	2097.2
523.301	2056.13
523.507	2019.12
523.713	2064.26
523.919	2036.56
524.125	2167.53
524.331	2095.46
524.537	2260.72
524.742	2232.63
524.948	2229.72
525.154	2253.55
525.36	2342.68
525.566	2216.16
525.772	2295.6
525.977	2214.81
526.183	2234.96
526.389	2292.3
526.595	2211.9
526.8	2184.97
527.006	2127.81
527.212	2062.52
527.417	1994.51
527.623	1998
527.829	2083.06
528.034	2122
528.24	2161.52
528.446	2166.76
528.651	2274.67
528.857	2260.53
529.062	2313.62
529.268	2289.79
529.473	2338.03
529.679	2342.29
529.884	2398.67
530.09	2356.05
530.295	2363.22
530.501	2366.9
530.706	2360.12
530.912	2353.53
531.117	2366.7
531.323	2369.61
531.528	2444.59
531.733	2434.13
531.939	2407.39
532.144	2430.45
532.35	2428.12
532.555	2416.88
532.76	2391.31
532.966	2399.45
533.171	2407.58
533.376	2324.85
533.581	2290.95
533.787	2310.71
533.992	2392.08
534.197	2398.67
534.402	2401
534.607	2381.04
534.813	2474.23
535.018	2423.86
535.223	2427.15
535.428	2414.56
535.633	2484.89
535.838	2497.68
536.043	2509.49
536.249	2560.64
536.454	2482.18
536.659	2513.18
536.864	2469
537.069	2448.08
537.274	2465.32
537.479	2497.87
537.684	2465.71
537.889	2405.07
538.094	2526.54
538.299	2442.07
538.504	2464.35
538.708	2504.07
538.913	2542.82
539.118	2504.65
539.323	2521.89
539.528	2475.4
539.733	2468.03
539.938	2488.57
540.142	2459.7
540.347	2430.83
540.552	2428.12
540.757	2427.93
540.962	2431.61
541.166	2358.57
541.371	2395.38
541.576	2433.16
541.781	2336.09
541.985	2466.68
542.19	2453.11
542.395	2571.69
542.599	2595.52
542.804	2523.44
543.008	2557.16
543.213	2483.15
543.418	2460.28
543.622	2491.28
543.827	2434.71
544.031	2581.18
544.236	2546.11
544.44	2546.31
544.645	2631.75
544.849	2544.37
545.054	2578.86
545.258	2623.42
545.463	2588.54
545.667	2478.3
545.872	2589.71
546.076	2546.69
546.281	2556.77
546.485	2514.53
546.689	2576.73
546.894	2581.18
547.098	2551.15
547.302	2523.25
547.507	2510.08
547.711	2577.69
547.915	2652.09
548.119	2506.78
548.324	2543.98
548.528	2592.03
548.732	2546.11
548.936	2597.07
549.141	2614.7
549.345	2580.99
549.549	2600.17
549.753	2587.57
549.957	2666.04
550.161	2672.44
550.366	2572.66
550.57	2583.89
550.774	2590.29
550.978	2585.44
551.182	2586.8
551.386	2561.03
551.59	2555.03
551.794	2543.59
551.998	2597.65
552.202	2556.58
552.406	2539.14
552.61	2605.79
552.814	2605.98
553.018	2620.32
553.222	2551.93
553.426	2545.14
553.63	2706.92
553.833	2580.41
554.037	2508.33
554.241	2580.41
554.445	2593.77
554.649	2576.73
554.853	2526.74
555.056	2635.82
555.26	2612.96
555.464	2611.41
555.668	2598.04
555.871	2604.24
556.075	2639.11
556.279	2559.68
556.483	2548.05
556.686	2552.89
556.89	2551.15
557.094	2561.03
557.297	2474.04
557.501	2569.36
557.704	2439.75
557.908	2543.21
558.112	2472.49
558.315	2584.09
558.519	2497.87
558.722	2472.49
558.926	2464.74
559.129	2392.28
559.333	2370.19
559.536	2422.89
559.74	2396.93
559.943	2354.69
560.147	2323.69
560.35	2374.84
560.553	2403.9
560.757	2328.53
560.96	2473.85
561.164	2415.91
561.367	2470.75
561.57	2419.79
561.774	2443.81
561.977	2406.42
562.18	2373.1
562.384	2445.75
562.587	2401.77
562.79	2369.8
562.993	2374.26
563.197	2454.08
563.4	2481.21
563.603	2443.81
563.806	2488.57
564.009	2376.97
564.212	2432.77
564.416	2349.07
564.619	2397.9
564.822	2345.97
565.025	2420.37
565.228	2364.38
565.431	2382.2
565.634	2287.85
565.837	2347.52
566.04	2326.79
566.243	2253.75
566.446	2166.56
566.649	2325.24
566.852	2249.1
567.055	2270.41
567.258	2325.63
567.461	2361.67
567.664	2369.61
567.867	2244.25
568.07	2311.29
568.273	2304.9
568.475	2349.46
568.678	2289.98
568.881	2261.89
569.084	2260.72
569.287	2130.14
569.489	2192.91
569.692	2265.18
569.895	2287.65
570.098	2188.26
570.3	2212.09
570.503	2170.05
570.706	2166.17
570.909	2131.69
571.111	2134.4
571.314	2105.73
571.516	2108.83
571.719	2119.68
571.922	2116.77
572.124	2116.19
572.327	2183.22
572.529	2118.9
572.732	2115.03
572.935	2129.17
573.137	2228.17
573.34	2126.65
573.542	2226.62
573.745	2152.81
573.947	2158.04
574.15	2124.52
574.352	2139.24
574.554	2193.69
574.757	2110.76
574.959	2063.29
575.162	2078.21
575.364	2077.24
575.566	2194.07
575.769	2045.66
575.971	2087.13
576.173	1948.79
576.376	2083.83
576.578	2077.83
576.78	2123.16
576.982	2030.75
577.185	2057.29
577.387	2026.1
577.589	2020.48
577.791	2068.53
577.993	2072.98
578.196	2028.81
578.398	2024.35
578.6	2042.37
578.802	1971.27
579.004	1943.75
579.206	1997.42
579.408	1991.41
579.61	2004.2
579.812	2017.96
580.014	1962.55
580.216	1979.4
580.418	1957.9
580.62	1991.03
580.822	1916.82
581.024	1975.91
581.226	2044.5
581.428	1979.79
581.63	2069.69
581.832	1966.42
582.034	2064.46
582.236	2019.31
582.438	2014.28
582.64	2080.73
582.841	2094.49
583.043	2104.56
583.245	2058.26
583.447	2061.16
583.649	1989.86
583.85	2020.86
584.052	2068.14
584.254	2011.56
584.456	2045.47
584.657	1953.05
584.859	2023.19
585.061	2014.86
585.262	1998.97
585.464	1942.4
585.666	2036.75
585.867	1919.53
586.069	2053.03
586.27	1962.16
586.472	1988.9
586.674	1954.99
586.875	1968.75
587.077	1946.47
587.278	1982.89
587.48	1947.63
587.681	2069.69
587.883	1964.68
588.084	1894.93
588.285	1932.32
588.487	1912.37
588.688	1948.4
588.89	1847.85
589.091	1829.83
589.292	1837.19
589.494	1768.61
589.695	1722.69
589.896	1662.63
590.098	1663.4
590.299	1760.47
590.5	1706.03
590.702	1741.67
590.903	1753.49
591.104	1836.03
591.305	1792.63
591.507	1899
591.708	1852.69
591.909	1819.17
592.11	1883.69
592.311	1844.55
592.512	1823.24
592.714	1752.14
592.915	1810.07
593.116	1784.49
593.317	1811.23
593.518	1800.38
593.719	1826.34
593.92	1838.94
594.121	1879.24
594.322	1816.07
594.523	1829.64
594.724	1744.39
594.925	1781.78
595.126	1797.67
595.327	1760.86
595.528	1810.65
595.729	1802.12
595.929	1811.81
596.13	1815.49
596.331	1843.59
596.532	1816.85
596.733	1870.13
596.934	1826.15
597.135	1857.15
597.335	1832.54
597.536	1794.57
597.737	1789.72
597.938	1792.63
598.138	1817.82
598.339	1800.96
598.54	1822.27
598.74	1783.91
598.941	1761.24
599.142	1855.79
599.342	1838.94
599.543	1768.41
599.744	1801.35
599.944	1775.77
600.145	1769.96
600.345	1782.75
600.546	1859.86
600.746	1814.72
600.947	1874.39
601.147	1791.08
601.348	1812.39
601.548	1755.82
601.749	1782.94
601.949	1730.05
602.15	1758.53
602.35	1770.54
602.551	1763.96
602.751	1710.48
602.951	1765.7
603.152	1691.3
603.352	1769.57
603.552	1704.48
603.753	1786.82
603.953	1800.57
604.153	1783.91
604.354	1763.57
604.554	1745.36
604.754	1760.08
604.954	1726.37
605.155	1742.84
605.355	1746.32
605.555	1823.82
605.755	1842.62
605.955	1770.54
606.155	1787.21
606.356	1793.6
606.556	1789.53
606.756	1759.31
606.956	1709.9
607.156	1816.65
607.356	1712.22
607.556	1773.45
607.756	1770.74
607.956	1807.74
608.156	1743.61
608.356	1732.57
608.556	1724.43
608.756	1735.67
608.956	1716.49
609.156	1740.9
609.356	1670.57
609.556	1644.41
609.755	1725.79
609.955	1673.48
610.155	1684.33
610.355	1721.14
610.555	1676.58
610.755	1704.86
610.954	1613.61
611.154	1691.88
611.354	1724.43
611.554	1643.06
611.753	1693.63
611.953	1638.79
612.153	1687.04
612.352	1694.01
612.552	1649.26
612.752	1566.91
612.951	1660.88
613.151	1634.73
613.351	1676.96
613.55	1676.19
613.75	1675.61
613.949	1627.17
614.149	1663.98
614.348	1638.21
614.548	1588.42
614.747	1569.43
614.947	1602.76
615.146	1566.72
615.346	1660.69
615.545	1671.15
615.745	1661.08
615.944	1631.43
616.144	1612.25
616.343	1610.51
616.542	1581.64
616.742	1562.46
616.941	1590.75
617.14	1506.66
617.34	1567.3
617.539	1589.39
617.738	1507.43
617.938	1611.48
618.137	1591.33
618.336	1542.89
618.535	1608.76
618.734	1601.79
618.934	1559.75
619.133	1549.28
619.332	1601.79
619.531	1506.27
619.73	1567.69
619.929	1633.95
620.128	1603.73
620.328	1623.88
620.527	1566.33
620.726	1575.05
620.925	1568.46
621.124	1558.78
621.323	1581.83
621.522	1521.19
621.721	1530.88
621.92	1537.08
622.119	1576.8
622.318	1530.68
622.517	1536.11
622.715	1511.89
622.914	1504.33
623.113	1499.68
623.312	1460.35
623.511	1566.14
623.71	1511.7
623.909	1494.65
624.107	1564.59
624.306	1446.99
624.505	1450.67
624.704	1500.85
624.902	1458.03
625.101	1581.83
625.3	1473.33
625.499	1463.07
625.697	1501.04
625.896	1441.17
626.095	1490.77
626.293	1449.89
626.492	1435.55
626.69	1476.63
626.889	1456.87
627.088	1487.48
627.286	1431.1
627.485	1465.2
627.683	1418.7
627.882	1487.87
628.08	1366
628.279	1424.7
628.477	1514.02
628.676	1411.72
628.874	1445.24
629.073	1394.48
629.271	1406.1
629.469	1434.39
629.668	1431.87
629.866	1397
630.065	1396.03
630.263	1431.49
630.461	1381.69
630.66	1420.64
630.858	1439.82
631.056	1467.33
631.254	1463.65
631.453	1398.55
631.651	1450.28
631.849	1411.92
632.047	1396.8
632.245	1377.04
632.444	1408.24
632.642	1419.67
632.84	1435.55
633.038	1397.77
633.236	1335.77
633.434	1394.48
633.632	1370.84
633.83	1352.82
634.028	1421.22
634.227	1410.75
634.425	1492.32
634.623	1374.52
634.821	1419.28
635.019	1373.17
635.216	1390.6
635.414	1417.15
635.612	1406.3
635.81	1383.24
636.008	1441.95
636.206	1375.49
636.404	1419.28
636.602	1341.2
636.8	1378.98
636.997	1429.55
637.195	1414.44
637.393	1368.71
637.591	1426.64
637.789	1424.51
637.986	1393.32
638.184	1389.25
638.382	1437.3
638.58	1399.32
638.777	1479.15
638.975	1374.72
639.173	1401.26
639.37	1388.67
639.568	1410.75
639.765	1413.47
639.963	1364.64
640.161	1419.86
640.358	1416.37
640.556	1323.96
640.753	1328.41
640.951	1321.82
641.148	1348.17
641.346	1303.42
641.543	1318.34
641.741	1354.96
641.938	1297.99
642.136	1284.62
642.333	1296.44
642.531	1345.27
642.728	1365.22
642.925	1323.18
643.123	1304.77
643.32	1327.44
643.517	1321.44
643.715	1310.01
643.912	1298.19
644.109	1338.29
644.306	1323.37
644.504	1288.31
644.701	1316.21
644.898	1337.71
645.095	1293.54
645.293	1322.6
645.49	1333.64
645.687	1352.63
645.884	1345.85
646.081	1228.24
646.278	1251.69
646.475	1255.56
646.672	1258.66
646.87	1290.05
647.067	1312.52
647.264	1282.3
647.461	1199.57
647.658	1186.4
647.855	1293.73
648.052	1237.93
648.249	1157.72
648.446	1220.88
648.642	1268.93
648.839	1213.91
649.036	1203.64
649.233	1172.25
649.43	1190.66
649.627	1150.75
649.824	1193.37
650.021	1141.45
650.217	1178.84
650.414	1159.08
650.611	1202.28
650.808	1224.95
651.004	1227.47
651.201	1211
651.398	1297.8
651.595	1228.83
651.791	1230.18
651.988	1273.19
652.185	1169.73
652.381	1245.49
652.578	1162.95
652.775	1219.14
652.971	1221.08
653.168	1205.19
653.364	1227.47
653.561	1146.1
653.757	1169.93
653.954	1198.41
654.15	1170.12
654.347	1264.48
654.543	1191.04
654.74	1127.88
654.936	1150.94
655.133	1183.1
655.329	1153.85
655.525	1146.48
655.722	1192.01
655.918	1106.57
656.115	1148.42
656.311	1043.8
656.507	984.51
656.704	937.24
656.9	1019.77
657.096	1013.18
657.292	1008.34
657.489	1067.63
657.685	1064.33
657.881	1032.95
658.077	1048.64
658.273	1105.21
658.47	1152.49
658.666	1101.34
658.862	1148.23
659.058	1114.9
659.254	1169.93
659.45	1130.21
659.646	1130.79
659.842	1113.16
660.038	1171.48
660.234	1109.86
660.43	1143.58
660.626	1201.12
660.822	1147.84
661.018	1190.46
661.214	1145.9
661.41	1105.21
661.606	1117.81
661.802	1189.11
661.998	1157.14
662.194	1120.13
662.39	1150.94
662.586	1148.42
662.781	1161.98
662.977	1171.48
663.173	1169.15
663.369	1136.99
663.564	1127.3
663.76	1174.38
663.956	1133.11
664.152	1163.53
664.347	1074.8
664.543	1145.9
664.739	1115.1
664.934	1055.03
665.13	1082.35
665.326	1104.05
665.521	1125.17
665.717	1073.44
665.912	1116.65
666.108	1050
666.304	1061.04
666.499	1099.02
666.695	1005.82
666.89	1104.63
667.086	1138.15
667.281	1103.28
667.477	1144.93
667.672	1092.62
667.867	1128.46
668.063	1124.01
668.258	1064.14
668.454	1070.53
668.649	1120.33
668.844	1086.62
669.04	1091.65
669.235	1087.78
669.43	1071.89
669.626	1027.52
669.821	1084.68
670.016	1056
670.211	1081.77
670.407	1035.85
670.602	1070.73
670.797	1058.91
670.992	1115.29
671.187	1034.88
671.382	1087
671.578	1032.95
671.773	1081.58
671.968	1016.28
672.163	1072.67
672.358	1061.43
672.553	1023.26
672.748	1053.87
672.943	1106.96
673.138	1057.55
673.333	1096.5
673.528	1026.17
673.723	1062.2
673.918	1046.9
674.113	1048.64
674.308	1134.28
674.503	1093.98
674.698	1080.03
674.892	1066.08
675.087	1091.27
675.282	1075.77
675.477	1003.89
675.672	1062.4
675.867	1032.56
676.061	999.62
676.256	965.52
676.451	1013.57
676.646	1034.69
676.84	1014.15
677.035	1018.22
677.23	1007.76
677.424	1074.02
677.619	1047.48
677.814	1077.51
678.008	1054.45
678.203	1005.24
678.397	1000.98
678.592	1051.74
678.787	1075.96
678.981	1008.73
679.176	1050.58
679.37	1025
679.565	1006.02
679.759	1012.41
679.954	1042.25
680.148	1088.36
680.342	1073.83
680.537	1040.5
680.731	992.07
680.926	1037.6
681.12	1060.07
681.314	975.4
681.509	1020.93
681.703	1033.72
681.897	1023.26
682.092	1019.58
682.286	1030.23
682.48	1088.17
682.674	1045.73
682.869	1004.08
683.063	1034.88
683.257	1083.13
683.451	987.03
683.645	1028.3
683.839	1028.1
684.034	1005.82
684.228	1029.07
684.422	977.54
684.616	980.25
684.81	1034.11
685.004	979.09
685.198	997.69
685.392	1023.65
685.586	986.64
685.78	1013.77
685.974	1000.98
686.168	1040.7
686.362	1048.83
686.556	968.43
686.75	915.92
686.944	903.14
687.138	919.41
687.331	783.01
687.525	853.92
687.719	779.33
687.913	850.24
688.107	810.33
688.301	826.8
688.494	857.99
688.688	798.51
688.882	792.51
689.076	777.01
689.269	845.59
689.463	947.12
689.657	826.61
689.85	858.19
690.044	855.86
690.238	833.78
690.431	850.05
690.625	838.04
690.818	867.68
691.012	860.32
691.205	899.84
691.399	862.06
691.593	877.76
691.786	940.53
691.98	918.25
692.173	968.62
692.366	924.84
692.56	967.46
692.753	1007.57
692.947	901.97
693.14	990.32
693.333	969.2
693.527	882.99
693.72	970.37
693.914	938.59
694.107	952.74
694.3	942.27
694.493	949.64
694.687	968.04
694.88	890.54
695.073	1022.1
695.266	985.29
695.46	991.1
695.653	1013.18
695.846	1016.09
696.039	936.27
696.232	1000.59
696.425	1030.62
696.618	1026.36
696.812	1045.54
697.005	1071.7
697.198	1138.15
697.391	1066.85
697.584	1080.8
697.777	1144.35
697.97	1117.03
698.163	1138.93
698.356	1115.29
698.549	1170.51
698.742	1164.31
698.935	1122.85
699.127	1134.08
699.32	1095.14
699.513	1112.38
699.706	1129.05
699.899	1169.93
700.092	1139.51
700.285	1196.86
700.477	1124.01
700.67	1165.47
700.863	1182.13
701.056	1266.41
701.248	1207.9
701.441	1227.47
701.634	1214.88
701.826	1325.51
702.019	1158.69
702.212	1279.39
702.404	1237.74
702.597	1220.69
702.79	1226.89
702.982	1296.06
703.175	1264.28
703.367	1326.09
703.56	1314.27
703.752	1415.99
703.945	1371.04
704.137	1368.32
704.33	1400.49
704.522	1380.34
704.715	1420.05
704.907	1436.91
705.1	1524.48
705.292	1475.85
705.484	1459.97
705.677	1505.5
705.869	1524.87
706.061	1546.38
706.254	1576.21
706.446	1528.17
706.638	1540.18
706.831	1633.76
707.023	1543.28
707.215	1680.84
707.407	1665.73
707.599	1651.58
707.792	1701.96
707.984	1683.55
708.176	1747.68
708.368	1707.58
708.56	1738.38
708.752	1717.84
708.944	1705.25
709.136	1751.17
709.329	1745.36
709.521	1876.33
709.713	1805.22
709.905	1847.27
710.097	1878.85
710.289	1824.79
710.481	1866.84
710.672	1876.14
710.864	1914.3
711.056	1952.08
711.248	1938.72
711.44	1943.75
711.632	1936.97
711.824	1954.8
712.016	2029.2
712.207	2070.46
712.399	2033.26
712.591	2120.64
712.783	2074.14
712.975	2109.21
713.166	2058.84
713.358	2115.8
713.55	2152.61
713.741	2178.77
713.933	2139.24
714.125	2148.74
714.316	2157.07
714.508	2226.04
714.7	2219.84
714.891	2250.65
715.083	2293.27
715.274	2235.54
715.466	2245.03
715.657	2332.02
715.849	2224.3
716.04	2279.9
716.232	2227.21
716.423	2265.18
716.615	2236.5
716.806	2185.16
716.998	2197.76
717.189	2109.99
717.381	2075.31
717.572	2057.87
717.763	2079.76
717.955	2072.98
718.146	2019.9
718.337	1968.94
718.528	1933.29
718.72	1885.63
718.911	1946.27
719.102	1921.86
719.293	1936.2
719.485	1944.33
719.676	1948.21
719.867	1884.08
720.058	1901.9
720.249	1896.87
720.44	1986.18
720.632	2004.4
720.823	2034.43
721.014	2159.01
721.205	2149.51
721.396	2213.64
721.587	2315.94
721.778	2408.75
721.969	2392.08
722.16	2450.21
722.351	2508.72
722.542	2604.82
722.733	2634.46
722.924	2533.33
723.115	2605.4
723.305	2573.24
723.496	2604.24
723.687	2523.06
723.878	2529.26
724.069	2484.5
724.26	2507.75
724.45	2475.2
724.641	2460.86
724.832	2491.48
725.023	2436.26
725.213	2543.59
725.404	2462.8
725.595	2515.89
725.785	2445.17
725.976	2527.71
726.167	2560.06
726.357	2536.81
726.548	2678.83
726.739	2593.97
726.929	2679.02
727.12	2651.12
727.31	2757.69
727.501	2639.69
727.691	2684.25
727.882	2689.1
728.072	2713.12
728.263	2669.92
728.453	2787.13
728.644	2804.96
728.834	2774.15
729.024	2761.75
729.215	2739.09
729.405	2791.4
729.596	2822.59
729.786	2854.17
729.976	2914.04
730.167	2895.25
730.357	2883.04
730.547	2882.85
730.737	2912.1
730.928	2939.03
731.118	3020.6
731.308	2938.26
731.498	2990.96
731.688	3057.99
731.879	3097.13
732.069	3110.89
732.259	3156.42
732.449	3164.75
732.639	3232.17
732.829	3243.8
733.019	3298.82
733.209	3348.61
733.399	3360.43
733.589	3428.44
733.779	3453.04
733.969	3444.52
734.159	3517.95
734.349	3583.05
734.539	3612.11
734.729	3599.32
734.919	3636.91
735.109	3664.03
735.299	3626.45
735.488	3643.5
735.678	3651.83
735.868	3622.19
736.058	3673.92
736.248	3613.66
736.437	3603.39
736.627	3602.81
736.817	3761.88
737.007	3684.57
737.196	3793.26
737.386	3737.27
737.576	3681.28
737.765	3801.6
737.955	3750.45
738.144	3907.19
738.334	3813.03
738.524	3771.37
738.713	3785.71
738.903	3774.28
739.092	3814.96
739.282	3836.28
739.471	3839.76
739.661	3837.83
739.85	3886.46
740.04	3887.04
740.229	3909.32
740.419	3936.83
740.608	3926.76
740.797	3936.83
740.987	3988.75
741.176	3986.04
741.365	3925.98
741.555	3869.79
741.744	3968.22
741.933	3957.37
742.123	4017.62
742.312	3997.47
742.501	4063.93
742.69	4068
742.88	3942.26
743.069	4112.56
743.258	4056.57
743.447	4069.74
743.636	4071.87
743.825	4035.06
744.014	4086.79
744.204	4090.86
744.393	4076.72
744.582	4123.41
744.771	4157.32
744.96	4112.17
745.149	4160.61
745.338	4108.3
745.527	4132.32
745.716	4091.25
745.905	4098.22
746.094	4171.85
746.283	4174.75
746.471	4152.28
746.66	4250.12
746.849	4192.38
747.038	4242.56
747.227	4175.53
747.416	4220.09
747.604	4119.92
747.793	4192.38
747.982	4179.4
748.171	4200.52
748.359	4189.28
748.548	4155.38
748.737	4179.79
748.926	4177.85
749.114	4118.57
749.303	4179.98
749.491	4149.57
749.68	4097.45
749.869	4187.35
750.057	4161
750.246	4128.45
750.434	4135.23
750.623	4142.2
750.811	4116.05
751	4172.43
751.188	4157.12
751.377	4142.2
751.565	4132.13
751.754	4106.17
751.942	4062.38
752.131	4189.67
752.319	4115.66
752.507	4045.52
752.696	4119.53
752.884	4151.89
753.072	4122.83
753.261	4100.16
753.449	4120.12
753.637	4047.07
753.825	4189.48
754.014	4102.87
754.202	4116.24
754.39	4179.98
754.578	4132.9
754.766	4034.09
754.955	4069.94
755.143	4158.67
755.331	4091.83
755.519	4124.38
755.707	4078.46
755.895	4090.28
756.083	4091.63
756.271	3982.17
756.459	4055.4
756.647	4089.5
756.835	4050.95
757.023	4076.33
757.211	4075.17
757.399	3972.67
757.587	3993.6
757.775	3958.53
757.963	3994.57
758.151	4024.79
758.339	3973.64
758.526	3943.42
758.714	3984.1
758.902	3864.56
759.09	3790.94
759.278	3637.68
759.465	3408.87
759.653	3101.39
759.841	2851.26
760.028	2489.35
760.216	2175.67
760.404	2056.32
760.591	1756.59
760.779	1568.08
760.967	1382.08
761.154	1239.29
761.342	1281.14
761.529	1276.1
761.717	1373.55
761.905	1367.16
762.092	1484.77
762.28	1474.3
762.467	1517.51
762.655	1399.71
762.842	1451.63
763.029	1479.73
763.217	1526.23
763.404	1519.83
763.592	1548.51
763.779	1503.75
763.966	1605.28
764.154	1633.76
764.341	1700.02
764.528	1685.49
764.716	1780.62
764.903	1779.46
765.09	1886.79
765.277	1942.2
765.465	2091.19
765.652	2174.12
765.839	2208.22
766.026	2342.87
766.213	2374.45
766.4	2399.83
766.588	2678.83
766.775	2677.86
766.962	2766.98
767.149	2830.53
767.336	2992.89
767.523	2919.08
767.71	3010.33
767.897	3177.54
768.084	3218.03
768.271	3202.72
768.458	3299.4
768.645	3388.33
768.832	3373.99
769.019	3353.07
769.206	3409.06
769.392	3517.76
769.579	3505.16
769.766	3467.19
769.953	3511.36
770.14	3562.9
770.327	3516.21
770.513	3614.05
770.7	3651.44
770.887	3514.27
771.073	3602.42
771.26	3607.85
771.447	3555.34
771.634	3479.97
771.82	3659.58
772.007	3546.62
772.193	3563.29
772.38	3600.87
772.567	3566
772.753	3550.89
772.94	3655.7
773.126	3626.45
773.313	3629.55
773.499	3577.04
773.686	3587.31
773.872	3534.42
774.059	3510.97
774.245	3494.89
774.432	3533.06
774.618	3469.71
774.804	3517.17
774.991	3478.62
775.177	3544.49
775.363	3532.67
775.55	3528.61
775.736	3435.99
775.922	3450.14
776.109	3478.04
776.295	3484.04
776.481	3514.07
776.667	3514.27
776.853	3472.81
777.04	3463.7
777.226	3478.23
777.412	3516.59
777.598	3403.44
777.784	3433.28
777.97	3386.59
778.156	3447.81
778.342	3446.65
778.528	3383.1
778.715	3289.71
778.901	3357.91
779.087	3428.44
779.272	3329.43
779.458	3322.46
779.644	3389.11
779.83	3308.12
780.016	3423.59
780.202	3320.33
780.388	3276.35
780.574	3258.52
780.76	3321.49
780.946	3332.15
781.131	3372.83
781.317	3292.62
781.503	3241.86
781.689	3242.83
781.874	3444.52
782.06	3281.97
782.246	3271.89
782.432	3231.2
782.617	3273.63
782.803	3323.62
782.989	3211.25
783.174	3247.67
783.36	3150.6
783.545	3203.3
783.731	3199.82
783.916	3110.89
784.102	3245.35
784.288	3112.24
784.473	3188.39
784.659	3143.05
784.844	3169.01
785.029	3117.09
785.215	3161.65
785.4	3100.62
785.586	3196.91
785.771	3099.84
785.956	3173.27
786.142	3093.26
786.327	3100.42
786.512	3098.29
786.698	3101.78
786.883	3050.24
787.068	3074.27
787.254	3081.05
787.439	3047.53
787.624	3046.37
787.809	3006.84
787.994	3052.96
788.18	3129.29
788.365	2961.31
788.55	3019.44
788.735	3025.25
788.92	3034.74
789.105	2966.35
789.29	3037.65
789.475	2942.91
789.66	2942.71
789.845	2923.53
790.03	2898.35
790.215	2994.83
790.4	2996.77
790.585	3030.87
790.77	2955.5
790.955	2837.9
791.14	2886.91
791.325	2942.52
791.51	2810.97
791.695	2943.49
791.879	2884.01
792.064	2811.35
792.249	2929.93
792.434	2857.66
792.618	2886.33
792.803	2925.47
792.988	2862.7
793.173	2865.99
793.357	2857.08
793.542	2809.42
793.727	2876.84
793.911	2911.13
794.096	2841.58
794.281	2915.78
794.465	2959.76
794.65	2896.6
794.834	2892.15
795.019	2939.23
795.203	2949.88
795.388	2955.31
795.572	2951.04
795.757	2883.04
795.941	2927.21
796.126	2924.11
796.31	2857.08
796.494	2919.08
796.679	2908.03
796.863	2877.42
797.048	2979.91
797.232	2941.36
797.416	2932.83
797.601	2913.07
797.785	3008.2
797.969	3005.29
798.153	2921.4
798.338	2943.68
798.522	2978.94
798.706	2994.25
798.89	2986.5
799.074	3098.1
799.258	3020.79
799.443	2974.1
799.627	2964.61
799.811	3040.94
799.995	2970.03
800.179	2913.07
800.363	2920.24
800.547	2944.26
800.731	2973.52
800.915	2903.77
801.099	2908.23
801.283	2938.06
801.467	2938.06
801.651	2911.13
801.835	2973.52
802.019	2963.64
802.202	2970.81
802.386	2884.01
802.57	2906.29
802.754	2919.08
802.938	2905.71
803.121	2902.22
803.305	3004.13
803.489	2914.43
803.673	2941.36
803.856	2987.66
804.04	2929.73
804.224	2971.78
804.407	2881.3
804.591	2910.75
804.775	2910.16
804.958	2940.97
805.142	3017.11
805.326	2903.77
805.509	2951.04
805.693	2939.42
805.876	2964.22
806.06	2948.53
806.243	2940
806.427	2997.74
806.61	2942.71
806.794	2919.66
806.977	2957.05
807.16	2938.64
807.344	2959.96
807.527	2940.97
807.71	2928.38
807.894	2921.6
808.077	2962.67
808.26	2873.16
808.444	2884.78
808.627	2941.16
808.81	2885.75
808.993	2816.78
809.177	2793.72
809.36	2857.27
809.543	2852.04
809.726	2742.19
809.909	2772.6
810.092	2779.77
810.276	2764.66
810.459	2736.76
810.642	2751.29
810.825	2702.66
811.008	2741.99
811.191	2641.82
811.374	2684.64
811.557	2700.72
811.74	2706.15
811.923	2659.84
812.106	2647.44
812.289	2578.66
812.472	2617.99
812.654	2600.75
812.837	2565.49
813.02	2569.36
813.203	2528.68
813.386	2399.64
813.569	2432
813.751	2370.77
813.934	2355.85
814.117	2365.54
814.3	2308.77
814.482	2300.44
814.665	2173.73
814.848	2215.77
815.03	2137.31
815.213	2149.71
815.396	2116.77
815.578	2098.56
815.761	2040.24
815.943	2113.86
816.126	2052.45
816.309	2000.71
816.491	1928.64
816.674	1857.54
816.856	1916.63
817.039	1919.53
817.221	1975.14
817.403	1924.77
817.586	1946.27
817.768	1961.38
817.951	1882.14
818.133	1861.02
818.315	1904.23
818.498	1933.68
818.68	1992.96
818.862	1974.36
819.045	1987.54
819.227	1979.79
819.409	1921.47
819.591	1960.03
819.774	1926.9
819.956	1924.57
820.138	1991.8
820.32	2016.6
820.502	2012.73
820.684	2099.91
820.866	2056.9
821.048	2143.89
821.231	2143.12
821.413	2163.85
821.595	2120.45
821.777	2138.47
821.959	2130.53
822.141	2192.14
822.323	2062.91
822.505	1995.68
822.686	1947.43
822.868	1879.43
823.05	1777.91
823.232	1727.92
823.414	1664.95
823.596	1743.42
823.778	1711.45
823.96	1760.47
824.141	1777.13
824.323	1789.34
824.505	1869.94
824.687	1893.77
824.868	1947.63
825.05	2019.51
825.232	2027.65
825.413	2157.65
825.595	2117.93
825.777	2025.51
825.958	2066.59
826.14	2061.94
826.321	2071.63
826.503	2035.98
826.685	2047.41
826.866	2096.23
827.048	2086.74
827.229	2036.56
827.411	1992.38
827.592	1955.38
827.773	1939.68
827.955	1873.04
828.136	1900.35
828.318	1875.17
828.499	1918.76
828.68	1852.69
828.862	1859.47
829.043	1928.64
829.224	1866.84
829.406	1817.43
829.587	1830.22
829.768	1854.05
829.949	1870.9
830.131	1834.67
830.312	1916.63
830.493	1832.93
830.674	1882.72
830.855	1889.31
831.036	1858.89
831.218	1932.13
831.399	1964.29
831.58	1875.17
831.761	1860.83
831.942	1881.37
832.123	1855.4
832.304	1772.29
832.485	1774.81
832.666	1807.74
832.847	1864.9
833.028	1852.89
833.209	1827.7
833.389	1851.34
833.57	1774.81
833.751	1817.43
833.932	1893.38
834.113	1826.15
834.294	1796.7
834.475	1840.68
834.655	1891.44
834.836	1891.25
835.017	1851.14
835.198	1807.94
835.378	1884.66
835.559	1917.02
835.74	1849.59
835.92	1849.98
836.101	1836.42
836.281	1879.24
836.462	1875.94
836.643	1928.64
836.823	1922.83
837.004	1900.16
837.184	1942.78
837.365	1957.7
837.545	1902.87
837.726	1844.36
837.906	1949.76
838.087	1945.5
838.267	1885.44
838.448	1854.63
838.628	1879.24
838.808	1894.54
838.989	1939.49
839.169	1836.61
839.349	1869.74
839.53	1917.79
839.71	1907.13
839.89	1895.51
840.07	1906.17
840.251	1844.36
840.431	1910.82
840.611	1917.02
840.791	1829.25
840.971	1865.67
841.151	1868
841.332	1870.13
841.512	1922.44
841.692	1818.2
841.872	1861.02
842.052	1840.29
842.232	1888.73
842.412	1800.96
842.592	1816.27
842.772	1862.96
842.952	1851.14
843.132	1837.58
843.312	1803.48
843.492	1791.86
843.672	1864.32
843.851	1764.92
844.031	1836.8
844.211	1822.47
844.391	1795.15
844.571	1827.5
844.751	1829.05
844.93	1826.54
845.11	1744.39
845.29	1753.3
845.47	1808.71
845.649	1790.89
845.829	1829.64
846.009	1787.98
846.188	1800.77
846.368	1770.54
846.547	1756.59
846.727	1832.35
846.907	1728.89
847.086	1827.5
847.266	1818.4
847.445	1794.96
847.625	1754.66
847.804	1737.8
847.984	1751.17
848.163	1749.62
848.343	1755.43
848.522	1769.38
848.701	1729.86
848.881	1734.12
849.06	1738.19
849.239	1723.85
849.419	1734.12
849.598	1668.63
849.777	1666.31
849.957	1668.83
850.136	1613.8
850.315	1576.21
850.494	1576.8
850.674	1584.35
850.853	1645.96
851.032	1603.53
851.211	1694.59
851.39	1654.1
851.569	1590.36
851.748	1582.22
851.927	1623.3
852.107	1643.06
852.286	1560.33
852.465	1602.76
852.644	1662.04
852.823	1647.71
853.002	1618.84
853.181	1630.85
853.359	1646.16
853.538	1558.78
853.717	1629.3
853.896	1515.38
854.075	1424.32
854.254	1437.88
854.433	1372
854.611	1387.7
854.79	1334.61
854.969	1385.76
855.148	1449.89
855.327	1319.89
855.505	1430.32
855.684	1408.24
855.863	1455.7
856.041	1433.04
856.22	1459.58
856.399	1493.87
856.577	1601.6
856.756	1554.13
856.934	1666.89
857.113	1625.81
857.291	1552
857.47	1528.75
857.648	1556.65
857.827	1549.48
858.005	1556.65
858.184	1507.43
858.362	1611.28
858.541	1520.8
858.719	1541.73
858.898	1527.39
859.076	1491.35
859.254	1583
859.433	1512.47
859.611	1505.3
859.789	1466.94
859.967	1571.37
860.146	1576.99
860.324	1454.93
860.502	1483.8
860.68	1443.5
860.859	1489.03
861.037	1440.59
861.215	1470.04
861.393	1494.45
861.571	1482.44
861.749	1438.27
861.927	1491.16
862.105	1484.96
862.283	1449.89
862.461	1464.23
862.639	1409.59
862.817	1428.97
862.995	1485.73
863.173	1424.32
863.351	1427.8
863.529	1471.78
863.707	1460.74
863.885	1473.33
864.063	1359.8
864.241	1402.42
864.418	1503.95
864.596	1391.77
864.774	1363.67
864.952	1408.43
865.129	1410.37
865.307	1401.65
865.485	1351.66
865.663	1438.46
865.84	1337.91
866.018	1344.88
866.196	1229.6
866.373	1252.66
866.551	1202.28
866.728	1137.38
866.906	1213.91
867.084	1238.51
867.261	1257.5
867.439	1287.72
867.616	1307.49
867.794	1320.08
867.971	1265.25
868.149	1321.24
868.326	1353.6
868.503	1327.83
868.681	1291.6
868.858	1291.79
869.035	1284.24
869.213	1338.49
869.39	1258.08
869.567	1375.1
869.745	1296.06
869.922	1318.14
870.099	1319.5
870.276	1317.56
870.454	1345.07
870.631	1313.3
870.808	1305.55
870.985	1320.86
871.162	1348.17
871.339	1313.49
871.517	1280.36
871.694	1245.29
871.871	1272.23
872.048	1281.33
872.225	1247.62
872.402	1301.09
872.579	1229.02
872.756	1272.42
872.933	1214.68
873.11	1254.01
873.287	1235.03
873.463	1243.36
873.64	1210.42
873.817	1269.9
873.994	1254.59
874.171	1244.13
874.348	1262.73
874.524	1171.48
874.701	1203.64
874.878	1151.91
875.055	1231.93
875.231	1189.11
875.408	1211.97
875.585	1161.98
875.762	1191.43
875.938	1204.61
876.115	1182.71
876.291	1166.25
876.468	1183.49
876.645	1135.05
876.821	1162.95
876.998	1159.27
877.174	1172.45
877.351	1135.44
877.527	1147.65
877.704	1205.96
877.88	1167.6
878.057	1134.28
878.233	1194.14
878.409	1144.93
878.586	1176.71
878.762	1153.65
878.938	1143.58
879.115	1074.02
879.291	1136.99
879.467	1091.07
879.644	1111.03
879.82	1153.65
879.996	1093.01
880.172	1068.02
880.349	1154.23
880.525	1148.61
880.701	1074.02
880.877	1082.93
881.053	1098.43
881.229	1083.13
881.405	1123.43
881.581	1082.16
881.757	1102.5
881.933	1118.97
882.109	1117.81
882.285	1103.86
882.461	1040.7
882.637	1112.77
882.813	1070.15
882.989	1088.55
883.165	1144.74
883.341	1086.03
883.517	1137.18
883.693	1076.54
883.869	1155.59
884.044	1057.17
884.22	1067.43
884.396	1141.45
884.572	1087.97
884.747	1149
884.923	1095.72
885.099	1101.92
885.275	1136.02
885.45	1078.48
885.626	1073.83
885.801	1060.46
885.977	1099.02
886.153	1031.01
886.328	1094.37
886.504	1050.19
886.679	1073.44
886.855	1035.66
887.03	1112
887.206	1123.04
887.381	1086.03
887.557	1104.44
887.732	1107.35
887.908	1134.86
888.083	1114.71
888.258	1082.16
888.434	1082.55
888.609	1074.8
888.784	1115.29
888.96	1034.69
889.135	1051.55
889.31	1038.37
889.485	1095.33
889.661	1074.22
889.836	1118.78
890.011	1106.18
890.186	1059.3
890.361	1064.14
890.537	1126.72
890.712	1089.13
890.887	1091.85
891.062	1095.53
891.237	1157.14
891.412	1060.46
891.587	1093.01
891.762	1114.51
891.937	1126.72
892.112	1045.54
892.287	1077.7
892.462	1033.92
892.637	1017.06
892.812	1009.31
892.987	996.33
893.161	984.12
893.336	1009.31
893.511	1014.73
893.686	1024.42
893.861	997.1
894.035	990.71
894.21	1025.39
894.385	986.25
894.56	1009.5
894.734	920.19
894.909	944.6
895.084	952.35
895.258	921.16
895.433	929.1
895.608	926.58
895.782	873.88
895.957	896.55
896.131	871.17
896.306	829.51
896.48	845.79
896.655	828.74
896.829	754.92
897.004	794.06
897.178	801.42
897.353	770.61
897.527	814.59
897.701	792.7
897.876	728.96
898.05	807.43
898.224	775.46
898.399	802.39
898.573	757.05
898.747	668.7
898.921	745.04
899.096	627.63
899.27	638.28
899.444	634.99
899.618	674.71
899.792	707.65
899.967	662.31
900.141	735.35
900.315	687.88
900.489	671.41
900.663	706.29
900.837	688.08
901.011	642.35
901.185	738.06
901.359	703
901.533	726.05
901.707	679.55
901.881	681.1
902.055	645.84
902.229	691.56
902.403	764.99
902.576	674.51
902.75	684.01
902.924	799.09
903.098	729.15
903.272	787.47
903.446	826.8
903.619	788.63
903.793	840.75
903.967	848.89
904.14	855.67
904.314	880.27
904.488	825.44
904.661	847.72
904.835	832.03
905.009	865.36
905.182	892.67
905.356	845.98
905.529	834.74
905.703	800.84
905.876	787.86
906.05	777.39
906.223	767.51
906.397	686.72
906.57	689.63
906.744	685.17
906.917	707.26
907.09	696.41
907.264	688.85
907.437	679.55
907.61	617.17
907.784	646.03
907.957	668.9
908.13	619.3
908.304	643.9
908.477	614.07
908.65	634.6
908.823	579.77
908.996	675.1
909.17	620.85
909.343	604.96
909.516	623.56
909.689	608.06
909.862	590.62
910.035	610.77
910.208	582.87
910.381	591.59
910.554	673.35
910.727	603.41
910.9	589.65
911.073	603.22
911.246	630.73
911.419	650.1
911.592	626.08
911.765	602.44
911.938	580.74
912.11	589.65
912.283	577.25
912.456	638.87
912.629	617.94
912.802	566.4
912.974	559.82
913.147	521.26
913.32	487.16
913.493	482.12
913.665	516.61
913.838	527.07
914.01	510.02
914.183	551.68
914.356	508.67
914.528	575.9
914.701	625.11
914.873	591.4
915.046	524.55
915.218	463.91
915.391	435.62
915.563	474.37
915.736	534.05
915.908	528.62
916.081	509.64
916.253	529.4
916.425	511.96
916.598	546.06
916.77	506.54
916.942	513.32
917.115	444.73
917.287	507.89
917.459	500.34
917.632	451.9
917.804	379.44
917.976	508.67
918.148	518.74
918.32	480.19
918.493	516.03
918.665	547.8
918.837	547.42
919.009	577.06
919.181	597.98
919.353	547.03
919.525	518.94
919.697	515.84
919.869	541.02
920.041	563.5
920.213	626.66
920.385	584.42
920.557	538.31
920.729	586.55
920.901	567.18
921.073	528.04
921.244	505.95
921.416	600.5
921.588	543.93
921.76	522.23
921.932	617.17
922.103	533.66
922.275	525.14
922.447	542.19
922.619	459.84
922.79	516.8
922.962	512.54
923.134	541.41
923.305	482.9
923.477	477.09
923.648	447.83
923.82	496.07
923.991	429.04
924.163	423.22
924.335	483.67
924.506	464.11
924.677	515.25
924.849	457.91
925.02	472.44
925.192	467.4
925.363	457.32
925.535	485.61
925.706	453.45
925.877	541.99
926.049	433.88
926.22	485.03
926.391	479.22
926.562	471.08
926.734	436.59
926.905	492.39
927.076	409.08
927.247	454.42
927.419	421.48
927.59	411.21
927.761	420.51
927.932	405.59
928.103	403.07
928.274	354.83
928.445	318.02
928.616	351.34
928.787	347.08
928.958	379.24
929.129	376.92
929.3	336.04
929.471	283.34
929.642	265.32
929.813	216.5
929.984	325.77
930.155	228.7
930.326	290.7
930.496	244.98
930.667	215.53
930.838	235.68
931.009	164.38
931.18	207.78
931.35	213.4
931.521	187.43
931.692	175.23
931.863	103.93
932.033	184.72
932.204	181.82
932.374	188.21
932.545	139.97
932.716	184.14
932.886	185.69
933.057	106.06
933.227	109.94
933.398	192.28
933.568	78.94
933.739	35.92
933.909	68.47
934.08	142.1
934.25	33.6
934.421	50.84
934.591	103.54
934.761	55.1
934.932	39.61
935.102	105.67
935.272	82.42
935.443	70.22
935.613	74.67
935.783	92.3
935.953	27.59
936.123	219.21
936.294	47.94
936.464	37.67
936.634	71.96
936.804	43.29
936.974	5.7
937.144	92.69
937.314	96.57
937.484	59.75
937.655	36.31
937.825	130.67
937.995	41.16
938.165	115.36
938.334	59.95
938.504	94.82
938.674	55.49
938.844	84.75
939.014	138.61
939.184	154.69
939.354	198.48
939.524	167.28
939.694	120.98
939.863	147.72
940.033	180.85
940.203	199.64
940.373	159.34
940.542	162.44
940.712	114.59
940.882	167.28
941.051	216.5
941.221	164.57
941.391	180.07
941.56	111.29
941.73	120.2
941.899	233.35
942.069	115.36
942.238	156.05
942.408	130.09
942.577	178.72
942.747	119.04
942.916	64.79
943.086	95.21
943.255	166.7
943.425	137.25
943.594	96.95
943.763	23.72
943.933	68.28
944.102	18.29
944.271	86.3
944.441	115.36
944.61	74.67
944.779	114.59
944.948	170.58
945.117	91.53
945.287	85.14
945.456	31.27
945.625	61.89
945.794	109.16
945.963	58.01
946.132	110.32
946.301	78.16
946.47	117.69
946.639	33.21
946.808	83.97
946.977	116.72
947.146	160.5
947.315	84.75
947.484	115.94
947.653	76.8
947.822	65.95
947.991	53.36
948.16	184.33
948.329	125.05
948.498	95.4
948.666	96.76
948.835	136.67
949.004	77.97
949.173	33.21
949.341	114.59
949.51	92.3
949.679	131.83
949.847	98.89
950.016	182.59
950.185	165.15
950.353	74.09
950.522	104.32
950.69	147.13
950.859	85.14
951.028	133.77
951.196	100.44
951.365	98.5
951.533	120.4
951.701	117.69
951.87	133.19
952.038	49.49
952.207	89.01
952.375	165.15
952.543	64.79
952.712	72.15
952.88	75.64
953.048	158.95
953.217	92.3
953.385	96.76
953.553	124.27
953.721	60.92
953.89	79.9
954.058	36.51
954.226	89.98
954.394	100.64
954.562	63.82
954.73	80.68
954.898	80.87
955.067	135.9
955.235	94.05
955.403	140.16
955.571	146.36
955.739	134.93
955.907	90.75
956.075	95.99
956.243	39.8
956.41	125.82
956.578	45.03
956.746	41.93
956.914	100.05
957.082	99.47
957.25	95.99
957.418	60.92
957.585	104.51
957.753	117.3
957.921	58.98
958.089	120.01
958.256	137.45
958.424	127.57
958.592	109.35
958.759	46.19
958.927	130.09
959.095	81.45
959.262	113.62
959.43	107.22
959.597	52.2
959.765	62.08
959.932	44.06
960.1	126.6
960.267	90.95
960.435	105.67
960.602	127.37
960.77	82.04
960.937	52.2
961.104	86.1
961.272	62.85
961.439	69.83
961.606	149.65
961.774	143.45
961.941	84.17
962.108	115.17
962.275	99.86
962.443	150.23
962.61	92.11
962.777	176
962.944	107.03
963.111	110.13
963.278	106.06
963.446	110.52
963.613	96.57
963.78	121.75
963.947	119.24
964.114	108.97
964.281	194.6
964.448	129.12
964.615	68.28
964.782	128.92
964.949	156.82
965.116	152.56
965.282	149.65
965.449	100.83
965.616	59.75
965.783	141.9
965.95	104.9
966.117	71.19
966.283	112.65
966.45	123.5
966.617	108.39
966.784	126.6
966.95	142.48
967.117	172.13
967.284	64.02
967.45	96.37
967.617	155.66
967.784	134.15
967.95	180.27
968.117	106.06
968.283	142.68
968.45	212.23
968.616	111.49
968.783	178.91
968.949	122.72
969.116	139.38
969.282	120.4
969.449	132.22
969.615	139.77
969.781	64.99
969.948	90.56
970.114	73.7
970.28	174.45
970.447	102.77
970.613	152.75
970.779	108.77
970.945	143.65
971.112	134.93
971.278	137.06
971.444	79.52
971.61	149.46
971.776	101.6
971.942	158.57
972.108	132.8
972.275	116.33
972.441	141.32
972.607	192.67
972.773	88.82
972.939	147.72
973.105	120.4
973.271	83.39
973.437	98.5
973.602	59.95
973.768	129.31
973.934	113.42
974.1	130.47
974.266	32.63
974.432	112.65
974.598	85.91
974.763	154.69
974.929	100.44
975.095	189.37
975.261	85.14
975.426	105.67
975.592	107.8
975.758	181.43
975.923	46.58
976.089	92.5
976.255	159.92
976.42	138.8
976.586	110.32
976.751	125.82
976.917	166.32
977.082	132.22
977.248	48.13
977.413	32.05
977.579	95.99
977.744	110.52
977.91	46.77
978.075	114.78
978.24	117.1
978.406	88.04
978.571	66.15
978.736	73.7
978.902	132.8
979.067	48.32
979.232	60.34
979.397	111.1
979.563	155.27
979.728	46.39
979.893	100.25
980.058	85.33
980.223	139.19
980.388	103.54
980.554	93.08
980.719	61.11
980.884	104.12
981.049	124.27
981.214	110.71
981.379	118.27
981.544	80.68
981.709	93.66
981.874	101.6
982.039	85.52
982.204	118.85
982.368	100.83
982.533	63.82
982.698	119.04
982.863	112.26
983.028	64.02
983.193	119.82
983.357	118.65
983.522	120.98
983.687	70.02
983.852	78.94
984.016	117.3
984.181	98.12
984.346	114.97
984.51	124.27
984.675	102.96
984.839	110.13
985.004	101.8
985.168	156.82
985.333	115.94
985.498	84.17
985.662	108.39
985.827	105.48
985.991	94.63
986.155	114.78
986.32	157.21
986.484	142.1
986.649	116.14
986.813	49.68
986.977	109.16
987.142	121.75
987.306	63.05
987.47	87.07
987.634	66.54
987.799	92.11
987.963	101.6
988.127	117.88
988.291	158.37
988.455	83.97
988.62	77.97
988.784	97.73
988.948	132.99
989.112	80.87
989.276	77.58
989.44	76.8
989.604	47.36
989.768	53.36
989.932	156.82
990.096	52.97
990.26	65.37
990.424	51.42
990.588	67.89
990.752	149.46
990.915	112.65
991.079	56.27
991.243	56.85
991.407	119.82
991.571	82.04
991.734	91.72
991.898	96.95
992.062	148.68
992.226	88.82
992.389	83.97
992.553	23.14
992.717	73.12
992.88	70.6
993.044	76.42
993.207	63.82
993.371	122.34
993.535	93.66
993.698	78.94
993.862	102.38
994.025	103.54
994.189	107.61
994.352	83.39
994.515	91.14
994.679	117.88
994.842	60.53
995.006	120.01
995.169	49.1
995.332	61.3
995.496	92.69
995.659	9.77
995.822	93.27
995.985	60.34
996.149	138.8
996.312	69.64
996.475	153.72
996.638	76.61
996.801	135.32
996.964	116.52
997.128	75.45
997.291	75.64
997.454	61.11
997.617	26.62
997.78	104.7
997.943	52.78
998.106	105.87
998.269	48.71
998.432	62.47
998.595	44.45
998.758	-3.6
998.92	53.55
999.083	-3.99
999.246	72.35
999.409	33.6
999.572	9.96
999.735	39.22
999.897	80.29
1000.06	57.04
1000.223	68.86
1000.386	115.36
1000.548	80.68
1000.711	70.99
1000.874	81.84
1001.036	5.51
1001.199	88.04
1001.361	42.71
1001.524	69.25
1001.687	92.89
1001.849	44.45
1002.012	73.7
1002.174	66.92
1002.337	86.88
1002.499	22.56
1002.661	59.37
1002.824	21.01
1002.986	46.39
1003.149	74.87
1003.311	28.95
1003.473	123.89
1003.636	33.99
1003.798	94.05
1003.96	94.82
1004.123	58.59
1004.285	28.56
1004.447	52.2
1004.609	45.42
1004.771	122.14
1004.933	28.76
1005.096	10.35
1005.258	18.1
1005.42	46.39
1005.582	93.66
1005.744	53.17
1005.906	13.84
1006.068	61.69
1006.23	11.51
1006.392	-3.79
1006.554	32.05
1006.716	74.87
1006.878	63.82
1007.04	3.18
1007.202	28.17
1007.363	78.74
1007.525	53.55
1007.687	70.02
1007.849	91.92
1008.011	10.16
1008.172	17.91
1008.334	34.37
1008.496	51.81
1008.658	0.66
1008.819	37.47
1008.981	19.26
1009.143	22.56
1009.304	38.25
1009.466	79.13
1009.627	99.09
1009.789	162.25
1009.95	55.3
1010.112	30.89
1010.273	51.04
1010.435	33.21
1010.596	62.27
1010.758	28.17
1010.919	19.26
1011.081	14.42
1011.242	29.53
1011.403	61.3
1011.565	63.63
1011.726	48.32
1011.887	23.52
1012.049	30.89
1012.21	37.86
1012.371	101.6
1012.532	-27.04
1012.693	29.34
1012.855	24.88
1013.016	33.99
1013.177	78.55
1013.338	14.42
1013.499	87.46
1013.66	54.33
1013.821	81.07
1013.982	27.59
1014.143	43.09
1014.304	23.72
1014.465	36.89
1014.626	64.21
1014.787	30.11
1014.948	121.17
1015.109	-25.88
1015.27	52.97
1015.431	18.1
1015.592	6.47
1015.752	96.18
1015.913	27.4
1016.074	62.27
1016.235	33.41
1016.395	37.67
1016.556	12.67
1016.717	41.93
1016.877	79.13
1017.038	-11.16
1017.199	18.87
1017.359	26.43
1017.52	34.76
1017.681	15.58
1017.841	37.28
1018.002	14.81
1018.162	10.74
1018.323	86.3
1018.483	33.21
1018.644	25.85
1018.804	-9.22
1018.964	-10.77
1019.125	-7.09
1019.285	47.94
1019.446	-18.13
1019.606	10.54
1019.766	-17.74
1019.926	40.57
1020.087	60.53
1020.247	-35.57
1020.407	49.29
1020.567	56.46
1020.728	-1.28
1020.888	-20.46
1021.048	12.29
1021.208	16.55
1021.368	11.32
1021.528	43.29
1021.688	59.17
1021.848	78.16
1022.008	41.74
1022.168	17.91
1022.328	43.29
1022.488	42.12
1022.648	-0.69
1022.808	25.07
1022.968	44.64
1023.128	8.8
1023.288	8.41
1023.448	13.06
1023.608	58.2
1023.767	52
1023.927	1.82
1024.087	-52.04
1024.247	6.09
1024.406	5.51
1024.566	-32.86
1024.726	-8.83
1024.885	3.18
1025.045	50.46
1025.205	3.18
1025.364	9.19
1025.524	32.24
1025.683	0.66
1025.843	36.51
1026.003	16.36
1026.162	68.28
1026.321	39.61
1026.481	26.24
1026.64	0.27
1026.8	19.07
1026.959	16.94
1027.119	0.27
1027.278	10.35
1027.437	-5.34
1027.597	20.42
1027.756	25.85
1027.915	36.7
1028.074	41.74
1028.234	-12.13
1028.393	43.87
1028.552	7.44
1028.711	-56.11
1028.87	52.2
1029.03	-39.44
1029.189	2.6
1029.348	-83.81
1029.507	-13.87
1029.666	8.41
1029.825	-28.98
1029.984	-3.6
1030.143	18.1
1030.302	-20.07
1030.461	-59.21
1030.62	12.48
1030.779	68.47
1030.938	-31.11
1031.097	-24.72
1031.255	36.51
1031.414	85.91
1031.573	38.44
1031.732	-64.24
1031.891	8.8
1032.049	51.81
1032.208	13.84
1032.367	-3.6
1032.525	-1.47
1032.684	11.51
1032.843	17.91
1033.001	-31.31
1033.16	176.39
1033.319	38.64
1033.477	26.62
1033.636	-10.38
1033.794	-35.96
1033.953	33.21
1034.111	31.66
1034.27	-28.01
1034.428	40.19
1034.587	-17.36
1034.745	7.64
1034.903	-8.83
1035.062	64.4
1035.22	-14.26
1035.378	29.92
1035.537	-5.54
1035.695	50.26
1035.853	4.73
1036.011	38.64
1036.17	42.32
1036.328	-24.53
1036.486	21.78
1036.644	25.07
1036.802	-93.5
1036.96	-21.43
1037.119	3.96
1037.277	-12.13
1037.435	-35.18
1037.593	-48.16
1037.751	-0.5
1037.909	31.86
1038.067	31.86
