Data from gum_old_FLMT105791__141__15-46-30-242.txt Node

Date: Mon Mar 20 15:46:30 GMT 2023
User: antho
Spectrometer: FLMT10579
Trigger mode: 0
Integration Time (sec): 1.000000E-1
Scans to average: 10
Electric dark correction enabled: true
Nonlinearity correction enabled: false
Boxcar width: 0
XAxis mode: Wavelengths
Number of Pixels in Spectrum: 3648
>>>>>Begin Spectral Data<<<<<
345.248	-194.07
345.464	-194.07
345.681	-194.07
345.898	-189.61
346.114	-208.21
346.331	-30.55
346.548	24.67
346.764	-14.47
346.981	-22.02
347.197	-16.02
347.414	14.01
347.631	-10.2
347.847	44.63
348.064	-14.08
348.28	25.45
348.497	-27.25
348.713	25.83
348.93	18.86
349.146	23.7
349.363	7.43
349.579	27.96
349.796	-10.01
350.012	-11.37
350.229	37.65
350.445	-11.56
350.661	2.58
350.878	4.71
351.094	37.65
351.311	24.86
351.527	27.19
351.743	-18.15
351.96	51.21
352.176	54.12
352.392	32.03
352.609	32.81
352.825	-26.48
353.041	20.21
353.257	8.4
353.474	19.05
353.69	29.13
353.906	10.72
354.122	0.65
354.339	72.33
354.555	6.26
354.771	-12.92
354.987	72.91
355.203	78.73
355.42	-11.17
355.636	-0.71
355.852	2
356.068	-3.62
356.284	-28.61
356.5	67.49
356.716	39.59
356.932	16.53
357.148	33.2
357.364	18.08
357.58	76.79
357.796	64.97
358.012	53.15
358.228	32.03
358.444	-49.92
358.66	66.33
358.876	37.85
359.092	0.65
359.308	25.06
359.524	48.89
359.74	11.11
359.956	0.45
360.172	27.38
360.388	54.7
360.604	-2.26
360.819	112.24
361.035	39.2
361.251	54.7
361.467	4.91
361.683	66.13
361.898	36.68
362.114	30.87
362.33	38.62
362.546	64.39
362.762	2.2
362.977	35.13
363.193	-20.67
363.409	72.91
363.624	-13.11
363.84	-1.29
364.056	25.45
364.271	35.52
364.487	43.85
364.703	1.03
364.918	4.91
365.134	26.22
365.35	53.54
365.565	114.38
365.781	43.08
365.996	73.3
366.212	87.25
366.427	48.31
366.643	22.73
366.858	44.63
367.074	-3.81
367.289	85.89
367.505	135.69
367.72	-13.89
367.936	3.75
368.151	95.58
368.367	78.92
368.582	46.95
368.798	9.95
369.013	77.76
369.228	49.86
369.444	74.85
369.659	87.64
369.874	47.92
370.09	82.02
370.305	3.75
370.52	40.17
370.736	70.98
370.951	57.03
371.166	77.37
371.381	125.81
371.597	53.54
371.812	-9.43
372.027	25.25
372.242	26.41
372.458	126
372.673	34.16
372.888	30.1
373.103	82.02
373.318	133.56
373.533	60.9
373.749	26.8
373.964	-5.94
374.179	79.69
374.394	40.56
374.609	100.43
374.824	-4.39
375.039	58.77
375.254	17.5
375.469	83.96
375.684	55.67
375.899	98.1
376.114	29.71
376.329	22.93
376.544	59.35
376.759	94.81
376.974	27.58
377.189	42.11
377.404	33.39
377.619	97.13
377.834	-1.68
378.049	-17.95
378.264	17.7
378.478	81.24
378.693	20.6
378.908	69.23
379.123	36.68
379.338	99.46
379.553	33.78
379.767	60.51
379.982	84.15
380.197	107.01
380.412	32.23
380.626	72.14
380.841	139.56
381.056	71.56
381.271	126.39
381.485	50.05
381.7	4.71
381.915	62.64
382.129	44.43
382.344	36.3
382.559	76.4
382.773	73.11
382.988	-0.71
383.202	56.64
383.417	19.25
383.632	150.02
383.846	31.06
384.061	58.77
384.275	37.85
384.49	66.91
384.704	81.63
384.919	73.69
385.133	65.55
385.348	95.39
385.562	31.84
385.777	99.84
385.991	51.21
386.206	31.45
386.42	27.77
386.634	123.09
386.849	73.49
387.063	80.08
387.277	53.35
387.492	38.81
387.706	38.62
387.92	34.16
388.135	93.45
388.349	88.41
388.563	64.39
388.778	78.73
388.992	91.32
389.206	93.26
389.42	151.19
389.635	68.84
389.849	99.07
390.063	111.08
390.277	81.05
390.491	142.08
390.706	98.49
390.92	122.13
391.134	88.8
391.348	101.78
391.562	56.06
391.776	77.18
391.99	56.25
392.205	132.01
392.419	29.13
392.633	78.14
392.847	132.98
393.061	78.92
393.275	150.41
393.489	46.18
393.703	83.96
393.917	101.39
394.131	51.6
394.345	85.7
394.559	120.96
394.773	56.83
394.986	111.47
395.2	95.39
395.414	118.83
395.628	71.75
395.842	108.37
396.056	99.07
396.27	59.16
396.484	109.34
396.697	96.74
396.911	130.26
397.125	102.36
397.339	91.71
397.553	79.31
397.766	146.34
397.98	121.16
398.194	125.23
398.408	96.16
398.621	145.57
398.835	156.22
399.049	144.79
399.262	167.66
399.476	161.84
399.69	165.33
399.903	208.15
400.117	144.6
400.331	161.84
400.544	123.09
400.758	239.15
400.971	162.23
401.185	214.16
401.398	127.16
401.612	235.08
401.826	174.82
402.039	166.69
402.253	156.42
402.466	194.39
402.68	148.86
402.893	189.74
403.106	187.81
403.32	151.96
403.533	175.21
403.747	149.83
403.96	179.09
404.174	211.06
404.387	151.57
404.6	183.93
404.814	202.92
405.027	194.59
405.24	168.43
405.454	143.44
405.667	208.15
405.88	96.55
406.094	191.1
406.307	229.07
406.52	212.99
406.733	126.78
406.947	117.48
407.16	246.7
407.373	212.8
407.586	170.17
407.799	158.55
408.012	208.54
408.226	180.83
408.439	255.42
408.652	150.41
408.865	221.91
409.078	245.15
409.291	199.04
409.504	167.46
409.717	212.41
409.93	244.57
410.143	211.06
410.357	140.73
410.57	130.07
410.783	170.56
410.996	172.5
411.209	210.28
411.421	231.01
411.634	195.75
411.847	190.32
412.06	223.65
412.273	210.09
412.486	220.74
412.699	323.62
412.912	232.37
413.125	240.7
413.338	229.46
413.55	258.14
413.763	225.01
413.976	221.91
414.189	187.81
414.402	218.81
414.615	314.13
414.827	158.74
415.04	262.4
415.253	223.07
415.466	276.93
415.678	307.74
415.891	238.37
416.104	232.56
416.316	231.4
416.529	193.62
416.742	262.01
416.954	281.39
417.167	239.73
417.38	242.64
417.592	273.05
417.805	202.53
418.017	179.86
418.23	247.09
418.442	219.97
418.655	207.18
418.868	252.52
419.08	279.06
419.293	282.55
419.505	248.45
419.718	253.29
419.93	265.11
420.142	207.37
420.355	275.19
420.567	302.12
420.78	268.79
420.992	227.14
421.205	309.48
421.417	216.29
421.629	241.86
421.842	229.07
422.054	207.76
422.266	274.6
422.479	318.59
422.691	239.92
422.903	329.43
423.115	227.14
423.328	244.77
423.54	255.04
423.752	269.95
423.964	242.44
424.177	261.82
424.389	236.24
424.601	349.2
424.813	264.34
425.025	299.79
425.238	295.14
425.45	246.32
425.662	250.39
425.874	591.38
426.086	264.92
426.298	271.7
426.51	299.79
426.722	251.16
426.934	251.74
427.146	296.11
427.358	247.29
427.57	293.59
427.782	246.51
427.994	261.43
428.206	241.09
428.418	223.07
428.63	277.12
428.842	321.49
429.054	252.71
429.266	303.28
429.478	231.21
429.69	260.85
429.902	197.11
430.114	286.62
430.325	272.67
430.537	213.77
430.749	230.62
430.961	148.09
431.173	243.22
431.384	224.62
431.596	137.43
431.808	227.33
432.02	282.55
432.231	306.57
432.443	358.88
432.655	298.24
432.867	293.98
433.078	299.02
433.29	342.03
433.502	349
433.713	335.44
433.925	310.64
434.136	367.8
434.348	268.6
434.56	236.82
434.771	388.33
434.983	243.99
435.194	277.51
435.406	301.73
435.617	368.77
435.829	375.16
436.04	356.75
436.252	368.38
436.463	387.17
436.675	384.65
436.886	352.49
437.098	362.95
437.309	411.78
437.521	348.62
437.732	364.89
437.943	330.98
438.155	358.5
438.366	284.87
438.578	408.48
438.789	328.47
439	336.22
439.211	294.75
439.423	336.8
439.634	359.85
439.845	369.35
440.057	355.98
440.268	391.82
440.479	318.2
440.69	370.12
440.902	327.5
441.113	367.41
441.324	346.1
441.535	398.02
441.746	423.01
441.957	327.5
442.168	340.28
442.38	405
442.591	390.08
442.802	333.89
443.013	363.34
443.224	392.6
443.435	368.77
443.646	388.14
443.857	377.29
444.068	364.12
444.279	364.31
444.49	485.4
444.701	411
444.912	488.5
445.123	436.77
445.334	413.33
445.545	418.95
445.756	395.7
445.967	365.47
446.178	409.26
446.388	457.11
446.599	432.12
446.81	446.46
447.021	359.08
447.232	447.04
447.443	467.19
447.653	398.22
447.864	485.4
448.075	407.71
448.286	451.11
448.496	409.45
448.707	461.96
448.918	397.05
449.129	528.22
449.339	397.25
449.55	450.53
449.761	427.28
449.971	468.16
450.182	417.98
450.393	443.75
450.603	443.16
450.814	472.81
451.024	479.2
451.235	486.37
451.446	522.79
451.656	537.13
451.867	443.55
452.077	462.15
452.288	539.84
452.498	514.27
452.709	447.04
452.919	475.33
453.13	403.45
453.34	461.18
453.55	390.08
453.761	469.51
453.971	456.15
454.182	496.83
454.392	450.91
454.602	534.81
454.813	501.48
455.023	484.63
455.233	433.09
455.444	471.06
455.654	415.65
455.864	441.61
456.075	463.51
456.285	448.98
456.495	449.75
456.705	487.73
456.916	486.76
457.126	538.49
457.336	475.13
457.546	412.55
457.756	448.78
457.967	490.44
458.177	477.85
458.387	481.53
458.597	431.35
458.807	470.29
459.017	461.18
459.227	446.85
459.437	449.17
459.647	492.96
459.857	519.5
460.068	457.5
460.278	515.04
460.488	497.99
460.698	557.09
460.908	492.57
461.117	427.08
461.327	439.68
461.537	490.83
461.747	511.94
461.957	463.7
462.167	599.71
462.377	532.68
462.587	504
462.797	551.28
463.007	496.64
463.216	517.18
463.426	563.29
463.636	550.5
463.846	468.16
464.056	491.6
464.265	537.13
464.475	454.4
464.685	507.49
464.895	546.04
465.104	512.14
465.314	520.08
465.524	520.47
465.733	494.51
465.943	576.27
466.153	558.25
466.362	570.46
466.572	533.26
466.782	517.76
466.991	513.3
467.201	573.56
467.41	454.6
467.62	541.39
467.829	537.91
468.039	548.37
468.249	521.63
468.458	505.94
468.668	580.53
468.877	574.53
469.086	600.1
469.296	571.23
469.505	544.49
469.715	612.69
469.924	579.95
470.134	596.03
470.343	629.16
470.552	534.42
470.762	581.89
470.971	503.42
471.18	561.54
471.39	562.51
471.599	515.24
471.808	615.02
472.018	560.77
472.227	614.44
472.436	643.69
472.645	624.71
472.855	588.67
473.064	657.84
473.273	647.96
473.482	617.92
473.691	659.19
473.901	653.77
474.11	586.92
474.319	723.32
474.528	636.52
474.737	701.82
474.946	630.32
475.155	670.62
475.364	699.3
475.573	677.99
475.783	686.7
475.992	678.95
476.201	717.51
476.41	687.09
476.619	648.15
476.828	666.56
477.037	661.91
477.245	653.38
477.454	707.05
477.663	699.69
477.872	685.15
478.081	767.88
478.29	663.26
478.499	802.57
478.708	748.7
478.917	790.36
479.125	711.31
479.334	758.97
479.543	723.9
479.752	743.28
479.961	735.34
480.169	767.69
480.378	722.16
480.587	871.35
480.796	770.02
481.004	792.88
481.213	784.16
481.422	787.65
481.63	816.9
481.839	816.32
482.048	858.95
482.256	830.27
482.465	837.05
482.674	845.19
482.882	848.68
483.091	897.89
483.299	846.16
483.508	864.95
483.716	850.03
483.925	832.21
484.134	773.7
484.342	810.9
484.551	861.46
484.759	852.16
484.967	872.9
485.176	872.31
485.384	874.64
485.593	908.93
485.801	883.55
486.01	838.8
486.218	816.9
486.426	747.15
486.635	765.75
486.843	763.23
487.051	783.38
487.26	774.47
487.468	826.01
487.676	857.2
487.885	813.61
488.093	855.65
488.301	876.77
488.509	870.76
488.717	930.25
488.926	905.64
489.134	881.42
489.342	864.76
489.55	882
489.758	884.71
489.967	913.78
490.175	1050.17
490.383	918.81
490.591	1015.49
490.799	922.5
491.007	983.53
491.215	960.47
491.423	955.43
491.631	951.17
491.839	971.71
492.047	979.65
492.255	894.6
492.463	879.68
492.671	886.85
492.879	1007.74
493.087	953.88
493.295	970.93
493.503	1002.71
493.711	1018.59
493.919	1040.49
494.127	1002.13
494.334	1032.16
494.542	942.64
494.75	962.6
494.958	968.03
495.166	1034.48
495.374	1049.21
495.581	1042.04
495.789	1033.12
495.997	1113.72
496.205	1029.83
496.412	1006.39
496.62	1025.57
496.828	1033.9
497.035	1002.32
497.243	1051.14
497.451	1050.95
497.658	1072.46
497.866	1029.64
498.074	1117.99
498.281	1013.75
498.489	1145.3
498.696	1044.94
498.904	987.01
499.112	996.89
499.319	1117.21
499.527	1028.67
499.734	1114.5
499.942	1003.87
500.149	1047.07
500.357	1050.76
500.564	1010.07
500.771	1067.42
500.979	996.31
501.186	1043.78
501.394	1040.29
501.601	1022.47
501.808	1061.02
502.016	1032.35
502.223	1013.75
502.43	1052.69
502.638	1049.01
502.845	1016.66
503.052	1133.68
503.26	1020.14
503.467	1130.39
503.674	1075.36
503.881	1110.82
504.089	1162.35
504.296	1123.22
504.503	1046.88
504.71	1028.67
504.917	1048.04
505.125	1059.09
505.332	1073.23
505.539	1070.91
505.746	1182.31
505.953	1141.24
506.16	1141.43
506.367	1201.88
506.574	1174.75
506.781	1181.73
506.988	1142.59
507.195	1140.07
507.402	1140.27
507.609	1171.85
507.816	1132.13
508.023	1130.19
508.23	1108.88
508.437	1074.2
508.644	1153.05
508.851	1192.19
509.058	1169.14
509.265	1150.15
509.472	1176.11
509.679	1261.94
509.885	1157.12
510.092	1148.21
510.299	1158.67
510.506	1120.12
510.713	1161.39
510.92	1174.37
511.126	1213.5
511.333	1258.65
511.54	1205.17
511.746	1233.27
511.953	1235.78
512.16	1266.98
512.367	1229.39
512.573	1210.98
512.78	1237.53
512.987	1235.98
513.193	1184.25
513.4	1129.22
513.606	1192
513.813	1240.24
514.02	1206.53
514.226	1310.76
514.433	1275.7
514.639	1187.35
514.846	1212.34
515.052	1215.05
515.259	1205.56
515.465	1242.57
515.672	1252.06
515.878	1322.58
516.085	1242.57
516.291	1285.77
516.497	1239.27
516.704	1246.44
516.91	1199.36
517.117	1163.32
517.323	1110.62
517.529	1117.99
517.736	1163.32
517.942	1144.92
518.148	1172.43
518.354	1198.39
518.561	1206.53
518.767	1203.04
518.973	1241.02
519.179	1214.67
519.386	1192.77
519.592	1205.75
519.798	1219.9
520.004	1317.93
520.21	1269.3
520.417	1307.47
520.623	1355.13
520.829	1318.71
521.035	1330.33
521.241	1381.48
521.447	1376.44
521.653	1475.26
521.859	1362.3
522.065	1406.67
522.271	1496.96
522.477	1433.99
522.683	1493.66
522.889	1435.15
523.095	1415.19
523.301	1405.12
523.507	1377.22
523.713	1424.88
523.919	1400.66
524.125	1447.36
524.331	1431.66
524.537	1547.33
524.742	1528.34
524.948	1552.37
525.154	1520.21
525.36	1641.3
525.566	1521.37
525.772	1597.32
525.977	1535.71
526.183	1549.27
526.389	1603.32
526.595	1530.28
526.8	1491.92
527.006	1468.28
527.212	1420.43
527.417	1427.4
527.623	1397.56
527.829	1466.92
528.034	1497.92
528.24	1504.32
528.446	1514.97
528.651	1608.17
528.857	1576.97
529.062	1681.6
529.268	1608.94
529.473	1645.17
529.679	1641.49
529.884	1713.37
530.09	1675.59
530.295	1694.97
530.501	1707.17
530.706	1679.85
530.912	1637.42
531.117	1683.73
531.323	1700.39
531.528	1725
531.733	1722.28
531.939	1730.42
532.144	1741.66
532.35	1727.51
532.555	1778.66
532.76	1738.56
532.966	1742.63
533.171	1700.2
533.376	1659.9
533.581	1620.57
533.787	1691.87
533.992	1748.44
534.197	1773.43
534.402	1714.53
534.607	1710.27
534.813	1863.53
535.018	1746.5
535.223	1710.85
535.428	1796.3
535.633	1789.32
535.838	1821.68
536.043	1817.03
536.249	1892.39
536.454	1811.79
536.659	1845.7
536.864	1772.66
537.069	1759.48
537.274	1770.14
537.479	1793.78
537.684	1772.66
537.889	1760.84
538.094	1878.64
538.299	1804.43
538.504	1800.17
538.708	1830.39
538.913	1866.43
539.118	1809.47
539.323	1878.83
539.528	1809.08
539.733	1783.51
539.938	1820.71
540.142	1830.78
540.347	1805.01
540.552	1742.05
540.757	1758.13
540.962	1801.72
541.166	1734.1
541.371	1742.24
541.576	1750.38
541.781	1693.03
541.985	1800.95
542.19	1748.44
542.395	1854.61
542.599	1894.91
542.804	1855
543.008	1930.76
543.213	1830.39
543.418	1796.1
543.622	1848.03
543.827	1759.68
544.031	1899.17
544.236	1890.26
544.44	1876.7
544.645	1952.65
544.849	1857.91
545.054	1922.81
545.258	1939.67
545.463	1967.57
545.667	1859.07
545.872	1929.01
546.076	1893.56
546.281	1875.15
546.485	1896.27
546.689	1899.17
546.894	1921.26
547.098	1910.22
547.302	1853.45
547.507	1898.98
547.711	1900.14
547.915	1981.71
548.119	1853.64
548.324	1843.18
548.528	1972.41
548.732	1896.85
548.936	1922.81
549.141	1939.47
549.345	1881.93
549.549	1921.65
549.753	1910.22
549.957	2004.19
550.161	2015.62
550.366	1914.09
550.57	1891.81
550.774	1920.29
550.978	1898.21
551.182	1917.19
551.386	1871.28
551.59	1913.12
551.794	1881.74
551.998	1947.81
552.202	1934.44
552.406	1898.79
552.61	1925.14
552.814	1920.1
553.018	1971.25
553.222	1907.89
553.426	1908.67
553.63	2022.79
553.833	1892.01
554.037	1875.15
554.241	1938.89
554.445	1957.11
554.649	1909.83
554.853	1875.15
555.056	1932.11
555.26	1958.85
555.464	1936.37
555.668	1979.97
555.871	1923.39
556.075	1977.64
556.279	1904.02
556.483	1871.86
556.686	1917.77
556.89	1918.55
557.094	1923.78
557.297	1799.2
557.501	1917.77
557.704	1812.57
557.908	1894.72
558.112	1835.63
558.315	1937.54
558.519	1877.28
558.722	1855.58
558.926	1844.15
559.129	1782.35
559.333	1786.61
559.536	1824.97
559.74	1750.96
559.943	1749.6
560.147	1758.71
560.35	1806.37
560.553	1742.05
560.757	1734.88
560.96	1816.64
561.164	1800.95
561.367	1872.24
561.57	1805.79
561.774	1823.23
561.977	1783.7
562.18	1778.66
562.384	1848.22
562.587	1794.16
562.79	1758.32
562.993	1767.04
563.197	1799.01
563.4	1841.05
563.603	1835.24
563.806	1873.6
564.009	1739.72
564.212	1800.36
564.416	1685.08
564.619	1766.26
564.822	1686.83
565.025	1761.42
565.228	1740.88
565.431	1743.98
565.634	1638.78
565.837	1694.38
566.04	1653.5
566.243	1645.95
566.446	1622.7
566.649	1701.17
566.852	1618.05
567.055	1686.44
567.258	1739.33
567.461	1732.75
567.664	1766.46
567.867	1600.22
568.07	1678.69
568.273	1676.17
568.475	1718.02
568.678	1632.97
568.881	1614.95
569.084	1656.41
569.287	1521.37
569.489	1619.02
569.692	1664.16
569.895	1638.2
570.098	1565.35
570.3	1564.38
570.503	1487.07
570.706	1519.62
570.909	1516.72
571.111	1488.43
571.314	1460.53
571.516	1483.59
571.719	1506.45
571.922	1489.98
572.124	1485.91
572.327	1521.76
572.529	1487.46
572.732	1459.37
572.935	1526.79
573.137	1562.05
573.34	1506.64
573.542	1539.97
573.745	1526.41
573.947	1513.42
574.15	1467.51
574.352	1440.19
574.554	1532.8
574.757	1431.66
574.959	1449.29
575.162	1460.92
575.364	1430.69
575.566	1551.4
575.769	1387.88
575.971	1444.84
576.173	1351.06
576.376	1438.44
576.578	1456.27
576.78	1496.37
576.982	1355.71
577.185	1408.03
577.387	1347
577.589	1378.19
577.791	1439.22
577.993	1451.23
578.196	1421.39
578.398	1413.45
578.6	1445.81
578.802	1346.8
579.004	1336.53
579.206	1334.79
579.408	1397.56
579.61	1336.34
579.812	1399.5
580.014	1353.78
580.216	1325.1
580.418	1340.21
580.62	1334.98
580.822	1290.23
581.024	1359.98
581.226	1388.84
581.428	1347.96
581.63	1437.86
581.832	1315.8
582.034	1375.28
582.236	1327.04
582.438	1402.79
582.64	1416.16
582.841	1416.55
583.043	1441.54
583.245	1392.14
583.447	1378.19
583.649	1377.41
583.85	1364.05
584.052	1415.78
584.254	1321.42
584.456	1406.28
584.657	1319.48
584.859	1347.77
585.061	1314.64
585.262	1334.6
585.464	1283.06
585.666	1350.48
585.867	1310.57
586.069	1352.81
586.27	1300.69
586.472	1285.96
586.674	1276.47
586.875	1284.41
587.077	1271.63
587.278	1312.51
587.48	1297.01
587.681	1409.77
587.883	1316
588.084	1232.1
588.285	1283.64
588.487	1268.33
588.688	1287.9
588.89	1214.86
589.091	1182.5
589.292	1224.16
589.494	1157.32
589.695	1148.21
589.896	1109.46
590.098	1110.04
590.299	1170.69
590.5	1117.6
590.702	1121.67
590.903	1168.55
591.104	1215.63
591.305	1197.03
591.507	1235.4
591.708	1210.6
591.909	1210.4
592.11	1297.59
592.311	1213.31
592.512	1199.17
592.714	1153.05
592.915	1169.91
593.116	1148.99
593.317	1169.33
593.518	1160.42
593.719	1164.68
593.92	1234.04
594.121	1233.27
594.322	1219.9
594.523	1195.48
594.724	1157.9
594.925	1200.52
595.126	1194.71
595.327	1182.12
595.528	1211.37
595.729	1204.59
595.929	1184.83
596.13	1197.03
596.331	1193.74
596.532	1222.8
596.733	1256.71
596.934	1226.87
597.135	1236.17
597.335	1216.02
597.536	1128.64
597.737	1161.77
597.938	1153.44
598.138	1180.95
598.339	1177.27
598.54	1204.4
598.74	1179.4
598.941	1191.03
599.142	1246.83
599.342	1209.82
599.543	1155.19
599.744	1182.89
599.944	1185.02
600.145	1167.78
600.345	1191.61
600.546	1262.52
600.746	1210.98
600.947	1257.48
601.147	1171.85
601.348	1225.52
601.548	1136.78
601.749	1156.35
601.949	1111.2
602.15	1135.04
602.35	1160.42
602.551	1176.11
602.751	1111.01
602.951	1137.55
603.152	1080.79
603.352	1179.02
603.552	1125.15
603.753	1183.28
603.953	1186.38
604.153	1162.55
604.354	1176.5
604.554	1152.28
604.754	1164.68
604.954	1116.82
605.155	1169.72
605.355	1105.97
605.555	1186.19
605.755	1205.75
605.955	1148.4
606.155	1188.51
606.356	1162.55
606.556	1176.3
606.756	1168.94
606.956	1084.86
607.156	1175.34
607.356	1124.96
607.556	1121.09
607.756	1154.99
607.956	1198.2
608.156	1136
608.356	1125.35
608.556	1157.7
608.756	1123.22
608.956	1089.31
609.156	1134.45
609.356	1085.44
609.556	1108.3
609.755	1134.07
609.955	1068.77
610.155	1114.89
610.355	1123.99
610.555	1087.37
610.755	1094.93
610.954	1035.45
611.154	1129.03
611.354	1112.75
611.554	1074.78
611.753	1091.06
611.953	1027.51
612.153	1107.72
612.352	1095.12
612.552	1009.29
612.752	980.62
612.951	1034.48
613.151	1038.55
613.351	1016.46
613.55	1069.16
613.75	1071.68
613.949	1052.11
614.149	1045.14
614.348	1052.11
614.548	996.31
614.747	972.68
614.947	1015.3
615.146	961.63
615.346	1042.23
615.545	1053.08
615.745	1039.71
615.944	1062.38
616.144	1047.07
616.343	1040.49
616.542	1015.3
616.742	1004.26
616.941	993.99
617.14	931.6
617.34	990.31
617.539	1018.21
617.738	959.31
617.938	1041.84
618.137	971.71
618.336	950.2
618.535	1025.76
618.734	1003.09
618.934	1050.95
619.133	990.89
619.332	1003.29
619.531	978.29
619.73	978.68
619.929	1029.06
620.128	1013.17
620.328	1040.87
620.527	973.64
620.726	962.99
620.925	995.73
621.124	956.21
621.323	1010.65
621.522	966.86
621.721	945.55
621.92	946.13
622.119	993.79
622.318	959.11
622.517	979.65
622.715	974.03
622.914	910.48
623.113	947.88
623.312	880.06
623.511	958.73
623.71	951.56
623.909	916.3
624.107	999.61
624.306	892.66
624.505	916.1
624.704	929.08
624.902	905.25
625.101	989.14
625.3	953.49
625.499	906.03
625.697	898.28
625.896	917.07
626.095	929.86
626.293	850.81
626.492	917.46
626.69	944.39
626.889	898.47
627.088	940.13
627.286	884.91
627.485	892.46
627.683	871.73
627.882	943.81
628.08	858.95
628.279	889.17
628.477	984.49
628.676	859.14
628.874	916.3
629.073	861.85
629.271	828.72
629.469	931.8
629.668	879.29
629.866	880.06
630.065	848.48
630.263	911.84
630.461	894.21
630.66	882.58
630.858	898.66
631.056	951.17
631.254	918.04
631.453	851.2
631.651	898.08
631.849	873.67
632.047	869.8
632.245	865.73
632.444	867.08
632.642	910.29
632.84	890.53
633.038	852.75
633.236	825.82
633.434	834.92
633.632	830.27
633.83	842.09
634.028	902.93
634.227	877.55
634.425	916.1
634.623	883.94
634.821	847.71
635.019	829.3
635.216	814.19
635.414	897.11
635.612	860.11
635.81	831.82
636.008	915.71
636.206	847.32
636.404	864.95
636.602	825.23
636.8	868.44
636.997	865.15
637.195	897.89
637.393	842.87
637.591	883.16
637.789	874.06
637.986	863.79
638.184	861.46
638.382	890.33
638.58	904.86
638.777	918.43
638.975	854.49
639.173	869.6
639.37	878.9
639.568	858.36
639.765	873.67
639.963	823.68
640.161	894.98
640.358	870.38
640.556	788.23
640.753	791.13
640.951	811.28
641.148	823.3
641.346	812.83
641.543	775.63
641.741	868.83
641.938	764.78
642.136	791.52
642.333	780.09
642.531	837.83
642.728	873.09
642.925	793.27
643.123	798.69
643.32	832.21
643.517	785.52
643.715	820.39
643.912	782.8
644.109	791.91
644.306	822.13
644.504	755.87
644.701	805.08
644.898	877.55
645.095	763.82
645.293	785.32
645.49	832.6
645.687	790.55
645.884	841.7
646.081	755.49
646.278	751.03
646.475	746.38
646.672	762.27
646.87	812.45
647.067	781.45
647.264	778.54
647.461	722.35
647.658	708.99
647.855	774.67
648.052	715.38
648.249	683.02
648.446	767.88
648.642	736.5
648.839	722.16
649.036	714.22
649.233	697.17
649.43	699.3
649.627	692.9
649.824	732.04
650.021	687.09
650.217	706.66
650.414	706.47
650.611	737.85
650.808	731.27
651.004	755.49
651.201	745.41
651.398	788.81
651.595	740.57
651.791	718.29
651.988	755.29
652.185	697.55
652.381	756.84
652.578	678.95
652.775	742.7
652.971	724.49
653.168	697.55
653.364	749.29
653.561	653.96
653.757	730.49
653.954	739.79
654.15	686.7
654.347	776.41
654.543	694.26
654.74	665.39
654.936	683.22
655.133	710.92
655.329	714.02
655.525	694.65
655.722	699.3
655.918	629.55
656.115	712.28
656.311	608.62
656.507	600.29
656.704	550.89
656.9	606.49
657.096	585.37
657.292	595.45
657.489	654.93
657.685	651.06
657.881	643.31
658.077	648.73
658.273	664.81
658.47	728.75
658.666	671.79
658.862	686.51
659.058	657.26
659.254	691.94
659.45	648.34
659.646	678.76
659.842	704.72
660.038	717.32
660.234	659.19
660.43	705.89
660.626	782.8
660.822	738.44
661.018	701.24
661.214	675.66
661.41	643.5
661.606	725.84
661.802	709.18
661.998	685.74
662.194	655.51
662.39	693.68
662.586	695.04
662.781	726.81
662.977	689.61
663.173	732.43
663.369	690
663.564	687.09
663.76	744.64
663.956	641.95
664.152	730.88
664.347	630.91
664.543	701.24
664.739	651.44
664.934	597.97
665.13	643.11
665.326	730.1
665.521	680.31
665.717	643.69
665.912	637.69
666.108	581.5
666.304	627.03
666.499	689.61
666.695	577.82
666.89	636.72
667.086	685.93
667.281	671.01
667.477	720.22
667.672	644.08
667.867	655.51
668.063	706.27
668.258	639.04
668.454	664.62
668.649	759.36
668.844	688.64
669.04	689.03
669.235	648.73
669.43	637.88
669.626	594.09
669.821	650.86
670.016	611.72
670.211	646.6
670.407	596.42
670.602	660.36
670.797	658.42
670.992	688.45
671.187	641.76
671.382	681.09
671.578	628.39
671.773	662.1
671.968	630.52
672.163	678.57
672.358	677.79
672.553	595.64
672.748	614.82
672.943	738.63
673.138	633.23
673.333	677.02
673.528	622.57
673.723	655.32
673.918	640.21
674.113	575.69
674.308	727.2
674.503	658.61
674.698	667.91
674.892	666.36
675.087	677.99
675.282	669.07
675.477	621.99
675.672	676.05
675.867	615.02
676.061	585.76
676.256	572.59
676.451	610.17
676.646	642.34
676.84	594.87
677.035	598.94
677.23	580.14
677.424	648.34
677.619	690.77
677.814	657.84
678.008	661.91
678.203	577.04
678.397	599.52
678.592	631.1
678.787	708.21
678.981	609.21
679.176	666.56
679.37	609.98
679.565	595.64
679.759	600.49
679.954	644.08
680.148	692.32
680.342	672.17
680.537	648.73
680.731	616.76
680.926	658.03
681.12	675.66
681.314	608.04
681.509	631.87
681.703	638.27
681.897	658.81
682.092	619.09
682.286	596.81
682.48	695.81
682.674	648.15
682.869	634.59
683.063	614.82
683.257	706.47
683.451	593.12
683.645	628.77
683.839	616.18
684.034	612.89
684.228	670.82
684.422	594.29
684.616	588.28
684.81	617.73
685.004	605.72
685.198	592.35
685.392	657.45
685.586	594.29
685.78	623.35
685.974	629.94
686.168	642.14
686.362	693.29
686.556	575.49
686.75	571.43
686.944	566.58
687.138	569.49
687.331	489.08
687.525	534.61
687.719	471.65
687.913	551.47
688.107	543.33
688.301	488.31
688.494	583.44
688.688	519.89
688.882	498.96
689.076	489.86
689.269	554.38
689.463	605.91
689.657	529.19
689.85	514.85
690.044	535.97
690.238	534.03
690.431	514.85
690.625	525.31
690.818	534.61
691.012	592.74
691.205	582.47
691.399	525.7
691.593	555.54
691.786	618.7
691.98	621.8
692.173	634.39
692.366	616.76
692.56	634.78
692.753	686.51
692.947	565.61
693.14	665.97
693.333	665.2
693.527	553.02
693.72	635.56
693.914	605.52
694.107	601.84
694.3	646.99
694.493	602.04
694.687	655.71
694.88	614.05
695.073	693.1
695.266	651.83
695.46	637.3
695.653	702.98
695.846	714.6
696.039	634.59
696.232	632.46
696.425	704.34
696.618	710.73
696.812	715.96
697.005	758.2
697.198	832.02
697.391	738.44
697.584	782.8
697.777	826.01
697.97	784.16
698.163	804.12
698.356	816.13
698.549	880.65
698.742	847.13
698.935	828.92
699.127	846.74
699.32	799.08
699.513	830.08
699.706	861.46
699.899	869.8
700.092	864.56
700.285	899.05
700.477	835.12
700.67	923.66
700.863	929.47
701.056	1018.59
701.248	987.79
701.441	997.48
701.634	992.44
701.826	1082.92
702.019	941.87
702.212	1019.18
702.404	943.61
702.597	977.91
702.79	1007.55
702.982	1054.44
703.175	1040.87
703.367	1089.89
703.56	1114.89
703.752	1185.02
703.945	1136.97
704.137	1137.94
704.33	1180.76
704.522	1176.5
704.715	1232.1
704.907	1239.85
705.1	1233.27
705.292	1257.29
705.484	1235.98
705.677	1282.09
705.869	1289.84
706.061	1325.88
706.254	1373.15
706.446	1292.36
706.638	1323.55
706.831	1383.42
707.023	1341.96
707.215	1447.36
707.407	1425.08
707.599	1453.75
707.792	1521.37
707.984	1464.41
708.176	1544.81
708.368	1480.87
708.56	1526.79
708.752	1489.98
708.944	1510.13
709.136	1589.76
709.329	1544.04
709.521	1716.67
709.713	1659.32
709.905	1669
710.097	1667.07
710.289	1645.75
710.481	1687.6
710.672	1712.21
710.864	1698.84
711.056	1788.93
711.248	1748.44
711.44	1767.23
711.632	1778.86
711.824	1809.08
712.016	1865.08
712.207	1878.06
712.399	1852.29
712.591	1943.54
712.783	1901.11
712.975	1923.78
713.166	1917.58
713.358	1917.97
713.55	2015.23
713.741	2015.42
713.933	1981.52
714.125	2009.42
714.316	1988.3
714.508	2103
714.7	2081.3
714.891	2084.59
715.083	2177.01
715.274	2105.9
715.466	2143.49
715.657	2184.56
715.849	2069.28
716.04	2138.84
716.232	2057.47
716.423	2173.91
716.615	2098.54
716.806	2100.48
716.998	2063.28
717.189	2002.05
717.381	1971.64
717.572	1948.19
717.763	1963.89
717.955	1924.56
718.146	1939.09
718.337	1865.08
718.528	1888.71
718.72	1805.6
718.911	1853.26
719.102	1813.34
719.293	1854.23
719.485	1893.56
719.676	1867.4
719.867	1828.46
720.058	1802.11
720.249	1818.19
720.44	1858.1
720.632	1893.36
720.823	1961.56
721.014	2071.61
721.205	2031.12
721.396	2165.38
721.587	2238.04
721.778	2290.16
721.969	2293.45
722.16	2401.95
722.351	2349.64
722.542	2510.25
722.733	2527.88
722.924	2443.41
723.115	2517.81
723.305	2492.62
723.496	2498.05
723.687	2411.83
723.878	2402.34
724.069	2428.69
724.26	2397.88
724.45	2387.42
724.641	2376.37
724.832	2419.39
725.023	2419.19
725.213	2408.73
725.404	2400.4
725.595	2366.49
725.785	2393.04
725.976	2468.99
726.167	2442.25
726.357	2441.67
726.548	2618.17
726.739	2456.97
726.929	2574.19
727.12	2576.9
727.31	2629.8
727.501	2591.24
727.691	2606.74
727.882	2603.45
728.072	2644.33
728.263	2626.89
728.453	2684.63
728.644	2710.39
728.834	2729.19
729.024	2652.66
729.215	2678.43
729.405	2641.81
729.596	2758.25
729.786	2767.16
729.976	2797.19
730.167	2809.4
730.357	2797.58
730.547	2758.44
730.737	2820.64
730.928	2896.97
731.118	2892.71
731.308	2893.68
731.498	2895.81
731.688	2955.1
731.879	2988.03
732.069	3017.1
732.259	3038.02
732.449	3064.37
732.639	3156.79
732.829	3178.49
733.019	3154.66
733.209	3281.95
733.399	3284.66
733.589	3285.44
733.779	3338.14
733.969	3323.22
734.159	3423.58
734.349	3444.89
734.539	3495.85
734.729	3482.09
734.919	3528.2
735.109	3589.23
735.299	3518.71
735.488	3557.07
735.678	3564.63
735.868	3528.98
736.058	3515.22
736.248	3535.18
736.437	3470.08
736.627	3506.11
736.817	3656.66
737.007	3615.58
737.196	3676.22
737.386	3641.35
737.576	3558.43
737.765	3676.81
737.955	3639.41
738.144	3777.94
738.334	3686.11
738.524	3626.43
738.713	3692.69
738.903	3646.77
739.092	3724.66
739.282	3691.72
739.471	3740.74
739.661	3698.89
739.85	3808.17
740.04	3772.52
740.229	3801
740.419	3844.01
740.608	3841.3
740.797	3858.15
740.987	3889.93
741.176	3875.98
741.365	3801.39
741.555	3800.42
741.744	3883.73
741.933	3836.07
742.123	3888.57
742.312	3925.96
742.501	3958.32
742.69	3960.84
742.88	3813.01
743.069	4010.05
743.258	3939.91
743.447	3998.04
743.636	4015.48
743.825	3946.5
744.014	3985.64
744.204	4012.57
744.393	3934.49
744.582	4052.68
744.771	4076.31
744.96	3995.71
745.149	4021.29
745.338	3997.65
745.527	4067.79
745.716	4034.66
745.905	3991.64
746.094	4060.43
746.283	4057.71
746.471	4043.96
746.66	4116.22
746.849	4112.74
747.038	4139.47
747.227	4067.4
747.416	4111.77
747.604	4021.29
747.793	4071.47
747.982	4055.58
748.171	4088.91
748.359	4063.53
748.548	4121.07
748.737	4113.32
748.926	4063.91
749.114	3998.23
749.303	4096.66
749.491	4097.82
749.68	3962.2
749.869	4103.82
750.057	4024.78
750.246	4024.58
750.434	4030.2
750.623	4038.14
750.811	3993.19
751	4079.22
751.188	4026.33
751.377	4056.74
751.565	4000.36
751.754	4007.53
751.942	3972.46
752.131	4046.67
752.319	3971.3
752.507	3955.8
752.696	4029.62
752.884	4024.19
753.072	4012.96
753.261	4033.11
753.449	4013.34
753.637	3998.81
753.825	4115.64
754.014	4030.59
754.202	4011.21
754.39	4073.41
754.578	4012.96
754.766	4009.66
754.955	3914.92
755.143	4056.55
755.331	3962
755.519	3995.13
755.707	3962.39
755.895	4006.56
756.083	3979.05
756.271	3912.4
756.459	3943.79
756.647	4007.92
756.835	3937.78
757.023	3902.72
757.211	3901.55
757.399	3923.06
757.587	3944.76
757.775	3880.24
757.963	3892.83
758.151	3882.95
758.339	3845.56
758.526	3881.6
758.714	3919.76
758.902	3747.14
759.09	3745.2
759.278	3558.23
759.465	3298.42
759.653	2997.72
759.841	2762.9
760.028	2407.18
760.216	2129.93
760.404	2087.11
760.591	1766.26
760.779	1525.05
760.967	1397.56
761.154	1234.23
761.342	1242.18
761.529	1233.07
761.717	1324.33
761.905	1333.05
762.092	1417.13
762.28	1422.75
762.467	1447.16
762.655	1362.88
762.842	1419.46
763.029	1465.18
763.217	1470.99
763.404	1489.59
763.592	1523.31
763.779	1482.62
763.966	1532.02
764.154	1587.24
764.341	1638.97
764.528	1650.02
764.716	1683.73
764.903	1780.21
765.09	1792.81
765.277	1835.63
765.465	2065.41
765.652	2055.14
765.839	2165.58
766.026	2270.98
766.213	2320.77
766.4	2394.39
766.588	2582.91
766.775	2557.53
766.962	2698.38
767.149	2769.68
767.336	2924.87
767.523	2839.62
767.71	2980.28
767.897	3110.87
768.084	3125.4
768.271	3195.73
768.458	3252.5
768.645	3312.17
768.832	3224.02
769.019	3254.82
769.206	3330.39
769.392	3375.53
769.579	3466.2
769.766	3394.9
769.953	3392.38
770.14	3459.81
770.327	3426.48
770.513	3459.81
770.7	3556.88
770.887	3462.72
771.073	3488.1
771.26	3489.45
771.447	3470.46
771.634	3494.68
771.82	3557.46
772.007	3411.57
772.193	3489.65
772.38	3483.25
772.567	3478.41
772.753	3476.28
772.94	3527.43
773.126	3529.75
773.313	3536.73
773.499	3494.49
773.686	3532.27
773.872	3406.33
774.059	3472.98
774.245	3419.51
774.432	3433.85
774.618	3364.29
774.804	3420.67
774.991	3380.37
775.177	3456.9
775.363	3411.95
775.55	3434.82
775.736	3325.93
775.922	3396.26
776.109	3401.1
776.295	3381.34
776.481	3421.83
776.667	3427.65
776.853	3398.58
777.04	3327.09
777.226	3364.87
777.412	3434.04
777.598	3355.38
777.784	3367.2
777.97	3306.36
778.156	3366.81
778.342	3303.07
778.528	3284.86
778.715	3266.45
778.901	3281.37
779.087	3278.66
779.272	3252.31
779.458	3264.51
779.644	3300.55
779.83	3290.67
780.016	3347.05
780.202	3290.28
780.388	3240.29
780.574	3174.81
780.76	3192.05
780.946	3283.11
781.131	3210.65
781.317	3211.62
781.503	3167.64
781.689	3160.08
781.874	3322.05
782.06	3177.33
782.246	3232.74
782.432	3166.86
782.617	3185.85
782.803	3236.81
782.989	3137.61
783.174	3179.46
783.36	3115.71
783.545	3144.78
783.731	3123.08
783.916	3020.97
784.102	3087.23
784.288	3047.51
784.473	3116.68
784.659	3087.43
784.844	3125.01
785.029	3050.61
785.215	3082.78
785.4	3005.28
785.586	3114.36
785.771	2973.89
785.956	3083.36
786.142	3031.05
786.327	3027.37
786.512	3038.6
786.698	3045
786.883	2959.17
787.068	2973.12
787.254	2988.62
787.439	2964.59
787.624	2990.94
787.809	2993.65
787.994	2942.5
788.18	3007.99
788.365	2881.86
788.55	2960.91
788.735	2908.4
788.92	2911.31
789.105	2962.27
789.29	2925.26
789.475	2848.92
789.66	2915.77
789.845	2872.56
790.03	2821.61
790.215	2886.9
790.4	2903.56
790.585	2922.74
790.77	2845.44
790.955	2783.44
791.14	2861.71
791.325	2885.93
791.51	2749.34
791.695	2844.27
791.879	2795.45
792.064	2760.96
792.249	2894.26
792.434	2847.57
792.618	2818.89
792.803	2871.01
792.988	2814.44
793.173	2803.39
793.357	2864.23
793.542	2755.54
793.727	2826.84
793.911	2820.25
794.096	2801.46
794.281	2860.35
794.465	2886.51
794.65	2795.45
794.834	2821.41
795.019	2838.07
795.203	2887.09
795.388	2880.89
795.572	2901.62
795.757	2869.46
795.941	2898.72
796.126	2859.77
796.31	2801.65
796.494	2850.67
796.679	2766.97
796.863	2808.62
797.048	2887.48
797.232	2889.61
797.416	2845.63
797.601	2862.49
797.785	2931.65
797.969	2909.95
798.153	2816.96
798.338	2908.4
798.522	2913.25
798.706	2928.17
798.89	2942.12
799.074	3006.25
799.258	2939.79
799.443	2865.78
799.627	2883.41
799.811	2932.43
799.995	2909.76
800.179	2841.56
800.363	2826.45
800.547	2900.46
800.731	2954.13
800.915	2813.27
801.099	2828.77
801.283	2889.03
801.467	2875.85
801.651	2844.47
801.835	2943.67
802.019	2900.85
802.202	2871.59
802.386	2843.11
802.57	2859.19
802.754	2817.54
802.938	2842.34
803.121	2836.14
803.305	2929.52
803.489	2893.87
803.673	2920.22
803.856	2887.67
804.04	2859.19
804.224	2877.99
804.407	2832.84
804.591	2830.32
804.775	2835.17
804.958	2844.66
805.142	2908.99
805.326	2852.8
805.509	2868.88
805.693	2896.39
805.876	2893.87
806.06	2913.44
806.243	2922.16
806.427	2928.94
806.61	2939.02
806.794	2892.9
806.977	2933.01
807.16	2885.93
807.344	2902.4
807.527	2896.59
807.71	2849.31
807.894	2845.44
808.077	2874.69
808.26	2812.5
808.444	2808.43
808.627	2886.32
808.81	2818.89
808.993	2720.86
809.177	2728.41
809.36	2783.63
809.543	2815.41
809.726	2745.66
809.909	2735.78
810.092	2693.15
810.276	2700.32
810.459	2676.3
810.642	2693.54
810.825	2637.93
811.008	2699.93
811.191	2569.93
811.374	2613.52
811.557	2638.13
811.74	2643.75
811.923	2580
812.106	2586.4
812.289	2534.67
812.472	2568.57
812.654	2576.9
812.837	2536.41
813.02	2452.52
813.203	2464.72
813.386	2354.87
813.569	2354.09
813.751	2272.14
813.934	2344.6
814.117	2313.6
814.3	2237.85
814.482	2207.43
814.665	2177.01
814.848	2139.42
815.03	2078.97
815.213	2134.77
815.396	2068.9
815.578	2048.94
815.761	2040.8
815.943	2092.73
816.126	1996.63
816.309	1983.45
816.491	1885.42
816.674	1831.94
816.856	1890.46
817.039	1873.79
817.221	1978.42
817.403	1914.09
817.586	1887.94
817.768	1968.92
817.951	1838.92
818.133	1840.47
818.315	1857.13
818.498	1903.05
818.68	1958.27
818.862	1898.4
819.045	1945.87
819.227	1934.82
819.409	1921.26
819.591	1956.72
819.774	1905.57
819.956	1887.74
820.138	1929.79
820.32	1910.41
820.502	1944.51
820.684	2046.42
820.866	2049.52
821.048	2082.07
821.231	2090.6
821.413	2102.22
821.595	2099.7
821.777	2117.53
821.959	2093.7
822.141	2183.79
822.323	2006.7
822.505	1957.11
822.686	1942.19
822.868	1846.28
823.05	1743.98
823.232	1736.23
823.414	1614.37
823.596	1720.15
823.778	1689.73
823.96	1720.73
824.141	1702.91
824.323	1756
824.505	1796.3
824.687	1865.46
824.868	1901.11
825.05	1993.72
825.232	2041
825.413	2108.03
825.595	2021.43
825.777	1957.88
825.958	2016.97
826.14	2041.39
826.321	2046.04
826.503	1993.53
826.685	2038.48
826.866	2065.41
827.048	2048.75
827.229	1974.93
827.411	2016.78
827.592	1904.79
827.773	1911.19
827.955	1860.23
828.136	1870.69
828.318	1828.26
828.499	1861.2
828.68	1790.48
828.862	1869.14
829.043	1846.67
829.224	1847.64
829.406	1780.99
829.587	1787
829.768	1824.58
829.949	1820.51
830.131	1816.83
830.312	1889.29
830.493	1816.83
830.674	1847.44
830.855	1810.83
831.036	1793.2
831.218	1859.26
831.399	1893.17
831.58	1830.01
831.761	1849.77
831.942	1849.19
832.123	1817.8
832.304	1756.58
832.485	1811.79
832.666	1799.2
832.847	1853.64
833.028	1806.37
833.209	1810.24
833.389	1801.72
833.57	1750.38
833.751	1776.53
833.932	1836.01
834.113	1789.13
834.294	1779.83
834.475	1834.27
834.655	1833.69
834.836	1853.64
835.017	1843.38
835.198	1792.03
835.378	1835.04
835.559	1872.44
835.74	1812.18
835.92	1817.61
836.101	1799.78
836.281	1847.44
836.462	1852.48
836.643	1862.75
836.823	1885.81
837.004	1860.81
837.184	1909.83
837.365	1880.19
837.545	1913.32
837.726	1825.94
837.906	1898.21
838.087	1872.44
838.267	1870.69
838.448	1834.66
838.628	1844.93
838.808	1850.93
838.989	1924.17
839.169	1810.24
839.349	1892.98
839.53	1917
839.71	1877.09
839.89	1807.73
840.07	1913.32
840.251	1837.95
840.431	1876.31
840.611	1834.27
840.791	1843.76
840.971	1848.61
841.151	1827.29
841.332	1809.86
841.512	1865.27
841.692	1780.41
841.872	1844.73
842.052	1851.32
842.232	1863.33
842.412	1776.73
842.592	1793
842.772	1856.16
842.952	1814.31
843.132	1773.43
843.312	1773.82
843.492	1755.22
843.672	1824.97
843.851	1720.15
844.031	1730.03
844.211	1768.98
844.391	1767.04
844.571	1771.69
844.751	1796.88
844.93	1765.3
845.11	1729.84
845.29	1802.5
845.47	1794.16
845.649	1751.93
845.829	1762
846.009	1743.4
846.188	1786.41
846.368	1745.15
846.547	1729.26
846.727	1798.23
846.907	1684.89
847.086	1743.21
847.266	1776.15
847.445	1724.61
847.625	1700.39
847.804	1681.6
847.984	1721.31
848.163	1663.38
848.343	1699.62
848.522	1730.42
848.701	1708.92
848.881	1703.68
849.06	1704.27
849.239	1707.17
849.419	1717.25
849.598	1644.59
849.777	1651.37
849.957	1627.15
850.136	1556.63
850.315	1541.71
850.494	1546.75
850.674	1560.7
850.853	1643.23
851.032	1562.05
851.211	1660.09
851.39	1606.04
851.569	1561.86
851.748	1578.72
851.927	1625.8
852.107	1585.89
852.286	1577.75
852.465	1524.27
852.644	1622.7
852.823	1590.54
853.002	1585.5
853.181	1539.39
853.359	1587.24
853.538	1520.98
853.717	1608.17
853.896	1501.02
854.075	1457.82
854.254	1408.99
854.433	1331.3
854.611	1396.4
854.79	1307.47
854.969	1370.83
855.148	1440.96
855.327	1372.57
855.505	1418.1
855.684	1409.38
855.863	1442.71
856.041	1394.27
856.22	1460.72
856.399	1454.33
856.577	1546.94
856.756	1517.88
856.934	1630.25
857.113	1655.05
857.291	1522.72
857.47	1491.72
857.648	1505.29
857.827	1530.86
858.005	1569.03
858.184	1461.31
858.362	1574.07
858.541	1516.52
858.719	1501.99
858.898	1498.12
859.076	1497.34
859.254	1546.55
859.433	1479.13
859.611	1492.5
859.789	1433.02
859.967	1518.07
860.146	1570
860.324	1433.41
860.502	1453.94
860.68	1419.26
860.859	1442.32
861.037	1457.04
861.215	1483.97
861.393	1470.41
861.571	1449.49
861.749	1393.49
861.927	1472.35
862.105	1448.33
862.283	1421.59
862.461	1394.08
862.639	1423.72
862.817	1424.49
862.995	1431.28
863.173	1408.61
863.351	1420.62
863.529	1411.9
863.707	1464.79
863.885	1430.5
864.063	1318.32
864.241	1372.96
864.418	1461.5
864.596	1363.27
864.774	1338.08
864.952	1400.47
865.129	1398.92
865.307	1340.99
865.485	1299.91
865.663	1403.38
865.84	1255.93
866.018	1367.92
866.196	1180.18
866.373	1240.43
866.551	1197.62
866.728	1137.17
866.906	1189.29
867.084	1227.26
867.261	1245.08
867.439	1235.4
867.616	1293.13
867.794	1281.7
867.971	1285.96
868.149	1291.58
868.326	1334.98
868.503	1304.37
868.681	1298.17
868.858	1277.44
869.035	1268.72
869.213	1285.96
869.39	1290.61
869.567	1346.8
869.745	1279.38
869.922	1287.51
870.099	1307.47
870.276	1313.67
870.454	1303.4
870.631	1297.01
870.808	1300.88
870.985	1326.65
871.162	1338.28
871.339	1293.52
871.517	1188.9
871.694	1226.29
871.871	1249.93
872.048	1252.83
872.225	1248.77
872.402	1262.72
872.579	1208.27
872.756	1236.37
872.933	1239.27
873.11	1213.12
873.287	1233.07
873.463	1227.07
873.64	1200.52
873.817	1276.08
873.994	1239.85
874.171	1149.18
874.348	1209.82
874.524	1145.89
874.701	1188.51
874.878	1111.79
875.055	1198
875.231	1164.49
875.408	1224.74
875.585	1133.87
875.762	1190.25
875.938	1169.14
876.115	1164.49
876.291	1169.52
876.468	1150.92
876.645	1120.7
876.821	1138.72
876.998	1158.87
877.174	1175.14
877.351	1154.6
877.527	1137.94
877.704	1147.05
877.88	1163.32
878.057	1111.98
878.233	1167.2
878.409	1130.58
878.586	1175.92
878.762	1106.75
878.938	1132.52
879.115	1028.09
879.291	1116.63
879.467	1039.13
879.644	1079.82
879.82	1120.89
879.996	1072.26
880.172	1036.03
880.349	1121.86
880.525	1113.34
880.701	1065.48
880.877	1066.26
881.053	1098.42
881.229	1071.87
881.405	1140.07
881.581	1057.73
881.757	1049.59
881.933	1103.65
882.109	1090.09
882.285	1070.13
882.461	989.34
882.637	1068.39
882.813	1021.11
882.989	1060.06
883.165	1122.05
883.341	1065.29
883.517	1066.64
883.693	1090.47
883.869	1104.62
884.044	1056.76
884.22	1059.28
884.396	1130
884.572	1079.62
884.747	1144.14
884.923	1083.31
885.099	1087.18
885.275	1136.39
885.45	1047.07
885.626	1046.11
885.801	1035.06
885.977	1070.13
886.153	991.66
886.328	1106.36
886.504	1030.02
886.679	1076.72
886.855	1044.17
887.03	1083.31
887.206	1068.77
887.381	1076.52
887.557	1134.07
887.732	1104.62
887.908	1091.06
888.083	1077.49
888.258	1082.14
888.434	1039.32
888.609	1092.41
888.784	1114.3
888.96	1063.93
889.135	1027.7
889.31	1031.77
889.485	1081.56
889.661	1050.76
889.836	1102.29
890.011	1084.47
890.186	1068
890.361	1058.12
890.537	1068.97
890.712	1110.43
890.887	1079.82
891.062	1077.11
891.237	1121.67
891.412	1052.89
891.587	1083.31
891.762	1090.28
891.937	1128.45
892.112	1026.15
892.287	1066.64
892.462	1020.53
892.637	993.99
892.812	1001.54
892.987	992.44
893.161	988.18
893.336	1006.97
893.511	979.07
893.686	1009.49
893.861	965.51
894.035	994.96
894.21	997.09
894.385	935.86
894.56	1017.82
894.734	928.89
894.909	914.94
895.084	959.11
895.258	893.82
895.433	951.75
895.608	891.3
895.782	830.08
895.957	896.53
896.131	902.93
896.306	801.6
896.48	809.15
896.655	816.13
896.829	789.97
897.004	768.85
897.178	742.12
897.353	746.96
897.527	811.87
897.701	775.05
897.876	728.55
898.05	810.32
898.224	811.67
898.399	828.14
898.573	766.53
898.747	697.55
898.921	725.65
899.096	636.91
899.27	642.14
899.444	648.73
899.618	660.16
899.792	669.85
899.967	694.84
900.141	765.95
900.315	657.84
900.489	675.47
900.663	688.64
900.837	685.15
901.011	613.08
901.185	720.8
901.359	695.62
901.533	692.13
901.707	714.41
901.881	700.65
902.055	591.57
902.229	661.13
902.403	735.53
902.576	681.86
902.75	696.59
902.924	823.3
903.098	739.4
903.272	777.96
903.446	783.19
903.619	778.35
903.793	825.04
903.967	803.73
904.14	832.02
904.314	842.48
904.488	808.96
904.661	853.91
904.835	770.4
905.009	850.61
905.182	894.4
905.356	864.56
905.529	819.03
905.703	800.24
905.876	810.9
906.05	809.73
906.223	742.89
906.397	718.87
906.57	660.16
906.744	649.31
906.917	665.97
907.09	714.99
907.264	707.05
907.437	660.94
907.61	619.09
907.784	627.81
907.957	658.61
908.13	616.96
908.304	639.24
908.477	592.74
908.65	636.72
908.823	577.63
908.996	689.61
909.17	609.98
909.343	605.14
909.516	604.17
909.689	614.82
909.862	573.94
910.035	604.56
910.208	555.54
910.381	584.41
910.554	684.96
910.727	623.35
910.9	566.39
911.073	566.58
911.246	642.92
911.419	651.25
911.592	646.99
911.765	575.11
911.938	581.11
912.11	594.67
912.283	623.93
912.456	603.39
912.629	613.08
912.802	570.84
912.974	566.58
913.147	515.43
913.32	436.58
913.493	486.56
913.665	520.28
913.838	527.83
914.01	514.66
914.183	506.91
914.356	518.34
914.528	561.54
914.701	586.15
914.873	576.85
915.046	556.7
915.218	505.74
915.391	445.88
915.563	470.1
915.736	496.44
915.908	548.76
916.081	512.72
916.253	505.94
916.425	545.85
916.598	523.96
916.77	540.23
916.942	488.7
917.115	450.91
917.287	519.89
917.459	496.25
917.632	425.34
917.804	435.03
917.976	518.34
918.148	512.91
918.32	484.05
918.493	516.4
918.665	548.76
918.837	522.99
919.009	585.37
919.181	556.51
919.353	567.16
919.525	526.67
919.697	508.65
919.869	522.02
920.041	577.24
920.213	650.86
920.385	580.14
920.557	526.09
920.729	550.89
920.901	549.34
921.073	515.63
921.244	534.61
921.416	553.41
921.588	507.29
921.76	539.84
921.932	586.73
922.103	499.74
922.275	497.22
922.447	533.84
922.619	459.83
922.79	515.82
922.962	504.19
923.134	538.29
923.305	471.45
923.477	435.8
923.648	479.98
923.82	498.96
923.991	452.27
924.163	427.47
924.335	470.1
924.506	446.85
924.677	490.05
924.849	421.66
925.02	456.92
925.192	497.03
925.363	455.95
925.535	473.39
925.706	426.7
925.877	484.24
926.049	429.8
926.22	467.58
926.391	460.8
926.562	494.9
926.734	436.58
926.905	483.46
927.076	376.52
927.247	449.75
927.419	404.03
927.59	398.41
927.761	412.16
927.932	370.32
928.103	406.74
928.274	329.05
928.445	331.18
928.616	364.31
928.787	344.16
928.958	402.67
929.129	378.07
929.3	356.37
929.471	305.6
929.642	272.09
929.813	219.97
929.984	309.48
930.155	242.83
930.326	277.51
930.496	258.52
930.667	209.12
930.838	232.37
931.009	205.44
931.18	202.34
931.35	230.82
931.521	241.86
931.692	183.35
931.863	146.34
932.033	192.46
932.204	202.34
932.374	172.31
932.545	120.19
932.716	165.72
932.886	185.09
933.057	75.43
933.227	116.89
933.398	202.53
933.568	83.76
933.739	41.91
933.909	48.7
934.08	114.96
934.25	32.03
934.421	63.61
934.591	130.46
934.761	51.99
934.932	42.88
935.102	98.49
935.272	54.7
935.443	107.4
935.613	74.08
935.783	110.31
935.953	62.06
936.123	231.01
936.294	39.01
936.464	45.6
936.634	121.74
936.804	36.3
936.974	8.59
937.144	90.35
937.314	87.06
937.484	75.82
937.655	50.83
937.825	141.69
937.995	68.07
938.165	101.01
938.334	74.46
938.504	100.62
938.674	88.61
938.844	78.92
939.014	146.15
939.184	138.59
939.354	219.39
939.524	184.32
939.694	141.5
939.863	111.66
940.033	184.9
940.203	213.77
940.373	157
940.542	193.81
940.712	159.91
940.882	153.12
941.051	175.21
941.221	187.42
941.391	190.71
941.56	112.44
941.73	110.5
941.899	245.54
942.069	121.93
942.238	164.36
942.408	127.94
942.577	129.29
942.747	145.18
942.916	60.51
943.086	89.38
943.255	189.36
943.425	127.74
943.594	79.11
943.763	37.07
943.933	71.17
944.102	58.19
944.271	101.98
944.441	88.03
944.61	105.85
944.779	82.6
944.948	186.06
945.117	72.53
945.287	82.21
945.456	50.63
945.625	68.46
945.794	94.81
945.963	67.49
946.132	117.28
946.301	82.21
946.47	140.53
946.639	58.19
946.808	77.18
946.977	113.21
947.146	140.53
947.315	76.21
947.484	119.03
947.653	79.5
947.822	78.73
947.991	67.68
948.16	172.31
948.329	138.01
948.498	131.81
948.666	89.96
948.835	139.95
949.004	39.59
949.173	69.62
949.341	82.79
949.51	114.57
949.679	135.88
949.847	126
950.016	168.43
950.185	161.07
950.353	64.97
950.522	96.55
950.69	155.64
950.859	107.59
951.028	155.64
951.196	121.74
951.365	81.24
951.533	97.91
951.701	126.58
951.87	132.39
952.038	54.7
952.207	96.36
952.375	177.34
952.543	88.8
952.712	105.85
952.88	69.23
953.048	147.12
953.217	107.21
953.385	103.91
953.553	151.38
953.721	66.71
953.89	112.05
954.058	39.78
954.226	47.53
954.394	101.59
954.562	46.95
954.73	85.12
954.898	87.83
955.067	126.39
955.235	60.9
955.403	124.64
955.571	166.3
955.739	141.31
955.907	71.36
956.075	79.11
956.243	44.24
956.41	95.58
956.578	53.15
956.746	45.21
956.914	71.94
957.082	123.87
957.25	139.18
957.418	63.81
957.585	88.41
957.753	160.1
957.921	72.72
958.089	80.28
958.256	108.76
958.424	106.63
958.592	88.61
958.759	61.29
958.927	114.18
959.095	82.6
959.262	74.08
959.43	68.84
959.597	55.28
959.765	88.8
959.932	66.13
960.1	120.77
960.267	128.33
960.435	79.69
960.602	127.16
960.77	81.63
960.937	60.71
961.104	94.61
961.272	73.88
961.439	79.5
961.606	121.74
961.774	151.19
961.941	75.43
962.108	101.78
962.275	104.49
962.443	150.22
962.61	140.53
962.777	184.71
962.944	108.95
963.111	124.06
963.278	113.41
963.446	100.43
963.613	104.69
963.78	115.93
963.947	135.3
964.114	91.9
964.281	198.66
964.448	120.38
964.615	104.69
964.782	121.74
964.949	148.47
965.116	136.27
965.282	165.91
965.449	88.22
965.616	43.27
965.783	144.41
965.95	114.96
966.117	55.09
966.283	125.23
966.45	128.33
966.617	128.13
966.784	153.71
966.95	147.31
967.117	144.6
967.284	83.76
967.45	79.31
967.617	154.67
967.784	144.21
967.95	174.24
968.117	116.89
968.283	149.64
968.45	230.82
968.616	145.96
968.783	183.16
968.949	155.45
969.116	134.33
969.282	105.46
969.449	147.12
969.615	126
969.781	80.08
969.948	117.28
970.114	98.68
970.28	178.12
970.447	109.92
970.613	184.12
970.779	98.68
970.945	143.63
971.112	147.51
971.278	123.68
971.444	102.36
971.61	163.97
971.776	88.22
971.942	145.38
972.108	163.2
972.275	115.54
972.441	137.43
972.607	214.54
972.773	94.61
972.939	127.74
973.105	135.11
973.271	71.94
973.437	92.87
973.602	87.25
973.768	137.43
973.934	84.15
974.1	140.73
974.266	52.96
974.432	128.71
974.598	88.03
974.763	127.74
974.929	108.37
975.095	174.63
975.261	74.27
975.426	92.48
975.592	132.98
975.758	173.66
975.923	51.8
976.089	64.97
976.255	150.61
976.42	139.18
976.586	136.46
976.751	137.63
976.917	198.27
977.082	153.12
977.248	67.68
977.413	28.35
977.579	105.27
977.744	125.61
977.91	70.2
978.075	77.95
978.24	136.85
978.406	97.33
978.571	101.78
978.736	74.66
978.902	136.46
979.067	84.15
979.232	45.6
979.397	113.41
979.563	169.4
979.728	76.98
979.893	103.72
980.058	87.83
980.223	139.76
980.388	101.39
980.554	85.51
980.719	88.8
980.884	92.09
981.049	130.07
981.214	86.67
981.379	92.48
981.544	76.4
981.709	112.63
981.874	100.04
982.039	105.46
982.204	135.11
982.368	100.62
982.533	89.58
982.698	106.82
982.863	131.04
983.028	87.06
983.193	113.99
983.357	89.19
983.522	97.71
983.687	76.59
983.852	68.26
984.016	84.93
984.181	114.38
984.346	114.96
984.51	138.4
984.675	130.26
984.839	146.73
985.004	87.25
985.168	133.56
985.333	95
985.498	79.31
985.662	114.76
985.827	86.09
985.991	60.32
986.155	70.98
986.32	143.44
986.484	128.13
986.649	126.19
986.813	44.05
986.977	89.19
987.142	119.22
987.306	46.37
987.47	81.05
987.634	77.56
987.799	88.61
987.963	127.36
988.127	100.81
988.291	173.66
988.455	96.55
988.62	104.3
988.784	116.51
988.948	122.71
989.112	64.97
989.276	111.08
989.44	96.94
989.604	71.36
989.768	76.79
989.932	177.54
990.096	45.79
990.26	62.26
990.424	83.96
990.588	101.78
990.752	172.11
990.915	135.69
991.079	91.9
991.243	61.48
991.407	110.89
991.571	91.32
991.734	95
991.898	111.86
992.062	187.42
992.226	94.61
992.389	72.72
992.553	32.81
992.717	56.06
992.88	70.2
993.044	83.96
993.207	72.33
993.371	132.39
993.535	89.58
993.698	52.76
993.862	109.14
994.025	145.96
994.189	77.76
994.352	82.02
994.515	107.59
994.679	133.94
994.842	69.62
995.006	127.16
995.169	59.16
995.332	48.7
995.496	140.14
995.659	46.56
995.822	82.6
995.985	88.03
996.149	139.95
996.312	73.88
996.475	150.99
996.638	81.44
996.801	124.45
996.964	154.09
997.128	61.87
997.291	88.22
997.454	79.11
997.617	26.61
997.78	116.51
997.943	19.83
998.106	84.15
998.269	53.54
998.432	57.41
998.595	99.84
998.758	36.88
998.92	60.9
999.083	6.46
999.246	68.07
999.409	13.43
999.572	16.53
999.735	50.44
999.897	87.83
1000.06	60.71
1000.223	77.95
1000.386	87.44
1000.548	100.81
1000.711	73.88
1000.874	84.34
1001.036	-2.45
1001.199	81.44
1001.361	51.21
1001.524	60.51
1001.687	106.43
1001.849	57.22
1002.012	68.26
1002.174	76.98
1002.337	76.4
1002.499	65.55
1002.661	77.56
1002.824	33.2
1002.986	34.75
1003.149	61.68
1003.311	39.4
1003.473	120.19
1003.636	40.75
1003.798	68.65
1003.96	76.01
1004.123	74.27
1004.285	28.93
1004.447	34.55
1004.609	45.21
1004.771	116.12
1004.933	24.67
1005.096	21.57
1005.258	-1.68
1005.42	30.48
1005.582	101.98
1005.744	65.55
1005.906	13.43
1006.068	55.09
1006.23	-0.52
1006.392	0.65
1006.554	11.88
1006.716	98.88
1006.878	67.88
1007.04	1.42
1007.202	55.09
1007.363	16.53
1007.525	50.44
1007.687	65.36
1007.849	106.04
1008.011	-26.29
1008.172	9.75
1008.334	34.55
1008.496	75.43
1008.658	5.88
1008.819	2
1008.981	-10.4
1009.143	13.43
1009.304	46.37
1009.466	76.79
1009.627	86.48
1009.789	149.44
1009.95	70.59
1010.112	18.86
1010.273	55.28
1010.435	28.55
1010.596	28.35
1010.758	29.13
1010.919	50.25
1011.081	-4.78
1011.242	50.25
1011.403	40.75
1011.565	48.11
1011.726	33.2
1011.887	-12.14
1012.049	39.4
1012.21	57.41
1012.371	105.46
1012.532	-22.6
1012.693	23.12
1012.855	51.02
1013.016	58.19
1013.177	71.94
1013.338	30.68
1013.499	101.98
1013.66	79.31
1013.821	50.05
1013.982	61.87
1014.143	58.38
1014.304	30.48
1014.465	59.35
1014.626	52.18
1014.787	23.12
1014.948	130.84
1015.109	-34.23
1015.27	98.49
1015.431	27
1015.592	6.07
1015.752	102.94
1015.913	20.8
1016.074	33.78
1016.235	62.26
1016.395	52.57
1016.556	42.88
1016.717	17.5
1016.877	68.46
1017.038	21.38
1017.199	43.46
1017.359	56.64
1017.52	16.15
1017.681	19.05
1017.841	58.77
1018.002	19.25
1018.162	34.16
1018.323	95
1018.483	57.61
1018.644	39.2
1018.804	-6.33
1018.964	-1.1
1019.125	41.53
1019.285	43.27
1019.446	-0.71
1019.606	-16.4
1019.766	-24.35
1019.926	55.48
1020.087	59.54
1020.247	-30.74
1020.407	38.81
1020.567	89.77
1020.728	5.1
1020.888	-1.68
1021.048	13.43
1021.208	-4.97
1021.368	-10.2
1021.528	55.48
1021.688	46.56
1021.848	45.98
1022.008	56.64
1022.168	38.04
1022.328	19.25
1022.488	59.93
1022.648	0.45
1022.808	12.08
1022.968	20.21
1023.128	-39.27
1023.288	3.75
1023.448	17.5
1023.608	64
1023.767	44.82
1023.927	-8.07
1024.087	-5.36
1024.247	-30.74
1024.406	8.78
1024.566	-25.12
1024.726	-22.41
1024.885	45.01
1025.045	56.45
1025.205	33.78
1025.364	28.74
1025.524	32.61
1025.683	17.5
1025.843	27.96
1026.003	28.55
1026.162	93.45
1026.321	77.37
1026.481	42.11
1026.64	12.66
1026.8	26.22
1026.959	27.58
1027.119	32.42
1027.278	-1.87
1027.437	0.84
1027.597	53.15
1027.756	33.39
1027.915	40.95
1028.074	58.19
1028.234	-12.53
1028.393	17.7
1028.552	-4.39
1028.711	-73.56
1028.87	62.45
1029.03	7.23
1029.189	11.69
1029.348	-46.82
1029.507	30.1
1029.666	11.69
1029.825	-29.19
1029.984	-2.26
1030.143	37.07
1030.302	3.94
1030.461	-32.68
1030.62	7.43
1030.779	40.56
1030.938	-8.85
1031.097	-20.28
1031.255	41.53
1031.414	83.57
1031.573	77.95
1031.732	-40.04
1031.891	13.24
1032.049	76.21
1032.208	27.77
1032.367	2.58
1032.525	5.1
1032.684	20.99
1032.843	10.14
1033.001	-50.7
1033.16	175.99
1033.319	40.17
1033.477	32.42
1033.636	-3.23
1033.794	-5.55
1033.953	40.56
1034.111	49.47
1034.27	-8.65
1034.428	33.58
1034.587	-9.43
1034.745	9.95
1034.903	5.68
1035.062	29.32
1035.22	-18.73
1035.378	37.85
1035.537	-19.12
1035.695	38.81
1035.853	4.91
1036.011	41.72
1036.17	21.18
1036.328	-48.95
1036.486	18.28
1036.644	-0.71
1036.802	-70.65
1036.96	-14.85
1037.119	-2.07
1037.277	-8.46
1037.435	-25.9
1037.593	-9.62
1037.751	29.13
1037.909	22.93
1038.067	22.93
