Data from gum_old_FLMT105791__111__15-46-00-253.txt Node

Date: Mon Mar 20 15:46:00 GMT 2023
User: antho
Spectrometer: FLMT10579
Trigger mode: 0
Integration Time (sec): 1.000000E-1
Scans to average: 10
Electric dark correction enabled: true
Nonlinearity correction enabled: false
Boxcar width: 0
XAxis mode: Wavelengths
Number of Pixels in Spectrum: 3648
>>>>>Begin Spectral Data<<<<<
345.248	-194.91
345.464	-194.91
345.681	-194.91
345.898	-184.64
346.114	-167.2
346.331	-35.65
346.548	17.82
346.764	-10.85
346.981	12.98
347.197	-29.06
347.414	18.99
347.631	-24.99
347.847	41.46
348.064	17.44
348.28	27.71
348.497	-39.52
348.713	3.68
348.93	37.59
349.146	38.75
349.363	7.36
349.579	8.72
349.796	6.97
350.012	12.4
350.229	56.77
350.445	19.37
350.661	-25.57
350.878	15.11
351.094	38.94
351.311	37.59
351.527	35.26
351.743	-18.99
351.96	47.08
352.176	47.47
352.392	51.73
352.609	26.16
352.825	-0.19
353.041	11.82
353.257	24.61
353.474	12.01
353.69	32.16
353.906	-3.68
354.122	-22.09
354.339	71.3
354.555	19.96
354.771	0.97
354.987	76.92
355.203	79.24
355.42	0.58
355.636	-4.65
355.852	22.86
356.068	5.23
356.284	17.63
356.5	85.25
356.716	43.4
356.932	14.34
357.148	43.01
357.364	23.83
357.58	57.16
357.796	66.84
358.012	61.42
358.228	43.79
358.444	-36.04
358.66	69.94
358.876	34.68
359.092	-10.66
359.308	15.69
359.524	42.62
359.74	18.6
359.956	15.31
360.172	9.88
360.388	63.94
360.604	24.02
360.819	132.72
361.035	57.35
361.251	46.69
361.467	-9.3
361.683	63.94
361.898	38.17
362.114	62.77
362.33	44.17
362.546	62.77
362.762	36.62
362.977	24.02
363.193	14.72
363.409	63.74
363.624	-6.97
363.84	-1.94
364.056	0.58
364.271	42.24
364.487	56.57
364.703	-1.36
364.918	10.46
365.134	25.77
365.35	34.87
365.565	123.8
365.781	43.98
365.996	50.76
366.212	70.14
366.427	44.76
366.643	28.48
366.858	22.67
367.074	6.78
367.289	129.81
367.505	152.67
367.72	3.29
367.936	18.02
368.151	82.34
368.367	61.81
368.582	55.61
368.798	10.66
369.013	83.51
369.228	21.89
369.444	47.08
369.659	76.14
369.874	57.35
370.09	103.85
370.305	-12.4
370.52	2.91
370.736	95.13
370.951	48.82
371.166	90.87
371.381	103.85
371.597	70.14
371.812	25.77
372.027	36.42
372.242	37.97
372.458	133.1
372.673	23.25
372.888	41.85
373.103	71.11
373.318	158.68
373.533	76.92
373.749	68.78
373.964	-8.72
374.179	100.94
374.394	7.56
374.609	82.15
374.824	-4.26
375.039	76.34
375.254	18.6
375.469	88.74
375.684	66.07
375.899	107.14
376.114	50.76
376.329	64.91
376.544	93.97
376.759	77.69
376.974	-1.74
377.189	26.16
377.404	26.54
377.619	70.33
377.834	14.14
378.049	15.89
378.264	10.07
378.478	68.39
378.693	29.26
378.908	89.7
379.123	52.51
379.338	93
379.553	70.52
379.767	54.64
379.982	100.55
380.197	84.67
380.412	51.15
380.626	62.77
380.841	145.5
381.056	97.45
381.271	134.27
381.485	71.3
381.7	19.96
381.915	75.37
382.129	61.42
382.344	44.76
382.559	41.66
382.773	89.51
382.988	1.16
383.202	80.41
383.417	13.17
383.632	144.15
383.846	40.49
384.061	67.81
384.275	62.39
384.49	55.02
384.704	74.79
384.919	72.85
385.133	68.39
385.348	111.21
385.562	31.97
385.777	137.95
385.991	95.32
386.206	57.74
386.42	38.56
386.634	116.83
386.849	86.8
387.063	74.21
387.277	60.64
387.492	56.96
387.706	45.34
387.92	50.57
388.135	117.6
388.349	65.29
388.563	75.37
388.778	99
388.992	125.35
389.206	120.9
389.42	135.04
389.635	93.97
389.849	112.37
390.063	116.05
390.277	117.8
390.491	145.31
390.706	139.69
390.92	135.62
391.134	102.69
391.348	125.16
391.562	61.03
391.776	91.25
391.99	81.96
392.205	116.44
392.419	74.79
392.633	77.31
392.847	140.66
393.061	57.74
393.275	169.53
393.489	61.03
393.703	74.59
393.917	123.61
394.131	42.82
394.345	90.87
394.559	107.92
394.773	67.23
394.986	89.9
395.2	83.51
395.414	142.79
395.628	83.89
395.842	135.43
396.056	122.45
396.27	39.52
396.484	116.64
396.697	98.81
396.911	151.7
397.125	115.86
397.339	98.23
397.553	96.49
397.766	157.52
397.98	142.4
398.194	170.11
398.408	134.46
398.621	148.02
398.835	165.65
399.049	185.03
399.262	205.76
399.476	215.64
399.69	204.6
399.903	243.93
400.117	174.57
400.331	225.52
400.544	140.85
400.758	299.53
400.971	197.62
401.185	227.46
401.398	158.29
401.612	255.36
401.826	218.74
402.039	213.9
402.253	148.41
402.466	222.03
402.68	159.07
402.893	238.5
403.106	200.72
403.32	178.25
403.533	213.9
403.747	173.99
403.96	199.37
404.174	221.45
404.387	156.94
404.6	234.82
404.814	248.19
405.027	188.9
405.24	201.69
405.454	182.12
405.667	253.23
405.88	162.36
406.094	210.02
406.307	253.23
406.52	226.3
406.733	188.32
406.947	158.29
407.16	298.37
407.373	263.88
407.586	203.05
407.799	152.48
408.012	235.98
408.226	226.68
408.439	283.45
408.652	180.18
408.865	263.88
409.078	272.99
409.291	227.85
409.504	206.34
409.717	258.46
409.93	290.62
410.143	231.72
410.357	186.58
410.57	172.82
410.783	206.73
410.996	229.98
411.209	247.8
411.421	257.88
411.634	251.29
411.847	226.49
412.06	254
412.273	261.17
412.486	256.91
412.699	359.4
412.912	252.07
413.125	278.8
413.338	257.1
413.55	280.74
413.763	267.95
413.976	276.48
414.189	232.88
414.402	246.45
414.615	302.83
414.827	227.46
415.04	289.85
415.253	290.04
415.466	318.52
415.678	331.89
415.891	275.51
416.104	285.78
416.316	244.7
416.529	251.29
416.742	300.89
416.954	327.43
417.167	288.68
417.38	277.64
417.592	308.45
417.805	231.72
418.017	232.3
418.23	310.96
418.442	266.4
418.655	272.6
418.868	281.32
419.08	331.7
419.293	335.38
419.505	287.33
419.718	302.05
419.93	295.85
420.142	276.48
420.355	344.48
420.567	312.32
420.78	296.05
420.992	289.26
421.205	345.26
421.417	250.52
421.629	293.72
421.842	273.96
422.054	255.55
422.266	291.59
422.479	367.54
422.691	269.11
422.903	328.6
423.115	260.4
423.328	308.25
423.54	279.38
423.752	291.4
423.964	294.3
424.177	290.62
424.389	297.98
424.601	402.8
424.813	309.8
425.025	336.73
425.238	317.75
425.45	283.26
425.662	316.97
425.874	607.4
426.086	305.73
426.298	329.76
426.51	337.31
426.722	319.1
426.934	291.4
427.146	339.06
427.358	289.26
427.57	335.96
427.782	303.8
427.994	288.49
428.206	287.71
428.418	256.72
428.63	346.61
428.842	364.05
429.054	319.88
429.266	345.84
429.478	257.3
429.69	315.23
429.902	248
430.114	321.23
430.325	319.1
430.537	260.4
430.749	261.37
430.961	209.44
431.173	238.89
431.384	271.63
431.596	191.62
431.808	286.75
432.02	313.68
432.231	367.93
432.443	399.31
432.655	384.59
432.867	325.88
433.078	354.94
433.29	400.48
433.502	378.39
433.713	386.91
433.925	378.39
434.136	407.26
434.348	323.75
434.56	285.97
434.771	428.76
434.983	290.81
435.194	321.81
435.406	350.29
435.617	388.85
435.829	450.66
436.04	406.09
436.252	405.13
436.463	456.86
436.675	425.47
436.886	418.69
437.098	441.74
437.309	468.67
437.521	433.99
437.732	395.63
437.943	409.78
438.155	398.34
438.366	323.56
438.578	448.91
438.789	395.63
439	392.73
439.211	357.27
439.423	387.49
439.634	417.14
439.845	443.68
440.057	416.56
440.268	446.59
440.479	409.97
440.69	438.84
440.902	396.21
441.113	402.8
441.324	429.93
441.535	447.75
441.746	481.85
441.957	387.88
442.168	420.04
442.38	465.57
442.591	481.46
442.802	440.77
443.013	398.15
443.224	484.56
443.435	414.81
443.646	424.69
443.857	465.77
444.068	419.46
444.279	409
444.49	526.8
444.701	472.55
444.912	571.75
445.123	504.71
445.334	468.48
445.545	476.81
445.756	462.67
445.967	437.29
446.178	475.26
446.388	492.7
446.599	495.99
446.81	472.36
447.021	425.66
447.232	517.31
447.443	505.29
447.653	466.35
447.864	534.94
448.075	519.44
448.286	528.93
448.496	522.34
448.707	527.57
448.918	492.51
449.129	564.97
449.339	487.27
449.55	567.1
449.761	491.54
449.971	541.33
450.182	489.99
450.393	542.1
450.603	501.42
450.814	549.27
451.024	558.77
451.235	589.38
451.446	606.43
451.656	577.56
451.867	516.34
452.077	532.61
452.288	598.87
452.498	589.38
452.709	494.44
452.919	548.69
453.13	489.02
453.34	534.55
453.55	484.95
453.761	541.91
453.971	534.55
454.182	566.13
454.392	542.1
454.602	621.93
454.813	536.49
455.023	550.63
455.233	503.55
455.444	529.51
455.654	448.14
455.864	514.4
456.075	532.42
456.285	512.27
456.495	553.34
456.705	564.97
456.916	607.79
457.126	589.38
457.336	556.83
457.546	458.79
457.756	501.22
457.967	631.62
458.177	542.88
458.387	575.82
458.597	520.99
458.807	542.1
459.017	536.29
459.227	517.69
459.437	503.74
459.647	564
459.857	601.78
460.068	519.82
460.278	600.23
460.488	562.45
460.698	632
460.908	557.6
461.117	511.11
461.327	537.26
461.537	613.4
461.747	604.69
461.957	586.09
462.167	690.13
462.377	596.35
462.587	613.21
462.797	634.13
463.007	599.84
463.216	620.77
463.426	658.93
463.636	657.77
463.846	549.47
464.056	590.35
464.265	633.55
464.475	590.35
464.685	586.28
464.895	604.49
465.104	599.45
465.314	618.83
465.524	565.94
465.733	521.57
465.943	680.44
466.153	689.93
466.362	649.44
466.572	592.29
466.782	618.25
466.991	617.67
467.201	688.38
467.41	563.03
467.62	626.77
467.829	623.09
468.039	647.31
468.249	609.92
468.458	612.43
468.668	658.55
468.877	686.25
469.086	684.7
469.296	699.81
469.505	650.8
469.715	730.04
469.924	663.58
470.134	681.99
470.343	727.52
470.552	623.28
470.762	667.85
470.971	636.46
471.18	655.25
471.39	657.77
471.599	631.81
471.808	696.52
472.018	619.99
472.227	726.16
472.436	763.75
472.645	678.89
472.855	683.54
473.064	739.73
473.273	716.67
473.482	749.61
473.691	749.8
473.901	761.81
474.11	718.03
474.319	815.87
474.528	735.85
474.737	791.26
474.946	784.68
475.155	777.9
475.364	823.43
475.573	798.82
475.783	777.7
475.992	803.47
476.201	824.39
476.41	777.7
476.619	768.79
476.828	801.34
477.037	764.91
477.245	808.51
477.454	789.13
477.663	813.93
477.872	817.23
478.081	858.3
478.29	796.49
478.499	916.04
478.708	833.89
478.917	911
479.125	868.96
479.334	842.22
479.543	840.48
479.752	872.25
479.961	891.43
480.169	909.84
480.378	874.19
480.587	1046.24
480.796	895.31
481.004	896.08
481.213	932.31
481.422	923.79
481.63	939.87
481.839	948.59
482.048	1006.71
482.256	951.3
482.465	942
482.674	1012.91
482.882	989.85
483.091	1068.13
483.299	996.05
483.508	989.27
483.716	989.27
483.925	975.71
484.134	961.95
484.342	1001.67
484.551	992.95
484.759	1003.8
484.967	1039.45
485.176	1036.55
485.384	1050.88
485.593	1045.07
485.801	1015.43
486.01	987.72
486.218	969.7
486.426	868.96
486.635	875.93
486.843	896.66
487.051	917.01
487.26	902.28
487.468	934.25
487.676	985.4
487.885	926.11
488.093	987.34
488.301	1022.99
488.509	1041.59
488.717	1087.31
488.926	1077.04
489.134	1007.87
489.342	1057.28
489.55	1002.84
489.758	1035.77
489.967	1062.12
490.175	1164.42
490.383	1077.23
490.591	1170.81
490.799	1078.4
491.007	1158.8
491.215	1126.06
491.423	1120.63
491.631	1147.95
491.839	1098.35
492.047	1164.61
492.255	1079.17
492.463	1053.6
492.671	1066.97
492.879	1133.23
493.087	1097.19
493.295	1127.8
493.503	1154.35
493.711	1161.51
493.919	1202.4
494.127	1188.83
494.334	1197.94
494.542	1118.7
494.75	1181.66
494.958	1165.78
495.166	1219.83
495.374	1221.58
495.581	1229.13
495.789	1212.47
495.997	1278.93
496.205	1197.16
496.412	1155.51
496.62	1204.33
496.828	1232.23
497.035	1190
497.243	1261.49
497.451	1213.25
497.658	1236.49
497.866	1234.75
498.074	1269.82
498.281	1191.74
498.489	1304.69
498.696	1241.73
498.904	1205.69
499.112	1178.56
499.319	1272.92
499.527	1199.1
499.734	1255.29
499.942	1205.69
500.149	1167.52
500.357	1236.69
500.564	1201.81
500.771	1244.63
500.979	1141.75
501.186	1198.52
501.394	1211.31
501.601	1221.58
501.808	1212.47
502.016	1173.91
502.223	1218.86
502.43	1192.13
502.638	1192.51
502.845	1205.5
503.052	1307.79
503.26	1202.78
503.467	1320
503.674	1269.04
503.881	1275.24
504.089	1337.82
504.296	1283.19
504.503	1202.78
504.71	1237.66
504.917	1185.15
505.125	1239.4
505.332	1271.18
505.539	1282.03
505.746	1301.98
505.953	1347.51
506.16	1333.17
506.367	1353.71
506.574	1414.35
506.781	1394.79
506.988	1313.99
507.195	1300.24
507.402	1331.04
507.609	1349.64
507.816	1296.94
508.023	1305.47
508.23	1280.09
508.437	1276.6
508.644	1335.5
508.851	1374.83
509.058	1358.36
509.265	1321.74
509.472	1385.87
509.679	1437.22
509.885	1352.36
510.092	1351
510.299	1338.02
510.506	1324.26
510.713	1340.54
510.92	1365.92
511.126	1368.63
511.333	1404.09
511.54	1378.71
511.746	1425.2
511.953	1412.8
512.16	1453.3
512.367	1386.46
512.573	1388.2
512.78	1401.95
512.987	1399.24
513.193	1372.12
513.4	1300.04
513.606	1365.72
513.813	1382.97
514.02	1363.98
514.226	1454.65
514.433	1447.87
514.639	1353.71
514.846	1378.9
515.052	1374.06
515.259	1418.42
515.465	1390.52
515.672	1415.13
515.878	1501.35
516.085	1426.56
516.291	1448.26
516.497	1427.14
516.704	1413.58
516.91	1390.14
517.117	1325.62
517.323	1260.13
517.529	1262.65
517.736	1252.77
517.942	1312.25
518.148	1299.27
518.354	1365.34
518.561	1375.8
518.767	1366.69
518.973	1390.33
519.179	1436.83
519.386	1384.52
519.592	1388.39
519.798	1412.61
520.004	1504.83
520.21	1495.53
520.417	1507.55
520.623	1512.58
520.829	1586.01
521.035	1551.92
521.241	1537.97
521.447	1521.11
521.653	1671.07
521.859	1549.4
522.065	1563.73
522.271	1677.27
522.477	1608.1
522.683	1689.86
522.889	1637.16
523.095	1652.47
523.301	1602.87
523.507	1577.88
523.713	1639.1
523.919	1583.11
524.125	1645.88
524.331	1640.65
524.537	1734.81
524.742	1723.19
524.948	1747.41
525.154	1718.73
525.36	1827.81
525.566	1729.78
525.772	1820.06
525.977	1714.28
526.183	1768.91
526.389	1811.92
526.595	1694.71
526.8	1717.96
527.006	1614.69
527.212	1570.9
527.417	1558.89
527.623	1567.8
527.829	1616.63
528.034	1685.79
528.24	1728.61
528.446	1690.06
528.651	1809.99
528.857	1780.34
529.062	1825.49
529.268	1831.3
529.473	1842.15
529.679	1864.62
529.884	1952.78
530.09	1875.47
530.295	1921.2
530.501	1896.98
530.706	1874.5
530.912	1838.47
531.117	1892.14
531.323	1915.77
531.528	1953.17
531.733	1937.08
531.939	1890.59
532.144	1948.52
532.35	1927.2
532.555	1977.77
532.76	1945.03
532.966	1933.98
533.171	1890.97
533.376	1866.56
533.581	1835.56
533.787	1874.12
533.992	1932.82
534.197	1962.85
534.402	1906.09
534.607	1949.29
534.813	2038.41
535.018	1911.32
535.223	1956.46
535.428	1956.46
535.633	2013.42
535.838	1991.33
536.043	2017.88
536.249	2095.38
536.454	2030.66
536.659	2050.43
536.864	2004.51
537.069	2017.88
537.274	2008.97
537.479	1970.8
537.684	1977.97
537.889	1942.51
538.094	2088.01
538.299	1995.6
538.504	1999.28
538.708	2025.43
538.913	2066.9
539.118	2018.46
539.323	2055.46
539.528	2032.8
539.733	2007.61
539.938	2060.7
540.142	2024.66
540.347	1981.45
540.552	1996.37
540.757	1980.87
540.962	1966.92
541.166	1922.55
541.371	1921.2
541.576	2013.23
541.781	1867.53
541.985	2007.8
542.19	1992.69
542.395	2052.17
542.599	2091.31
542.804	2051.4
543.008	2127.73
543.213	2037.45
543.418	2021.75
543.622	2066.12
543.827	1964.98
544.031	2040.35
544.236	2101.96
544.44	2068.83
544.645	2142.26
544.849	2087.05
545.054	2113.59
545.258	2188.76
545.463	2143.23
545.667	2068.45
545.872	2125.99
546.076	2137.81
546.281	2070.96
546.485	2080.46
546.689	2111.65
546.894	2132.38
547.098	2073.87
547.302	2066.51
547.507	2085.3
547.711	2148.08
547.915	2162.22
548.119	2062.83
548.324	2089.18
548.528	2120.56
548.732	2087.82
548.936	2142.26
549.141	2119.4
549.345	2083.17
549.549	2102.93
549.753	2100.03
549.957	2217.82
550.161	2191.28
550.366	2129.48
550.57	2115.91
550.774	2084.72
550.978	2095.18
551.182	2138.58
551.386	2075.81
551.59	2149.63
551.794	2095.96
551.998	2112.62
552.202	2087.05
552.406	2050.81
552.61	2117.85
552.814	2144.98
553.018	2218.79
553.222	2139.74
553.426	2088.79
553.63	2226.74
553.833	2142.26
554.037	2047.52
554.241	2162.03
554.445	2104.09
554.649	2123.28
554.853	2062.44
555.056	2130.25
555.26	2179.08
555.464	2150.21
555.668	2129.67
555.871	2172.49
556.075	2161.83
556.279	2085.69
556.483	2043.84
556.686	2107.58
556.89	2099.83
557.094	2128.89
557.297	2039.77
557.501	2146.72
557.704	2035.51
557.908	2091.11
558.112	2040.16
558.315	2109.91
558.519	2035.51
558.722	2062.05
558.926	2057.21
559.129	1954.13
559.333	1931.47
559.536	1935.92
559.74	1947.35
559.943	1932.43
560.147	1936.31
560.35	1981.84
560.553	1996.95
560.757	1918.87
560.96	2043.84
561.164	1957.43
561.367	2059.15
561.57	2015.75
561.774	1943.09
561.977	2010.13
562.18	1964.02
562.384	2066.9
562.587	1939.99
562.79	1939.6
562.993	1954.13
563.197	1974.28
563.4	2038.03
563.603	2017.88
563.806	2098.48
564.009	1939.6
564.212	1999.47
564.416	1871.99
564.619	1954.33
564.822	1885.74
565.025	1996.76
565.228	1891.55
565.431	1919.84
565.634	1829.56
565.837	1910.93
566.04	1856.49
566.243	1872.57
566.446	1813.86
566.649	1846.8
566.852	1823.94
567.055	1833.04
567.258	1867.92
567.461	1917.13
567.664	1906.09
567.867	1771.04
568.07	1868.89
568.273	1863.46
568.475	1930.3
568.678	1808.82
568.881	1820.06
569.084	1813.28
569.287	1713.11
569.489	1765.23
569.692	1788.87
569.895	1790.42
570.098	1718.93
570.3	1690.06
570.503	1669.33
570.706	1731.91
570.909	1671.65
571.111	1667.19
571.314	1634.45
571.516	1684.83
571.719	1716.99
571.922	1641.43
572.124	1675.91
572.327	1675.72
572.529	1611.59
572.732	1667.58
572.935	1700.13
573.137	1767.94
573.34	1652.08
573.542	1732.68
573.745	1689.28
573.947	1695.68
574.15	1664.09
574.352	1642.98
574.554	1712.34
574.757	1616.43
574.959	1587.56
575.162	1629.41
575.364	1609.26
575.566	1699.94
575.769	1601.51
575.971	1611.78
576.173	1488.75
576.376	1572.26
576.578	1650.92
576.78	1647.63
576.982	1513.75
577.185	1584.85
577.387	1524.21
577.589	1527.5
577.791	1607.13
577.993	1604.03
578.196	1543.97
578.398	1609.65
578.6	1600.93
578.802	1484.49
579.004	1513.36
579.206	1489.72
579.408	1554.05
579.61	1531.96
579.812	1547.65
580.014	1492.05
580.216	1499.02
580.418	1523.24
580.62	1519.95
580.822	1479.07
581.024	1504.83
581.226	1569.55
581.428	1506.38
581.63	1575.94
581.832	1505.42
582.034	1583.3
582.236	1545.33
582.438	1550.17
582.64	1546.1
582.841	1594.54
583.043	1621.86
583.245	1531.38
583.447	1557.73
583.649	1492.82
583.85	1534.87
584.052	1550.56
584.254	1512
584.456	1550.56
584.657	1449.04
584.859	1488.95
585.061	1528.86
585.262	1470.54
585.464	1405.05
585.666	1512.58
585.867	1438.77
586.069	1521.3
586.27	1472.48
586.472	1453.88
586.674	1444.77
586.875	1450.39
587.077	1452.91
587.278	1456.79
587.48	1448.65
587.681	1598.61
587.883	1504.83
588.084	1379.29
588.285	1437.41
588.487	1422.1
588.688	1446.13
588.89	1351.19
589.091	1322.71
589.292	1364.37
589.494	1343.64
589.695	1286.87
589.896	1243.08
590.098	1214.6
590.299	1292.1
590.5	1240.56
590.702	1283.38
590.903	1313.8
591.104	1374.44
591.305	1352.16
591.507	1391.88
591.708	1398.66
591.909	1363.98
592.11	1407.57
592.311	1367.66
592.512	1313.8
592.714	1269.63
592.915	1359.33
593.116	1323.29
593.317	1312.06
593.518	1334.53
593.719	1338.99
593.92	1345.77
594.121	1405.83
594.322	1331.24
594.523	1358.75
594.724	1297.33
594.925	1322.13
595.126	1357.39
595.327	1354.1
595.528	1325.23
595.729	1324.07
595.929	1321.74
596.13	1340.73
596.331	1337.63
596.532	1339.96
596.733	1433.54
596.934	1401.57
597.135	1344.02
597.335	1392.27
597.536	1310.12
597.737	1377.93
597.938	1280.48
598.138	1369.02
598.339	1297.91
598.54	1357.97
598.74	1298.3
598.941	1323.29
599.142	1402.15
599.342	1353.91
599.543	1284.16
599.744	1324.07
599.944	1311.09
600.145	1330.46
600.345	1298.49
600.546	1397.89
600.746	1349.45
600.947	1402.92
601.147	1333.37
601.348	1362.62
601.548	1276.02
601.749	1317.48
601.949	1263.81
602.15	1275.63
602.35	1277.57
602.551	1302.56
602.751	1275.63
602.951	1259.16
603.152	1221.77
603.352	1326.01
603.552	1270.01
603.753	1317.48
603.953	1336.27
604.153	1289.19
604.354	1311.28
604.554	1313.99
604.754	1271.56
604.954	1259.55
605.155	1302.56
605.355	1297.33
605.555	1314.38
605.755	1376.57
605.955	1279.12
606.155	1291.71
606.356	1291.71
606.556	1306.44
606.756	1320.39
606.956	1253.35
607.156	1354.49
607.356	1238.82
607.556	1282.99
607.756	1283.19
607.956	1293.26
608.156	1278.93
608.356	1242.31
608.556	1313.99
608.756	1273.89
608.956	1221.38
609.156	1246.57
609.356	1196.97
609.556	1213.63
609.755	1260.13
609.955	1247.34
610.155	1223.51
610.355	1230.49
610.555	1207.43
610.755	1194.06
610.954	1150.08
611.154	1206.08
611.354	1243.28
611.554	1181.66
611.753	1194.65
611.953	1167.91
612.153	1266.53
612.352	1192.32
612.552	1174.88
612.752	1141.17
612.951	1175.27
613.151	1196.78
613.351	1143.3
613.55	1159.19
613.75	1198.52
613.949	1185.93
614.149	1212.28
614.348	1166.55
614.548	1144.66
614.747	1118.7
614.947	1134.39
615.146	1088.28
615.346	1195.42
615.545	1169.85
615.745	1195.61
615.944	1214.41
616.144	1169.07
616.343	1189.61
616.542	1124.7
616.742	1153.76
616.941	1131.68
617.14	1047.79
617.34	1090.99
617.539	1121.8
617.738	1103.58
617.938	1180.31
618.137	1122.96
618.336	1086.73
618.535	1151.83
618.734	1146.21
618.934	1130.71
619.133	1124.51
619.332	1166.55
619.531	1061.73
619.73	1086.73
619.929	1175.27
620.128	1170.43
620.328	1182.44
620.527	1090.6
620.726	1123.35
620.925	1144.27
621.124	1109.01
621.323	1148.15
621.522	1040.04
621.721	1077.43
621.92	1083.82
622.119	1099.13
622.318	1070.65
622.517	1104.94
622.715	1093.12
622.914	1049.33
623.113	1078.2
623.312	1037.71
623.511	1086.53
623.71	1083.82
623.909	1042.55
624.107	1152.02
624.306	1017.17
624.505	1050.5
624.704	1035.19
624.902	1047.79
625.101	1102.03
625.3	1061.35
625.499	1000.51
625.697	1054.18
625.896	1040.62
626.095	1061.73
626.293	1017.37
626.492	1032.67
626.69	1052.05
626.889	1010.97
627.088	1099.32
627.286	1018.53
627.485	1028.22
627.683	984.82
627.882	1068.52
628.08	965.25
628.279	995.09
628.477	1085.57
628.676	955.37
628.874	1037.32
629.073	1003.22
629.271	972.42
629.469	1009.62
629.668	1051.27
629.866	1004.97
630.065	976.1
630.263	1030.74
630.461	993.73
630.66	1002.25
630.858	1034.22
631.056	1042.17
631.254	1058.63
631.453	982.1
631.651	1037.71
631.849	988.89
632.047	1007.1
632.245	982.1
632.444	1028.02
632.642	1013.69
632.84	1010
633.038	996.25
633.236	987.14
633.434	937.74
633.632	958.86
633.83	945.1
634.028	1005.35
634.227	984.04
634.425	1073.36
634.623	958.47
634.821	992.95
635.019	998.96
635.216	972.03
635.414	1034.03
635.612	981.91
635.81	981.52
636.008	1038.49
636.206	975.52
636.404	991.99
636.602	964.86
636.8	960.41
636.997	998.77
637.195	994.5
637.393	977.07
637.591	1026.47
637.789	979.97
637.986	943.94
638.184	948.59
638.382	1048.56
638.58	1035.19
638.777	1049.14
638.975	993.34
639.173	954.98
639.37	979.39
639.568	1001.48
639.765	995.67
639.963	921.27
640.161	1019.11
640.358	1020.27
640.556	956.34
640.753	929.02
640.951	946.46
641.148	939.87
641.346	920.3
641.543	934.25
641.741	995.67
641.938	912.16
642.136	950.91
642.333	905.19
642.531	961.57
642.728	981.72
642.925	945.1
643.123	933.09
643.32	934.25
643.517	883.68
643.715	910.81
643.912	897.63
644.109	941.81
644.306	930.57
644.504	879.61
644.701	936.19
644.898	943.16
645.095	895.89
645.293	918.36
645.49	945.1
645.687	934.64
645.884	947.04
646.081	820.52
646.278	873.61
646.475	888.33
646.672	884.26
646.87	921.07
647.067	895.5
647.264	881.36
647.461	859.46
647.658	842.03
647.855	900.15
648.052	867.6
648.249	802.5
648.446	855.39
648.642	838.73
648.839	844.35
649.036	816.84
649.233	811.8
649.43	817.81
649.627	820.52
649.824	835.24
650.021	808.51
650.217	791.46
650.414	825.75
650.611	851.33
650.808	845.9
651.004	835.05
651.201	874.19
651.398	911
651.595	838.15
651.791	827.88
651.988	886.39
652.185	823.04
652.381	831.76
652.578	789.52
652.775	840.48
652.971	811.41
653.168	822.84
653.364	866.83
653.561	781.58
653.757	809.09
653.954	814.13
654.15	782.35
654.347	887.94
654.543	840.67
654.74	760.26
654.936	785.06
655.133	811.8
655.329	813.54
655.525	808.89
655.722	842.99
655.918	749.61
656.115	805.6
656.311	715.7
656.507	677.15
656.704	627.93
656.9	703.11
657.096	681.02
657.292	677.34
657.489	762.78
657.685	772.47
657.881	711.63
658.077	737.4
658.273	738.76
658.47	832.14
658.666	756.39
658.862	779.64
659.058	758.13
659.254	821.1
659.45	760.26
659.646	781.19
659.842	794.75
660.038	838.15
660.234	758.13
660.43	801.34
660.626	847.06
660.822	836.79
661.018	825.36
661.214	790.1
661.41	775.96
661.606	818
661.802	811.99
661.998	798.43
662.194	736.63
662.39	807.93
662.586	782.55
662.781	801.14
662.977	801.53
663.173	851.71
663.369	805.41
663.564	782.93
663.76	824.01
663.956	798.24
664.152	872.06
664.347	702.72
664.543	785.45
664.739	769.37
664.934	724.03
665.13	723.26
665.326	813.16
665.521	778.67
665.717	749.22
665.912	762.01
666.108	666.49
666.304	755.42
666.499	763.17
666.695	683.93
666.89	732.56
667.086	800.95
667.281	803.28
667.477	834.28
667.672	758.91
667.867	773.25
668.063	778.48
668.258	735.85
668.454	758.52
668.649	843.38
668.844	763.56
669.04	774.02
669.235	777.9
669.43	731.59
669.626	699.62
669.821	734.5
670.016	718.61
670.211	760.46
670.407	676.57
670.602	750
670.797	733.72
670.992	798.43
671.187	722.87
671.382	793.98
671.578	719.38
671.773	750.58
671.968	688.97
672.163	755.23
672.358	768.98
672.553	726.16
672.748	701.95
672.943	776.54
673.138	737.79
673.333	772.86
673.528	743.8
673.723	761.81
673.918	734.5
674.113	704.27
674.308	800.18
674.503	744.57
674.698	786.23
674.892	729.46
675.087	751.16
675.282	752.9
675.477	716.28
675.672	741.66
675.867	706.6
676.061	679.28
676.256	675.21
676.451	701.36
676.646	747.09
676.84	692.65
677.035	690.52
677.23	695.94
677.424	730.23
677.619	763.17
677.814	781.19
678.008	762.01
678.203	662.42
678.397	678.31
678.592	753.48
678.787	795.72
678.981	703.69
679.176	727.71
679.37	722.87
679.565	676.76
679.759	709.31
679.954	755.23
680.148	787.78
680.342	778.48
680.537	725.39
680.731	713.38
680.926	740.31
681.12	740.31
681.314	719
681.509	718.61
681.703	729.85
681.897	781.58
682.092	732.56
682.286	714.73
682.48	792.23
682.674	741.28
682.869	714.35
683.063	706.21
683.257	793.98
683.451	709.5
683.645	732.56
683.839	719.19
684.034	725.39
684.228	768.4
684.422	692.45
684.616	669.98
684.81	732.95
685.004	708.92
685.198	727.71
685.392	724.61
685.586	697.49
685.78	732.17
685.974	720.93
686.168	759.49
686.362	804.63
686.556	685.28
686.75	640.92
686.944	671.14
687.138	686.83
687.331	577.17
687.525	595.39
687.719	528.15
687.913	602.36
688.107	608.17
688.301	588.02
688.494	634.33
688.688	569.81
688.882	555.86
689.076	575.82
689.269	590.15
689.463	689.93
689.657	585.89
689.85	597.13
690.044	609.92
690.238	602.94
690.431	608.17
690.625	617.86
690.818	675.21
691.012	625.61
691.205	645.18
691.399	622.9
691.593	660.68
691.786	677.73
691.98	669.2
692.173	700.4
692.366	694.2
692.56	691.29
692.753	763.36
692.947	651.96
693.14	725.2
693.333	710.08
693.527	675.79
693.72	723.26
693.914	682.96
694.107	657.38
694.3	704.85
694.493	689.55
694.687	748.64
694.88	664.94
695.073	764.53
695.266	710.47
695.46	713.38
695.653	754.26
695.846	749.41
696.039	678.7
696.232	737.01
696.425	778.09
696.618	783.51
696.812	754.65
697.005	816.84
697.198	916.23
697.391	808.31
697.584	862.18
697.777	917.97
697.97	884.46
698.163	890.27
698.356	860.63
698.549	953.62
698.742	930.18
698.935	857.91
699.127	892.98
699.32	855.2
699.513	869.93
699.706	917.39
699.899	946.65
700.092	897.44
700.285	983.07
700.477	864.89
700.67	948.78
700.863	964.09
701.056	1066
701.248	1037.52
701.441	1023.37
701.634	982.69
701.826	1119.28
702.019	1021.82
702.212	1092.35
702.404	999.35
702.597	1022.79
702.79	1059.8
702.982	1085.57
703.175	1111.92
703.367	1145.05
703.56	1138.46
703.752	1233.98
703.945	1202.2
704.137	1179.73
704.33	1218.09
704.522	1250.06
704.715	1247.93
704.907	1302.76
705.1	1273.5
705.292	1286.29
705.484	1305.28
705.677	1312.64
705.869	1367.27
706.061	1413.77
706.254	1421.91
706.446	1372.31
706.638	1374.83
706.831	1481.39
707.023	1427.34
707.215	1551.14
707.407	1504.45
707.599	1505.61
707.792	1542.23
707.984	1548.23
708.176	1591.83
708.368	1574.39
708.56	1607.91
708.752	1596.48
708.944	1591.25
709.136	1613.14
709.329	1604.61
709.521	1755.54
709.713	1726.68
709.905	1695.48
710.097	1770.27
710.289	1655.57
710.481	1749.34
710.672	1778.79
710.864	1760.77
711.056	1833.62
711.248	1855.52
711.44	1836.53
711.632	1861.91
711.824	1902.4
712.016	1955.49
712.207	1996.18
712.399	1950.65
712.591	2069.41
712.783	2016.33
712.975	2022.14
713.166	1949.87
713.358	1983.58
713.55	2107.39
713.741	2086.85
713.933	2094.99
714.125	2098.67
714.316	2083.36
714.508	2208.33
714.7	2171.33
714.891	2165.13
715.083	2192.06
715.274	2186.63
715.466	2193.8
715.657	2262.58
715.849	2173.26
716.04	2282.92
716.232	2205.81
716.423	2296.29
716.615	2245.14
716.806	2186.05
716.998	2141.1
717.189	2127.73
717.381	2047.91
717.572	2023.5
717.763	2086.08
717.955	2070.77
718.146	2041.71
718.337	1982.42
718.528	1989.2
718.72	1888.65
718.911	1936.31
719.102	1927.98
719.293	1980.68
719.485	1985.13
719.676	1945.42
719.867	1921.39
720.058	1900.66
720.249	1942.7
720.44	1978.55
720.632	2021.17
720.823	2051.78
721.014	2194.96
721.205	2218.41
721.396	2241.46
721.587	2364.88
721.778	2408.67
721.969	2473.38
722.16	2503.41
722.351	2502.25
722.542	2630.31
722.733	2661.7
722.924	2595.24
723.115	2630.12
723.305	2611.13
723.496	2658.6
723.687	2496.43
723.878	2568.51
724.069	2565.41
724.26	2604.93
724.45	2554.94
724.641	2528.4
724.832	2551.07
725.023	2597.76
725.213	2554.36
725.404	2553.78
725.595	2561.73
725.785	2569.48
725.976	2608.42
726.167	2645.04
726.357	2607.84
726.548	2757.8
726.739	2662.28
726.929	2749.66
727.12	2768.07
727.31	2786.86
727.501	2743.46
727.691	2761.29
727.882	2799.84
728.072	2834.33
728.263	2841.5
728.453	2873.08
728.644	2859.52
728.834	2879.08
729.024	2872.3
729.215	2833.75
729.405	2866.49
729.596	2972.66
729.786	2995.91
729.976	3022.65
730.167	3031.56
730.357	3021.1
730.547	3028.85
730.737	3083.68
730.928	3092.21
731.118	3136.96
731.308	3075.16
731.498	3085.62
731.688	3198.96
731.879	3175.13
732.069	3218.53
732.259	3287.12
732.449	3306.68
732.639	3360.16
732.829	3412.86
733.019	3431.07
733.209	3481.06
733.399	3485.51
733.589	3602.54
733.779	3584.52
733.969	3582.39
734.159	3728.28
734.349	3711.62
734.539	3774.78
734.729	3778.26
734.919	3838.91
735.109	3867.97
735.299	3768.58
735.488	3783.3
735.678	3820.11
735.868	3836.78
736.058	3855.76
736.248	3842.98
736.437	3773.81
736.627	3817.6
736.817	3959.03
737.007	3870.68
737.196	3927.84
737.386	3894.51
737.576	3866.03
737.765	3940.04
737.955	3943.72
738.144	4078.96
738.334	3988.48
738.524	3920.86
738.713	4014.06
738.903	3978.21
739.092	3984.22
739.282	4008.63
739.471	4040.99
739.661	4027.23
739.85	4096.59
740.04	4044.47
740.229	4150.26
740.419	4109.18
740.608	4171.77
740.797	4139.6
740.987	4189.98
741.176	4179.32
741.365	4131.85
741.555	4067.53
741.744	4244.42
741.933	4138.83
742.123	4212.26
742.312	4231.83
742.501	4248.68
742.69	4254.88
742.88	4148.9
743.069	4346.91
743.258	4217.49
743.447	4293.24
743.636	4345.56
743.825	4255.66
744.014	4298.67
744.204	4328.12
744.393	4226.79
744.582	4398.45
744.771	4419.76
744.96	4324.05
745.149	4384.11
745.338	4337.61
745.527	4390.51
745.716	4297.89
745.905	4344.39
746.094	4421.51
746.283	4354.28
746.471	4360.48
746.66	4451.15
746.849	4416.47
747.038	4500.55
747.227	4431
747.416	4437.2
747.604	4369.77
747.793	4384.89
747.982	4413.56
748.171	4429.64
748.359	4390.51
748.548	4413.17
748.737	4398.06
748.926	4421.7
749.114	4266.12
749.303	4413.76
749.491	4399.03
749.68	4331.8
749.869	4452.7
750.057	4369
750.246	4351.76
750.434	4387.99
750.623	4367.45
750.811	4336.06
751	4405.81
751.188	4351.18
751.377	4385.47
751.565	4359.7
751.754	4313.2
751.942	4326.96
752.131	4402.52
752.319	4305.06
752.507	4284.53
752.696	4367.26
752.884	4349.24
753.072	4330.25
753.261	4365.51
753.449	4325.6
753.637	4305.06
753.825	4400.39
754.014	4307
754.202	4303.13
754.39	4365.9
754.578	4401.36
754.766	4308.74
754.955	4301.96
755.143	4363.38
755.331	4258.76
755.519	4332.58
755.707	4288.59
755.895	4249.07
756.083	4325.79
756.271	4188.82
756.459	4286.66
756.647	4329.48
756.835	4266.51
757.023	4275.81
757.211	4243.26
757.399	4251.59
757.587	4221.95
757.775	4161.5
757.963	4187.46
758.151	4196.37
758.339	4152.97
758.526	4155.3
758.714	4215.16
758.902	4133.4
759.09	4076.25
759.278	3870.88
759.465	3644.19
759.653	3280.72
759.841	3000.56
760.028	2655.31
760.216	2350.54
760.404	2229.26
760.591	1922.17
760.779	1646.46
760.967	1481.78
761.154	1270.01
761.342	1330.66
761.529	1336.47
761.717	1419.97
761.905	1449.81
762.092	1577.88
762.28	1568
762.467	1570.71
762.655	1519.56
762.842	1529.83
763.029	1579.43
763.217	1614.11
763.404	1571.68
763.592	1636.78
763.779	1588.53
763.966	1672.23
764.154	1693.16
764.341	1787.9
764.528	1744.89
764.716	1866.75
764.903	1885.74
765.09	1984.17
765.277	2024.85
765.465	2199.22
765.652	2244.56
765.839	2314.7
766.026	2432.3
766.213	2525.88
766.4	2631.67
766.588	2825.8
766.775	2838.78
766.962	2900.4
767.149	2951.55
767.336	3135.8
767.523	3118.36
767.71	3230.74
767.897	3357.06
768.084	3454.13
768.271	3421.58
768.458	3474.28
768.645	3559.52
768.832	3500.43
769.019	3561.07
769.206	3590.14
769.392	3664.73
769.579	3744.17
769.766	3728.67
769.953	3672.87
770.14	3729.63
770.327	3724.02
770.513	3780.59
770.7	3843.17
770.887	3759.47
771.073	3774.58
771.26	3789.7
771.447	3725.37
771.634	3666.09
771.82	3849.37
772.007	3723.24
772.193	3793.96
772.38	3832.32
772.567	3727.31
772.753	3756.18
772.94	3801.71
773.126	3811.98
773.313	3803.84
773.499	3755.02
773.686	3810.23
773.872	3725.37
774.059	3754.63
774.245	3700.18
774.432	3768.58
774.618	3643.8
774.804	3722.47
774.991	3708.32
775.177	3734.67
775.363	3663.57
775.55	3660.47
775.736	3649.62
775.922	3662.02
776.109	3669.19
776.295	3650.39
776.481	3722.47
776.667	3694.76
776.853	3599.82
777.04	3612.03
777.226	3621.91
777.412	3722.08
777.598	3582
777.784	3651.75
777.97	3606.02
778.156	3667.44
778.342	3596.14
778.528	3600.99
778.715	3539.18
778.901	3535.11
779.087	3560.3
779.272	3507.6
779.458	3546.16
779.644	3558.75
779.83	3507.6
780.016	3636.83
780.202	3547.9
780.388	3515.54
780.574	3426.81
780.76	3483.38
780.946	3533.95
781.131	3517.09
781.317	3494.62
781.503	3428.55
781.689	3437.85
781.874	3572.12
782.06	3434.75
782.246	3510.7
782.432	3446.76
782.617	3477.57
782.803	3495.78
782.989	3397.94
783.174	3408.98
783.36	3345.24
783.545	3423.13
783.731	3403.56
783.916	3286.92
784.102	3356.67
784.288	3315.98
784.473	3342.91
784.659	3317.15
784.844	3372.75
785.029	3294.87
785.215	3285.76
785.4	3276.85
785.586	3381.86
785.771	3256.12
785.956	3306.68
786.142	3267.93
786.327	3227.64
786.512	3273.55
786.698	3267.35
786.883	3219.69
787.068	3201.67
787.254	3293.9
787.439	3198.77
787.624	3230.74
787.809	3168.35
787.994	3192.95
788.18	3239.45
788.365	3151.69
788.55	3140.26
788.735	3167.57
788.92	3194.5
789.105	3128.05
789.29	3172.22
789.475	3090.27
789.66	3086.39
789.845	3083.68
790.03	3067.99
790.215	3119.52
790.4	3131.34
790.585	3149.17
790.77	3065.08
790.955	2979.44
791.14	3073.22
791.325	3158.47
791.51	2986.23
791.695	3053.65
791.879	2976.54
792.064	3003.66
792.249	3080.19
792.434	2998.24
792.618	3010.64
792.803	3106.93
792.988	3006.57
793.173	3049.97
793.357	3046.68
793.542	2971.11
793.727	3041.83
793.911	3042.22
794.096	3029.04
794.281	3041.06
794.465	3123.79
794.65	3027.11
794.834	3075.93
795.019	3080.77
795.203	3126.89
795.388	3077.67
795.572	3151.49
795.757	3132.89
795.941	3125.14
796.126	3122.24
796.31	3037.96
796.494	3085.04
796.679	3074.96
796.863	3010.64
797.048	3142.58
797.232	3090.66
797.416	3099.57
797.601	3073.99
797.785	3154.79
797.969	3132.12
798.153	3118.94
798.338	3134.25
798.522	3171.64
798.706	3193.54
798.89	3162.15
799.074	3234.22
799.258	3200.7
799.443	3132.51
799.627	3129.79
799.811	3199.15
799.995	3113.52
800.179	3118.17
800.363	3116.04
800.547	3147.23
800.731	3169.51
800.915	3033.69
801.099	3101.89
801.283	3122.82
801.467	3086.01
801.651	3061.4
801.835	3136.38
802.019	3104.02
802.202	3152.85
802.386	3051.33
802.57	3044.74
802.754	3074.77
802.938	3061.79
803.121	3034.47
803.305	3110.42
803.489	3085.23
803.673	3126.31
803.856	3088.52
804.04	3054.81
804.224	3119.14
804.407	3084.46
804.591	3034.28
804.775	3051.91
804.958	3081.74
805.142	3148.2
805.326	3037.96
805.509	3100.92
805.693	3101.89
805.876	3121.07
806.06	3111.58
806.243	3146.26
806.427	3139.48
806.61	3146.26
806.794	3053.46
806.977	3134.25
807.16	3107.32
807.344	3090.46
807.527	3098.41
807.71	3070.7
807.894	3098.02
808.077	3158.47
808.26	3061.21
808.444	3020.52
808.627	3080
808.81	3033.31
808.993	2986.23
809.177	2985.45
809.36	3007.93
809.543	3053.84
809.726	2919.77
809.909	2953.1
810.092	2893.03
810.276	2914.35
810.459	2908.15
810.642	2906.98
810.825	2879.86
811.008	2906.6
811.191	2784.15
811.374	2783.37
811.557	2825.22
811.74	2882.96
811.923	2796.16
812.106	2754.5
812.289	2728.74
812.472	2757.99
812.654	2755.47
812.837	2726.99
813.02	2665.57
813.203	2628.96
813.386	2530.34
813.569	2559.79
813.751	2457.1
813.934	2524.14
814.117	2496.82
814.3	2422.03
814.482	2383.67
814.665	2347.25
814.848	2292.22
815.03	2270.14
815.213	2265.49
815.396	2226.35
815.578	2215.11
815.761	2183.34
815.943	2208.91
816.126	2113.78
816.309	2134.9
816.491	2047.13
816.674	1974.67
816.856	1989.01
817.039	2014.58
817.221	2093.63
817.403	2034.35
817.586	2024.85
817.768	2072.32
817.951	1952.78
818.133	1977.38
818.315	2006.06
818.498	2055.66
818.68	2121.73
818.862	2062.83
819.045	2114.75
819.227	2060.11
819.409	2050.43
819.591	2096.93
819.774	2072.9
819.956	2006.64
820.138	2088.21
820.32	2088.79
820.502	2127.73
820.684	2203.49
820.866	2200.97
821.048	2243.4
821.231	2247.66
821.413	2274.01
821.595	2235.46
821.777	2263.16
821.959	2212.21
822.141	2359.45
822.323	2185.27
822.505	2136.26
822.686	2068.06
822.868	1983.58
823.05	1902.6
823.232	1830.72
823.414	1772.98
823.596	1831.49
823.778	1794.29
823.96	1843.89
824.141	1885.16
824.323	1867.14
824.505	1956.46
824.687	2024.27
824.868	2041.32
825.05	2122.31
825.232	2179.85
825.413	2235.84
825.595	2208.72
825.777	2101.96
825.958	2154.47
826.14	2147.69
826.321	2184.89
826.503	2158.93
826.685	2177.91
826.866	2217.63
827.048	2215.11
827.229	2092.08
827.411	2144.39
827.592	2064.18
827.773	2060.11
827.955	2004.7
828.136	2007.22
828.318	1983.39
828.499	2013.81
828.68	1977.19
828.862	1979.71
829.043	2056.24
829.224	1971.96
829.406	1911.7
829.587	1950.45
829.768	1939.22
829.949	1965.57
830.131	1984.75
830.312	2042.29
830.493	1980.87
830.674	1981.07
830.855	1965.37
831.036	1962.08
831.218	1980.87
831.399	2070.96
831.58	1987.85
831.761	2002.18
831.942	2002.57
832.123	1996.95
832.304	1935.73
832.485	1919.26
832.666	1925.07
832.847	1966.92
833.028	1990.17
833.209	1926.62
833.389	1944.45
833.57	1892.33
833.751	1895.62
833.932	1943.09
834.113	1926.23
834.294	1903.57
834.475	1965.37
834.655	2003.73
834.836	1997.92
835.017	1988.23
835.198	1924.68
835.378	1966.15
835.559	2015.36
835.74	1983.39
835.92	1954.13
836.101	1909.19
836.281	2009.16
836.462	1994.24
836.643	1990.95
836.823	2051.01
837.004	2017.1
837.184	2046.94
837.365	2052.75
837.545	2002.18
837.726	1953.55
837.906	2023.5
838.087	2012.26
838.267	1997.92
838.448	1939.41
838.628	1958.2
838.808	2006.45
838.989	2039.19
839.169	1925.65
839.349	1998.12
839.53	2028.34
839.71	2014.58
839.89	1972.54
840.07	2018.65
840.251	1952.97
840.431	2034.35
840.611	2002.38
840.791	1945.42
840.971	2012.45
841.151	1995.98
841.332	1942.12
841.512	1998.7
841.692	1914.8
841.872	1991.33
842.052	1964.4
842.232	2006.83
842.412	1896.59
842.592	1917.71
842.772	1921.39
842.952	1978.93
843.132	1941.15
843.312	1940.18
843.492	1895.43
843.672	1992.11
843.851	1868.3
844.031	1919.45
844.211	1896.2
844.391	1904.15
844.571	1931.08
844.751	1921.59
844.93	1912.67
845.11	1890.59
845.29	1923.13
845.47	1907.25
845.649	1908.02
845.829	1945.03
846.009	1880.51
846.188	1881.67
846.368	1893.69
846.547	1913.84
846.727	1944.45
846.907	1817.74
847.086	1889.42
847.266	1911.12
847.445	1913.84
847.625	1865.4
847.804	1831.69
847.984	1873.73
848.163	1800.69
848.343	1838.66
848.522	1885.74
848.701	1852.61
848.881	1805.14
849.06	1865.01
849.239	1860.94
849.419	1836.14
849.598	1778.02
849.777	1749.15
849.957	1732.68
850.136	1713.69
850.315	1660.41
850.494	1645.88
850.674	1707.11
850.853	1746.24
851.032	1683.08
851.211	1801.66
851.39	1728.81
851.569	1642.4
851.748	1651.31
851.927	1737.53
852.107	1699.74
852.286	1663.32
852.465	1654.02
852.644	1722.61
852.823	1741.79
853.002	1722.8
853.181	1737.91
853.359	1718.73
853.538	1663.9
853.717	1725.51
853.896	1626.51
854.075	1545.13
854.254	1510.65
854.433	1434.7
854.611	1483.91
854.79	1406.6
854.969	1471.51
855.148	1518.01
855.327	1471.9
855.505	1518.4
855.684	1505.22
855.863	1536.8
856.041	1509.1
856.22	1556.37
856.399	1529.44
856.577	1641.23
856.756	1653.83
856.934	1736.75
857.113	1744.5
857.291	1654.99
857.47	1581.95
857.648	1650.92
857.827	1624.18
858.005	1663.13
858.184	1587.95
858.362	1689.28
858.541	1608.68
858.719	1621.28
858.898	1632.71
859.076	1590.08
859.254	1689.09
859.433	1616.43
859.611	1558.7
859.789	1554.63
859.967	1602.1
860.146	1668.36
860.324	1529.25
860.502	1561.41
860.68	1518.2
860.859	1547.46
861.037	1576.71
861.215	1573.03
861.393	1549.59
861.571	1565.48
861.749	1546.49
861.927	1580.2
862.105	1576.71
862.283	1552.11
862.461	1539.52
862.639	1521.88
862.817	1502.9
862.995	1505.22
863.173	1528.08
863.351	1509.1
863.529	1538.16
863.707	1568
863.885	1558.31
864.063	1455.62
864.241	1510.84
864.418	1539.32
864.596	1499.6
864.774	1459.89
864.952	1488.75
865.129	1495.73
865.307	1430.63
865.485	1417.26
865.663	1508.9
865.84	1437.8
866.018	1436.64
866.196	1300.43
866.373	1317.67
866.551	1270.98
866.728	1200.65
866.906	1245.41
867.084	1308.38
867.261	1357.97
867.439	1354.49
867.616	1376.19
867.794	1377.74
867.971	1358.75
868.149	1354.68
868.326	1425.79
868.503	1416.29
868.681	1389.56
868.858	1358.56
869.035	1339.37
869.213	1417.84
869.39	1355.07
869.567	1497.47
869.745	1340.34
869.922	1431.21
870.099	1406.02
870.276	1416.1
870.454	1393.82
870.631	1415.52
870.808	1370.18
870.985	1437.22
871.162	1445.16
871.339	1396.14
871.517	1313.02
871.694	1335.89
871.871	1359.14
872.048	1373.67
872.225	1303.73
872.402	1354.29
872.579	1323.49
872.756	1382.97
872.933	1324.46
873.11	1308.76
873.287	1364.56
873.463	1309.93
873.64	1292.88
873.817	1337.24
873.994	1292.49
874.171	1258.97
874.348	1278.34
874.524	1286.09
874.701	1313.22
874.878	1238.63
875.055	1303.14
875.231	1253.74
875.408	1314.38
875.585	1239.01
875.762	1266.33
875.938	1274.47
876.115	1248.31
876.291	1254.71
876.468	1255.09
876.645	1222.16
876.821	1213.44
876.998	1233.59
877.174	1287.26
877.351	1234.94
877.527	1190.58
877.704	1244.24
877.88	1229.71
878.057	1205.5
878.233	1286.29
878.409	1227.97
878.586	1197.55
878.762	1224.87
878.938	1213.83
879.115	1100.87
879.291	1212.47
879.467	1152.8
879.644	1188.83
879.82	1220.03
879.996	1173.53
880.172	1114.24
880.349	1214.99
880.525	1198.91
880.701	1110.95
880.877	1152.41
881.053	1180.11
881.229	1126.45
881.405	1238.24
881.581	1132.84
881.757	1123.35
881.933	1154.73
882.109	1195.81
882.285	1169.85
882.461	1109.4
882.637	1176.43
882.813	1141.56
882.989	1183.02
883.165	1232.04
883.341	1145.05
883.517	1217.31
883.693	1174.5
883.869	1188.06
884.044	1139.62
884.22	1205.3
884.396	1210.15
884.572	1164.81
884.747	1212.86
884.923	1165.97
885.099	1182.83
885.275	1192.32
885.45	1143.69
885.626	1145.24
885.801	1119.08
885.977	1154.73
886.153	1094.87
886.328	1197.94
886.504	1139.43
886.679	1168.88
886.855	1135.55
887.03	1124.51
887.206	1197.16
887.381	1169.85
887.557	1204.72
887.732	1168.49
887.908	1171.01
888.083	1174.88
888.258	1112.69
888.434	1135.17
888.609	1131.87
888.784	1201.81
888.96	1121.8
889.135	1089.05
889.31	1121.41
889.485	1139.43
889.661	1145.24
889.836	1186.9
890.011	1173.53
890.186	1153.18
890.361	1091.96
890.537	1140.2
890.712	1123.15
890.887	1164.81
891.062	1135.17
891.237	1185.73
891.412	1133.62
891.587	1150.28
891.762	1185.54
891.937	1223.51
892.112	1107.65
892.287	1126.06
892.462	1082.47
892.637	1072.39
892.812	1040.81
892.987	1089.25
893.161	1072.2
893.336	1083.82
893.511	1069.68
893.686	1105.33
893.861	1067.35
894.035	1055.92
894.21	1065.03
894.385	1027.05
894.56	1076.85
894.734	993.73
894.909	991.02
895.084	1008.65
895.258	967.19
895.433	965.05
895.608	982.69
895.782	922.82
895.957	946.84
896.131	953.62
896.306	864.31
896.48	864.69
896.655	917.78
896.829	800.95
897.004	862.18
897.178	836.41
897.353	824.59
897.527	887.36
897.701	845.13
897.876	781.96
898.05	902.67
898.224	840.28
898.399	903.06
898.573	852.68
898.747	731.01
898.921	770.92
899.096	673.85
899.27	703.88
899.444	703.5
899.618	742.44
899.792	742.25
899.967	739.15
900.141	794.56
900.315	700.4
900.489	725.78
900.663	771.5
900.837	737.79
901.011	678.31
901.185	787.19
901.359	739.53
901.533	735.46
901.707	758.13
901.881	761.43
902.055	688.58
902.229	713.76
902.403	809.67
902.576	763.17
902.75	745.35
902.924	859.46
903.098	798.43
903.272	827.11
903.446	876.71
903.619	843.38
903.793	898.79
903.967	845.13
904.14	903.44
904.314	885.42
904.488	867.21
904.661	930.37
904.835	905.96
905.009	946.65
905.182	980.75
905.356	878.06
905.529	894.53
905.703	857.53
905.876	861.21
906.05	834.28
906.223	852.1
906.397	731.2
906.57	735.85
906.744	716.86
906.917	745.35
907.09	741.47
907.264	734.3
907.437	728.68
907.61	663.58
907.784	678.12
907.957	729.07
908.13	669.98
908.304	730.23
908.477	658.74
908.65	674.05
908.823	634.52
908.996	743.41
909.17	653.51
909.343	643.63
909.516	664.75
909.689	647.89
909.862	633.55
910.035	624.45
910.208	621.93
910.381	588.8
910.554	703.5
910.727	643.63
910.9	638.59
911.073	613.6
911.246	724.03
911.419	695.75
911.592	664.36
911.765	620.18
911.938	617.28
912.11	633.55
912.283	632.78
912.456	688.58
912.629	644.98
912.802	600.23
912.974	620.18
913.147	556.05
913.32	504.71
913.493	508.01
913.665	583.76
913.838	573.69
914.01	596.94
914.183	564.19
914.356	553.92
914.528	617.08
914.701	659.9
914.873	638.78
915.046	593.64
915.218	542.1
915.391	493.09
915.563	492.7
915.736	540.94
915.908	582.4
916.081	561.09
916.253	526.8
916.425	559.15
916.598	584.15
916.77	549.85
916.942	545.2
917.115	482.04
917.287	542.1
917.459	526.22
917.632	485.72
917.804	463.83
917.976	523.51
918.148	512.46
918.32	546.56
918.493	582.6
918.665	614.37
918.837	555.28
919.009	603.91
919.181	648.08
919.353	571.94
919.525	571.36
919.697	575.43
919.869	563.8
920.041	637.82
920.213	688.77
920.385	631.62
920.557	609.14
920.729	611.27
920.901	593.64
921.073	597.71
921.244	576.79
921.416	622.7
921.588	578.34
921.76	548.5
921.932	635.3
922.103	559.93
922.275	563.03
922.447	584.92
922.619	495.22
922.79	545.79
922.962	571.75
923.134	571.36
923.305	511.3
923.477	468.48
923.648	512.46
923.82	505.68
923.991	484.37
924.163	471
924.335	521.76
924.506	492.7
924.677	552.37
924.849	486.69
925.02	525.64
925.192	517.5
925.363	497.74
925.535	507.42
925.706	487.47
925.877	546.75
926.049	475.84
926.22	496.57
926.391	483.79
926.562	528.15
926.734	448.91
926.905	541.33
927.076	437.29
927.247	475.07
927.419	441.94
927.59	407.64
927.761	411.71
927.932	417.53
928.103	449.49
928.274	368.12
928.445	364.44
928.616	394.86
928.787	392.34
928.958	414.81
929.129	377.03
929.3	394.28
929.471	330.15
929.642	290.62
929.813	246.45
929.984	342.16
930.155	258.07
930.326	303.6
930.496	276.48
930.667	213.51
930.838	267.76
931.009	208.86
931.18	203.82
931.35	210.02
931.521	235.98
931.692	174.57
931.863	128.07
932.033	190.26
932.204	184.64
932.374	180.77
932.545	160.04
932.716	189.68
932.886	201.3
933.057	80.41
933.227	143.37
933.398	198.98
933.568	101.52
933.739	40.88
933.909	69.56
934.08	151.9
934.25	36.81
934.421	61.03
934.591	120.12
934.761	92.22
934.932	35.07
935.102	126.13
935.272	81.18
935.443	68.97
935.613	48.44
935.783	107.14
935.953	51.34
936.123	252.45
936.294	76.14
936.464	67.23
936.634	78.47
936.804	46.89
936.974	28.29
937.144	109.08
937.314	89.51
937.484	58.12
937.655	41.27
937.825	124.97
937.995	41.07
938.165	94.74
938.334	82.34
938.504	113.73
938.674	83.89
938.844	115.47
939.014	174.37
939.184	148.8
939.354	222.81
939.524	188.13
939.694	163.14
939.863	120.12
940.033	221.07
940.203	209.44
940.373	162.17
940.542	204.6
940.712	162.36
940.882	216.03
941.051	206.73
941.221	167.98
941.391	214.09
941.56	118.19
941.73	136.59
941.899	257.88
942.069	145.89
942.238	170.89
942.408	140.08
942.577	185.22
942.747	146.86
942.916	65.87
943.086	88.93
943.255	175.15
943.425	166.04
943.594	118.38
943.763	60.64
943.933	83.7
944.102	26.74
944.271	113.92
944.441	136.4
944.61	97.45
944.779	124
944.948	211.18
945.117	78.47
945.287	91.84
945.456	48.24
945.625	69.94
945.794	99.97
945.963	86.8
946.132	130
946.301	83.7
946.47	134.65
946.639	60.06
946.808	103.07
946.977	140.08
947.146	167.01
947.315	84.28
947.484	144.92
947.653	101.91
947.822	90.67
947.991	91.45
948.16	192.39
948.329	151.12
948.498	112.18
948.666	129.62
948.835	169.53
949.004	84.67
949.173	39.14
949.341	91.25
949.51	112.95
949.679	157.32
949.847	134.65
950.016	166.82
950.185	167.4
950.353	101.14
950.522	100.94
950.69	159.45
950.859	109.47
951.028	153.06
951.196	118.19
951.365	104.04
951.533	130.59
951.701	148.99
951.87	130.97
952.038	47.86
952.207	98.81
952.375	163.72
952.543	86.8
952.712	118.77
952.88	56.19
953.048	170.69
953.217	114.89
953.385	104.82
953.553	161.39
953.721	68.78
953.89	88.93
954.058	67.42
954.226	90.09
954.394	110.82
954.562	57.74
954.73	110.82
954.898	86.8
955.067	143.18
955.235	109.85
955.403	124.77
955.571	187.93
955.739	118.57
955.907	99.97
956.075	112.76
956.243	60.06
956.41	118.57
956.578	44.56
956.746	49.99
956.914	100.17
957.082	149.96
957.25	115.67
957.418	86.61
957.585	105.59
957.753	148.02
957.921	73.04
958.089	105.01
958.256	124.58
958.424	118.96
958.592	106.37
958.759	88.74
958.927	115.09
959.095	59.09
959.262	111.6
959.43	116.64
959.597	85.44
959.765	120.7
959.932	74.98
960.1	141.63
960.267	98.62
960.435	124.19
960.602	160.42
960.77	95.13
960.937	63.55
961.104	137.75
961.272	53.47
961.439	96.1
961.606	112.57
961.774	147.64
961.941	78.66
962.108	112.76
962.275	101.91
962.443	135.24
962.61	131.55
962.777	174.95
962.944	160.23
963.111	124.97
963.278	135.82
963.446	121.29
963.613	134.07
963.78	159.07
963.947	144.34
964.114	104.43
964.281	206.53
964.448	140.85
964.615	87.19
964.782	144.15
964.949	174.37
965.116	166.04
965.282	183.48
965.449	120.32
965.616	76.92
965.783	139.5
965.95	141.63
966.117	97.84
966.283	130.2
966.45	127.49
966.617	149.19
966.784	152.87
966.95	175.73
967.117	149.57
967.284	80.21
967.45	102.1
967.617	181.35
967.784	147.64
967.95	195.68
968.117	112.95
968.283	164.69
968.45	246.25
968.616	138.34
968.783	179.8
968.949	161.97
969.116	167.4
969.282	137.75
969.449	163.91
969.615	142.79
969.781	84.67
969.948	123.03
970.114	96.49
970.28	220.48
970.447	129.04
970.613	214.67
970.779	116.83
970.945	149.96
971.112	144.34
971.278	118.77
971.444	114.12
971.61	166.24
971.776	96.87
971.942	148.99
972.108	154.61
972.275	127.87
972.441	140.47
972.607	203.05
972.773	105.98
972.939	142.99
973.105	148.22
973.271	79.44
973.437	99.39
973.602	96.87
973.768	136.01
973.934	112.76
974.1	155.77
974.266	43.59
974.432	134.07
974.598	114.5
974.763	161.59
974.929	102.49
975.095	194.13
975.261	85.25
975.426	59.29
975.592	108.3
975.758	175.73
975.923	56.38
976.089	86.22
976.255	127.68
976.42	141.44
976.586	127.87
976.751	133.3
976.917	225.91
977.082	144.92
977.248	64.71
977.413	57.93
977.579	91.84
977.744	144.73
977.91	77.5
978.075	105.2
978.24	138.72
978.406	119.74
978.571	115.47
978.736	78.27
978.902	139.3
979.067	96.1
979.232	41.46
979.397	99.59
979.563	172.05
979.728	76.53
979.893	107.14
980.058	54.25
980.223	154.61
980.388	134.46
980.554	116.05
980.719	82.34
980.884	112.18
981.049	132.52
981.214	70.72
981.379	131.75
981.544	96.49
981.709	94.16
981.874	53.47
982.039	116.44
982.204	125.94
982.368	124.19
982.533	94.16
982.698	162.17
982.863	155.58
983.028	98.04
983.193	140.47
983.357	108.11
983.522	151.12
983.687	112.18
983.852	110.05
984.016	99.97
984.181	95.71
984.346	132.91
984.51	147.25
984.675	115.47
984.839	148.22
985.004	130.59
985.168	189.29
985.333	117.8
985.498	86.22
985.662	141.44
985.827	123.42
985.991	98.04
986.155	86.02
986.32	150.74
986.484	173.02
986.649	125.74
986.813	67.23
986.977	116.25
987.142	118.38
987.306	73.82
987.47	73.04
987.634	97.45
987.799	114.31
987.963	140.85
988.127	128.07
988.291	168.75
988.455	112.37
988.62	87.77
988.784	115.09
988.948	110.82
989.112	99.2
989.276	115.47
989.44	101.14
989.604	78.66
989.768	86.99
989.932	187.16
990.096	84.47
990.26	71.3
990.424	46.89
990.588	106.56
990.752	169.92
990.915	123.42
991.079	100.36
991.243	109.08
991.407	129.81
991.571	94.35
991.734	145.89
991.898	116.64
992.062	181.73
992.226	104.04
992.389	75.56
992.553	37.78
992.717	59.67
992.88	60.64
993.044	93.58
993.207	98.23
993.371	122.45
993.535	135.43
993.698	95.52
993.862	119.35
994.025	149.38
994.189	89.32
994.352	115.09
994.515	111.6
994.679	125.35
994.842	77.31
995.006	122.06
995.169	53.09
995.332	31.19
995.496	104.82
995.659	20.92
995.822	76.14
995.985	88.93
996.149	155.77
996.312	59.29
996.475	144.54
996.638	68.01
996.801	140.66
996.964	167.01
997.128	76.53
997.291	87.38
997.454	100.55
997.617	23.83
997.78	127.68
997.943	56.77
998.106	131.36
998.269	54.44
998.432	72.46
998.595	79.63
998.758	26.35
998.92	55.22
999.083	31.77
999.246	68.39
999.409	34.68
999.572	23.83
999.735	62.97
999.897	83.7
1000.06	67.81
1000.223	75.95
1000.386	105.2
1000.548	99.78
1000.711	112.18
1000.874	118.96
1001.036	5.81
1001.199	113.73
1001.361	87.77
1001.524	78.08
1001.687	114.31
1001.849	39.33
1002.012	72.07
1002.174	58.9
1002.337	96.49
1002.499	63.16
1002.661	117.41
1002.824	25.57
1002.986	59.48
1003.149	73.24
1003.311	28.87
1003.473	136.79
1003.636	53.86
1003.798	96.1
1003.96	92.61
1004.123	94.55
1004.285	49.99
1004.447	68.2
1004.609	56.96
1004.771	124.97
1004.933	-5.04
1005.096	32.16
1005.258	-6.2
1005.42	38.17
1005.582	125.16
1005.744	77.31
1005.906	-12.01
1006.068	72.27
1006.23	31.97
1006.392	8.72
1006.554	24.02
1006.716	72.66
1006.878	72.85
1007.04	21.31
1007.202	17.24
1007.363	52.7
1007.525	83.51
1007.687	73.82
1007.849	88.54
1008.011	19.57
1008.172	8.72
1008.334	61.22
1008.496	73.43
1008.658	29.64
1008.819	29.45
1008.981	-4.65
1009.143	14.14
1009.304	48.05
1009.466	81.76
1009.627	136.4
1009.789	150.15
1009.95	46.11
1010.112	49.99
1010.273	46.31
1010.435	27.51
1010.596	54.44
1010.758	30.42
1010.919	17.24
1011.081	44.95
1011.242	19.96
1011.403	73.24
1011.565	38.17
1011.726	57.16
1011.887	-17.82
1012.049	15.31
1012.21	104.43
1012.371	130.78
1012.532	-38.75
1012.693	52.51
1012.855	8.33
1013.016	70.72
1013.177	71.69
1013.338	47.66
1013.499	121.09
1013.66	65.68
1013.821	78.86
1013.982	52.51
1014.143	12.4
1014.304	21.12
1014.465	56.96
1014.626	56.57
1014.787	20.73
1014.948	93.39
1015.109	-37.59
1015.27	76.92
1015.431	24.61
1015.592	33.91
1015.752	92.8
1015.913	58.12
1016.074	54.25
1016.235	66.07
1016.395	43.98
1016.556	23.25
1016.717	19.76
1016.877	82.92
1017.038	11.82
1017.199	44.56
1017.359	48.05
1017.52	41.27
1017.681	22.09
1017.841	53.28
1018.002	41.46
1018.162	12.59
1018.323	58.71
1018.483	24.61
1018.644	8.33
1018.804	-0.58
1018.964	-1.55
1019.125	10.07
1019.285	48.24
1019.446	7.36
1019.606	9.3
1019.766	-31.58
1019.926	41.07
1020.087	46.69
1020.247	-7.75
1020.407	51.92
1020.567	63.55
1020.728	33.91
1020.888	-11.82
1021.048	3.68
1021.208	-1.36
1021.368	10.46
1021.528	62.39
1021.688	63.55
1021.848	64.52
1022.008	65.49
1022.168	-13.37
1022.328	28.48
1022.488	28.67
1022.648	-3.49
1022.808	45.14
1022.968	56.77
1023.128	-23.44
1023.288	-1.74
1023.448	14.92
1023.608	55.8
1023.767	42.24
1023.927	15.69
1024.087	-28.67
1024.247	-31.39
1024.406	3.1
1024.566	-4.65
1024.726	1.36
1024.885	42.62
1025.045	37.97
1025.205	5.42
1025.364	8.52
1025.524	12.21
1025.683	0.39
1025.843	53.67
1026.003	19.57
1026.162	77.11
1026.321	46.69
1026.481	39.52
1026.64	2.71
1026.8	59.48
1026.959	8.33
1027.119	34.1
1027.278	23.64
1027.437	-8.33
1027.597	2.91
1027.756	43.98
1027.915	34.49
1028.074	31.19
1028.234	-1.55
1028.393	26.16
1028.552	0.97
1028.711	-75.17
1028.87	42.43
1029.03	-24.8
1029.189	11.04
1029.348	-53.09
1029.507	-3.68
1029.666	7.56
1029.825	-20.34
1029.984	-9.69
1030.143	45.53
1030.302	-8.33
1030.461	-32.55
1030.62	-0.97
1030.779	42.24
1030.938	-19.96
1031.097	-29.06
1031.255	39.52
1031.414	84.86
1031.573	43.21
1031.732	-21.7
1031.891	-15.89
1032.049	70.33
1032.208	34.68
1032.367	14.92
1032.525	-5.81
1032.684	24.8
1032.843	45.72
1033.001	-29.84
1033.16	155.58
1033.319	41.85
1033.477	17.44
1033.636	15.31
1033.794	-37.39
1033.953	64.52
1034.111	38.56
1034.27	-9.3
1034.428	12.01
1034.587	-14.72
1034.745	30.03
1034.903	33.71
1035.062	21.31
1035.22	-39.33
1035.378	32.74
1035.537	-42.04
1035.695	43.01
1035.853	8.91
1036.011	48.05
1036.17	24.02
1036.328	-33.32
1036.486	20.34
1036.644	8.91
1036.802	-68.39
1036.96	-18.41
1037.119	16.86
1037.277	-38.36
1037.435	-15.5
1037.593	-26.93
1037.751	-4.65
1037.909	46.89
1038.067	46.89
