Data from gum_old_FLMT105791__186__15-48-13-249.txt Node

Date: Mon Mar 20 15:48:13 GMT 2023
User: antho
Spectrometer: FLMT10579
Trigger mode: 0
Integration Time (sec): 1.000000E-1
Scans to average: 10
Electric dark correction enabled: true
Nonlinearity correction enabled: false
Boxcar width: 0
XAxis mode: Wavelengths
Number of Pixels in Spectrum: 3648
>>>>>Begin Spectral Data<<<<<
345.248	-179.41
345.464	-179.41
345.681	-179.41
345.898	-198.78
346.114	-179.8
346.331	-54.06
346.548	20.92
346.764	1.55
346.981	-24.02
347.197	4.65
347.414	23.64
347.631	-6.39
347.847	61.22
348.064	-2.13
348.28	29.64
348.497	-55.02
348.713	0
348.93	46.11
349.146	48.05
349.363	14.92
349.579	22.09
349.796	30.61
350.012	23.64
350.229	74.01
350.445	36.23
350.661	24.02
350.878	28.48
351.094	39.72
351.311	40.3
351.527	44.17
351.743	2.52
351.96	45.34
352.176	86.41
352.392	66.46
352.609	83.7
352.825	27.71
353.041	19.76
353.257	21.7
353.474	39.72
353.69	40.49
353.906	39.91
354.122	35.84
354.339	81.37
354.555	13.56
354.771	16.86
354.987	90.67
355.203	95.13
355.42	44.95
355.636	16.86
355.852	7.75
356.068	38.36
356.284	11.43
356.5	97.26
356.716	56.19
356.932	40.3
357.148	57.74
357.364	6.2
357.58	77.31
357.796	93.58
358.012	82.54
358.228	58.9
358.444	-32.36
358.66	102.3
358.876	58.12
359.092	11.43
359.308	35.65
359.524	59.29
359.74	14.72
359.956	12.59
360.172	52.12
360.388	73.43
360.604	28.48
360.819	148.8
361.035	60.06
361.251	62.39
361.467	18.6
361.683	86.22
361.898	59.67
362.114	50.37
362.33	75.76
362.546	80.41
362.762	43.01
362.977	36.62
363.193	38.75
363.409	64.32
363.624	30.61
363.84	6.59
364.056	25.19
364.271	79.82
364.487	81.18
364.703	35.46
364.918	45.53
365.134	36.62
365.35	63.16
365.565	162.94
365.781	49.41
365.996	111.4
366.212	128.26
366.427	74.98
366.643	44.95
366.858	54.64
367.074	20.54
367.289	122.64
367.505	178.63
367.72	16.66
367.936	39.33
368.151	82.15
368.367	92.03
368.582	95.71
368.798	42.62
369.013	110.05
369.228	112.95
369.444	75.76
369.659	152.48
369.874	88.74
370.09	142.02
370.305	11.62
370.52	65.1
370.736	114.5
370.951	69.17
371.166	106.56
371.381	144.34
371.597	102.69
371.812	50.57
372.027	28.48
372.242	95.71
372.458	155.39
372.673	44.17
372.888	69.36
373.103	92.03
373.318	152.09
373.533	98.04
373.749	85.83
373.964	7.56
374.179	99
374.394	3.68
374.609	118.77
374.824	24.8
375.039	101.72
375.254	54.64
375.469	110.05
375.684	64.91
375.899	136.01
376.114	82.15
376.329	68.39
376.544	87.38
376.759	110.82
376.974	41.85
377.189	82.73
377.404	50.18
377.619	128.65
377.834	28.48
378.049	43.59
378.264	71.3
378.478	104.62
378.693	65.87
378.908	106.37
379.123	76.34
379.338	111.21
379.553	114.12
379.767	113.54
379.982	118.38
380.197	127.49
380.412	85.25
380.626	104.62
380.841	140.66
381.056	108.11
381.271	176.5
381.485	57.74
381.7	49.02
381.915	96.49
382.129	83.51
382.344	83.31
382.559	68.2
382.773	143.37
382.988	37.97
383.202	104.43
383.417	57.16
383.632	207.12
383.846	78.66
384.061	84.86
384.275	54.64
384.49	96.87
384.704	120.7
384.919	137.37
385.133	94.94
385.348	118.38
385.562	37.59
385.777	143.76
385.991	90.87
386.206	84.09
386.42	65.29
386.634	126.13
386.849	114.12
387.063	122.64
387.277	72.85
387.492	76.92
387.706	62.39
387.92	73.82
388.135	130
388.349	117.99
388.563	152.87
388.778	117.99
388.992	144.34
389.206	108.5
389.42	182.32
389.635	87.38
389.849	142.6
390.063	152.29
390.277	124.58
390.491	206.53
390.706	145.31
390.92	173.6
391.134	136.98
391.348	155.39
391.562	51.73
391.776	142.21
391.99	111.02
392.205	166.24
392.419	109.47
392.633	102.49
392.847	176.7
393.061	94.74
393.275	198.78
393.489	106.17
393.703	122.45
393.917	131.94
394.131	51.92
394.345	130.97
394.559	141.82
394.773	99.78
394.986	158.49
395.2	127.1
395.414	212.35
395.628	119.54
395.842	179.22
396.056	149.96
396.27	108.3
396.484	214.48
396.697	133.49
396.911	177.28
397.125	138.92
397.339	143.76
397.553	123.22
397.766	206.15
397.98	195.88
398.194	199.56
398.408	160.62
398.621	192.39
398.835	207.7
399.049	222.03
399.262	243.93
399.476	240.44
399.69	231.33
399.903	316.58
400.117	222.23
400.331	243.93
400.544	215.25
400.758	325.11
400.971	248.38
401.185	298.76
401.398	195.49
401.612	301.47
401.826	287.52
402.039	262.91
402.253	214.48
402.466	252.84
402.68	230.37
402.893	277.45
403.106	267.56
403.32	244.51
403.533	319.68
403.747	245.87
403.96	277.45
404.174	279.19
404.387	238.31
404.6	272.99
404.814	287.13
405.027	255.55
405.24	223.39
405.454	235.79
405.667	300.11
405.88	210.99
406.094	253.23
406.307	275.51
406.52	288.68
406.733	223.2
406.947	206.73
407.16	317.94
407.373	294.11
407.586	236.95
407.799	246.45
408.012	302.44
408.226	271.25
408.439	339.45
408.652	233.66
408.865	263.3
409.078	334.6
409.291	314.06
409.504	250.13
409.717	331.11
409.93	339.06
410.143	278.03
410.357	236.37
410.57	210.8
410.783	239.47
410.996	266.79
411.209	291.2
411.421	341.19
411.634	301.66
411.847	305.15
412.06	336.35
412.273	323.17
412.486	326.46
412.699	413.65
412.912	362.89
413.125	347.58
413.338	328.4
413.55	353.59
413.763	307.86
413.976	324.91
414.189	305.73
414.402	338.28
414.615	387.3
414.827	311.93
415.04	379.55
415.253	376.64
415.466	361.34
415.678	396.99
415.891	374.51
416.104	362.5
416.316	355.33
416.529	319.3
416.742	379.16
416.954	365.21
417.167	347.58
417.38	339.25
417.592	395.05
417.805	332.66
418.017	318.13
418.23	394.47
418.442	317.55
418.655	337.51
418.868	369.09
419.08	379.16
419.293	414.62
419.505	372.38
419.718	385.75
419.93	389.24
420.142	342.74
420.355	417.72
420.567	401.25
420.78	393.31
420.992	325.69
421.205	435.35
421.417	352.62
421.629	351.65
421.842	334.02
422.054	343.32
422.266	417.33
422.479	462.47
422.691	395.05
422.903	395.83
423.115	368.51
423.328	351.84
423.54	376.84
423.752	376.26
423.964	348.75
424.177	396.99
424.389	374.32
424.601	495.02
424.813	430.31
425.025	421.01
425.238	442.13
425.45	372.19
425.662	385.36
425.874	740.11
426.086	402.99
426.298	410.36
426.51	402.41
426.722	414.62
426.934	378.78
427.146	417.53
427.358	363.66
427.57	446.97
427.782	413.65
427.994	414.04
428.206	365.41
428.418	370.44
428.63	451.82
428.842	462.28
429.054	423.53
429.266	457.82
429.478	377.81
429.69	405.51
429.902	353.98
430.114	429.34
430.325	425.47
430.537	349.91
430.749	337.31
430.961	287.71
431.173	339.64
431.384	334.02
431.596	278.03
431.808	370.83
432.02	425.66
432.231	451.43
432.443	530.09
432.655	477.78
432.867	434.19
433.078	482.24
433.29	550.44
433.502	493.67
433.713	546.75
433.925	515.56
434.136	571.17
434.348	433.03
434.56	412.68
434.771	552.57
434.983	386.53
435.194	455.5
435.406	455.89
435.617	531.06
435.829	578.34
436.04	519.82
436.252	522.73
436.463	593.06
436.675	584.54
436.886	583.37
437.098	561.09
437.309	601.59
437.521	564
437.732	539.2
437.943	554.31
438.155	553.15
438.366	467.51
438.578	632.78
438.789	519.24
439	562.06
439.211	492.31
439.423	518.08
439.634	549.47
439.845	551.21
440.057	550.44
440.268	604.1
440.479	549.85
440.69	576.59
440.902	546.17
441.113	540.17
441.324	544.43
441.535	610.11
441.746	681.8
441.957	544.43
442.168	585.12
442.38	639.56
442.591	642.08
442.802	576.98
443.013	598.68
443.224	655.45
443.435	620.96
443.646	610.3
443.857	609.72
444.068	589.38
444.279	588.02
444.49	729.65
444.701	644.98
444.912	746.31
445.123	698.46
445.334	663.58
445.545	648.08
445.756	644.79
445.967	595.58
446.178	651.77
446.388	660.48
446.599	663.78
446.81	661.65
447.021	619.99
447.232	681.22
447.443	707.18
447.653	627.16
447.864	725.2
448.075	677.92
448.286	718.41
448.496	681.6
448.707	738.37
448.918	671.72
449.129	778.67
449.339	662.03
449.55	716.28
449.761	662.81
449.971	749.03
450.182	696.13
450.393	732.17
450.603	698.85
450.814	772.47
451.024	736.43
451.235	762.2
451.446	808.51
451.656	786.42
451.867	727.33
452.077	765.5
452.288	792.23
452.498	781.77
452.709	728.68
452.919	741.86
453.13	665.13
453.34	767.63
453.55	671.72
453.761	757.36
453.971	723.06
454.182	731.59
454.392	724.23
454.602	821.68
454.813	766.46
455.023	779.25
455.233	699.23
455.444	759.1
455.654	670.75
455.864	730.62
456.075	723.45
456.285	709.89
456.495	712.99
456.705	745.93
456.916	823.04
457.126	849.58
457.336	782.35
457.546	678.5
457.756	740.11
457.967	801.14
458.177	780.8
458.387	793.59
458.597	716.48
458.807	760.85
459.017	748.06
459.227	739.15
459.437	732.75
459.647	794.75
459.857	794.75
460.068	743.21
460.278	835.44
460.488	765.69
460.698	835.05
460.908	811.41
461.117	751.93
461.327	776.54
461.537	811.8
461.747	837.57
461.957	836.99
462.167	891.24
462.377	859.27
462.587	809.28
462.797	874.96
463.007	854.81
463.216	858.49
463.426	932.12
463.636	882.13
463.846	785.26
464.056	834.47
464.265	891.04
464.475	788.36
464.685	838.54
464.895	841.64
465.104	805.99
465.314	849
465.524	799.79
465.733	782.93
465.943	924.17
466.153	932.31
466.362	903.25
466.572	871.09
466.782	838.54
466.991	874.19
467.201	888.33
467.41	795.14
467.62	878.64
467.829	858.3
468.039	867.02
468.249	855.39
468.458	885.42
468.668	907.9
468.877	897.44
469.086	931.92
469.296	972.42
469.505	914.68
469.715	980.55
469.924	920.3
470.134	977.26
470.343	977.84
470.552	912.16
470.762	910.61
470.971	871.28
471.18	917.2
471.39	914.1
471.599	889.3
471.808	953.82
472.018	920.3
472.227	989.47
472.436	1041.39
472.645	996.83
472.855	977.65
473.064	1060.57
473.273	1048.37
473.482	1048.37
473.691	1036.94
473.901	1032.48
474.11	1002.25
474.319	1101.45
474.528	1046.82
474.737	1122.38
474.946	1068.32
475.155	1072.97
475.364	1151.25
475.573	1094.67
475.783	1102.81
475.992	1099.71
476.201	1147.95
476.41	1104.55
476.619	1074.52
476.828	1098.74
477.037	1091.18
477.245	1085.95
477.454	1163.06
477.663	1118.12
477.872	1111.33
478.081	1213.44
478.29	1159.38
478.499	1281.83
478.708	1194.26
478.917	1258.78
479.125	1202.01
479.334	1230.68
479.543	1211.11
479.752	1261.1
479.961	1220.8
480.169	1265.56
480.378	1248.51
480.587	1403.12
480.796	1295.59
481.004	1281.25
481.213	1297.33
481.422	1296.94
481.63	1277.38
481.839	1337.44
482.048	1393.82
482.256	1334.34
482.465	1385.1
482.674	1367.47
482.882	1369.6
483.091	1456.98
483.299	1382.39
483.508	1419.59
483.716	1383.74
483.925	1388.39
484.134	1345.77
484.342	1366.89
484.551	1429.27
484.759	1430.44
484.967	1440.9
485.176	1456.4
485.384	1416.1
485.593	1463.37
485.801	1410.48
486.01	1402.54
486.218	1301.98
486.426	1227.39
486.635	1240.37
486.843	1213.63
487.051	1255.09
487.26	1263.62
487.468	1319.42
487.676	1385.87
487.885	1329.3
488.093	1419
488.301	1441.09
488.509	1435.09
488.717	1483.14
488.926	1482.75
489.134	1462.6
489.342	1459.5
489.55	1408.54
489.758	1440.32
489.967	1486.43
490.175	1611.59
490.383	1534.28
490.591	1635.23
490.799	1538.55
491.007	1605.2
491.215	1589.7
491.423	1569.74
491.631	1583.5
491.839	1542.62
492.047	1601.9
492.255	1546.3
492.463	1497.47
492.671	1503.09
492.879	1601.71
493.087	1543.39
493.295	1589.31
493.503	1627.67
493.711	1647.24
493.919	1706.91
494.127	1682.69
494.334	1681.92
494.542	1585.82
494.75	1655.76
494.958	1626.9
495.166	1708.46
495.374	1722.99
495.581	1714.28
495.789	1678.82
495.997	1760.58
496.205	1658.86
496.412	1712.14
496.62	1720.86
496.828	1730.16
497.035	1728.42
497.243	1737.91
497.451	1711.56
497.658	1743.92
497.866	1714.47
498.074	1778.21
498.281	1691.41
498.489	1798.17
498.696	1717.76
498.904	1658.67
499.112	1676.49
499.319	1783.44
499.527	1743.73
499.734	1786.93
499.942	1693.93
500.149	1756.32
500.357	1762.13
500.564	1700.71
500.771	1758.06
500.979	1696.06
501.186	1681.92
501.394	1732.49
501.601	1698.78
501.808	1742.95
502.016	1711.18
502.223	1688.31
502.43	1712.14
502.638	1686.38
502.845	1687.73
503.052	1820.06
503.26	1749.54
503.467	1821.81
503.674	1783.25
503.881	1759.81
504.089	1838.47
504.296	1789.06
504.503	1709.63
504.71	1779.96
504.917	1747.6
505.125	1755.16
505.332	1820.64
505.539	1809.41
505.746	1893.1
505.953	1880.51
506.16	1867.72
506.367	1900.85
506.574	1944.45
506.781	1952.2
506.988	1862.1
507.195	1860.75
507.402	1871.02
507.609	1893.1
507.816	1862.3
508.023	1844.09
508.23	1852.61
508.437	1795.07
508.644	1882.84
508.851	1914.61
509.058	1924.88
509.265	1911.51
509.472	1953.36
509.679	1995.02
509.885	1923.52
510.092	1941.15
510.299	1958.78
510.506	1927.59
510.713	1939.99
510.92	1954.13
511.126	1956.07
511.333	2001.41
511.54	2016.52
511.746	2039
511.953	2037.25
512.16	2062.63
512.367	2006.06
512.573	1963.24
512.78	2028.34
512.987	1969.44
513.193	1968.08
513.4	1904.15
513.606	1982.03
513.813	1968.47
514.02	1956.46
514.226	2033.57
514.433	2032.41
514.639	1963.24
514.846	1976.8
515.052	1965.18
515.259	2002.57
515.465	2015.36
515.672	2034.93
515.878	2058.95
516.085	2061.86
516.291	2057.21
516.497	2046.94
516.704	2011.1
516.91	1930.88
517.117	1896.01
517.323	1822.58
517.529	1833.43
517.736	1840.02
517.942	1812.12
518.148	1860.94
518.354	1941.73
518.561	1927.01
518.767	1939.41
518.973	1953.36
519.179	1969.44
519.386	1960.14
519.592	1958.98
519.798	1958.2
520.004	2112.04
520.21	2038.22
520.417	2117.85
520.623	2149.82
520.829	2189.15
521.035	2186.24
521.241	2169.58
521.447	2191.28
521.653	2319.74
521.859	2163.96
522.065	2213.56
522.271	2353.84
522.477	2247.86
522.683	2323.8
522.889	2277.89
523.095	2273.24
523.301	2228.29
523.507	2183.53
523.713	2256.19
523.919	2177.14
524.125	2299.59
524.331	2299
524.537	2412.93
524.742	2406.53
524.948	2417.97
525.154	2412.35
525.36	2522.78
525.566	2413.12
525.772	2483.06
525.977	2355.39
526.183	2434.05
526.389	2446.45
526.595	2368.56
526.8	2386.58
527.006	2275.17
527.212	2208.91
527.417	2204.46
527.623	2151.18
527.829	2275.95
528.034	2309.27
528.24	2325.74
528.446	2308.3
528.651	2437.53
528.857	2475.9
529.062	2537.12
529.268	2496.24
529.473	2507.86
529.679	2523.95
529.884	2634.96
530.09	2566.96
530.295	2558.82
530.501	2537.31
530.706	2540.8
530.912	2521.23
531.117	2592.73
531.323	2586.33
531.528	2647.36
531.733	2661.7
531.939	2583.43
532.144	2672.94
532.35	2625.66
532.555	2667.32
532.76	2632.44
532.966	2608.03
533.171	2544.68
533.376	2491.01
533.581	2486.36
533.787	2566.57
533.992	2600.28
534.197	2624.89
534.402	2611.33
534.607	2599.12
534.813	2721.37
535.018	2629.15
535.223	2609.19
535.428	2655.11
535.633	2721.37
535.838	2699.87
536.043	2701.42
536.249	2818.25
536.454	2736.68
536.659	2753.54
536.864	2702.39
537.069	2704.52
537.274	2699.09
537.479	2706.07
537.684	2669.64
537.889	2628.37
538.094	2786.47
538.299	2677.78
538.504	2760.51
538.708	2726.99
538.913	2793.64
539.118	2715.17
539.323	2776.79
539.528	2715.56
539.733	2732.22
539.938	2742.3
540.142	2696.19
540.347	2689.6
540.552	2643.68
540.757	2638.84
540.962	2673.32
541.166	2600.67
541.371	2619.08
541.576	2647.75
541.781	2576.64
541.985	2707.62
542.19	2683.4
542.395	2795.58
542.599	2805.27
542.804	2748.5
543.008	2825.61
543.213	2741.33
543.418	2715.95
543.622	2739.59
543.827	2642.91
544.031	2788.6
544.236	2795.39
544.44	2800.42
544.645	2878.31
544.849	2756.25
545.054	2829.29
545.258	2881.8
545.463	2874.82
545.667	2787.25
545.872	2810.11
546.076	2807.01
546.281	2781.44
546.485	2782.4
546.689	2829.87
546.894	2839.17
547.098	2830.26
547.302	2783.76
547.507	2821.54
547.711	2830.26
547.915	2877.15
548.119	2759.35
548.324	2777.17
548.528	2883.15
548.732	2785.7
548.936	2819.99
549.141	2855.25
549.345	2837.62
549.549	2849.83
549.753	2887.61
549.957	2905.43
550.161	2909.5
550.366	2869.01
550.57	2834.13
550.774	2822.51
550.978	2850.6
551.182	2858.16
551.386	2821.73
551.59	2785.5
551.794	2793.06
551.998	2858.35
552.202	2851.57
552.406	2798.48
552.61	2854.87
552.814	2858.55
553.018	2919.19
553.222	2814.76
553.426	2859.13
553.63	2912.8
553.833	2827.93
554.037	2785.31
554.241	2870.75
554.445	2885.28
554.649	2839.95
554.853	2815.53
555.056	2836.85
555.26	2862.62
555.464	2848.67
555.668	2880.63
555.871	2879.47
556.075	2907.37
556.279	2839.17
556.483	2801.39
556.686	2813.4
556.89	2815.53
557.094	2846.92
557.297	2734.55
557.501	2836.65
557.704	2687.47
557.908	2807.59
558.112	2749.08
558.315	2835.68
558.519	2783.95
558.722	2744.43
558.926	2717.89
559.129	2644.65
559.333	2646.78
559.536	2634.57
559.74	2632.06
559.943	2616.56
560.147	2648.91
560.35	2623.92
560.553	2636.71
560.757	2624.5
560.96	2716.92
561.164	2629.34
561.367	2777.95
561.57	2719.63
561.774	2682.82
561.977	2661.51
562.18	2661.12
562.384	2771.55
562.587	2638.06
562.79	2648.72
562.993	2623.72
563.197	2663.64
563.4	2718.66
563.603	2720.02
563.806	2781.44
564.009	2643.1
564.212	2683.98
564.416	2574.13
564.619	2672.55
564.822	2581.49
565.025	2647.36
565.228	2633.41
565.431	2629.92
565.634	2559.4
565.837	2541.58
566.04	2515.23
566.243	2545.84
566.446	2466.21
566.649	2544.29
566.852	2453.23
567.055	2547.58
567.258	2550.88
567.461	2587.49
567.664	2595.44
567.867	2501.86
568.07	2527.05
568.273	2543.9
568.475	2606.29
568.678	2497.79
568.881	2454
569.084	2535.38
569.287	2348.8
569.489	2424.55
569.692	2428.82
569.895	2466.4
570.098	2403.24
570.3	2378.05
570.503	2347.83
570.706	2371.08
570.909	2381.73
571.111	2316.05
571.314	2299.39
571.516	2336.2
571.719	2355.19
571.922	2323.61
572.124	2298.42
572.327	2388.71
572.529	2309.08
572.732	2345.89
572.935	2361.2
573.137	2425.13
573.34	2350.93
573.542	2414.09
573.745	2405.76
573.947	2382.32
574.15	2324.19
574.352	2312.37
574.554	2398.2
574.757	2300.17
574.959	2302.88
575.162	2301.72
575.364	2273.24
575.566	2403.63
575.769	2233.13
575.971	2267.81
576.173	2146.72
576.376	2265.49
576.578	2288.35
576.78	2343.76
576.982	2187.21
577.185	2248.44
577.387	2226.54
577.589	2201.94
577.791	2267.62
577.993	2271.69
578.196	2226.16
578.398	2223.06
578.6	2238.94
578.802	2131.61
579.004	2126.57
579.206	2168.81
579.408	2176.75
579.61	2156.41
579.812	2196.12
580.014	2122.31
580.216	2143.23
580.418	2152.92
580.62	2153.69
580.822	2135.68
581.024	2184.69
581.226	2188.76
581.428	2187.41
581.63	2250.18
581.832	2162.41
582.034	2213.76
582.236	2187.21
582.438	2209.3
582.64	2229.84
582.841	2269.94
583.043	2253.47
583.245	2174.62
583.447	2218.02
583.649	2200.58
583.85	2197.29
584.052	2212.98
584.254	2110.49
584.456	2235.26
584.657	2107.19
584.859	2163.58
585.061	2154.08
585.262	2168.23
585.464	2105.26
585.666	2149.63
585.867	2051.2
586.069	2183.53
586.27	2118.43
586.472	2064.18
586.674	2096.93
586.875	2066.9
587.077	2069.8
587.278	2098.86
587.48	2093.25
587.681	2221.7
587.883	2092.86
588.084	1974.87
588.285	2073.68
588.487	2033.96
588.688	2101.58
588.89	1954.52
589.091	1926.23
589.292	1916.55
589.494	1874.5
589.695	1853.58
589.896	1773.76
590.098	1803.98
590.299	1846.41
590.5	1800.3
590.702	1861.33
590.903	1882.25
591.104	1979.13
591.305	1958.4
591.507	1971.38
591.708	1932.43
591.909	1915.39
592.11	2052.95
592.311	2045
592.512	1923.33
592.714	1895.24
592.915	1956.07
593.116	1904.15
593.317	1957.43
593.518	1936.7
593.719	1921.39
593.92	1959.75
594.121	2000.05
594.322	1958.98
594.523	1905.7
594.724	1871.4
594.925	1948.9
595.126	1923.13
595.327	1960.92
595.528	1947.35
595.729	1936.5
595.929	1919.26
596.13	1934.95
596.331	1954.91
596.532	1923.33
596.733	2013.23
596.934	1999.67
597.135	1970.8
597.335	1991.53
597.536	1907.44
597.737	1928.75
597.938	1918.1
598.138	1944.25
598.339	1918.49
598.54	1924.88
598.74	1892.52
598.941	1939.6
599.142	1992.11
599.342	1947.16
599.543	1927.01
599.744	1910.74
599.944	1894.85
600.145	1881.09
600.345	1925.27
600.546	1979.71
600.746	1964.79
600.947	2004.32
601.147	1902.99
601.348	1958.98
601.548	1869.08
601.749	1911.51
601.949	1846.02
602.15	1866.37
602.35	1874.12
602.551	1903.76
602.751	1817.93
602.951	1888.84
603.152	1814.83
603.352	1922.17
603.552	1894.27
603.753	1945.22
603.953	1954.72
604.153	1931.27
604.354	1865.79
604.554	1907.83
604.754	1886.9
604.954	1860.75
605.155	1908.41
605.355	1842.54
605.555	1897.17
605.755	1923.52
605.955	1890.59
606.155	1908.41
606.356	1912.09
606.556	1969.63
606.756	1883.42
606.956	1828.97
607.156	1934.37
607.356	1844.86
607.556	1898.92
607.756	1901.82
607.956	1916.16
608.156	1852.8
608.356	1828.2
608.556	1889.62
608.756	1841.76
608.956	1837.5
609.156	1852.42
609.356	1797.2
609.556	1817.93
609.755	1849.32
609.955	1765.42
610.155	1804.56
610.355	1811.54
610.555	1768.14
610.755	1804.76
610.954	1715.83
611.154	1845.05
611.354	1810.96
611.554	1738.69
611.753	1738.88
611.953	1740.43
612.153	1793.71
612.352	1782.09
612.552	1719.7
612.752	1662.74
612.951	1757.87
613.151	1769.11
613.351	1702.65
613.55	1744.11
613.75	1749.92
613.949	1707.88
614.149	1741.01
614.348	1698.78
614.548	1691.99
614.747	1668.74
614.947	1711.56
615.146	1648.6
615.346	1715.05
615.545	1694.32
615.745	1697.23
615.944	1698.39
616.144	1720.86
616.343	1677.46
616.542	1649.56
616.742	1676.49
616.941	1660.99
617.14	1565.09
617.34	1633.1
617.539	1681.92
617.738	1627.09
617.938	1674.17
618.137	1628.06
618.336	1638.13
618.535	1630.58
618.734	1664.29
618.934	1688.7
619.133	1685.02
619.332	1703.81
619.531	1584.08
619.73	1637.36
619.929	1703.62
620.128	1665.26
620.328	1709.63
620.527	1659.06
620.726	1610.81
620.925	1662.35
621.124	1671.84
621.323	1673.39
621.522	1576.33
621.721	1623.99
621.92	1573.23
622.119	1633.68
622.318	1587.56
622.517	1572.45
622.715	1591.63
622.914	1552.88
623.113	1590.08
623.312	1553.66
623.511	1625.73
623.71	1589.5
623.909	1548.82
624.107	1629.8
624.306	1531.18
624.505	1538.16
624.704	1579.62
624.902	1555.02
625.101	1580.4
625.3	1581.36
625.499	1523.63
625.697	1540.87
625.896	1523.63
626.095	1527.31
626.293	1466.86
626.492	1504.64
626.69	1531.38
626.889	1503.48
627.088	1568.77
627.286	1489.33
627.485	1509.1
627.683	1496.5
627.882	1522.85
628.08	1480.04
628.279	1476.16
628.477	1535.83
628.676	1438.96
628.874	1508.71
629.073	1449.04
629.271	1441.67
629.469	1528.28
629.668	1456.79
629.866	1450
630.065	1431.02
630.263	1532.54
630.461	1447.87
630.66	1456.59
630.858	1498.83
631.056	1516.46
631.254	1512.2
631.453	1428.11
631.651	1489.33
631.849	1460.27
632.047	1449.04
632.245	1447.87
632.444	1454.65
632.642	1479.26
632.84	1501.35
633.038	1451.94
633.236	1451.94
633.434	1415.13
633.632	1420.17
633.83	1419.59
634.028	1544.94
634.227	1462.21
634.425	1568.97
634.623	1477.32
634.821	1485.85
635.019	1461.24
635.216	1427.53
635.414	1504.64
635.612	1457.56
635.81	1457.56
636.008	1500.77
636.206	1440.32
636.404	1469.77
636.602	1393.04
636.8	1409.12
636.997	1467.83
637.195	1453.1
637.393	1470.93
637.591	1512.97
637.789	1462.21
637.986	1451.94
638.184	1436.25
638.382	1500.77
638.58	1486.62
638.777	1521.5
638.975	1472.29
639.173	1455.82
639.37	1456.59
639.568	1421.14
639.765	1466.47
639.963	1414.94
640.161	1466.86
640.358	1453.49
640.556	1364.95
640.753	1363.01
640.951	1370.18
641.148	1412.22
641.346	1406.22
641.543	1389.56
641.741	1407.57
641.938	1360.69
642.136	1397.11
642.333	1374.06
642.531	1420.94
642.728	1462.6
642.925	1412.22
643.123	1382.58
643.32	1396.34
643.517	1379.29
643.715	1357.59
643.912	1356.62
644.109	1370.76
644.306	1359.14
644.504	1366.31
644.701	1352.16
644.898	1372.89
645.095	1318.26
645.293	1346.93
645.49	1351.19
645.687	1332.01
645.884	1405.44
646.081	1296.56
646.278	1309.93
646.475	1335.5
646.672	1286.29
646.87	1342.09
647.067	1309.34
647.264	1324.65
647.461	1284.54
647.658	1213.25
647.855	1308.57
648.052	1256.45
648.249	1205.69
648.446	1271.76
648.642	1227.97
648.839	1233.78
649.036	1264.78
649.233	1184.38
649.43	1236.88
649.627	1212.66
649.824	1203.17
650.021	1179.34
650.217	1179.15
650.414	1192.71
650.611	1231.07
650.808	1264.98
651.004	1248.31
651.201	1263.62
651.398	1318.45
651.595	1234.17
651.791	1210.73
651.988	1309.73
652.185	1219.25
652.381	1269.24
652.578	1162.29
652.775	1239.59
652.971	1218.48
653.168	1217.31
653.364	1248.51
653.561	1141.75
653.757	1232.62
653.954	1232.43
654.15	1184.38
654.347	1275.05
654.543	1216.54
654.74	1158.61
654.936	1180.11
655.133	1171.2
655.329	1192.13
655.525	1167.91
655.722	1203.56
655.918	1120.83
656.115	1160.35
656.311	1041.39
656.507	1030.54
656.704	1004
656.9	1020.47
657.096	1037.9
657.292	1021.05
657.489	1106.68
657.685	1091.18
657.881	1071.81
658.077	1081.69
658.273	1102.62
658.47	1170.23
658.666	1111.92
658.862	1171.4
659.058	1100.68
659.254	1164.42
659.45	1131.87
659.646	1167.33
659.842	1137.88
660.038	1164.23
660.234	1131.1
660.43	1141.75
660.626	1224.68
660.822	1169.85
661.018	1181.28
661.214	1111.33
661.41	1084.6
661.606	1186.12
661.802	1204.53
661.998	1128.19
662.194	1111.72
662.39	1169.26
662.586	1167.71
662.781	1177.6
662.977	1135.75
663.173	1179.34
663.369	1132.07
663.564	1128.19
663.76	1174.5
663.956	1124.51
664.152	1151.05
664.347	1046.43
664.543	1143.3
664.739	1100.48
664.934	1061.73
665.13	1071.03
665.326	1109.4
665.521	1145.63
665.717	1065.22
665.912	1060.77
666.108	1015.43
666.304	1072
666.499	1095.83
666.695	1002.84
666.89	1076.46
667.086	1139.62
667.281	1107.27
667.477	1195.03
667.672	1081.3
667.867	1053.4
668.063	1065.03
668.258	1044.1
668.454	1059.8
668.649	1128.19
668.844	1084.02
669.04	1129.74
669.235	1039.45
669.43	1045.65
669.626	1015.62
669.821	1073.17
670.016	1048.17
670.211	1063.09
670.407	1026.86
670.602	1054.18
670.797	1051.08
670.992	1089.05
671.187	1023.95
671.382	1128.38
671.578	1016.59
671.773	1054.76
671.968	985.59
672.163	1047.79
672.358	1063.87
672.553	1024.92
672.748	1000.32
672.943	1110.17
673.138	1018.72
673.333	1046.04
673.528	1000.51
673.723	1026.09
673.918	1063.48
674.113	963.31
674.308	1118.12
674.503	1068.13
674.698	1064.25
674.892	1054.57
675.087	1051.66
675.282	1030.15
675.477	1036.55
675.672	1048.75
675.867	988.11
676.061	973.97
676.256	956.53
676.451	984.04
676.646	1008.84
676.84	981.33
677.035	997.6
677.23	981.72
677.424	1024.54
677.619	1030.74
677.814	1070.65
678.008	1059.41
678.203	954.79
678.397	973.39
678.592	1022.02
678.787	1071.03
678.981	1013.49
679.176	1009.42
679.37	987.53
679.565	985.4
679.759	1004.97
679.954	994.12
680.148	1036.35
680.342	1070.84
680.537	1011.36
680.731	979
680.926	1017.95
681.12	1017.56
681.314	981.91
681.509	984.24
681.703	1022.02
681.897	1006.52
682.092	1002.25
682.286	985.4
682.48	1048.17
682.674	1059.8
682.869	975.13
683.063	982.69
683.257	1082.47
683.451	962.73
683.645	1044.1
683.839	1017.37
684.034	954.59
684.228	1043.14
684.422	927.86
684.616	943.94
684.81	997.99
685.004	976.49
685.198	996.83
685.392	983.07
685.586	978.23
685.78	991.99
685.974	999.93
686.168	1014.27
686.362	1037.9
686.556	914.29
686.75	887.17
686.944	918.56
687.138	896.86
687.331	783.51
687.525	831.37
687.719	757.55
687.913	830.59
688.107	813.35
688.301	793.2
688.494	882.91
688.688	824.59
688.882	781
689.076	787.58
689.269	814.71
689.463	947.23
689.657	839.89
689.85	822.84
690.044	851.13
690.238	876.71
690.431	893.56
690.625	843.38
690.818	886.59
691.012	903.25
691.205	924.95
691.399	882.71
691.593	928.24
691.786	975.71
691.98	955.76
692.173	997.22
692.366	974.35
692.56	968.35
692.753	1035.77
692.947	936.19
693.14	1003.03
693.333	1002.06
693.527	967.38
693.72	980.75
693.914	988.5
694.107	950.91
694.3	1001.29
694.493	956.72
694.687	1013.49
694.88	995.86
695.073	1031.7
695.266	997.02
695.46	1038.29
695.653	1039.26
695.846	1042.55
696.039	966.8
696.232	1003.03
696.425	1073.75
696.618	1102.62
696.812	1052.24
697.005	1128.58
697.198	1186.7
697.391	1103
697.584	1148.15
697.777	1173.53
697.97	1167.71
698.163	1198.91
698.356	1169.26
698.549	1220.61
698.742	1239.21
698.935	1202.98
699.127	1204.33
699.32	1185.93
699.513	1196.39
699.706	1216.93
699.899	1264.59
700.092	1219.64
700.285	1242.89
700.477	1183.6
700.67	1233.59
700.863	1271.95
701.056	1346.93
701.248	1310.7
701.441	1336.08
701.634	1276.79
701.826	1413.39
702.019	1262.07
702.212	1373.67
702.404	1298.11
702.597	1319.81
702.79	1352.16
702.982	1371.34
703.175	1396.14
703.367	1415.13
703.56	1433.54
703.752	1555.4
703.945	1481.97
704.137	1495.73
704.33	1549.2
704.522	1521.69
704.715	1542.62
704.907	1586.4
705.1	1604.61
705.292	1606.75
705.484	1555.02
705.677	1660.99
705.869	1675.14
706.061	1671.65
706.254	1706.14
706.446	1691.8
706.638	1678.04
706.831	1774.72
707.023	1731.52
707.215	1827.04
707.407	1810.76
707.599	1819.48
707.792	1805.14
707.984	1860.36
708.176	1871.79
708.368	1838.85
708.56	1884.77
708.752	1896.2
708.944	1871.6
709.136	1897.56
709.329	1914.22
709.521	2063.6
709.713	2008
709.905	2022.91
710.097	2090.73
710.289	2071.55
710.481	2018.26
710.672	2053.72
710.864	2108.16
711.056	2128.12
711.248	2119.01
711.44	2171.33
711.632	2164.16
711.824	2179.27
712.016	2229.06
712.207	2273.04
712.399	2250.96
712.591	2311.79
712.783	2286.99
712.975	2317.22
713.166	2290.29
713.358	2331.55
713.55	2392.97
713.741	2382.12
713.933	2377.28
714.125	2411.18
714.316	2396.65
714.508	2451.68
714.7	2485.78
714.891	2472.41
715.083	2521.23
715.274	2514.26
715.466	2537.12
715.657	2565.99
715.849	2475.31
716.04	2561.53
716.232	2509.8
716.423	2582.26
716.615	2517.55
716.806	2474.35
716.998	2495.85
717.189	2381.54
717.381	2317.02
717.572	2305.2
717.763	2299.2
717.955	2293.58
718.146	2305.2
718.337	2259.48
718.528	2214.72
718.72	2118.82
718.911	2201.55
719.102	2205.81
719.293	2225.96
719.485	2163.58
719.676	2212.21
719.867	2176.36
720.058	2171.33
720.249	2176.94
720.44	2176.56
720.632	2269.56
720.823	2318.19
721.014	2473.96
721.205	2418.74
721.396	2521.43
721.587	2654.34
721.778	2662.47
721.969	2759.54
722.16	2803.72
722.351	2842.66
722.542	2983.9
722.733	2987
722.924	2883.35
723.115	2926.16
723.305	2915.51
723.496	2938.95
723.687	2806.62
723.878	2853.32
724.069	2801.58
724.26	2844.98
724.45	2789.57
724.641	2765.74
724.832	2864.17
725.023	2840.92
725.213	2788.6
725.404	2826
725.595	2806.04
725.785	2838.2
725.976	2893.42
726.167	2882.77
726.357	2888.19
726.548	3013.16
726.739	2893.81
726.929	2995.33
727.12	3031.37
727.31	3076.32
727.501	2973.05
727.691	3035.05
727.882	3052.88
728.072	3080.39
728.263	3030.79
728.453	3108.87
728.644	3173.39
728.834	3147.42
729.024	3123.01
729.215	3095.11
729.405	3144.13
729.596	3233.06
729.786	3230.54
729.976	3251.47
730.167	3297.19
730.357	3255.34
730.547	3271.23
730.737	3312.69
730.928	3372.17
731.118	3384.96
731.308	3352.6
731.498	3404.14
731.688	3458.19
731.879	3495.01
732.069	3514.38
732.259	3537.44
732.449	3584.71
732.639	3724.79
732.829	3686.23
733.019	3727.31
733.209	3774.78
733.399	3814.88
733.589	3893.35
733.779	3892.77
733.969	3887.93
734.159	3974.92
734.349	4034.01
734.539	4054.74
734.729	4052.42
734.919	4133.4
735.109	4183.58
735.299	4078.57
735.488	4121.39
735.678	4148.71
735.868	4148.13
736.058	4130.88
736.248	4104.54
736.437	4068.5
736.627	4087.1
736.817	4232.21
737.007	4172.93
737.196	4252.75
737.386	4211.68
737.576	4165.57
737.765	4281.62
737.955	4202.57
738.144	4442.82
738.334	4278.13
738.524	4235.9
738.713	4242.1
738.903	4268.64
739.092	4302.54
739.282	4369.19
739.471	4340.13
739.661	4308.94
739.85	4390.31
740.04	4371.91
740.229	4426.93
740.419	4396.51
740.608	4442.43
740.797	4416.27
740.987	4499.39
741.176	4486.22
741.365	4396.32
741.555	4384.89
741.744	4496.1
741.933	4402.13
742.123	4442.43
742.312	4537.75
742.501	4532.91
742.69	4548.8
742.88	4424.8
743.069	4596.27
743.258	4495.32
743.447	4608.47
743.636	4595.49
743.825	4538.92
744.014	4541.63
744.204	4614.28
744.393	4530.78
744.582	4656.52
744.771	4674.35
744.96	4580.77
745.149	4646.25
745.338	4600.33
745.527	4635.4
745.716	4624.17
745.905	4597.82
746.094	4694.5
746.283	4662.91
746.471	4683.06
746.66	4738.09
746.849	4704.76
747.038	4714.06
747.227	4683.45
747.416	4707.28
747.604	4660.78
747.793	4674.73
747.982	4662.91
748.171	4696.63
748.359	4670.66
748.548	4720.46
748.737	4679.96
748.926	4652.26
749.114	4541.82
749.303	4659.81
749.491	4648.77
749.68	4637.92
749.869	4682.1
750.057	4646.64
750.246	4600.14
750.434	4632.11
750.623	4606.53
750.811	4594.33
751	4665.82
751.188	4597.62
751.377	4644.9
751.565	4581.54
751.754	4530
751.942	4534.65
752.131	4628.82
752.319	4562.94
752.507	4528.07
752.696	4578.44
752.884	4630.17
753.072	4579.22
753.261	4599.95
753.449	4560.81
753.637	4506.17
753.825	4649.93
754.014	4565.27
754.202	4549.38
754.39	4611.38
754.578	4604.21
754.766	4515.67
754.955	4488.35
755.143	4620.87
755.331	4518.19
755.519	4545.89
755.707	4537.37
755.895	4512.18
756.083	4510.63
756.271	4452.31
756.459	4492.22
756.647	4497.26
756.835	4469.75
757.023	4461.42
757.211	4483.31
757.399	4450.18
757.587	4427.51
757.775	4381.21
757.963	4474.01
758.151	4428.87
758.339	4395.93
758.526	4371.91
758.714	4345.56
758.902	4288.01
759.09	4195.21
759.278	4044.28
759.465	3815.46
759.653	3411.69
759.841	3109.06
760.028	2754.89
760.216	2392.39
760.404	2288.35
760.591	1941.54
760.779	1684.63
760.967	1548.04
761.154	1357.97
761.342	1408.93
761.529	1402.15
761.717	1495.53
761.905	1540.48
762.092	1646.66
762.28	1586.6
762.467	1651.89
762.655	1560.25
762.842	1625.54
763.029	1636.97
763.217	1694.51
763.404	1676.88
763.592	1710.21
763.779	1668.16
763.966	1745.86
764.154	1804.56
764.341	1872.95
764.528	1848.74
764.716	1939.8
764.903	2005.87
765.09	2057.01
765.277	2124.24
765.465	2265.49
765.652	2380.57
765.839	2411.38
766.026	2589.04
766.213	2661.7
766.4	2734.16
766.588	2955.61
766.775	2956.2
766.962	3100.92
767.149	3140.84
767.336	3312.5
767.523	3218.72
767.71	3349.5
767.897	3475.44
768.084	3568.44
768.271	3575.61
768.458	3656.2
768.645	3715.88
768.832	3692.82
769.019	3724.21
769.206	3787.18
769.392	3860.99
769.579	3933.84
769.766	3854.02
769.953	3857.51
770.14	3950.51
770.327	3858.86
770.513	3961.36
770.7	4030.33
770.887	3880.37
771.073	3968.91
771.26	3943.14
771.447	3907.3
771.634	3916.41
771.82	4027.04
772.007	3874.36
772.193	3974.34
772.38	4019.29
772.567	3922.8
772.753	3933.65
772.94	3975.5
773.126	3991.39
773.313	4017.54
773.499	3978.41
773.686	3997.39
773.872	3889.48
774.059	3967.17
774.245	3873.78
774.432	3935.59
774.618	3789.7
774.804	3878.43
774.991	3838.71
775.177	3900.33
775.363	3882.31
775.55	3938.69
775.736	3856.93
775.922	3856.54
776.109	3851.31
776.295	3897.61
776.481	3879.21
776.667	3893.54
776.853	3808.68
777.04	3821.86
777.226	3846.66
777.412	3903.04
777.598	3797.64
777.784	3785.24
777.97	3761.6
778.156	3798.22
778.342	3758.31
778.528	3773.03
778.715	3691.27
778.901	3718.4
779.087	3755.6
779.272	3700.38
779.458	3694.37
779.644	3714.91
779.83	3687.4
780.016	3798.41
780.202	3703.48
780.388	3700.96
780.574	3594.98
780.76	3608.35
780.946	3742.23
781.131	3656.79
781.317	3663.37
781.503	3600.79
781.689	3663.18
781.874	3703.48
782.06	3623.46
782.246	3667.05
782.432	3629.08
782.617	3628.3
782.803	3693.21
782.989	3549.45
783.174	3538.99
783.36	3520.58
783.545	3548.67
783.731	3540.15
783.916	3440.37
784.102	3548.48
784.288	3491.91
784.473	3499.07
784.659	3490.94
784.844	3543.44
785.029	3417.51
785.215	3440.37
785.4	3463.81
785.586	3502.17
785.771	3387.28
785.956	3510.12
786.142	3441.53
786.327	3400.65
786.512	3411.11
786.698	3366.75
786.883	3342.33
787.068	3396.58
787.254	3388.83
787.439	3356.28
787.624	3371.2
787.809	3317.73
787.994	3328.58
788.18	3406.66
788.365	3291.57
788.55	3360.93
788.735	3318.31
788.92	3297.97
789.105	3323.73
789.29	3324.12
789.475	3217.17
789.66	3265.61
789.845	3223.18
790.03	3210.2
790.215	3295.45
790.4	3283.43
790.585	3321.8
790.77	3235.97
790.955	3145.49
791.14	3193.54
791.325	3293.32
791.51	3098.79
791.695	3208.26
791.879	3174.94
792.064	3145.87
792.249	3229.96
792.434	3201.29
792.618	3181.14
792.803	3235.97
792.988	3184.24
793.173	3197.6
793.357	3192.18
793.542	3096.27
793.727	3142.19
793.911	3163.7
794.096	3160.79
794.281	3189.85
794.465	3306.68
794.65	3120.88
794.834	3222.99
795.019	3282.47
795.203	3247.2
795.388	3235.58
795.572	3277.62
795.757	3221.24
795.941	3233.83
796.126	3235.38
796.31	3190.63
796.494	3225.12
796.679	3194.5
796.863	3172.61
797.048	3280.92
797.232	3241.97
797.416	3259.99
797.601	3232.48
797.785	3316.57
797.969	3297.38
798.153	3226.86
798.338	3288.67
798.522	3345.24
798.706	3325.48
798.89	3264.45
799.074	3390.77
799.258	3361.13
799.443	3281.88
799.627	3299.32
799.811	3351.44
799.995	3288.47
800.179	3256.12
800.363	3249.92
800.547	3290.8
800.731	3333.42
800.915	3205.55
801.099	3262.32
801.283	3246.23
801.467	3242.75
801.651	3204.58
801.835	3299.71
802.019	3300.1
802.202	3319.47
802.386	3182.49
802.57	3190.05
802.754	3202.45
802.938	3199.35
803.121	3204
803.305	3283.24
803.489	3244.88
803.673	3238.29
803.856	3251.85
804.04	3243.72
804.224	3248.95
804.407	3225.89
804.591	3227.83
804.775	3238.48
804.958	3228.8
805.142	3348.15
805.326	3220.08
805.509	3225.12
805.693	3239.45
805.876	3260.38
806.06	3287.89
806.243	3281.5
806.427	3303.97
806.61	3311.92
806.794	3196.83
806.977	3281.88
807.16	3259.99
807.344	3292.73
807.527	3246.23
807.71	3247.78
807.894	3280.92
808.077	3249.92
808.26	3199.74
808.444	3196.83
808.627	3256.5
808.81	3178.62
808.993	3123.01
809.177	3155.56
809.36	3104.41
809.543	3143.94
809.726	3038.15
809.909	3072.44
810.092	3063.53
810.276	3061.79
810.459	3105.96
810.642	3063.53
810.825	3025.75
811.008	3024.39
811.191	2933.72
811.374	2957.16
811.557	2967.43
811.74	3055.59
811.923	2937.4
812.106	2899.81
812.289	2870.95
812.472	2895.75
812.654	2876.37
812.837	2847.89
813.02	2794.8
813.203	2775.04
813.386	2683.21
813.569	2662.47
813.751	2606.68
813.934	2618.88
814.117	2592.92
814.3	2560.18
814.482	2520.85
814.665	2467.56
814.848	2430.37
815.03	2388.32
815.213	2374.18
815.396	2335.43
815.578	2340.08
815.761	2301.91
815.943	2341.24
816.126	2231.77
816.309	2238.36
816.491	2167.45
816.674	2071.74
816.856	2180.24
817.039	2105.84
817.221	2232.16
817.403	2130.83
817.586	2136.84
817.768	2211.62
817.951	2101.38
818.133	2099.25
818.315	2128.89
818.498	2181.59
818.68	2233.32
818.862	2218.41
819.045	2207.56
819.227	2193.22
819.409	2151.76
819.591	2167.06
819.774	2162.8
819.956	2140.13
820.138	2214.34
820.32	2176.94
820.502	2275.17
820.684	2340.47
820.866	2274.98
821.048	2382.32
821.231	2319.54
821.413	2378.25
821.595	2360.23
821.777	2350.93
821.959	2360.62
822.141	2425.33
822.323	2303.85
822.505	2243.98
822.686	2170.36
822.868	2039
823.05	1999.47
823.232	1953.17
823.414	1848.74
823.596	1917.9
823.778	1891.94
823.96	1944.83
824.141	1957.62
824.323	1968.67
824.505	2065.54
824.687	2096.93
824.868	2161.06
825.05	2227.9
825.232	2259.87
825.413	2361.97
825.595	2303.65
825.777	2226.16
825.958	2249.21
826.14	2273.82
826.321	2300.75
826.503	2261.42
826.685	2309.47
826.866	2351.12
827.048	2303.65
827.229	2278.27
827.411	2224.22
827.592	2176.36
827.773	2209.88
827.955	2123.08
828.136	2136.45
828.318	2073.1
828.499	2112.81
828.68	2044.61
828.862	2096.15
829.043	2130.06
829.224	2056.63
829.406	2039.96
829.587	2061.66
829.768	2059.92
829.949	2119.59
830.131	2076.58
830.312	2132.19
830.493	2065.54
830.674	2129.67
830.855	2057.98
831.036	2087.43
831.218	2159.7
831.399	2129.48
831.58	2100.41
831.761	2061.28
831.942	2133.93
832.123	2061.86
832.304	1975.83
832.485	2030.66
832.666	2047.13
832.847	2069.41
833.028	2078.33
833.209	2047.91
833.389	2071.55
833.57	1983.78
833.751	2027.18
833.932	2079.88
834.113	2080.26
834.294	2022.53
834.475	2060.89
834.655	2065.73
834.836	2098.86
835.017	2058.18
835.198	2003.15
835.378	2072.9
835.559	2125.6
835.74	2088.98
835.92	2050.43
836.101	2038.8
836.281	2108.16
836.462	2080.26
836.643	2134.32
836.823	2095.38
837.004	2106.03
837.184	2152.92
837.365	2135.68
837.545	2116.49
837.726	2112.43
837.906	2145.36
838.087	2099.83
838.267	2149.04
838.448	2052.56
838.628	2124.05
838.808	2126.96
838.989	2165.32
839.169	2044.61
839.349	2106.42
839.53	2141.29
839.71	2133.35
839.89	2077.75
840.07	2147.11
840.251	2087.63
840.431	2122.31
840.611	2054.69
840.791	2046.36
840.971	2122.5
841.151	2045.97
841.332	2082.01
841.512	2119.59
841.692	2033.76
841.872	2078.91
842.052	2072.71
842.232	2107
842.412	2005.09
842.592	2024.08
842.772	2042.87
842.952	2066.51
843.132	2024.66
843.312	1987.46
843.492	1980.1
843.672	2070.77
843.851	1948.71
844.031	1965.37
844.211	1987.46
844.391	1985.91
844.571	2020.2
844.751	2001.22
844.93	2016.33
845.11	1977.58
845.29	2016.52
845.47	2023.69
845.649	2009.74
845.829	2052.17
846.009	1959.56
846.188	2040.93
846.368	1993.47
846.547	1963.63
846.727	2037.64
846.907	1922.94
847.086	1984.17
847.266	2013.42
847.445	2004.9
847.625	1977.77
847.804	1932.43
847.984	1931.27
848.163	1915
848.343	1935.53
848.522	1924.1
848.701	1932.24
848.881	1911.7
849.06	1921.2
849.239	1917.52
849.419	1946.77
849.598	1875.47
849.777	1858.04
849.957	1829.17
850.136	1771.43
850.315	1740.43
850.494	1752.06
850.674	1763.29
850.853	1825.87
851.032	1799.14
851.211	1840.02
851.39	1828.01
851.569	1755.93
851.748	1813.47
851.927	1849.12
852.107	1828.97
852.286	1764.26
852.465	1746.24
852.644	1806.31
852.823	1834.21
853.002	1805.92
853.181	1800.3
853.359	1811.34
853.538	1739.08
853.717	1811.34
853.896	1688.89
854.075	1638.13
854.254	1621.86
854.433	1520.14
854.611	1546.1
854.79	1526.15
854.969	1572.26
855.148	1632.9
855.327	1545.91
855.505	1597.83
855.684	1602.1
855.863	1625.73
856.041	1611.78
856.22	1654.21
856.399	1633.48
856.577	1727.26
856.756	1720.67
856.934	1844.47
857.113	1836.92
857.291	1741.79
857.47	1726.87
857.648	1750.89
857.827	1758.45
858.005	1758.26
858.184	1667.39
858.362	1774.53
858.541	1727.26
858.719	1729.78
858.898	1691.61
859.076	1708.46
859.254	1771.24
859.433	1699.16
859.611	1670.68
859.789	1623.21
859.967	1716.99
860.146	1734.62
860.324	1654.99
860.502	1660.03
860.68	1637.36
860.859	1649.37
861.037	1611.2
861.215	1668.74
861.393	1675.33
861.571	1677.08
861.749	1643.75
861.927	1681.34
862.105	1679.59
862.283	1645.11
862.461	1606.16
862.639	1592.99
862.817	1608.49
862.995	1626.12
863.173	1586.79
863.351	1612.95
863.529	1637.75
863.707	1644.53
863.885	1620.5
864.063	1527.89
864.241	1582.14
864.418	1661.96
864.596	1541.45
864.774	1538.16
864.952	1605.39
865.129	1584.46
865.307	1530.6
865.485	1470.54
865.663	1580.01
865.84	1489.72
866.018	1457.17
866.196	1395.95
866.373	1381.03
866.551	1339.76
866.728	1275.05
866.906	1344.41
867.084	1357.39
867.261	1397.11
867.439	1438.38
867.616	1462.79
867.794	1443.61
867.971	1450.59
868.149	1489.14
868.326	1502.7
868.503	1500.38
868.681	1463.37
868.858	1438.77
869.035	1448.84
869.213	1501.73
869.39	1453.88
869.567	1537.38
869.745	1442.84
869.922	1464.54
870.099	1491.47
870.276	1497.47
870.454	1495.73
870.631	1481.39
870.808	1431.21
870.985	1496.7
871.162	1513.94
871.339	1462.6
871.517	1413.58
871.694	1401.57
871.871	1416.49
872.048	1420.55
872.225	1417.26
872.402	1413
872.579	1406.8
872.756	1427.92
872.933	1361.27
873.11	1392.66
873.287	1443.03
873.463	1408.35
873.64	1363.59
873.817	1409.51
873.994	1396.72
874.171	1339.18
874.348	1386.26
874.524	1327.56
874.701	1374.44
874.878	1301.01
875.055	1393.43
875.231	1357.39
875.408	1384.71
875.585	1300.43
875.762	1379.48
875.938	1329.49
876.115	1365.72
876.291	1334.14
876.468	1321.94
876.645	1284.74
876.821	1311.86
876.998	1314.19
877.174	1328.33
877.351	1321.55
877.527	1251.99
877.704	1311.09
877.88	1271.76
878.057	1289.58
878.233	1350.81
878.409	1297.91
878.586	1290.36
878.762	1279.51
878.938	1285.71
879.115	1205.5
879.291	1286.87
879.467	1222.55
879.644	1252.38
879.82	1316.51
879.996	1225.45
880.172	1197.36
880.349	1276.99
880.525	1269.43
880.701	1195.23
880.877	1214.41
881.053	1241.34
881.229	1224.87
881.405	1286.68
881.581	1228.94
881.757	1220.03
881.933	1245.79
882.109	1263.04
882.285	1241.34
882.461	1163.26
882.637	1248.51
882.813	1207.63
882.989	1232.23
883.165	1283.77
883.341	1222.93
883.517	1296.56
883.693	1241.34
883.869	1254.9
884.044	1233.39
884.22	1255.09
884.396	1272.73
884.572	1257.23
884.747	1245.99
884.923	1244.83
885.099	1266.53
885.275	1310.31
885.45	1232.62
885.626	1222.74
885.801	1180.11
885.977	1215.18
886.153	1145.43
886.328	1228.36
886.504	1211.5
886.679	1201.23
886.855	1217.12
887.03	1196.2
887.206	1258
887.381	1226.03
887.557	1228.94
887.732	1242.89
887.908	1269.04
888.083	1252.96
888.258	1214.41
888.434	1203.75
888.609	1232.43
888.784	1272.92
888.96	1190
889.135	1197.36
889.31	1209.95
889.485	1229.13
889.661	1196.58
889.836	1261.29
890.011	1230.88
890.186	1221.96
890.361	1185.54
890.537	1260.52
890.712	1262.84
890.887	1224.29
891.062	1217.31
891.237	1296.56
891.412	1184.38
891.587	1218.67
891.762	1256.64
891.937	1247.73
892.112	1180.5
892.287	1206.46
892.462	1180.31
892.637	1148.92
892.812	1108.04
892.987	1150.66
893.161	1094.87
893.336	1134.97
893.511	1132.65
893.686	1137.88
893.861	1135.55
894.035	1148.73
894.21	1154.15
894.385	1077.04
894.56	1141.75
894.734	1064.45
894.909	1058.44
895.084	1068.71
895.258	1059.8
895.433	1067.35
895.608	1032.29
895.782	997.99
895.957	1004.97
896.131	1001.48
896.306	939.67
896.48	941.42
896.655	957.11
896.829	877.48
897.004	876.32
897.178	898.02
897.353	864.31
897.527	926.5
897.701	883.68
897.876	856.17
898.05	933.86
898.224	909.45
898.399	909.84
898.573	885.62
898.747	769.56
898.921	807.73
899.096	725.78
899.27	754.45
899.444	704.08
899.618	751.55
899.792	797.85
899.967	803.08
900.141	867.41
900.315	740.5
900.489	767.05
900.663	793.01
900.837	788.55
901.011	715.51
901.185	849.78
901.359	786.42
901.533	808.31
901.707	771.11
901.881	800.56
902.055	753.87
902.229	765.11
902.403	844.16
902.576	764.91
902.75	798.43
902.924	903.83
903.098	844.35
903.272	869.34
903.446	934.06
903.619	917.59
903.793	931.34
903.967	924.56
904.14	957.5
904.314	997.41
904.488	960.6
904.661	936.57
904.835	960.6
905.009	960.41
905.182	1020.08
905.356	983.65
905.529	957.5
905.703	928.63
905.876	901.89
906.05	896.47
906.223	879.81
906.397	824.39
906.57	800.95
906.744	776.93
906.917	793.98
907.09	800.18
907.264	785.45
907.437	748.25
907.61	685.87
907.784	756.58
907.957	763.36
908.13	719
908.304	743.6
908.477	711.05
908.65	732.75
908.823	690.32
908.996	753.1
909.17	720.16
909.343	714.73
909.516	697.88
909.689	717.64
909.862	650.02
910.035	666.88
910.208	678.5
910.381	643.43
910.554	753.87
910.727	682.18
910.9	688.58
911.073	665.72
911.246	741.28
911.419	733.14
911.592	723.26
911.765	659.52
911.938	677.53
912.11	704.27
912.283	689.35
912.456	743.41
912.629	711.25
912.802	654.28
912.974	651.96
913.147	600.23
913.32	557.02
913.493	569.42
913.665	638.98
913.838	653.32
914.01	620.38
914.183	627.74
914.356	638.01
914.528	661.26
914.701	718.61
914.873	653.51
915.046	597.32
915.218	582.02
915.391	524.86
915.563	519.24
915.736	605.46
915.908	603.72
916.081	590.93
916.253	612.24
916.425	601.78
916.598	635.3
916.77	610.3
916.942	566.71
917.115	510.72
917.287	589.38
917.459	545.98
917.632	516.72
917.804	508.59
917.976	587.83
918.148	577.17
918.32	572.14
918.493	627.93
918.665	619.22
918.837	604.88
919.009	650.41
919.181	660.29
919.353	611.27
919.525	599.26
919.697	590.35
919.869	629.29
920.041	665.52
920.213	741.28
920.385	648.86
920.557	600.62
920.729	639.17
920.901	631.42
921.073	622.32
921.244	601.59
921.416	658.16
921.588	622.9
921.76	591.32
921.932	661.45
922.103	567.29
922.275	587.64
922.447	601.2
922.619	523.31
922.79	573.1
922.962	573.88
923.134	614.76
923.305	547.53
923.477	530.29
923.648	548.11
923.82	567.68
923.991	496.19
924.163	507.81
924.335	539.59
924.506	517.5
924.677	569.23
924.849	537.07
925.02	529.32
925.192	564.97
925.363	557.8
925.535	561.67
925.706	535.32
925.877	548.11
926.049	506.65
926.22	528.35
926.391	507.42
926.562	555.09
926.734	503.94
926.905	542.88
927.076	464.99
927.247	486.89
927.419	439.03
927.59	456.08
927.761	447.56
927.932	443.68
928.103	443.1
928.274	421.59
928.445	394.66
928.616	427.99
928.787	423.34
928.958	426.63
929.129	417.91
929.3	396.6
929.471	360.18
929.642	328.6
929.813	268.53
929.984	361.92
930.155	279.38
930.326	336.35
930.496	329.37
930.667	219.13
930.838	282.29
931.009	236.37
931.18	246.45
931.35	235.98
931.521	240.05
931.692	186.77
931.863	144.73
932.033	210.8
932.204	193.94
932.374	190.65
932.545	145.5
932.716	197.04
932.886	221.65
933.057	105.4
933.227	118.77
933.398	241.6
933.568	128.45
933.739	92.03
933.909	85.25
934.08	176.31
934.25	66.26
934.421	81.57
934.591	128.45
934.761	98.81
934.932	71.88
935.102	124.19
935.272	107.92
935.443	123.61
935.613	107.92
935.783	117.6
935.953	45.92
936.123	261.75
936.294	99.39
936.464	89.9
936.634	72.85
936.804	73.82
936.974	77.89
937.144	109.08
937.314	97.84
937.484	69.36
937.655	64.91
937.825	142.4
937.995	68.78
938.165	149.38
938.334	117.22
938.504	128.65
938.674	114.31
938.844	103.85
939.014	194.33
939.184	174.57
939.354	233.27
939.524	237.92
939.694	165.65
939.863	153.06
940.033	217.77
940.203	235.79
940.373	192.39
940.542	219.71
940.712	150.35
940.882	206.73
941.051	252.26
941.221	223.2
941.391	205.37
941.56	173.21
941.73	161.39
941.899	269.7
942.069	148.8
942.238	185.03
942.408	151.32
942.577	205.57
942.747	130.39
942.916	83.12
943.086	145.31
943.255	177.28
943.425	165.85
943.594	125.16
943.763	72.07
943.933	81.76
944.102	45.14
944.271	121.67
944.441	167.59
944.61	117.41
944.779	130.59
944.948	209.25
945.117	105.98
945.287	99.2
945.456	44.37
945.625	86.41
945.794	130.2
945.963	105.79
946.132	137.37
946.301	107.14
946.47	144.15
946.639	89.9
946.808	114.89
946.977	156.94
947.146	189.68
947.315	93.39
947.484	175.73
947.653	102.3
947.822	97.84
947.991	90.29
948.16	197.43
948.329	194.72
948.498	135.24
948.666	131.17
948.835	162.55
949.004	90.67
949.173	83.51
949.341	143.57
949.51	154.61
949.679	188.13
949.847	142.4
950.016	209.44
950.185	209.25
950.353	104.04
950.522	111.21
950.69	192.58
950.859	126.13
951.028	167.2
951.196	128.45
951.365	116.05
951.533	123.8
951.701	174.18
951.87	155.58
952.038	87.96
952.207	138.34
952.375	172.44
952.543	129.04
952.712	135.62
952.88	98.42
953.048	160.42
953.217	132.52
953.385	121.29
953.553	178.25
953.721	102.1
953.89	130
954.058	69.36
954.226	104.43
954.394	123.61
954.562	74.01
954.73	121.87
954.898	107.14
955.067	180.57
955.235	109.27
955.403	168.17
955.571	198.01
955.739	148.99
955.907	64.52
956.075	105.2
956.243	98.04
956.41	142.21
956.578	87.57
956.746	70.14
956.914	117.02
957.082	143.76
957.25	136.4
957.418	104.04
957.585	126.52
957.753	172.82
957.921	94.55
958.089	104.82
958.256	142.6
958.424	135.62
958.592	118.77
958.759	94.94
958.927	140.08
959.095	108.69
959.262	108.11
959.43	124.58
959.597	74.98
959.765	113.34
959.932	73.04
960.1	147.05
960.267	115.67
960.435	115.47
960.602	164.69
960.77	120.51
960.937	107.72
961.104	150.54
961.272	73.43
961.439	102.3
961.606	151.32
961.774	157.71
961.941	129.81
962.108	134.85
962.275	145.31
962.443	201.88
962.61	136.59
962.777	197.23
962.944	175.15
963.111	119.74
963.278	137.17
963.446	151.7
963.613	126.71
963.78	158.1
963.947	142.6
964.114	122.25
964.281	242.77
964.448	155.97
964.615	111.6
964.782	133.1
964.949	188.9
965.116	173.21
965.282	204.21
965.449	128.07
965.616	115.09
965.783	151.7
965.95	148.02
966.117	110.05
966.283	133.88
966.45	158.1
966.617	139.11
966.784	200.14
966.95	179.02
967.117	167.59
967.284	106.17
967.45	137.56
967.617	204.4
967.784	198.2
967.95	196.65
968.117	150.54
968.283	203.24
968.45	267.76
968.616	160.42
968.783	184.45
968.949	159.45
969.116	215.45
969.282	148.02
969.449	150.54
969.615	166.43
969.781	87.19
969.948	119.74
970.114	106.17
970.28	208.86
970.447	148.41
970.613	207.7
970.779	161.39
970.945	178.83
971.112	176.31
971.278	172.05
971.444	171.47
971.61	187.74
971.776	147.25
971.942	193.75
972.108	199.75
972.275	144.34
972.441	197.04
972.607	247.8
972.773	115.86
972.939	185.61
973.105	167.01
973.271	101.33
973.437	126.32
973.602	104.82
973.768	174.18
973.934	130.97
974.1	146.09
974.266	61.61
974.432	159.07
974.598	131.94
974.763	173.99
974.929	136.98
975.095	194.91
975.261	106.37
975.426	91.06
975.592	142.79
975.758	212.35
975.923	93.97
976.089	114.5
976.255	156.94
976.42	160.62
976.586	147.44
976.751	163.72
976.917	205.95
977.082	152.67
977.248	106.75
977.413	62.39
977.579	116.25
977.744	164.1
977.91	115.28
978.075	111.79
978.24	186.19
978.406	129.04
978.571	114.7
978.736	117.6
978.902	159.84
979.067	82.34
979.232	57.54
979.397	144.73
979.563	181.93
979.728	55.02
979.893	130.97
980.058	99.97
980.223	196.46
980.388	136.98
980.554	138.34
980.719	103.65
980.884	134.07
981.049	160.62
981.214	129.04
981.379	129.04
981.544	107.14
981.709	112.18
981.874	101.52
982.039	117.22
982.204	170.3
982.368	140.27
982.533	132.33
982.698	153.64
982.863	143.37
983.028	119.35
983.193	170.11
983.357	114.89
983.522	133.88
983.687	104.04
983.852	117.8
984.016	117.99
984.181	122.84
984.346	144.73
984.51	152.09
984.675	126.9
984.839	160.62
985.004	142.6
985.168	148.02
985.333	134.65
985.498	89.9
985.662	161.2
985.827	120.51
985.991	120.9
986.155	118.57
986.32	138.72
986.484	179.02
986.649	148.99
986.813	83.51
986.977	121.48
987.142	143.57
987.306	109.85
987.47	97.45
987.634	111.6
987.799	143.95
987.963	140.08
988.127	166.24
988.291	189.68
988.455	149.19
988.62	118.77
988.784	142.02
988.948	126.71
989.112	96.1
989.276	115.47
989.44	133.88
989.604	91.06
989.768	107.34
989.932	201.11
990.096	89.12
990.26	74.21
990.424	80.41
990.588	81.57
990.752	168.17
990.915	129.81
991.079	116.25
991.243	77.31
991.407	118.96
991.571	97.26
991.734	131.75
991.898	138.72
992.062	210.6
992.226	113.73
992.389	64.32
992.553	50.37
992.717	91.64
992.88	109.08
993.044	96.29
993.207	91.45
993.371	136.79
993.535	110.24
993.698	116.64
993.862	96.68
994.025	165.65
994.189	109.85
994.352	117.6
994.515	121.09
994.679	149.77
994.842	94.35
995.006	137.56
995.169	77.89
995.332	85.44
995.496	144.15
995.659	45.92
995.822	122.25
995.985	113.92
996.149	188.13
996.312	98.04
996.475	145.12
996.638	74.21
996.801	141.63
996.964	154.8
997.128	78.27
997.291	96.87
997.454	113.73
997.617	47.27
997.78	154.03
997.943	62.77
998.106	139.11
998.269	72.07
998.432	108.5
998.595	108.3
998.758	52.51
998.92	18.6
999.083	53.47
999.246	84.67
999.409	39.14
999.572	11.24
999.735	67.42
999.897	101.33
1000.06	64.52
1000.223	69.75
1000.386	117.99
1000.548	102.3
1000.711	116.83
1000.874	134.27
1001.036	41.46
1001.199	98.04
1001.361	57.54
1001.524	88.15
1001.687	118.96
1001.849	50.96
1002.012	80.99
1002.174	82.73
1002.337	115.28
1002.499	83.31
1002.661	134.27
1002.824	75.56
1002.986	58.12
1003.149	72.46
1003.311	31.58
1003.473	171.85
1003.636	66.84
1003.798	106.95
1003.96	112.37
1004.123	85.06
1004.285	66.84
1004.447	60.84
1004.609	69.36
1004.771	121.09
1004.933	15.11
1005.096	37.01
1005.258	39.91
1005.42	57.35
1005.582	126.9
1005.744	104.43
1005.906	27.9
1006.068	94.94
1006.23	27.12
1006.392	41.66
1006.554	42.24
1006.716	111.79
1006.878	70.33
1007.04	22.28
1007.202	57.16
1007.363	83.51
1007.525	83.12
1007.687	98.04
1007.849	132.33
1008.011	-1.94
1008.172	56.38
1008.334	67.81
1008.496	99.97
1008.658	3.68
1008.819	41.27
1008.981	14.34
1009.143	52.31
1009.304	62.58
1009.466	87.19
1009.627	141.63
1009.789	188.9
1009.95	54.06
1010.112	55.8
1010.273	99.39
1010.435	48.82
1010.596	41.27
1010.758	51.15
1010.919	25.19
1011.081	23.64
1011.242	35.07
1011.403	53.86
1011.565	61.81
1011.726	83.12
1011.887	6.39
1012.049	33.32
1012.21	92.61
1012.371	120.32
1012.532	-14.34
1012.693	54.83
1012.855	3.49
1013.016	57.74
1013.177	88.15
1013.338	57.35
1013.499	134.27
1013.66	61.81
1013.821	83.7
1013.982	52.12
1014.143	28.87
1014.304	43.59
1014.465	82.54
1014.626	76.53
1014.787	74.21
1014.948	118.96
1015.109	-17.63
1015.27	81.76
1015.431	39.33
1015.592	46.69
1015.752	93.97
1015.913	82.15
1016.074	68.59
1016.235	86.22
1016.395	42.04
1016.556	41.46
1016.717	40.3
1016.877	104.24
1017.038	27.71
1017.199	64.71
1017.359	41.85
1017.52	74.79
1017.681	12.4
1017.841	61.81
1018.002	47.47
1018.162	20.54
1018.323	105.4
1018.483	43.79
1018.644	24.8
1018.804	-34.29
1018.964	10.66
1019.125	-1.16
1019.285	59.87
1019.446	29.64
1019.606	0.97
1019.766	-31
1019.926	52.89
1020.087	40.3
1020.247	20.34
1020.407	53.67
1020.567	75.37
1020.728	22.47
1020.888	7.75
1021.048	29.26
1021.208	2.71
1021.368	13.37
1021.528	107.53
1021.688	67.42
1021.848	69.56
1022.008	27.32
1022.168	17.82
1022.328	46.69
1022.488	58.32
1022.648	32.16
1022.808	53.47
1022.968	43.4
1023.128	12.59
1023.288	-3.68
1023.448	46.89
1023.608	60.64
1023.767	91.64
1023.927	1.16
1024.087	1.74
1024.247	4.07
1024.406	30.03
1024.566	-14.72
1024.726	16.27
1024.885	49.79
1025.045	83.7
1025.205	17.82
1025.364	43.01
1025.524	58.9
1025.683	30.61
1025.843	57.35
1026.003	43.79
1026.162	85.64
1026.321	79.24
1026.481	40.49
1026.64	24.99
1026.8	64.13
1026.959	23.25
1027.119	29.06
1027.278	17.44
1027.437	6.59
1027.597	53.86
1027.756	35.65
1027.915	59.09
1028.074	36.62
1028.234	11.43
1028.393	33.71
1028.552	31
1028.711	-43.4
1028.87	109.47
1029.03	-23.64
1029.189	25.57
1029.348	-51.54
1029.507	-4.26
1029.666	32.55
1029.825	31.19
1029.984	12.98
1030.143	38.17
1030.302	40.69
1030.461	-30.42
1030.62	38.56
1030.779	36.62
1030.938	-15.5
1031.097	-10.85
1031.255	43.4
1031.414	98.23
1031.573	60.26
1031.732	-12.98
1031.891	0.58
1032.049	88.93
1032.208	47.86
1032.367	-19.18
1032.525	-1.55
1032.684	4.65
1032.843	24.99
1033.001	-12.4
1033.16	180.57
1033.319	66.46
1033.477	36.23
1033.636	26.16
1033.794	-24.22
1033.953	53.09
1034.111	49.99
1034.27	0.19
1034.428	54.83
1034.587	-31.19
1034.745	40.88
1034.903	27.71
1035.062	81.57
1035.22	-20.73
1035.378	58.51
1035.537	-4.26
1035.695	75.17
1035.853	17.44
1036.011	41.66
1036.17	30.42
1036.328	-31
1036.486	26.35
1036.644	55.41
1036.802	-70.14
1036.96	7.17
1037.119	-8.33
1037.277	-8.14
1037.435	-33.13
1037.593	20.73
1037.751	14.72
1037.909	57.16
1038.067	57.16
