Data from gum_old_FLMT105791__118__15-46-07-253.txt Node

Date: Mon Mar 20 15:46:07 GMT 2023
User: antho
Spectrometer: FLMT10579
Trigger mode: 0
Integration Time (sec): 1.000000E-1
Scans to average: 10
Electric dark correction enabled: true
Nonlinearity correction enabled: false
Boxcar width: 0
XAxis mode: Wavelengths
Number of Pixels in Spectrum: 3648
>>>>>Begin Spectral Data<<<<<
345.248	-170.26
345.464	-170.26
345.681	-170.26
345.898	-201.64
346.114	-174.13
346.331	-57.11
346.548	59.34
346.764	-4.6
346.981	-7.9
347.197	-11.19
347.414	-1.5
347.631	-8.86
347.847	56.43
348.064	16.9
348.28	22.14
348.497	-65.05
348.713	1.4
348.93	24.65
349.146	23.3
349.363	0.82
349.579	18.26
349.796	1.6
350.012	14.97
350.229	54.1
350.445	21.94
350.661	8.19
350.878	38.99
351.094	16.52
351.311	45.77
351.527	47.32
351.743	8.38
351.96	42.48
352.176	51.78
352.392	34.92
352.609	57.79
352.825	1.6
353.041	11.87
353.257	32.21
353.474	-2.08
353.69	36.09
353.906	23.49
354.122	15.94
354.339	58.17
354.555	28.53
354.771	2.37
354.987	67.47
355.203	61.66
355.42	31.82
355.636	5.67
355.852	-0.92
356.068	25.04
356.284	-3.44
356.5	72.32
356.716	44.61
356.932	29.5
357.148	51.59
357.364	32.21
357.58	48.1
357.796	58.95
358.012	64.57
358.228	45
358.444	-55.36
358.66	67.47
358.876	27.17
359.092	-6.35
359.308	16.52
359.524	40.54
359.74	14.58
359.956	-14.68
360.172	41.7
360.388	88.4
360.604	-14.68
360.819	108.16
361.035	49.26
361.251	63.02
361.467	-8.86
361.683	63.02
361.898	26.01
362.114	59.92
362.33	38.6
362.546	73.09
362.762	18.65
362.977	40.15
363.193	7.6
363.409	61.66
363.624	2.95
363.84	44.61
364.056	14.77
364.271	57.4
364.487	35.5
364.703	18.26
364.918	-3.63
365.134	33.76
365.35	51.78
365.565	135.67
365.781	57.2
365.996	45
366.212	99.83
366.427	70.18
366.643	26.4
366.858	25.62
367.074	8.38
367.289	100.41
367.505	138
367.72	15.74
367.936	30.08
368.151	99.44
368.367	76.97
368.582	51.2
368.798	42.87
369.013	108.16
369.228	55.85
369.444	74.64
369.659	116.68
369.874	56.62
370.09	100.02
370.305	-0.34
370.52	18.26
370.736	111.26
370.951	43.84
371.166	99.25
371.381	120.75
371.597	78.32
371.812	9.35
372.027	26.59
372.242	55.65
372.458	142.07
372.673	32.21
372.888	33.76
373.103	60.69
373.318	141.48
373.533	93.63
373.749	73.28
373.964	-26.11
374.179	102.93
374.394	5.67
374.609	107.58
374.824	19.42
375.039	91.69
375.254	19.62
375.469	94.4
375.684	82.39
375.899	80.45
376.114	89.95
376.329	57.98
376.544	91.69
376.759	94.02
376.974	38.8
377.189	53.91
377.404	23.69
377.619	91.5
377.834	-5.96
378.049	17.68
378.264	14
378.478	61.66
378.693	48.1
378.908	94.79
379.123	59.34
379.338	120.37
379.553	68.25
379.767	92.47
379.982	97.5
380.197	89.56
380.412	57.59
380.626	69.6
380.841	159.7
381.056	83.17
381.271	149.82
381.485	59.34
381.7	43.84
381.915	59.34
382.129	36.47
382.344	74.64
382.559	34.92
382.773	113.58
382.988	1.79
383.202	56.24
383.417	27.17
383.632	156.21
383.846	49.84
384.061	75.22
384.275	20.2
384.49	74.45
384.704	80.84
384.919	52.17
385.133	61.47
385.348	88.98
385.562	32.4
385.777	121.92
385.991	61.08
386.206	110.29
386.42	57.79
386.634	113.58
386.849	98.28
387.063	97.7
387.277	41.32
387.492	36.67
387.706	23.1
387.92	43.25
388.135	122.69
388.349	110.87
388.563	100.8
388.778	101.38
388.992	83.94
389.206	125.98
389.42	163.96
389.635	76.77
389.849	112.03
390.063	145.94
390.277	99.83
390.491	159.11
390.706	149.43
390.92	147.88
391.134	120.56
391.348	132.96
391.562	43.25
391.776	82.39
391.99	90.72
392.205	140.13
392.419	93.82
392.633	80.45
392.847	138.97
393.061	70.18
393.275	156.6
393.489	75.42
393.703	82.97
393.917	121.53
394.131	42.67
394.345	110.1
394.559	135.87
394.773	73.28
394.986	143.03
395.2	122.88
395.414	158.34
395.628	97.12
395.842	148.85
396.056	117.46
396.27	63.4
396.484	109.32
396.697	106.42
396.911	144.78
397.125	128.7
397.339	118.23
397.553	130.44
397.766	183.91
397.98	154.27
398.194	164.54
398.408	110.68
398.621	148.46
398.835	170.16
399.049	150.98
399.262	194.76
399.476	205.61
399.69	208.33
399.903	249.98
400.117	151.95
400.331	206.58
400.544	173.84
400.758	316.63
400.971	202.51
401.185	250.56
401.398	127.92
401.612	275.36
401.826	205.61
402.039	227.9
402.253	170.35
402.466	229.45
402.68	208.71
402.893	223.83
403.106	217.24
403.32	170.74
403.533	228.28
403.747	206.78
403.96	205.03
404.174	254.24
404.387	160.28
404.6	220.53
404.814	258.12
405.027	202.71
405.24	209.68
405.454	192.44
405.667	237.2
405.88	149.04
406.094	244.36
406.307	252.5
406.52	200.96
406.733	215.3
406.947	174.61
407.16	276.33
407.373	245.33
407.586	176.55
407.799	181.4
408.012	255.99
408.226	208.52
408.439	276.14
408.652	188.76
408.865	252.89
409.078	268.39
409.291	251.34
409.504	176.55
409.717	271.68
409.93	263.35
410.143	288.34
410.357	167.64
410.57	191.08
410.783	207.94
410.996	238.36
411.209	211.43
411.421	296.29
411.634	254.05
411.847	236.42
412.06	294.16
412.273	248.24
412.486	262.96
412.699	337.56
412.912	255.02
413.125	282.14
413.338	295.71
413.55	284.47
413.763	262.58
413.976	293.38
414.189	252.5
414.402	266.64
414.615	318.76
414.827	234.87
415.04	298.81
415.253	281.76
415.466	318.57
415.678	368.56
415.891	296.09
416.104	261.8
416.316	266.64
416.529	248.82
416.742	314.31
416.954	296.68
417.167	291.83
417.38	266.06
417.592	308.49
417.805	253.86
418.017	227.7
418.23	317.21
418.442	234.1
418.655	251.73
418.868	303.46
419.08	327.48
419.293	334.84
419.505	314.69
419.718	288.54
419.93	311.59
420.142	290.48
420.355	332.71
420.567	310.24
420.78	291.44
420.992	276.14
421.205	355.19
421.417	260.83
421.629	284.47
421.842	276.91
422.054	242.23
422.266	317.79
422.479	363.32
422.691	274.2
422.903	335.62
423.115	276.91
423.328	276.53
423.54	289.51
423.752	313.34
423.964	287.18
424.177	316.44
424.389	291.83
424.601	416.02
424.813	321.67
425.025	325.74
425.238	353.06
425.45	320.89
425.662	315.28
425.874	643.48
426.086	314.89
426.298	320.51
426.51	322.64
426.722	319.54
426.934	307.91
427.146	336.2
427.358	296.87
427.57	364.49
427.782	297.06
427.994	314.89
428.206	264.13
428.418	260.64
428.63	331.36
428.842	325.16
429.054	320.89
429.266	362.36
429.478	290.67
429.69	311.98
429.902	276.33
430.114	368.75
430.325	312.95
430.537	291.44
430.749	267.42
430.961	186.05
431.173	243.59
431.384	312.56
431.596	198.06
431.808	247.08
432.02	308.11
432.231	347.05
432.443	386.57
432.655	347.24
432.867	365.26
433.078	361.39
433.29	412.73
433.502	395.68
433.713	399.56
433.925	419.9
434.136	422.61
434.348	272.26
434.56	253.66
434.771	434.04
434.983	287.18
435.194	337.36
435.406	341.43
435.617	424.74
435.829	436.75
436.04	414.28
436.252	397.04
436.463	438.5
436.675	434.82
436.886	433.65
437.098	432.3
437.309	493.52
437.521	397.42
437.732	421.06
437.943	427.26
438.155	406.14
438.366	337.56
438.578	450.32
438.789	419.32
439	430.55
439.211	389.29
439.423	398.39
439.634	427.07
439.845	451.29
440.057	430.36
440.268	468.72
440.479	398.01
440.69	423.39
440.902	404.21
441.113	408.86
441.324	391.22
441.535	464.65
441.746	499.72
441.957	405.76
442.168	427.07
442.38	470.27
442.591	494.3
442.802	451.48
443.013	454.58
443.224	484.03
443.435	455.94
443.646	472.6
443.857	418.54
444.068	425.71
444.279	449.35
444.49	551.26
444.701	450.32
444.912	579.35
445.123	523.55
445.334	469.89
445.545	508.83
445.756	478.02
445.967	454.77
446.178	466.4
446.388	518.9
446.599	528.2
446.81	488.49
447.021	462.52
447.232	498.37
447.443	535.37
447.653	475.5
447.864	558.43
448.075	498.37
448.286	508.44
448.496	531.88
448.707	532.66
448.918	497.4
449.129	594.85
449.339	492.17
449.55	523.55
449.761	492.17
449.971	561.92
450.182	499.34
450.393	572.77
450.603	512.9
450.814	592.14
451.024	576.64
451.235	581.68
451.446	617.52
451.656	601.05
451.867	531.11
452.077	566.37
452.288	627.79
452.498	594.66
452.709	530.92
452.919	572.18
453.13	501.85
453.34	593.69
453.55	492.94
453.761	580.52
453.971	550.29
454.182	563.08
454.392	546.61
454.602	593.88
454.813	593.69
455.023	584.58
455.233	485.97
455.444	539.83
455.654	485.77
455.864	555.72
456.075	545.64
456.285	512.12
456.495	555.72
456.705	575.67
456.916	623.72
457.126	658.21
457.336	576.64
457.546	501.47
457.756	551.84
457.967	615.2
458.177	548.35
458.387	588.07
458.597	543.51
458.807	553.97
459.017	547.58
459.227	560.75
459.437	557.85
459.647	619.85
459.857	609.96
460.068	546.61
460.278	608.22
460.488	583.03
460.698	654.33
460.908	578.77
461.117	529.56
461.327	546.8
461.537	617.52
461.747	584
461.957	600.28
462.167	719.24
462.377	667.7
462.587	575.48
462.797	651.23
463.007	639.41
463.216	641.93
463.426	692.89
463.636	647.55
463.846	570.44
464.056	580.71
464.265	668.09
464.475	577.22
464.685	600.86
464.895	645.81
465.104	615.39
465.314	645.42
465.524	609
465.733	588.07
465.943	687.46
466.153	713.62
466.362	678.16
466.572	671
466.782	627.79
466.991	640
467.201	711.29
467.41	570.83
467.62	653.56
467.829	648.71
468.039	648.33
468.249	648.91
468.458	651.43
468.668	676.23
468.877	669.45
469.086	721.18
469.296	687.66
469.505	663.44
469.715	734.35
469.924	677.97
470.134	735.32
470.343	729.7
470.552	659.95
470.762	668.28
470.971	621.59
471.18	661.89
471.39	675.06
471.599	652.59
471.808	700.06
472.018	679.91
472.227	779.88
472.436	770
472.645	737.26
472.855	705.09
473.064	789.18
473.273	757.41
473.482	760.89
473.691	815.53
473.901	784.34
474.11	756.83
474.319	824.44
474.528	757.79
474.737	861.45
474.946	807.39
475.155	789.37
475.364	847.31
475.573	784.92
475.783	842.27
475.992	829.67
476.201	844.59
476.41	823.47
476.619	761.48
476.828	828.51
477.037	791.7
477.245	808.56
477.454	843.82
477.663	832
477.872	825.22
478.081	901.94
478.29	812.43
478.499	940.11
478.708	890.9
478.917	979.44
479.125	884.31
479.334	863.97
479.543	876.75
479.752	914.54
479.961	893.61
480.169	951.93
480.378	922.29
480.587	1033.88
480.796	943.79
481.004	930.81
481.213	978.28
481.422	950.96
481.63	933.72
481.839	995.52
482.048	1027.68
482.256	986.42
482.465	1022.45
482.674	982.93
482.882	999.78
483.091	1064.5
483.299	1025.75
483.508	1044.54
483.716	987.97
483.925	1015.28
484.134	991.07
484.342	968.98
484.551	1055.2
484.759	1027.1
484.967	1036.01
485.176	1058.88
485.384	1068.18
485.593	1041.83
485.801	1077.28
486.01	1019.93
486.218	995.52
486.426	870.75
486.635	934.49
486.843	898.45
487.051	935.46
487.26	940.5
487.468	981.96
487.676	1011.41
487.885	980.02
488.093	1014.51
488.301	1052.1
488.509	1072.44
488.717	1120.49
488.926	1082.13
489.134	1058.1
489.342	1079.8
489.55	1039.89
489.758	1060.23
489.967	1079.41
490.175	1189.08
490.383	1102.86
490.591	1178.42
490.799	1119.91
491.007	1175.9
491.215	1137.34
491.423	1118.74
491.631	1167.76
491.839	1157.88
492.047	1175.71
492.255	1109.64
492.463	1104.99
492.671	1091.81
492.879	1184.81
493.087	1125.72
493.295	1124.56
493.503	1185.01
493.711	1217.75
493.919	1254.17
494.127	1213.87
494.334	1217.94
494.542	1155.75
494.75	1204.96
494.958	1175.51
495.166	1253.21
495.374	1241.58
495.581	1252.82
495.789	1231.31
495.997	1328.96
496.205	1189.85
496.412	1222.79
496.62	1220.07
496.828	1249.52
497.035	1244.68
497.243	1260.18
497.451	1245.26
497.658	1241.19
497.866	1260.96
498.074	1329.93
498.281	1231.51
498.489	1355.89
498.696	1256.69
498.904	1209.42
499.112	1207.29
499.319	1350.27
499.527	1231.51
499.734	1320.63
499.942	1243.52
500.149	1227.24
500.357	1272.58
500.564	1205.16
500.771	1251.27
500.979	1233.25
501.186	1204.57
501.394	1244.49
501.601	1234.61
501.808	1267.93
502.016	1230.92
502.223	1218.52
502.43	1247.97
502.638	1231.12
502.845	1224.72
503.052	1334
503.26	1240.22
503.467	1342.91
503.674	1284.21
503.881	1299.7
504.089	1370.04
504.296	1350.85
504.503	1228.02
504.71	1264.25
504.917	1259.21
505.125	1310.75
505.332	1323.54
505.539	1322.18
505.746	1380.3
505.953	1370.23
506.16	1354.34
506.367	1388.83
506.574	1423.51
506.781	1417.5
506.988	1348.53
507.195	1386.5
507.402	1351.44
507.609	1395.22
507.816	1313.65
508.023	1315.01
508.23	1356.67
508.437	1291.18
508.644	1382.82
508.851	1375.07
509.058	1382.82
509.265	1370.42
509.472	1419.05
509.679	1461.29
509.885	1420.41
510.092	1365.19
510.299	1383.4
510.506	1365.97
510.713	1390.57
510.92	1397.55
511.126	1434.55
511.333	1438.23
511.54	1436.3
511.746	1472.91
511.953	1460.13
512.16	1481.44
512.367	1459.93
512.573	1443.66
512.78	1438.82
512.987	1416.15
513.193	1434.75
513.4	1334.97
513.606	1429.9
513.813	1434.75
514.02	1376.82
514.226	1503.53
514.433	1464.2
514.639	1423.51
514.846	1415.37
515.052	1392.7
515.259	1423.7
515.465	1447.73
515.672	1473.5
515.878	1540.92
516.085	1470.4
516.291	1527.36
516.497	1491.51
516.704	1416.34
516.91	1371.78
517.117	1371
517.323	1303.39
517.529	1308.81
517.736	1340.59
517.942	1339.42
518.148	1339.23
518.354	1427
518.561	1399.87
518.767	1422.35
518.973	1448.7
519.179	1460.13
519.386	1379.14
519.592	1422.54
519.798	1451.6
520.004	1570.56
520.21	1512.83
520.417	1577.54
520.623	1593.04
520.829	1599.43
521.035	1600.01
521.241	1584.13
521.447	1599.24
521.653	1718.78
521.859	1605.44
522.065	1636.83
522.271	1733.7
522.477	1669.96
522.683	1718.2
522.889	1650.58
523.095	1667.63
523.301	1642.25
523.507	1648.26
523.713	1687.59
523.919	1611.64
524.125	1710.45
524.331	1672.28
524.537	1787.75
524.742	1757.92
524.948	1783.1
525.154	1778.84
525.36	1875.13
525.566	1761.02
525.772	1806.74
525.977	1747.26
526.183	1818.95
526.389	1834.25
526.595	1740.87
526.8	1749.97
527.006	1644.57
527.212	1652.13
527.417	1622.1
527.623	1609.51
527.829	1699.79
528.034	1752.88
528.24	1758.5
528.446	1760.63
528.651	1867
528.857	1823.21
529.062	1882.88
529.268	1832.9
529.473	1890.83
529.679	1865.64
529.884	1983.25
530.09	1952.44
530.295	1947.01
530.501	1922.99
530.706	1919.7
530.912	1909.43
531.117	1946.43
531.323	1917.18
531.528	1986.73
531.733	1991.19
531.939	1945.85
532.144	2004.17
532.35	1986.93
532.555	2009.98
532.76	1987.9
532.966	1989.25
533.171	1982.47
533.376	1912.14
533.581	1895.67
533.787	1912.14
533.992	1977.82
534.197	1997.58
534.402	1960.19
534.607	1986.15
534.813	2071.4
535.018	1978.21
535.223	1990.22
535.428	1996.61
535.633	2013.08
535.838	2032.84
536.043	2034.01
536.249	2148.71
536.454	2027.23
536.659	2095.81
536.864	2065.2
537.069	2023.16
537.274	2034.98
537.479	2047.76
537.684	2034.98
537.889	1982.08
538.094	2115.38
538.299	2076.63
538.504	2083.99
538.708	2067.53
538.913	2131.46
539.118	2089.42
539.323	2129.33
539.528	2023.93
539.733	2071.98
539.938	2105.89
540.142	2097.36
540.347	2028
540.552	2007.66
540.757	2045.44
540.962	2009.21
541.166	1930.93
541.371	1959.61
541.576	2006.49
541.781	1916.01
541.985	2055.51
542.19	2015.79
542.395	2111.89
542.599	2163.04
542.804	2096.78
543.008	2129.91
543.213	2070.04
543.418	2035.17
543.622	2110.15
543.827	2011.53
544.031	2109.96
544.236	2123.71
544.44	2151.03
544.645	2189
544.849	2092.52
545.054	2166.53
545.258	2216.71
545.463	2208.77
545.667	2092.71
545.872	2159.17
546.076	2168.27
546.281	2115.77
546.485	2097.94
546.689	2159.75
546.894	2194.82
547.098	2127.01
547.302	2132.62
547.507	2137.47
547.711	2169.82
547.915	2187.26
548.119	2127.59
548.324	2124.1
548.528	2178.74
548.732	2112.86
548.936	2166.34
549.141	2204.31
549.345	2150.64
549.549	2140.37
549.753	2176.22
549.957	2231.82
550.161	2276.97
550.366	2206.05
550.57	2128.56
550.774	2159.94
550.978	2147.74
551.182	2183
551.386	2160.91
551.59	2144.64
551.794	2114.8
551.998	2207.8
552.202	2133.59
552.406	2115.96
552.61	2177.38
552.814	2190.36
553.018	2260.5
553.222	2138.05
553.426	2161.69
553.63	2231.44
553.833	2170.4
554.037	2105.89
554.241	2173.12
554.445	2194.04
554.649	2162.27
554.853	2113.64
555.056	2196.37
555.26	2219.81
555.464	2172.73
555.668	2188.23
555.871	2219.23
556.075	2227.17
556.279	2143.86
556.483	2121
556.686	2168.47
556.89	2158.97
557.094	2129.72
557.297	2050.67
557.501	2180.67
557.704	2043.31
557.908	2154.71
558.112	2112.47
558.315	2200.24
558.519	2098.52
558.722	2075.08
558.926	2081.86
559.129	2027.81
559.333	1988.28
559.536	1984.21
559.74	1983.63
559.943	1978.21
560.147	1977.24
560.35	2020.06
560.553	2017.73
560.757	1977.43
560.96	2088.64
561.164	2019.28
561.367	2152.77
561.57	2032.46
561.774	2051.25
561.977	2020.64
562.18	1955.93
562.384	2118.09
562.587	2027.23
562.79	1989.25
562.993	1996.23
563.197	2050.67
563.4	2034.01
563.603	2055.32
563.806	2115.57
564.009	2025.29
564.212	2050.86
564.416	1963.29
564.619	2003.98
564.822	1971.04
565.025	2038.46
565.228	1942.95
565.431	1983.05
565.634	1891.99
565.837	1893.35
566.04	1928.41
566.243	1919.31
566.446	1813.72
566.649	1914.27
566.852	1852.27
567.055	1881.92
567.258	1906.71
567.461	1945.27
567.664	1976.66
567.867	1844.13
568.07	1887.92
568.273	1896.83
568.475	1942.17
568.678	1859.63
568.881	1850.53
569.084	1891.6
569.287	1730.4
569.489	1767.6
569.692	1858.86
569.895	1845.49
570.098	1785.04
570.3	1765.28
570.503	1711.42
570.706	1741.84
570.909	1727.5
571.111	1691.07
571.314	1717.62
571.516	1720.33
571.719	1739.51
571.922	1748.62
572.124	1705.8
572.327	1721.69
572.529	1678.48
572.732	1683.91
572.935	1742.42
573.137	1823.79
573.34	1688.75
573.542	1766.25
573.745	1768.96
573.947	1722.66
574.15	1709.29
574.352	1669.96
574.554	1792.4
574.757	1668.21
574.959	1680.03
575.162	1652.32
575.364	1650.77
575.566	1738.35
575.769	1624.43
575.971	1670.54
576.173	1559.52
576.376	1631.59
576.578	1670.54
576.78	1717.62
576.982	1598.66
577.185	1611.64
577.387	1555.84
577.589	1629.27
577.791	1633.73
577.993	1617.06
578.196	1583.35
578.398	1625.59
578.6	1652.52
578.802	1532.59
579.004	1511.86
579.206	1547.12
579.408	1585.48
579.61	1524.06
579.812	1621.13
580.014	1544.6
580.216	1566.11
580.418	1554.87
580.62	1538.01
580.822	1483.76
581.024	1548.67
581.226	1594.01
581.428	1583.16
581.63	1642.83
581.832	1547.7
582.034	1616.87
582.236	1534.72
582.438	1618.42
582.64	1604.28
582.841	1633.14
583.043	1658.14
583.245	1559.91
583.447	1593.04
583.649	1557.97
583.85	1580.25
584.052	1594.59
584.254	1559.91
584.456	1581.8
584.657	1531.43
584.859	1569.98
585.061	1521.16
585.262	1546.93
585.464	1478.15
585.666	1547.7
585.867	1515.54
586.069	1571.92
586.27	1507.79
586.472	1508.37
586.674	1488.22
586.875	1482.6
587.077	1472.53
587.278	1508.76
587.48	1463.23
587.681	1607.76
587.883	1495
588.084	1450.44
588.285	1460.52
588.487	1482.41
588.688	1478.53
588.89	1420.02
589.091	1389.41
589.292	1370.04
589.494	1362.48
589.695	1322.76
589.896	1284.4
590.098	1271.03
590.299	1341.36
590.5	1278.2
590.702	1313.07
590.903	1323.34
591.104	1426.61
591.305	1398.71
591.507	1445.02
591.708	1428.55
591.909	1379.33
592.11	1468.46
592.311	1413.24
592.512	1386.31
592.714	1342.52
592.915	1350.08
593.116	1329.15
593.317	1393.87
593.518	1360.35
593.719	1397.55
593.92	1425.25
594.121	1436.68
594.322	1393.67
594.523	1414.98
594.724	1352.99
594.925	1382.05
595.126	1356.28
595.327	1384.18
595.528	1379.33
595.729	1342.52
595.929	1365
596.13	1383.21
596.331	1387.47
596.532	1372.94
596.733	1449.28
596.934	1430.1
597.135	1407.23
597.335	1382.82
597.536	1333.03
597.737	1379.14
597.938	1349.3
598.138	1386.89
598.339	1368.49
598.54	1343.3
598.74	1344.07
598.941	1370.23
599.142	1401.42
599.342	1377.01
599.543	1362.09
599.744	1345.04
599.944	1359.57
600.145	1335.74
600.345	1366.74
600.546	1421.96
600.746	1423.9
600.947	1470.59
601.147	1365.97
601.348	1389.41
601.548	1306.68
601.749	1343.88
601.949	1287.31
602.15	1323.34
602.35	1321.79
602.551	1402.97
602.751	1278.01
602.951	1325.67
603.152	1281.49
603.352	1380.69
603.552	1342.14
603.753	1349.89
603.953	1348.34
604.153	1337.68
604.354	1326.25
604.554	1342.52
604.754	1342.14
604.954	1305.32
605.155	1343.88
605.355	1300.67
605.555	1344.27
605.755	1425.45
605.955	1340.97
606.155	1368.87
606.356	1370.62
606.556	1366.16
606.756	1317.34
606.956	1274.91
607.156	1396.77
607.356	1268.9
607.556	1336.9
607.756	1296.41
607.956	1352.4
608.156	1325.67
608.356	1299.7
608.556	1356.28
608.756	1328.19
608.956	1282.85
609.156	1298.93
609.356	1261.54
609.556	1235.77
609.755	1272.39
609.955	1228.41
610.155	1290.4
610.355	1282.85
610.555	1250.88
610.755	1318.69
610.954	1197.99
611.154	1279.36
611.354	1311.91
611.554	1240.22
611.753	1278.2
611.953	1209.22
612.153	1269.67
612.352	1259.02
612.552	1204.57
612.752	1191.59
612.951	1284.4
613.151	1231.12
613.351	1175.32
613.55	1216.2
613.75	1233.25
613.949	1181.52
614.149	1235.77
614.348	1190.82
614.548	1180.16
614.747	1156.14
614.947	1180.94
615.146	1127.08
615.346	1212.32
615.545	1207.09
615.745	1200.51
615.944	1231.31
616.144	1210.39
616.343	1224.72
616.542	1144.9
616.742	1169.89
616.941	1164.28
617.14	1108.67
617.34	1162.53
617.539	1162.53
617.738	1103.83
617.938	1240.61
618.137	1125.72
618.336	1134.44
618.535	1166.41
618.734	1163.69
618.934	1180.74
619.133	1188.49
619.332	1162.53
619.531	1134.44
619.73	1158.46
619.929	1219.11
620.128	1186.17
620.328	1185.59
620.527	1124.17
620.726	1182.68
620.925	1158.85
621.124	1143.93
621.323	1194.89
621.522	1092.78
621.721	1110.03
621.92	1098.6
622.119	1135.41
622.318	1100.92
622.517	1099.56
622.715	1114.68
622.914	1058.3
623.113	1089.1
623.312	1043.57
623.511	1135.99
623.71	1105.76
623.909	1108.28
624.107	1167.18
624.306	1064.69
624.505	1083.87
624.704	1095.69
624.902	1072.05
625.101	1165.05
625.3	1103.05
625.499	1048.8
625.697	1073.8
625.896	1071.47
626.095	1124.56
626.293	1030.01
626.492	1037.18
626.69	1084.65
626.889	1041.25
627.088	1107.51
627.286	1048.8
627.485	1056.16
627.683	1036.98
627.882	1065.27
628.08	998.43
628.279	1047.25
628.477	1121.46
628.676	992.23
628.874	1060.04
629.073	1017.61
629.271	994.94
629.469	1066.05
629.668	1009.67
629.866	1024.39
630.065	1011.02
630.263	1071.86
630.461	969.95
630.66	1017.42
630.858	1037.37
631.056	1076.7
631.254	1070.5
631.453	993.58
631.651	1052.87
631.849	1016.06
632.047	1011.99
632.245	1016.45
632.444	1022.07
632.642	1057.91
632.84	1029.04
633.038	1014.32
633.236	1010.83
633.434	1003.08
633.632	1003.08
633.83	996.3
634.028	1081.55
634.227	975.18
634.425	1056.16
634.623	993.2
634.821	1026.13
635.019	988.93
635.216	984.09
635.414	1035.82
635.612	1030.98
635.81	991.84
636.008	1068.76
636.206	1004.05
636.404	1016.83
636.602	948.83
636.8	992.03
636.997	1038.15
637.195	1049.38
637.393	1003.85
637.591	1074.18
637.789	1015.09
637.986	1011.99
638.184	995.91
638.382	1030.78
638.58	1018.97
638.777	1075.35
638.975	984.87
639.173	1016.83
639.37	1013.35
639.568	1031.95
639.765	1042.21
639.963	991.26
640.161	1053.06
640.358	1015.09
640.556	965.3
640.753	946.7
640.951	947.47
641.148	1014.7
641.346	980.99
641.543	957.93
641.741	1033.5
641.938	950.38
642.136	956
642.333	946.89
642.531	1019.74
642.728	1037.76
642.925	967.04
643.123	952.32
643.32	965.68
643.517	969.56
643.715	980.99
643.912	966.85
644.109	955.22
644.306	951.54
644.504	893.22
644.701	976.73
644.898	979.44
645.095	916.47
645.293	952.9
645.49	972.66
645.687	936.62
645.884	984.87
646.081	855.64
646.278	888.38
646.475	908.14
646.672	915.7
646.87	909.3
647.067	923.64
647.264	946.5
647.461	858.15
647.658	842.66
647.855	956
648.052	878.69
648.249	817.47
648.446	876.37
648.642	863.58
648.839	879.85
649.036	864.94
649.233	834.91
649.43	834.52
649.627	825.41
649.824	873.85
650.021	852.73
650.217	801.39
650.414	840.33
650.611	883.92
650.808	891.87
651.004	902.72
651.201	896.52
651.398	949.99
651.595	874.62
651.791	844.59
651.988	899.62
652.185	844.79
652.381	893.03
652.578	815.53
652.775	868.81
652.971	850.41
653.168	843.04
653.364	871.14
653.561	802.36
653.757	848.47
653.954	830.64
654.15	775.04
654.347	919.38
654.543	856.22
654.74	810.69
654.936	833.16
655.133	804.87
655.329	831.03
655.525	845.95
655.722	842.66
655.918	784.34
656.115	827.93
656.311	745.01
656.507	738.81
656.704	669.06
656.9	714.78
657.096	712.46
657.292	709.36
657.489	807.01
657.685	776.78
657.881	745.01
658.077	768.64
658.273	776.59
658.47	859.12
658.666	783.37
658.862	816.69
659.058	762.06
659.254	859.9
659.45	788.99
659.646	801.39
659.842	805.07
660.038	840.91
660.234	799.45
660.43	798.29
660.626	875.59
660.822	847.5
661.018	845.37
661.214	798.48
661.41	777.17
661.606	831.03
661.802	837.62
661.998	827.16
662.194	753.53
662.39	815.14
662.586	842.46
662.781	848.66
662.977	836.84
663.173	857.19
663.369	809.52
663.564	835.49
663.76	859.51
663.956	795.19
664.152	834.71
664.347	758.57
664.543	840.72
664.739	798.67
664.934	743.65
665.13	725.24
665.326	828.51
665.521	814.37
665.717	782.4
665.912	761.28
666.108	718.27
666.304	793.06
666.499	806.23
666.695	710.52
666.89	787.44
667.086	831.61
667.281	812.43
667.477	867.84
667.672	797.71
667.867	819.6
668.063	759.34
668.258	760.12
668.454	802.36
668.649	881.99
668.844	768.84
669.04	851.18
669.235	772.32
669.43	763.99
669.626	750.82
669.821	768.84
670.016	740.16
670.211	804.1
670.407	740.74
670.602	798.29
670.797	753.92
670.992	814.37
671.187	757.99
671.382	812.62
671.578	755.47
671.773	767.67
671.968	730.48
672.163	757.6
672.358	773.29
672.553	732.22
672.748	723.5
672.943	813.79
673.138	773.49
673.333	778.72
673.528	708.97
673.723	772.71
673.918	782.21
674.113	724.08
674.308	870.36
674.503	789.37
674.698	835.49
674.892	798.87
675.087	799.84
675.282	741.91
675.477	768.64
675.672	790.92
675.867	746.17
676.061	730.28
676.256	705.09
676.451	750.63
676.646	753.73
676.84	719.24
677.035	705.09
677.23	707.61
677.424	760.7
677.619	762.25
677.814	784.72
678.008	799.26
678.203	692.69
678.397	731.06
678.592	738.81
678.787	830.84
678.981	723.11
679.176	748.3
679.37	753.92
679.565	739.39
679.759	749.27
679.954	769.03
680.148	798.09
680.342	803.52
680.537	740.94
680.731	737.06
680.926	754.11
681.12	783.17
681.314	737.45
681.509	739.58
681.703	743.46
681.897	766.51
682.092	767.09
682.286	720.01
682.48	825.8
682.674	773.87
682.869	705.87
683.063	734.35
683.257	795.96
683.451	699.09
683.645	766.9
683.839	741.13
684.034	730.86
684.228	779.88
684.422	731.64
684.616	727.18
684.81	740.94
685.004	698.7
685.198	708.39
685.392	732.61
685.586	717.11
685.78	750.63
685.974	748.3
686.168	753.92
686.362	806.62
686.556	681.65
686.75	661.31
686.944	645.23
687.138	711.49
687.331	596.98
687.525	624.88
687.719	549.52
687.913	611.32
688.107	646
688.301	607.06
688.494	670.03
688.688	586.72
688.882	573.15
689.076	581.29
689.269	624.5
689.463	711.49
689.657	634.76
689.85	609.58
690.044	607.83
690.238	645.23
690.431	602.41
690.625	623.91
690.818	677.97
691.012	649.68
691.205	684.36
691.399	622.56
691.593	652.78
691.786	704.9
691.98	735.71
692.173	746.17
692.366	690.56
692.56	728.93
692.753	759.54
692.947	664.02
693.14	726.21
693.333	746.17
693.527	688.24
693.72	726.41
693.914	701.99
694.107	711.49
694.3	727.38
694.493	712.46
694.687	757.21
694.88	711.49
695.073	735.51
695.266	769.81
695.46	726.41
695.653	781.43
695.846	774.84
696.039	710.13
696.232	751.59
696.425	792.28
696.618	790.34
696.812	774.26
697.005	868.81
697.198	908.72
697.391	845.76
697.584	858.35
697.777	901.75
697.97	899.04
698.163	926.35
698.356	859.7
698.549	981.96
698.742	951.54
698.935	887.6
699.127	936.43
699.32	893.22
699.513	910.66
699.706	925.77
699.899	987
700.092	927.52
700.285	1000.75
700.477	884.5
700.67	994.55
700.863	993.39
701.056	1100.15
701.248	1083.48
701.441	1071.47
701.634	1052.87
701.826	1147.61
702.019	1020.9
702.212	1129.21
702.404	1064.11
702.597	1047.45
702.79	1065.46
702.982	1091.81
703.175	1142.58
703.367	1143.93
703.56	1186.94
703.752	1263.28
703.945	1175.32
704.137	1220.85
704.33	1256.69
704.522	1247.78
704.715	1272.58
704.907	1354.54
705.1	1315.4
705.292	1375.27
705.484	1330.32
705.677	1369.45
705.869	1356.47
706.061	1425.64
706.254	1441.14
706.446	1418.47
706.638	1404.33
706.831	1519.41
707.023	1455.87
707.215	1560.49
707.407	1544.99
707.599	1531.43
707.792	1611.25
707.984	1578.7
708.176	1644.77
708.368	1571.73
708.56	1648.64
708.752	1636.63
708.944	1614.35
709.136	1690.3
709.329	1653.87
709.521	1803.25
709.713	1733.7
709.905	1743.39
710.097	1798.8
710.289	1758.3
710.481	1785.04
710.672	1827.28
710.864	1820.69
711.056	1898.19
711.248	1845.68
711.44	1880.37
711.632	1895.48
711.824	1917.95
712.016	2008.24
712.207	1972.98
712.399	1982.08
712.591	2066.36
712.783	2046.02
712.975	2056.29
713.166	2010.56
713.358	2033.23
713.55	2114.99
713.741	2123.52
713.933	2146.96
714.125	2138.44
714.316	2136.69
714.508	2224.27
714.7	2225.43
714.891	2187.07
715.083	2256.23
715.274	2217.49
715.466	2251.39
715.657	2305.83
715.849	2201.99
716.04	2263.4
716.232	2236.09
716.423	2315.91
716.615	2245.58
716.806	2252.36
716.998	2181.25
717.189	2133.59
717.381	2106.27
717.572	2056.68
717.763	2094.46
717.955	2069.66
718.146	2062.29
718.337	2015.79
718.528	1984.99
718.72	1904.97
718.911	1963.87
719.102	1949.34
719.293	2025.09
719.485	1989.44
719.676	1985.76
719.867	1933.45
720.058	1943.14
720.249	2011.73
720.44	2007.08
720.632	2088.45
720.823	2061.71
721.014	2199.27
721.205	2225.04
721.396	2317.07
721.587	2448.04
721.778	2449.01
721.969	2461.22
722.16	2579.21
722.351	2517.6
722.542	2684.03
722.733	2684.61
722.924	2637.92
723.115	2684.8
723.305	2637.53
723.496	2726.65
723.687	2589.87
723.878	2582.89
724.069	2610.6
724.26	2585.02
724.45	2555.77
724.641	2547.63
724.832	2612.34
725.023	2573.21
725.213	2547.24
725.404	2592
725.595	2593.74
725.785	2592.97
725.976	2691.39
726.167	2662.33
726.357	2679.19
726.548	2777.03
726.739	2685.97
726.929	2782.84
727.12	2784.58
727.31	2814.23
727.501	2750.1
727.691	2823.53
727.882	2816.16
728.072	2868.09
728.263	2888.04
728.453	2920.21
728.644	2924.66
728.834	2903.16
729.024	2901.22
729.215	2877.39
729.405	2929.31
729.596	2962.06
729.786	3000.22
729.976	3044.01
730.167	3034.13
730.357	3036.26
730.547	3031.42
730.737	3067.26
730.928	3102.14
731.118	3175.95
731.308	3089.54
731.498	3116.86
731.688	3223.23
731.879	3243.38
732.069	3286.2
732.259	3290.26
732.449	3330.56
732.639	3368.54
732.829	3401.67
733.019	3492.34
733.209	3574.88
733.399	3538.07
733.589	3672.72
733.779	3649.28
733.969	3635.33
734.159	3704.3
734.349	3727.16
734.539	3785.68
734.729	3807.57
734.919	3838.96
735.109	3889.14
735.299	3824.42
735.488	3871.12
735.678	3871.7
735.868	3870.15
736.058	3910.84
736.248	3858.14
736.437	3851.55
736.627	3806.21
736.817	3971.09
737.007	3885.46
737.196	3954.04
737.386	3948.62
737.576	3877.9
737.765	4018.37
737.955	3946.49
738.144	4075.91
738.334	4032.7
738.524	4019.33
738.713	4060.8
738.903	4092.76
739.092	4049.75
739.282	4051.88
739.471	4087.34
739.661	4048.78
739.85	4085.6
740.04	4121.25
740.229	4127.64
740.419	4095.28
740.608	4135.2
740.797	4111.17
740.987	4254.74
741.176	4192.74
741.365	4202.81
741.555	4122.02
741.744	4260.94
741.933	4198.74
742.123	4209.79
742.312	4232.46
742.501	4244.47
742.69	4275.86
742.88	4200.29
743.069	4330.88
743.258	4254.35
743.447	4376.6
743.636	4342.89
743.825	4312.09
744.014	4313.06
744.204	4377.96
744.393	4304.72
744.582	4414.97
744.771	4430.85
744.96	4326.42
745.149	4379.12
745.338	4369.44
745.527	4404.31
745.716	4401.21
745.905	4368.85
746.094	4421.75
746.283	4432.6
746.471	4406.25
746.66	4516.1
746.849	4464.76
747.038	4480.07
747.227	4448.68
747.416	4503.9
747.604	4406.44
747.793	4413.03
747.982	4438.6
748.171	4463.02
748.359	4482.97
748.548	4478.13
748.737	4469.6
748.926	4453.52
749.114	4298.72
749.303	4476.77
749.491	4395.01
749.68	4362.65
749.869	4484.72
750.057	4381.84
750.246	4418.45
750.434	4394.04
750.623	4420.59
750.811	4352.77
751	4422.33
751.188	4407.8
751.377	4423.1
751.565	4359.55
751.754	4344.06
751.942	4327.01
752.131	4376.02
752.319	4312.28
752.507	4321
752.696	4387.45
752.884	4439.77
753.072	4357.62
753.261	4381.64
753.449	4416.32
753.637	4278.96
753.825	4438.6
754.014	4361.3
754.202	4358
754.39	4412.64
754.578	4404.89
754.766	4304.14
754.955	4295.42
755.143	4424.27
755.331	4331.66
755.519	4375.64
755.707	4332.04
755.895	4317.12
756.083	4324.29
756.271	4307.44
756.459	4292.13
756.647	4358.97
756.835	4277.21
757.023	4272.37
757.211	4291.16
757.399	4256.48
757.587	4291.55
757.775	4187.89
757.963	4256.87
758.151	4252.22
758.339	4201.07
758.526	4173.56
758.714	4195.84
758.902	4141.78
759.09	4074.94
759.278	3886.04
759.465	3651.6
759.653	3277.28
759.841	2982.01
760.028	2669.11
760.216	2346.71
760.404	2213.8
760.591	1900.71
760.779	1655.81
760.967	1473.11
761.154	1346.01
761.342	1341.36
761.529	1341.55
761.717	1436.88
761.905	1459.35
762.092	1570.37
762.28	1552.74
762.467	1594.01
762.655	1508.37
762.842	1550.8
763.029	1618.81
763.217	1584.51
763.404	1625.2
763.592	1613.38
763.779	1648.45
763.966	1665.69
764.154	1726.72
764.341	1807.32
764.528	1798.8
764.716	1849.75
764.903	1913.69
765.09	1986.35
765.277	2044.08
765.465	2218.07
765.652	2271.54
765.839	2338.58
766.026	2457.93
766.213	2546.66
766.4	2641.79
766.588	2800.08
766.775	2868.86
766.962	2940.16
767.149	2993.25
767.336	3163.94
767.523	3082.76
767.71	3263.33
767.897	3398.96
768.084	3417.36
768.271	3453.4
768.458	3526.44
768.645	3556.47
768.832	3554.54
769.019	3582.82
769.206	3604.72
769.392	3682.8
769.579	3776.57
769.766	3717.86
769.953	3693.84
770.14	3800.79
770.327	3741.89
770.513	3830.04
770.7	3840.31
770.887	3734.72
771.073	3827.52
771.26	3784.32
771.447	3749.83
771.634	3817.06
771.82	3843.8
772.007	3750.22
772.193	3808.73
772.38	3803.69
772.567	3803.5
772.753	3755.06
772.94	3890.69
773.126	3810.67
773.313	3844.77
773.499	3841.09
773.686	3836.82
773.872	3762.81
774.059	3802.14
774.245	3731.62
774.432	3748.09
774.618	3669.23
774.804	3744.99
774.991	3675.43
775.177	3776.57
775.363	3738.98
775.55	3724.84
775.736	3638.04
775.922	3690.93
776.109	3681.83
776.295	3680.08
776.481	3708.37
776.667	3750.22
776.853	3741.31
777.04	3680.08
777.226	3649.47
777.412	3726.2
777.598	3639.98
777.784	3657.22
777.97	3642.11
778.156	3635.91
778.342	3703.33
778.528	3606.27
778.715	3545.04
778.901	3530.12
779.087	3598.71
779.272	3536.52
779.458	3547.17
779.644	3596.77
779.83	3560.35
780.016	3645.4
780.202	3571.78
780.388	3505.71
780.574	3454.76
780.76	3489.05
780.946	3571.78
781.131	3577.98
781.317	3521.79
781.503	3462.12
781.689	3490.6
781.874	3614.02
782.06	3497.77
782.246	3489.44
782.432	3492.34
782.617	3476.26
782.803	3552.21
782.989	3391.59
783.174	3450.3
783.36	3385.01
783.545	3381.13
783.731	3399.34
783.916	3308.09
784.102	3402.64
784.288	3354.2
784.473	3367.18
784.659	3371.83
784.844	3398.76
785.029	3333.66
785.215	3326.11
785.4	3268.56
785.586	3383.07
785.771	3239.89
785.956	3359.82
786.142	3258.68
786.327	3302.47
786.512	3287.36
786.698	3284.45
786.883	3223.42
787.068	3228.85
787.254	3286.58
787.439	3225.16
787.624	3247.45
787.809	3212.38
787.994	3230.98
788.18	3273.21
788.365	3145.73
788.55	3150.77
788.735	3187.58
788.92	3172.66
789.105	3164.72
789.29	3197.46
789.475	3105.62
789.66	3160.07
789.845	3149.22
790.03	3106.2
790.215	3143.21
790.4	3144.18
790.585	3170.72
790.77	3135.27
790.955	3053.31
791.14	3104.85
791.325	3151.15
791.51	2991.51
791.695	3087.02
791.879	3071.33
792.064	3043.24
792.249	3140.69
792.434	3060.67
792.618	3035.87
792.803	3087.02
792.988	3048.47
793.173	3075.01
793.357	3107.75
793.542	2999.84
793.727	3056.02
793.911	3099.23
794.096	3018.63
794.281	3077.92
794.465	3128.87
794.65	3033.74
794.834	3129.45
795.019	3123.64
795.203	3120.74
795.388	3118.02
795.572	3167.82
795.757	3148.63
795.941	3113.37
796.126	3110.47
796.31	3051.18
796.494	3122.48
796.679	3087.02
796.863	3089.15
797.048	3144.57
797.232	3143.98
797.416	3138.37
797.601	3106.98
797.785	3180.02
797.969	3193.2
798.153	3132.17
798.338	3143.79
798.522	3198.82
798.706	3219.16
798.89	3219.93
799.074	3268.56
799.258	3203.85
799.443	3142.63
799.627	3180.8
799.811	3210.63
799.995	3125.38
800.179	3133.13
800.363	3135.65
800.547	3173.63
800.731	3161.23
800.915	3130.81
801.099	3120.74
801.283	3171.88
801.467	3140.88
801.651	3115.31
801.835	3205.21
802.019	3108.14
802.202	3179.25
802.386	3075.2
802.57	3082.95
802.754	3101.17
802.938	3060.48
803.121	3077.34
803.305	3183.7
803.489	3089.54
803.673	3164.33
803.856	3136.04
804.04	3126.35
804.224	3154.83
804.407	3147.28
804.591	3093.03
804.775	3070.55
804.958	3103.1
805.142	3184.09
805.326	3079.08
805.509	3079.27
805.693	3149.8
805.876	3143.6
806.06	3114.73
806.243	3188.16
806.427	3185.64
806.61	3200.95
806.794	3102.72
806.977	3185.45
807.16	3166.65
807.344	3143.6
807.527	3142.43
807.71	3098.84
807.894	3106.01
808.077	3123.84
808.26	3074.04
808.444	3054.09
808.627	3118.02
808.81	3098.07
808.993	3028.9
809.177	3031.61
809.36	3053.31
809.543	3061.25
809.726	2975.23
809.909	2963.99
810.092	2937.64
810.276	2941.33
810.459	2993.06
810.642	2909.36
810.825	2892.31
811.008	2942.29
811.191	2809
811.374	2871.77
811.557	2859.56
811.74	2914.98
811.923	2818.88
812.106	2779.35
812.289	2751.45
812.472	2764.24
812.654	2792.53
812.837	2731.69
813.02	2693.72
813.203	2642.57
813.386	2566.04
813.569	2542.79
813.751	2472.65
813.934	2551.31
814.117	2510.04
814.3	2474.59
814.482	2392.63
814.665	2386.05
814.848	2314.55
815.03	2289.56
815.213	2270.57
815.396	2266.31
815.578	2229.69
815.761	2187.07
815.943	2253.72
816.126	2176.41
816.309	2103.17
816.491	2061.71
816.674	2005.53
816.856	2019.09
817.039	2036.14
817.221	2107.44
817.403	2079.73
817.586	2073.53
817.768	2092.52
817.951	2002.04
818.133	1987.12
818.315	2025.29
818.498	2064.62
818.68	2097.75
818.862	2082.64
819.045	2122.55
819.227	2081.09
819.409	2082.83
819.591	2106.86
819.774	2052.22
819.956	2046.02
820.138	2109.57
820.32	2097.17
820.502	2126.23
820.684	2211.29
820.866	2206.64
821.048	2297.31
821.231	2254.3
821.413	2288.98
821.595	2254.1
821.777	2271.15
821.959	2240.15
822.141	2314.36
822.323	2209.15
822.505	2163.04
822.686	2097.94
822.868	2008.63
823.05	1882.5
823.232	1842.39
823.414	1764.7
823.596	1877.46
823.778	1817.4
823.96	1860.6
824.141	1854.79
824.323	1926.86
824.505	1963.68
824.687	2005.33
824.868	2051.44
825.05	2156.46
825.232	2178.35
825.413	2296.73
825.595	2240.15
825.777	2146.38
825.958	2227.95
826.14	2180.09
826.321	2210.51
826.503	2187.26
826.685	2220.78
826.866	2227.37
827.048	2226.4
827.229	2169.63
827.411	2157.23
827.592	2091.94
827.773	2077.41
827.955	2040.59
828.136	2030.52
828.318	1995.64
828.499	2043.11
828.68	1961.93
828.862	2014.63
829.043	2036.72
829.224	2032.46
829.406	1975.69
829.587	1947.79
829.768	1977.43
829.949	1972.78
830.131	2006.3
830.312	2044.08
830.493	1961.35
830.674	2004.75
830.855	1977.43
831.036	1991.96
831.218	2050.09
831.399	2059
831.58	2005.14
831.761	1957.86
831.942	2026.45
832.123	1984.02
832.304	1927.64
832.485	1930.55
832.666	1993.13
832.847	1989.64
833.028	1978.6
833.209	1968.33
833.389	1970.85
833.57	1899.55
833.751	1928.8
833.932	1991.77
834.113	1945.85
834.294	1925.31
834.475	1999.13
834.655	2018.31
834.836	1994.29
835.017	1990.41
835.198	1926.48
835.378	1972.78
835.559	2039.63
835.74	1965.61
835.92	1996.61
836.101	1976.66
836.281	2011.34
836.462	2041.37
836.643	2049.89
836.823	2024.9
837.004	2047.38
837.184	2076.82
837.365	2035.56
837.545	2019.48
837.726	2019.48
837.906	2065.2
838.087	2022.77
838.267	2019.86
838.448	1979.95
838.628	1988.48
838.808	2034.98
838.989	2038.27
839.169	1980.73
839.349	2033.62
839.53	2059.78
839.71	2038.85
839.89	1997.19
840.07	2047.96
840.251	2010.18
840.431	2051.06
840.611	1984.6
840.791	1990.8
840.971	2000.29
841.151	2005.33
841.332	1969.3
841.512	2056.29
841.692	1923.38
841.872	2002.62
842.052	1959.22
842.232	2013.66
842.412	1900.13
842.592	1933.26
842.772	1962.9
842.952	1992.16
843.132	1960.96
843.312	1947.98
843.492	1918.53
843.672	1986.15
843.851	1879.98
844.031	1944.5
844.211	1919.11
844.391	1879.98
844.571	1931.32
844.751	1930.35
844.93	1932.29
845.11	1904.58
845.29	1933.65
845.47	1981.31
845.649	1905.36
845.829	1957.86
846.009	1902.26
846.188	1943.53
846.368	1925.51
846.547	1883.08
846.727	1965.23
846.907	1840.65
847.086	1883.66
847.266	1928.61
847.445	1907.88
847.625	1871.45
847.804	1857.31
847.984	1879.98
848.163	1867.97
848.343	1858.28
848.522	1896.25
848.701	1873
848.881	1838.52
849.06	1857.5
849.239	1861.57
849.419	1875.91
849.598	1787.75
849.777	1760.82
849.957	1781.94
850.136	1713.55
850.315	1668.21
850.494	1640.7
850.674	1666.86
850.853	1815.27
851.032	1763.15
851.211	1793.37
851.39	1726.72
851.569	1699.21
851.748	1715.29
851.927	1785.43
852.107	1725.37
852.286	1704.64
852.465	1662.59
852.644	1787.37
852.823	1775.35
853.002	1710.26
853.181	1750.36
853.359	1693.4
853.538	1646.32
853.717	1749.39
853.896	1627.91
854.075	1584.13
854.254	1534.72
854.433	1460.52
854.611	1495.78
854.79	1441.14
854.969	1513.8
855.148	1539.18
855.327	1461.29
855.505	1563.01
855.684	1547.7
855.863	1541.5
856.041	1555.45
856.22	1606.6
856.399	1565.72
856.577	1691.27
856.756	1662.4
856.934	1745.13
857.113	1761.99
857.291	1650.39
857.47	1604.47
857.648	1676.35
857.827	1664.14
858.005	1693.01
858.184	1614.54
858.362	1714.52
858.541	1622.68
858.719	1632.95
858.898	1637.99
859.076	1624.23
859.254	1698.63
859.433	1647.09
859.611	1606.02
859.789	1544.02
859.967	1648.06
860.146	1649.81
860.324	1561.65
860.502	1572.11
860.68	1556.03
860.859	1573.47
861.037	1562.04
861.215	1587.81
861.393	1605.63
861.571	1564.17
861.749	1558.16
861.927	1579.09
862.105	1564.36
862.283	1549.83
862.461	1548.09
862.639	1536.85
862.817	1541.89
862.995	1559.91
863.173	1553.51
863.351	1574.44
863.529	1558.74
863.707	1587.81
863.885	1568.24
864.063	1489.77
864.241	1508.18
864.418	1616.87
864.596	1519.61
864.774	1493.84
864.952	1488.22
865.129	1540.15
865.307	1467.68
865.485	1456.25
865.663	1515.54
865.84	1417.12
866.018	1474.85
866.196	1314.43
866.373	1299.9
866.551	1261.15
866.728	1244.29
866.906	1278.01
867.084	1327.02
867.261	1336.32
867.439	1382.05
867.616	1352.4
867.794	1383.6
867.971	1389.8
868.149	1364.03
868.326	1458.19
868.503	1445.21
868.681	1418.86
868.858	1403.75
869.035	1371.97
869.213	1438.04
869.39	1374.49
869.567	1448.89
869.745	1379.14
869.922	1401.42
870.099	1425.45
870.276	1443.08
870.454	1421.38
870.631	1412.27
870.808	1381.08
870.985	1448.31
871.162	1458.19
871.339	1405.49
871.517	1333.42
871.694	1328.96
871.871	1341.36
872.048	1371.59
872.225	1344.65
872.402	1392.9
872.579	1310.55
872.756	1324.89
872.933	1294.47
873.11	1313.27
873.287	1369.45
873.463	1329.15
873.64	1336.71
873.817	1351.24
873.994	1331.09
874.171	1289.82
874.348	1333.42
874.524	1263.86
874.701	1330.51
874.878	1234.22
875.055	1311.33
875.231	1268.51
875.408	1343.1
875.585	1234.61
875.762	1265.61
875.938	1281.11
876.115	1287.31
876.291	1259.6
876.468	1243.52
876.645	1249.14
876.821	1269.29
876.998	1251.46
877.174	1288.66
877.351	1227.63
877.527	1229.96
877.704	1241.77
877.88	1262.7
878.057	1223.56
878.233	1340.59
878.409	1221.43
878.586	1237.9
878.762	1244.1
878.938	1206.71
879.115	1196.83
879.291	1237.12
879.467	1164.28
879.644	1195.08
879.82	1215.42
879.996	1171.64
880.172	1188.88
880.349	1181.71
880.525	1234.22
880.701	1142.58
880.877	1157.49
881.053	1191.4
881.229	1195.86
881.405	1203.22
881.581	1122.43
881.757	1174.93
881.933	1180.36
882.109	1222.79
882.285	1186.56
882.461	1103.05
882.637	1199.15
882.813	1114.29
882.989	1150.33
883.165	1237.51
883.341	1119.52
883.517	1182.29
883.693	1187.91
883.869	1212.71
884.044	1139.48
884.22	1211.94
884.396	1221.04
884.572	1205.54
884.747	1174.54
884.923	1181.91
885.099	1187.72
885.275	1241.77
885.45	1158.85
885.626	1158.85
885.801	1139.86
885.977	1152.26
886.153	1085.61
886.328	1192.37
886.504	1139.48
886.679	1162.53
886.855	1142.96
887.03	1168.93
887.206	1219.88
887.381	1142.77
887.557	1187.53
887.732	1145.48
887.908	1188.11
888.083	1201.47
888.258	1174.16
888.434	1173.77
888.609	1138.89
888.784	1198.38
888.96	1159.24
889.135	1128.43
889.31	1143.54
889.485	1159.43
889.661	1146.84
889.836	1229.37
890.011	1193.34
890.186	1134.63
890.361	1142.19
890.537	1183.84
890.712	1173.77
890.887	1171.64
891.062	1171.64
891.237	1206.71
891.412	1134.44
891.587	1166.21
891.762	1182.49
891.937	1176.29
892.112	1104.6
892.287	1146.45
892.462	1085.81
892.637	1088.91
892.812	1064.11
892.987	1060.81
893.161	1086.97
893.336	1076.12
893.511	1109.06
893.686	1092.4
893.861	1076.51
894.035	1076.51
894.21	1084.84
894.385	1038.15
894.56	1113.13
894.734	1035.63
894.909	1016.06
895.084	1023.23
895.258	996.49
895.433	1045.31
895.608	1012.57
895.782	920.54
895.957	968.98
896.131	924.42
896.306	868.42
896.48	887.41
896.655	908.72
896.829	816.11
897.004	840.72
897.178	817.47
897.353	854.86
897.527	898.07
897.701	827.16
897.876	812.82
898.05	912.21
898.224	895.35
898.399	883.54
898.573	864.74
898.747	753.53
898.921	785.69
899.096	689.21
899.27	712.26
899.444	705.29
899.618	745.39
899.792	729.51
899.967	752.95
900.141	813.79
900.315	701.8
900.489	726.99
900.663	730.28
900.837	749.08
901.011	726.21
901.185	834.91
901.359	752.76
901.533	762.44
901.707	740.94
901.881	755.28
902.055	710.91
902.229	739
902.403	802.16
902.576	731.44
902.75	756.83
902.924	875.98
903.098	818.82
903.272	856.41
903.446	881.02
903.619	885.09
903.793	888.77
903.967	867.65
904.14	926.94
904.314	935.65
904.488	871.52
904.661	911.63
904.835	917.83
905.009	931.78
905.182	939.34
905.356	950.18
905.529	908.72
905.703	855.64
905.876	890.7
906.05	881.79
906.223	821.34
906.397	797.71
906.57	740.36
906.744	750.63
906.917	740.55
907.09	740.74
907.264	765.16
907.437	732.61
907.61	673.9
907.784	701.03
907.957	694.63
908.13	649.68
908.304	712.46
908.477	673.13
908.65	693.86
908.823	631.66
908.996	767.29
909.17	658.4
909.343	660.73
909.516	672.55
909.689	665.38
909.862	628.56
910.035	652.59
910.208	636.51
910.381	616.36
910.554	732.41
910.727	644.45
910.9	645.03
911.073	648.71
911.246	708
911.419	709.55
911.592	692.11
911.765	648.91
911.938	608.8
912.11	675.06
912.283	651.81
912.456	723.31
912.629	697.54
912.802	610.55
912.974	655.3
913.147	564.43
913.32	531.3
913.493	518.71
913.665	571.41
913.838	577.03
914.01	574.7
914.183	587.88
914.356	583.42
914.528	634.76
914.701	670.61
914.873	655.11
915.046	570.63
915.218	559.2
915.391	471.44
915.563	504.18
915.736	571.8
915.908	555.13
916.081	556.1
916.253	564.63
916.425	580.71
916.598	585.94
916.77	599.11
916.942	540.22
917.115	494.1
917.287	587.1
917.459	551.65
917.632	482.29
917.804	447.22
917.976	539.83
918.148	551.07
918.32	536.53
918.493	586.33
918.665	597.76
918.837	541.38
919.009	618.49
919.181	637.28
919.353	563.85
919.525	571.6
919.697	579.93
919.869	565.21
920.041	648.33
920.213	716.72
920.385	653.56
920.557	552.03
920.729	623.14
920.901	589.23
921.073	597.76
921.244	561.92
921.416	609.19
921.588	581.87
921.76	568.5
921.932	625.08
922.103	549.9
922.275	579.16
922.447	575.48
922.619	491.78
922.79	549.32
922.962	564.43
923.134	562.88
923.305	535.76
923.477	524.91
923.648	506.12
923.82	540.02
923.991	483.06
924.163	489.65
924.335	496.04
924.506	482.48
924.677	576.83
924.849	469.5
925.02	512.12
925.192	529.37
925.363	518.71
925.535	537.31
925.706	514.45
925.877	596.4
926.049	483.25
926.22	519.1
926.391	523.75
926.562	518.32
926.734	486.35
926.905	528.59
927.076	439.66
927.247	450.9
927.419	444.5
927.59	424.55
927.761	428.42
927.932	432.49
928.103	449.93
928.274	404.59
928.445	388.51
928.616	380.96
928.787	401.11
928.958	418.93
929.129	391.22
929.3	373.01
929.471	352.28
929.642	295.71
929.813	245.72
929.984	327.29
930.155	264.71
930.326	312.37
930.496	284.47
930.667	193.41
930.838	258.7
931.009	217.82
931.18	237.39
931.35	257.15
931.521	235.06
931.692	169.19
931.863	108.16
932.033	203.48
932.204	184.11
932.374	181.59
932.545	149.82
932.716	219.37
932.886	199.22
933.057	102.73
933.227	127.34
933.398	192.63
933.568	118.62
933.739	44.61
933.909	99.83
934.08	126.57
934.25	36.86
934.421	64.57
934.591	120.17
934.761	70.38
934.932	58.95
935.102	105.25
935.272	92.27
935.443	85.1
935.613	94.6
935.783	118.62
935.953	76
936.123	227.9
936.294	64.37
936.464	90.53
936.634	81.03
936.804	42.67
936.974	23.69
937.144	98.28
937.314	127.73
937.484	57.79
937.655	51.97
937.825	147.68
937.995	64.18
938.165	118.43
938.334	86.85
938.504	100.41
938.674	80.26
938.844	101.18
939.014	153.88
939.184	143.03
939.354	211.62
939.524	212.98
939.694	145.75
939.863	130.05
940.033	217.63
940.203	191.86
940.373	181.2
940.542	200.19
940.712	167.06
940.882	187.21
941.051	201.93
941.221	180.43
941.391	204.65
941.56	149.23
941.73	105.83
941.899	248.43
942.069	143.62
942.238	168.22
942.408	162.02
942.577	195.93
942.747	148.27
942.916	88.59
943.086	87.82
943.255	177.52
943.425	134.7
943.594	108.55
943.763	68.83
943.933	71.15
944.102	42.48
944.271	82.39
944.441	137.03
944.61	105.45
944.779	113.2
944.948	192.25
945.117	53.33
945.287	95.18
945.456	28.72
945.625	93.63
945.794	111.26
945.963	81.23
946.132	108.74
946.301	95.95
946.47	141.1
946.639	56.24
946.808	105.64
946.977	127.92
947.146	140.9
947.315	84.13
947.484	156.98
947.653	112.23
947.822	96.92
947.991	83.94
948.16	199.8
948.329	155.05
948.498	122.5
948.666	125.21
948.835	122.5
949.004	51.59
949.173	86.27
949.341	106.8
949.51	122.11
949.679	155.82
949.847	124.24
950.016	177.13
950.185	174.42
950.353	87.23
950.522	99.44
950.69	157.56
950.859	93.82
951.028	156.21
951.196	140.52
951.365	102.93
951.533	119.59
951.701	152.72
951.87	137.8
952.038	75.8
952.207	107.77
952.375	172.87
952.543	89.75
952.712	107.97
952.88	84.52
953.048	178.68
953.217	108.74
953.385	117.07
953.553	143.62
953.721	61.47
953.89	101.77
954.058	44.22
954.226	91.11
954.394	129.86
954.562	46.74
954.73	101.57
954.898	94.4
955.067	139.93
955.235	83.36
955.403	141.87
955.571	164.93
955.739	106.03
955.907	104.09
956.075	84.91
956.243	76.58
956.41	140.32
956.578	60.69
956.746	60.11
956.914	90.14
957.082	131.6
957.25	124.43
957.418	69.99
957.585	126.37
957.753	163.18
957.921	84.13
958.089	119.4
958.256	139.55
958.424	107.19
958.592	114.36
958.759	77.93
958.927	157.18
959.095	70.18
959.262	107.77
959.43	110.1
959.597	103.9
959.765	121.33
959.932	69.99
960.1	170.16
960.267	112.81
960.435	108.16
960.602	135.67
960.77	80.07
960.937	61.08
961.104	115.72
961.272	44.61
961.439	107.58
961.606	126.76
961.774	139.35
961.941	118.82
962.108	138.77
962.275	92.47
962.443	155.24
962.61	140.9
962.777	168.03
962.944	131.22
963.111	124.43
963.278	130.83
963.446	154.46
963.613	121.72
963.78	153.69
963.947	141.29
964.114	132.96
964.281	214.53
964.448	122.88
964.615	99.63
964.782	135.67
964.949	174.42
965.116	154.85
965.282	179.07
965.449	132.18
965.616	98.28
965.783	152.53
965.95	138.58
966.117	61.08
966.283	139.93
966.45	152.14
966.617	140.13
966.784	156.98
966.95	159.89
967.117	141.68
967.284	105.64
967.45	95.95
967.617	164.93
967.784	153.69
967.95	165.31
968.117	129.08
968.283	183.91
968.45	236.42
968.616	151.37
968.783	169.38
968.949	155.63
969.116	178.49
969.282	133.54
969.449	167.06
969.615	148.07
969.781	104.09
969.948	114.75
970.114	93.63
970.28	196.7
970.447	152.53
970.613	189.73
970.779	121.53
970.945	151.56
971.112	167.25
971.278	148.27
971.444	126.95
971.61	188.56
971.776	110.1
971.942	151.37
972.108	167.45
972.275	133.73
972.441	166.67
972.607	196.51
972.773	127.73
972.939	139.93
973.105	127.53
973.271	83.36
973.437	121.92
973.602	120.75
973.768	141.48
973.934	133.54
974.1	149.62
974.266	70.38
974.432	149.82
974.598	116.68
974.763	143.62
974.929	99.05
975.095	218.98
975.261	96.34
975.426	77.93
975.592	138.19
975.758	198.45
975.923	64.95
976.089	103.9
976.255	155.24
976.42	129.86
976.586	126.57
976.751	103.32
976.917	220.15
977.082	167.45
977.248	94.6
977.413	37.05
977.579	113.78
977.744	109.71
977.91	58.95
978.075	121.14
978.24	136.64
978.406	99.44
978.571	118.04
978.736	89.37
978.902	142.07
979.067	92.27
979.232	26.79
979.397	153.88
979.563	174.81
979.728	61.27
979.893	109.71
980.058	79.48
980.223	143.42
980.388	104.48
980.554	119.98
980.719	91.88
980.884	125.6
981.049	167.45
981.214	67.86
981.379	152.91
981.544	75.22
981.709	85.49
981.874	85.3
982.039	88.4
982.204	136.64
982.368	124.63
982.533	104.09
982.698	142.65
982.863	158.15
983.028	108.93
983.193	131.6
983.357	142.07
983.522	122.3
983.687	85.49
983.852	87.04
984.016	83.36
984.181	133.35
984.346	138.58
984.51	136.45
984.675	107.38
984.839	119.98
985.004	129.86
985.168	161.44
985.333	104.28
985.498	83.36
985.662	150.98
985.827	119.59
985.991	137.22
986.155	89.95
986.32	157.76
986.484	193.41
986.649	143.03
986.813	41.51
986.977	101.96
987.142	129.08
987.306	82
987.47	77.35
987.634	88.01
987.799	109.71
987.963	97.5
988.127	124.24
988.291	191.28
988.455	107.19
988.62	91.3
988.784	156.21
988.948	137.22
989.112	82.78
989.276	119.2
989.44	107.38
989.604	83.94
989.768	96.15
989.932	171.32
990.096	75.42
990.26	89.75
990.424	38.6
990.588	108.35
990.752	199.8
990.915	128.7
991.079	81.03
991.243	73.48
991.407	129.47
991.571	111.84
991.734	130.63
991.898	102.73
992.062	182.36
992.226	90.14
992.389	57.79
992.553	44.22
992.717	82.78
992.88	81.81
993.044	85.49
993.207	69.22
993.371	100.41
993.535	87.04
993.698	103.32
993.862	124.43
994.025	135.67
994.189	114.55
994.352	108.74
994.515	103.12
994.679	107.38
994.842	56.43
995.006	123.85
995.169	51.2
995.332	64.76
995.496	101.38
995.659	42.09
995.822	65.15
995.985	88.2
996.149	129.08
996.312	90.92
996.475	133.15
996.638	59.72
996.801	147.88
996.964	164.15
997.128	75.03
997.291	67.67
997.454	93.24
997.617	35.7
997.78	116.88
997.943	65.15
998.106	139.74
998.269	40.74
998.432	86.27
998.595	53.14
998.758	38.6
998.92	43.84
999.083	9.93
999.246	74.45
999.409	30.08
999.572	30.08
999.735	48.87
999.897	95.76
1000.06	59.53
1000.223	72.7
1000.386	116.88
1000.548	111.45
1000.711	94.21
1000.874	100.22
1001.036	52.94
1001.199	112.81
1001.361	85.49
1001.524	69.8
1001.687	120.17
1001.849	50.04
1002.012	81.03
1002.174	82.2
1002.337	110.87
1002.499	46.16
1002.661	145.36
1002.824	38.8
1002.986	55.85
1003.149	69.22
1003.311	30.47
1003.473	129.47
1003.636	46.35
1003.798	62.05
1003.96	91.5
1004.123	66.89
1004.285	55.07
1004.447	54.88
1004.609	69.99
1004.771	135.09
1004.933	21.55
1005.096	48.1
1005.258	13.42
1005.42	44.22
1005.582	98.28
1005.744	76.19
1005.906	21.17
1006.068	91.3
1006.23	44.8
1006.392	3.73
1006.554	23.1
1006.716	115.91
1006.878	71.35
1007.04	-11.77
1007.202	57.59
1007.363	56.24
1007.525	88.2
1007.687	74.64
1007.849	82
1008.011	3.54
1008.172	35.89
1008.334	31.82
1008.496	79.68
1008.658	-7.31
1008.819	16.13
1008.981	11.29
1009.143	31.44
1009.304	31.24
1009.466	88.78
1009.627	101.38
1009.789	150.2
1009.95	84.72
1010.112	37.83
1010.273	50.42
1010.435	26.79
1010.596	41.32
1010.758	34.92
1010.919	15.35
1011.081	-4.8
1011.242	30.85
1011.403	58.95
1011.565	16.71
1011.726	83.55
1011.887	3.15
1012.049	38.8
1012.21	91.11
1012.371	127.15
1012.532	-37.15
1012.693	68.83
1012.855	28.92
1013.016	45.58
1013.177	77.55
1013.338	54.88
1013.499	105.06
1013.66	83.94
1013.821	65.92
1013.982	63.99
1014.143	53.33
1014.304	10.32
1014.465	61.66
1014.626	67.28
1014.787	38.02
1014.948	116.68
1015.109	-1.11
1015.27	106.03
1015.431	32.4
1015.592	21.17
1015.752	102.35
1015.913	50.62
1016.074	61.08
1016.235	59.72
1016.395	39.57
1016.556	45
1016.717	38.41
1016.877	88.98
1017.038	5.09
1017.199	45.77
1017.359	63.21
1017.52	54.49
1017.681	13.42
1017.841	31.44
1018.002	56.43
1018.162	24.65
1018.323	93.43
1018.483	39.38
1018.644	8.57
1018.804	-4.6
1018.964	-17.78
1019.125	15.55
1019.285	50.04
1019.446	-2.47
1019.606	-15.26
1019.766	-21.07
1019.926	61.27
1020.087	55.85
1020.247	9.54
1020.407	51.59
1020.567	52.94
1020.728	31.63
1020.888	-15.06
1021.048	14.39
1021.208	-6.93
1021.368	30.85
1021.528	88.98
1021.688	69.6
1021.848	81.62
1022.008	35.89
1022.168	43.06
1022.328	28.92
1022.488	57.4
1022.648	0.24
1022.808	14.58
1022.968	29.89
1023.128	-17.39
1023.288	-10.41
1023.448	19.81
1023.608	38.41
1023.767	57.98
1023.927	4.89
1024.087	-8.48
1024.247	-5.57
1024.406	22.72
1024.566	-0.73
1024.726	7.02
1024.885	21.75
1025.045	42.29
1025.205	7.41
1025.364	18.84
1025.524	47.13
1025.683	7.8
1025.843	47.13
1026.003	33.76
1026.162	103.9
1026.321	58.75
1026.481	24.65
1026.64	1.6
1026.8	35.7
1026.959	51.39
1027.119	34.73
1027.278	23.69
1027.437	-7.7
1027.597	17.29
1027.756	56.04
1027.915	54.88
1028.074	49.07
1028.234	1.99
1028.393	19.81
1028.552	23.49
1028.711	-60.59
1028.87	56.24
1029.03	-20.88
1029.189	17.68
1029.348	-42.77
1029.507	5.47
1029.666	-1.7
1029.825	-9.45
1029.984	-0.73
1030.143	32.4
1030.302	-11.19
1030.461	-47.42
1030.62	33.37
1030.779	61.85
1030.938	-19.71
1031.097	-35.79
1031.255	79.48
1031.414	76
1031.573	82.78
1031.732	-28.24
1031.891	15.55
1032.049	73.09
1032.208	41.12
1032.367	-11.77
1032.525	-1.89
1032.684	23.1
1032.843	24.46
1033.001	-39.67
1033.16	181.98
1033.319	62.24
1033.477	25.04
1033.636	3.34
1033.794	-40.64
1033.953	47.32
1034.111	22.52
1034.27	8.57
1034.428	28.34
1034.587	-15.45
1034.745	25.62
1034.903	8.38
1035.062	30.47
1035.22	-20.3
1035.378	49.84
1035.537	-16.03
1035.695	69.99
1035.853	12.06
1036.011	59.34
1036.17	22.52
1036.328	-65.05
1036.486	31.82
1036.644	9.54
1036.802	-61.95
1036.96	-20.68
1037.119	22.33
1037.277	-13.51
1037.435	-23.2
1037.593	-55.36
1037.751	27.75
1037.909	52.55
1038.067	52.55
