Data from gum_old_FLMT105791__94__15-44-22-256.txt Node

Date: Mon Mar 20 15:44:22 GMT 2023
User: antho
Spectrometer: FLMT10579
Trigger mode: 0
Integration Time (sec): 1.000000E-1
Scans to average: 10
Electric dark correction enabled: true
Nonlinearity correction enabled: false
Boxcar width: 0
XAxis mode: Wavelengths
Number of Pixels in Spectrum: 3648
>>>>>Begin Spectral Data<<<<<
345.248	-170.48
345.464	-170.48
345.681	-170.48
345.898	-159.63
346.114	-190.24
346.331	-69.54
346.548	57.17
346.764	-7.73
346.981	-18.39
347.197	-20.33
347.414	17.45
347.631	-10.83
347.847	59.88
348.064	12.03
348.28	27.53
348.497	-39.51
348.713	-7.73
348.93	22.3
349.146	26.95
349.363	24.23
349.579	40.32
349.796	9.12
350.012	-4.63
350.229	48.07
350.445	17.65
350.661	5.83
350.878	6.02
351.094	38.96
351.311	30.05
351.527	39.54
351.743	15.9
351.96	65.12
352.176	62.4
352.392	53.68
352.609	35.28
352.825	-8.9
353.041	31.02
353.257	-1.34
353.474	48.07
353.69	47.1
353.906	27.72
354.122	-6.77
354.339	104.06
354.555	23.27
354.771	28.11
354.987	101.54
355.203	74.8
355.42	8.93
355.636	-13.35
355.852	0.4
356.068	19.2
356.284	-13.74
356.5	75.77
356.716	38.96
356.932	25.98
357.148	34.7
357.364	20.55
357.58	52.72
357.796	87.01
358.012	70.73
358.228	49.62
358.444	-35.44
358.66	66.28
358.876	35.47
359.092	33.73
359.308	46.71
359.524	81
359.74	14.16
359.956	46.9
360.172	41.67
360.388	86.23
360.604	40.7
360.819	139.71
361.035	44.58
361.251	47.48
361.467	10.48
361.683	68.41
361.898	57.75
362.114	51.36
362.33	62.02
362.546	90.3
362.762	50.97
362.977	59.3
363.193	14.35
363.409	81.58
363.624	31.6
363.84	14.55
364.056	28.5
364.271	52.91
364.487	45.93
364.703	22.68
364.918	20.75
365.134	51.94
365.35	25.98
365.565	174.78
365.781	66.86
365.996	78.1
366.212	104.06
366.427	61.82
366.643	42.45
366.858	53.3
367.074	33.92
367.289	117.04
367.505	151.53
367.72	13.19
367.936	52.33
368.151	99.6
368.367	87.01
368.582	64.53
368.798	55.04
369.013	112
369.228	70.15
369.444	74.03
369.659	127.11
369.874	102.12
370.09	114.52
370.305	-14.9
370.52	54.46
370.736	100.96
370.951	80.42
371.166	101.54
371.381	122.46
371.597	121.69
371.812	17.84
372.027	36.25
372.242	54.46
372.458	140.48
372.673	86.43
372.888	51.94
373.103	104.83
373.318	152.11
373.533	116.65
373.749	75.38
373.964	24.62
374.179	101.54
374.394	22.49
374.609	92.43
374.824	37.8
375.039	107.55
375.254	36.83
375.469	125.18
375.684	84.49
375.899	109.1
376.114	66.08
376.329	93.21
376.544	137.96
376.759	104.06
376.974	56.78
377.189	69.96
377.404	61.43
377.619	100.18
377.834	12.03
378.049	40.12
378.264	25.2
378.478	87.98
378.693	68.22
378.908	119.36
379.123	81.58
379.338	120.91
379.553	93.21
379.767	103.28
379.982	126.15
380.197	106.77
380.412	74.61
380.626	113.75
380.841	157.92
381.056	118.4
381.271	163.35
381.485	84.1
381.7	65.5
381.915	130.02
382.129	88.36
382.344	88.75
382.559	85.85
382.773	95.73
382.988	24.23
383.202	82.94
383.417	63.37
383.632	167.41
383.846	83.13
384.061	81.39
384.275	53.3
384.49	91.08
384.704	127.7
384.919	87.98
385.133	94.56
385.348	134.48
385.562	79.07
385.777	153.46
385.991	92.24
386.206	81.97
386.42	97.47
386.634	145.71
386.849	116.26
387.063	107.74
387.277	78.68
387.492	78.68
387.706	44
387.92	63.76
388.135	107.55
388.349	121.5
388.563	107.93
388.778	109.87
388.992	149.4
389.206	121.5
389.42	200.54
389.635	108.71
389.849	141.06
390.063	148.62
390.277	150.36
390.491	213.53
390.706	165.09
390.92	162.57
391.134	156.37
391.348	206.94
391.562	97.47
391.776	138.16
391.99	146.49
392.205	172.45
392.419	112.58
392.633	122.27
392.847	164.12
393.061	110.06
393.275	188.34
393.489	84.1
393.703	101.93
393.917	134.48
394.131	70.54
394.345	127.89
394.559	149.78
394.773	109.29
394.986	166.45
395.2	146.1
395.414	188.92
395.628	139.32
395.842	164.9
396.056	162.76
396.27	109.29
396.484	182.91
396.697	177.49
396.911	173.03
397.125	129.44
397.339	157.53
397.553	147.85
397.766	206.74
397.98	193.57
398.194	200.54
398.408	177.88
398.621	228.25
398.835	250.34
399.049	220.5
399.262	255.57
399.476	248.01
399.69	233.09
399.903	341.98
400.117	229.99
400.331	256.92
400.544	233.87
400.758	379.18
400.971	274.56
401.185	273.78
401.398	217.4
401.612	310.59
401.826	275.14
402.039	273.39
402.253	246.08
402.466	305.56
402.68	264.29
402.893	289.09
403.106	283.86
403.32	244.72
403.533	301.29
403.747	291.8
403.96	291.99
404.174	290.25
404.387	206.74
404.6	294.12
404.814	334.62
405.027	289.28
405.24	285.21
405.454	264.29
405.667	316.41
405.88	231.35
406.094	295.48
406.307	308.07
406.52	322.61
406.733	216.04
406.947	243.56
407.16	331.91
407.373	307.88
407.586	281.34
407.799	266.61
408.012	323.77
408.226	304.78
408.439	340.82
408.652	269.71
408.865	341.59
409.078	353.6
409.291	358.25
409.504	299.36
409.717	322.02
409.93	353.8
410.143	341.21
410.357	251.5
410.57	243.75
410.783	260.99
410.996	318.34
411.209	331.91
411.421	360.77
411.634	342.37
411.847	289.86
412.06	359.22
412.273	371.43
412.486	354.38
412.699	427.81
412.912	336.17
413.125	369.1
413.338	348.95
413.55	389.06
413.763	347.21
413.976	363.29
414.189	351.09
414.402	338.88
414.615	426.07
414.827	338.3
415.04	389.45
415.253	371.62
415.466	403.79
415.678	446.99
415.891	401.65
416.104	369.88
416.316	356.9
416.529	333.46
416.742	399.52
416.954	430.91
417.167	378.4
417.38	382.47
417.592	429.36
417.805	350.31
418.017	370.65
418.23	401.27
418.442	357.48
418.655	348.37
418.868	378.6
419.08	396.23
419.293	425.49
419.505	404.17
419.718	391.97
419.93	446.22
420.142	367.75
420.355	428.39
420.567	426.84
420.78	396.23
420.992	377.63
421.205	489.03
421.417	377.24
421.629	435.95
421.842	374.72
422.054	361.16
422.266	425.1
422.479	468.3
422.691	398.55
422.903	412.12
423.115	374.14
423.328	362.9
423.54	400.1
423.752	398.75
423.964	409.21
424.177	416.96
424.389	384.41
424.601	494.27
424.813	426.65
425.025	446.41
425.238	453.38
425.45	402.82
425.662	396.42
425.874	735.29
426.086	406.89
426.298	460.94
426.51	418.12
426.722	427.62
426.934	407.66
427.146	446.6
427.358	400.49
427.57	438.85
427.782	432.07
427.994	413.09
428.206	373.56
428.418	381.89
428.63	438.85
428.842	472.95
429.054	431.68
429.266	438.85
429.478	406.5
429.69	422.39
429.902	362.52
430.114	441.95
430.325	416.57
430.537	366.39
430.749	382.28
430.961	289.67
431.173	359.03
431.384	356.7
431.596	295.87
431.808	380.73
432.02	436.33
432.231	492.72
432.443	519.84
432.655	512.48
432.867	459
433.078	478.38
433.29	535.73
433.502	508.6
433.713	509.38
433.925	541.35
434.136	553.16
434.348	451.45
434.56	402.24
434.771	564.01
434.983	418.9
435.194	462.68
435.406	488.65
435.617	543.09
435.829	576.61
436.04	547.16
436.252	561.5
436.463	612.26
436.675	605.48
436.886	537.47
437.098	580.1
437.309	626.4
437.521	574.67
437.732	571.18
437.943	519.65
438.155	567.31
438.366	494.07
438.578	595.4
438.789	545.61
439	539.99
439.211	501.05
439.423	520.03
439.634	558.4
439.845	556.46
440.057	560.14
440.268	599.66
440.479	552.2
440.69	602.18
440.902	566.73
441.113	594.43
441.324	548.13
441.535	595.21
441.746	673.48
441.957	573.51
442.168	620.01
442.38	645.19
442.591	615.16
442.802	601.02
443.013	618.07
443.224	654.69
443.435	619.23
443.646	608.58
443.857	623.3
444.068	609.54
444.279	600.05
444.49	718.43
444.701	643.84
444.912	778.3
445.123	711.07
445.334	672.51
445.545	664.57
445.756	624.27
445.967	597.73
446.178	658.95
446.388	680.84
446.599	638.41
446.81	652.17
447.021	624.66
447.232	673.29
447.443	726.18
447.653	640.54
447.864	730.44
448.075	673.09
448.286	708.94
448.496	702.93
448.707	707.58
448.918	639.38
449.129	762.8
449.339	665.15
449.55	726.57
449.761	719.98
449.971	754.47
450.182	701.19
450.393	742.46
450.603	690.53
450.814	762.41
451.024	749.43
451.235	784.69
451.446	820.15
451.656	776.56
451.867	729.28
452.077	759.89
452.288	803.29
452.498	797.29
452.709	707.58
452.919	724.44
453.13	683.17
453.34	729.67
453.55	674.45
453.761	728.31
453.971	698.86
454.182	742.84
454.392	707.39
454.602	795.35
454.813	767.06
455.023	773.84
455.233	693.24
455.444	751.37
455.654	660.31
455.864	757.57
456.075	744.78
456.285	732.77
456.495	738.97
456.705	742.65
456.916	842.43
457.126	845.72
457.336	787.4
457.546	712.42
457.756	758.92
457.967	832.74
458.177	750.59
458.387	752.72
458.597	734.12
458.807	779.46
459.017	747.49
459.227	757.57
459.437	742.65
459.647	816.66
459.857	804.65
460.068	750.01
460.278	841.65
460.488	785.85
460.698	864.13
460.908	787.4
461.117	762.22
461.327	755.44
461.537	802.13
461.747	837.59
461.957	818.99
462.167	893
462.377	850.95
462.587	816.85
462.797	882.53
463.007	835.07
463.216	836.81
463.426	906.56
463.636	863.55
463.846	745.36
464.056	814.53
464.265	872.46
464.475	767.84
464.685	877.69
464.895	879.43
465.104	837.97
465.314	878.27
465.524	829.64
465.733	791.67
465.943	920.51
466.153	923.03
466.362	886.41
466.572	845.53
466.782	858.12
466.991	881.37
467.201	924.77
467.41	822.67
467.62	871.88
467.829	861.22
468.039	869.17
468.249	886.02
468.458	890.48
468.668	922.83
468.877	904.82
469.086	953.25
469.296	944.73
469.505	886.99
469.715	972.63
469.924	918.18
470.134	1004.98
470.343	968.95
470.552	858.7
470.762	912.18
470.971	858.51
471.18	911.98
471.39	926.71
471.599	900.17
471.808	936.4
472.018	917.41
472.227	994.13
472.436	1024.16
472.645	954.8
472.855	929.42
473.064	1065.82
473.273	1020.87
473.482	996.46
473.691	1073.76
473.901	1017.38
474.11	985.8
474.319	1078.03
474.528	1020.1
474.737	1120.84
474.946	1053.42
475.155	1039.47
475.364	1107.28
475.573	1062.14
475.783	1088.29
475.992	1104.96
476.201	1108.83
476.41	1074.93
476.619	1026.88
476.828	1089.07
477.037	1065.04
477.245	1054.58
477.454	1134.99
477.663	1094.88
477.872	1137.51
478.081	1209
478.29	1116.58
478.499	1272.55
478.708	1193.69
478.917	1264.02
479.125	1144.67
479.334	1157.27
479.543	1153.78
479.752	1201.25
479.961	1210.16
480.169	1264.99
480.378	1213.65
480.587	1368.26
480.796	1258.4
481.004	1248.33
481.213	1277
481.422	1286.5
481.63	1275.45
481.839	1323.89
482.048	1382.4
482.256	1343.07
482.465	1357.02
482.674	1370.58
482.882	1351.98
483.091	1436.26
483.299	1348.3
483.508	1407.2
483.716	1348.11
483.925	1394.22
484.134	1360.32
484.342	1348.88
484.551	1399.45
484.759	1388.41
484.967	1425.61
485.176	1419.02
485.384	1439.95
485.593	1410.3
485.801	1379.3
486.01	1344.82
486.218	1270.22
486.426	1212.87
486.635	1226.24
486.843	1195.24
487.051	1233.22
487.26	1246.78
487.468	1319.82
487.676	1344.82
487.885	1316.53
488.093	1370.78
488.301	1431.23
488.509	1440.91
488.717	1468.23
488.926	1450.02
489.134	1441.3
489.342	1438.59
489.55	1376.4
489.758	1441.3
489.967	1456.22
490.175	1583.51
490.383	1545.93
490.591	1628.46
490.799	1503.69
491.007	1576.54
491.215	1570.53
491.423	1552.13
491.631	1560.26
491.839	1551.16
492.047	1597.85
492.255	1490.71
492.463	1477.15
492.671	1508.73
492.879	1561.62
493.087	1519.38
493.295	1550.19
493.503	1580.8
493.711	1654.23
493.919	1634.27
494.127	1639.51
494.334	1615.48
494.542	1552.13
494.75	1657.52
494.958	1629.04
495.166	1712.55
495.374	1688.33
495.581	1685.62
495.789	1701.31
495.997	1728.24
496.205	1672.05
496.412	1652.29
496.62	1627.88
496.828	1673.02
497.035	1650.36
497.243	1720.1
497.451	1708.09
497.658	1719.72
497.866	1679.8
498.074	1753.62
498.281	1650.36
498.489	1779.78
498.696	1673.41
498.904	1623.23
499.112	1581.77
499.319	1716.04
499.527	1667.79
499.734	1730.18
499.942	1648.61
500.149	1660.04
500.357	1720.88
500.564	1629.82
500.771	1684.84
500.979	1614.51
501.186	1609.67
501.394	1670.7
501.601	1632.92
501.808	1639.51
502.016	1650.94
502.223	1667.02
502.43	1664.3
502.638	1616.06
502.845	1613.54
503.052	1758.47
503.26	1678.64
503.467	1811.55
503.674	1729.02
503.881	1731.34
504.089	1785.2
504.296	1778.62
504.503	1685.23
504.71	1708.87
504.917	1665.85
505.125	1767.57
505.332	1742.97
505.539	1804
505.746	1827.05
505.953	1865.61
506.16	1812.13
506.367	1880.53
506.574	1883.24
506.781	1889.05
506.988	1840.23
507.195	1860.76
507.402	1806.13
507.609	1868.13
507.816	1779.97
508.023	1821.63
508.23	1791.4
508.437	1739.09
508.644	1789.47
508.851	1855.34
509.058	1860.38
509.265	1815.82
509.472	1841
509.679	1935.74
509.885	1878.98
510.092	1865.22
510.299	1828.8
510.506	1826.47
510.713	1825.5
510.92	1837.9
511.126	1857.47
511.333	1884.21
511.54	1894.86
511.746	1923.15
511.953	1923.93
512.16	1941.75
512.367	1884.6
512.573	1879.36
512.78	1900.29
512.987	1901.26
513.193	1883.24
513.4	1798.38
513.606	1871.61
513.813	1894.86
514.02	1893.31
514.226	1906.68
514.433	1947.95
514.639	1864.06
514.846	1892.54
515.052	1842.36
515.259	1871.03
515.465	1853.6
515.672	1837.9
515.878	1995.03
516.085	1958.03
516.291	1964.42
516.497	1914.05
516.704	1870.45
516.91	1838.87
517.117	1727.08
517.323	1698.4
517.529	1691.82
517.736	1684.07
517.942	1694.14
518.148	1702.86
518.354	1799.15
518.561	1779.39
518.767	1762.15
518.973	1791.4
519.179	1799.35
519.386	1772.22
519.592	1815.23
519.798	1808.84
520.004	1951.63
520.21	1890.02
520.417	1977.4
520.623	1994.64
520.829	1997.36
521.035	1989.8
521.241	1983.6
521.447	2002.2
521.653	2147.7
521.859	2004.52
522.065	2040.76
522.271	2120.39
522.477	2071.95
522.683	2108.18
522.889	2092.1
523.095	2071.17
523.301	2061.87
523.507	2013.05
523.713	2077.96
523.919	2013.05
524.125	2114.38
524.331	2129.1
524.537	2203.7
524.742	2185.87
524.948	2218.03
525.154	2205.25
525.36	2316.07
525.566	2215.71
525.772	2228.3
525.977	2120.58
526.183	2196.14
526.389	2225.4
526.595	2134.14
526.8	2117.09
527.006	2073.11
527.212	2011.11
527.417	1973.14
527.623	1997.16
527.829	2066.33
528.034	2117.67
528.24	2104.3
528.446	2080.86
528.651	2231.4
528.857	2224.23
529.062	2233.92
529.268	2257.37
529.473	2271.7
529.679	2262.21
529.884	2396.67
530.09	2326.15
530.295	2282.94
530.501	2344.55
530.706	2316.65
530.912	2272.86
531.117	2294.76
531.323	2342.42
531.528	2409.46
531.733	2452.66
531.939	2340.29
532.144	2376.13
532.35	2368.58
532.555	2388.53
532.76	2375.55
532.966	2333.31
533.171	2294.56
533.376	2253.1
533.581	2217.26
533.787	2269.57
533.992	2355.01
534.197	2379.62
534.402	2351.53
534.607	2343
534.813	2430.19
535.018	2302.31
535.223	2358.11
535.428	2323.43
535.633	2430.58
535.838	2419.73
536.043	2401.13
536.249	2534.42
536.454	2420.11
536.659	2490.44
536.864	2392.79
537.069	2384.85
537.274	2403.84
537.479	2390.47
537.684	2434.45
537.889	2347.07
538.094	2491.41
538.299	2416.24
538.504	2419.14
538.708	2428.44
538.913	2503.42
539.118	2482.69
539.323	2506.52
539.528	2397.44
539.733	2414.88
539.938	2458.86
540.142	2455.18
540.347	2419.53
540.552	2358.89
540.757	2409.07
540.962	2399.77
541.166	2332.15
541.371	2368.58
541.576	2378.84
541.781	2301.54
541.985	2426.12
542.19	2405.97
542.395	2509.24
542.599	2540.62
542.804	2467.58
543.008	2528.03
543.213	2478.24
543.418	2436.58
543.622	2505.56
543.827	2421.66
544.031	2532.1
544.236	2538.1
544.44	2520.67
544.645	2601.65
544.849	2539.27
545.054	2549.73
545.258	2641.57
545.463	2575.69
545.667	2446.66
545.872	2581.7
546.076	2523.38
546.281	2549.73
546.485	2473.97
546.689	2505.56
546.894	2551.28
547.098	2545.66
547.302	2470.68
547.507	2542.95
547.711	2552.05
547.915	2579.95
548.119	2476.49
548.324	2491.99
548.528	2550.7
548.732	2483.86
548.936	2572.79
549.141	2556.51
549.345	2513.31
549.549	2557.87
549.753	2568.72
549.957	2657.84
550.161	2617.93
550.366	2579.76
550.57	2551.67
550.774	2582.28
550.978	2516.79
551.182	2602.43
551.386	2524.93
551.59	2512.92
551.794	2504.78
551.998	2594.1
552.202	2578.99
552.406	2536.17
552.61	2600.69
552.814	2568.72
553.018	2639.05
553.222	2542.75
553.426	2556.12
553.63	2707.83
553.833	2557.09
554.037	2509.62
554.241	2597.97
554.445	2649.32
554.649	2591.97
554.853	2552.64
555.056	2651.25
555.26	2654.74
555.464	2633.23
555.668	2573.37
555.871	2605.92
556.075	2637.69
556.279	2593.13
556.483	2541.4
556.686	2573.17
556.89	2576.47
557.094	2589.64
557.297	2506.91
557.501	2524.35
557.704	2472.81
557.908	2537.91
558.112	2479.79
558.315	2574.92
558.519	2468.36
558.722	2479.01
558.926	2467.58
559.129	2382.91
559.333	2385.04
559.536	2405.97
559.74	2342.42
559.943	2355.59
560.147	2352.11
560.35	2373.42
560.553	2390.66
560.757	2328.08
560.96	2446.85
561.164	2372.45
561.367	2508.27
561.57	2447.62
561.774	2429.99
561.977	2408.88
562.18	2365.86
562.384	2483.08
562.587	2393.96
562.79	2346.1
562.993	2353.08
563.197	2412.17
563.4	2446.27
563.603	2435.23
563.806	2481.72
564.009	2385.82
564.212	2394.15
564.416	2273.06
564.619	2364.51
564.822	2290.5
565.025	2413.14
565.228	2332.35
565.431	2375.55
565.634	2300.96
565.837	2319.56
566.04	2293.6
566.243	2287.98
566.446	2183.35
566.649	2311.42
566.852	2219.97
567.055	2225.2
567.258	2264.15
567.461	2337.19
567.664	2333.9
567.867	2243.8
568.07	2285.07
568.273	2286.81
568.475	2350.95
568.678	2264.92
568.881	2241.09
569.084	2243.61
569.287	2149.25
569.489	2193.82
569.692	2290.88
569.895	2249.23
570.098	2167.85
570.3	2212.22
570.503	2138.4
570.706	2174.83
570.909	2171.34
571.111	2110.31
571.314	2103.92
571.516	2169.6
571.719	2175.8
571.922	2096.17
572.124	2131.04
572.327	2143.44
572.529	2072.14
572.732	2124.45
572.935	2205.05
573.137	2231.6
573.34	2151.39
573.542	2213.38
573.745	2171.73
573.947	2182
574.15	2168.05
574.352	2120
574.554	2205.25
574.757	2130.07
574.959	2089.77
575.162	2057.22
575.364	2115.54
575.566	2197.69
575.769	2041.72
575.971	2064.78
576.173	1939.43
576.376	2081.25
576.578	2084.93
576.78	2100.43
576.982	1974.69
577.185	2026.61
577.387	1984.76
577.589	1996.97
577.791	2075.63
577.993	2033.01
578.196	1991.54
578.398	2038.24
578.6	2060.71
578.802	1929.54
579.004	1909.2
579.206	1979.73
579.408	2002.97
579.61	1959.58
579.812	2028.36
580.014	1940.39
580.216	1957.64
580.418	1963.45
580.62	1977.21
580.822	1936.71
581.024	1973.14
581.226	2007.43
581.428	1968.1
581.63	2077.57
581.832	1952.41
582.034	2044.24
582.236	1984.18
582.438	2013.24
582.64	2041.34
582.841	2079.89
583.043	2077.18
583.245	2034.36
583.447	2059.55
583.649	2023.9
583.85	2014.41
584.052	2012.27
584.254	1979.53
584.456	2033.39
584.657	1981.28
584.859	1988.06
585.061	1952.99
585.262	1944.08
585.464	1967.33
585.666	2008.4
585.867	1933.61
586.069	2015.96
586.27	1967.71
586.472	1947.37
586.674	1920.05
586.875	1919.28
587.077	1913.27
587.278	1970.04
587.48	1908.81
587.681	2036.69
587.883	1966.36
588.084	1847.4
588.285	1920.63
588.487	1911.14
588.688	1941.17
588.89	1878.98
589.091	1816.98
589.292	1826.28
589.494	1762.15
589.695	1711.58
589.896	1617.61
590.098	1648.81
590.299	1706.93
590.5	1665.27
590.702	1711.97
590.903	1721.46
591.104	1826.08
591.305	1805.74
591.507	1844.88
591.708	1831.31
591.909	1773.19
592.11	1847.4
592.311	1863.67
592.512	1789.66
592.714	1776.1
592.915	1781.91
593.116	1773.58
593.317	1829.96
593.518	1809.62
593.719	1812.52
593.92	1831.51
594.121	1877.43
594.322	1837.71
594.523	1845.85
594.724	1776.29
594.925	1823.95
595.126	1796.05
595.327	1829.18
595.528	1806.52
595.729	1816.59
595.929	1814.07
596.13	1788.5
596.331	1842.94
596.532	1841.97
596.733	1881.88
596.934	1854.37
597.135	1885.56
597.335	1863.86
597.536	1795.47
597.737	1852.63
597.938	1790.43
598.138	1843.91
598.339	1790.63
598.54	1811.17
598.74	1777.07
598.941	1808.84
599.142	1802.25
599.342	1838.87
599.543	1750.91
599.744	1807.48
599.944	1790.24
600.145	1788.69
600.345	1774.35
600.546	1887.7
600.746	1872.39
600.947	1889.44
601.147	1791.02
601.348	1850.88
601.548	1771.83
601.749	1782.68
601.949	1742.19
602.15	1748
602.35	1721.46
602.551	1775.9
602.751	1748.39
602.951	1692.79
603.152	1676.9
603.352	1796.44
603.552	1760.79
603.753	1745.48
603.953	1764.86
604.153	1756.33
604.354	1748.97
604.554	1710.22
604.754	1732.7
604.954	1673.41
605.155	1731.34
605.355	1724.37
605.555	1766.41
605.755	1828.02
605.955	1729.99
606.155	1788.88
606.356	1769.12
606.556	1782.68
606.756	1718.55
606.956	1670.89
607.156	1777.84
607.356	1689.49
607.556	1698.6
607.756	1721.27
607.956	1786.95
608.156	1720.1
608.356	1674.57
608.556	1762.15
608.756	1709.25
608.956	1660.04
609.156	1676.7
609.356	1687.94
609.556	1647.84
609.755	1731.15
609.955	1687.55
610.155	1682.71
610.355	1700.54
610.555	1660.43
610.755	1651.13
610.954	1592.62
611.154	1640.47
611.354	1656.75
611.554	1627.3
611.753	1616.26
611.953	1596.69
612.153	1682.13
612.352	1700.15
612.552	1604.44
612.752	1571.5
612.951	1615.87
613.151	1607.73
613.351	1583.9
613.55	1627.69
613.75	1637.96
613.949	1601.72
614.149	1617.61
614.348	1580.22
614.548	1575.96
614.747	1541.08
614.947	1573.63
615.146	1518.41
615.346	1611.8
615.545	1616.45
615.745	1588.94
615.944	1607.92
616.144	1552.51
616.343	1596.88
616.542	1521.9
616.742	1545.15
616.941	1567.82
617.14	1474.63
617.34	1541.28
617.539	1557.94
617.738	1516.28
617.938	1616.45
618.137	1540.31
618.336	1524.42
618.535	1625.94
618.734	1560.07
618.934	1587.77
619.133	1564.53
619.332	1571.31
619.531	1532.36
619.73	1564.53
619.929	1649
620.128	1577.89
620.328	1640.67
620.527	1532.17
620.726	1552.51
620.925	1584.48
621.124	1579.06
621.323	1572.08
621.522	1524.03
621.721	1527.52
621.92	1524.23
622.119	1578.86
622.318	1543.79
622.517	1526.94
622.715	1494.97
622.914	1515.7
623.113	1541.86
623.312	1464.94
623.511	1503.3
623.71	1452.73
623.909	1466.3
624.107	1562.78
624.306	1436.65
624.505	1494.39
624.704	1471.14
624.902	1464.94
625.101	1542.83
625.3	1484.51
625.499	1446.53
625.697	1456.41
625.896	1441.5
626.095	1481.41
626.293	1395.58
626.492	1433.16
626.69	1466.68
626.889	1477.92
627.088	1505.63
627.286	1435.1
627.485	1442.46
627.683	1449.05
627.882	1446.53
628.08	1363.61
628.279	1414.18
628.477	1486.64
628.676	1375.43
628.874	1455.25
629.073	1411.08
629.271	1388.8
629.469	1434.52
629.668	1411.46
629.866	1398.68
630.065	1373.3
630.263	1425.61
630.461	1388.41
630.66	1434.13
630.858	1451.38
631.056	1449.25
631.254	1436.65
631.453	1376.4
631.651	1447.5
631.849	1387.83
632.047	1386.86
632.245	1399.06
632.444	1403.33
632.642	1443.05
632.84	1401.39
633.038	1393.64
633.236	1344.23
633.434	1359.73
633.632	1362.64
633.83	1362.64
634.028	1419.41
634.227	1381.63
634.425	1460.1
634.623	1369.62
634.821	1394.03
635.019	1375.23
635.216	1361.48
635.414	1420.96
635.612	1432.39
635.81	1358.77
636.008	1468.04
636.206	1396.16
636.404	1415.92
636.602	1344.62
636.8	1400.42
636.997	1403.91
637.195	1434.13
637.393	1372.52
637.591	1453.12
637.789	1390.93
637.986	1370.2
638.184	1383.95
638.382	1415.92
638.58	1436.07
638.777	1488.19
638.975	1381.24
639.173	1416.7
639.37	1369.42
639.568	1397.32
639.765	1365.74
639.963	1371.17
640.161	1402.75
640.358	1370.39
640.556	1305.68
640.753	1310.33
640.951	1285.14
641.148	1341.91
641.346	1325.63
641.543	1341.13
641.741	1333.77
641.938	1300.84
642.136	1332.8
642.333	1282.24
642.531	1349.85
642.728	1392.86
642.925	1309.36
643.123	1324.86
643.32	1312.27
643.517	1285.34
643.715	1295.99
643.912	1271.97
644.109	1290.57
644.306	1333.58
644.504	1265.96
644.701	1272.55
644.898	1291.54
645.095	1262.67
645.293	1291.54
645.49	1294.44
645.687	1284.75
645.884	1294.44
646.081	1223.34
646.278	1259.37
646.475	1249.1
646.672	1233.41
646.87	1296.38
647.067	1282.62
647.264	1265.57
647.461	1228.57
647.658	1196.99
647.855	1262.09
648.052	1218.88
648.249	1134.6
648.446	1204.93
648.642	1223.34
648.839	1193.69
649.036	1185.56
649.233	1171.99
649.43	1163.47
649.627	1147.39
649.824	1145.64
650.021	1164.82
650.217	1163.86
650.414	1158.82
650.611	1209.19
650.808	1189.24
651.004	1181.1
651.201	1202.61
651.398	1272.74
651.595	1202.8
651.791	1184.97
651.988	1210.55
652.185	1160.95
652.381	1224.89
652.578	1151.26
652.775	1217.33
652.971	1194.08
653.168	1167.34
653.364	1253.17
653.561	1150.29
653.757	1157.85
653.954	1210.36
654.15	1150.87
654.347	1263.44
654.543	1191.37
654.74	1129.56
654.936	1142.93
655.133	1159.59
655.329	1179.74
655.525	1160.17
655.722	1176.26
655.918	1096.24
656.115	1148.36
656.311	1044.51
656.507	1014.09
656.704	927.29
656.9	1003.24
657.096	972.82
657.292	1002.27
657.489	1082.48
657.685	1059.62
657.881	1031.91
658.077	1065.82
658.273	1054.97
658.47	1117.36
658.666	1085.97
658.862	1125.69
659.058	1090.43
659.254	1162.11
659.45	1072.21
659.646	1107.67
659.842	1122.78
660.038	1174.51
660.234	1113.09
660.43	1133.24
660.626	1168.7
660.822	1141.19
661.018	1187.88
661.214	1122.39
661.41	1114.64
661.606	1182.84
661.802	1191.37
661.998	1148.55
662.194	1130.92
662.39	1152.42
662.586	1154.75
662.781	1178.97
662.977	1206.29
663.173	1186.33
663.369	1161.14
663.564	1145.64
663.76	1163.66
663.956	1124.33
664.152	1190.98
664.347	1072.21
664.543	1154.36
664.739	1116.39
664.934	1078.03
665.13	1095.66
665.326	1149.71
665.521	1132.47
665.717	1072.79
665.912	1091.59
666.108	1054.39
666.304	1142.93
666.499	1069.5
666.695	1028.62
666.89	1103.99
667.086	1120.26
667.281	1120.65
667.477	1169.28
667.672	1132.27
667.867	1114.64
668.063	1130.14
668.258	1066.4
668.454	1133.05
668.649	1182.26
668.844	1112.32
669.04	1171.99
669.235	1134.99
669.43	1086.74
669.626	1049.74
669.821	1103.41
670.016	1059.43
670.211	1130.34
670.407	1053.42
670.602	1109.8
670.797	1101.66
670.992	1128.59
671.187	1080.54
671.382	1140.02
671.578	1082.09
671.773	1089.46
671.968	1043.15
672.163	1080.93
672.358	1082.68
672.553	1045.09
672.748	1044.89
672.943	1108.83
673.138	1097.59
673.333	1109.22
673.528	1033.08
673.723	1087.33
673.918	1029.4
674.113	1008.47
674.308	1126.27
674.503	1101.66
674.698	1084.23
674.892	1046.64
675.087	1104.38
675.282	1073.76
675.477	1042.96
675.672	1086.94
675.867	1032.3
676.061	1071.05
676.256	1002.08
676.451	1049.35
676.646	1063.11
676.84	1014.09
677.035	985.8
677.23	1013.12
677.424	1050.71
677.619	1074.15
677.814	1091.01
678.008	1054.58
678.203	990.06
678.397	1009.63
678.592	1044.12
678.787	1075.51
678.981	1018.55
679.176	1062.33
679.37	1052.84
679.565	997.43
679.759	1007.31
679.954	1064.46
680.148	1096.63
680.342	1098.76
680.537	1061.75
680.731	1031.14
680.926	1015.45
681.12	1057.49
681.314	1004.01
681.509	1021.06
681.703	1033.66
681.897	1044.7
682.092	1037.34
682.286	996.26
682.48	1065.24
682.674	1061.36
682.869	974.18
683.063	1004.21
683.257	1100.89
683.451	955.96
683.645	1011.18
683.839	975.15
684.034	986.19
684.228	1030.75
684.422	959.84
684.616	981.54
684.81	995.1
685.004	970.3
685.198	976.5
685.392	1031.91
685.586	963.33
685.78	989.87
685.974	1001.11
686.168	989.68
686.362	1042.76
686.556	941.82
686.75	924.97
686.944	916.83
687.138	916.83
687.331	820.92
687.525	844.75
687.719	759.89
687.913	883.89
688.107	819.76
688.301	811.82
688.494	858.12
688.688	782.56
688.882	792.83
689.076	784.69
689.269	824.99
689.463	908.69
689.657	829.64
689.85	839.33
690.044	857.35
690.238	816.27
690.431	859.09
690.625	811.24
690.818	878.08
691.012	889.7
691.205	895.52
691.399	836.42
691.593	892.61
691.786	911.4
691.98	928.45
692.173	985.61
692.366	905.78
692.56	1000.14
692.753	987.16
692.947	922.25
693.14	1005.95
693.333	991.81
693.527	891.83
693.72	945.12
693.914	941.63
694.107	901.33
694.3	960.03
694.493	935.23
694.687	1004.79
694.88	935.43
695.073	994.13
695.266	993.94
695.46	942.98
695.653	1040.63
695.846	1014.28
696.039	919.93
696.232	971.27
696.425	1068.34
696.618	1037.92
696.812	1041.21
697.005	1075.31
697.198	1163.86
697.391	1078.8
697.584	1103.6
697.777	1151.07
697.97	1143.51
698.163	1155.72
698.356	1135.18
698.549	1219.65
698.742	1154.56
698.935	1138.86
699.127	1183.23
699.32	1119.1
699.513	1145.45
699.706	1161.14
699.899	1176.84
700.092	1159.21
700.285	1207.26
700.477	1138.86
700.67	1190.21
700.863	1190.21
701.056	1299.09
701.248	1277.2
701.441	1293.86
701.634	1225.27
701.826	1358.57
702.019	1259.37
702.212	1328.73
702.404	1264.6
702.597	1244.26
702.79	1257.63
702.982	1326.41
703.175	1304.9
703.367	1340.36
703.56	1338.23
703.752	1419.02
703.945	1417.47
704.137	1431.03
704.33	1421.54
704.522	1448.86
704.715	1453.51
704.907	1507.37
705.1	1518.99
705.292	1543.6
705.484	1508.34
705.677	1543.21
705.869	1545.15
706.061	1567.43
706.254	1610.83
706.446	1598.82
706.638	1588.94
706.831	1689.49
707.023	1598.24
707.215	1752.07
707.407	1684.26
707.599	1716.81
707.792	1746.65
707.984	1726.11
708.176	1766.6
708.368	1738.9
708.56	1770.28
708.752	1758.47
708.944	1757.3
709.136	1809.81
709.329	1817.37
709.521	1909.4
709.713	1897
709.905	1889.25
710.097	1962.29
710.289	1867.93
710.481	1897
710.672	1947.76
710.864	1917.92
711.056	2024.29
711.248	2003.56
711.44	2038.24
711.632	1989.22
711.824	2006.85
712.016	2089
712.207	2058
712.399	2096.17
712.591	2171.15
712.783	2103.72
712.975	2140.92
713.166	2103.92
713.358	2182
713.55	2215.71
713.741	2206.22
713.933	2214.55
714.125	2187.62
714.316	2176.77
714.508	2300.57
714.7	2264.53
714.891	2234.12
715.083	2299.02
715.274	2262.02
715.466	2311.81
715.657	2387.95
715.849	2258.14
716.04	2295.73
716.232	2274.22
716.423	2327.89
716.615	2276.74
716.806	2236.63
716.998	2199.43
717.189	2194.59
717.381	2092.68
717.572	2066.91
717.763	2061.1
717.955	2061.49
718.146	2059.94
718.337	2019.83
718.528	1983.6
718.72	1934.39
718.911	2019.83
719.102	1922.76
719.293	2007.62
719.485	2000.46
719.676	1952.02
719.867	1921.79
720.058	1984.76
720.249	1944.66
720.44	1985.73
720.632	1993.29
720.823	2073.89
721.014	2171.15
721.205	2206.22
721.396	2275.38
721.587	2343
721.778	2377.29
721.969	2437.94
722.16	2461.57
722.351	2499.36
722.542	2654.16
722.733	2645.83
722.924	2550.89
723.115	2637.3
723.305	2580.34
723.496	2638.08
723.687	2520.67
723.878	2493.74
724.069	2558.45
724.26	2556.9
724.45	2481.14
724.641	2450.92
724.832	2535.39
725.023	2520.47
725.213	2523.96
725.404	2525.51
725.595	2490.44
725.785	2496.84
725.976	2598.75
726.167	2585.19
726.357	2550.5
726.548	2636.53
726.739	2588.09
726.929	2670.43
727.12	2684.58
727.31	2685.16
727.501	2690.78
727.691	2676.05
727.882	2702.4
728.072	2733.98
728.263	2727.4
728.453	2774.28
728.644	2802.18
728.834	2774.67
729.024	2775.06
729.215	2792.88
729.405	2756.85
729.596	2884.33
729.786	2844.03
729.976	2902.74
730.167	2902.35
730.357	2876.97
730.547	2899.06
730.737	2911.46
730.928	3006.78
731.118	3032.35
731.308	2941.49
731.498	2971.52
731.688	3049.79
731.879	3003.1
732.069	3108.69
732.259	3138.91
732.449	3152.09
732.639	3211.38
732.829	3232.88
733.019	3305.73
733.209	3340.61
733.399	3370.83
733.589	3417.72
733.779	3434.38
733.969	3448.72
734.159	3472.94
734.349	3558.18
734.539	3625.8
734.729	3555.47
734.919	3621.35
735.109	3690.51
735.299	3585.5
735.488	3620.96
735.678	3640.91
735.868	3633.16
736.058	3638.98
736.248	3625.41
736.437	3595.96
736.627	3558.57
736.817	3712.6
737.007	3651.96
737.196	3725.19
737.386	3677.14
737.576	3623.86
737.765	3703.3
737.955	3671.53
738.144	3885.04
738.334	3778.28
738.524	3731.01
738.713	3819.55
738.903	3764.14
739.092	3781.57
739.282	3843.96
739.471	3814.71
739.661	3793.97
739.85	3855.59
740.04	3832.34
740.229	3879.03
740.419	3873.8
740.608	3865.66
740.797	3899.57
740.987	3946.65
741.176	3932.12
741.365	3884.26
741.555	3848.42
741.744	3972.42
741.933	3900.34
742.123	3943.35
742.312	3919.91
742.501	3962.34
742.69	4015.81
742.88	3900.92
743.069	4072
743.258	4006.9
743.447	4086.15
743.636	4052.24
743.825	4019.5
744.014	4051.27
744.204	4044.88
744.393	3986.75
744.582	4117.92
744.771	4117.53
744.96	4026.08
745.149	4086.15
745.338	4075.88
745.527	4084.4
745.716	4069.68
745.905	4065.22
746.094	4151.44
746.283	4140.39
746.471	4072
746.66	4159.38
746.849	4161.32
747.038	4149.69
747.227	4112.88
747.416	4161.71
747.604	4064.83
747.793	4134.19
747.982	4087.5
748.171	4106.68
748.359	4127.61
748.548	4140.59
748.737	4140.01
748.926	4109.98
749.114	3996.83
749.303	4112.88
749.491	4104.94
749.68	4045.65
749.869	4119.28
750.057	4054.95
750.246	4072.2
750.434	4089.05
750.623	4067.35
750.811	4038.68
751	4077.23
751.188	4065.8
751.377	4070.26
751.565	4071.81
751.754	4045.85
751.942	4051.66
752.131	4080.91
752.319	3985.78
752.507	4012.91
752.696	4080.33
752.884	4116.76
753.072	4028.6
753.261	4034.61
753.449	4026.08
753.637	4007.87
753.825	4160.16
754.014	4011.17
754.202	4040.03
754.39	4087.5
754.578	4056.31
754.766	3983.85
754.955	3984.04
755.143	4127.03
755.331	4037.71
755.519	4020.08
755.707	4038.48
755.895	3984.04
756.083	4032.67
756.271	3960.79
756.459	3991.21
756.647	4069.48
756.835	3963.12
757.023	3955.56
757.211	3949.17
757.399	3960.98
757.587	3975.71
757.775	3914.68
757.963	3968.73
758.151	3982.88
758.339	3880.77
758.526	3863.92
758.714	3929.02
758.902	3849.39
759.09	3756.39
759.278	3582.6
759.465	3373.93
759.653	3015.89
759.841	2787.46
760.028	2490.25
760.216	2176.77
760.404	2077.57
760.591	1752.46
760.779	1496.52
760.967	1375.23
761.154	1213.65
761.342	1273.9
761.529	1264.22
761.717	1337.65
761.905	1383.37
762.092	1458.55
762.28	1421.15
762.467	1490.51
762.655	1373.49
762.842	1444.98
763.029	1466.68
763.217	1507.56
763.404	1514.34
763.592	1543.41
763.779	1477.53
763.966	1553.09
764.154	1577.7
764.341	1633.5
764.528	1657.72
764.716	1745.29
764.903	1776.1
765.09	1860.18
765.277	1919.47
765.465	2077.18
765.652	2118.25
765.839	2163.79
766.026	2308.51
766.213	2337.58
766.4	2412.75
766.588	2607.66
766.775	2636.33
766.962	2710.35
767.149	2812.64
767.336	2943.04
767.523	2882.2
767.71	3013.95
767.897	3146.66
768.084	3173.6
768.271	3196.65
768.458	3294.69
768.645	3344.48
768.832	3287.33
769.019	3361.92
769.206	3367.15
769.392	3420.24
769.579	3557.22
769.766	3447.94
769.953	3428.37
770.14	3490.18
770.327	3458.4
770.513	3525.63
770.7	3556.44
770.887	3497.93
771.073	3550.63
771.26	3587.05
771.447	3515.17
771.634	3462.86
771.82	3615.92
772.007	3475.26
772.193	3538.23
772.38	3550.82
772.567	3509.55
772.753	3533.58
772.94	3564.58
773.126	3562.06
773.313	3569.03
773.499	3514.98
773.686	3551.02
773.872	3455.11
774.059	3495.22
774.245	3463.05
774.432	3485.53
774.618	3396.02
774.804	3477.39
774.991	3399.51
775.177	3471.39
775.363	3469.25
775.55	3447.75
775.736	3405.51
775.922	3422.17
776.109	3434.38
776.295	3409.39
776.481	3444.07
776.667	3425.27
776.853	3425.47
777.04	3369.47
777.226	3339.64
777.412	3435.74
777.598	3378.19
777.784	3386.91
777.97	3394.86
778.156	3377.42
778.342	3370.44
778.528	3378.39
778.715	3292.94
778.901	3278.99
779.087	3375.09
779.272	3305.15
779.458	3263.11
779.644	3332.27
779.83	3287.52
780.016	3399.31
780.202	3328.79
780.388	3266.21
780.574	3224.16
780.76	3232.69
780.946	3264.85
781.131	3295.85
781.317	3268.14
781.503	3217.58
781.689	3229.59
781.874	3327.04
782.06	3197.43
782.246	3248.77
782.432	3213.7
782.617	3205.56
782.803	3285.97
782.989	3142.98
783.174	3210.21
783.36	3131.55
783.545	3156.55
783.731	3174.18
783.916	3030.03
784.102	3177.28
784.288	3091.06
784.473	3161.2
784.659	3087.18
784.844	3146.08
785.029	3088.15
785.215	3092.22
785.4	3030.42
785.586	3146.47
785.771	3010.46
785.956	3050.76
786.142	3034.1
786.327	3074.98
786.512	3050.57
786.698	3003.87
786.883	2979.46
787.068	2982.37
787.254	2982.17
787.439	2969.97
787.624	2984.11
787.809	2966.67
787.994	2994.57
788.18	3075.75
788.365	2938.97
788.55	2960.28
788.735	2916.49
788.92	2936.06
789.105	2932.38
789.29	2953.89
789.475	2867.67
789.66	2883.94
789.845	2882.2
790.03	2858.37
790.215	2921.72
790.4	2905.26
790.585	2919.98
790.77	2831.44
790.955	2783.58
791.14	2879.1
791.325	2920.56
791.51	2753.36
791.695	2838.99
791.879	2827.56
792.064	2772.35
792.249	2909.52
792.434	2847.91
792.618	2817.29
792.803	2846.55
792.988	2844.81
793.173	2820.98
793.357	2863.02
793.542	2793.27
793.727	2786.49
793.911	2883.75
794.096	2799.66
794.281	2857.59
794.465	2926.96
794.65	2822.14
794.834	2879.87
795.019	2871.74
795.203	2876.58
795.388	2919.79
795.572	2937.61
795.757	2867.67
795.941	2887.24
796.126	2857.79
796.31	2796.18
796.494	2875.81
796.679	2856.63
796.863	2844.42
797.048	2941.1
797.232	2882.78
797.416	2918.43
797.601	2863.6
797.785	2938.77
797.969	2958.73
798.153	2861.08
798.338	2900.61
798.522	2946.33
798.706	2966.29
798.89	2921.92
799.074	3029.25
799.258	2947.11
799.443	2922.11
799.627	2915.91
799.811	2946.52
799.995	2885.3
800.179	2891.11
800.363	2879.68
800.547	2913.78
800.731	2955.05
800.915	2894.79
801.099	2865.73
801.283	2905.64
801.467	2871.35
801.651	2895.76
801.835	2964.93
802.019	2931.02
802.202	2938.19
802.386	2858.37
802.57	2836.09
802.754	2867.67
802.938	2838.41
803.121	2875.23
803.305	2959.12
803.489	2911.46
803.673	2905.64
803.856	2906.81
804.04	2876.39
804.224	2905.45
804.407	2873.87
804.591	2886.27
804.775	2888.4
804.958	2873.29
805.142	2964.74
805.326	2880.07
805.509	2899.44
805.693	2916.88
805.876	2937.22
806.06	2918.24
806.243	2884.33
806.427	2955.44
806.61	2949.62
806.794	2901.19
806.977	2902.16
807.16	2906.61
807.344	2919.01
807.527	2904.48
807.71	2913.39
807.894	2862.83
808.077	2907.19
808.26	2823.49
808.444	2822.91
808.627	2906.81
808.81	2845
808.993	2787.07
809.177	2745.61
809.36	2830.86
809.543	2858.76
809.726	2738.63
809.909	2699.5
810.092	2716.93
810.276	2727.98
810.459	2754.71
810.642	2708.99
810.825	2679.35
811.008	2729.72
811.191	2605.14
811.374	2633.82
811.557	2675.67
811.74	2704.92
811.923	2575.3
812.106	2576.85
812.289	2554.77
812.472	2579.95
812.654	2566.78
812.837	2543.72
813.02	2457.7
813.203	2466.81
813.386	2380.2
813.569	2338.55
813.751	2320.33
813.934	2377.29
814.117	2315.3
814.3	2278.29
814.482	2262.02
814.665	2219.78
814.848	2153.52
815.03	2112.83
815.213	2129.69
815.396	2101.2
815.578	2051.61
815.761	2067.11
815.943	2089
816.126	1983.99
816.309	1987.67
816.491	1908.04
816.674	1860.76
816.856	1896.22
817.039	1912.88
817.221	1958.41
817.403	1931.68
817.586	1934.58
817.768	1941.36
817.951	1855.53
818.133	1842.16
818.315	1852.43
818.498	1925.67
818.68	2014.79
818.862	1931.29
819.045	1964.23
819.227	1958.22
819.409	1915.79
819.591	1937.49
819.774	1913.66
819.956	1859.02
820.138	1967.13
820.32	1945.24
820.502	1974.3
820.684	2025.84
820.866	2035.52
821.048	2106.24
821.231	2104.11
821.413	2127.55
821.595	2119.22
821.777	2128.14
821.959	2114.38
822.141	2166.69
822.323	2045.41
822.505	2012.66
822.686	1960.93
822.868	1878.01
823.05	1770.67
823.232	1728.24
823.414	1634.86
823.596	1706.15
823.778	1691.04
823.96	1712.16
824.141	1753.62
824.323	1743.55
824.505	1819.88
824.687	1875.3
824.868	1924.7
825.05	1977.98
825.232	2046.37
825.413	2145.38
825.595	2048.51
825.777	1987.86
825.958	2049.09
826.14	2028.74
826.321	2074.86
826.503	2017.89
826.685	2044.44
826.866	2057.22
827.048	2067.88
827.229	1972.94
827.411	2010.53
827.592	1935.74
827.773	1947.18
827.955	1886.53
828.136	1857.08
828.318	1845.85
828.499	1877.43
828.68	1826.28
828.862	1839.26
829.043	1831.31
829.224	1863.67
829.406	1788.5
829.587	1785.2
829.768	1843.71
829.949	1837.32
830.131	1824.73
830.312	1909.78
830.493	1850.11
830.674	1841.2
830.855	1836.93
831.036	1839.06
831.218	1868.32
831.399	1896.61
831.58	1855.73
831.761	1816.78
831.942	1856.89
832.123	1855.73
832.304	1813.3
832.485	1820.66
832.666	1805.16
832.847	1873.55
833.028	1852.63
833.209	1809.81
833.389	1828.99
833.57	1777.07
833.751	1785.78
833.932	1830.93
834.113	1799.54
834.294	1768.35
834.475	1825.5
834.655	1863.67
834.836	1918.11
835.017	1877.23
835.198	1793.34
835.378	1852.63
835.559	1906.49
835.74	1842.94
835.92	1837.32
836.101	1806.9
836.281	1869.68
836.462	1856.31
836.643	1872.58
836.823	1881.11
837.004	1910.56
837.184	1937.49
837.365	1901.84
837.545	1889.44
837.726	1851.85
837.906	1915.4
838.087	1856.5
838.267	1869.68
838.448	1789.85
838.628	1873.36
838.808	1848.17
838.989	1931.09
839.169	1830.73
839.349	1890.6
839.53	1898.93
839.71	1896.8
839.89	1838.48
840.07	1937.49
840.251	1832.09
840.431	1896.03
840.611	1864.83
840.791	1829.96
840.971	1881.69
841.151	1847.4
841.332	1834.22
841.512	1898.93
841.692	1779
841.872	1846.43
842.052	1819.3
842.232	1852.63
842.412	1732.5
842.592	1808.65
842.772	1854.76
842.952	1826.86
843.132	1791.4
843.312	1806.71
843.492	1763.12
843.672	1853.98
843.851	1747.03
844.031	1799.73
844.211	1828.6
844.391	1779.58
844.571	1816.01
844.751	1779.97
844.93	1780.17
845.11	1747.23
845.29	1784.43
845.47	1807.87
845.649	1782.3
845.829	1797.02
846.009	1724.17
846.188	1782.1
846.368	1770.48
846.547	1777.65
846.727	1828.02
846.907	1730.76
847.086	1747.81
847.266	1799.93
847.445	1765.63
847.625	1702.09
847.804	1727.47
847.984	1731.15
848.163	1734.64
848.343	1695.3
848.522	1739.09
848.701	1748.2
848.881	1694.34
849.06	1724.56
849.239	1720.69
849.419	1679.61
849.598	1653.26
849.777	1664.11
849.957	1637.18
850.136	1562.98
850.315	1531.98
850.494	1573.63
850.674	1580.02
850.853	1641.25
851.032	1607.34
851.211	1650.94
851.39	1587.19
851.569	1546.89
851.748	1581.38
851.927	1652.29
852.107	1593.39
852.286	1585.26
852.465	1561.43
852.644	1649.19
852.823	1623.04
853.002	1609.47
853.181	1593.39
853.359	1628.66
853.538	1501.56
853.717	1637.18
853.896	1504.85
854.075	1438.78
854.254	1421.35
854.433	1345.4
854.611	1384.15
854.79	1319.05
854.969	1395.38
855.148	1401.58
855.327	1358.38
855.505	1439.95
855.684	1407.98
855.863	1450.02
856.041	1398.48
856.22	1443.43
856.399	1416.89
856.577	1563.94
856.756	1541.66
856.934	1620.91
857.113	1620.13
857.291	1550.19
857.47	1501.75
857.648	1516.28
857.827	1540.11
858.005	1577.51
858.184	1497.29
858.362	1571.5
858.541	1540.31
858.719	1511.24
858.898	1499.62
859.076	1503.11
859.254	1581.19
859.433	1484.12
859.611	1487.8
859.789	1459.9
859.967	1541.47
860.146	1523.45
860.324	1464.55
860.502	1467.46
860.68	1433.55
860.859	1451.38
861.037	1466.3
861.215	1472.11
861.393	1440.91
861.571	1459.71
861.749	1451.18
861.927	1469.2
862.105	1478.69
862.283	1423.67
862.461	1427.16
862.639	1411.66
862.817	1416.11
862.995	1432.58
863.173	1405.26
863.351	1431.81
863.529	1413.79
863.707	1444.6
863.885	1453.12
864.063	1366.71
864.241	1408.95
864.418	1469.4
864.596	1391.51
864.774	1345.4
864.952	1383.76
865.129	1410.3
865.307	1366.32
865.485	1337.65
865.663	1380.66
865.84	1301.22
866.018	1339.2
866.196	1220.62
866.373	1233.99
866.551	1180.71
866.728	1149.91
866.906	1168.31
867.084	1178.97
867.261	1227.79
867.439	1255.69
867.616	1296.38
867.794	1259.37
867.971	1241.35
868.149	1290.76
868.326	1337.65
868.503	1338.81
868.681	1300.06
868.858	1302.39
869.035	1260.73
869.213	1319.43
869.39	1276.04
869.567	1340.55
869.745	1253.56
869.922	1301.22
870.099	1323.31
870.276	1328.15
870.454	1294.25
870.631	1309.17
870.808	1270.03
870.985	1308.78
871.162	1351.21
871.339	1323.89
871.517	1230.7
871.694	1224.69
871.871	1284.17
872.048	1254.92
872.225	1252.4
872.402	1295.22
872.579	1221.4
872.756	1278.75
872.933	1196.41
873.11	1220.62
873.287	1231.86
873.463	1186.14
873.64	1225.27
873.817	1254.72
873.994	1240.19
874.171	1204.16
874.348	1233.8
874.524	1161.53
874.701	1233.02
874.878	1128.98
875.055	1201.44
875.231	1178.39
875.408	1209.58
875.585	1155.72
875.762	1211.91
875.938	1181.68
876.115	1166.57
876.291	1161.53
876.468	1169.67
876.645	1116
876.821	1159.4
876.998	1146.22
877.174	1176.84
877.351	1153.01
877.527	1119.1
877.704	1193.11
877.88	1148.74
878.057	1153.01
878.233	1200.86
878.409	1140.02
878.586	1123.94
878.762	1149.13
878.938	1136.54
879.115	1048.58
879.291	1124.53
879.467	1080.74
879.644	1082.87
879.82	1138.09
879.996	1102.05
880.172	1040.44
880.349	1130.34
880.525	1132.08
880.701	1021.65
880.877	1073.96
881.053	1100.11
881.229	1093.72
881.405	1126.08
881.581	1056.71
881.757	1102.05
881.933	1097.21
882.109	1143.9
882.285	1089.07
882.461	1020.29
882.637	1081.71
882.813	1030.36
882.989	1080.16
883.165	1106.89
883.341	1037.73
883.517	1150.68
883.693	1124.91
883.869	1105.15
884.044	1060.78
884.22	1107.86
884.396	1153.01
884.572	1096.43
884.747	1115.42
884.923	1089.46
885.099	1103.6
885.275	1122.39
885.45	1043.15
885.626	1048.38
885.801	1044.51
885.977	1066.4
886.153	1011.57
886.328	1073.18
886.504	1022.42
886.679	1085.97
886.855	1039.86
887.03	1081.9
887.206	1075.7
887.381	1048.58
887.557	1103.41
887.732	1076.86
887.908	1074.54
888.083	1121.81
888.258	1060.01
888.434	1058.26
888.609	1077.44
888.784	1108.64
888.96	1084.03
889.135	1040.05
889.31	1024.36
889.485	1059.23
889.661	1049.35
889.836	1082.29
890.011	1087.71
890.186	1062.14
890.361	1067.76
890.537	1106.31
890.712	1092.36
890.887	1059.23
891.062	1060.39
891.237	1118.52
891.412	1039.86
891.587	1079.19
891.762	1138.86
891.937	1101.08
892.112	1022.81
892.287	1070.28
892.462	1020.48
892.637	1009.63
892.812	982.51
892.987	1010.8
893.161	977.86
893.336	990.45
893.511	993.16
893.686	968.56
893.861	983.67
894.035	993.55
894.21	997.23
894.385	971.46
894.56	995.88
894.734	930
894.909	934.07
895.084	890.28
895.258	936.59
895.433	953.06
895.608	909.27
895.782	846.69
895.957	874.4
896.131	887.77
896.306	806.39
896.48	820.73
896.655	829.45
896.829	747.49
897.004	771.13
897.178	767.06
897.353	765.51
897.527	803.68
897.701	772.1
897.876	734.32
898.05	838.55
898.224	802.32
898.399	877.3
898.573	768.61
898.747	684.91
898.921	720.95
899.096	615.36
899.27	633.96
899.444	666.89
899.618	661.86
899.792	708.36
899.967	667.09
900.141	726.96
900.315	654.69
900.489	679.49
900.663	699.44
900.837	670.77
901.011	652.17
901.185	725.99
901.359	692.47
901.533	683.17
901.707	687.24
901.881	674.64
902.055	661.08
902.229	686.66
902.403	734.12
902.576	689.37
902.75	686.08
902.924	777.91
903.098	756.6
903.272	747.69
903.446	820.73
903.619	788.18
903.793	829.45
903.967	792.05
904.14	858.51
904.314	866.45
904.488	835.45
904.661	845.34
904.835	834.49
905.009	848.05
905.182	897.45
905.356	846.69
905.529	822.28
905.703	804.07
905.876	780.43
906.05	776.75
906.223	735.67
906.397	731.22
906.57	674.06
906.744	692.86
906.917	670.19
907.09	709.52
907.264	713.2
907.437	634.54
907.61	628.14
907.784	644.81
907.957	648.88
908.13	627.56
908.304	663.41
908.477	585.13
908.65	614
908.823	596.18
908.996	664.76
909.17	583.39
909.343	600.44
909.516	651.01
909.689	638.22
909.862	592.69
910.035	607.8
910.208	561.11
910.381	580.87
910.554	688.79
910.727	594.24
910.9	591.53
911.073	583.78
911.246	632.79
911.419	642.87
911.592	636.09
911.765	592.5
911.938	579.9
912.11	603.73
912.283	626.01
912.456	634.73
912.629	624.08
912.802	550.84
912.974	539.02
913.147	518.48
913.32	479.15
913.493	509.38
913.665	516.55
913.838	534.95
914.01	527.78
914.183	537.66
914.356	544.83
914.528	593.46
914.701	619.43
914.873	598.31
915.046	543.86
915.218	495.43
915.391	447.96
915.563	464.23
915.736	514.03
915.908	551.61
916.081	505.89
916.253	512.48
916.425	531.08
916.598	537.08
916.77	519.65
916.942	496.59
917.115	477.02
917.287	519.06
917.459	527.01
917.632	449.12
917.804	428
917.976	490.39
918.148	510.15
918.32	448.54
918.493	541.73
918.665	580.87
918.837	508.8
919.009	565.76
919.181	531.66
919.353	523.33
919.525	537.08
919.697	550.45
919.869	502.4
920.041	601.41
920.213	636.67
920.385	569.83
920.557	543.48
920.729	572.35
920.901	544.83
921.073	511.7
921.244	546.19
921.416	598.7
921.588	533.21
921.76	508.22
921.932	597.73
922.103	509.96
922.275	521.39
922.447	537.28
922.619	449.32
922.79	516.55
922.962	518.87
923.134	540.38
923.305	463.85
923.477	463.65
923.648	457.26
923.82	496.78
923.991	438.47
924.163	444.86
924.335	462.88
924.506	438.66
924.677	514.8
924.849	436.33
925.02	459.78
925.192	499.88
925.363	452.03
925.535	475.08
925.706	465.98
925.877	518.48
926.049	456.1
926.22	501.05
926.391	484.19
926.562	486.13
926.734	455.9
926.905	507.25
927.076	412.7
927.247	440.02
927.419	387.32
927.59	389.84
927.761	405.34
927.932	406.11
928.103	393.9
928.274	335.01
928.445	347.79
928.616	360.19
928.787	366
928.958	397
929.129	371.43
929.3	343.14
929.471	300.13
929.642	258.28
929.813	203.06
929.984	298.19
930.155	236.19
930.326	305.17
930.496	252.08
930.667	185.82
930.838	247.43
931.009	200.35
931.18	233.48
931.35	196.86
931.521	236.58
931.692	154.43
931.863	139.32
932.033	186.21
932.204	179.62
932.374	189.11
932.545	134.48
932.716	184.85
932.886	178.65
933.057	89.14
933.227	137.58
933.398	199.96
933.568	134.67
933.739	31.02
933.909	100.38
934.08	131.18
934.25	32.18
934.421	80.61
934.591	115.88
934.761	56.78
934.932	53.1
935.102	90.88
935.272	82.36
935.443	82.94
935.613	56.4
935.783	71.7
935.953	65.12
936.123	243.94
936.294	86.62
936.464	84.3
936.634	82.16
936.804	24.43
936.974	40.32
937.144	87.2
937.314	78.1
937.484	62.4
937.655	43.03
937.825	100.38
937.995	73.64
938.165	126.73
938.334	78.87
938.504	85.85
938.674	72.48
938.844	98.63
939.014	138.35
939.184	145.33
939.354	194.93
939.524	161.41
939.694	128.28
939.863	110.06
940.033	204.03
940.203	185.82
940.373	155.6
940.542	177.68
940.712	164.51
940.882	156.18
941.051	175.36
941.221	153.08
941.391	183.3
941.56	117.23
941.73	133.7
941.899	252.28
942.069	114.52
942.238	145.91
942.408	141.06
942.577	162.38
942.747	130.02
942.916	81.39
943.086	134.28
943.255	181.56
943.425	131.76
943.594	97.66
943.763	43.8
943.933	87.78
944.102	15.71
944.271	96.89
944.441	115.88
944.61	68.02
944.779	122.85
944.948	151.72
945.117	92.24
945.287	94.18
945.456	44.58
945.625	83.33
945.794	118.98
945.963	64.92
946.132	124.01
946.301	49.42
946.47	125.95
946.639	32.95
946.808	113.36
946.977	126.73
947.146	164.31
947.315	61.43
947.484	146.3
947.653	110.65
947.822	94.76
947.991	71.7
948.16	159.47
948.329	161.6
948.498	98.44
948.666	109.1
948.835	128.86
949.004	56.2
949.173	34.7
949.341	102.7
949.51	108.13
949.679	128.47
949.847	108.13
950.016	161.8
950.185	159.47
950.353	88.75
950.522	104.64
950.69	151.53
950.859	70.15
951.028	156.95
951.196	107.93
951.365	89.33
951.533	94.56
951.701	138.93
951.87	137.19
952.038	55.23
952.207	106.96
952.375	167.8
952.543	103.28
952.712	117.43
952.88	72.48
953.048	185.82
953.217	92.63
953.385	108.13
953.553	132.93
953.721	97.08
953.89	84.88
954.058	28.69
954.226	51.75
954.394	117.23
954.562	58.92
954.73	107.74
954.898	88.17
955.067	154.05
955.235	85.26
955.403	110.84
955.571	148.23
955.739	118.78
955.907	57.95
956.075	51.17
956.243	63.57
956.41	114.71
956.578	58.53
956.746	60.47
956.914	84.88
957.082	117.81
957.25	103.28
957.418	88.95
957.585	121.69
957.753	146.1
957.921	74.8
958.089	104.45
958.256	131.38
958.424	111.03
958.592	126.73
958.759	64.92
958.927	122.85
959.095	80.81
959.262	102.7
959.43	87.78
959.597	88.56
959.765	93.6
959.932	44
960.1	126.53
960.267	122.08
960.435	80.23
960.602	182.14
960.77	86.43
960.937	38.57
961.104	97.86
961.272	61.24
961.439	86.62
961.606	102.12
961.774	151.33
961.941	100.76
962.108	140.87
962.275	122.27
962.443	138.55
962.61	103.67
962.777	183.49
962.944	142.81
963.111	114.52
963.278	121.3
963.446	126.53
963.613	116.65
963.78	121.3
963.947	133.12
964.114	121.88
964.281	199.38
964.448	137.19
964.615	83.52
964.782	132.73
964.949	116.26
965.116	143
965.282	170.51
965.449	98.63
965.616	76.55
965.783	154.24
965.95	136.03
966.117	68.41
966.283	108.51
966.45	145.33
966.617	118.2
966.784	146.1
966.95	161.41
967.117	143
967.284	99.41
967.45	101.93
967.617	179.04
967.784	159.47
967.95	171.48
968.117	129.25
968.283	167.8
968.45	231.35
968.616	155.01
968.783	157.53
968.949	128.86
969.116	166.45
969.282	136.22
969.449	164.7
969.615	126.92
969.781	87.59
969.948	107.35
970.114	91.08
970.28	190.08
970.447	124.01
970.613	159.86
970.779	111.61
970.945	140.87
971.112	141.26
971.278	115.1
971.444	135.64
971.61	186.98
971.776	128.86
971.942	178.07
972.108	169.16
972.275	117.62
972.441	143.58
972.607	179.23
972.773	93.98
972.939	141.84
973.105	130.41
973.271	82.16
973.437	132.35
973.602	91.46
973.768	137
973.934	121.88
974.1	131.38
974.266	20.36
974.432	136.22
974.598	94.76
974.763	148.43
974.929	89.91
975.095	147.85
975.261	107.35
975.426	110.65
975.592	123.05
975.758	185.24
975.923	72.87
976.089	90.69
976.255	131.38
976.42	110.45
976.586	123.05
976.751	108.13
976.917	188.53
977.082	123.05
977.248	94.37
977.413	43.22
977.579	100.38
977.744	113.55
977.91	44.58
978.075	83.71
978.24	125.76
978.406	111.03
978.571	129.25
978.736	79.84
978.902	144.55
979.067	57.56
979.232	40.32
979.397	142.61
979.563	152.88
979.728	98.25
979.893	105.8
980.058	80.23
980.223	143.97
980.388	102.7
980.554	106.77
980.719	89.14
980.884	98.63
981.049	123.24
981.214	79.26
981.379	111.81
981.544	80.42
981.709	116.26
981.874	103.67
982.039	86.62
982.204	101.73
982.368	124.21
982.533	43.61
982.698	125.95
982.863	130.99
983.028	89.91
983.193	124.79
983.357	108.32
983.522	115.49
983.687	106.38
983.852	82.16
984.016	82.16
984.181	100.18
984.346	144.36
984.51	139.32
984.675	92.43
984.839	123.05
985.004	101.54
985.168	149.4
985.333	110.26
985.498	79.84
985.662	132.15
985.827	119.17
985.991	101.15
986.155	85.26
986.32	133.9
986.484	156.37
986.649	100.57
986.813	45.35
986.977	97.47
987.142	107.35
987.306	58.33
987.47	74.61
987.634	94.56
987.799	103.86
987.963	109.87
988.127	102.51
988.291	167.8
988.455	98.44
988.62	73.06
988.784	136.41
988.948	141.06
989.112	62.4
989.276	114.91
989.44	122.08
989.604	70.93
989.768	86.81
989.932	168.58
990.096	52.91
990.26	61.05
990.424	60.66
990.588	86.04
990.752	158.7
990.915	137
991.079	76.35
991.243	53.1
991.407	110.65
991.571	108.13
991.734	104.83
991.898	93.4
992.062	176.52
992.226	53.88
992.389	94.56
992.553	34.12
992.717	69.96
992.88	64.92
993.044	105.41
993.207	91.85
993.371	104.83
993.535	97.28
993.698	82.75
993.862	107.93
994.025	121.5
994.189	102.51
994.352	79.45
994.515	112.78
994.679	127.89
994.842	83.91
995.006	119.75
995.169	69.77
995.332	35.86
995.496	104.45
995.659	41.67
995.822	64.53
995.985	84.88
996.149	142.03
996.312	64.92
996.475	165.67
996.638	53.49
996.801	120.72
996.964	149.98
997.128	72.87
997.291	97.86
997.454	70.54
997.617	47.87
997.78	95.73
997.943	66.47
998.106	122.66
998.269	60.66
998.432	66.47
998.595	77.52
998.758	26.75
998.92	39.15
999.083	11.83
999.246	64.53
999.409	34.89
999.572	10.67
999.735	58.92
999.897	91.08
1000.06	38.57
1000.223	68.02
1000.386	113.94
1000.548	71.51
1000.711	95.73
1000.874	94.18
1001.036	23.27
1001.199	99.02
1001.361	29.27
1001.524	61.43
1001.687	103.09
1001.849	40.12
1002.012	90.69
1002.174	84.68
1002.337	82.36
1002.499	36.63
1002.661	124.98
1002.824	29.66
1002.986	34.5
1003.149	44.97
1003.311	52.91
1003.473	99.99
1003.636	17.07
1003.798	81.97
1003.96	72.09
1004.123	63.18
1004.285	51.36
1004.447	73.25
1004.609	45.93
1004.771	129.25
1004.933	11.45
1005.096	32.37
1005.258	20.75
1005.42	37.99
1005.582	102.9
1005.744	80.81
1005.906	7.77
1006.068	51.75
1006.23	12.42
1006.392	-3.08
1006.554	20.36
1006.716	109.1
1006.878	82.94
1007.04	-6.96
1007.202	42.25
1007.363	53.88
1007.525	62.79
1007.687	74.42
1007.849	105.8
1008.011	-1.53
1008.172	18.42
1008.334	47.68
1008.496	60.27
1008.658	-3.47
1008.819	14.35
1008.981	4.86
1009.143	24.43
1009.304	43.8
1009.466	55.82
1009.627	102.7
1009.789	149.4
1009.95	60.47
1010.112	29.08
1010.273	69.96
1010.435	4.28
1010.596	57.17
1010.758	59.88
1010.919	27.14
1011.081	27.53
1011.242	37.99
1011.403	68.22
1011.565	56.59
1011.726	70.73
1011.887	-10.06
1012.049	19.2
1012.21	44.38
1012.371	117.81
1012.532	-29.82
1012.693	40.7
1012.855	37.99
1013.016	23.85
1013.177	88.36
1013.338	43.61
1013.499	109.68
1013.66	80.61
1013.821	79.07
1013.982	54.65
1014.143	45.55
1014.304	37.99
1014.465	59.3
1014.626	57.56
1014.787	13
1014.948	120.14
1015.109	-37.57
1015.27	59.5
1015.431	42.25
1015.592	16.1
1015.752	105.8
1015.913	29.08
1016.074	50.2
1016.235	63.76
1016.395	25.2
1016.556	19.58
1016.717	66.67
1016.877	92.05
1017.038	-2.89
1017.199	47.29
1017.359	30.43
1017.52	21.72
1017.681	27.72
1017.841	35.28
1018.002	37.99
1018.162	25.59
1018.323	100.18
1018.483	21.33
1018.644	44.38
1018.804	0.4
1018.964	-3.47
1019.125	27.72
1019.285	52.13
1019.446	-6.18
1019.606	-6.18
1019.766	-28.46
1019.926	57.37
1020.087	62.79
1020.247	-45.13
1020.407	72.28
1020.567	87.98
1020.728	32.57
1020.888	10.87
1021.048	20.75
1021.208	-8.31
1021.368	5.63
1021.528	88.36
1021.688	59.11
1021.848	30.82
1022.008	69.77
1022.168	-2.12
1022.328	25.4
1022.488	46.9
1022.648	7.38
1022.808	36.25
1022.968	63.18
1023.128	23.85
1023.288	-16.26
1023.448	2.34
1023.608	34.12
1023.767	62.4
1023.927	7.18
1024.087	-11.61
1024.247	1.76
1024.406	20.75
1024.566	-19.55
1024.726	-20.71
1024.885	23.85
1025.045	61.43
1025.205	12.8
1025.364	12.03
1025.524	35.28
1025.683	-0.76
1025.843	41.09
1026.003	15.9
1026.162	73.83
1026.321	55.43
1026.481	23.27
1026.64	-1.73
1026.8	40.51
1026.959	25.98
1027.119	28.11
1027.278	19
1027.437	-4.83
1027.597	17.45
1027.756	45.16
1027.915	44.58
1028.074	49.03
1028.234	-6.96
1028.393	17.84
1028.552	32.18
1028.711	-68.38
1028.87	72.28
1029.03	-21.1
1029.189	1.95
1029.348	-49.97
1029.507	-8.51
1029.666	-14.9
1029.825	-16.26
1029.984	4.28
1030.143	28.69
1030.302	-21.49
1030.461	-26.72
1030.62	0.79
1030.779	51.36
1030.938	-1.73
1031.097	-14.9
1031.255	30.43
1031.414	89.33
1031.573	70.35
1031.732	-40.48
1031.891	-0.37
1032.049	62.98
1032.208	53.3
1032.367	-26.53
1032.525	1.76
1032.684	6.8
1032.843	-11.41
1033.001	-27.69
1033.16	182.72
1033.319	47.68
1033.477	27.53
1033.636	-5.6
1033.794	-16.84
1033.953	41.87
1034.111	46.9
1034.27	-14.32
1034.428	13.38
1034.587	-18
1034.745	31.4
1034.903	32.95
1035.062	19.78
1035.22	-22.07
1035.378	44
1035.537	-18.2
1035.695	34.5
1035.853	18.03
1036.011	22.88
1036.17	40.7
1036.328	-64.7
1036.486	29.85
1036.644	13.19
1036.802	-79.61
1036.96	13
1037.119	-12.38
1037.277	-12.19
1037.435	-30.21
1037.593	-33.11
1037.751	17.26
1037.909	15.32
1038.067	15.32
