Data from gum_old_FLMT105791__14__15-42-36-259.txt Node

Date: Mon Mar 20 15:42:36 GMT 2023
User: antho
Spectrometer: FLMT10579
Trigger mode: 0
Integration Time (sec): 1.000000E-1
Scans to average: 10
Electric dark correction enabled: true
Nonlinearity correction enabled: false
Boxcar width: 0
XAxis mode: Wavelengths
Number of Pixels in Spectrum: 3648
>>>>>Begin Spectral Data<<<<<
345.248	-153.58
345.464	-153.58
345.681	-153.58
345.898	-218.48
346.114	-175.66
346.331	-26.87
346.548	26.22
346.764	-5.17
346.981	0.06
347.197	-14.66
347.414	28.93
347.631	-18.34
347.847	51.41
348.064	25.45
348.28	6.65
348.497	-66.39
348.713	-7.3
348.93	4.33
349.146	21.76
349.363	22.35
349.579	46.76
349.796	16.34
350.012	5.68
350.229	53.93
350.445	24.67
350.661	19.44
350.878	30.68
351.094	48.31
351.311	35.71
351.527	52.18
351.743	-2.26
351.96	70.59
352.176	73.49
352.392	38.43
352.609	59.74
352.825	27.77
353.041	36.1
353.257	42.5
353.474	4.71
353.69	62.26
353.906	62.06
354.122	22.54
354.339	90.74
354.555	56.06
354.771	21.18
354.987	105.85
355.203	107.01
355.42	5.1
355.636	26.22
355.852	13.43
356.068	51.8
356.284	17.11
356.5	108.56
356.716	74.66
356.932	22.35
357.148	87.06
357.364	42.5
357.58	71.56
357.796	81.63
358.012	61.68
358.228	37.65
358.444	-1.49
358.66	86.09
358.876	68.07
359.092	12.85
359.308	50.83
359.524	86.48
359.74	18.86
359.956	41.14
360.172	67.49
360.388	79.89
360.604	43.85
360.819	120.58
361.035	57.03
361.251	111.66
361.467	16.53
361.683	98.88
361.898	81.05
362.114	64.58
362.33	76.59
362.546	90.54
362.762	69.81
362.977	55.48
363.193	37.26
363.409	76.21
363.624	84.93
363.84	54.51
364.056	37.46
364.271	79.11
364.487	81.44
364.703	75.82
364.918	29.32
365.134	54.7
365.35	65.74
365.565	179.67
365.781	82.79
365.996	85.89
366.212	124.84
366.427	98.68
366.643	98.68
366.858	59.16
367.074	69.43
367.289	126.78
367.505	169.01
367.72	41.53
367.936	110.11
368.151	132.2
368.367	100.23
368.582	117.48
368.798	69.62
369.013	125.81
369.228	109.34
369.444	88.61
369.659	123.68
369.874	126.58
370.09	152.93
370.305	35.52
370.52	76.79
370.736	168.43
370.951	115.54
371.166	130.07
371.381	160.68
371.597	116.7
371.812	72.91
372.027	81.05
372.242	112.83
372.458	144.79
372.673	78.92
372.888	89.38
373.103	104.69
373.318	174.24
373.533	104.3
373.749	118.06
373.964	42.88
374.179	122.71
374.394	80.28
374.609	127.55
374.824	73.88
375.039	139.56
375.254	86.48
375.469	152.16
375.684	94.23
375.899	148.86
376.114	145.96
376.329	113.02
376.544	148.47
376.759	165.52
376.974	90.16
377.189	101.98
377.404	98.1
377.619	164.75
377.834	66.71
378.049	60.71
378.264	88.8
378.478	163.97
378.693	118.83
378.908	167.46
379.123	124.45
379.338	186.84
379.553	123.09
379.767	132.01
379.982	155.26
380.197	152.54
380.412	109.92
380.626	108.76
380.841	211.06
381.056	150.8
381.271	214.16
381.485	132.2
381.7	104.88
381.915	151.77
382.129	119.99
382.344	134.53
382.559	127.74
382.773	157.77
382.988	83.57
383.202	103.72
383.417	87.44
383.632	199.04
383.846	111.47
384.061	82.21
384.275	113.6
384.49	147.7
384.704	135.3
384.919	144.79
385.133	127.36
385.348	169.21
385.562	111.47
385.777	179.86
385.991	139.37
386.206	127.94
386.42	135.3
386.634	185.09
386.849	162.04
387.063	194.2
387.277	144.79
387.492	147.31
387.706	114.76
387.92	129.29
388.135	196.14
388.349	173.86
388.563	163.39
388.778	147.7
388.992	177.15
389.206	186.45
389.42	209.89
389.635	164.36
389.849	193.04
390.063	214.35
390.277	200.98
390.491	266.27
390.706	206.79
390.92	224.81
391.134	211.83
391.348	240.89
391.562	156.03
391.776	218.03
391.99	198.27
392.205	240.12
392.419	194.78
392.633	212.61
392.847	247.09
393.061	141.89
393.275	221.52
393.489	155.26
393.703	151.96
393.917	160.1
394.131	121.74
394.345	177.34
394.559	199.04
394.773	194.2
394.986	218.22
395.2	191.68
395.414	286.81
395.628	201.56
395.842	274.8
396.056	235.85
396.27	189.94
396.484	239.73
396.697	199.04
396.911	248.64
397.125	177.73
397.339	166.11
397.553	192.07
397.766	216.29
397.98	226.56
398.194	262.98
398.408	254.45
398.621	278.67
398.835	316.65
399.049	313.94
399.262	339.51
399.476	338.93
399.69	355.78
399.903	420.3
400.117	316.07
400.331	345.52
400.544	329.43
400.758	473.2
400.971	396.28
401.185	413.13
401.398	356.75
401.612	409.65
401.826	396.67
402.039	409.84
402.253	362.18
402.466	428.63
402.68	400.93
402.893	423.79
403.106	422.43
403.32	389.11
403.533	416.23
403.747	372.45
403.96	413.33
404.174	393.76
404.387	371.09
404.6	416.62
404.814	459.44
405.027	400.35
405.24	389.5
405.454	400.35
405.667	448.98
405.88	362.95
406.094	434.45
406.307	429.41
406.52	410.81
406.733	343.97
406.947	352.3
407.16	451.11
407.373	459.05
407.586	386.59
407.799	419.14
408.012	468.16
408.226	433.67
408.439	475.33
408.652	411.97
408.865	436.96
409.078	499.16
409.291	443.75
409.504	437.55
409.717	489.47
409.93	479.59
410.143	472.42
410.357	415.46
410.57	385.62
410.783	406.74
410.996	443.75
411.209	437.93
411.421	529.77
411.634	470.68
411.847	455.95
412.06	510.59
412.273	524.73
412.486	506.13
412.699	571.23
412.912	522.02
413.125	517.95
413.338	527.64
413.55	502.26
413.763	482.11
413.976	505.16
414.189	493.35
414.402	494.31
414.615	579.76
414.827	505.94
415.04	537.71
415.253	534.81
415.466	568.52
415.678	586.54
415.891	504.39
416.104	513.11
416.316	502.26
416.529	528.61
416.742	572.39
416.954	604.56
417.167	541.78
417.38	547.21
417.592	588.47
417.805	540.23
418.017	458.08
418.23	558.25
418.442	498.38
418.655	511.36
418.868	530.35
419.08	567.36
419.293	594.87
419.505	563.09
419.718	552.44
419.93	563.29
420.142	522.41
420.355	574.53
420.567	591.77
420.78	581.89
420.992	556.12
421.205	621.22
421.417	566.78
421.629	617.54
421.842	546.63
422.054	566.78
422.266	619.67
422.479	640.4
422.691	560.58
422.903	610.17
423.115	545.08
423.328	536.36
423.54	570.65
423.752	576.08
423.964	545.27
424.177	640.59
424.389	581.31
424.601	690.58
424.813	590.02
425.025	645.05
425.238	601.84
425.45	580.92
425.662	587.12
425.874	888.78
426.086	617.54
426.298	633.23
426.51	641.76
426.722	603.97
426.934	576.27
427.146	647.37
427.358	552.44
427.57	631.68
427.782	562.13
427.994	597.97
428.206	559.03
428.418	583.82
428.63	635.75
428.842	652.22
429.054	615.41
429.266	641.95
429.478	563.09
429.69	608.04
429.902	552.83
430.114	613.08
430.325	572.39
430.537	527.06
430.749	507.29
430.961	430.76
431.173	494.9
431.384	533.45
431.596	443.16
431.808	527.06
432.02	617.92
432.231	686.12
432.443	733.01
432.655	706.47
432.867	682.05
433.078	700.85
433.29	770.79
433.502	740.18
433.713	740.95
433.925	726.42
434.136	715.57
434.348	621.02
434.56	610.95
434.771	765.17
434.983	595.06
435.194	678.95
435.406	724.87
435.617	768.08
435.829	802.37
436.04	792.49
436.252	775.63
436.463	820.58
436.675	828.33
436.886	817.87
437.098	836.28
437.309	884.71
437.521	795.59
437.732	778.73
437.943	767.11
438.155	779.51
438.366	732.04
438.578	831.24
438.789	777.77
439	765.37
439.211	757.04
439.423	757.81
439.634	812.45
439.845	797.14
440.057	815.16
440.268	881.23
440.479	814.19
440.69	830.47
440.902	809.54
441.113	826.01
441.324	792.88
441.535	880.26
441.746	875.41
441.957	828.14
442.168	884.33
442.38	915.33
442.591	904.09
442.802	863.4
443.013	890.14
443.224	943.61
443.435	899.05
443.646	877.55
443.857	896.34
444.068	883.16
444.279	871.15
444.49	976.16
444.701	898.08
444.912	1031.19
445.123	967.44
445.334	923.08
445.545	980.62
445.756	913.78
445.967	866.7
446.178	949.43
446.388	927.34
446.599	924.43
446.81	924.63
447.021	902.73
447.232	977.13
447.443	960.86
447.653	923.27
447.864	1025.96
448.075	989.92
448.286	1008.71
448.496	985.27
448.707	1030.22
448.918	961.44
449.129	1055.79
449.339	986.63
449.55	1016.66
449.761	985.85
449.971	1046.3
450.182	998.64
450.393	1027.7
450.603	993.6
450.814	1080.4
451.024	1057.73
451.235	1083.69
451.446	1132.13
451.656	1136.59
451.867	1065.87
452.077	1070.71
452.288	1110.04
452.498	1096.48
452.709	1043.01
452.919	1045.14
453.13	1027.89
453.34	1054.24
453.55	955.82
453.761	1012.01
453.971	1009.1
454.182	1067.22
454.392	1050.95
454.602	1126.7
454.813	1056.37
455.023	1090.28
455.233	1019.76
455.444	1058.89
455.654	979.65
455.864	1042.04
456.075	1081.17
456.285	1014.53
456.495	1034.09
456.705	1086.21
456.916	1117.21
457.126	1156.15
457.336	1086.6
457.546	1023.44
457.756	1078.66
457.967	1149.57
458.177	1104.04
458.387	1081.76
458.597	1041.65
458.807	1124.96
459.017	1088.54
459.227	1061.8
459.437	1049.98
459.647	1128.84
459.857	1146.47
460.068	1087.37
460.278	1161.77
460.488	1118.76
460.698	1170.69
460.908	1128.25
461.117	1085.05
461.327	1124.77
461.537	1151.12
461.747	1170.88
461.957	1173.2
462.167	1277.05
462.377	1174.75
462.587	1160.22
462.797	1215.44
463.007	1171.65
463.216	1245.08
463.426	1256.13
463.636	1211.37
463.846	1115.08
464.056	1142.4
464.265	1188.32
464.475	1123.02
464.685	1156.74
464.895	1168.55
465.104	1157.51
465.314	1184.44
465.524	1155.96
465.733	1144.53
465.943	1288.87
466.153	1270.47
466.362	1261.36
466.572	1254.58
466.782	1206.14
466.991	1225.9
467.201	1224.93
467.41	1134.45
467.62	1194.13
467.829	1203.43
468.039	1258.84
468.249	1228.81
468.458	1268.72
468.668	1274.92
468.877	1309.41
469.086	1343.51
469.296	1325.49
469.505	1276.67
469.715	1356.49
469.924	1298.56
470.134	1326.07
470.343	1308.25
470.552	1300.5
470.762	1284.22
470.971	1243.53
471.18	1308.25
471.39	1301.85
471.599	1283.45
471.808	1346.61
472.018	1345.25
472.227	1434.76
472.436	1453.94
472.645	1388.65
472.855	1367.53
473.064	1468.28
473.273	1467.89
473.482	1444.84
473.691	1442.9
473.901	1453.56
474.11	1414.42
474.319	1532.61
474.528	1456.66
474.737	1559.73
474.946	1551.2
475.155	1549.85
475.364	1575.04
475.573	1546.36
475.783	1564.19
475.992	1529.89
476.201	1560.7
476.41	1520.01
476.619	1511.87
476.828	1550.82
477.037	1508.77
477.245	1537.06
477.454	1587.63
477.663	1610.3
477.872	1627.15
478.081	1705.43
478.29	1618.24
478.499	1741.27
478.708	1740.69
478.917	1787.96
479.125	1675.01
479.334	1696.32
479.543	1689.35
479.752	1750.38
479.961	1736.43
480.169	1814.7
480.378	1772.66
480.587	1937.92
480.796	1812.96
481.004	1776.15
481.213	1772.08
481.422	1807.73
481.63	1834.66
481.839	1874.57
482.048	1904.02
482.256	1858.68
482.465	1922.04
482.674	1873.02
482.882	1944.51
483.091	1992.56
483.299	1913.32
483.508	1943.54
483.716	1974.93
483.925	1982.87
484.134	1886
484.342	1943.74
484.551	1966.21
484.759	1948.39
484.967	2030.92
485.176	1985.78
485.384	2026.27
485.593	2032.67
485.801	1966.02
486.01	1897.62
486.218	1840.08
486.426	1758.51
486.635	1727.9
486.843	1670.36
487.051	1755.03
487.26	1807.14
487.468	1867.4
487.676	1904.02
487.885	1904.79
488.093	1966.99
488.301	2017.75
488.509	2029.76
488.717	2123.53
488.926	2102.22
489.134	2043.9
489.342	2049.72
489.55	2026.08
489.758	2086.33
489.967	2108.62
490.175	2193.28
490.383	2162.86
490.591	2272.14
490.799	2169.45
491.007	2234.36
491.215	2228.35
491.423	2208.2
491.631	2189.21
491.839	2178.95
492.047	2262.64
492.255	2127.8
492.463	2125.28
492.671	2067.93
492.879	2185.53
493.087	2212.66
493.295	2224.09
493.503	2246.56
493.711	2324.26
493.919	2304.88
494.127	2282.79
494.334	2285.12
494.542	2244.24
494.75	2311.08
494.958	2296.74
495.166	2400.4
495.374	2365.33
495.581	2363.39
495.789	2391.1
495.997	2453.1
496.205	2331.23
496.412	2310.69
496.62	2364.17
496.828	2356.81
497.035	2401.37
497.243	2427.72
497.451	2393.04
497.658	2399.04
497.866	2390.71
498.074	2466.08
498.281	2369.4
498.489	2456.78
498.696	2365.72
498.904	2330.26
499.112	2338.59
499.319	2417.06
499.527	2414.35
499.734	2445.74
499.942	2374.05
500.149	2419.77
500.357	2461.24
500.564	2356.81
500.771	2363.97
500.979	2357.97
501.186	2293.64
501.394	2391.87
501.601	2343.82
501.808	2361.26
502.016	2328.91
502.223	2305.08
502.43	2325.81
502.638	2348.28
502.845	2381.61
503.052	2425.78
503.26	2415.51
503.467	2532.53
503.674	2458.91
503.881	2443.6
504.089	2503.47
504.296	2458.72
504.503	2378.31
504.71	2394.2
504.917	2381.8
505.125	2478.87
505.332	2442.64
505.539	2452.52
505.746	2575.16
505.953	2561.98
506.16	2547.07
506.367	2612.16
506.574	2611
506.781	2634.45
506.988	2550.94
507.195	2594.92
507.402	2572.64
507.609	2573.61
507.816	2525.37
508.023	2495.92
508.23	2487.39
508.437	2435.85
508.644	2507.35
508.851	2531.18
509.058	2546.29
509.265	2562.76
509.472	2610.61
509.679	2649.36
509.885	2605.77
510.092	2619.53
510.299	2596.28
510.506	2541.06
510.713	2583.68
510.92	2569.93
511.126	2602.48
511.333	2631.15
511.54	2586.78
511.746	2715.24
511.953	2709.04
512.16	2704.78
512.367	2638.13
512.573	2650.72
512.78	2645.88
512.987	2618.95
513.193	2595.5
513.4	2508.12
513.606	2580.97
513.813	2632.9
514.02	2568.18
514.226	2637.55
514.433	2649.95
514.639	2533.31
514.846	2587.17
515.052	2553.46
515.259	2628.05
515.465	2608.48
515.672	2609.45
515.878	2669.13
516.085	2661.76
516.291	2653.82
516.497	2624.76
516.704	2597.44
516.91	2544.55
517.117	2415.71
517.323	2336.46
517.529	2315.73
517.736	2389.74
517.942	2337.82
518.148	2400.01
518.354	2456.78
518.561	2485.26
518.767	2441.86
518.973	2488.36
519.179	2486.81
519.386	2494.17
519.592	2506.18
519.798	2537.38
520.004	2631.35
520.21	2663.7
520.417	2680.94
520.623	2724.93
520.829	2710.2
521.035	2698.96
521.241	2666.22
521.447	2806.49
521.653	2878.37
521.859	2722.6
522.065	2756.31
522.271	2849.89
522.477	2828.77
522.683	2839.62
522.889	2801.46
523.095	2779.95
523.301	2782.47
523.507	2736.16
523.713	2816.18
523.919	2754.96
524.125	2889.8
524.331	2848.92
524.537	2933.98
524.742	2967.88
524.948	2966.33
525.154	2948.12
525.36	3047.9
525.566	2963.62
525.772	3010.12
525.977	2890.39
526.183	2982.42
526.389	2989.97
526.595	2870.24
526.8	2843.5
527.006	2754.57
527.212	2675.13
527.417	2678.62
527.623	2706.52
527.829	2772.2
528.034	2789.25
528.24	2845.05
528.446	2852.22
528.651	2969.82
528.857	2983
529.062	3063.79
529.268	3039.18
529.473	3083.55
529.679	3100.41
529.884	3178.29
530.09	3141.29
530.295	3127.34
530.501	3110.48
530.706	3113.2
530.912	3122.69
531.117	3130.44
531.323	3108.16
531.528	3233.71
531.733	3199.99
531.939	3177.52
532.144	3198.25
532.35	3174.81
532.555	3199.99
532.76	3127.53
532.966	3147.68
533.171	3046.74
533.376	3032.79
533.581	2997.53
533.787	3099.44
533.992	3109.71
534.197	3139.54
534.402	3121.14
534.607	3179.65
534.813	3252.31
535.018	3124.24
535.223	3168.61
535.428	3161.83
535.633	3237.58
535.838	3243.97
536.043	3262.38
536.249	3360.42
536.454	3265.29
536.659	3296.48
536.864	3261.8
537.069	3223.05
537.274	3254.63
537.479	3233.51
537.684	3207.36
537.889	3146.52
538.094	3335.23
538.299	3235.45
538.504	3218.59
538.708	3231.77
538.913	3293.19
539.118	3253.08
539.323	3272.26
539.528	3162.21
539.733	3220.53
539.938	3239.52
540.142	3234.09
540.347	3183.72
540.552	3145.74
540.757	3118.81
540.962	3188.95
541.166	3076.96
541.371	3082.97
541.576	3125.4
541.781	3057.59
541.985	3186.24
542.19	3171.32
542.395	3311.01
542.599	3311.98
542.804	3226.73
543.008	3307.14
543.213	3249.01
543.418	3174.61
543.622	3282.34
543.827	3154.27
544.031	3265.29
544.236	3331.55
544.44	3317.4
544.645	3386.38
544.849	3238.55
545.054	3328.06
545.258	3414.28
545.463	3356.93
545.667	3287.18
545.872	3349.57
546.076	3330
546.281	3336.97
546.485	3301.13
546.689	3331.74
546.894	3357.12
547.098	3323.6
547.302	3261.02
547.507	3311.79
547.711	3349.18
547.915	3285.24
548.119	3278.85
548.324	3220.92
548.528	3337.75
548.732	3268
548.936	3304.81
549.141	3335.23
549.345	3290.86
549.549	3311.2
549.753	3375.34
549.957	3426.29
550.161	3399.94
550.366	3369.91
550.57	3355.38
550.774	3334.84
550.978	3316.82
551.182	3322.05
551.386	3255.99
551.59	3294.35
551.794	3327.87
551.998	3317.21
552.202	3360.22
552.406	3296.48
552.61	3352.86
552.814	3332.32
553.018	3407.69
553.222	3333.87
553.426	3293.38
553.63	3389.48
553.833	3359.45
554.037	3288.73
554.241	3330.19
554.445	3379.02
554.649	3286.99
554.853	3290.09
555.056	3368.36
555.26	3361.39
555.464	3355.57
555.668	3354.41
555.871	3378.63
556.075	3380.37
556.279	3336.2
556.483	3291.25
556.686	3273.42
556.89	3291.25
557.094	3307.14
557.297	3215.3
557.501	3245.14
557.704	3156.4
557.908	3269.36
558.112	3218.79
558.315	3297.06
558.519	3211.81
558.722	3207.94
558.926	3134.51
559.129	3087.23
559.333	3067.47
559.536	3100.41
559.74	3070.76
559.943	3064.56
560.147	3064.56
560.35	3057.78
560.553	3099.05
560.757	3073.48
560.96	3123.27
561.164	3133.93
561.367	3260.25
561.57	3181.2
561.774	3134.7
561.977	3073.86
562.18	3054.49
562.384	3166.67
562.587	3087.43
562.79	3057.59
562.993	3100.02
563.197	3112.61
563.4	3203.87
563.603	3152.72
563.806	3195.34
564.009	3104.09
564.212	3112.03
564.416	2989.97
564.619	3128.69
564.822	3030.27
565.025	3111.06
565.228	3029.69
565.431	3083.16
565.634	2986.68
565.837	2985.52
566.04	2977.18
566.243	2931.65
566.446	2862.29
566.649	2992.88
566.852	2920.22
567.055	2965.37
567.258	2980.09
567.461	2990.17
567.664	3042.86
567.867	2957.42
568.07	2966.92
568.273	2970.6
568.475	3050.42
568.678	2897.55
568.881	2909.57
569.084	2921.39
569.287	2782.86
569.489	2836.52
569.692	2928.36
569.895	2880.31
570.098	2789.06
570.3	2861.52
570.503	2800.1
570.706	2781.69
570.909	2809.21
571.111	2729.58
571.314	2709.81
571.516	2781.69
571.719	2784.41
571.922	2698.58
572.124	2740.62
572.327	2797
572.529	2704.97
572.732	2763.68
572.935	2811.14
573.137	2858.03
573.34	2775.3
573.542	2863.07
573.745	2804.17
573.947	2791.19
574.15	2808.04
574.352	2758.25
574.554	2851.25
574.757	2771.04
574.959	2744.11
575.162	2757.67
575.364	2727.44
575.566	2861.52
575.769	2692.38
575.971	2684.82
576.173	2611
576.376	2703.03
576.578	2744.49
576.78	2809.4
576.982	2648.2
577.185	2657.5
577.387	2623.79
577.589	2661.18
577.791	2712.33
577.993	2682.49
578.196	2661.18
578.398	2668.16
578.6	2687.92
578.802	2554.43
579.004	2554.23
579.206	2588.92
579.408	2643.16
579.61	2609.84
579.812	2714.85
580.014	2598.8
580.216	2590.85
580.418	2615.85
580.62	2608.68
580.822	2583.1
581.024	2625.15
581.226	2667.38
581.428	2585.43
581.63	2705.94
581.832	2594.53
582.034	2654.01
582.236	2634.25
582.438	2693.93
582.64	2698.38
582.841	2685.59
583.043	2775.49
583.245	2631.15
583.447	2693.34
583.649	2682.3
583.85	2666.61
584.052	2683.08
584.254	2589.88
584.456	2706.71
584.657	2602.28
584.859	2650.91
585.061	2592.02
585.262	2611.58
585.464	2535.25
585.666	2604.41
585.867	2513.93
586.069	2604.03
586.27	2581.75
586.472	2588.72
586.674	2572.06
586.875	2570.32
587.077	2542.03
587.278	2593.18
587.48	2571.48
587.681	2644.71
587.883	2554.62
588.084	2518.39
588.285	2532.34
588.487	2515.68
588.688	2566.83
588.89	2423.07
589.091	2380.44
589.292	2378.51
589.494	2326.78
589.695	2271.36
589.896	2170.81
590.098	2196.96
590.299	2297.33
590.5	2261.87
590.702	2288.61
590.903	2336.85
591.104	2386.26
591.305	2391.68
591.507	2450.58
591.708	2428.1
591.909	2376.76
592.11	2446.51
592.311	2428.88
592.512	2358.94
592.714	2348.47
592.915	2376.57
593.116	2368.24
593.317	2419.39
593.518	2419.39
593.719	2406.99
593.92	2426.55
594.121	2438.95
594.322	2405.44
594.523	2379.47
594.724	2318.64
594.925	2375.6
595.126	2378.89
595.327	2396.52
595.528	2390.71
595.729	2381.02
595.929	2366.11
596.13	2366.3
596.331	2388.19
596.532	2423.07
596.733	2481.77
596.934	2460.85
597.135	2400.4
597.335	2417.45
597.536	2362.81
597.737	2410.86
597.938	2354.09
598.138	2407.76
598.339	2381.22
598.54	2414.93
598.74	2334.14
598.941	2387.42
599.142	2411.06
599.342	2401.17
599.543	2378.89
599.744	2363.2
599.944	2322.9
600.145	2341.31
600.345	2333.56
600.546	2401.56
600.746	2422.68
600.947	2440.7
601.147	2332.97
601.348	2381.22
601.548	2332.39
601.749	2347.7
601.949	2296.94
602.15	2347.7
602.35	2291.71
602.551	2332.2
602.751	2223.51
602.951	2279.11
603.152	2249.28
603.352	2339.17
603.552	2319.41
603.753	2362.42
603.953	2388
604.153	2363.39
604.354	2361.65
604.554	2365.14
604.754	2369.21
604.954	2304.69
605.155	2400.4
605.355	2351.77
605.555	2408.54
605.755	2410.09
605.955	2327.74
606.155	2364.36
606.356	2331.62
606.556	2386.26
606.756	2333.56
606.956	2279.5
607.156	2425
607.356	2276.59
607.556	2344.6
607.756	2305.27
607.956	2339.17
608.156	2340.72
608.356	2271.36
608.556	2345.57
608.756	2284.93
608.956	2263.61
609.156	2284.93
609.356	2214.79
609.556	2241.14
609.755	2288.41
609.955	2217.89
610.155	2266.71
610.355	2261.29
610.555	2182.63
610.755	2242.5
610.954	2173.71
611.154	2196.38
611.354	2253.34
611.554	2185.34
611.753	2224.86
611.953	2189.99
612.153	2222.54
612.352	2226.22
612.552	2127.6
612.752	2130.12
612.951	2211.88
613.151	2226.8
613.351	2177.2
613.55	2158.02
613.75	2207.43
613.949	2162.86
614.149	2183.4
614.348	2145.43
614.548	2116.37
614.747	2078.39
614.947	2112.1
615.146	2058.44
615.346	2152.02
615.545	2177.78
615.745	2144.27
615.944	2164.03
616.144	2144.85
616.343	2131.67
616.542	2091.95
616.742	2071.22
616.941	2093.89
617.14	2016.2
617.34	2081.49
617.539	2081.1
617.738	2068.9
617.938	2176.43
618.137	2079.55
618.336	2032.28
618.535	2137.48
618.734	2092.73
618.934	2094.67
619.133	2106.68
619.332	2134.97
619.531	2020.85
619.73	2095.05
619.929	2154.15
620.128	2155.7
620.328	2176.04
620.527	2091.95
620.726	2089.43
620.925	2098.54
621.124	2115.2
621.323	2125.47
621.522	2012.32
621.721	2096.8
621.92	2035.38
622.119	2028.02
622.318	2029.18
622.517	2050.1
622.715	2084.78
622.914	1992.17
623.113	2086.92
623.312	1960.59
623.511	2055.72
623.71	2010.19
623.909	1998.37
624.107	2095.05
624.306	1991.4
624.505	1992.37
624.704	1993.53
624.902	1991.79
625.101	2059.02
625.3	2007.87
625.499	1969.12
625.697	1980.74
625.896	1968.54
626.095	1993.34
626.293	1904.6
626.492	1940.25
626.69	2013.49
626.889	1980.74
627.088	1991.4
627.286	1944.9
627.485	1989.65
627.683	1938.31
627.882	1991.59
628.08	1882.32
628.279	1915.06
628.477	1982.87
628.676	1864.69
628.874	1939.09
629.073	1900.53
629.271	1862.94
629.469	1930.76
629.668	1876.89
629.866	1858.88
630.065	1887.36
630.263	1934.44
630.461	1852.29
630.66	1917
630.858	1894.72
631.056	1905.18
631.254	1946.45
631.453	1843.18
631.651	1900.92
631.849	1842.41
632.047	1836.59
632.245	1853.06
632.444	1903.63
632.642	1855.19
632.84	1899.95
633.038	1870.11
633.236	1845.89
633.434	1888.71
633.632	1849.58
633.83	1821.29
634.028	1918.74
634.227	1875.93
634.425	1918.74
634.623	1876.7
634.821	1902.08
635.019	1889.88
635.216	1859.65
635.414	1914.29
635.612	1840.86
635.81	1838.92
636.008	1906.34
636.206	1854.23
636.404	1897.82
636.602	1839.89
636.8	1842.79
636.997	1912.16
637.195	1875.34
637.393	1860.81
637.591	1955.94
637.789	1892.01
637.986	1886.58
638.184	1841.05
638.382	1944.51
638.58	1895.11
638.777	1937.15
638.975	1850.74
639.173	1894.52
639.37	1876.31
639.568	1895.11
639.765	1870.5
639.963	1870.89
640.161	1905.37
640.358	1855.78
640.556	1805.4
640.753	1781.57
640.951	1772.08
641.148	1860.81
641.346	1788.55
641.543	1781.38
641.741	1849.19
641.938	1773.43
642.136	1800.17
642.333	1789.13
642.531	1838.73
642.728	1872.83
642.925	1835.43
643.123	1762.58
643.32	1782.35
643.517	1782.15
643.715	1788.93
643.912	1773.24
644.109	1800.95
644.306	1829.62
644.504	1746.11
644.701	1808.31
644.898	1792.42
645.095	1753.09
645.293	1782.35
645.49	1796.68
645.687	1776.15
645.884	1791.65
646.081	1724.61
646.278	1714.92
646.475	1708.92
646.672	1702.91
646.87	1689.54
647.067	1725.19
647.264	1736.43
647.461	1680.24
647.658	1669.78
647.855	1693.42
648.052	1682.76
648.249	1594.6
648.446	1666.29
648.642	1696.71
648.839	1637.03
649.036	1672.3
649.233	1580.46
649.43	1626.19
649.627	1556.82
649.824	1615.34
650.021	1605.84
650.217	1601.77
650.414	1628.9
650.611	1663
650.808	1656.99
651.004	1644.01
651.201	1674.43
651.398	1740.88
651.595	1678.69
651.791	1643.23
651.988	1678.88
652.185	1645.95
652.381	1662.42
652.578	1599.06
652.775	1650.6
652.971	1646.33
653.168	1644.59
653.364	1662.42
653.561	1568.45
653.757	1647.88
653.954	1643.23
654.15	1602.16
654.347	1674.04
654.543	1644.78
654.74	1586.27
654.936	1567.09
655.133	1607.39
655.329	1594.02
655.525	1573.29
655.722	1608.55
655.918	1524.47
656.115	1525.24
656.311	1443.68
656.507	1379.93
656.704	1354.36
656.9	1395.24
657.096	1382.84
657.292	1396.21
657.489	1454.72
657.685	1413.26
657.881	1486.3
658.077	1489.98
658.273	1524.08
658.47	1567.29
658.666	1532.22
658.862	1566.9
659.058	1548.3
659.254	1617.66
659.45	1541.13
659.646	1582.01
659.842	1536.29
660.038	1630.45
660.234	1543.84
660.43	1572.71
660.626	1649.63
660.822	1604.1
661.018	1592.47
661.214	1590.15
661.41	1559.73
661.606	1592.86
661.802	1642.27
661.998	1598.48
662.194	1561.67
662.39	1578.14
662.586	1578.52
662.781	1590.54
662.977	1623.09
663.173	1605.45
663.369	1578.91
663.564	1571.74
663.76	1604.29
663.956	1597.9
664.152	1595.96
664.347	1479.91
664.543	1553.53
664.739	1530.47
664.934	1488.82
665.13	1483.78
665.326	1579.69
665.521	1605.84
665.717	1511.68
665.912	1523.89
666.108	1465.57
666.304	1517.3
666.499	1552.37
666.695	1443.09
666.89	1536.48
667.086	1546.94
667.281	1534.35
667.477	1610.1
667.672	1516.52
667.867	1527.18
668.063	1509.94
668.258	1486.3
668.454	1512.84
668.649	1563.02
668.844	1543.07
669.04	1552.17
669.235	1498.31
669.43	1501.02
669.626	1444.84
669.821	1519.24
670.016	1520.01
670.211	1506.84
670.407	1429.73
670.602	1519.43
670.797	1514.39
670.992	1537.84
671.187	1479.52
671.382	1564.96
671.578	1454.33
671.773	1510.32
671.968	1454.33
672.163	1502.38
672.358	1496.96
672.553	1456.85
672.748	1484.75
672.943	1538.61
673.138	1493.08
673.333	1536.48
673.528	1404.54
673.723	1517.88
673.918	1456.08
674.113	1443.68
674.308	1556.05
674.503	1469.64
674.698	1531.25
674.892	1455.11
675.087	1521.37
675.282	1490.56
675.477	1441.35
675.672	1495.79
675.867	1454.33
676.061	1439.22
676.256	1400.08
676.451	1459.17
676.646	1480.29
676.84	1421.78
677.035	1389.62
677.23	1429.53
677.424	1427.59
677.619	1476.03
677.814	1468.47
678.008	1462.66
678.203	1396.59
678.397	1401.83
678.592	1421.78
678.787	1504.12
678.981	1436.7
679.176	1457.04
679.37	1441.54
679.565	1395.24
679.759	1469.44
679.954	1442.9
680.148	1498.89
680.342	1462.86
680.537	1453.36
680.731	1402.41
680.926	1458.4
681.12	1497.54
681.314	1435.34
681.509	1410.35
681.703	1430.11
681.897	1436.7
682.092	1411.71
682.286	1424.11
682.48	1467.7
682.674	1495.6
682.869	1415.19
683.063	1438.44
683.257	1481.65
683.451	1378.19
683.645	1415.58
683.839	1377.03
684.034	1405.31
684.228	1415.19
684.422	1326.85
684.616	1371.21
684.81	1404.54
685.004	1375.86
685.198	1382.64
685.392	1408.41
685.586	1356.49
685.78	1388.26
685.974	1400.66
686.168	1374.12
686.362	1405.51
686.556	1331.5
686.75	1279.38
686.944	1250.9
687.138	1224.35
687.331	1133.49
687.525	1168.55
687.719	1095.12
687.913	1163.13
688.107	1133.68
688.301	1110.43
688.494	1109.27
688.688	1129.22
688.882	1063.54
689.076	1086.21
689.269	1121.09
689.463	1219.51
689.657	1138.33
689.85	1127.09
690.044	1186.96
690.238	1156.15
690.431	1133.87
690.625	1169.91
690.818	1208.27
691.012	1189.67
691.205	1199.17
691.399	1168.75
691.593	1209.82
691.786	1297.4
691.98	1264.46
692.173	1291.2
692.366	1238.69
692.56	1303.21
692.753	1306.11
692.947	1219.12
693.14	1301.85
693.333	1272.21
693.527	1232.88
693.72	1284.61
693.914	1250.9
694.107	1272.98
694.3	1258.45
694.493	1236.75
694.687	1321.03
694.88	1270.47
695.073	1321.81
695.266	1307.66
695.46	1280.73
695.653	1350.68
695.846	1349.51
696.039	1250.51
696.232	1266.98
696.425	1353.39
696.618	1358.62
696.812	1340.99
697.005	1388.46
697.198	1498.89
697.391	1379.93
697.584	1427.21
697.777	1483.39
697.97	1437.28
698.163	1453.36
698.356	1401.24
698.549	1525.24
698.742	1477.19
698.935	1399.11
699.127	1447.16
699.32	1457.82
699.513	1450.07
699.706	1418.68
699.899	1480.68
700.092	1447.55
700.285	1474.67
700.477	1449.88
700.67	1509.55
700.863	1543.26
701.056	1589.76
701.248	1551.59
701.441	1584.72
701.634	1527.96
701.826	1599.45
702.019	1525.44
702.212	1578.91
702.404	1563.6
702.597	1504.51
702.79	1618.44
702.982	1594.22
703.175	1651.18
703.367	1667.45
703.56	1664.93
703.752	1723.64
703.945	1711.24
704.137	1733.91
704.33	1748.44
704.522	1762.78
704.715	1768.98
704.907	1810.24
705.1	1845.89
705.292	1832.72
705.484	1813.54
705.677	1892.01
705.869	1860.04
706.061	1909.25
706.254	1960.98
706.446	1903.44
706.638	1893.75
706.831	1992.75
707.023	1941.61
707.215	2049.33
707.407	2032.86
707.599	2031.31
707.792	2105.71
707.984	2093.89
708.176	2128.38
708.368	2096.22
708.56	2101.25
708.752	2106.68
708.944	2123.15
709.136	2201.81
709.329	2134
709.521	2304.49
709.713	2223.51
709.905	2261.29
710.097	2321.54
710.289	2250.05
710.481	2266.71
710.672	2309.73
710.864	2357.39
711.056	2374.44
711.248	2328.52
711.44	2383.93
711.632	2338.21
711.824	2431.98
712.016	2454.45
712.207	2439.73
712.399	2485.07
712.591	2524.2
712.783	2508.51
712.975	2524.01
713.166	2479.64
713.358	2524.98
713.55	2601.7
713.741	2615.85
713.933	2577.1
714.125	2609.45
714.316	2606.55
714.508	2699.74
714.7	2724.34
714.891	2676.49
715.083	2754.96
715.274	2702.26
715.466	2726.48
715.657	2762.13
715.849	2680.36
716.04	2757.67
716.232	2680.17
716.423	2801.07
716.615	2680.56
716.806	2654.98
716.998	2646.26
717.189	2514.52
717.381	2481.39
717.572	2463.75
717.763	2514.13
717.955	2450.19
718.146	2447.87
718.337	2375.6
718.528	2340.72
718.72	2274.66
718.911	2345.18
719.102	2327.74
719.293	2372.69
719.485	2344.6
719.676	2340.72
719.867	2299.46
720.058	2302.56
720.249	2330.46
720.44	2337.82
720.632	2405.24
720.823	2464.34
721.014	2595.7
721.205	2650.14
721.396	2703.61
721.587	2836.33
721.778	2881.28
721.969	2859.97
722.16	2981.83
722.351	2939.79
722.542	3096.92
722.733	3141.87
722.924	3030.85
723.115	3094.98
723.305	3067.08
723.496	3074.25
723.687	2965.95
723.878	2970.6
724.069	2984.74
724.26	3018.26
724.45	2951.22
724.641	2959.94
724.832	2997.14
725.023	2939.21
725.213	2987.26
725.404	2997.92
725.595	2960.52
725.785	2978.93
725.976	3072.51
726.167	3060.11
726.357	3021.36
726.548	3150.2
726.739	3072.9
726.929	3154.08
727.12	3137.41
727.31	3222.27
727.501	3159.11
727.691	3226.54
727.882	3190.11
728.072	3248.62
728.263	3219.95
728.453	3320.7
728.644	3292.8
728.834	3330.39
729.024	3287.18
729.215	3271.49
729.405	3298.03
729.596	3364.49
729.786	3354.41
729.976	3434.04
730.167	3480.54
730.357	3421.45
730.547	3470.85
730.737	3516.96
730.928	3497.01
731.118	3571.99
731.308	3476.47
731.498	3560.75
731.688	3648.13
731.879	3665.18
732.069	3715.17
732.259	3749.27
732.449	3715.17
732.639	3851.18
732.829	3867.07
733.019	3905.04
733.209	4007.53
733.399	4009.66
733.589	4054.42
733.779	4118.36
733.969	4096.07
734.159	4185.2
734.349	4231.89
734.539	4258.43
734.729	4262.7
734.919	4335.55
735.109	4367.71
735.299	4327.02
735.488	4389.99
735.678	4343.1
735.868	4330.32
736.058	4359.57
736.248	4322.18
736.437	4314.62
736.627	4290.98
736.817	4419.25
737.007	4368.1
737.196	4401.42
737.386	4460.13
737.576	4381.66
737.765	4470.59
737.955	4437.46
738.144	4590.13
738.334	4523.29
738.524	4461.87
738.713	4500.23
738.903	4475.82
739.092	4508.56
739.282	4524.26
739.471	4567.27
739.661	4575.6
739.85	4617.06
740.04	4604.27
740.229	4651.55
740.419	4625
740.608	4677.12
740.797	4664.53
740.987	4703.47
741.176	4689.33
741.365	4674.6
741.555	4616.67
741.744	4745.52
741.933	4668.6
742.123	4725.56
742.312	4771.48
742.501	4763.34
742.69	4743.58
742.88	4694.75
743.069	4848.78
743.258	4797.25
743.447	4864.09
743.636	4817.59
743.825	4814.88
744.014	4841.81
744.204	4853.43
744.393	4759.47
744.582	4944.88
744.771	4928.03
744.96	4871.26
745.149	4898.77
745.338	4825.92
745.527	4916.4
745.716	4891.21
745.905	4852.08
746.094	4945.66
746.283	4954.37
746.471	4916.4
746.66	4991.77
746.849	4934.03
747.038	5012.89
747.227	4927.06
747.416	4910.01
747.604	4896.25
747.793	4961.16
747.982	4949.14
748.171	5030.52
748.359	4990.99
748.548	4989.25
748.737	4952.44
748.926	4940.23
749.114	4876.68
749.303	4982.27
749.491	4938.68
749.68	4859.25
749.869	4966.97
750.057	4850.72
750.246	4880.17
750.434	4977.62
750.623	4874.55
750.811	4876.1
751	4886.76
751.188	4891.21
751.377	4865.25
751.565	4857.11
751.754	4819.53
751.942	4833.86
752.131	4894.31
752.319	4791.43
752.507	4811
752.696	4872.81
752.884	4896.44
753.072	4843.16
753.261	4873.97
753.449	4834.25
753.637	4793.95
753.825	4897.8
754.014	4874.74
754.202	4808.29
754.39	4884.63
754.578	4851.88
754.766	4813.91
754.955	4727.5
755.143	4907.68
755.331	4819.53
755.519	4809.45
755.707	4839.87
755.895	4782.33
756.083	4822.24
756.271	4739.7
756.459	4798.41
756.647	4778.45
756.835	4735.25
757.023	4800.54
757.211	4802.09
757.399	4730.4
757.587	4710.45
757.775	4724.98
757.963	4713.16
758.151	4723.62
758.339	4657.17
758.526	4675.38
758.714	4669.18
758.902	4570.56
759.09	4436.49
759.278	4256.11
759.465	4014.89
759.653	3635.15
759.841	3325.35
760.028	2930.49
760.216	2570.51
760.404	2389.36
760.591	2068.51
760.779	1817.22
760.967	1620.18
761.154	1493.86
761.342	1523.89
761.529	1497.34
761.717	1608.17
761.905	1644.01
762.092	1762.78
762.28	1735.46
762.467	1760.26
762.655	1690.7
762.842	1747.66
763.029	1752.31
763.217	1843.38
763.404	1782.73
763.592	1835.43
763.779	1774.98
763.966	1864.49
764.154	1920.49
764.341	1999.15
764.528	1980.94
764.716	2087.88
764.903	2122.57
765.09	2236.49
765.277	2256.64
765.465	2469.76
765.652	2525.17
765.839	2632.51
766.026	2768.52
766.213	2824.71
766.4	2900.07
766.588	3118.04
766.775	3137.03
766.962	3267.42
767.149	3358.09
767.336	3510.57
767.523	3479.76
767.71	3620.04
767.897	3744.04
768.084	3782.59
768.271	3838.97
768.458	3878.5
768.645	4031.56
768.832	3926.74
769.019	3969.95
769.206	4015.67
769.392	4074.18
769.579	4119.32
769.766	4171.25
769.953	4096.85
770.14	4167.76
770.327	4150.71
770.513	4173.77
770.7	4240.22
770.887	4172.41
771.073	4201.09
771.26	4211.35
771.447	4149.16
771.634	4144.12
771.82	4224.72
772.007	4129.98
772.193	4203.22
772.38	4199.92
772.567	4138.7
772.753	4163.69
772.94	4224.14
773.126	4212.32
773.313	4263.47
773.499	4231.89
773.686	4234.6
773.872	4120.68
774.059	4189.65
774.245	4179.77
774.432	4162.72
774.618	4095.49
774.804	4173.19
774.991	4095.3
775.177	4147.81
775.363	4098.98
775.55	4125.14
775.736	4006.18
775.922	4112.16
776.109	4072.63
776.295	4082.71
776.481	4117
776.667	4119.91
776.853	4021.68
777.04	4062.94
777.226	4063.53
777.412	4147.42
777.598	4053.45
777.784	4059.07
777.97	3965.3
778.156	3977.89
778.342	3989.32
778.528	3988.55
778.715	3968.98
778.901	3966.26
779.087	3959.29
779.272	3956.58
779.458	3930.81
779.644	3988.74
779.83	3951.35
780.016	3972.85
780.202	3964.13
780.388	3923.45
780.574	3838.2
780.76	3856.99
780.946	3925
781.131	3873.46
781.317	3861.83
781.503	3859.51
781.689	3912.98
781.874	3996.68
782.06	3833.35
782.246	3929.06
782.432	3854.67
782.617	3849.24
782.803	3921.31
782.989	3847.11
783.174	3816.88
783.36	3743.84
783.545	3817.27
783.731	3746.94
783.916	3642.12
784.102	3759.15
784.288	3711.87
784.473	3734.54
784.659	3682.81
784.844	3745.59
785.029	3691.14
785.215	3702.77
785.4	3628.18
785.586	3743.45
785.771	3597.37
785.956	3677.97
786.142	3630.5
786.327	3646.39
786.512	3649.87
786.698	3656.66
786.883	3565.98
787.068	3553.39
787.254	3601.05
787.439	3567.14
787.624	3539.25
787.809	3579.74
787.994	3568.89
788.18	3634.57
788.365	3539.05
788.55	3508.05
788.735	3501.66
788.92	3508.25
789.105	3513.28
789.29	3530.91
789.475	3456.32
789.66	3498.56
789.845	3430.75
790.03	3409.63
790.215	3458.84
790.4	3492.55
790.585	3486.74
790.77	3445.28
790.955	3396.45
791.14	3379.98
791.325	3472.4
791.51	3306.36
791.695	3422.42
791.879	3402.46
792.064	3366.23
792.249	3419.12
792.434	3369.52
792.618	3368.36
792.803	3447.8
792.988	3351.5
793.173	3384.83
793.357	3423.58
793.542	3326.12
793.727	3404.78
793.911	3408.85
794.096	3407.69
794.281	3377.08
794.465	3478.21
794.65	3313.34
794.834	3400.13
795.019	3443.15
795.203	3417.77
795.388	3440.43
795.572	3475.11
795.757	3416.22
795.941	3427.84
796.126	3435.2
796.31	3400.72
796.494	3440.82
796.679	3446.83
796.863	3373.4
797.048	3473.56
797.232	3435.98
797.416	3448.77
797.601	3425.52
797.785	3499.91
797.969	3485
798.153	3425.52
798.338	3441.02
798.522	3524.52
798.706	3494.88
798.89	3491.39
799.074	3567.34
799.258	3533.24
799.443	3543.9
799.627	3491
799.811	3567.53
799.995	3439.85
800.179	3437.72
800.363	3410.6
800.547	3499.91
800.731	3473.76
800.915	3426.29
801.099	3396.45
801.283	3407.88
801.467	3445.28
801.651	3405.17
801.835	3483.06
802.019	3477.44
802.202	3455.55
802.386	3393.93
802.57	3399.75
802.754	3417.57
802.938	3373.01
803.121	3382.12
803.305	3483.83
803.489	3428.23
803.673	3493.52
803.856	3451.87
804.04	3434.82
804.224	3442.18
804.407	3390.06
804.591	3396.26
804.775	3412.15
804.958	3423.58
805.142	3514.06
805.326	3424.16
805.509	3410.21
805.693	3464.65
805.876	3455.93
806.06	3429.2
806.243	3463.3
806.427	3481.9
806.61	3480.93
806.794	3406.72
806.977	3482.67
807.16	3447.22
807.344	3436.56
807.527	3445.28
807.71	3446.44
807.894	3404.59
808.077	3459.03
808.26	3368.17
808.444	3348.79
808.627	3454.58
808.81	3375.14
808.993	3327.87
809.177	3338.52
809.36	3309.46
809.543	3376.3
809.726	3241.46
809.909	3273.42
810.092	3246.69
810.276	3224.41
810.459	3187.01
810.642	3206.58
810.825	3165.7
811.008	3197.86
811.191	3094.79
811.374	3124.63
811.557	3129.86
811.74	3169.58
811.923	3080.26
812.106	3058.56
812.289	3056.04
812.472	3058.75
812.654	3058.95
812.837	3014.97
813.02	2951.42
813.203	2907.82
813.386	2813.66
813.569	2789.83
813.751	2733.45
813.934	2755.73
814.117	2739.26
814.3	2683.27
814.482	2632.51
814.665	2574.97
814.848	2536.99
815.03	2536.02
815.213	2490.1
815.396	2494.56
815.578	2454.84
815.761	2401.17
815.943	2498.24
816.126	2355.06
816.309	2346.92
816.491	2276.21
816.674	2199.68
816.856	2226.41
817.039	2258.19
817.221	2318.25
817.403	2280.08
817.586	2279.89
817.768	2277.95
817.951	2201.03
818.133	2159.18
818.315	2224.67
818.498	2256.25
818.68	2328.71
818.862	2293.64
819.045	2323.29
819.227	2331.42
819.409	2251.41
819.591	2287.83
819.774	2297.91
819.956	2228.55
820.138	2342.47
820.32	2342.27
820.502	2360.87
820.684	2459.3
820.866	2450.39
821.048	2499.79
821.231	2508.12
821.413	2527.3
821.595	2493.01
821.777	2525.95
821.959	2481.39
822.141	2552.1
822.323	2414.54
822.505	2333.17
822.686	2292.09
822.868	2217.11
823.05	2052.43
823.232	2017.55
823.414	1966.79
823.596	1999.15
823.778	2006.12
823.96	2036.93
824.141	2074.52
824.323	2093.31
824.505	2171.2
824.687	2196.77
824.868	2295
825.05	2357.58
825.232	2403.5
825.413	2474.99
825.595	2415.32
825.777	2341.5
825.958	2397.88
826.14	2395.17
826.321	2444.38
826.503	2416.48
826.685	2447.67
826.866	2433.14
827.048	2421.9
827.229	2420.35
827.411	2290.35
827.592	2263.03
827.773	2278.53
827.955	2227.96
828.136	2205.68
828.318	2199.68
828.499	2232.42
828.68	2153.37
828.862	2181.66
829.043	2237.65
829.224	2180.11
829.406	2165
829.587	2169.84
829.768	2164.8
829.949	2157.83
830.131	2186.89
830.312	2263.03
830.493	2176.81
830.674	2208.01
830.855	2147.37
831.036	2180.3
831.218	2245.21
831.399	2231.26
831.58	2176.43
831.761	2163.64
831.942	2190.38
832.123	2184.95
832.304	2118.5
832.485	2153.37
832.666	2146.2
832.847	2221.57
833.028	2183.21
833.209	2173.33
833.389	2161.7
833.57	2095.83
833.751	2113.46
833.932	2186.31
834.113	2105.13
834.294	2119.66
834.475	2196.58
834.655	2230.87
834.836	2216.15
835.017	2175.65
835.198	2122.57
835.378	2189.8
835.559	2214.79
835.74	2174.68
835.92	2139.42
836.101	2157.83
836.281	2195.61
836.462	2191.35
836.643	2242.3
836.823	2236.49
837.004	2228.35
837.184	2274.46
837.365	2275.43
837.545	2227
837.726	2199.1
837.906	2257.99
838.087	2216.73
838.267	2235.33
838.448	2168.1
838.628	2193.28
838.808	2189.99
838.989	2246.95
839.169	2172.75
839.349	2198.51
839.53	2255.48
839.71	2282.41
839.89	2172.16
840.07	2218.28
840.251	2154.34
840.431	2231.45
840.611	2203.16
840.791	2173.91
840.971	2178.95
841.151	2192.31
841.332	2167.71
841.512	2235.91
841.692	2114.23
841.872	2196.58
842.052	2143.3
842.232	2184.37
842.412	2109
842.592	2145.62
842.772	2190.76
842.952	2202.58
843.132	2123.73
843.312	2115.2
843.492	2062.5
843.672	2144.65
843.851	2064.83
844.031	2124.12
844.211	2116.56
844.391	2079.55
844.571	2110.94
844.751	2116.17
844.93	2097.96
845.11	2096.6
845.29	2083.82
845.47	2131.09
845.649	2152.21
845.829	2168.87
846.009	2079.94
846.188	2137.68
846.368	2136.9
846.547	2067.93
846.727	2099.9
846.907	2045.65
847.086	2054.56
847.266	2106.68
847.445	2077.42
847.625	2064.83
847.804	2064.83
847.984	2053.59
848.163	2062.31
848.343	2026.08
848.522	2094.67
848.701	2061.73
848.881	2025.11
849.06	2032.28
849.239	2027.05
849.419	2048.36
849.598	1942.96
849.777	1947.61
849.957	1912.54
850.136	1883.29
850.315	1843.76
850.494	1834.66
850.674	1869.34
850.853	1930.56
851.032	1908.47
851.211	1916.61
851.39	1921.84
851.569	1877.48
851.748	1868.37
851.927	1931.72
852.107	1898.01
852.286	1852.87
852.465	1842.79
852.644	1910.02
852.823	1929.4
853.002	1880.77
853.181	1892.59
853.359	1893.94
853.538	1843.76
853.717	1899.76
853.896	1755.03
854.075	1685.86
854.254	1694
854.433	1564.19
854.611	1645.56
854.79	1556.05
854.969	1606.23
855.148	1635.87
855.327	1635.29
855.505	1638.2
855.684	1677.92
855.863	1702.33
856.041	1707.56
856.22	1740.88
856.399	1685.67
856.577	1845.12
856.756	1790.68
856.934	1912.93
857.113	1868.76
857.291	1813.54
857.47	1796.88
857.648	1831.36
857.827	1805.4
858.005	1851.13
858.184	1737.01
858.362	1879.8
858.541	1811.41
858.719	1787
858.898	1809.28
859.076	1793.97
859.254	1847.64
859.433	1786.41
859.611	1749.6
859.789	1721.9
859.967	1819.54
860.146	1859.65
860.324	1710.66
860.502	1737.01
860.68	1691.87
860.859	1708.53
861.037	1740.11
861.215	1739.33
861.393	1758.9
861.571	1727.51
861.749	1706.01
861.927	1722.28
862.105	1754.64
862.283	1691.67
862.461	1718.22
862.639	1710.27
862.817	1711.05
862.995	1690.51
863.173	1658.15
863.351	1684.31
863.529	1712.4
863.707	1744.56
863.885	1682.57
864.063	1631.61
864.241	1636.65
864.418	1709.5
864.596	1659.51
864.774	1627.93
864.952	1652.53
865.129	1685.67
865.307	1624.25
865.485	1593.83
865.663	1637.81
865.84	1565.15
866.018	1578.52
866.196	1440.58
866.373	1455.88
866.551	1420.23
866.728	1397.95
866.906	1421.78
867.084	1419.46
867.261	1475.45
867.439	1496.57
867.616	1524.27
867.794	1486.88
867.971	1524.86
868.149	1493.86
868.326	1574.84
868.503	1560.31
868.681	1533.38
868.858	1498.7
869.035	1532.99
869.213	1552.37
869.39	1521.37
869.567	1590.34
869.745	1474.48
869.922	1532.61
870.099	1575.81
870.276	1535.9
870.454	1539.97
870.631	1552.17
870.808	1524.27
870.985	1530.86
871.162	1598.29
871.339	1528.15
871.517	1484.56
871.694	1457.43
871.871	1507.22
872.048	1496.18
872.225	1496.76
872.402	1504.32
872.579	1454.91
872.756	1488.82
872.933	1455.11
873.11	1449.1
873.287	1457.04
873.463	1464.6
873.64	1452.2
873.817	1475.06
873.994	1446.58
874.171	1416.74
874.348	1456.08
874.524	1397.56
874.701	1447.55
874.878	1395.82
875.055	1434.76
875.231	1413.06
875.408	1467.89
875.585	1360.17
875.762	1418.49
875.938	1399.11
876.115	1407.44
876.291	1378.38
876.468	1394.27
876.645	1352.42
876.821	1333.24
876.998	1373.54
877.174	1398.73
877.351	1377.61
877.527	1339.05
877.704	1386.91
877.88	1360.95
878.057	1343.51
878.233	1415
878.409	1333.43
878.586	1365.98
878.762	1331.11
878.938	1367.34
879.115	1275.12
879.291	1351.45
879.467	1281.9
879.644	1306.5
879.82	1334.21
879.996	1294.49
880.172	1307.86
880.349	1334.6
880.525	1310.38
880.701	1235.01
880.877	1276.47
881.053	1291.97
881.229	1304.76
881.405	1330.53
881.581	1264.07
881.757	1294.88
881.933	1313.28
882.109	1328.01
882.285	1329.75
882.461	1254.58
882.637	1290.81
882.813	1227.26
882.989	1288.48
883.165	1334.21
883.341	1254.38
883.517	1314.25
883.693	1286.16
883.869	1313.28
884.044	1275.7
884.22	1320.45
884.396	1346.41
884.572	1318.13
884.747	1310.38
884.923	1295.46
885.099	1302.24
885.275	1364.82
885.45	1275.5
885.626	1264.46
885.801	1242.76
885.977	1274.73
886.153	1198
886.328	1286.16
886.504	1225.9
886.679	1278.41
886.855	1259.03
887.03	1288.29
887.206	1291.39
887.381	1291.58
887.557	1280.15
887.732	1298.36
887.908	1299.33
888.083	1312.12
888.258	1246.25
888.434	1264.85
888.609	1246.05
888.784	1326.07
888.96	1268.53
889.135	1259.81
889.31	1240.05
889.485	1262.13
889.661	1256.9
889.836	1292.55
890.011	1288.48
890.186	1266.59
890.361	1224.35
890.537	1286.93
890.712	1286.35
890.887	1273.95
891.062	1283.83
891.237	1310.38
891.412	1250.32
891.587	1294.1
891.762	1268.14
891.937	1307.08
892.112	1244.7
892.287	1223.19
892.462	1241.6
892.637	1210.79
892.812	1195.48
892.987	1223.77
893.161	1145.69
893.336	1167.97
893.511	1205.95
893.686	1187.74
893.861	1187.15
894.035	1186.38
894.21	1168.17
894.385	1131.35
894.56	1202.65
894.734	1109.27
894.909	1121.67
895.084	1090.28
895.258	1064.71
895.433	1079.62
895.608	1054.24
895.782	1051.34
895.957	1022.66
896.131	1032.16
896.306	990.31
896.48	962.99
896.655	1011.81
896.829	909.32
897.004	899.25
897.178	900.02
897.353	905.06
897.527	952.53
897.701	928.5
897.876	884.33
898.05	976.94
898.224	955.04
898.399	922.11
898.573	913.97
898.747	794.23
898.921	855.85
899.096	752.39
899.27	732.43
899.444	762.07
899.618	801.4
899.792	812.83
899.967	841.9
900.141	861.08
900.315	798.11
900.489	814.97
900.663	815.16
900.837	810.32
901.011	757.23
901.185	881.81
901.359	820.39
901.533	833.57
901.707	819.62
901.881	788.03
902.055	777.38
902.229	814.19
902.403	861.08
902.576	831.82
902.75	807.41
902.924	929.08
903.098	886.65
903.272	917.07
903.446	958.73
903.619	942.06
903.793	963.96
903.967	930.63
904.14	1004.64
904.314	988.18
904.488	962.6
904.661	971.13
904.835	977.91
905.009	1012.39
905.182	1031.38
905.356	989.14
905.529	971.9
905.703	952.53
905.876	944.19
906.05	929.86
906.223	905.25
906.397	845.96
906.57	828.53
906.744	824.27
906.917	813.42
907.09	811.67
907.264	807.6
907.437	776.02
907.61	738.44
907.784	741.73
907.957	775.83
908.13	742.12
908.304	790.55
908.477	715.77
908.65	732.82
908.823	714.22
908.996	811.87
909.17	706.66
909.343	723.13
909.516	699.88
909.689	745.02
909.862	699.49
910.035	706.27
910.208	662.29
910.381	696
910.554	762.85
910.727	719.84
910.9	673.14
911.073	724.49
911.246	759.17
911.419	763.62
911.592	733.01
911.765	682.05
911.938	705.69
912.11	703.17
912.283	733.4
912.456	750.45
912.629	704.34
912.802	669.85
912.974	639.43
913.147	642.34
913.32	570.26
913.493	609.01
913.665	626.84
913.838	608.04
914.01	604.94
914.183	659.39
914.356	683.02
914.528	697.94
914.701	745.41
914.873	688.45
915.046	588.28
915.218	583.24
915.391	532.29
915.563	517.56
915.736	597.58
915.908	646.6
916.081	589.83
916.253	620.83
916.425	633.81
916.598	648.15
916.77	639.04
916.942	607.07
917.115	557.48
917.287	573.94
917.459	591.19
917.632	555.73
917.804	520.47
917.976	553.21
918.148	587.51
918.32	588.86
918.493	635.75
918.665	671.4
918.837	624.9
919.009	690.19
919.181	659.39
919.353	647.96
919.525	647.37
919.697	634.2
919.869	627.81
920.041	696.97
920.213	756.65
920.385	682.44
920.557	637.3
920.729	683.8
920.901	646.21
921.073	649.7
921.244	627.22
921.416	647.57
921.588	632.26
921.76	564.06
921.932	688.06
922.103	639.43
922.275	616.37
922.447	638.66
922.619	567.94
922.79	613.47
922.962	604.36
923.134	632.46
923.305	599.13
923.477	557.48
923.648	526.86
923.82	598.55
923.991	534.23
924.163	532.29
924.335	553.21
924.506	527.25
924.677	628.97
924.849	526.86
925.02	560.96
925.192	599.91
925.363	565.61
925.535	549.34
925.706	543.72
925.877	598.74
926.049	531.13
926.22	587.12
926.391	544.49
926.562	608.04
926.734	535.19
926.905	573.56
927.076	498.19
927.247	524.15
927.419	464.28
927.59	488.31
927.761	490.44
927.932	485.4
928.103	495.09
928.274	429.6
928.445	435.22
928.616	431.54
928.787	428.44
928.958	442.78
929.129	423.01
929.3	409.45
929.471	372.64
929.642	316.26
929.813	290.49
929.984	377.29
930.155	291.65
930.326	329.05
930.496	297.08
930.667	247.48
930.838	294.95
931.009	243.8
931.18	269.95
931.35	244.57
931.521	258.33
931.692	196.91
931.863	149.64
932.033	202.53
932.204	225.59
932.374	181.99
932.545	158.74
932.716	233.34
932.886	214.54
933.057	111.47
933.227	147.12
933.398	196.91
933.568	106.82
933.739	78.14
933.909	112.83
934.08	121.74
934.25	58
934.421	89.38
934.591	117.67
934.761	96.94
934.932	62.26
935.102	117.67
935.272	117.48
935.443	88.8
935.613	114.96
935.783	132.78
935.953	71.17
936.123	233.72
936.294	59.16
936.464	98.68
936.634	103.33
936.804	53.73
936.974	52.38
937.144	131.43
937.314	81.63
937.484	80.86
937.655	59.54
937.825	123.68
937.995	79.31
938.165	136.08
938.334	101.98
938.504	132.59
938.674	137.82
938.844	154.87
939.014	208.73
939.184	165.14
939.354	240.89
939.524	198.46
939.694	157.77
939.863	153.12
940.033	226.56
940.203	206.79
940.373	198.46
940.542	197.11
940.712	170.95
940.882	217.84
941.051	223.07
941.221	169.79
941.391	213.96
941.56	188.77
941.73	168.04
941.899	263.17
942.069	162.62
942.238	191.87
942.408	151.96
942.577	175.6
942.747	143.05
942.916	75.63
943.086	125.03
943.255	197.69
943.425	164.17
943.594	111.28
943.763	59.35
943.933	59.74
944.102	57.61
944.271	128.13
944.441	141.89
944.61	122.71
944.779	136.27
944.948	215.32
945.117	104.11
945.287	115.54
945.456	61.68
945.625	92.48
945.794	113.6
945.963	92.29
946.132	131.23
946.301	110.89
946.47	156.81
946.639	60.32
946.808	113.6
946.977	140.14
947.146	176.37
947.315	94.61
947.484	152.93
947.653	107.01
947.822	112.83
947.991	96.16
948.16	166.88
948.329	169.59
948.498	120.38
948.666	127.55
948.835	141.31
949.004	105.46
949.173	94.61
949.341	129.29
949.51	159.91
949.679	152.93
949.847	154.48
950.016	211.83
950.185	198.46
950.353	117.28
950.522	106.82
950.69	174.24
950.859	155.84
951.028	187.03
951.196	149.83
951.365	125.03
951.533	112.63
951.701	135.69
951.87	151.96
952.038	69.81
952.207	118.25
952.375	159.71
952.543	124.64
952.712	132.59
952.88	94.03
953.048	174.63
953.217	163.97
953.385	151.19
953.553	174.24
953.721	88.99
953.89	118.64
954.058	73.49
954.226	99.46
954.394	132.98
954.562	64
954.73	150.99
954.898	113.79
955.067	155.06
955.235	95.97
955.403	129.1
955.571	176.37
955.739	141.5
955.907	81.24
956.075	111.86
956.243	104.69
956.41	149.44
956.578	97.71
956.746	60.71
956.914	100.62
957.082	167.07
957.25	153.32
957.418	98.88
957.585	152.16
957.753	181.22
957.921	87.44
958.089	118.83
958.256	140.73
958.424	151.77
958.592	119.03
958.759	110.31
958.927	142.08
959.095	108.56
959.262	137.04
959.43	118.25
959.597	70.59
959.765	120.96
959.932	104.49
960.1	145.96
960.267	117.09
960.435	126
960.602	123.87
960.77	109.14
960.937	70.78
961.104	130.65
961.272	82.21
961.439	98.29
961.606	154.29
961.774	155.64
961.941	88.8
962.108	140.92
962.275	132.98
962.443	182.57
962.61	138.21
962.777	221.91
962.944	151.38
963.111	134.14
963.278	145.18
963.446	155.45
963.613	123.29
963.78	163.59
963.947	185.87
964.114	141.11
964.281	214.93
964.448	132.98
964.615	139.18
964.782	147.7
964.949	161.65
965.116	166.49
965.282	209.12
965.449	131.04
965.616	109.73
965.783	181.02
965.95	125.61
966.117	123.09
966.283	138.98
966.45	130.65
966.617	154.67
966.784	155.06
966.95	187.42
967.117	199.62
967.284	113.79
967.45	100.81
967.617	201.17
967.784	179.67
967.95	212.8
968.117	167.46
968.283	159.13
968.45	259.3
968.616	185.87
968.783	169.4
968.949	191.1
969.116	182.77
969.282	171.72
969.449	167.07
969.615	164.94
969.781	124.45
969.948	147.7
970.114	119.99
970.28	225.59
970.447	162.04
970.613	206.21
970.779	164.94
970.945	196.91
971.112	188
971.278	147.51
971.444	173.86
971.61	202.92
971.776	163.78
971.942	188.97
972.108	195.56
972.275	158.55
972.441	180.25
972.607	223.46
972.773	124.26
972.939	180.44
973.105	177.73
973.271	120.38
973.437	138.59
973.602	130.46
973.768	148.28
973.934	135.88
974.1	152.16
974.266	81.05
974.432	142.66
974.598	120.38
974.763	181.61
974.929	129.68
975.095	231.79
975.261	125.61
975.426	130.46
975.592	136.66
975.758	214.16
975.923	105.46
976.089	129.88
976.255	173.08
976.42	157
976.586	174.82
976.751	150.99
976.917	184.71
977.082	150.22
977.248	107.59
977.413	92.87
977.579	131.62
977.744	148.28
977.91	106.63
978.075	112.83
978.24	168.43
978.406	166.3
978.571	130.65
978.736	82.99
978.902	159.32
979.067	101.39
979.232	76.79
979.397	133.36
979.563	173.66
979.728	115.93
979.893	149.44
980.058	85.89
980.223	154.48
980.388	110.69
980.554	138.4
980.719	107.4
980.884	114.18
981.049	165.33
981.214	107.21
981.379	152.16
981.544	121.74
981.709	114.76
981.874	110.69
982.039	120.38
982.204	157.58
982.368	131.43
982.533	123.48
982.698	162.42
982.863	151.38
983.028	109.14
983.193	138.79
983.357	135.88
983.522	125.23
983.687	120.96
983.852	129.1
984.016	118.83
984.181	129.1
984.346	160.87
984.51	156.81
984.675	122.9
984.839	120.58
985.004	149.83
985.168	158.55
985.333	142.66
985.498	123.87
985.662	162.81
985.827	142.66
985.991	137.24
986.155	125.03
986.32	160.87
986.484	204.66
986.649	146.34
986.813	76.98
986.977	124.64
987.142	168.24
987.306	110.31
987.47	101.59
987.634	107.4
987.799	129.29
987.963	119.61
988.127	140.14
988.291	162.62
988.455	95.58
988.62	93.64
988.784	143.24
988.948	162.23
989.112	78.53
989.276	135.11
989.44	125.03
989.604	122.51
989.768	116.31
989.932	197.88
990.096	98.68
990.26	73.49
990.424	64.78
990.588	72.14
990.752	178.31
990.915	160.29
991.079	112.44
991.243	78.14
991.407	124.26
991.571	97.71
991.734	133.36
991.898	135.11
992.062	208.34
992.226	125.03
992.389	84.34
992.553	78.14
992.717	91.32
992.88	89.77
993.044	139.76
993.207	103.53
993.371	131.04
993.535	124.26
993.698	100.04
993.862	148.86
994.025	126.39
994.189	100.04
994.352	108.56
994.515	127.16
994.679	154.87
994.842	100.04
995.006	127.74
995.169	63.03
995.332	83.38
995.496	133.17
995.659	48.5
995.822	111.28
995.985	96.36
996.149	149.83
996.312	84.73
996.475	161.84
996.638	97.52
996.801	149.64
996.964	165.91
997.128	80.47
997.291	76.21
997.454	78.14
997.617	46.18
997.78	136.27
997.943	75.04
998.106	113.41
998.269	88.8
998.432	94.81
998.595	94.61
998.758	34.75
998.92	47.15
999.083	48.7
999.246	85.7
999.409	57.61
999.572	30.87
999.735	48.5
999.897	100.81
1000.06	51.41
1000.223	68.46
1000.386	114.38
1000.548	110.11
1000.711	110.31
1000.874	123.29
1001.036	27.96
1001.199	126.78
1001.361	72.33
1001.524	87.83
1001.687	129.1
1001.849	52.76
1002.012	111.47
1002.174	90.74
1002.337	109.73
1002.499	66.13
1002.661	144.99
1002.824	48.5
1002.986	33.97
1003.149	63.03
1003.311	32.42
1003.473	134.14
1003.636	63.42
1003.798	82.6
1003.96	109.14
1004.123	53.93
1004.285	62.26
1004.447	66.91
1004.609	56.45
1004.771	122.51
1004.933	16.34
1005.096	29.9
1005.258	45.21
1005.42	75.24
1005.582	102.17
1005.744	93.64
1005.906	6.46
1006.068	78.92
1006.23	51.02
1006.392	4.52
1006.554	33.97
1006.716	105.85
1006.878	70.98
1007.04	31.06
1007.202	27.77
1007.363	83.38
1007.525	51.6
1007.687	95
1007.849	109.73
1008.011	31.65
1008.172	42.69
1008.334	25.64
1008.496	98.88
1008.658	5.88
1008.819	53.93
1008.981	20.41
1009.143	50.83
1009.304	57.22
1009.466	95
1009.627	100.23
1009.789	154.48
1009.95	60.32
1010.112	47.15
1010.273	74.85
1010.435	44.63
1010.596	55.86
1010.758	45.79
1010.919	33.97
1011.081	12.66
1011.242	53.15
1011.403	92.48
1011.565	58.96
1011.726	58.38
1011.887	-9.04
1012.049	57.8
1012.21	73.11
1012.371	89.38
1012.532	15.95
1012.693	60.71
1012.855	29.9
1013.016	68.26
1013.177	74.85
1013.338	56.45
1013.499	126
1013.66	78.53
1013.821	68.26
1013.982	63.61
1014.143	23.31
1014.304	43.66
1014.465	70.59
1014.626	79.89
1014.787	48.7
1014.948	129.29
1015.109	-20.47
1015.27	79.89
1015.431	32.03
1015.592	27.77
1015.752	126.97
1015.913	75.82
1016.074	63.81
1016.235	47.15
1016.395	37.26
1016.556	25.83
1016.717	46.18
1016.877	101.59
1017.038	34.36
1017.199	43.08
1017.359	20.99
1017.52	54.9
1017.681	25.25
1017.841	47.73
1018.002	37.07
1018.162	38.23
1018.323	77.37
1018.483	58.96
1018.644	25.45
1018.804	-10.79
1018.964	16.92
1019.125	30.68
1019.285	39.2
1019.446	14.98
1019.606	28.55
1019.766	-24.54
1019.926	55.09
1020.087	80.86
1020.247	20.99
1020.407	64.58
1020.567	92.09
1020.728	41.33
1020.888	18.08
1021.048	3.36
1021.208	4.52
1021.368	31.65
1021.528	79.31
1021.688	80.28
1021.848	60.9
1022.008	52.76
1022.168	8.01
1022.328	45.01
1022.488	66.71
1022.648	31.84
1022.808	24.28
1022.968	43.66
1023.128	4.33
1023.288	17.5
1023.448	34.94
1023.608	45.98
1023.767	82.99
1023.927	17.11
1024.087	11.88
1024.247	12.85
1024.406	28.55
1024.566	1.03
1024.726	21.57
1024.885	35.91
1025.045	63.03
1025.205	25.25
1025.364	8.59
1025.524	23.7
1025.683	25.64
1025.843	23.9
1026.003	36.68
1026.162	80.66
1026.321	51.21
1026.481	38.81
1026.64	24.28
1026.8	35.71
1026.959	28.74
1027.119	5.49
1027.278	33.2
1027.437	0.65
1027.597	21.96
1027.756	53.73
1027.915	40.75
1028.074	42.5
1028.234	-4.59
1028.393	33.97
1028.552	11.5
1028.711	-42.95
1028.87	76.01
1029.03	-1.49
1029.189	39.4
1029.348	-15.05
1029.507	-4.59
1029.666	2.97
1029.825	-13.11
1029.984	-1.87
1030.143	42.3
1030.302	2.58
1030.461	-38.1
1030.62	8.59
1030.779	65.94
1030.938	-6.52
1031.097	-16.99
1031.255	32.03
1031.414	88.41
1031.573	52.18
1031.732	-38.3
1031.891	2.39
1032.049	69.62
1032.208	33.58
1032.367	22.15
1032.525	23.31
1032.684	27.19
1032.843	-3.62
1033.001	-38.1
1033.16	164.17
1033.319	83.57
1033.477	36.68
1033.636	-19.7
1033.794	-25.9
1033.953	51.21
1034.111	33.97
1034.27	-27.06
1034.428	45.79
1034.587	19.25
1034.745	59.35
1034.903	18.47
1035.062	36.49
1035.22	-2.26
1035.378	41.72
1035.537	-21.44
1035.695	46.56
1035.853	14.98
1036.011	34.94
1036.17	41.91
1036.328	-69.68
1036.486	38.43
1036.644	33.78
1036.802	-49.34
1036.96	-4.78
1037.119	21.76
1037.277	-10.79
1037.435	-29.38
1037.593	-24.35
1037.751	25.06
1037.909	44.43
1038.067	44.43
