Data from gum_old_FLMT105791__110__15-45-59-253.txt Node

Date: Mon Mar 20 15:45:59 GMT 2023
User: antho
Spectrometer: FLMT10579
Trigger mode: 0
Integration Time (sec): 1.000000E-1
Scans to average: 10
Electric dark correction enabled: true
Nonlinearity correction enabled: false
Boxcar width: 0
XAxis mode: Wavelengths
Number of Pixels in Spectrum: 3648
>>>>>Begin Spectral Data<<<<<
345.248	-170.42
345.464	-170.42
345.681	-170.42
345.898	-191.73
346.114	-171.97
346.331	-46.22
346.548	12.67
346.764	-10.38
346.981	-9.8
347.197	-9.22
347.414	39.99
347.631	-23.94
347.847	49.49
348.064	1.82
348.28	30.5
348.497	-32.47
348.713	-2.44
348.93	3.76
349.146	45.61
349.363	-11.74
349.579	5.7
349.796	2.21
350.012	12.09
350.229	29.14
350.445	-7.86
350.661	3.76
350.878	3.96
351.094	33.02
351.311	-4.18
351.527	10.35
351.743	-11.74
351.96	67.5
352.176	23.14
352.392	32.24
352.609	46.19
352.825	-18.52
353.041	6.67
353.257	8.22
353.474	25.85
353.69	19.26
353.906	15.19
354.122	-4.38
354.339	58.79
354.555	8.8
354.771	7.83
354.987	74.87
355.203	58.4
355.42	-11.16
355.636	-20.65
355.852	7.83
356.068	31.08
356.284	-9.99
356.5	80.68
356.716	15.77
356.932	14.61
357.148	53.17
357.364	18.49
357.58	60.53
357.796	101.8
358.012	64.21
358.228	25.66
358.444	-27.43
358.66	71.57
358.876	36.31
359.092	-12.13
359.308	33.79
359.524	38.83
359.74	15.97
359.956	-3.6
360.172	19.65
360.388	67.12
360.604	-25.88
360.819	108
361.035	28.76
361.251	35.15
361.467	23.33
361.683	60.53
361.898	46
362.114	60.72
362.33	21.39
362.546	69.83
362.762	33.6
362.977	22.75
363.193	-15.81
363.409	59.17
363.624	-8.44
363.84	-2.63
364.056	8.99
364.271	52
364.487	48.52
364.703	35.34
364.918	-7.28
365.134	15.77
365.35	21.39
365.565	147.52
365.781	42.51
365.996	66.34
366.212	101.99
366.427	70.41
366.643	26.62
366.858	19.07
367.074	15.77
367.289	96.57
367.505	138.22
367.72	2.02
367.936	50.65
368.151	91.34
368.367	79.13
368.582	44.84
368.798	22.17
369.013	67.31
369.228	58.01
369.444	46.77
369.659	98.31
369.874	84.94
370.09	126.99
370.305	-40.22
370.52	13.45
370.736	108.39
370.951	38.83
371.166	86.3
371.381	120.59
371.597	87.85
371.812	2.21
372.027	14.03
372.242	35.34
372.458	101.99
372.673	13.64
372.888	55.69
373.103	65.76
373.318	124.66
373.533	51.23
373.749	66.34
373.964	14.61
374.179	85.72
374.394	20.81
374.609	100.05
374.824	9.19
375.039	85.72
375.254	31.86
375.469	85.52
375.684	70.8
375.899	99.09
376.114	65.57
376.329	53.94
376.544	93.27
376.759	88.24
376.974	58.98
377.189	55.1
377.404	29.72
377.619	95.4
377.834	8.61
378.049	22.17
378.264	19.46
378.478	58.98
378.693	48.32
378.908	119.24
379.123	29.53
379.338	93.47
379.553	76.42
379.767	77.19
379.982	68.86
380.197	67.7
380.412	49.29
380.626	84.94
380.841	146.17
381.056	81.45
381.271	130.86
381.485	21.39
381.7	42.9
381.915	104.7
382.129	29.34
382.344	69.64
382.559	23.91
382.773	101.99
382.988	13.84
383.202	70.8
383.417	16.36
383.632	144.62
383.846	49.1
384.061	63.63
384.275	30.31
384.49	68.47
384.704	113.62
384.919	93.85
385.133	73.9
385.348	112.07
385.562	55.49
385.777	115.75
385.991	75.64
386.206	56.46
386.42	36.89
386.634	117.88
386.849	62.08
387.063	102.96
387.277	16.36
387.492	81.84
387.706	30.5
387.92	41.74
388.135	125.05
388.349	96.95
388.563	74.29
388.778	90.95
388.992	99.09
389.206	90.95
389.42	157.21
389.635	82.81
389.849	97.15
390.063	135.9
390.277	97.54
390.491	169.22
390.706	119.24
390.92	126.79
391.134	129.12
391.348	122.72
391.562	52.39
391.776	88.82
391.99	80.87
392.205	118.07
392.419	64.21
392.633	81.84
392.847	122.92
393.061	96.95
393.275	155.66
393.489	59.95
393.703	74.48
393.917	103.35
394.131	37.47
394.345	94.05
394.559	121.56
394.773	77
394.986	99.09
395.2	117.3
395.414	141.71
395.628	110.13
395.842	133.38
396.056	126.6
396.27	58.01
396.484	121.56
396.697	123.89
396.911	149.27
397.125	122.14
397.339	116.72
397.553	84.55
397.766	151.98
397.98	132.6
398.194	186.08
398.408	106.84
398.621	177.36
398.835	164.18
399.049	145.78
399.262	196.35
399.476	183.17
399.69	217.27
399.903	232
400.117	145.2
400.331	173.29
400.544	146.94
400.758	284.31
400.971	177.55
401.185	239.94
401.398	190.92
401.612	232.58
401.826	205.45
402.039	201.97
402.253	148.3
402.466	230.83
402.68	204.48
402.893	211.46
403.106	206.23
403.32	186.47
403.533	202.74
403.747	191.5
403.96	209.91
404.174	221.15
404.387	160.12
404.6	198.28
404.814	237.03
405.027	200.03
405.24	210.88
405.454	202.93
405.667	250.21
405.88	141.71
406.094	211.85
406.307	250.98
406.52	211.85
406.733	146.17
406.947	169.03
407.16	282.18
407.373	264.35
407.586	175.03
407.799	164.77
408.012	240.71
408.226	230.25
408.439	285.86
408.652	171.35
408.865	238.39
409.078	260.67
409.291	257.18
409.504	194.41
409.717	235.48
409.93	236.84
410.143	223.08
410.357	146.55
410.57	150.82
410.783	178.52
410.996	242.07
411.209	230.45
411.421	307.75
411.634	241.88
411.847	213.59
412.06	243.23
412.273	255.05
412.486	250.98
412.699	333.91
412.912	239.94
413.125	283.34
413.338	233.16
413.55	279.27
413.763	252.15
413.976	277.14
414.189	219.4
414.402	224.63
414.615	325.96
414.827	213.4
415.04	305.81
415.253	239.36
415.466	287.8
415.678	334.88
415.891	270.94
416.104	243.81
416.316	260.86
416.529	256.99
416.742	314.34
416.954	284.7
417.167	295.35
417.38	275.01
417.592	323.44
417.805	239.55
418.017	217.27
418.23	293.03
418.442	243.43
418.655	264.74
418.868	277.53
419.08	312.21
419.293	317.24
419.505	279.46
419.718	315.89
419.93	308.14
420.142	254.08
420.355	326.93
420.567	349.99
420.78	288.76
420.992	275.4
421.205	338.56
421.417	233.55
421.629	257.38
421.842	265.32
422.054	254.28
422.266	338.94
422.479	353.28
422.691	281.98
422.903	340.3
423.115	255.25
423.328	267.84
423.54	302.91
423.752	296.51
423.964	282.56
424.177	296.71
424.389	290.7
424.601	409.27
424.813	319.38
425.025	349.6
425.238	336.23
425.45	263.96
425.662	272.3
425.874	642.16
426.086	310.08
426.298	312.79
426.51	320.73
426.722	303.49
426.934	275.2
427.146	323.83
427.358	259.31
427.57	347.28
427.782	295.55
427.994	289.54
428.206	282.18
428.418	258.15
428.63	332.74
428.842	367.62
429.054	320.73
429.266	344.76
429.478	259.31
429.69	331.97
429.902	260.48
430.114	341.27
430.325	300.39
430.537	248.46
430.749	276.56
430.961	196.15
431.173	251.18
431.384	270.36
431.596	194.41
431.808	257.57
432.02	332.36
432.231	335.07
432.443	407.14
432.655	358.71
432.867	319.18
433.078	350.76
433.29	442.99
433.502	360.84
433.713	404.24
433.925	364.52
434.136	410.82
434.348	304.46
434.56	274.04
434.771	446.47
434.983	271.33
435.194	300.58
435.406	350.18
435.617	388.93
435.829	407.92
436.04	388.93
436.252	396.88
436.463	427.49
436.675	422.64
436.886	410.63
437.098	426.52
437.309	459.07
437.521	387.38
437.732	393.78
437.943	401.91
438.155	406.95
438.366	358.32
438.578	473.6
438.789	375.76
439	421.29
439.211	373.63
439.423	380.41
439.634	447.64
439.845	401.52
440.057	382.93
440.268	432.91
440.479	383.12
440.69	421.48
440.902	382.54
441.113	413.92
441.324	397.07
441.535	441.44
441.746	481.74
441.957	412.96
442.168	419.16
442.38	454.22
442.591	448.41
442.802	414.31
443.013	441.44
443.224	466.43
443.435	430.59
443.646	443.76
443.857	419.54
444.068	428.07
444.279	416.83
444.49	522.23
444.701	437.95
444.912	575.32
445.123	520.49
445.334	475.92
445.545	490.07
445.756	436.4
445.967	435.82
446.178	449.77
446.388	513.7
446.599	480.77
446.81	484.45
447.021	440.47
447.232	504.6
447.443	522.81
447.653	407.92
447.864	542.19
448.075	507.12
448.286	548.58
448.496	496.65
448.707	531.34
448.918	495.69
449.129	581.52
449.339	475.54
449.55	514.48
449.761	479.02
449.971	539.28
450.182	486.97
450.393	521.07
450.603	468.95
450.814	552.07
451.024	540.25
451.235	574.54
451.446	594.88
451.656	563.69
451.867	514.29
452.077	504.79
452.288	574.54
452.498	595.85
452.709	520.87
452.919	570.28
453.13	482.12
453.34	551.49
453.55	492.2
453.761	517.19
453.971	533.08
454.182	525.91
454.392	536.37
454.602	620.07
454.813	546.25
455.023	577.83
455.233	481.35
455.444	534.63
455.654	451.51
455.864	512.74
456.075	525.52
456.285	540.64
456.495	552.65
456.705	538.7
456.916	590.43
457.126	613.87
457.336	561.56
457.546	449.77
457.756	546.06
457.967	616
458.177	563.5
458.387	540.25
458.597	515.06
458.807	538.89
459.017	524.36
459.227	526.69
459.437	520.49
459.647	588.49
459.857	564.85
460.068	554
460.278	595.08
460.488	572.6
460.698	611.93
460.908	566.4
461.117	493.94
461.327	531.92
461.537	570.47
461.747	584.23
461.957	575.7
462.167	727.6
462.377	628.4
462.587	590.23
462.797	629.76
463.007	604.77
463.216	620.85
463.426	651.46
463.636	613.68
463.846	542.77
464.056	577.06
464.265	638.67
464.475	565.82
464.685	590.23
464.895	626.08
465.104	598.95
465.314	627.82
465.524	577.64
465.733	555.55
465.943	687.11
466.153	682.85
466.362	662.12
466.572	625.69
466.782	615.03
466.991	612.9
467.201	675.48
467.41	534.44
467.62	611.74
467.829	626.08
468.039	645.84
468.249	613.29
468.458	646.03
468.668	637.32
468.877	665.02
469.086	692.15
469.296	712.1
469.505	637.12
469.715	723.53
469.924	640.8
470.134	708.61
470.343	687.3
470.552	628.79
470.762	673.55
470.971	612.52
471.18	659.21
471.39	688.85
471.599	648.17
471.808	693.7
472.018	650.88
472.227	740
472.436	751.82
472.645	717.33
472.855	699.7
473.064	767.32
473.273	726.44
473.482	728.18
473.691	787.28
473.901	753.18
474.11	693.11
474.319	806.65
474.528	735.35
474.737	820.02
474.946	754.14
475.155	769.45
475.364	801.81
475.573	772.94
475.783	785.14
475.992	807.62
476.201	846.17
476.41	776.43
476.619	727.99
476.828	792.31
477.037	716.36
477.245	772.36
477.454	807.43
477.663	817.5
477.872	816.92
478.081	917.67
478.29	799.87
478.499	896.55
478.708	891.71
478.917	929.49
479.125	864.39
479.334	880.86
479.543	861.48
479.752	898.1
479.961	861.29
480.169	920.77
480.378	864.97
480.587	1022.87
480.796	945.37
481.004	885.51
481.213	959.52
481.422	937.62
481.63	909.34
481.839	960.68
482.048	1013.57
482.256	973.66
482.465	987.61
482.674	952.54
482.882	1002.92
483.091	1042.44
483.299	978.31
483.508	1009.5
483.716	964.75
483.925	987.22
484.134	944.02
484.342	979.47
484.551	1026.55
484.759	1019.38
484.967	1023.45
485.176	1030.62
485.384	1066.08
485.593	1036.05
485.801	1021.52
486.01	995.36
486.218	953.7
486.426	900.42
486.635	888.41
486.843	885.7
487.051	924.64
487.26	925.42
487.468	974.24
487.676	1007.95
487.885	955.25
488.093	990.71
488.301	1044.77
488.509	1020.55
488.717	1082.55
488.926	1079.45
489.134	1026.94
489.342	1094.37
489.55	1005.24
489.758	1065.3
489.967	1012.99
490.175	1137.38
490.383	1064.92
490.591	1169.15
490.799	1044.77
491.007	1148.61
491.215	1138.35
491.423	1124.98
491.631	1118.78
491.839	1101.34
492.047	1166.83
492.255	1071.7
492.463	1051.93
492.671	1052.13
492.879	1131.76
493.087	1121.49
493.295	1130.98
493.503	1138.54
493.711	1199.38
493.919	1192.79
494.127	1196.28
494.334	1174.38
494.542	1103.86
494.75	1153.07
494.958	1144.93
495.166	1233.67
495.374	1190.27
495.581	1220.88
495.789	1186.98
495.997	1280.94
496.205	1178.65
496.412	1169.15
496.62	1174.38
496.828	1211.39
497.035	1228.83
497.243	1237.93
497.451	1229.02
497.658	1253.63
497.866	1235.41
498.074	1320.27
498.281	1198.79
498.489	1308.26
498.696	1230.57
498.904	1178.06
499.112	1195.5
499.319	1265.64
499.527	1195.31
499.734	1264.28
499.942	1215.07
500.149	1194.92
500.357	1235.8
500.564	1184.85
500.771	1224.37
500.979	1170.51
501.186	1147.65
501.394	1228.44
501.601	1168.96
501.808	1218.94
502.016	1205.96
502.223	1178.26
502.43	1220.69
502.638	1211.39
502.845	1167.99
503.052	1292.57
503.26	1217.2
503.467	1301.29
503.674	1260.41
503.881	1279.59
504.089	1360.96
504.296	1253.63
504.503	1216.43
504.71	1242.58
504.917	1200.93
505.125	1242.58
505.332	1281.72
505.539	1279.59
505.746	1330.54
505.953	1305.55
506.16	1315.82
506.367	1351.47
506.574	1390.22
506.781	1377.43
506.988	1289.66
507.195	1312.33
507.402	1319.5
507.609	1369.1
507.816	1299.54
508.023	1277.84
508.23	1282.88
508.437	1266.99
508.644	1336.36
508.851	1379.56
509.058	1316.98
509.265	1338.49
509.472	1352.63
509.679	1429.94
509.885	1366.97
510.092	1347.59
510.299	1335.19
510.506	1363.29
510.713	1355.54
510.92	1326.67
511.126	1383.82
511.333	1405.72
511.54	1406.3
511.746	1433.62
511.953	1452.8
512.16	1454.15
512.367	1401.07
512.573	1397.39
512.78	1410.95
512.987	1400.29
513.193	1403
513.4	1319.11
513.606	1381.69
513.813	1390.41
514.02	1379.95
514.226	1469.46
514.433	1439.24
514.639	1314.27
514.846	1396.22
515.052	1356.31
515.259	1385.37
515.465	1404.55
515.672	1421.6
515.878	1510.92
516.085	1421.8
516.291	1455.51
516.497	1433.81
516.704	1416.37
516.91	1385.18
517.117	1320.47
517.323	1276.49
517.529	1280.17
517.736	1275.71
517.942	1301.48
518.148	1321.24
518.354	1352.44
518.561	1377.82
518.767	1370.65
518.973	1397.97
519.179	1432.26
519.386	1387.12
519.592	1391.38
519.798	1399.71
520.004	1501.62
520.21	1441.17
520.417	1551.41
520.623	1556.26
520.829	1545.41
521.035	1549.09
521.241	1545.6
521.447	1563.62
521.653	1664.76
521.859	1539.01
522.065	1601.01
522.271	1697.31
522.477	1624.84
522.683	1685.88
522.889	1652.94
523.095	1620.78
523.301	1632.59
523.507	1572.53
523.713	1584.16
523.919	1566.72
524.125	1691.3
524.331	1665.73
524.537	1767.06
524.742	1727.53
524.948	1765.51
525.154	1737.02
525.36	1852.89
525.566	1775
525.772	1786.43
525.977	1683.16
526.183	1780.62
526.389	1806.39
526.595	1704.28
526.8	1713.39
527.006	1664.37
527.212	1586.68
527.417	1563.62
527.623	1581.45
527.829	1680.64
528.034	1726.76
528.24	1719.39
528.446	1680.84
528.651	1781.78
528.857	1786.82
529.062	1877.69
529.268	1809.68
529.473	1847.27
529.679	1844.55
529.884	1947.24
530.09	1915.08
530.295	1893.77
530.501	1916.05
530.706	1872.84
530.912	1858.89
531.117	1864.7
531.323	1878.65
531.528	1910.04
531.733	1956.93
531.939	1900.35
532.144	1959.06
532.35	1948.4
532.555	1937.75
532.76	1931.55
532.966	1933.68
533.171	1914.11
533.376	1861.8
533.581	1838.55
533.787	1855.6
533.992	1880.01
534.197	1991.03
534.402	1969.52
534.607	1938.52
534.813	2019.12
535.018	1942.98
535.223	1914.5
535.428	1969.52
535.633	2026.29
535.838	1995.87
536.043	1991.61
536.249	2115.22
536.454	2007.5
536.659	2055.35
536.864	2010.6
537.069	1959.64
537.274	2046.25
537.479	1994.71
537.684	1999.36
537.889	1977.66
538.094	2101.85
538.299	1992.38
538.504	2005.56
538.708	2040.24
538.913	2092.74
539.118	2054.38
539.323	2029
539.528	2023.58
539.733	2022.61
539.938	2079.18
540.142	2054.77
540.347	1987.73
540.552	1960.61
540.757	1991.41
540.962	2007.88
541.166	1916.24
541.371	1919.92
541.576	1944.14
541.781	1909.65
541.985	2043.15
542.19	1998.78
542.395	2108.63
542.599	2084.8
542.804	2097.01
543.008	2105.92
543.213	2029.58
543.418	1978.82
543.622	2086.54
543.827	1992.38
544.031	2127.81
544.236	2108.63
544.44	2109.6
544.645	2177.8
544.849	2068.72
545.054	2119.87
545.258	2191.36
545.463	2153.58
545.667	2082.48
545.872	2108.05
546.076	2091.39
546.281	2107.08
546.485	2054.77
546.689	2119.48
546.894	2125.88
547.098	2109.99
547.302	2059.23
547.507	2114.06
547.711	2140.6
547.915	2140.79
548.119	2057.1
548.324	2090.81
548.528	2136.34
548.732	2106.31
548.936	2130.53
549.141	2122.19
549.345	2094.68
549.549	2130.14
549.753	2125.68
549.957	2224.88
550.161	2181.67
550.366	2156.29
550.57	2135.56
550.774	2140.6
550.978	2099.14
551.182	2178.19
551.386	2079.76
551.59	2132.08
551.794	2121.23
551.998	2142.15
552.202	2143.12
552.406	2118.51
552.61	2145.44
552.814	2117.35
553.018	2168.5
553.222	2099.33
553.426	2072.79
553.63	2220.04
553.833	2122.19
554.037	2084.61
554.241	2144.67
554.445	2086.16
554.649	2100.88
554.853	2094.29
555.056	2146.8
555.26	2186.13
555.464	2126.65
555.668	2144.28
555.871	2169.86
556.075	2190.01
556.279	2085.77
556.483	2066.78
556.686	2059.23
556.89	2097.01
557.094	2118.13
557.297	2027.45
557.501	2145.06
557.704	2008.66
557.908	2086.16
558.112	2061.36
558.315	2153.19
558.519	2041.01
558.722	2060.39
558.926	2043.53
559.129	1987.73
559.333	1959.06
559.536	1951.5
559.74	1967.2
559.943	1984.44
560.147	1923.22
560.35	1955.18
560.553	1980.95
560.757	1878.85
560.96	2022.61
561.164	1986.38
561.367	2088.87
561.57	1980.95
561.774	1978.43
561.977	1961
562.18	1943.37
562.384	2045.28
562.587	1980.76
562.79	1967.2
562.993	1949.57
563.197	1991.41
563.4	2036.56
563.603	2008.85
563.806	2022.8
564.009	1938.33
564.212	1986.18
564.416	1898.42
564.619	1935.03
564.822	1867.61
565.025	1948.21
565.228	1911.59
565.431	1933.1
565.634	1841.65
565.837	1892.8
566.04	1834.48
566.243	1842.62
566.446	1758.72
566.649	1864.9
566.852	1796.89
567.055	1808.32
567.258	1880.59
567.461	1937.75
567.664	1920.89
567.867	1798.25
568.07	1876.91
568.273	1877.3
568.475	1882.92
568.678	1795.73
568.881	1795.15
569.084	1812.39
569.287	1716.49
569.489	1746.13
569.692	1804.64
569.895	1821.89
570.098	1773.84
570.3	1729.86
570.503	1643.83
570.706	1696.14
570.909	1697.11
571.111	1642.67
571.314	1640.15
571.516	1691.69
571.719	1706.22
571.922	1681.42
572.124	1655.46
572.327	1692.66
572.529	1626.59
572.732	1642.67
572.935	1671.34
573.137	1747.68
573.34	1655.65
573.542	1737.8
573.745	1682.97
573.947	1706.22
574.15	1662.63
574.352	1628.14
574.554	1712.03
574.757	1689.75
574.959	1610.9
575.162	1626.01
575.364	1600.05
575.566	1723.07
575.769	1543.08
575.971	1635.11
576.173	1539.79
576.376	1594.62
576.578	1605.47
576.78	1655.26
576.982	1516.73
577.185	1613.8
577.387	1564.98
577.589	1547.35
577.791	1632.59
577.993	1596.17
578.196	1555.29
578.398	1569.05
578.6	1593.65
578.802	1502.01
579.004	1518.48
579.206	1514.99
579.408	1542.31
579.61	1502.2
579.812	1552.77
580.014	1502.4
580.216	1493.68
580.418	1502.01
580.62	1498.33
580.822	1479.73
581.024	1502.01
581.226	1568.46
581.428	1526.62
581.63	1564.01
581.832	1462.68
582.034	1552.96
582.236	1465.58
582.438	1531.46
582.64	1563.23
582.841	1602.18
583.043	1624.46
583.245	1562.85
583.447	1527.97
583.649	1523.9
583.85	1545.21
584.052	1552.19
584.254	1475.27
584.456	1560.33
584.657	1478.18
584.859	1531.27
585.061	1510.92
585.262	1488.64
585.464	1437.88
585.666	1511.89
585.867	1433.62
586.069	1501.43
586.27	1493.68
586.472	1454.15
586.674	1403.39
586.875	1434.59
587.077	1418.31
587.278	1496.58
587.48	1434.39
587.681	1566.14
587.883	1455.12
588.084	1397.39
588.285	1450.47
588.487	1428.77
588.688	1468.68
588.89	1378.98
589.091	1334.42
589.292	1351.66
589.494	1301.67
589.695	1288.31
589.896	1234.83
590.098	1216.81
590.299	1315.04
590.5	1246.84
590.702	1278.62
590.903	1284.43
591.104	1397.58
591.305	1333.06
591.507	1410.17
591.708	1347.79
591.909	1336.94
592.11	1431.1
592.311	1375.88
592.512	1326.86
592.714	1307.49
592.915	1301.48
593.116	1303.03
593.317	1338.87
593.518	1340.04
593.719	1328.99
593.92	1377.62
594.121	1404.55
594.322	1383.44
594.523	1329.38
594.724	1277.46
594.925	1341.01
595.126	1355.54
595.327	1344.88
595.528	1327.06
595.729	1349.34
595.929	1352.44
596.13	1329.96
596.331	1337.52
596.532	1353.79
596.733	1399.71
596.934	1382.85
597.135	1386.34
597.335	1377.82
597.536	1340.42
597.737	1358.06
597.938	1291.6
598.138	1342.56
598.339	1301.48
598.54	1340.04
598.74	1316.4
598.941	1347.4
599.142	1376.65
599.342	1350.5
599.543	1295.47
599.744	1310.01
599.944	1320.08
600.145	1286.76
600.345	1282.69
600.546	1372.59
600.746	1373.75
600.947	1390.8
601.147	1313.88
601.348	1351.86
601.548	1266.61
601.749	1322.99
601.949	1248.2
602.15	1282.49
602.35	1296.25
602.551	1339.65
602.751	1273.97
602.951	1285.98
603.152	1203.64
603.352	1333.45
603.552	1294.31
603.753	1332.87
603.953	1328.99
604.153	1283.27
604.354	1321.44
604.554	1298.57
604.754	1310.2
604.954	1282.69
605.155	1328.41
605.355	1299.93
605.555	1347.4
605.755	1362.9
605.955	1295.86
606.155	1300.12
606.356	1316.79
606.556	1324.34
606.756	1306.13
606.956	1258.08
607.156	1327.44
607.356	1257.5
607.556	1316.98
607.756	1295.47
607.956	1323.76
608.156	1273.39
608.356	1234.64
608.556	1304.77
608.756	1266.8
608.956	1230.76
609.156	1311.75
609.356	1220.88
609.556	1219.33
609.755	1235.03
609.955	1218.94
610.155	1242.58
610.355	1255.95
610.555	1232.51
610.755	1223.59
610.954	1158.69
611.154	1211.78
611.354	1235.03
611.554	1201.89
611.753	1219.91
611.953	1171.28
612.153	1226.5
612.352	1212.36
612.552	1155.2
612.752	1160.43
612.951	1235.99
613.151	1211.19
613.351	1147.65
613.55	1160.05
613.75	1211.78
613.949	1191.24
614.149	1174.77
614.348	1169.73
614.548	1142.22
614.747	1108.9
614.947	1136.8
615.146	1125.56
615.346	1210.81
615.545	1130.01
615.745	1170.31
615.944	1211.39
616.144	1141.06
616.343	1152.88
616.542	1116.84
616.742	1147.45
616.941	1146.68
617.14	1060.27
617.34	1150.36
617.539	1149
617.738	1101.53
617.938	1199.57
618.137	1126.53
618.336	1084.68
618.535	1165.08
618.734	1122.65
618.934	1178.06
619.133	1143.38
619.332	1144.93
619.531	1110.45
619.73	1086.42
619.929	1147.84
620.128	1165.66
620.328	1218.75
620.527	1106.38
620.726	1117.81
620.925	1137.18
621.124	1109.86
621.323	1129.82
621.522	1082.16
621.721	1056.78
621.92	1066.27
622.119	1103.28
622.318	1064.33
622.517	1090.68
622.715	1107.15
622.914	1030.23
623.113	1064.33
623.312	1006.6
623.511	1111.22
623.71	1053.68
623.909	1051.35
624.107	1143.77
624.306	1004.47
624.505	1031.2
624.704	1064.14
624.902	1031.4
625.101	1086.23
625.3	1043.22
625.499	1028.68
625.697	1053.87
625.896	1022.87
626.095	1064.33
626.293	965.91
626.492	1038.57
626.69	1045.15
626.889	990.71
627.088	1050
627.286	983.74
627.485	1021.32
627.683	1018.42
627.882	1062.78
628.08	975.4
628.279	992.45
628.477	1086.42
628.676	991.87
628.874	1042.25
629.073	971.92
629.271	966.88
629.469	1036.43
629.668	998.46
629.866	1000.4
630.065	992.07
630.263	1013.77
630.461	962.04
630.66	980.25
630.858	1015.7
631.056	1028.1
631.254	1054.65
631.453	970.37
631.651	1019.19
631.849	1001.56
632.047	1016.09
632.245	977.15
632.444	990.52
632.642	1022.1
632.84	1025.97
633.038	978.89
633.236	952.15
633.434	976.57
633.632	946.73
633.83	924.84
634.028	1030.82
634.227	1005.63
634.425	1054.45
634.623	983.54
634.821	1017.83
635.019	1006.79
635.216	969.79
635.414	999.82
635.612	996.14
635.81	1003.11
636.008	1039.53
636.206	948.47
636.404	1012.41
636.602	922.71
636.8	927.35
636.997	1011.44
637.195	999.24
637.393	972.89
637.591	1040.12
637.789	988.19
637.986	984.51
638.184	990.52
638.382	1007.76
638.58	1038.37
638.777	1068.79
638.975	972.89
639.173	1003.69
639.37	989.55
639.568	994
639.765	986.64
639.963	962.23
640.161	994.59
640.358	1006.4
640.556	946.54
640.753	907.4
640.951	931.62
641.148	964.55
641.346	942.08
641.543	918.83
641.741	988.19
641.938	897.32
642.136	942.47
642.333	891.12
642.531	983.74
642.728	997.49
642.925	919.41
643.123	929.1
643.32	974.05
643.517	916.89
643.715	949.44
643.912	895.19
644.109	965.91
644.306	932.78
644.504	885.51
644.701	919.02
644.898	950.6
645.095	914.37
645.293	931.04
645.49	935.88
645.687	911.86
645.884	950.02
646.081	862.45
646.278	887.44
646.475	917.86
646.672	872.72
646.87	931.04
647.067	926.39
647.264	888.41
647.461	884.54
647.658	833.97
647.855	914.57
648.052	873.11
648.249	783.98
648.446	860.32
648.642	856.64
648.839	855.86
649.036	828.35
649.233	781.85
649.43	779.72
649.627	810.53
649.824	843.07
650.021	792.89
650.217	830.29
650.414	802.97
650.611	823.7
650.808	852.37
651.004	813.04
651.201	846.76
651.398	924.45
651.595	855.28
651.791	826.03
651.988	874.66
652.185	822.34
652.381	876.59
652.578	798.51
652.775	839.59
652.971	805.68
653.168	817.31
653.364	843.66
653.561	752.4
653.757	830.87
653.954	848.11
654.15	781.85
654.347	905.85
654.543	842.69
654.74	759.18
654.936	769.26
655.133	829.13
655.329	840.75
655.525	807.23
655.722	861.29
655.918	788.44
656.115	810.72
656.311	711.52
656.507	690.79
656.704	645.65
656.9	707.65
657.096	681.68
657.292	708.23
657.489	753.76
657.685	756.08
657.881	736.32
658.077	733.03
658.273	758.41
658.47	855.86
658.666	760.73
658.862	804.71
659.058	749.11
659.254	824.28
659.45	769.45
659.646	813.43
659.842	803.16
660.038	807.81
660.234	748.91
660.43	771.78
660.626	884.34
660.822	815.18
661.018	817.5
661.214	808.2
661.41	741.36
661.606	832.42
661.802	841.52
661.998	795.8
662.194	778.56
662.39	822.34
662.586	789.99
662.781	810.72
662.977	795.99
663.173	831.26
663.369	767.71
663.564	788.05
663.76	840.75
663.956	778.36
664.152	805.29
664.347	712.1
664.543	777.01
664.739	790.38
664.934	729.35
665.13	711.71
665.326	803.94
665.521	791.73
665.717	740.97
665.912	735.93
666.108	687.69
666.304	776.23
666.499	745.43
666.695	705.32
666.89	745.43
667.086	806.26
667.281	802
667.477	827.38
667.672	780.69
667.867	778.17
668.063	766.16
668.258	751.43
668.454	770.03
668.649	832.23
668.844	782.43
669.04	782.04
669.235	750.27
669.43	737.48
669.626	711.71
669.821	762.48
670.016	738.65
670.211	742.52
670.407	723.92
670.602	776.04
670.797	764.22
670.992	761.89
671.187	717.33
671.382	802.39
671.578	745.62
671.773	759.57
671.968	689.63
672.163	747.17
672.358	757.83
672.553	689.05
672.748	713.26
672.943	784.37
673.138	700.86
673.333	793.09
673.528	735.55
673.723	746.2
673.918	708.42
674.113	697.57
674.308	820.6
674.503	761.51
674.698	749.11
674.892	730.9
675.087	757.83
675.282	738.45
675.477	711.52
675.672	750.66
675.867	728.76
676.061	683.43
676.256	666.76
676.451	706.29
676.646	739.42
676.84	691.76
677.035	694.08
677.23	673.93
677.424	729.73
677.619	779.91
677.814	762.86
678.008	778.36
678.203	680.52
678.397	703.58
678.592	735.74
678.787	771
678.981	714.81
679.176	738.65
679.37	727.02
679.565	724.7
679.759	722.56
679.954	744.85
680.148	790.76
680.342	776.62
680.537	737.48
680.731	730.31
680.926	747.95
681.12	764.61
681.314	705.71
681.509	727.6
681.703	722.95
681.897	718.88
682.092	720.82
682.286	725.47
682.48	766.93
682.674	775.65
682.869	705.9
683.063	708.03
683.257	810.91
683.451	704.93
683.645	734.77
683.839	692.53
684.034	699.9
684.228	772.94
684.422	674.32
684.616	698.73
684.81	736.9
685.004	715.59
685.198	689.24
685.392	731.48
685.586	684.78
685.78	727.8
685.974	726.63
686.168	721.79
686.362	767.71
686.556	685.95
686.75	651.65
686.944	650.3
687.138	658.05
687.331	593.14
687.525	620.65
687.719	573.19
687.913	622.59
688.107	623.56
688.301	556.33
688.494	621.23
688.688	580.35
688.882	545.87
689.076	546.25
689.269	614.65
689.463	688.27
689.657	631.12
689.85	604.57
690.044	606.51
690.238	609.61
690.431	604.57
690.625	596.24
690.818	614.45
691.012	634.22
691.205	653.98
691.399	591.98
691.593	643.52
691.786	690.6
691.98	690.4
692.173	712.1
692.366	672
692.56	692.53
692.753	756.08
692.947	659.21
693.14	729.15
693.333	699.9
693.527	656.88
693.72	685.56
693.914	670.25
694.107	673.74
694.3	712.1
694.493	705.32
694.687	745.43
694.88	663.08
695.073	773.52
695.266	752.21
695.46	699.31
695.653	778.75
695.846	758.99
696.039	651.46
696.232	730.31
696.425	764.03
696.618	750.85
696.812	775.07
697.005	819.24
697.198	898.87
697.391	828.54
697.584	824.09
697.777	882.99
697.97	845.98
698.163	859.93
698.356	842.49
698.549	942.85
698.742	925.8
698.935	864
699.127	893.26
699.32	871.36
699.513	892.87
699.706	940.53
699.899	931.23
700.092	890.16
700.285	957.58
700.477	887.64
700.67	988.77
700.863	978.12
701.056	1064.92
701.248	1008.34
701.441	1051.55
701.634	988.39
701.826	1117.61
702.019	1010.47
702.212	1058.91
702.404	1039.73
702.597	1033.92
702.79	1032.56
702.982	1058.91
703.175	1118.78
703.367	1158.11
703.56	1180.39
703.752	1218.75
703.945	1168.96
704.137	1194.34
704.33	1230.18
704.522	1221.66
704.715	1252.08
704.907	1293.15
705.1	1334.03
705.292	1289.27
705.484	1280.75
705.677	1357.47
705.869	1355.15
706.061	1400.29
706.254	1425.09
706.446	1370.45
706.638	1389.05
706.831	1474.88
707.023	1397.97
707.215	1524.48
707.407	1516.15
707.599	1506.08
707.792	1572.15
707.984	1525.84
708.176	1562.26
708.368	1530.49
708.56	1560.52
708.752	1606.44
708.944	1559.55
709.136	1647.71
709.329	1608.38
709.521	1745.16
709.713	1701.76
709.905	1731.79
710.097	1787.79
710.289	1720.17
710.481	1757.76
710.672	1778.68
710.864	1820.72
711.056	1831.38
711.248	1838.94
711.44	1844.55
711.632	1867.03
711.824	1890.08
712.016	1981.15
712.207	1932.71
712.399	1936.58
712.591	2003.04
712.783	1989.48
712.975	2046.25
713.166	1983.86
713.358	2002.85
713.55	2073.76
713.741	2118.71
713.933	2076.66
714.125	2128.59
714.316	2074.14
714.508	2189.81
714.7	2173.73
714.891	2187.87
715.083	2214.61
715.274	2184.97
715.466	2255.69
715.657	2308
715.849	2169.08
716.04	2233.41
716.232	2202.6
716.423	2303.35
716.615	2202.02
716.806	2190.2
716.998	2165.01
717.189	2143.51
717.381	2041.4
717.572	2018.15
717.763	2047.41
717.955	2057.1
718.146	2032.49
718.337	1965.07
718.528	1956.35
718.72	1909.07
718.911	1980.18
719.102	1910.82
719.293	1993.55
719.485	1984.25
719.676	1974.17
719.867	1916.43
720.058	1947.43
720.249	1968.55
720.44	1988.51
720.632	2034.81
720.823	2029.97
721.014	2212.87
721.205	2181.09
721.396	2298.89
721.587	2368.25
721.778	2427.93
721.969	2445.75
722.16	2513.76
722.351	2497.29
722.542	2638.53
722.733	2679.8
722.924	2576.14
723.115	2653.84
723.305	2627.68
723.496	2673.6
723.687	2534.68
723.878	2574.98
724.069	2560.45
724.26	2616.64
724.45	2500.97
724.641	2560.84
724.832	2576.92
725.023	2555.22
725.213	2570.91
725.404	2562.58
725.595	2542.24
725.785	2526.74
725.976	2625.55
726.167	2634.85
726.357	2663.33
726.548	2776.67
726.739	2643.57
726.929	2730.75
727.12	2766.79
727.31	2798.95
727.501	2727.27
727.691	2736.57
727.882	2780.35
728.072	2830.53
728.263	2791.01
728.453	2863.66
728.644	2890.6
728.834	2856.88
729.024	2888.08
729.215	2837.51
729.405	2887.5
729.596	2941.74
729.786	2975.26
729.976	2993.67
730.167	2991.54
730.357	2968.09
730.547	3032.22
730.737	3024.28
730.928	3074.07
731.118	3152.15
731.308	3073.3
731.498	3087.83
731.688	3221.9
731.879	3165.72
732.069	3244.77
732.259	3270.53
732.449	3313.55
732.639	3392.01
732.829	3400.15
733.019	3449.75
733.209	3500.51
733.399	3529.57
733.589	3623.74
733.779	3580.92
733.969	3589.05
734.159	3680.7
734.349	3729.33
734.539	3798.69
734.729	3725.84
734.919	3830.46
735.109	3815.74
735.299	3787.06
735.488	3823.49
735.678	3821.55
735.868	3854.68
736.058	3805.28
736.248	3827.94
736.437	3825.81
736.627	3780.48
736.817	3946.91
737.007	3869.21
737.196	3931.99
737.386	3915.91
737.576	3883.74
737.765	3969.38
737.955	3856.43
738.144	4044.36
738.334	4016.65
738.524	3932.18
738.713	4046.49
738.903	4006.77
739.092	4046.49
739.282	4063.54
739.471	4034.09
739.661	4022.08
739.85	4095.7
740.04	4056.76
740.229	4132.52
740.419	4091.63
740.608	4136.2
740.797	4126.32
740.987	4209.24
741.176	4192.58
741.365	4162.74
741.555	4111.98
741.744	4145.11
741.933	4171.07
742.123	4211.37
742.312	4243.15
742.501	4248.76
742.69	4251.67
742.88	4152.86
743.069	4282.67
743.258	4256.51
743.447	4303.79
743.636	4297.01
743.825	4283.25
744.014	4314.64
744.204	4325.29
744.393	4256.13
744.582	4399.31
744.771	4352.22
744.96	4265.43
745.149	4352.03
745.338	4284.99
745.527	4391.75
745.716	4346.41
745.905	4332.27
746.094	4429.53
746.283	4389.62
746.471	4315.41
746.66	4467.89
746.849	4440.19
747.038	4478.55
747.227	4369.08
747.416	4434.57
747.604	4350.09
747.793	4364.24
747.982	4410.74
748.171	4414.61
748.359	4428.17
748.548	4398.72
748.737	4443.48
748.926	4400.47
749.114	4320.45
749.303	4449.1
749.491	4382.64
749.68	4327.81
749.869	4426.43
750.057	4358.81
750.246	4361.72
750.434	4390.01
750.623	4361.72
750.811	4354.55
751	4421
751.188	4388.26
751.377	4385.16
751.565	4351.26
751.754	4317.16
751.942	4299.72
752.131	4386.91
752.319	4285.77
752.507	4258.45
752.696	4325.88
752.884	4317.54
753.072	4303.21
753.261	4375.47
753.449	4361.72
753.637	4285.96
753.825	4464.21
754.014	4307.08
754.202	4314.06
754.39	4363.66
754.578	4382.45
754.766	4316.38
754.955	4301.66
755.143	4347.96
755.331	4262.52
755.519	4335.95
755.707	4284.03
755.895	4298.94
756.083	4295.84
756.271	4263.1
756.459	4284.03
756.647	4304.76
756.835	4233.46
757.023	4228.61
757.211	4224.93
757.399	4200.33
757.587	4242.56
757.775	4185.02
757.963	4218.15
758.151	4196.84
758.339	4170.3
758.526	4157.51
758.714	4220.28
758.902	4088.73
759.09	4035.25
759.278	3900.41
759.465	3645.43
759.653	3276.73
759.841	2995.22
760.028	2640.27
760.216	2330.08
760.404	2159.78
760.591	1870.52
760.779	1652.94
760.967	1472.17
761.154	1292.18
761.342	1339.07
761.529	1315.24
761.717	1439.43
761.905	1479.73
762.092	1536.69
762.28	1536.69
762.467	1580.09
762.655	1516.73
762.842	1513.25
763.029	1577.57
763.217	1577.57
763.404	1558.58
763.592	1672.31
763.779	1629.88
763.966	1629.69
764.154	1738.19
764.341	1795.15
764.528	1790.5
764.716	1863.54
764.903	1909.65
765.09	1963.9
765.277	2013.11
765.465	2184.58
765.652	2248.52
765.839	2323.3
766.026	2434.51
766.213	2513.76
766.4	2642.21
766.588	2820.85
766.775	2823.75
766.962	2950.46
767.149	3002.39
767.336	3109.14
767.523	3097.52
767.71	3215.9
767.897	3303.28
768.084	3435.22
768.271	3442.78
768.458	3486.37
768.645	3529.57
768.832	3525.51
769.019	3592.15
769.206	3587.12
769.392	3684.57
769.579	3744.83
769.766	3707.63
769.953	3693.68
770.14	3710.92
770.327	3725.84
770.513	3796.56
770.7	3855.07
770.887	3708.6
771.073	3814.58
771.26	3795.2
771.447	3745.21
771.634	3756.06
771.82	3841.89
772.007	3686.51
772.193	3755.29
772.38	3804.89
772.567	3773.11
772.753	3768.08
772.94	3858.75
773.126	3774.47
773.313	3749.09
773.499	3751.8
773.686	3837.63
773.872	3686.12
774.059	3772.34
774.245	3709.57
774.432	3722.93
774.618	3644.85
774.804	3686.12
774.991	3665.39
775.177	3712.28
775.363	3648.73
775.55	3729.71
775.736	3651.25
775.922	3673.14
776.109	3670.43
776.295	3685.35
776.481	3692.9
776.667	3676.63
776.853	3659.77
777.04	3589.25
777.226	3641.37
777.412	3718.67
777.598	3595.06
777.784	3583.05
777.97	3566.97
778.156	3619.86
778.342	3595.64
778.528	3581.5
778.715	3563.29
778.901	3603.39
779.087	3577.04
779.272	3547.79
779.458	3498.38
779.644	3612.11
779.83	3562.32
780.016	3649.7
780.202	3536.55
780.388	3512.14
780.574	3456.34
780.76	3503.61
780.946	3522.99
781.131	3515.82
781.317	3487.72
781.503	3479.2
781.689	3488.89
781.874	3571.62
782.06	3420.49
782.246	3433.86
782.432	3455.37
782.617	3452.66
782.803	3515.24
782.989	3394.34
783.174	3420.49
783.36	3341.64
783.545	3397.05
783.731	3381.36
783.916	3279.45
784.102	3360.05
784.288	3332.73
784.473	3352.68
784.659	3340.86
784.844	3410.61
785.029	3309.48
785.215	3268.98
785.4	3273.05
785.586	3374.96
785.771	3228.68
785.956	3285.65
786.142	3245.73
786.327	3238.95
786.512	3268.79
786.698	3246.7
786.883	3175.4
787.068	3245.73
787.254	3277.32
787.439	3181.22
787.624	3192.07
787.809	3141.3
787.994	3155.84
788.18	3266.27
788.365	3117.47
788.55	3118.44
788.735	3174.05
788.92	3168.04
789.105	3160.49
789.29	3158.55
789.475	3113.79
789.66	3118.83
789.845	3082.02
790.03	3051.21
790.215	3115.92
790.4	3138.79
790.585	3120.96
790.77	3091.9
790.955	2970.42
791.14	3089.57
791.325	3179.67
791.51	2965.77
791.695	3056.64
791.879	3030.48
792.064	2973.33
792.249	3134.52
792.434	3005.1
792.618	3034.16
792.803	3109.92
792.988	3011.69
793.173	3020.6
793.357	3058.38
793.542	2966.54
793.727	3023.31
793.911	3020.99
794.096	3023.7
794.281	3087.25
794.465	3105.46
794.65	3044.04
794.834	3084.73
795.019	3078.72
795.203	3123.48
795.388	3086.86
795.572	3135.49
795.757	3084.34
795.941	3105.66
796.126	3046.56
796.31	3025.06
796.494	3110.11
796.679	3025.83
796.863	3028.74
797.048	3132.78
797.232	3078.53
797.416	3097.91
797.601	3102.75
797.785	3158.35
797.969	3134.91
798.153	3103.14
798.338	3093.64
798.522	3129.29
798.706	3133.36
798.89	3128.32
799.074	3234.69
799.258	3176.57
799.443	3129.87
799.627	3130.65
799.811	3187.42
799.995	3098.87
800.179	3089.96
800.363	3091.71
800.547	3156.22
800.731	3167.07
800.915	3067.1
801.099	3076.4
801.283	3084.73
801.467	3091.9
801.651	3055.86
801.835	3172.69
802.019	3131.42
802.202	3114.95
802.386	3055.28
802.57	3076.01
802.754	3071.17
802.938	3063.61
803.121	3107.98
803.305	3111.27
803.489	3089.38
803.673	3134.91
803.856	3115.73
804.04	3050.63
804.224	3084.34
804.407	3082.02
804.591	3061.87
804.775	3038.23
804.958	3056.64
805.142	3185.48
805.326	3095.39
805.509	3081.24
805.693	3087.83
805.876	3118.83
806.06	3111.47
806.243	3114.37
806.427	3153.32
806.61	3142.85
806.794	3101.01
806.977	3150.02
807.16	3127.55
807.344	3116.7
807.527	3087.25
807.71	3096.55
807.894	3067.1
808.077	3143.63
808.26	3053.54
808.444	3049.08
808.627	3135.49
808.81	3005.68
808.993	2976.81
809.177	2996.38
809.36	3000.06
809.543	3020.99
809.726	2921.98
809.909	2924.5
810.092	2908.42
810.276	2913.26
810.459	2887.5
810.642	2882.46
810.825	2864.44
811.008	2878.39
811.191	2771.83
811.374	2823.37
811.557	2817.36
811.74	2887.5
811.923	2793.33
812.106	2793.14
812.289	2766.98
812.472	2735.4
812.654	2796.05
812.837	2716.42
813.02	2658.29
813.203	2651.9
813.386	2525.77
813.569	2555.03
813.751	2452.34
813.934	2503.49
814.117	2485.86
814.3	2447.5
814.482	2409.13
814.665	2370.58
814.848	2316.33
815.03	2283.97
815.213	2256.46
815.396	2218.29
815.578	2229.72
815.761	2154.55
815.943	2233.21
816.126	2112.31
816.309	2102.04
816.491	2031.33
816.674	1979.79
816.856	2031.33
817.039	2000.91
817.221	2129.17
817.403	2052.45
817.586	2067.36
817.768	2107.86
817.951	2008.46
818.133	1988.7
818.315	1985.21
818.498	2059.23
818.68	2095.26
818.862	2093.33
819.045	2102.82
819.227	2075.5
819.409	2059.03
819.591	2081.89
819.774	2033.07
819.956	2034.04
820.138	2128.39
820.32	2080.93
820.502	2104.37
820.684	2199.31
820.866	2163.85
821.048	2226.62
821.231	2251.81
821.413	2269.25
821.595	2216.94
821.777	2238.83
821.959	2220.81
822.141	2292.3
822.323	2162.3
822.505	2122.97
822.686	2064.84
822.868	1974.17
823.05	1885.24
823.232	1819.17
823.414	1720.56
823.596	1847.85
823.778	1836.03
823.96	1861.22
824.141	1843.97
824.323	1886.79
824.505	1937.94
824.687	1973.01
824.868	2061.36
825.05	2154.16
825.232	2178.19
825.413	2206.67
825.595	2220.62
825.777	2119.68
825.958	2170.63
826.14	2178.57
826.321	2206.09
826.503	2147.58
826.685	2198.14
826.866	2222.36
827.048	2153.77
827.229	2149.71
827.411	2104.18
827.592	2040.24
827.773	2078.6
827.955	2015.63
828.136	2008.27
828.318	1981.92
828.499	2013.7
828.68	1970.3
828.862	1980.56
829.043	1985.8
829.224	1960.8
829.406	1892.41
829.587	1929.03
829.768	1953.25
829.949	1961
830.131	1966.23
830.312	2040.82
830.493	1939.88
830.674	1965.84
830.855	1936.2
831.036	1950.53
831.218	2000.52
831.399	2041.98
831.58	2006.72
831.761	1981.73
831.942	1966.62
832.123	1982.89
832.304	1917.79
832.485	1921.47
832.666	1943.56
832.847	1986.76
833.028	1982.31
833.209	1968.55
833.389	1932.52
833.57	1904.23
833.751	1868.19
833.932	1992.77
834.113	1938.91
834.294	1925.35
834.475	1971.27
834.655	1981.15
834.836	1988.51
835.017	1962.35
835.198	1903.45
835.378	1963.71
835.559	1996.65
835.74	1967.39
835.92	1977.85
836.101	1949.95
836.281	1981.92
836.462	2014.28
836.643	2041.4
836.823	2019.51
837.004	2069.11
837.184	2061.16
837.365	2075.31
837.545	2032.88
837.726	2024.93
837.906	2045.28
838.087	1994.13
838.267	1974.36
838.448	1949.57
838.628	1986.57
838.808	2011.37
838.989	2065.62
839.169	1980.18
839.349	1994.71
839.53	2025.13
839.71	1988.9
839.89	1961.58
840.07	2029.78
840.251	1986.76
840.431	2019.51
840.611	1978.82
840.791	1982.7
840.971	1984.05
841.151	1968.75
841.332	1950.15
841.512	1991.03
841.692	1882.14
841.872	1978.63
842.052	1966.03
842.232	2013.89
842.412	1896.28
842.592	1962.35
842.772	1989.86
842.952	1999.55
843.132	1930.97
843.312	1934.65
843.492	1902.68
843.672	1954.22
843.851	1863.15
844.031	1911.4
844.211	1879.82
844.391	1870.9
844.571	1937.94
844.751	1927.48
844.93	1906.55
845.11	1897.06
845.29	1902.48
845.47	1919.92
845.649	1906.55
845.829	1931.74
846.009	1861.22
846.188	1903.26
846.368	1911.2
846.547	1886.79
846.727	1946.27
846.907	1854.24
847.086	1876.14
847.266	1887.57
847.445	1897.83
847.625	1847.85
847.804	1836.03
847.984	1849.98
848.163	1806.77
848.343	1849.4
848.522	1835.64
848.701	1857.54
848.881	1821.11
849.06	1842.23
849.239	1858.89
849.419	1844.55
849.598	1770.54
849.777	1776.74
849.957	1734.89
850.136	1660.49
850.315	1687.81
850.494	1652.16
850.674	1682
850.853	1752.91
851.032	1717.07
851.211	1753.49
851.39	1747.29
851.569	1664.56
851.748	1716.87
851.927	1723.66
852.107	1767.64
852.286	1645.77
852.465	1643.64
852.644	1748.65
852.823	1710.29
853.002	1715.32
853.181	1744.97
853.359	1722.11
853.538	1667.66
853.717	1716.49
853.896	1610.7
854.075	1571.56
854.254	1500.46
854.433	1432.65
854.611	1515.96
854.79	1416.95
854.969	1501.62
855.148	1519.45
855.327	1467.91
855.505	1539.6
855.684	1519.06
855.863	1526.23
856.041	1546.76
856.22	1586.1
856.399	1524.48
856.577	1640.15
856.756	1593.85
856.934	1766.86
857.113	1732.18
857.291	1644.99
857.47	1653.71
857.648	1633.37
857.827	1638.79
858.005	1669.6
858.184	1598.11
858.362	1724.82
858.541	1641.89
858.719	1637.63
858.898	1602.56
859.076	1589.39
859.254	1674.06
859.433	1596.75
859.611	1571.95
859.789	1560.13
859.967	1612.83
860.146	1668.44
860.324	1520.61
860.502	1580.09
860.68	1533.98
860.859	1514.02
861.037	1572.92
861.215	1552.96
861.393	1583.19
861.571	1589.39
861.749	1553.74
861.927	1535.14
862.105	1547.54
862.283	1531.27
862.461	1510.92
862.639	1514.6
862.817	1524.48
862.995	1524.1
863.173	1517.7
863.351	1536.69
863.529	1545.6
863.707	1579.31
863.885	1563.62
864.063	1450.67
864.241	1499.1
864.418	1588.81
864.596	1528.94
864.774	1460.74
864.952	1479.92
865.129	1506.08
865.307	1446.99
865.485	1430.71
865.663	1499.88
865.84	1408.43
866.018	1449.89
866.196	1294.51
866.373	1326.09
866.551	1267.77
866.728	1205.58
866.906	1263.12
867.084	1297.22
867.261	1324.92
867.439	1335
867.616	1386.34
867.794	1349.72
867.971	1360.77
868.149	1358.44
868.326	1434.78
868.503	1387.5
868.681	1388.28
868.858	1364.64
869.035	1334.42
869.213	1393.9
869.39	1391.77
869.567	1455.7
869.745	1392.74
869.922	1407.85
870.099	1381.3
870.276	1419.47
870.454	1370.84
870.631	1418.7
870.808	1353.99
870.985	1408.82
871.162	1449.12
871.339	1422.96
871.517	1300.32
871.694	1316.98
871.871	1365.61
872.048	1350.31
872.225	1334.61
872.402	1372.78
872.579	1305.74
872.756	1339.46
872.933	1290.63
873.11	1316.01
873.287	1342.94
873.463	1334.42
873.64	1296.44
873.817	1305.16
873.994	1343.33
874.171	1245.29
874.348	1311.75
874.524	1283.85
874.701	1260.02
874.878	1245.29
875.055	1316.4
875.231	1288.69
875.408	1335.97
875.585	1246.46
875.762	1231.34
875.938	1249.56
876.115	1240.45
876.291	1251.3
876.468	1241.03
876.645	1226.89
876.821	1217.39
876.998	1233.48
877.174	1282.11
877.351	1239.87
877.527	1224.95
877.704	1258.66
877.88	1234.44
878.057	1234.06
878.233	1256.53
878.409	1224.56
878.586	1225.92
878.762	1211.39
878.938	1211.19
879.115	1145.32
879.291	1232.51
879.467	1121.49
879.644	1161.21
879.82	1208.87
879.996	1163.34
880.172	1119.94
880.349	1216.62
880.525	1210.81
880.701	1133.11
880.877	1152.88
881.053	1178.06
881.229	1191.43
881.405	1206.93
881.581	1112.19
881.757	1144.93
881.933	1192.01
882.109	1197.83
882.285	1188.53
882.461	1087.58
882.637	1152.88
882.813	1135.44
882.989	1156.95
883.165	1202.48
883.341	1133.11
883.517	1185.23
883.693	1208.87
883.869	1198.02
884.044	1129.24
884.22	1160.82
884.396	1207.51
884.572	1169.35
884.747	1217.2
884.923	1178.45
885.099	1179.61
885.275	1221.85
885.45	1147.26
885.626	1160.82
885.801	1128.08
885.977	1161.98
886.153	1118.78
886.328	1159.08
886.504	1123.23
886.679	1151.13
886.855	1123.62
887.03	1186.4
887.206	1155.4
887.381	1149.58
887.557	1159.08
887.732	1161.4
887.908	1198.6
888.083	1204.22
888.258	1131.18
888.434	1135.83
888.609	1169.54
888.784	1203.44
888.96	1100.95
889.135	1131.37
889.31	1135.83
889.485	1141.64
889.661	1133.7
889.836	1215.46
890.011	1144.35
890.186	1123.23
890.361	1102.31
890.537	1178.06
890.712	1128.85
890.887	1173.22
891.062	1158.11
891.237	1204.99
891.412	1121.1
891.587	1159.08
891.762	1129.63
891.937	1224.18
892.112	1089.91
892.287	1124.78
892.462	1108.31
892.637	1086.62
892.812	1066.27
892.987	1074.99
893.161	1040.89
893.336	1077.51
893.511	1076.35
893.686	1081.19
893.861	1084.87
894.035	1066.66
894.21	1052.32
894.385	1006.6
894.56	1069.95
894.734	992.26
894.909	1007.57
895.084	1016.48
895.258	993.23
895.433	1004.47
895.608	970.75
895.782	936.85
895.957	927.74
896.131	949.44
896.306	877.56
896.48	898.29
896.655	878.72
896.829	808.59
897.004	801.23
897.178	845.4
897.353	795.22
897.527	865.94
897.701	846.17
897.876	776.43
898.05	883.57
898.224	865.55
898.399	899.46
898.573	820.6
898.747	727.8
898.921	764.41
899.096	676.65
899.27	672.19
899.444	696.6
899.618	720.43
899.792	742.71
899.967	708.61
900.141	798.13
900.315	702.41
900.489	726.63
900.663	755.89
900.837	744.46
901.011	668.7
901.185	810.33
901.359	708.23
901.533	733.03
901.707	724.31
901.881	745.23
902.055	702.03
902.229	720.43
902.403	805.68
902.576	752.59
902.75	701.83
902.924	844.82
903.098	813.82
903.272	829.9
903.446	865.16
903.619	845.79
903.793	867.87
903.967	843.66
904.14	933.36
904.314	912.63
904.488	875.24
904.661	921.54
904.835	864.97
905.009	912.63
905.182	939.75
905.356	899.65
905.529	875.24
905.703	869.62
905.876	857.02
906.05	812.08
906.223	814.79
906.397	751.43
906.57	763.64
906.744	736.13
906.917	725.28
907.09	746.4
907.264	728.57
907.437	729.35
907.61	643.52
907.784	684.78
907.957	710.16
908.13	663.08
908.304	712.3
908.477	641.38
908.65	671.8
908.823	628.21
908.996	724.5
909.17	651.85
909.343	669.67
909.516	679.94
909.689	660.95
909.862	624.53
910.035	660.37
910.208	593.72
910.381	640.42
910.554	740
910.727	634.8
910.9	638.28
911.073	596.05
911.246	709.97
911.419	706.87
911.592	691.18
911.765	643.32
911.938	621.62
912.11	655.53
912.283	663.86
912.456	688.66
912.629	657.08
912.802	622.01
912.974	594.11
913.147	560.59
913.32	504.4
913.493	526.69
913.665	578.22
913.838	573.96
914.01	546.84
914.183	588.88
914.356	550.32
914.528	647
914.701	673.93
914.873	616.2
915.046	599.34
915.218	544.32
915.391	459.26
915.563	500.92
915.736	543.54
915.908	554.39
916.081	557.88
916.253	552.84
916.425	558.65
916.598	576.48
916.77	586.55
916.942	544.7
917.115	487.55
917.287	567.57
917.459	522.81
917.632	529.4
917.804	449.38
917.976	548.39
918.148	507.12
918.32	561.17
918.493	588.68
918.665	624.53
918.837	556.72
919.009	611.16
919.181	617.17
919.353	574.15
919.525	551.68
919.697	559.62
919.869	598.57
920.041	633.83
920.213	693.11
920.385	604.77
920.557	584.23
920.729	608.64
920.901	592.56
921.073	562.92
921.244	585.2
921.416	585.78
921.588	602.44
921.76	531.53
921.932	624.72
922.103	561.95
922.275	564.47
922.447	579.58
922.619	524.36
922.79	547.42
922.962	516.8
923.134	602.83
923.305	511.57
923.477	500.34
923.648	473.02
923.82	510.99
923.991	474.37
924.163	461.39
924.335	523.78
924.506	478.06
924.677	528.62
924.849	492
925.02	517.39
925.192	553.42
925.363	512.54
925.535	497.62
925.706	492.59
925.877	518.16
926.049	462.94
926.22	503.05
926.391	486.19
926.562	510.22
926.734	464.11
926.905	529.4
927.076	444.92
927.247	473.99
927.419	454.42
927.59	448.41
927.761	459.46
927.932	402.88
928.103	442.41
928.274	390.68
928.445	340.69
928.616	412.57
928.787	383.31
928.958	426.13
929.129	393.58
929.3	385.83
929.471	316.47
929.642	296.9
929.813	250.79
929.984	314.53
930.155	246.91
930.326	304.07
930.496	267.45
930.667	200.03
930.838	248.85
931.009	212.43
931.18	221.34
931.35	230.83
931.521	227.54
931.692	173.1
931.863	134.54
932.033	176
932.204	170.58
932.374	196.73
932.545	151.78
932.716	193.44
932.886	202.93
933.057	81.84
933.227	112.65
933.398	224.83
933.568	101.22
933.739	49.1
933.909	83.2
934.08	132.6
934.25	41.93
934.421	73.9
934.591	153.14
934.761	94.44
934.932	71.96
935.102	124.85
935.272	93.27
935.443	80.68
935.613	75.25
935.783	117.3
935.953	35.34
936.123	234.51
936.294	54.72
936.464	63.44
936.634	65.37
936.804	43.09
936.974	43.48
937.144	83.39
937.314	86.3
937.484	37.86
937.655	45.81
937.825	116.14
937.995	53.55
938.165	117.3
938.334	72.35
938.504	109.74
938.674	68.47
938.844	94.44
939.014	178.13
939.184	154.69
939.354	182.78
939.524	197.12
939.694	131.64
939.863	139.38
940.033	206.23
940.203	216.69
940.373	179.49
940.542	223.47
940.712	129.12
940.882	186.47
941.051	184.53
941.221	156.24
941.391	169.61
941.56	132.8
941.73	135.32
941.899	281.01
942.069	142.87
942.238	165.35
942.408	132.02
942.577	153.33
942.747	128.34
942.916	76.8
943.086	113.42
943.255	178.91
943.425	133.38
943.594	98.31
943.763	30.69
943.933	71.38
944.102	39.61
944.271	93.08
944.441	149.85
944.61	74.29
944.779	89.59
944.948	190.53
945.117	79.9
945.287	115.17
945.456	63.05
945.625	93.47
945.794	129.31
945.963	97.34
946.132	130.28
946.301	63.05
946.47	132.99
946.639	48.91
946.808	98.7
946.977	114
947.146	159.15
947.315	106.84
947.484	147.33
947.653	86.3
947.822	99.28
947.991	81.65
948.16	176.78
948.329	162.83
948.498	105.29
948.666	112.65
948.835	132.99
949.004	71.96
949.173	50.65
949.341	96.76
949.51	122.14
949.679	151.98
949.847	133.19
950.016	217.66
950.185	182.78
950.353	61.11
950.522	112.65
950.69	150.23
950.859	97.73
951.028	176.97
951.196	118.46
951.365	117.69
951.533	122.14
951.701	141.9
951.87	150.04
952.038	68.47
952.207	108.77
952.375	150.43
952.543	81.65
952.712	96.37
952.88	78.55
953.048	163.22
953.217	129.12
953.385	108.19
953.553	157.98
953.721	64.02
953.89	119.82
954.058	42.12
954.226	87.46
954.394	123.89
954.562	33.02
954.73	95.6
954.898	97.54
955.067	149.65
955.235	89.59
955.403	128.34
955.571	168.64
955.739	124.47
955.907	53.55
956.075	75.45
956.243	75.84
956.41	95.99
956.578	29.53
956.746	34.57
956.914	88.82
957.082	136.09
957.25	133.38
957.418	79.71
957.585	106.84
957.753	140.16
957.921	76.42
958.089	110.9
958.256	137.25
958.424	90.95
958.592	106.06
958.759	90.17
958.927	133.77
959.095	54.72
959.262	101.02
959.43	121.95
959.597	103.74
959.765	146.55
959.932	92.69
960.1	114
960.267	110.9
960.435	119.43
960.602	145.78
960.77	96.76
960.937	65.37
961.104	73.7
961.272	51.62
961.439	95.02
961.606	97.73
961.774	148.88
961.941	91.53
962.108	124.08
962.275	89.98
962.443	143.84
962.61	108.19
962.777	175.62
962.944	132.02
963.111	139.19
963.278	147.72
963.446	137.25
963.613	106.64
963.78	134.54
963.947	137.06
964.114	134.35
964.281	205.65
964.448	126.79
964.615	93.47
964.782	119.62
964.949	139.97
965.116	137.25
965.282	165.35
965.449	114.97
965.616	108.77
965.783	148.3
965.95	117.3
966.117	58.4
966.283	103.35
966.45	109.16
966.617	114.78
966.784	183.56
966.95	124.27
967.117	145.39
967.284	107.61
967.45	113.42
967.617	172.9
967.784	138.03
967.95	183.75
968.117	111.68
968.283	167.87
968.45	226.57
968.616	142.48
968.783	148.3
968.949	139.38
969.116	206.23
969.282	116.33
969.449	171.55
969.615	150.62
969.781	96.37
969.948	102.57
970.114	95.21
970.28	209.33
970.447	140.16
970.613	174.26
970.779	110.32
970.945	153.33
971.112	129.7
971.278	147.52
971.444	137.64
971.61	171.35
971.776	118.85
971.942	161.47
972.108	137.64
972.275	120.2
972.441	151.2
972.607	214.56
972.773	124.08
972.939	152.75
973.105	132.41
973.271	76.42
973.437	102.77
973.602	92.11
973.768	147.52
973.934	110.9
974.1	156.43
974.266	54.91
974.432	133.77
974.598	135.9
974.763	139
974.929	94.82
975.095	171.35
975.261	91.53
975.426	113.81
975.592	122.14
975.758	187.43
975.923	72.15
976.089	93.47
976.255	182.59
976.42	126.21
976.586	114.97
976.751	125.44
976.917	204.87
977.082	139
977.248	87.46
977.413	42.71
977.579	120.4
977.744	135.9
977.91	85.91
978.075	105.29
978.24	142.48
978.406	80.1
978.571	90.75
978.736	75.64
978.902	134.54
979.067	74.29
979.232	37.86
979.397	109.74
979.563	193.05
979.728	66.15
979.893	87.65
980.058	79.9
980.223	146.55
980.388	107.42
980.554	117.69
980.719	71.19
980.884	120.01
981.049	181.04
981.214	70.41
981.379	108.77
981.544	95.79
981.709	123.5
981.874	106.45
982.039	104.9
982.204	115.94
982.368	111.68
982.533	107.8
982.698	122.92
982.863	157.4
983.028	74.67
983.193	132.22
983.357	89.4
983.522	106.45
983.687	100.25
983.852	107.03
984.016	98.31
984.181	118.27
984.346	149.65
984.51	148.49
984.675	85.33
984.839	115.75
985.004	106.06
985.168	160.31
985.333	111.1
985.498	98.7
985.662	142.29
985.827	126.4
985.991	112.07
986.155	69.44
986.32	113.81
986.484	166.9
986.649	115.17
986.813	51.04
986.977	118.27
987.142	121.56
987.306	48.52
987.47	106.25
987.634	106.45
987.799	107.8
987.963	77.77
988.127	111.68
988.291	183.95
988.455	132.22
988.62	121.37
988.784	119.43
988.948	125.82
989.112	86.69
989.276	81.84
989.44	115.55
989.604	67.5
989.768	92.89
989.932	165.54
990.096	73.7
990.26	78.94
990.424	52.97
990.588	84.17
990.752	151.98
990.915	127.18
991.079	63.05
991.243	93.27
991.407	124.27
991.571	103.93
991.734	126.4
991.898	113.62
992.062	172.13
992.226	78.55
992.389	48.91
992.553	48.91
992.717	43.87
992.88	70.02
993.044	79.52
993.207	77.58
993.371	97.73
993.535	107.22
993.698	92.89
993.862	109.94
994.025	119.43
994.189	95.99
994.352	93.47
994.515	97.73
994.679	162.05
994.842	68.67
995.006	118.65
995.169	62.85
995.332	72.15
995.496	103.93
995.659	35.15
995.822	84.55
995.985	84.36
996.149	115.75
996.312	72.93
996.475	144.62
996.638	59.95
996.801	145.2
996.964	169.42
997.128	73.7
997.291	67.5
997.454	73.7
997.617	28.76
997.78	111.49
997.943	50.84
998.106	105.29
998.269	44.26
998.432	69.25
998.595	68.47
998.758	19.65
998.92	23.14
999.083	23.52
999.246	55.49
999.409	29.72
999.572	4.34
999.735	16.55
999.897	95.99
1000.06	22.56
1000.223	91.72
1000.386	121.37
1000.548	94.82
1000.711	76.42
1000.874	97.34
1001.036	8.8
1001.199	106.45
1001.361	26.43
1001.524	80.1
1001.687	103.15
1001.849	51.23
1002.012	94.63
1002.174	81.26
1002.337	92.69
1002.499	54.91
1002.661	99.09
1002.824	13.64
1002.986	26.62
1003.149	68.67
1003.311	17.52
1003.473	120.4
1003.636	29.72
1003.798	83.59
1003.96	84.94
1004.123	64.79
1004.285	46.58
1004.447	71.19
1004.609	66.54
1004.771	118.27
1004.933	18.1
1005.096	29.72
1005.258	3.18
1005.42	19.65
1005.582	98.89
1005.744	48.13
1005.906	26.62
1006.068	63.24
1006.23	13.06
1006.392	-2.44
1006.554	31.27
1006.716	92.3
1006.878	71.57
1007.04	36.31
1007.202	40.77
1007.363	59.37
1007.525	63.63
1007.687	53.55
1007.849	92.69
1008.011	3.57
1008.172	8.61
1008.334	47.55
1008.496	86.3
1008.658	0.66
1008.819	33.6
1008.981	8.02
1009.143	3.18
1009.304	37.09
1009.466	50.26
1009.627	87.46
1009.789	146.55
1009.95	54.52
1010.112	21.01
1010.273	55.1
1010.435	21.2
1010.596	27.4
1010.758	18.49
1010.919	34.18
1011.081	16.36
1011.242	58.79
1011.403	72.35
1011.565	32.05
1011.726	70.02
1011.887	31.08
1012.049	37.28
1012.21	90.75
1012.371	96.37
1012.532	-30.34
1012.693	39.61
1012.855	22.75
1013.016	43.67
1013.177	70.6
1013.338	25.27
1013.499	101.8
1013.66	69.83
1013.821	64.21
1013.982	39.02
1014.143	29.53
1014.304	45.42
1014.465	46.58
1014.626	57.43
1014.787	30.89
1014.948	124.85
1015.109	-23.94
1015.27	79.71
1015.431	10.93
1015.592	33.02
1015.752	87.65
1015.913	33.41
1016.074	45.03
1016.235	49.1
1016.395	47.55
1016.556	-3.99
1016.717	33.6
1016.877	98.89
1017.038	21.2
1017.199	41.35
1017.359	35.73
1017.52	39.41
1017.681	9.19
1017.841	31.47
1018.002	10.93
1018.162	0.66
1018.323	93.85
1018.483	20.81
1018.644	47.55
1018.804	-25.69
1018.964	-6.31
1019.125	22.36
1019.285	26.43
1019.446	-10.58
1019.606	11.12
1019.766	-30.53
1019.926	57.43
1020.087	47.36
1020.247	-24.53
1020.407	59.37
1020.567	111.49
1020.728	31.27
1020.888	-19.49
1021.048	3.37
1021.208	-13.29
1021.368	-16
1021.528	86.88
1021.688	58.4
1021.848	64.99
1022.008	48.13
1022.168	-5.15
1022.328	32.24
1022.488	37.86
1022.648	24.3
1022.808	21.39
1022.968	13.06
1023.128	-8.25
1023.288	-4.38
1023.448	49.29
1023.608	39.61
1023.767	44.64
1023.927	-8.25
1024.087	-26.66
1024.247	-14.06
1024.406	3.18
1024.566	-46.22
1024.726	-24.91
1024.885	15.39
1025.045	26.04
1025.205	4.92
1025.364	19.65
1025.524	21.97
1025.683	36.7
1025.843	37.67
1026.003	22.56
1026.162	79.32
1026.321	90.56
1026.481	28.56
1026.64	28.56
1026.8	43.48
1026.959	24.88
1027.119	27.59
1027.278	7.06
1027.437	0.08
1027.597	25.46
1027.756	27.59
1027.915	29.14
1028.074	36.89
1028.234	-9.8
1028.393	18.29
1028.552	30.69
1028.711	-67.15
1028.87	44.06
1029.03	-39.83
1029.189	-0.5
1029.348	-47.97
1029.507	-3.79
1029.666	6.09
1029.825	-28.21
1029.984	-8.44
1030.143	28.56
1030.302	7.06
1030.461	-51.84
1030.62	13.26
1030.779	27.79
1030.938	-12.51
1031.097	-17.74
1031.255	54.91
1031.414	59.95
1031.573	62.47
1031.732	-66.96
1031.891	6.86
1032.049	52.97
1032.208	40.57
1032.367	-9.99
1032.525	1.05
1032.684	11.51
1032.843	24.49
1033.001	-36.92
1033.16	173.48
1033.319	38.64
1033.477	18.87
1033.636	-22.98
1033.794	-40.8
1033.953	51.81
1034.111	51.23
1034.27	8.99
1034.428	26.04
1034.587	18.87
1034.745	11.51
1034.903	10.74
1035.062	21.2
1035.22	-48.36
1035.378	31.27
1035.537	-27.82
1035.695	47.74
1035.853	-1.86
1036.011	18.49
1036.17	3.76
1036.328	-51.26
1036.486	36.7
1036.644	37.86
1036.802	-97.57
1036.96	-12.51
1037.119	-3.21
1037.277	-8.25
1037.435	-45.06
1037.593	-33.63
1037.751	13.64
1037.909	41.54
1038.067	41.54
