Data from gum_old_FLMT105791__49__15-43-11-258.txt Node

Date: Mon Mar 20 15:43:11 GMT 2023
User: antho
Spectrometer: FLMT10579
Trigger mode: 0
Integration Time (sec): 1.000000E-1
Scans to average: 10
Electric dark correction enabled: true
Nonlinearity correction enabled: false
Boxcar width: 0
XAxis mode: Wavelengths
Number of Pixels in Spectrum: 3648
>>>>>Begin Spectral Data<<<<<
345.248	-173.29
345.464	-173.29
345.681	-173.29
345.898	-176
346.114	-182.4
346.331	-46.97
346.548	32.66
346.764	-23.52
346.981	-15.97
347.197	1.86
347.414	27.43
347.631	-0.66
347.847	62.31
348.064	-2.02
348.28	39.06
348.497	-65.37
348.713	-8.8
348.93	52.81
349.146	50.29
349.363	39.83
349.579	59.21
349.796	13.68
350.012	14.06
350.229	78.19
350.445	44.87
350.661	14.26
350.878	30.92
351.094	50.49
351.311	59.59
351.527	42.74
351.743	36.54
351.96	71.61
352.176	79.74
352.392	83.62
352.609	91.17
352.825	34.21
353.041	19.29
353.257	20.46
353.474	39.44
353.69	57.27
353.906	59.21
354.122	12.71
354.339	79.36
354.555	42.54
354.771	48.74
354.987	116.75
355.203	108.42
355.42	15.81
355.636	20.65
355.852	41.77
356.068	46.61
356.284	33.24
356.5	79.55
356.716	69.47
356.932	64.63
357.148	72.77
357.364	70.06
357.58	86.33
357.796	114.81
358.012	89.04
358.228	63.47
358.444	-20.04
358.66	101.25
358.876	49.71
359.092	19.49
359.308	45.06
359.524	89.62
359.74	54.94
359.956	51.65
360.172	72.57
360.388	107.06
360.604	75.29
360.819	178.94
361.035	67.34
361.251	101.44
361.467	40.02
361.683	100.09
361.898	95.24
362.114	102.99
362.33	76.06
362.546	121.59
362.762	67.92
362.977	58.24
363.193	55.14
363.409	117.72
363.624	41.77
363.84	65.99
364.056	77.61
364.271	88.07
364.487	112.68
364.703	71.02
364.918	50.1
365.134	66.57
365.35	88.46
365.565	169.25
365.781	99.51
365.996	124.3
366.212	166.54
366.427	120.04
366.643	72.19
366.858	81.29
367.074	57.46
367.289	178.36
367.505	222.34
367.72	77.22
367.936	93.69
368.151	132.44
368.367	127.02
368.582	115.2
368.798	98.73
369.013	151.43
369.228	93.69
369.444	114.04
369.659	177.2
369.874	151.24
370.09	162.09
370.305	42.54
370.52	87.3
370.736	128.18
370.951	117.14
371.166	180.69
371.381	174.29
371.597	132.25
371.812	87.88
372.027	95.05
372.242	112.49
372.458	179.91
372.673	86.33
372.888	106.67
373.103	120.43
373.318	208
373.533	132.64
373.749	131.09
373.964	26.27
374.179	136.32
374.394	77.81
374.609	120.04
374.824	64.44
375.039	151.04
375.254	100.47
375.469	156.85
375.684	125.47
375.899	178.36
376.114	107.45
376.329	136.51
376.544	140.97
376.759	140.19
376.974	119.46
377.189	101.44
377.404	116.56
377.619	189.21
377.834	89.82
378.049	93.89
378.264	111.32
378.478	172.35
378.693	146.2
378.908	190.18
379.123	146.39
379.338	186.11
379.553	180.88
379.767	154.72
379.982	160.34
380.197	163.05
380.412	124.89
380.626	167.51
380.841	238.23
381.056	188.63
381.271	217.3
381.485	149.49
381.7	116.75
381.915	171.39
382.129	106.67
382.344	160.92
382.559	120.62
382.773	177.78
382.988	77.22
383.202	130.31
383.417	59.79
383.632	215.37
383.846	135.35
384.061	124.11
384.275	119.07
384.49	127.79
384.704	164.6
384.919	155.89
385.133	160.92
385.348	207.23
385.562	129.54
385.777	199.09
385.991	185.14
386.206	155.89
386.42	151.04
386.634	190.18
386.849	180.49
387.063	186.5
387.277	164.8
387.492	131.67
387.706	131.47
387.92	159.37
388.135	215.37
388.349	213.43
388.563	183.79
388.778	189.6
388.992	213.43
389.206	195.6
389.42	266.52
389.635	197.74
389.849	209.55
390.063	264.38
390.277	241.52
390.491	296.35
390.706	258.18
390.92	223.7
391.134	229.12
391.348	280.27
391.562	198.7
391.776	257.6
391.99	227.38
392.205	282.21
392.419	236.87
392.633	227.18
392.847	269.42
393.061	207.62
393.275	257.41
393.489	163.83
393.703	169.84
393.917	203.74
394.131	129.34
394.345	177.78
394.559	221.37
394.773	173.9
394.986	256.63
395.2	249.66
395.414	275.23
395.628	236.87
395.842	284.34
396.056	288.41
396.27	226.22
396.484	289.38
396.697	257.22
396.911	258.77
397.125	216.92
397.339	214.59
397.553	188.44
397.766	269.62
397.98	296.55
398.194	302.16
398.408	270.39
398.621	347.89
398.835	341.88
399.049	380.05
399.262	419.58
399.476	412.41
399.69	421.13
399.903	470.92
400.117	392.45
400.331	431.39
400.544	374.63
400.758	535.24
400.971	428.1
401.185	451.93
401.398	397.88
401.612	482.16
401.826	486.03
402.039	458.13
402.253	421.9
402.466	490.29
402.68	468.79
402.893	469.95
403.106	460.46
403.32	432.75
403.533	488.94
403.747	436.43
403.96	472.47
404.174	471.69
404.387	447.28
404.6	454.06
404.814	497.07
405.027	477.7
405.24	465.3
405.454	449.03
405.667	487.77
405.88	421.13
406.094	471.5
406.307	500.95
406.52	485.26
406.733	431.98
406.947	421.13
407.16	540.28
407.373	509.09
407.586	420.54
407.799	460.07
408.012	514.71
408.226	491.84
408.439	530.21
408.652	464.14
408.865	543.19
409.078	555.78
409.291	562.17
409.504	478.09
409.717	589.69
409.93	580.58
410.143	530.59
410.357	467.43
410.57	449.99
410.783	466.27
410.996	512.77
411.209	502.11
411.421	584.84
411.634	547.26
411.847	514.32
412.06	564.69
412.273	611.77
412.486	615.84
412.699	673.77
412.912	608.87
413.125	614.29
413.338	592.79
413.55	600.54
413.763	554.23
413.976	594.14
414.189	561.98
414.402	587.75
414.615	672.22
414.827	554.04
415.04	667.96
415.253	606.54
415.466	648.78
415.678	682.1
415.891	617.2
416.104	634.83
416.316	596.08
416.529	607.9
416.742	688.3
416.954	683.07
417.167	645.68
417.38	633.09
417.592	665.63
417.805	575.15
418.017	572.05
418.23	611.77
418.442	579.8
418.655	619.14
418.868	637.35
419.08	651.68
419.293	685.78
419.505	644.32
419.718	639.09
419.93	689.66
420.142	618.36
420.355	648.97
420.567	640.45
420.78	658.85
420.992	620.88
421.205	715.04
421.417	624.37
421.629	678.03
421.842	631.15
422.054	617.59
422.266	726.67
422.479	742.55
422.691	629.99
422.903	703.03
423.115	646.45
423.328	619.91
423.54	660.4
423.752	628.05
423.964	649.94
424.177	701.09
424.389	671.06
424.601	765.03
424.813	685.59
425.025	737.32
425.238	725.12
425.45	676.48
425.662	673
425.874	1003.14
426.086	684.04
426.298	711.36
426.51	701.28
426.722	703.22
426.934	664.86
427.146	736.55
427.358	689.08
427.57	725.12
427.782	663.5
427.994	685.2
428.206	632.89
428.418	662.92
428.63	714.46
428.842	783.24
429.054	715.43
429.266	723.57
429.478	686.75
429.69	696.05
429.902	632.12
430.114	683.07
430.325	648.78
430.537	595.89
430.749	595.11
430.961	488.74
431.173	561.2
431.384	553.26
431.596	505.79
431.808	641.42
432.02	695.47
432.231	783.05
432.443	851.63
432.655	799.9
432.867	770.06
433.078	789.25
433.29	835.74
433.502	818.11
433.713	853.96
433.925	892.71
434.136	876.63
434.348	735.96
434.56	680.55
434.771	823.73
434.983	709.62
435.194	765.22
435.406	808.43
435.617	847.56
435.829	918.28
436.04	898.71
436.252	890.58
436.463	925.06
436.675	961.49
436.886	938.04
437.098	951.99
437.309	986.09
437.521	945.02
437.732	920.02
437.943	890.38
438.155	897.94
438.366	873.53
438.578	937.07
438.789	851.44
439	873.72
439.211	858.99
439.423	862.09
439.634	921.57
439.845	950.06
440.057	937.66
440.268	1023.87
440.479	943.27
440.69	963.04
440.902	906.46
441.113	947.34
441.324	933.2
441.535	957.81
441.746	1045.77
441.957	970.98
442.168	1007.21
442.38	1033.75
442.591	1044.8
442.802	995.39
443.013	1020.39
443.224	1086.45
443.435	1021.16
443.646	994.23
443.857	1019.8
444.068	1039.18
444.279	1016.32
444.49	1114.55
444.701	1074.25
444.912	1175.77
445.123	1128.69
445.334	1092.27
445.545	1088.97
445.756	1067.85
445.967	999.07
446.178	1071.34
446.388	1056.42
446.599	1092.65
446.81	1063.98
447.021	1019.61
447.232	1108.93
447.443	1144.19
447.653	1080.64
447.864	1173.64
448.075	1170.54
448.286	1151.55
448.496	1087.03
448.707	1160.85
448.918	1105.63
449.129	1195.34
449.339	1108.54
449.55	1178.29
449.761	1137.22
449.971	1184.88
450.182	1129.66
450.393	1189.72
450.603	1193.4
450.814	1229.44
451.024	1243.39
451.235	1313.91
451.446	1274.97
451.656	1292.41
451.867	1198.25
452.077	1240.1
452.288	1293.38
452.498	1256.76
452.709	1216.46
452.919	1180.81
453.13	1148.84
453.34	1185.46
453.55	1121.72
453.761	1195.34
453.971	1154.85
454.182	1208.51
454.392	1215.68
454.602	1248.23
454.813	1234.09
455.023	1222.85
455.233	1161.82
455.444	1242.23
455.654	1114.74
455.864	1207.55
456.075	1210.84
456.285	1181.78
456.495	1217.81
456.705	1230.02
456.916	1269.35
457.126	1347.04
457.336	1254.82
457.546	1172.86
457.756	1249.98
457.967	1337.74
458.177	1236.41
458.387	1270.32
458.597	1233.51
458.807	1277.68
459.017	1208.13
459.227	1216.46
459.437	1228.08
459.647	1287.56
459.857	1283.11
460.068	1241.26
460.278	1315.66
460.488	1247.46
460.698	1319.14
460.908	1254.43
461.117	1265.09
461.327	1314.69
461.537	1314.11
461.747	1323.99
461.957	1324.96
462.167	1425.32
462.377	1377.07
462.587	1321.08
462.797	1420.28
463.007	1346.08
463.216	1416.41
463.426	1430.55
463.636	1398.77
463.846	1271.87
464.056	1333.09
464.265	1342.78
464.475	1289.31
464.685	1315.66
464.895	1341.43
465.104	1330.38
465.314	1419.89
465.524	1297.44
465.733	1270.51
465.943	1430.94
466.153	1433.46
466.362	1446.24
466.572	1418.54
466.782	1363.32
466.991	1412.53
467.201	1450.89
467.41	1305.19
467.62	1365.26
467.829	1395.09
468.039	1408.46
468.249	1397.42
468.458	1449.34
468.668	1427.06
468.877	1478.21
469.086	1487.7
469.296	1548.15
469.505	1509.21
469.715	1544.28
469.924	1472.59
470.134	1506.5
470.343	1510.76
470.552	1502.62
470.762	1468.72
470.971	1463.87
471.18	1501.27
471.39	1508.63
471.599	1486.54
471.808	1513.09
472.018	1532.65
472.227	1629.14
472.436	1686.1
472.645	1599.11
472.855	1621.39
473.064	1689.2
473.273	1704.31
473.482	1674.28
473.691	1746.16
473.901	1652.2
474.11	1624.1
474.319	1787.62
474.528	1656.26
474.737	1804.29
474.946	1744.81
475.155	1758.76
475.364	1833.16
475.573	1754.69
475.783	1833.93
475.992	1844.97
476.201	1819.98
476.41	1859.51
476.619	1763.6
476.828	1809.32
477.037	1778.52
477.245	1813.01
477.454	1827.15
477.663	1866.29
477.872	1897.87
478.081	1993.19
478.29	1892.25
478.499	2019.93
478.708	1989.7
478.917	2013.15
479.125	1913.75
479.334	1979.43
479.543	1989.7
479.752	2021.48
479.961	2020.32
480.169	2102.85
480.378	2070.11
480.587	2227.24
480.796	2116.8
481.004	2110.8
481.213	2167.37
481.422	2137.73
481.63	2167.76
481.839	2198.95
482.048	2206.89
482.256	2186.16
482.465	2207.67
482.674	2226.07
482.882	2268.51
483.091	2293.69
483.299	2209.22
483.508	2261.92
483.716	2292.14
483.925	2258.62
484.134	2265.21
484.342	2282.84
484.551	2290.01
484.759	2254.56
484.967	2355.11
485.176	2363.83
485.384	2359.57
485.593	2296.41
485.801	2333.02
486.01	2268.89
486.218	2123.58
486.426	1988.54
486.635	1989.7
486.843	1954.83
487.051	2060.61
487.26	2055.58
487.468	2148.96
487.676	2187.13
487.885	2216
488.093	2287.88
488.301	2418.85
488.509	2397.35
488.717	2415.95
488.926	2432.8
489.134	2394.83
489.342	2419.82
489.55	2361.31
489.758	2427.96
489.967	2472.72
490.175	2579.47
490.383	2572.49
490.591	2692.04
490.799	2578.5
491.007	2631.98
491.215	2603.88
491.423	2594.97
491.631	2590.9
491.839	2575.4
492.047	2586.64
492.255	2497.71
492.463	2505.65
492.671	2463.61
492.879	2556.8
493.087	2559.13
493.295	2601.17
493.503	2639.73
493.711	2753.07
493.919	2715.29
494.127	2689.91
494.334	2712.38
494.542	2656.97
494.75	2711.8
494.958	2705.99
495.166	2812.16
495.374	2819.72
495.581	2834.05
495.789	2799.95
495.997	2857.3
496.205	2743.57
496.412	2717.42
496.62	2787.17
496.828	2793.75
497.035	2791.62
497.243	2830.57
497.451	2809.64
497.658	2820.3
497.866	2847.81
498.074	2922.98
498.281	2759.65
498.489	2891.02
498.696	2765.08
498.904	2717.22
499.112	2724.78
499.319	2858.85
499.527	2851.49
499.734	2898.38
499.942	2791.43
500.149	2829.79
500.357	2830.18
500.564	2735.05
500.771	2779.8
500.979	2719.55
501.186	2745.51
501.394	2795.3
501.601	2672.47
501.808	2731.95
502.016	2717.61
502.223	2719.55
502.43	2761.98
502.638	2742.22
502.845	2767.79
503.052	2837.93
503.26	2806.15
503.467	2901.48
503.674	2872.61
503.881	2888.5
504.089	2923.95
504.296	2863.31
504.503	2766.82
504.71	2805.19
504.917	2776.51
505.125	2842.97
505.332	2845.87
505.539	2871.64
505.746	2995.06
505.953	2959.8
506.16	2986.34
506.367	3054.73
506.574	3099.49
506.781	3050.66
506.988	2985.56
507.195	3009.2
507.402	2961.54
507.609	3006.3
507.816	2939.65
508.023	2926.47
508.23	2912.72
508.437	2856.53
508.644	2921.82
508.851	2959.02
509.058	2995.83
509.265	2936.35
509.472	3045.82
509.679	3087.09
509.885	3033.81
510.092	3049.11
510.299	2994.48
510.506	2971.81
510.713	2993.51
510.92	2998.16
511.126	3047.56
511.333	3049.31
511.54	3077.4
511.746	3096.58
511.953	3140.37
512.16	3120.02
512.367	3085.15
512.573	3092.9
512.78	3049.89
512.987	3088.25
513.193	3041.94
513.4	2954.18
513.606	3047.18
513.813	3071.59
514.02	2996.61
514.226	3063.84
514.433	3082.44
514.639	2971.23
514.846	3044.66
515.052	2972.2
515.259	3059.19
515.465	3022.38
515.672	3054.93
515.878	3165.17
516.085	3139.01
516.291	3134.36
516.497	3135.33
516.704	3035.36
516.91	2941
517.117	2841.03
517.323	2697.85
517.529	2728.07
517.736	2727.49
517.942	2723.81
518.148	2789.69
518.354	2858.08
518.561	2881.33
518.767	2867.18
518.973	2878.03
519.179	2915.43
519.386	2929.76
519.592	2937.9
519.798	2945.46
520.004	3092.51
520.21	3047.18
520.417	3114.21
520.623	3129.13
520.829	3160.13
521.035	3201.2
521.241	3113.82
521.447	3167.49
521.653	3289.36
521.859	3152.77
522.065	3211.09
522.271	3331.79
522.477	3269.79
522.683	3380.61
522.889	3237.63
523.095	3206.44
523.301	3175.63
523.507	3147.15
523.713	3181.44
523.919	3177.37
524.125	3276.18
524.331	3299.82
524.537	3403.86
524.742	3406.96
524.948	3384.68
525.154	3384.3
525.36	3452.49
525.566	3360.27
525.772	3421.5
525.977	3355.82
526.183	3380.81
526.389	3398.63
526.595	3240.92
526.8	3275.8
527.006	3155.87
527.212	3051.44
527.417	3048.53
527.623	3047.95
527.829	3138.82
528.034	3190.55
528.24	3209.92
528.446	3293.62
528.651	3390.69
528.857	3418.4
529.062	3437
529.268	3480.01
529.473	3502.68
529.679	3603.23
529.884	3664.07
530.09	3580.56
530.295	3514.69
530.501	3594.71
530.706	3578.24
530.912	3537.94
531.117	3540.84
531.323	3572.04
531.528	3681.12
531.733	3656.12
531.939	3641.2
532.144	3658.64
532.35	3635.78
532.555	3664.45
532.76	3607.3
532.966	3573.39
533.171	3520.31
533.376	3461.99
533.581	3419.75
533.787	3534.64
533.992	3588.89
534.197	3610.79
534.402	3588.31
534.607	3660.39
534.813	3705.53
535.018	3579.79
535.223	3653.41
535.428	3673.95
535.633	3739.43
535.838	3742.15
536.043	3723.35
536.249	3884.94
536.454	3718.7
536.659	3795.23
536.864	3728.78
537.069	3687.51
537.274	3654.77
537.479	3653.8
537.684	3717.73
537.889	3590.25
538.094	3745.05
538.299	3730.13
538.504	3750.48
538.708	3703.79
538.913	3790.78
539.118	3750.09
539.323	3781.09
539.528	3688.67
539.733	3675.5
539.938	3687.7
540.142	3728.97
540.347	3611.17
540.552	3581.92
540.757	3554.79
540.962	3603.62
541.166	3550.92
541.371	3490.28
541.576	3601.68
541.781	3504.81
541.985	3705.53
542.19	3623.19
542.395	3761.72
542.599	3779.93
542.804	3658.06
543.008	3806.66
543.213	3652.44
543.418	3629.19
543.622	3736.72
543.827	3627.64
544.031	3723.35
544.236	3765.98
544.44	3784
544.645	3799.5
544.849	3701.46
545.054	3791.75
545.258	3813.64
545.463	3795.04
545.667	3715.41
545.872	3803.56
546.076	3752.61
546.281	3762.3
546.485	3691.19
546.689	3770.63
546.894	3787.48
547.098	3739.43
547.302	3725.48
547.507	3768.5
547.711	3785.55
547.915	3793.88
548.119	3684.22
548.324	3663.49
548.528	3699.52
548.732	3679.95
548.936	3775.28
549.141	3767.14
549.345	3746.99
549.549	3759.2
549.753	3798.91
549.957	3860.53
550.161	3899.47
550.366	3806.08
550.57	3802.4
550.774	3771.98
550.978	3800.66
551.182	3796.2
551.386	3756.1
551.59	3727.23
551.794	3697.78
551.998	3774.31
552.202	3762.3
552.406	3734.98
552.61	3831.85
552.814	3836.7
553.018	3816.35
553.222	3723.55
553.426	3741.95
553.63	3844.25
553.833	3808.41
554.037	3715.99
554.241	3708.82
554.445	3789.42
554.649	3718.51
554.853	3781.09
555.056	3835.15
555.26	3827.01
555.464	3809.18
555.668	3789.42
555.871	3858.78
556.075	3853.94
556.279	3725.1
556.483	3739.43
556.686	3704.75
556.89	3790.2
557.094	3769.08
557.297	3677.82
557.501	3725.1
557.704	3625.32
557.908	3732.27
558.112	3652.25
558.315	3725.48
558.519	3669.69
558.722	3676.47
558.926	3647.6
559.129	3528.83
559.333	3546.27
559.536	3560.02
559.74	3496.48
559.943	3508.68
560.147	3482.14
560.35	3530.96
560.553	3566.42
560.757	3486.79
560.96	3584.05
561.164	3543.36
561.367	3677.44
561.57	3545.49
561.774	3597.81
561.977	3531.74
562.18	3540.65
562.384	3654.38
562.587	3534.84
562.79	3518.76
562.993	3548.59
563.197	3531.54
563.4	3597.22
563.603	3585.79
563.806	3642.95
564.009	3482.14
564.212	3555.18
564.416	3460.44
564.619	3559.64
564.822	3398.83
565.025	3587.15
565.228	3458.89
565.431	3490.28
565.634	3400.57
565.837	3418.59
566.04	3415.68
566.243	3386.62
566.446	3280.64
566.649	3386.23
566.852	3348.84
567.055	3339.93
567.258	3396.7
567.461	3465.86
567.664	3481.17
567.867	3378.1
568.07	3398.05
568.273	3377.71
568.475	3479.81
568.678	3329.47
568.881	3329.47
569.084	3334.12
569.287	3200.24
569.489	3265.53
569.692	3348.07
569.895	3313.58
570.098	3271.15
570.3	3287.62
570.503	3215.35
570.706	3240.73
570.909	3195
571.111	3131.46
571.314	3161.1
571.516	3146.96
571.719	3224.45
571.922	3154.32
572.124	3141.34
572.327	3220.58
572.529	3170.21
572.732	3155.87
572.935	3249.45
573.137	3331.79
573.34	3208.76
573.542	3279.48
573.745	3243.25
573.947	3231.04
574.15	3187.64
574.352	3180.86
574.554	3249.06
574.757	3150.83
574.959	3087.86
575.162	3164.59
575.364	3118.67
575.566	3240.92
575.769	3094.84
575.971	3136.49
576.173	3007.07
576.376	3054.54
576.578	3146.37
576.78	3172.92
576.982	3006.3
577.185	3050.66
577.387	3055.31
577.589	3094.64
577.791	3084.76
577.993	3102.59
578.196	3092.9
578.398	3083.6
578.6	3058.61
578.802	2982.66
579.004	2981.69
579.206	3000.48
579.408	3039.23
579.61	2995.45
579.812	3038.07
580.014	3010.94
580.216	2975.68
580.418	2987.7
580.62	2989.44
580.822	3013.27
581.024	2993.31
581.226	3040.01
581.428	2961.93
581.63	3079.14
581.832	2972.78
582.034	3016.76
582.236	3012.49
582.438	3082.63
582.64	3057.64
582.841	3104.72
583.043	3107.24
583.245	3007.65
583.447	3048.53
583.649	3019.47
583.85	3055.51
584.052	3105.3
584.254	2988.86
584.456	3089.99
584.657	2985.76
584.859	3031.87
585.061	2960.38
585.262	2942.75
585.464	2925.11
585.666	2999.13
585.867	2887.53
586.069	2968.9
586.27	2889.85
586.472	2893.73
586.674	2891.98
586.875	2851.88
587.077	2930.54
587.278	2949.33
587.48	2914.65
587.681	3009.39
587.883	2933.06
588.084	2844.9
588.285	2901.87
588.487	2863.89
588.688	2870.28
588.89	2770.7
589.091	2703.47
589.292	2728.85
589.494	2599.62
589.695	2522.31
589.896	2488.41
590.098	2529.29
590.299	2578.31
590.5	2567.26
590.702	2590.51
590.903	2675.76
591.104	2720.13
591.305	2749
591.507	2757.52
591.708	2736.99
591.909	2716.45
592.11	2813.13
592.311	2772.64
592.512	2712.19
592.714	2657.36
592.915	2747.25
593.116	2734.08
593.317	2748.8
593.518	2765.27
593.719	2727.3
593.92	2789.1
594.121	2802.28
594.322	2739.12
594.523	2773.99
594.724	2694.17
594.925	2778.64
595.126	2728.46
595.327	2710.44
595.528	2691.07
595.729	2734.27
595.929	2703.27
596.13	2710.06
596.331	2754.42
596.532	2692.23
596.733	2810.61
596.934	2776.9
597.135	2801.7
597.335	2745.7
597.536	2708.51
597.737	2743.57
597.938	2689.52
598.138	2736.02
598.339	2700.17
598.54	2727.88
598.74	2685.64
598.941	2712.96
599.142	2777.29
599.342	2705.21
599.543	2666.66
599.744	2712.57
599.944	2697.46
600.145	2706.76
600.345	2641.47
600.546	2755.59
600.746	2749.77
600.947	2792.98
601.147	2659.68
601.348	2727.3
601.548	2694.94
601.749	2623.26
601.949	2555.45
602.15	2607.18
602.35	2640.89
602.551	2677.7
602.751	2658.32
602.951	2653.68
603.152	2604.08
603.352	2718
603.552	2647.28
603.753	2684.48
603.953	2740.67
604.153	2729.62
604.354	2728.07
604.554	2694.94
604.754	2701.14
604.954	2675.37
605.155	2733.5
605.355	2674.21
605.555	2706.57
605.755	2734.66
605.955	2640.11
606.155	2722.26
606.356	2665.49
606.556	2683.71
606.756	2712.38
606.956	2655.03
607.156	2712.96
607.356	2637.01
607.556	2715.67
607.756	2642.05
607.956	2729.04
608.156	2649.22
608.356	2639.53
608.556	2702.69
608.756	2591.48
608.956	2597.88
609.156	2621.71
609.356	2578.5
609.556	2583.73
609.755	2612.41
609.955	2564.36
610.155	2583.93
610.355	2610.28
610.555	2543.05
610.755	2576.37
610.954	2494.61
611.154	2566.3
611.354	2587.8
611.554	2536.46
611.753	2540.72
611.953	2484.53
612.153	2558.35
612.352	2563.97
612.552	2476.78
612.752	2482.98
612.951	2512.24
613.151	2505.26
613.351	2482.98
613.55	2561.45
613.75	2539.95
613.949	2450.05
614.149	2475.43
614.348	2485.7
614.548	2432.22
614.747	2410.52
614.947	2453.73
615.146	2400.45
615.346	2510.88
615.545	2449.08
615.745	2520.57
615.944	2462.64
616.144	2438.23
616.343	2440.36
616.542	2381.07
616.742	2392.12
616.941	2399.09
617.14	2318.69
617.34	2407.03
617.539	2355.5
617.738	2368.48
617.938	2536.65
618.137	2362.09
618.336	2357.63
618.535	2468.45
618.734	2415.37
618.934	2444.43
619.133	2471.36
619.332	2451.98
619.531	2390.95
619.73	2447.53
619.929	2462.25
620.128	2435.9
620.328	2483.76
620.527	2414.2
620.726	2377
620.925	2422.92
621.124	2414.2
621.323	2396.96
621.522	2360.73
621.721	2374.49
621.92	2334.57
622.119	2371.39
622.318	2347.75
622.517	2325.08
622.715	2320.04
622.914	2304.54
623.113	2326.82
623.312	2247.19
623.511	2327.6
623.71	2286.91
623.909	2289.43
624.107	2347.36
624.306	2255.52
624.505	2269.28
624.704	2267.15
624.902	2243.32
625.101	2333.22
625.3	2249.91
625.499	2216.58
625.697	2229.56
625.896	2183.45
626.095	2217.55
626.293	2160.01
626.492	2202.05
626.69	2228.21
626.889	2236.54
627.088	2217.16
627.286	2212.51
627.485	2193.91
627.683	2179.38
627.882	2219.1
628.08	2118.93
628.279	2141.79
628.477	2197.98
628.676	2105.37
628.874	2164.66
629.073	2146.83
629.271	2091.23
629.469	2102.66
629.668	2130.36
629.866	2120.48
630.065	2078.05
630.263	2171.44
630.461	2072.24
630.66	2132.3
630.858	2094.52
631.056	2172.21
631.254	2150.9
631.453	2085.61
631.651	2147.8
631.849	2087.16
632.047	2126.49
632.245	2078.63
632.444	2129.2
632.642	2073.98
632.84	2151.29
633.038	2061.58
633.236	2080.18
633.434	2078.25
633.632	2091.23
633.83	2085.22
634.028	2182.29
634.227	2076.89
634.425	2165.24
634.623	2121.65
634.821	2109.83
635.019	2122.03
635.216	2124.55
635.414	2148.77
635.612	2117.38
635.81	2101.88
636.008	2187.13
636.206	2138.11
636.404	2159.04
636.602	2097.81
636.8	2117.96
636.997	2146.64
637.195	2188.1
637.393	2139.66
637.591	2187.52
637.789	2135.4
637.986	2131.91
638.184	2119.32
638.382	2170.28
638.58	2193.72
638.777	2198.56
638.975	2163.69
639.173	2133.66
639.37	2144.7
639.568	2148.58
639.765	2145.86
639.963	2108.47
640.161	2141.21
640.358	2123.58
640.556	2038.14
640.753	2074.56
640.951	2037.75
641.148	2081.35
641.346	2044.92
641.543	2066.23
641.741	2094.13
641.938	2002.88
642.136	2058.48
642.333	2035.62
642.531	2115.83
642.728	2142.57
642.925	2083.86
643.123	2053.64
643.32	2076.31
643.517	2046.08
643.715	2031.75
643.912	2067.01
644.109	2093.16
644.306	2081.93
644.504	2010.05
644.701	2056.74
644.898	2074.56
645.095	2048.02
645.293	2040.08
645.49	2082.7
645.687	2020.32
645.884	2087.74
646.081	1979.43
646.278	1976.14
646.475	1979.82
646.672	1978.27
646.87	1999
647.067	1972.85
647.264	1987.38
647.461	1930.8
647.658	1889.54
647.855	1960.25
648.052	1924.22
648.249	1884.89
648.446	1921.12
648.642	1903.68
648.839	1891.47
649.036	1896.12
649.233	1883.34
649.43	1851.56
649.627	1822.89
649.824	1899.22
650.021	1848.27
650.217	1853.5
650.414	1840.52
650.611	1879.07
650.808	1947.47
651.004	1902.71
651.201	1904.65
651.398	1947.66
651.595	1871.9
651.791	1881.79
651.988	1946.11
652.185	1843.81
652.381	1912.4
652.578	1824.82
652.775	1939.52
652.971	1892.25
653.168	1869
653.364	1922.28
653.561	1826.57
653.757	1904.26
653.954	1903.49
654.15	1854.66
654.347	1974.2
654.543	1874.42
654.74	1816.88
654.936	1840.91
655.133	1816.49
655.329	1881.98
655.525	1801.57
655.722	1850.21
655.918	1767.67
656.115	1770.96
656.311	1653.55
656.507	1612.67
656.704	1534.59
656.9	1610.93
657.096	1570.63
657.292	1590.39
657.489	1666.73
657.685	1695.98
657.881	1670.8
658.077	1703.93
658.273	1720.39
658.47	1809.52
658.666	1726.59
658.862	1831.02
659.058	1761.86
659.254	1808.55
659.45	1740.16
659.646	1777.16
659.842	1770.77
660.038	1846.14
660.234	1766.31
660.43	1791.11
660.626	1880.82
660.822	1851.17
661.018	1856.21
661.214	1793.44
661.41	1795.57
661.606	1848.46
661.802	1855.44
661.998	1832.77
662.194	1776.19
662.39	1852.72
662.586	1833.74
662.781	1856.21
662.977	1887.4
663.173	1875.39
663.369	1833.74
663.564	1828.51
663.76	1854.47
663.956	1790.53
664.152	1841.29
664.347	1728.14
664.543	1819.4
664.739	1791.31
664.934	1741.71
665.13	1750.04
665.326	1808.55
665.521	1801.77
665.717	1749.84
665.912	1795.37
666.108	1688.04
666.304	1808.94
666.499	1796.34
666.695	1677.19
666.89	1745.19
667.086	1802.54
667.281	1782.01
667.477	1845.17
667.672	1735.31
667.867	1763.6
668.063	1789.95
668.258	1694.43
668.454	1726.4
668.649	1834.9
668.844	1763.79
669.04	1780.26
669.235	1739.19
669.43	1754.3
669.626	1712.26
669.821	1727.18
670.016	1724.66
670.211	1749.26
670.407	1732.02
670.602	1747.52
670.797	1709.16
670.992	1751.59
671.187	1713.03
671.382	1804.67
671.578	1701.02
671.773	1763.99
671.968	1663.05
672.163	1756.04
672.358	1734.34
672.553	1683.58
672.748	1692.69
672.943	1801.96
673.138	1715.94
673.333	1779.1
673.528	1674.86
673.723	1756.04
673.918	1719.23
674.113	1654.33
674.308	1773.87
674.503	1730.86
674.698	1771.54
674.892	1713.61
675.087	1723.49
675.282	1720.01
675.477	1698.89
675.672	1734.34
675.867	1685.13
676.061	1679.71
676.256	1635.15
676.451	1681.84
676.646	1708.38
676.84	1664.4
677.035	1646.77
677.23	1663.82
677.424	1708.77
677.619	1751.98
677.814	1732.6
678.008	1724.66
678.203	1647.55
678.397	1658.2
678.592	1690.75
678.787	1765.15
678.981	1660.33
679.176	1692.11
679.37	1708.96
679.565	1646.19
679.759	1663.24
679.954	1699.28
680.148	1700.05
680.342	1751.78
680.537	1667.11
680.731	1670.8
680.926	1706.25
681.12	1751.39
681.314	1643.67
681.509	1662.46
681.703	1668.86
681.897	1673.9
682.092	1647.93
682.286	1621.78
682.48	1710.32
682.674	1688.43
682.869	1644.45
683.063	1669.63
683.257	1683.58
683.451	1602.21
683.645	1662.08
683.839	1614.22
684.034	1641.73
684.228	1649.29
684.422	1580.32
684.616	1599.88
684.81	1620.23
685.004	1600.27
685.198	1612.67
685.392	1647.93
685.586	1574.5
685.78	1596.59
685.974	1610.54
686.168	1633.01
686.362	1655.68
686.556	1518.51
686.75	1470.27
686.944	1464.65
687.138	1441.4
687.331	1308.68
687.525	1323.99
687.719	1232.35
687.913	1348.01
688.107	1309.07
688.301	1261.79
688.494	1381.14
688.688	1287.18
688.882	1260.63
689.076	1244.36
689.269	1299.19
689.463	1397.03
689.657	1301.13
689.85	1291.05
690.044	1329.03
690.238	1349.95
690.431	1324.18
690.625	1344.53
690.818	1369.71
691.012	1388.51
691.205	1403.62
691.399	1367.58
691.593	1419.12
691.786	1447.79
691.98	1466.2
692.173	1465.04
692.366	1466.2
692.56	1455.15
692.753	1499.52
692.947	1426.67
693.14	1491.19
693.333	1458.64
693.527	1410.59
693.72	1439.27
693.914	1444.5
694.107	1431.52
694.3	1460
694.493	1411.37
694.687	1469.3
694.88	1428.42
695.073	1478.79
695.266	1509.4
695.46	1475.5
695.653	1522.38
695.846	1503.2
696.039	1432.68
696.232	1440.62
696.425	1530.13
696.618	1553
696.812	1540.98
697.005	1563.65
697.198	1688.43
697.391	1576.83
697.584	1608.41
697.777	1685.13
697.97	1659.75
698.163	1632.05
698.356	1590.78
698.549	1758.76
698.742	1668.08
698.935	1607.63
699.127	1636.31
699.32	1614.41
699.513	1656.07
699.706	1628.95
699.899	1674.28
700.092	1646.58
700.285	1704.51
700.477	1625.26
700.67	1678.93
700.863	1683.58
701.056	1746.55
701.248	1727.76
701.441	1781.62
701.634	1713.03
701.826	1790.92
702.019	1670.02
702.212	1779.1
702.404	1710.51
702.597	1747.52
702.79	1748.29
702.982	1791.11
703.175	1811.84
703.367	1819.4
703.56	1845.94
703.752	1913.95
703.945	1900.39
704.137	1933.9
704.33	1942.82
704.522	1947.66
704.715	1945.92
704.907	2015.67
705.1	1998.81
705.292	2070.11
705.484	2031.75
705.677	2057.71
705.869	2073.4
706.061	2110.02
706.254	2110.02
706.446	2073.01
706.638	2082.31
706.831	2188.68
707.023	2147.41
707.215	2280.52
707.407	2266.96
707.599	2226.07
707.792	2266.76
707.984	2245.84
708.176	2267.73
708.368	2268.51
708.56	2322.17
708.752	2280.91
708.944	2290.98
709.136	2333.6
709.329	2355.3
709.521	2503.13
709.713	2400.06
709.905	2430.87
710.097	2483.37
710.289	2443.65
710.481	2490.93
710.672	2503.71
710.864	2510.5
711.056	2585.86
711.248	2560.68
711.44	2544.21
711.632	2524.64
711.824	2613.38
712.016	2670.92
712.207	2660.46
712.399	2659.29
712.591	2751.13
712.783	2723.42
712.975	2761.01
713.166	2678.47
713.358	2740.67
713.55	2788.14
713.741	2791.04
713.933	2773.99
714.125	2799.76
714.316	2782.32
714.508	2876.29
714.7	2879.97
714.891	2846.07
715.083	2956.11
715.274	2873.77
715.466	2913.3
715.657	2956.7
715.849	2874.55
716.04	2957.47
716.232	2909.81
716.423	2927.44
716.615	2895.67
716.806	2855.56
716.998	2791.43
717.189	2771.28
717.381	2668.59
717.572	2618.22
717.763	2641.66
717.955	2622.48
718.146	2580.83
718.337	2513.79
718.528	2501.97
718.72	2456.44
718.911	2483.18
719.102	2409.36
719.293	2455.67
719.485	2454.5
719.676	2462.83
719.867	2442.68
720.058	2468.07
720.249	2449.85
720.44	2453.73
720.632	2535.68
720.823	2594.58
721.014	2696.69
721.205	2777.67
721.396	2862.92
721.587	2950.69
721.778	3022.18
721.969	3074.69
722.16	3119.44
722.351	3207.21
722.542	3284.9
722.733	3259.33
722.924	3201.59
723.115	3285.68
723.305	3244.99
723.496	3293.43
723.687	3125.64
723.878	3134.56
724.069	3147.92
724.26	3172.92
724.45	3087.48
724.641	3112.66
724.832	3112.66
725.023	3090.19
725.213	3111.31
725.404	3123.12
725.595	3065
725.785	3097.94
725.976	3187.25
726.167	3154.12
726.357	3205.27
726.548	3307.96
726.739	3209.15
726.929	3285.68
727.12	3343.61
727.31	3368.99
727.501	3361.24
727.691	3332.18
727.882	3378.68
728.072	3416.65
728.263	3390.88
728.453	3451.91
728.644	3483.11
728.834	3433.31
729.024	3412.58
729.215	3410.84
729.405	3452.88
729.596	3511.2
729.786	3573.2
729.976	3598.97
730.167	3623.77
730.357	3587.92
730.547	3633.26
730.737	3652.83
730.928	3650.7
731.118	3717.93
731.308	3681.31
731.498	3655.15
731.688	3782.83
731.879	3832.63
732.069	3884.74
732.259	3915.36
732.449	3954.69
732.639	3999.44
732.829	4047.3
733.019	4068.61
733.209	4124.41
733.399	4168.58
733.589	4247.63
733.779	4268.56
733.969	4261.78
734.159	4346.25
734.349	4396.04
734.539	4401.66
734.729	4452.62
734.919	4409.8
735.109	4557.82
735.299	4463.08
735.488	4518.49
735.678	4524.3
735.868	4526.63
736.058	4485.17
736.248	4490.59
736.437	4442.35
736.627	4458.24
736.817	4600.45
737.007	4511.52
737.196	4598.9
737.386	4566.93
737.576	4527.21
737.765	4648.11
737.955	4637.65
738.144	4757.58
738.334	4692.86
738.524	4626.8
738.713	4633.77
738.903	4632.42
739.092	4668.84
739.282	4668.26
739.471	4701.2
739.661	4707.2
739.85	4730.45
740.04	4714.76
740.229	4796.52
740.419	4798.84
740.608	4830.43
740.797	4832.36
740.987	4882.74
741.176	4876.92
741.365	4844.96
741.555	4748.28
741.744	4899.79
741.933	4854.26
742.123	4880.8
742.312	4881.57
742.501	4920.71
742.69	4945.7
742.88	4823.84
743.069	4956.94
743.258	4947.84
743.447	4972.05
743.636	5004.02
743.825	4929.43
744.014	4961.79
744.204	5063.12
744.393	4931.95
744.582	5027.66
744.771	5067.96
744.96	4992.01
745.149	5040.83
745.338	4946.48
745.527	5078.81
745.716	4996.85
745.905	5018.17
746.094	5070.48
746.283	5094.12
746.471	5021.27
746.66	5117.95
746.849	5122.21
747.038	5122.01
747.227	5063.7
747.416	5143.52
747.604	5048.97
747.793	5025.72
747.982	5136.16
748.171	5127.63
748.359	5095.08
748.548	5061.76
748.737	5114.26
748.926	5086.17
749.114	4982.52
749.303	5077.84
749.491	5074.93
749.68	4983.29
749.869	5112.91
750.057	5054.59
750.246	5037.35
750.434	4994.14
750.623	5012.74
750.811	4971.86
751	5033.86
751.188	4982.9
751.377	4965.08
751.565	4985.23
751.754	4996.27
751.942	4950.74
752.131	5001.12
752.319	4953.45
752.507	4882.16
752.696	4946.87
752.884	4983.87
753.072	4938.73
753.261	5007.12
753.449	4975.54
753.637	4899.59
753.825	5084.43
754.014	5006.74
754.202	4931.95
754.39	5018.36
754.578	4979.61
754.766	4966.63
754.955	4926.33
755.143	5021.85
755.331	4939.12
755.519	4962.56
755.707	4919.55
755.895	4886.22
756.083	4918.58
756.271	4855.81
756.459	4893.59
756.647	4924.39
756.835	4887.19
757.023	4866.07
757.211	4886.42
757.399	4878.86
757.587	4910.25
757.775	4780.63
757.963	4840.5
758.151	4854.45
758.339	4756.03
758.526	4785.09
758.714	4790.32
758.902	4738.2
759.09	4589.79
759.278	4412.9
759.465	4107.94
759.653	3692.35
759.841	3394.95
760.028	3040.59
760.216	2657.74
760.404	2492.67
760.591	2131.33
760.779	1900.77
760.967	1698.11
761.154	1513.67
761.342	1533.04
761.529	1554.93
761.717	1658.2
761.905	1696.95
762.092	1788.79
762.28	1781.43
762.467	1775.81
762.655	1731.44
762.842	1806.42
763.029	1808.55
763.217	1843.42
763.404	1829.86
763.592	1877.33
763.779	1851.95
763.966	1934.87
764.154	1985.83
764.341	2052.67
764.528	2032.33
764.716	2127.65
764.903	2178.03
765.09	2299.7
765.277	2366.15
765.465	2531.61
765.652	2602.72
765.839	2689.32
766.026	2884.23
766.213	2876.68
766.4	2983.82
766.588	3175.44
766.775	3219.8
766.962	3363.76
767.149	3429.63
767.336	3588.7
767.523	3532.71
767.71	3700.88
767.897	3837.47
768.084	3903.73
768.271	3881.64
768.458	3994.02
768.645	4094.57
768.832	4039.74
769.019	4100
769.206	4077.72
769.392	4199.97
769.579	4277.86
769.766	4246.66
769.953	4233.88
770.14	4286.19
770.327	4285.41
770.513	4283.86
770.7	4396.04
770.887	4310.02
771.073	4347.22
771.26	4321.45
771.447	4262.55
771.634	4235.43
771.82	4400.11
772.007	4259.06
772.193	4344.51
772.38	4365.82
772.567	4309.44
772.753	4277.08
772.94	4341.99
773.126	4325.13
773.313	4387.52
773.499	4306.53
773.686	4331.91
773.872	4250.93
774.059	4325.91
774.245	4240.27
774.432	4274.18
774.618	4175.75
774.804	4246.47
774.991	4186.02
775.177	4246.08
775.363	4237.56
775.55	4263.91
775.736	4149.21
775.922	4242.4
776.109	4203.65
776.295	4185.63
776.481	4256.16
776.667	4233.88
776.853	4184.28
777.04	4186.8
777.226	4180.21
777.412	4262.94
777.598	4144.56
777.784	4154.25
777.97	4106.59
778.156	4124.22
778.342	4121.31
778.528	4112.59
778.715	4050.01
778.901	4076.94
779.087	4072.49
779.272	4031.8
779.458	4040.13
779.644	4088.18
779.83	4063.77
780.016	4157.73
780.202	4075.59
780.388	4045.56
780.574	3941.9
780.76	3959.92
780.946	4033.74
781.131	4014.56
781.317	3975.61
781.503	3957.21
781.689	3971.54
781.874	4061.44
782.06	3929.89
782.246	3996.15
782.432	3931.63
782.617	3987.24
782.803	3980.26
782.989	3904.31
783.174	3888.04
783.36	3876.61
783.545	3875.45
783.731	3891.91
783.916	3735.37
784.102	3879.13
784.288	3841.15
784.473	3815.38
784.659	3783.61
784.844	3845.03
785.029	3812.48
785.215	3755.52
785.4	3717.15
785.586	3852
785.771	3778.57
785.956	3796.98
786.142	3792.72
786.327	3702.82
786.512	3759.97
786.698	3763.07
786.883	3651.09
787.068	3709.79
787.254	3728.97
787.439	3683.83
787.624	3661.74
787.809	3640.62
787.994	3653.6
788.18	3659.03
788.365	3593.74
788.55	3598.97
788.735	3607.49
788.92	3602.65
789.105	3626.09
789.29	3615.24
789.475	3554.6
789.66	3562.74
789.845	3540.84
790.03	3499.19
790.215	3548.79
790.4	3584.24
790.585	3605.94
790.77	3541.23
790.955	3472.64
791.14	3516.43
791.325	3614.66
791.51	3415.3
791.695	3489.5
791.879	3473.61
792.064	3451.53
792.249	3537.94
792.434	3466.25
792.618	3467.41
792.803	3472.45
792.988	3475.94
793.173	3489.11
793.357	3520.11
793.542	3420.14
793.727	3433.12
793.911	3526.7
794.096	3472.45
794.281	3495.7
794.465	3544.52
794.65	3430.8
794.834	3500.93
795.019	3561.57
795.203	3511.59
795.388	3479.23
795.572	3577.07
795.757	3535.81
795.941	3520.5
796.126	3497.83
796.31	3427.89
796.494	3493.76
796.679	3480.2
796.863	3479.04
797.048	3573.2
797.232	3549.95
797.416	3541.81
797.601	3491.83
797.785	3587.34
797.969	3542.59
798.153	3510.81
798.338	3560.22
798.522	3564.67
798.706	3593.16
798.89	3595.48
799.074	3681.7
799.258	3634.23
799.443	3567
799.627	3557.31
799.811	3631.9
799.995	3554.79
800.179	3545.11
800.363	3527.28
800.547	3597.22
800.731	3555.57
800.915	3497.25
801.099	3510.04
801.283	3554.6
801.467	3562.74
801.651	3549.56
801.835	3591.22
802.019	3556.15
802.202	3557.7
802.386	3476.33
802.57	3488.73
802.754	3495.12
802.938	3459.66
803.121	3477.1
803.305	3579.01
803.489	3529.22
803.673	3499.19
803.856	3546.46
804.04	3528.83
804.224	3486.59
804.407	3501.51
804.591	3508.29
804.775	3465.86
804.958	3501.32
805.142	3635.59
805.326	3474.58
805.509	3506.16
805.693	3521.66
805.876	3515.66
806.06	3535.61
806.243	3551.11
806.427	3556.34
806.61	3639.07
806.794	3476.91
806.977	3522.83
807.16	3531.35
807.344	3584.63
807.527	3511.39
807.71	3470.9
807.894	3485.63
808.077	3521.28
808.26	3467.61
808.444	3451.53
808.627	3547.62
808.81	3448.23
808.993	3410.26
809.177	3369.96
809.36	3400.96
809.543	3423.43
809.726	3358.14
809.909	3325.2
810.092	3310.48
810.276	3309.7
810.459	3301.18
810.642	3329.08
810.825	3249.06
811.008	3290.13
811.191	3161.29
811.374	3197.33
811.557	3205.27
811.74	3265.14
811.923	3149.09
812.106	3170.01
812.289	3136.69
812.472	3162.84
812.654	3174.86
812.837	3094.64
813.02	3039.04
813.203	3001.84
813.386	2874.55
813.569	2878.42
813.751	2799.57
813.934	2869.32
814.117	2812.74
814.3	2776.9
814.482	2740.09
814.665	2665.3
814.848	2612.79
815.03	2593.03
815.213	2556.03
815.396	2584.89
815.578	2503.71
815.761	2446.75
815.943	2517.47
816.126	2442.88
816.309	2396.18
816.491	2351.24
816.674	2245.84
816.856	2316.75
817.039	2328.76
817.221	2388.44
817.403	2316.94
817.586	2323.34
817.768	2363.05
817.951	2274.51
818.133	2249.71
818.315	2267.15
818.498	2343.87
818.68	2352.79
818.862	2325.66
819.045	2364.02
819.227	2351.43
819.409	2311.13
819.591	2359.76
819.774	2354.53
819.956	2311.13
820.138	2349.49
820.32	2357.05
820.502	2408
820.684	2450.82
820.866	2475.04
821.048	2609.11
821.231	2548.28
821.413	2541.88
821.595	2558.74
821.777	2571.33
821.959	2581.02
822.141	2614.93
822.323	2427.18
822.505	2373.52
822.686	2339.03
822.868	2239.83
823.05	2136.37
823.232	2091.61
823.414	2011.4
823.596	2118.55
823.778	2051.12
823.96	2095.68
824.141	2090.84
824.323	2134.24
824.505	2201.86
824.687	2283.81
824.868	2348.52
825.05	2420.4
825.232	2434.55
825.413	2529.1
825.595	2475.04
825.777	2419.05
825.958	2480.08
826.14	2441.33
826.321	2521.15
826.503	2456.25
826.685	2506.43
826.866	2503.13
827.048	2511.46
827.229	2426.41
827.411	2400.06
827.592	2343.29
827.773	2381.07
827.955	2292.72
828.136	2271.8
828.318	2280.71
828.499	2314.23
828.68	2214.26
828.862	2227.43
829.043	2282.07
829.224	2237.12
829.406	2194.11
829.587	2199.14
829.768	2206.89
829.949	2254.75
830.131	2255.33
830.312	2299.7
830.493	2214.06
830.674	2262.69
830.855	2215.23
831.036	2233.44
831.218	2275.29
831.399	2285.94
831.58	2258.43
831.761	2254.94
831.942	2238.28
832.123	2240.02
832.304	2183.26
832.485	2188.88
832.666	2218.71
832.847	2251.65
833.028	2206.12
833.209	2207.67
833.389	2203.79
833.57	2166.98
833.751	2136.76
833.932	2245.06
834.113	2206.51
834.294	2173.38
834.475	2207.67
834.655	2267.73
834.836	2317.33
835.017	2273.16
835.198	2183.45
835.378	2221.81
835.559	2305.9
835.74	2239.64
835.92	2254.17
836.101	2247.39
836.281	2270.44
836.462	2245.45
836.643	2269.28
836.823	2328.37
837.004	2289.24
837.184	2357.82
837.365	2308.22
837.545	2334.38
837.726	2268.51
837.906	2376.81
838.087	2296.02
838.267	2302.41
838.448	2234.99
838.628	2286.33
838.808	2236.15
838.989	2311.13
839.169	2206.7
839.349	2301.64
839.53	2291.17
839.71	2328.57
839.89	2262.89
840.07	2294.08
840.251	2243.12
840.431	2299.31
840.611	2253.59
840.791	2256.3
840.971	2239.44
841.151	2230.34
841.332	2174.73
841.512	2280.32
841.692	2199.34
841.872	2267.34
842.052	2210.77
842.232	2264.82
842.412	2148.77
842.592	2149.54
842.772	2265.41
842.952	2242.74
843.132	2195.46
843.312	2206.12
843.492	2178.03
843.672	2207.86
843.851	2141.41
844.031	2177.64
844.211	2135.4
844.391	2154.19
844.571	2158.26
844.751	2210.38
844.93	2138.89
845.11	2147.61
845.29	2169.5
845.47	2191.2
845.649	2135.21
845.829	2187.13
846.009	2133.08
846.188	2190.23
846.368	2163.88
846.547	2164.27
846.727	2160.98
846.907	2086.96
847.086	2123
847.266	2160.01
847.445	2135.98
847.625	2130.17
847.804	2112.35
847.984	2094.52
848.163	2088.32
848.343	2074.76
848.522	2106.15
848.701	2131.53
848.881	2079.6
849.06	2077.28
849.239	2088.9
849.419	2076.31
849.598	2005.78
849.777	2007.53
849.957	1960.45
850.136	1908.14
850.315	1897.67
850.494	1896.7
850.674	1885.85
850.853	1978.08
851.032	1943.98
851.211	2010.24
851.39	1978.85
851.569	1911.43
851.748	1910.07
851.927	1996.87
852.107	1932.55
852.286	1897.67
852.465	1879.85
852.644	1985.05
852.823	1961.8
853.002	1923.05
853.181	1936.42
853.359	1966.45
853.538	1870.36
853.717	1940.69
853.896	1832.19
854.075	1739.58
854.254	1717.29
854.433	1642.51
854.611	1671.18
854.79	1633.98
854.969	1707.41
855.148	1698.11
855.327	1664.79
855.505	1737.64
855.684	1721.17
855.863	1728.92
856.041	1722.33
856.22	1769.03
856.399	1761.28
856.577	1867.26
856.756	1847.11
856.934	1954.83
857.113	1947.85
857.291	1832.19
857.47	1822.5
857.648	1851.95
857.827	1873.07
858.005	1906.78
858.184	1843.23
858.362	1924.6
858.541	1843.62
858.719	1816.3
858.898	1791.31
859.076	1837.03
859.254	1912.2
859.433	1816.69
859.611	1795.96
859.789	1783.56
859.967	1857.96
860.146	1887.4
860.324	1788.59
860.502	1793.05
860.68	1732.79
860.859	1766.89
861.037	1794.99
861.215	1788.21
861.393	1759.92
861.571	1782.78
861.749	1747.91
861.927	1782.78
862.105	1772.71
862.283	1771.74
862.461	1755.46
862.639	1713.81
862.817	1718.65
862.995	1700.83
863.173	1703.73
863.351	1725.04
863.529	1719.43
863.707	1756.24
863.885	1783.94
864.063	1628.36
864.241	1708.58
864.418	1745.19
864.596	1693.08
864.774	1639.99
864.952	1695.79
865.129	1698.5
865.307	1654.33
865.485	1600.66
865.663	1692.3
865.84	1581.87
866.018	1590.78
866.196	1475.11
866.373	1474.34
866.551	1436.94
866.728	1399.36
866.906	1459.03
867.084	1470.65
867.261	1514.25
867.439	1511.73
867.616	1565.78
867.794	1508.24
867.971	1547.77
868.149	1559.39
868.326	1633.01
868.503	1577.6
868.681	1557.84
868.858	1551.83
869.035	1519.87
869.213	1585.35
869.39	1555.32
869.567	1638.83
869.745	1581.09
869.922	1565.4
870.099	1573.53
870.276	1615.38
870.454	1585.74
870.631	1564.62
870.808	1547.57
870.985	1587.29
871.162	1604.15
871.339	1572.57
871.517	1532.85
871.694	1478.99
871.871	1519.48
872.048	1525.48
872.225	1535.37
872.402	1560.17
872.579	1485.38
872.756	1570.05
872.933	1453.6
873.11	1491.58
873.287	1531.49
873.463	1486.54
873.64	1470.65
873.817	1527.23
873.994	1505.34
874.171	1450.7
874.348	1485.19
874.524	1395.09
874.701	1491.58
874.878	1390.83
875.055	1435
875.231	1462.71
875.408	1455.74
875.585	1393.93
875.762	1439.65
875.938	1424.16
876.115	1417.76
876.291	1407.49
876.468	1410.01
876.645	1378.62
876.821	1395.48
876.998	1413.69
877.174	1398.77
877.351	1395.09
877.527	1416.02
877.704	1407.88
877.88	1432.1
878.057	1361.57
878.233	1453.8
878.409	1378.24
878.586	1394.12
878.762	1389.47
878.938	1385.41
879.115	1267.41
879.291	1377.85
879.467	1290.86
879.644	1330.96
879.82	1374.36
879.996	1349.17
880.172	1301.32
880.349	1344.53
880.525	1355.18
880.701	1312.56
880.877	1283.69
881.053	1323.02
881.229	1338.91
881.405	1328.44
881.581	1314.69
881.757	1322.83
881.933	1346.46
882.109	1356.54
882.285	1294.73
882.461	1264.51
882.637	1292.79
882.813	1305
882.989	1286.21
883.165	1348.59
883.341	1313.33
883.517	1328.83
883.693	1322.24
883.869	1315.85
884.044	1310.43
884.22	1331.16
884.396	1359.25
884.572	1354.79
884.747	1329.99
884.923	1353.63
885.099	1363.32
885.275	1361.57
885.45	1310.81
885.626	1291.83
885.801	1286.4
885.977	1311.78
886.153	1244.16
886.328	1322.44
886.504	1273.61
886.679	1306.16
886.855	1281.56
887.03	1299.77
887.206	1305.39
887.381	1335.42
887.557	1325.73
887.732	1309.26
887.908	1316.24
888.083	1364.87
888.258	1303.64
888.434	1288.73
888.609	1297.44
888.784	1349.17
888.96	1262.96
889.135	1261.99
889.31	1284.85
889.485	1308.88
889.661	1300.54
889.836	1339.88
890.011	1328.06
890.186	1283.88
890.361	1243.39
890.537	1292.02
890.712	1263.54
890.887	1301.51
891.062	1267.22
891.237	1357.12
891.412	1267.22
891.587	1317.98
891.762	1323.21
891.937	1333.09
892.112	1276.33
892.287	1271.87
892.462	1247.46
892.637	1232.15
892.812	1240.29
892.987	1204.64
893.161	1201.35
893.336	1215.49
893.511	1209.29
893.686	1228.86
893.861	1214.71
894.035	1178.1
894.21	1203.28
894.385	1154.46
894.56	1178.68
894.734	1111.45
894.909	1125.4
895.084	1104.28
895.258	1089.55
895.433	1073.47
895.608	1107.38
895.782	1042.86
895.957	1072.89
896.131	1075.22
896.306	1006.44
896.48	986.67
896.655	995.39
896.829	911.69
897.004	915.18
897.178	950.64
897.353	952.57
897.527	990.94
897.701	949.86
897.876	885.34
898.05	988.22
898.224	951.61
898.399	1003.14
898.573	947.15
898.747	828.58
898.921	863.06
899.096	764.45
899.27	797.19
899.444	773.94
899.618	832.64
899.792	831.09
899.967	812.3
900.141	876.24
900.315	787.7
900.489	823.15
900.663	857.83
900.837	829.93
901.011	788.47
901.185	872.56
901.359	843.88
901.533	817.73
901.707	850.08
901.881	831.68
902.055	784.6
902.229	809.98
902.403	877.79
902.576	854.73
902.75	841.56
902.924	930.29
903.098	877.79
903.272	936.69
903.446	970.4
903.619	955.48
903.793	1000.24
903.967	944.24
904.14	1006.05
904.314	999.07
904.488	958.97
904.661	1027.75
904.835	977.57
905.009	1009.92
905.182	1083.94
905.356	1032.59
905.529	997.91
905.703	979.89
905.876	975.63
906.05	933.01
906.223	921.57
906.397	835.16
906.57	855.89
906.744	808.23
906.917	834.58
907.09	842.33
907.264	801.65
907.437	800.87
907.61	736.35
907.784	793.51
907.957	786.92
908.13	740.23
908.304	785.56
908.477	729.38
908.65	765.61
908.823	704.38
908.996	781.69
909.17	732.48
909.343	746.81
909.516	757.08
909.689	725.12
909.862	715.62
910.035	721.05
910.208	696.25
910.381	706.13
910.554	800.48
910.727	719.11
910.9	728.99
911.073	679
911.246	764.64
911.419	785.76
911.592	730.93
911.765	704.19
911.938	722.4
912.11	706.71
912.283	712.52
912.456	766.38
912.629	740.81
912.802	720.85
912.974	676.87
913.147	640.06
913.32	571.47
913.493	598.79
913.665	626.11
913.838	658.85
914.01	636.96
914.183	657.5
914.356	642.19
914.528	684.04
914.701	722.4
914.873	707.87
915.046	630.76
915.218	611.39
915.391	572.83
915.563	574.77
915.736	585.42
915.908	633.47
916.081	658.66
916.253	603.64
916.425	637.54
916.598	669.12
916.77	675.52
916.942	612.74
917.115	567.6
917.287	603.25
917.459	584.84
917.632	579.61
917.804	512.19
917.976	586
918.148	585.62
918.32	585.42
918.493	668.35
918.665	681.91
918.837	645.49
919.009	692.76
919.181	702.06
919.353	659.05
919.525	653.82
919.697	655.56
919.869	659.05
920.041	730.15
920.213	753.21
920.385	714.27
920.557	636.57
920.729	711.17
920.901	672.42
921.073	667.18
921.244	658.85
921.416	693.73
921.588	642.58
921.76	635.99
921.932	686.95
922.103	647.23
922.275	647.42
922.447	676.1
922.619	584.84
922.79	601.5
922.962	610.42
923.134	679.78
923.305	593.95
923.477	576.32
923.648	565.85
923.82	602.28
923.991	539.12
924.163	547.45
924.335	571.47
924.506	554.42
924.677	617.78
924.849	553.07
925.02	528.27
925.192	585.62
925.363	553.65
925.535	599.57
925.706	560.62
925.877	616.23
926.049	574.19
926.22	578.25
926.391	604.22
926.562	595.5
926.734	529.62
926.905	612.74
927.076	521.87
927.247	556.56
927.419	509.28
927.59	499.4
927.761	495.72
927.932	463.75
928.103	515.67
928.274	406.01
928.445	450.96
928.616	452.9
928.787	429.26
928.958	444.57
929.129	443.99
929.3	436.82
929.471	368.04
929.642	362.23
929.813	290.54
929.984	385.09
930.155	312.82
930.326	331.42
930.496	316.5
930.667	239.97
930.838	326.38
931.009	276.2
931.18	274.07
931.35	248.88
931.521	270.58
931.692	226.22
931.863	166.35
932.033	208.78
932.204	222.92
932.374	215.56
932.545	160.92
932.716	236.29
932.886	201.22
933.057	119.27
933.227	157.63
933.398	238.81
933.568	120.82
933.739	88.85
933.909	98.73
934.08	154.92
934.25	46.61
934.421	85.75
934.591	140
934.761	121.4
934.932	96.6
935.102	144.65
935.272	101.06
935.443	133.99
935.613	110.55
935.783	138.25
935.953	71.99
936.123	229.9
936.294	92.53
936.464	98.34
936.634	112.87
936.804	86.72
936.974	77.61
937.144	113.65
937.314	113.65
937.484	97.18
937.655	79.36
937.825	119.85
937.995	78
938.165	130.12
938.334	119.66
938.504	127.6
938.674	115.97
938.844	120.62
939.014	183.59
939.184	160.34
939.354	239.2
939.524	221.37
939.694	171.77
939.863	195.41
940.033	254.7
940.203	235.32
940.373	223.7
940.542	219.43
940.712	189.02
940.882	215.17
941.051	237.07
941.221	192.12
941.391	202.19
941.56	174.87
941.73	180.49
941.899	282.21
942.069	154.14
942.238	204.32
942.408	174.68
942.577	196.38
942.747	156.47
942.916	104.93
943.086	130.7
943.255	172.74
943.425	168.09
943.594	114.04
943.763	75.67
943.933	105.51
944.102	78
944.271	120.24
944.441	141.74
944.61	121.01
944.779	147.55
944.948	220.6
945.117	122.37
945.287	126.24
945.456	86.14
945.625	97.96
945.794	137.48
945.963	123.92
946.132	151.82
946.301	107.06
946.47	146
946.639	72.19
946.808	126.24
946.977	170.61
947.146	188.44
947.315	103.19
947.484	158.4
947.653	133.6
947.822	123.72
947.991	97.76
948.16	198.32
948.329	182.24
948.498	130.89
948.666	147.94
948.835	183.2
949.004	93.89
949.173	98.92
949.341	117.52
949.51	135.74
949.679	168.09
949.847	142.32
950.016	185.53
950.185	195.8
950.353	97.18
950.522	134.38
950.69	166.54
950.859	93.5
951.028	188.63
951.196	131.67
951.365	119.66
951.533	113.26
951.701	174.68
951.87	146.2
952.038	92.72
952.207	132.44
952.375	191.54
952.543	110.74
952.712	126.24
952.88	102.22
953.048	188.63
953.217	148.52
953.385	130.5
953.553	176.42
953.721	92.53
953.89	118.49
954.058	97.57
954.226	133.02
954.394	130.89
954.562	81.29
954.73	118.69
954.898	105.9
955.067	147.17
955.235	110.74
955.403	176.04
955.571	204.9
955.739	162.47
955.907	88.85
956.075	124.5
956.243	96.41
956.41	158.21
956.578	62.31
956.746	84.59
956.914	119.27
957.082	148.14
957.25	152.59
957.418	118.49
957.585	161.7
957.753	185.14
957.921	111.52
958.089	160.15
958.256	126.44
958.424	128.37
958.592	173.52
958.759	95.44
958.927	168.09
959.095	89.24
959.262	133.02
959.43	147.17
959.597	85.75
959.765	118.11
959.932	72.77
960.1	148.52
960.267	133.99
960.435	120.82
960.602	137.48
960.77	115.39
960.937	99.89
961.104	119.85
961.272	98.92
961.439	112.87
961.606	138.45
961.774	185.72
961.941	127.4
962.108	158.02
962.275	137.09
962.443	191.92
962.61	133.99
962.777	188.24
962.944	150.07
963.111	145.42
963.278	163.25
963.446	133.6
963.613	135.35
963.78	138.45
963.947	165.19
964.114	125.66
964.281	205.68
964.448	193.47
964.615	127.21
964.782	153.75
964.949	187.85
965.116	168.48
965.282	188.05
965.449	148.52
965.616	104.54
965.783	168.48
965.95	146.39
966.117	105.71
966.283	136.12
966.45	162.09
966.617	156.27
966.784	170.42
966.95	177.78
967.117	169.64
967.284	129.15
967.45	127.21
967.617	197.54
967.784	192.31
967.95	208
968.117	163.64
968.283	200.45
968.45	258.18
968.616	153.37
968.783	189.02
968.949	165.38
969.116	218.47
969.282	190.37
969.449	185.53
969.615	160.73
969.781	129.54
969.948	164.6
970.114	115.39
970.28	252.57
970.447	163.05
970.613	198.7
970.779	165.38
970.945	171.58
971.112	192.12
971.278	155.5
971.444	168.29
971.61	179.33
971.776	135.15
971.942	185.72
972.108	178.17
972.275	161.12
972.441	175.45
972.607	227.38
972.773	126.05
972.939	176.23
973.105	156.66
973.271	94.27
973.437	143.87
973.602	129.54
973.768	172.16
973.934	137.87
974.1	138.45
974.266	62.89
974.432	165.19
974.598	123.72
974.763	188.44
974.929	167.7
975.095	195.99
975.261	127.99
975.426	117.33
975.592	155.11
975.758	197.35
975.923	96.21
976.089	121.98
976.255	191.54
976.42	128.18
976.586	166.74
976.751	141.74
976.917	224.47
977.082	175.45
977.248	101.64
977.413	107.84
977.579	139.42
977.744	163.25
977.91	102.8
978.075	133.6
978.24	168.29
978.406	145.04
978.571	118.49
978.736	90.59
978.902	170.22
979.067	92.34
979.232	81.68
979.397	145.04
979.563	190.57
979.728	107.64
979.893	127.6
980.058	92.14
980.223	160.34
980.388	142.13
980.554	151.04
980.719	112.29
980.884	137.87
981.049	177.2
981.214	97.76
981.379	167.9
981.544	129.54
981.709	122.17
981.874	150.07
982.039	117.52
982.204	152.01
982.368	140.58
982.533	119.85
982.698	178.94
982.863	177.97
983.028	113.65
983.193	142.9
983.357	147.36
983.522	130.31
983.687	127.21
983.852	141.55
984.016	113.07
984.181	158.21
984.346	168.29
984.51	150.46
984.675	118.11
984.839	156.47
985.004	129.73
985.168	172.16
985.333	150.46
985.498	136.51
985.662	152.4
985.827	150.07
985.991	108.81
986.155	104.35
986.32	189.79
986.484	200.25
986.649	165.96
986.813	61.34
986.977	119.07
987.142	155.11
987.306	102.22
987.47	98.15
987.634	132.83
987.799	106.29
987.963	122.17
988.127	164.6
988.291	177.78
988.455	121.59
988.62	100.28
988.784	161.12
988.948	139.8
989.112	108.81
989.276	134.96
989.44	127.6
989.604	110.36
989.768	98.54
989.932	191.73
990.096	97.37
990.26	108.22
990.424	83.62
990.588	121.98
990.752	153.95
990.915	153.37
991.079	98.15
991.243	100.67
991.407	152.59
991.571	100.86
991.734	143.49
991.898	141.35
992.062	208.39
992.226	114.42
992.389	83.04
992.553	76.45
992.717	85.75
992.88	94.47
993.044	111.91
993.207	113.26
993.371	144.65
993.535	129.34
993.698	98.34
993.862	139.61
994.025	145.42
994.189	121.21
994.352	114.42
994.515	125.27
994.679	154.14
994.842	106.09
995.006	129.92
995.169	97.37
995.332	65.79
995.496	146.2
995.659	94.08
995.822	85.75
995.985	103.77
996.149	134.77
996.312	102.41
996.475	147.55
996.638	108.03
996.801	147.36
996.964	124.3
997.128	82.26
997.291	101.44
997.454	107.84
997.617	47.58
997.78	154.72
997.943	88.85
998.106	132.25
998.269	78.77
998.432	76.64
998.595	91.56
998.758	42.54
998.92	77.22
999.083	57.85
999.246	99.51
999.409	58.04
999.572	38.67
999.735	75.29
999.897	104.74
1000.06	64.44
1000.223	88.07
1000.386	115.59
1000.548	133.8
1000.711	115.78
1000.874	107.64
1001.036	35.96
1001.199	125.85
1001.361	80.91
1001.524	97.37
1001.687	111.52
1001.849	75.29
1002.012	100.28
1002.174	94.66
1002.337	103.77
1002.499	92.92
1002.661	118.3
1002.824	58.24
1002.986	57.66
1003.149	93.69
1003.311	37.12
1003.473	142.13
1003.636	48.74
1003.798	125.27
1003.96	124.5
1004.123	93.89
1004.285	75.09
1004.447	83.23
1004.609	77.42
1004.771	130.31
1004.933	9.03
1005.096	39.06
1005.258	37.7
1005.42	47.19
1005.582	134.38
1005.744	77.03
1005.906	30.92
1006.068	83.81
1006.23	26.46
1006.392	23.56
1006.554	25.3
1006.716	132.83
1006.878	94.08
1007.04	26.85
1007.202	63.66
1007.363	64.24
1007.525	71.22
1007.687	84.01
1007.849	123.53
1008.011	-3.96
1008.172	55.33
1008.334	77.81
1008.496	103.77
1008.658	33.05
1008.819	59.01
1008.981	41.38
1009.143	17.16
1009.304	66.57
1009.466	78.39
1009.627	96.41
1009.789	156.85
1009.95	71.02
1010.112	37.31
1010.273	53.01
1010.435	51.65
1010.596	48.55
1010.758	27.82
1010.919	86.52
1011.081	12.71
1011.242	36.34
1011.403	82.65
1011.565	55.91
1011.726	75.29
1011.887	26.08
1012.049	53.2
1012.21	109.58
1012.371	135.54
1012.532	-17.32
1012.693	51.65
1012.855	63.47
1013.016	51.07
1013.177	101.06
1013.338	69.86
1013.499	104.35
1013.66	66.18
1013.821	58.62
1013.982	65.6
1014.143	82.65
1014.304	39.25
1014.465	59.79
1014.626	93.69
1014.787	27.24
1014.948	124.11
1015.109	-41.16
1015.27	97.57
1015.431	54.75
1015.592	22.98
1015.752	92.53
1015.913	71.22
1016.074	55.52
1016.235	63.47
1016.395	52.04
1016.556	49.13
1016.717	44.48
1016.877	99.12
1017.038	24.72
1017.199	76.45
1017.359	50.49
1017.52	61.72
1017.681	30.14
1017.841	42.74
1018.002	33.83
1018.162	22.01
1018.323	82.65
1018.483	39.25
1018.644	28.01
1018.804	17.74
1018.964	18.33
1019.125	28.98
1019.285	50.87
1019.446	9.99
1019.606	25.69
1019.766	7.09
1019.926	69.28
1020.087	75.87
1020.247	17.16
1020.407	65.41
1020.567	100.86
1020.728	54.17
1020.888	0.69
1021.048	44.87
1021.208	28.98
1021.368	11.74
1021.528	86.91
1021.688	63.27
1021.848	66.37
1022.008	69.47
1022.168	12.71
1022.328	72.77
1022.488	47.77
1022.648	38.67
1022.808	49.91
1022.968	71.61
1023.128	35.18
1023.288	27.63
1023.448	38.86
1023.608	76.64
1023.767	36.54
1023.927	28.4
1024.087	-10.16
1024.247	10.38
1024.406	32.28
1024.566	-3.57
1024.726	-2.6
1024.885	41.77
1025.045	43.32
1025.205	35.96
1025.364	17.16
1025.524	45.45
1025.683	25.88
1025.843	37.51
1026.003	29.18
1026.162	95.05
1026.321	55.14
1026.481	54.17
1026.64	7.09
1026.8	51.07
1026.959	67.34
1027.119	29.56
1027.278	0.11
1027.437	19.49
1027.597	-4.54
1027.756	55.33
1027.915	50.87
1028.074	49.32
1028.234	-12.09
1028.393	26.66
1028.552	17.16
1028.711	-31.86
1028.87	78.19
1029.03	-10.54
1029.189	10.58
1029.348	-15.19
1029.507	4.76
1029.666	24.33
1029.825	6.89
1029.984	13.48
1030.143	56.3
1030.302	-2.02
1030.461	-22.36
1030.62	12.13
1030.779	53.01
1030.938	-6.28
1031.097	1.66
1031.255	51.07
1031.414	81.49
1031.573	73.74
1031.732	-13.06
1031.891	22.78
1032.049	50.1
1032.208	48.94
1032.367	32.66
1032.525	1.86
1032.684	23.17
1032.843	28.4
1033.001	-16.74
1033.16	164.99
1033.319	72.57
1033.477	61.14
1033.636	-2.02
1033.794	-26.24
1033.953	76.26
1034.111	62.89
1034.27	8.25
1034.428	38.28
1034.587	2.83
1034.745	16.39
1034.903	30.14
1035.062	24.14
1035.22	-11.71
1035.378	49.13
1035.537	-7.25
1035.695	52.42
1035.853	16.97
1036.011	63.86
1036.17	31.69
1036.328	-11.51
1036.486	29.95
1036.644	18.33
1036.802	-69.25
1036.96	-27.79
1037.119	16.78
1037.277	-2.21
1037.435	-40.96
1037.593	10.38
1037.751	36.15
1037.909	54.75
1038.067	54.75
