Data from gum_old_FLMT105791__27__15-42-49-259.txt Node

Date: Mon Mar 20 15:42:49 GMT 2023
User: antho
Spectrometer: FLMT10579
Trigger mode: 0
Integration Time (sec): 1.000000E-1
Scans to average: 10
Electric dark correction enabled: true
Nonlinearity correction enabled: false
Boxcar width: 0
XAxis mode: Wavelengths
Number of Pixels in Spectrum: 3648
>>>>>Begin Spectral Data<<<<<
345.248	-157.13
345.464	-157.13
345.681	-157.13
345.898	-180.77
346.114	-193.36
346.331	-54.25
346.548	23.44
346.764	-9.88
346.981	-8.14
347.197	-19.37
347.414	9.69
347.631	-14.14
347.847	73.04
348.064	10.27
348.28	0.19
348.497	-24.61
348.713	13.76
348.93	21.12
349.146	26.35
349.363	-1.55
349.579	46.11
349.796	8.33
350.012	-24.22
350.229	42.04
350.445	36.81
350.661	-21.51
350.878	33.13
351.094	41.66
351.311	52.7
351.527	45.53
351.743	11.24
351.96	63.36
352.176	57.16
352.392	50.96
352.609	69.17
352.825	10.27
353.041	41.07
353.257	15.5
353.474	39.91
353.69	42.62
353.906	22.67
354.122	23.06
354.339	110.63
354.555	26.16
354.771	45.53
354.987	74.59
355.203	71.11
355.42	25.96
355.636	35.26
355.852	18.41
356.068	43.21
356.284	-23.64
356.5	74.59
356.716	24.99
356.932	9.69
357.148	74.59
357.364	26.74
357.58	59.29
357.796	71.11
358.012	105.59
358.228	59.87
358.444	-25.19
358.66	100.17
358.876	54.44
359.092	-6.01
359.308	35.65
359.524	59.29
359.74	18.99
359.956	44.17
360.172	83.89
360.388	81.18
360.604	24.8
360.819	131.94
361.035	39.91
361.251	70.14
361.467	-1.55
361.683	78.27
361.898	63.55
362.114	75.76
362.33	61.22
362.546	70.52
362.762	76.14
362.977	52.51
363.193	30.42
363.409	94.94
363.624	51.15
363.84	55.61
364.056	23.44
364.271	117.99
364.487	89.7
364.703	37.2
364.918	33.13
365.134	50.18
365.35	63.16
365.565	147.64
365.781	102.49
365.996	103.46
366.212	140.85
366.427	90.29
366.643	74.01
366.858	85.44
367.074	56.96
367.289	144.15
367.505	200.33
367.72	51.34
367.936	86.61
368.151	114.5
368.367	98.23
368.582	80.6
368.798	66.46
369.013	110.63
369.228	79.05
369.444	90.48
369.659	150.35
369.874	108.11
370.09	165.46
370.305	32.74
370.52	78.66
370.736	160.42
370.951	102.88
371.166	131.17
371.381	139.89
371.597	127.1
371.812	77.5
372.027	80.21
372.242	98.23
372.458	160.23
372.673	85.06
372.888	69.56
373.103	106.95
373.318	171.47
373.533	79.44
373.749	110.82
373.964	33.32
374.179	99.2
374.394	49.41
374.609	133.69
374.824	42.43
375.039	130.78
375.254	78.66
375.469	146.09
375.684	109.66
375.899	135.04
376.114	134.46
376.329	109.85
376.544	116.05
376.759	141.05
376.974	73.82
377.189	101.72
377.404	105.98
377.619	167.4
377.834	58.71
378.049	95.71
378.264	101.33
378.478	150.74
378.693	104.82
378.908	152.67
379.123	113.34
379.338	173.21
379.553	135.04
379.767	129.42
379.982	143.37
380.197	123.03
380.412	124.19
380.626	131.55
380.841	206.92
381.056	182.32
381.271	208.86
381.485	108.89
381.7	131.36
381.915	137.17
382.129	107.53
382.344	133.49
382.559	118.19
382.773	146.67
382.988	38.17
383.202	122.64
383.417	66.07
383.632	179.99
383.846	103.27
384.061	120.32
384.275	99
384.49	138.92
384.704	141.44
384.919	142.6
385.133	169.53
385.348	153.64
385.562	118.77
385.777	187.93
385.991	136.59
386.206	133.3
386.42	116.05
386.634	207.31
386.849	162.17
387.063	165.27
387.277	120.12
387.492	127.1
387.706	103.85
387.92	107.53
388.135	161.97
388.349	145.31
388.563	176.31
388.778	175.53
388.992	161.2
389.206	185.22
389.42	240.83
389.635	174.57
389.849	237.53
390.063	233.47
390.277	207.12
390.491	273.76
390.706	208.08
390.92	199.37
391.134	215.64
391.348	246.64
391.562	176.12
391.776	223.58
391.99	176.31
392.205	229.59
392.419	199.75
392.633	197.04
392.847	233.66
393.061	141.82
393.275	209.44
393.489	139.11
393.703	133.69
393.917	160.04
394.131	86.61
394.345	130.78
394.559	186
394.773	179.8
394.986	198.78
395.2	169.53
395.414	286.55
395.628	197.62
395.842	269.31
396.056	235.02
396.27	185.61
396.484	228.82
396.697	210.6
396.911	229.78
397.125	164.1
397.339	197.82
397.553	159.07
397.766	217.19
397.98	234.82
398.194	297.6
398.408	241.02
398.621	308.25
398.835	312.51
399.049	317.94
399.262	362.31
399.476	376.45
399.69	365.6
399.903	408.23
400.117	355.14
400.331	396.02
400.544	360.56
400.758	475.46
400.971	391.76
401.185	396.21
401.398	322.01
401.612	421.59
401.826	399.51
402.039	421.21
402.253	393.89
402.466	454.14
402.68	390.4
402.893	426.05
403.106	431.86
403.32	411.33
403.533	446.59
403.747	404.35
403.96	426.44
404.174	456.86
404.387	385.56
404.6	436.13
404.814	481.27
405.027	442.32
405.24	401.44
405.454	401.64
405.667	445.23
405.88	363.47
406.094	464.61
406.307	504.52
406.52	426.83
406.733	389.82
406.947	388.08
407.16	489.79
407.373	469.06
407.586	408.81
407.799	412.1
408.012	449.11
408.226	433.22
408.439	516.53
408.652	427.02
408.865	491.92
409.078	571.75
409.291	512.66
409.504	435.54
409.717	518.66
409.93	502.39
410.143	508.2
410.357	416.75
410.57	389.82
410.783	415.2
410.996	452.59
411.209	460.54
411.421	561.48
411.634	513.62
411.847	472.94
412.06	551.6
412.273	544.62
412.486	508.2
412.699	611.27
412.912	550.24
413.125	577.17
413.338	535.13
413.55	552.37
413.763	508.2
413.976	571.94
414.189	519.05
414.402	525.05
414.615	634.91
414.827	493.86
415.04	560.32
415.253	596.55
415.466	578.14
415.678	605.85
415.891	562.06
416.104	534.94
416.316	531.84
416.529	537.07
416.742	620.96
416.954	608.75
417.167	589.77
417.38	568.07
417.592	611.66
417.805	576.98
418.017	510.52
418.23	567.87
418.442	538.62
418.655	544.82
418.868	564.97
419.08	593.06
419.293	621.35
419.505	600.23
419.718	597.9
419.93	638.98
420.142	564.77
420.355	624.83
420.567	606.43
420.78	621.35
420.992	587.44
421.205	646.15
421.417	587.44
421.629	628.32
421.842	621.54
422.054	613.6
422.266	653.12
422.479	680.83
422.691	595.39
422.903	629.68
423.115	628.13
423.328	621.35
423.54	611.66
423.752	574.85
423.964	607.4
424.177	635.88
424.389	625.22
424.601	731.78
424.813	655.06
425.025	658.16
425.238	651.38
425.45	645.57
425.662	620.96
425.874	920.49
426.086	641.88
426.298	669.78
426.51	662.81
426.722	626.77
426.934	665.33
427.146	664.94
427.358	636.27
427.57	689.55
427.782	621.54
427.994	609.92
428.206	603.91
428.418	625.61
428.63	688.19
428.842	716.28
429.054	655.25
429.266	695.17
429.478	612.43
429.69	612.63
429.902	589.57
430.114	646.53
430.325	592.87
430.537	546.95
430.749	523.31
430.961	473.52
431.173	494.06
431.384	546.75
431.596	476.42
431.808	579.11
432.02	654.28
432.231	743.8
432.443	792.43
432.655	770.34
432.867	690.13
433.078	732.17
433.29	773.83
433.502	769.18
433.713	797.27
433.925	802.5
434.136	797.46
434.348	702.53
434.56	633.36
434.771	798.63
434.983	662.62
435.194	739.34
435.406	763.75
435.617	815.29
435.829	906.16
436.04	856.56
436.252	817.42
436.463	865.86
436.675	884.07
436.886	883.49
437.098	876.71
437.309	956.53
437.521	875.54
437.732	884.84
437.943	836.99
438.155	825.75
438.366	783.13
438.578	885.42
438.789	793.59
439	834.47
439.211	781.77
439.423	821.1
439.634	864.5
439.845	848.81
440.057	895.89
440.268	911.39
440.479	882.13
440.69	928.24
440.902	853.07
441.113	852.88
441.324	864.5
441.535	901.89
441.746	954.79
441.957	894.34
442.168	924.76
442.38	997.41
442.591	988.3
442.802	924.37
443.013	998.77
443.224	991.99
443.435	977.26
443.646	947.62
443.857	945.29
444.068	955.56
444.279	944.91
444.49	1027.25
444.701	971.45
444.912	1101.26
445.123	1064.45
445.334	1018.14
445.545	1039.84
445.756	983.65
445.967	965.83
446.178	1014.07
446.388	972.61
446.599	993.92
446.81	980.75
447.021	960.6
447.232	1049.53
447.443	1039.26
447.653	1027.83
447.864	1085.57
448.075	1053.79
448.286	1064.45
448.496	1070.45
448.707	1115.98
448.918	1023.37
449.129	1147.56
449.339	1035.77
449.55	1108.43
449.761	1052.43
449.971	1117.73
450.182	1085.95
450.393	1125.48
450.603	1047.79
450.814	1140.98
451.024	1116.57
451.235	1197.55
451.446	1225.26
451.656	1205.11
451.867	1154.93
452.077	1137.3
452.288	1178.95
452.498	1167.91
452.709	1110.75
452.919	1120.44
453.13	1055.53
453.34	1098.74
453.55	1035.77
453.761	1098.55
453.971	1093.51
454.182	1113.08
454.392	1090.22
454.602	1185.54
454.813	1132.65
455.023	1169.26
455.233	1082.47
455.444	1139.62
455.654	1052.82
455.864	1118.89
456.075	1144.85
456.285	1127.03
456.495	1135.36
456.705	1170.62
456.916	1220.03
457.126	1257.61
457.336	1153.38
457.546	1126.83
457.756	1130.32
457.967	1225.26
458.177	1124.32
458.387	1166.36
458.597	1101.84
458.807	1183.21
459.017	1125.48
459.227	1150.28
459.437	1156.09
459.647	1193.1
459.857	1180.7
460.068	1147.76
460.278	1225.84
460.488	1204.33
460.698	1224.68
460.908	1180.5
461.117	1190.58
461.327	1231.65
461.537	1222.93
461.747	1221.19
461.957	1242.5
462.167	1343.25
462.377	1252.19
462.587	1210.34
462.797	1303.34
463.007	1256.26
463.216	1311.86
463.426	1381.42
463.636	1279.7
463.846	1194.65
464.056	1241.92
464.265	1311.09
464.475	1233.2
464.685	1264.59
464.895	1297.53
465.104	1215.57
465.314	1300.63
465.524	1231.84
465.733	1260.71
465.943	1367.47
466.153	1330.85
466.362	1338.02
466.572	1338.41
466.782	1310.7
466.991	1352.74
467.201	1341.12
467.41	1219.45
467.62	1314.19
467.829	1309.34
468.039	1330.85
468.249	1300.24
468.458	1359.91
468.668	1395.76
468.877	1359.72
469.086	1427.72
469.296	1420.36
469.505	1373.67
469.715	1425.01
469.924	1403.12
470.134	1428.5
470.343	1449.42
470.552	1392.07
470.762	1369.21
470.971	1373.09
471.18	1394.59
471.39	1408.93
471.599	1389.56
471.808	1452.72
472.018	1465.7
472.227	1506.38
472.436	1580.2
472.645	1496.31
472.855	1485.65
473.064	1581.95
473.273	1571.48
473.482	1516.46
473.691	1568.19
473.901	1554.82
474.11	1525.18
474.319	1644.53
474.528	1573.81
474.737	1664.87
474.946	1617.79
475.155	1646.27
475.364	1701.1
475.573	1673.59
475.783	1674.94
475.992	1693.93
476.201	1714.47
476.41	1714.66
476.619	1645.88
476.828	1678.82
477.037	1656.54
477.245	1660.41
477.454	1697.03
477.663	1727.26
477.872	1758.45
478.081	1855.9
478.29	1759.42
478.499	1880.9
478.708	1873.73
478.917	1884.77
479.125	1785.57
479.334	1843.12
479.543	1842.92
479.752	1881.67
479.961	1903.57
480.169	1946.77
480.378	1921.59
480.587	2072.13
480.796	1955.49
481.004	1901.24
481.213	1962.66
481.422	1943.28
481.63	2025.05
481.839	2035.7
482.048	2083.56
482.256	2039.96
482.465	2085.88
482.674	2080.07
482.882	2069.61
483.091	2179.27
483.299	2036.67
483.508	2110.49
483.716	2116.49
483.925	2151.76
484.134	2063.02
484.342	2095.57
484.551	2125.41
484.759	2133.16
484.967	2216.08
485.176	2182.76
485.384	2199.61
485.593	2183.34
485.801	2197.29
486.01	2080.65
486.218	2029.89
486.426	1870.24
486.635	1873.15
486.843	1864.04
487.051	1902.4
487.26	1914.61
487.468	1996.18
487.676	2073.1
487.885	2056.43
488.093	2161.25
488.301	2179.66
488.509	2193.61
488.717	2265.87
488.926	2226.54
489.134	2218.02
489.342	2277.69
489.55	2207.17
489.758	2222.67
489.967	2281.37
490.175	2363.91
490.383	2355
490.591	2452.84
490.799	2351.32
491.007	2417.97
491.215	2405.37
491.423	2355.19
491.631	2394.72
491.839	2369.92
492.047	2366.82
492.255	2301.52
492.463	2277.69
492.671	2237.01
492.879	2352.87
493.087	2336.98
493.295	2383.48
493.503	2391.23
493.711	2451.68
493.919	2493.72
494.127	2481.51
494.334	2494.3
494.542	2418.93
494.75	2525.11
494.958	2477.45
495.166	2598.34
495.374	2564.24
495.581	2598.34
495.789	2584.78
495.997	2691.54
496.205	2530.34
496.412	2532.08
496.62	2589.24
496.828	2565.41
497.035	2578.39
497.243	2590.79
497.451	2645.62
497.658	2621.4
497.866	2615.2
498.074	2695.02
498.281	2592.73
498.489	2673.91
498.696	2560.56
498.904	2519.88
499.112	2547
499.319	2624.31
499.527	2594.08
499.734	2657.82
499.942	2586.53
500.149	2603.96
500.357	2620.63
500.564	2557.27
500.771	2553.39
500.979	2555.91
501.186	2497.79
501.394	2590.98
501.601	2460.01
501.808	2546.23
502.016	2543.13
502.223	2519.49
502.43	2542.74
502.638	2533.25
502.845	2526.85
503.052	2653.37
503.26	2580.33
503.467	2693.09
503.674	2632.44
503.881	2651.82
504.089	2689.02
504.296	2645.42
504.503	2534.41
504.71	2596.41
504.917	2602.41
505.125	2629.73
505.332	2647.94
505.539	2651.24
505.746	2772.33
505.953	2745.79
506.16	2759.15
506.367	2796.93
506.574	2871.53
506.781	2849.05
506.988	2749.66
507.195	2763.03
507.402	2762.45
507.609	2775.43
507.816	2719.63
508.023	2710.52
508.23	2680.69
508.437	2632.83
508.644	2689.41
508.851	2745.59
509.058	2782.21
509.265	2744.62
509.472	2772.91
509.679	2873.66
509.885	2781.05
510.092	2809.33
510.299	2760.51
510.506	2751.4
510.713	2768.84
510.92	2771.94
511.126	2740.55
511.333	2793.06
511.54	2803.52
511.746	2857.38
511.953	2863
512.16	2930.04
512.367	2832.58
512.573	2804.3
512.78	2840.92
512.987	2813.98
513.193	2789.38
513.4	2689.02
513.606	2772.72
513.813	2786.67
514.02	2761.48
514.226	2808.95
514.433	2791.12
514.639	2717.11
514.846	2710.14
515.052	2724.28
515.259	2791.32
515.465	2785.89
515.672	2818.25
515.878	2897.1
516.085	2839.75
516.291	2880.05
516.497	2855.25
516.704	2764.58
516.91	2705.1
517.117	2596.41
517.323	2499.73
517.529	2507.48
517.736	2505.73
517.942	2491.2
518.148	2578.97
518.354	2664.02
518.561	2638.45
518.767	2642.91
518.973	2626.63
519.179	2648.72
519.386	2690.76
519.592	2729.32
519.798	2708.78
520.004	2851.77
520.21	2862.23
520.417	2880.63
520.623	2952.32
520.829	2918.8
521.035	2952.32
521.241	2960.46
521.447	2955.61
521.653	3076.32
521.859	2970.34
522.065	3000.76
522.271	3083.68
522.477	3075.16
522.683	3134.25
522.889	3024.2
523.095	2982.54
523.301	3001.14
523.507	2943.99
523.713	2982.74
523.919	2950.58
524.125	3092.59
524.331	3072.06
524.537	3176.49
524.742	3190.24
524.948	3157.89
525.154	3161.76
525.36	3284.4
525.566	3141.81
525.772	3236.74
525.977	3134.44
526.183	3176.29
526.389	3255.15
526.595	3103.64
526.8	3060.43
527.006	2965.3
527.212	2916.86
527.417	2879.67
527.623	2875.6
527.829	2959.88
528.034	3023.62
528.24	3061.4
528.446	3107.12
528.651	3258.25
528.857	3183.07
529.062	3211.94
529.268	3293.7
529.473	3320.25
529.679	3361.13
529.884	3381.28
530.09	3370.62
530.295	3364.81
530.501	3396.78
530.706	3351.44
530.912	3355.12
531.117	3375.27
531.323	3401.04
531.528	3462.26
531.733	3425.45
531.939	3398.91
532.144	3465.17
532.35	3462.65
532.555	3421.77
532.76	3342.72
532.966	3391.35
533.171	3302.42
533.376	3263.87
533.581	3232.67
533.787	3285.76
533.992	3361.9
534.197	3341.36
534.402	3338.26
534.607	3362.68
534.813	3441.92
535.018	3358.8
535.223	3395.81
535.428	3363.45
535.633	3415.96
535.838	3492.88
536.043	3498.11
536.249	3602.73
536.454	3518.64
536.659	3551.58
536.864	3488.23
537.069	3444.05
537.274	3441.73
537.479	3455.29
537.684	3413.83
537.889	3359.77
538.094	3558.56
538.299	3439.01
538.504	3472.34
538.708	3528.72
538.913	3584.13
539.118	3502.95
539.323	3526.39
539.528	3406.85
539.733	3462.07
539.938	3505.86
540.142	3417.51
540.347	3439.21
540.552	3379.53
540.757	3324.31
540.962	3392.32
541.166	3312.3
541.371	3246.23
541.576	3383.02
541.781	3297
541.985	3420.03
542.19	3389.41
542.395	3557.78
542.599	3550.03
542.804	3500.24
543.008	3543.06
543.213	3466.14
543.418	3436.49
543.622	3503.34
543.827	3405.69
544.031	3540.34
544.236	3572.89
544.44	3563.79
544.645	3613.97
544.849	3535.89
545.054	3621.91
545.258	3640.32
545.463	3618.04
545.667	3545.38
545.872	3553.13
546.076	3602.15
546.281	3535.69
546.485	3514.77
546.689	3576.77
546.894	3554.1
547.098	3604.28
547.302	3513.02
547.507	3521.55
547.711	3600.4
547.915	3573.67
548.119	3427.58
548.324	3520
548.528	3552.94
548.732	3506.63
548.936	3558.36
549.141	3581.61
549.345	3549.26
549.549	3564.17
549.753	3585.49
549.957	3648.26
550.161	3646.9
550.366	3600.21
550.57	3573.86
550.774	3556.04
550.978	3567.66
551.182	3565.14
551.386	3529.11
551.59	3482.41
551.794	3500.82
551.998	3554.87
552.202	3559.14
552.406	3555.07
552.61	3593.04
552.814	3534.14
553.018	3636.83
553.222	3513.41
553.426	3557.59
553.63	3589.75
553.833	3550.61
554.037	3465.36
554.241	3513.02
554.445	3586.07
554.649	3503.53
554.853	3485.9
555.056	3562.62
555.26	3635.28
555.464	3573.09
555.668	3588.78
555.871	3586.45
556.075	3601.37
556.279	3500.24
556.483	3441.92
556.686	3494.81
556.89	3539.76
557.094	3525.23
557.297	3408.59
557.501	3499.07
557.704	3412.86
557.908	3451.99
558.112	3399.68
558.315	3502.95
558.519	3451.03
558.722	3414.21
558.926	3416.34
559.129	3324.12
559.333	3309.2
559.536	3300.48
559.74	3273.94
559.943	3293.7
560.147	3274.52
560.35	3315.4
560.553	3326.64
560.757	3255.15
560.96	3368.1
561.164	3324.7
561.367	3407.63
561.57	3359.96
561.774	3369.07
561.977	3333.23
562.18	3293.32
562.384	3404.91
562.587	3357.06
562.79	3339.62
562.993	3305.91
563.197	3346.6
563.4	3383.41
563.603	3378.76
563.806	3426.23
564.009	3342.91
564.212	3371.01
564.416	3257.67
564.619	3351.05
564.822	3255.73
565.025	3391.35
565.228	3311.92
565.431	3344.46
565.634	3212.72
565.837	3258.63
566.04	3185.98
566.243	3215.62
566.446	3083.29
566.649	3194.12
566.852	3072.64
567.055	3167.57
567.258	3229.57
567.461	3267.55
567.664	3276.65
567.867	3148
568.07	3196.44
568.273	3225.7
568.475	3263.28
568.678	3181.72
568.881	3147.62
569.084	3139.87
569.287	3074.96
569.489	3110.42
569.692	3119.72
569.895	3169.7
570.098	3095.69
570.3	3072.64
570.503	3026.72
570.706	3026.91
570.909	2988.94
571.111	2953.1
571.314	2931.4
571.516	2981.96
571.719	3006.38
571.922	2958.52
572.124	3016.06
572.327	2982.74
572.529	2964.14
572.732	3004.44
572.935	3048.61
573.137	3089.88
573.34	2997.08
573.542	3051.71
573.745	3061.01
573.947	3072.06
574.15	2998.82
574.352	3007.93
574.554	3087.94
574.757	2963.36
574.959	2958.91
575.162	3010.64
575.364	2973.24
575.566	3039.12
575.769	2902.53
575.971	2950.77
576.173	2806.04
576.376	2907.76
576.578	2963.95
576.78	3018.19
576.982	2870.37
577.185	2934.11
577.387	2890.32
577.589	2893.23
577.791	2925.97
577.993	2904.66
578.196	2905.24
578.398	2908.73
578.6	2860.68
578.802	2808.56
579.004	2788.8
579.206	2858.35
579.408	2878.5
579.61	2811.85
579.812	2913.76
580.014	2819.41
580.216	2807.78
580.418	2865.13
580.62	2797.52
580.822	2801.78
581.024	2828.32
581.226	2861.45
581.428	2864.17
581.63	2940.31
581.832	2819.8
582.034	2919
582.236	2858.93
582.438	2939.53
582.64	2934.11
582.841	2890.51
583.043	2959.88
583.245	2882.77
583.447	2898.26
583.649	2857.38
583.85	2835.1
584.052	2889.74
584.254	2774.85
584.456	2895.94
584.657	2799.07
584.859	2827.74
585.061	2784.34
585.262	2855.64
585.464	2763.61
585.666	2855.83
585.867	2723.31
586.069	2806.23
586.27	2745.59
586.472	2740.55
586.674	2736.87
586.875	2712.85
587.077	2720.6
587.278	2792.09
587.48	2674.68
587.681	2879.67
587.883	2756.64
588.084	2637.48
588.285	2711.3
588.487	2684.56
588.688	2718.27
588.89	2619.08
589.091	2576.84
589.292	2539.83
589.494	2512.51
589.695	2440.83
589.896	2360.81
590.098	2352.67
590.299	2422.03
590.5	2437.73
590.702	2485.97
590.903	2521.23
591.104	2561.34
591.305	2602.99
591.507	2598.73
591.708	2577.81
591.909	2539.83
592.11	2636.71
592.311	2631.67
592.512	2618.69
592.714	2565.41
592.915	2550.1
593.116	2559.59
593.317	2596.99
593.518	2548.55
593.719	2602.61
593.92	2603.19
594.121	2643.49
594.322	2586.53
594.523	2594.47
594.724	2515.42
594.925	2577.81
595.126	2579.55
595.327	2544.29
595.528	2563.66
595.729	2552.81
595.929	2537.7
596.13	2575.87
596.331	2568.7
596.532	2564.44
596.733	2647.75
596.934	2612.29
597.135	2639.22
597.335	2563.86
597.536	2554.56
597.737	2628.18
597.938	2552.04
598.138	2574.9
598.339	2571.41
598.54	2570.64
598.74	2530.92
598.941	2522.4
599.142	2571.99
599.342	2552.62
599.543	2506.9
599.744	2542.16
599.944	2500.7
600.145	2545.06
600.345	2526.46
600.546	2614.62
600.746	2593.89
600.947	2620.24
601.147	2507.28
601.348	2577.03
601.548	2489.26
601.749	2531.31
601.949	2481.51
602.15	2450.71
602.35	2468.15
602.551	2484.03
602.751	2441.8
602.951	2499.73
603.152	2437.92
603.352	2525.11
603.552	2495.66
603.753	2580.33
603.953	2567.54
604.153	2562.5
604.354	2535.38
604.554	2508.45
604.754	2525.11
604.954	2482.68
605.155	2536.15
605.355	2514.06
605.555	2532.28
605.755	2553.01
605.955	2531.5
606.155	2552.81
606.356	2529.76
606.556	2534.41
606.756	2510.58
606.956	2477.83
607.156	2581.1
607.356	2451.87
607.556	2457.88
607.756	2515.61
607.956	2554.56
608.156	2487.13
608.356	2451.1
608.556	2463.5
608.756	2441.99
608.956	2430.17
609.156	2492.95
609.356	2419.9
609.556	2380.18
609.755	2434.82
609.955	2394.33
610.155	2476.28
610.355	2450.13
610.555	2374.57
610.755	2369.92
610.954	2328.26
611.154	2398.59
611.354	2438.89
611.554	2360.03
611.753	2389.1
611.953	2363.52
612.153	2406.34
612.352	2388.13
612.552	2366.62
612.752	2299.2
612.951	2378.83
613.151	2389.1
613.351	2334.27
613.55	2349.38
613.75	2400.92
613.949	2380.77
614.149	2351.32
614.348	2336.98
614.548	2317.99
614.747	2263.16
614.947	2321.48
615.146	2215.5
615.346	2355
615.545	2332.72
615.745	2318.38
615.944	2355.58
616.144	2320.9
616.343	2315.47
616.542	2291.84
616.742	2271.69
616.941	2264.91
617.14	2211.62
617.34	2283.89
617.539	2262.19
617.738	2244.56
617.938	2310.24
618.137	2270.14
618.336	2211.04
618.535	2314.5
618.734	2311.79
618.934	2321.48
619.133	2284.47
619.332	2324.58
619.531	2263.94
619.73	2295.9
619.929	2316.44
620.128	2322.45
620.328	2309.66
620.527	2258.51
620.726	2297.65
620.925	2294.55
621.124	2279.63
621.323	2288.35
621.522	2188.57
621.721	2218.6
621.92	2159.12
622.119	2206.01
622.318	2199.81
622.517	2210.46
622.715	2187.6
622.914	2173.46
623.113	2175.98
623.312	2089.76
623.511	2215.5
623.71	2192.06
623.909	2148.85
624.107	2234.49
624.306	2119.21
624.505	2111.46
624.704	2153.89
624.902	2153.89
625.101	2237.78
625.3	2157.96
625.499	2131.03
625.697	2131.61
625.896	2103.9
626.095	2147.69
626.293	2055.85
626.492	2075.03
626.69	2143.43
626.889	2127.93
627.088	2158.15
627.286	2115.33
627.485	2100.22
627.683	2136.84
627.882	2144.2
628.08	2031.05
628.279	2089.18
628.477	2123.47
628.676	2042.87
628.874	2089.56
629.073	2035.9
629.271	2038.03
629.469	2090.53
629.668	2040.74
629.866	2020.78
630.065	2036.28
630.263	2055.85
630.461	1988.62
630.66	2032.21
630.858	2056.63
631.056	2051.78
631.254	2075.03
631.453	2011.29
631.651	2093.83
631.849	1999.67
632.047	2011.1
632.245	2034.54
632.444	2028.73
632.642	2036.28
632.84	2107.39
633.038	2006.64
633.236	1992.11
633.434	2028.53
633.632	1997.73
633.83	1979.52
634.028	2046.94
634.227	1989.2
634.425	2067.67
634.623	2013.03
634.821	2048.68
635.019	2069.03
635.216	2010.32
635.414	2093.25
635.612	2012.84
635.81	2005.28
636.008	2020.98
636.206	2010.13
636.404	2036.09
636.602	1952.2
636.8	1963.43
636.997	2022.72
637.195	2048.3
637.393	2023.5
637.591	2083.95
637.789	2031.83
637.986	2049.85
638.184	2049.65
638.382	2091.11
638.58	2038.22
638.777	2108.55
638.975	2023.69
639.173	2040.35
639.37	2081.81
639.568	2032.41
639.765	2037.06
639.963	1980.48
640.161	2033.18
640.358	2045.78
640.556	1952.58
640.753	1949.29
640.951	1924.49
641.148	1995.79
641.346	1973.32
641.543	1983.97
641.741	1997.92
641.938	1917.71
642.136	1912.87
642.333	1892.52
642.531	2000.05
642.728	1994.05
642.925	1921.97
643.123	1934.37
643.32	1943.67
643.517	1896.98
643.715	1958.01
643.912	1946.19
644.109	1965.57
644.306	1955.49
644.504	1889.42
644.701	1938.44
644.898	1933.98
645.095	1902.4
645.293	1900.27
645.49	1940.77
645.687	1901.82
645.884	1941.93
646.081	1822.58
646.278	1880.7
646.475	1861.72
646.672	1858.04
646.87	1872.57
647.067	1891.94
647.264	1885.55
647.461	1817.16
647.658	1787.12
647.855	1856.29
648.052	1812.31
648.249	1746.24
648.446	1803.4
648.642	1803.21
648.839	1768.72
649.036	1786.35
649.233	1749.34
649.43	1799.33
649.627	1735.01
649.824	1739.66
650.021	1743.92
650.217	1743.92
650.414	1790.61
650.611	1770.66
650.808	1804.17
651.004	1803.59
651.201	1835.95
651.398	1826.65
651.595	1774.34
651.791	1792.16
651.988	1847.38
652.185	1744.31
652.381	1807.47
652.578	1702.84
652.775	1773.76
652.971	1769.49
653.168	1796.81
653.364	1854.94
653.561	1710.79
653.757	1786.35
653.954	1792.36
654.15	1713.11
654.347	1858.42
654.543	1761.55
654.74	1769.11
654.936	1712.73
655.133	1767.56
655.329	1721.06
655.525	1753.22
655.722	1766.2
655.918	1671.07
656.115	1687.93
656.311	1573.42
656.507	1530.02
656.704	1512.58
656.9	1488.37
657.096	1527.89
657.292	1500.77
657.489	1577.3
657.685	1594.35
657.881	1575.75
658.077	1596.86
658.273	1638.91
658.47	1681.34
658.666	1667
658.862	1728.03
659.058	1678.04
659.254	1755.35
659.45	1709.43
659.646	1696.45
659.842	1701.29
660.038	1742.37
660.234	1688.7
660.43	1731.52
660.626	1785.38
660.822	1781.7
661.018	1762.52
661.214	1693.93
661.41	1733.84
661.606	1773.37
661.802	1807.47
661.998	1771.82
662.194	1739.27
662.39	1741.98
662.586	1742.56
662.781	1774.14
662.977	1772.79
663.173	1768.52
663.369	1748.57
663.564	1740.24
663.76	1768.14
663.956	1729.97
664.152	1781.89
664.347	1666.23
664.543	1730.16
664.739	1695.29
664.934	1637.94
665.13	1644.14
665.326	1742.18
665.521	1691.41
665.717	1667.19
665.912	1690.25
666.108	1597.25
666.304	1704.98
666.499	1689.86
666.695	1603.45
666.89	1666.42
667.086	1731.71
667.281	1679.98
667.477	1735.98
667.672	1716.99
667.867	1703.81
668.063	1739.85
668.258	1658.48
668.454	1661.38
668.649	1735.98
668.844	1711.37
669.04	1710.59
669.235	1653.05
669.43	1661.58
669.626	1636.78
669.821	1682.89
670.016	1650.53
670.211	1662.74
670.407	1582.53
670.602	1666.81
670.797	1656.54
670.992	1681.34
671.187	1623.02
671.382	1699.16
671.578	1602.87
671.773	1674.17
671.968	1608.49
672.163	1584.27
672.358	1629.41
672.553	1599.96
672.748	1617.21
672.943	1708.08
673.138	1655.18
673.333	1655.38
673.528	1593.38
673.723	1630.38
673.918	1640.85
674.113	1582.14
674.308	1699.36
674.503	1645.3
674.698	1665.84
674.892	1625.15
675.087	1622.83
675.282	1628.25
675.477	1597.25
675.672	1622.83
675.867	1582.33
676.061	1584.85
676.256	1553.85
676.451	1594.93
676.646	1588.53
676.84	1580.98
677.035	1548.82
677.23	1571.29
677.424	1629.22
677.619	1595.51
677.814	1630.96
678.008	1630.96
678.203	1530.8
678.397	1558.12
678.592	1565.48
678.787	1638.13
678.981	1541.07
679.176	1569.55
679.37	1570.9
679.565	1564.32
679.759	1558.89
679.954	1585.24
680.148	1586.98
680.342	1600.35
680.537	1609.26
680.731	1524.6
680.926	1573.42
681.12	1540.29
681.314	1530.22
681.509	1541.65
681.703	1534.28
681.897	1557.15
682.092	1554.24
682.286	1493.21
682.48	1606.55
682.674	1574.78
682.869	1520.53
683.063	1527.12
683.257	1595.31
683.451	1502.9
683.645	1551.72
683.839	1530.99
684.034	1496.31
684.228	1527.5
684.422	1472.29
684.616	1484.1
684.81	1517.04
685.004	1488.75
685.198	1480.42
685.392	1500.38
685.586	1486.23
685.78	1475.58
685.974	1493.6
686.168	1514.52
686.362	1531.18
686.556	1383.74
686.75	1379.29
686.944	1333.37
687.138	1323.1
687.331	1214.8
687.525	1245.41
687.719	1161.13
687.913	1212.28
688.107	1222.55
688.301	1191.16
688.494	1251.41
688.688	1214.99
688.882	1184.76
689.076	1209.37
689.269	1216.93
689.463	1305.28
689.657	1232.23
689.85	1227.78
690.044	1210.73
690.238	1256.45
690.431	1265.94
690.625	1229.71
690.818	1282.41
691.012	1300.43
691.205	1345.96
691.399	1285.51
691.593	1323.1
691.786	1350.42
691.98	1374.83
692.173	1371.54
692.366	1354.29
692.56	1365.34
692.753	1447.29
692.947	1328.14
693.14	1375.41
693.333	1385.87
693.527	1312.83
693.72	1374.06
693.914	1331.82
694.107	1336.86
694.3	1347.32
694.493	1297.14
694.687	1406.41
694.88	1321.36
695.073	1422.49
695.266	1388.39
695.46	1375.99
695.653	1418.62
695.846	1405.25
696.039	1336.66
696.232	1380.45
696.425	1455.43
696.618	1439.54
696.812	1449.81
697.005	1493.21
697.198	1570.71
697.391	1487.98
697.584	1528.86
697.777	1564.51
697.97	1550.17
698.163	1549.78
698.356	1546.88
698.549	1600.35
698.742	1582.33
698.935	1525.76
699.127	1557.73
699.32	1540.1
699.513	1536.61
699.706	1592.99
699.899	1605
700.092	1594.35
700.285	1609.07
700.477	1530.02
700.67	1590.86
700.863	1631.55
701.056	1731.33
701.248	1691.99
701.441	1683.86
701.634	1662.93
701.826	1749.15
702.019	1634.06
702.212	1760.58
702.404	1647.24
702.597	1667.58
702.79	1651.7
702.982	1699.16
703.175	1749.34
703.367	1738.69
703.56	1772.4
703.752	1873.92
703.945	1808.82
704.137	1834.21
704.33	1842.92
704.522	1857.45
704.715	1904.34
704.907	1914.61
705.1	1944.45
705.292	1972.15
705.484	1918.49
705.677	1983.97
705.869	1993.85
706.061	2045.39
706.254	2093.44
706.446	2004.51
706.638	2014.58
706.831	2114.36
707.023	2073.87
707.215	2150.98
707.407	2156.41
707.599	2141.1
707.792	2200.97
707.984	2177.14
708.176	2204.46
708.368	2203.49
708.56	2229.64
708.752	2222.47
708.944	2222.67
709.136	2268.01
709.329	2260.45
709.521	2405.57
709.713	2346.67
709.905	2354.8
710.097	2424.55
710.289	2361.97
710.481	2403.43
710.672	2439.08
710.864	2457.68
711.056	2497.01
711.248	2483.06
711.44	2474.93
711.632	2481.32
711.824	2540.61
712.016	2584.59
712.207	2596.79
712.399	2535.18
712.591	2653.76
712.783	2601.06
712.975	2643.68
713.166	2609.58
713.358	2635.35
713.55	2751.21
713.741	2707.04
713.933	2711.69
714.125	2703.74
714.316	2708.2
714.508	2772.72
714.7	2739.78
714.891	2783.57
715.083	2874.05
715.274	2792.09
715.466	2813.79
715.657	2848.28
715.849	2748.3
716.04	2840.92
716.232	2797.71
716.423	2857.38
716.615	2774.85
716.806	2755.28
716.998	2694.64
717.189	2640
717.381	2560.95
717.572	2515.03
717.763	2570.83
717.955	2493.72
718.146	2514.06
718.337	2419.32
718.528	2426.1
718.72	2343.76
718.911	2376.5
719.102	2368.95
719.293	2416.61
719.485	2387.74
719.676	2364.88
719.867	2346.09
720.058	2374.57
720.249	2373.4
720.44	2363.52
720.632	2464.66
720.823	2493.72
721.014	2649.11
721.205	2664.8
721.396	2717.89
721.587	2861.45
721.778	2902.91
721.969	2959.88
722.16	3009.48
722.351	3028.08
722.542	3139.48
722.733	3162.15
722.924	3097.05
723.115	3165.64
723.305	3122.62
723.496	3139.87
723.687	3006.96
723.878	3055.2
724.069	3031.76
724.26	3072.83
724.45	2980.61
724.641	2958.52
724.832	3002.89
725.023	2998.63
725.213	2999.59
725.404	2973.05
725.595	3018
725.785	2992.62
725.976	3083.87
726.167	3076.51
726.357	3098.79
726.548	3204.97
726.739	3075.35
726.929	3251.85
727.12	3245.65
727.31	3254.76
727.501	3182.49
727.691	3207.87
727.882	3247.78
728.072	3275.88
728.263	3270.45
728.453	3362.29
728.644	3341.17
728.834	3319.28
729.024	3323.35
729.215	3266
729.405	3385.93
729.596	3370.04
729.786	3416.15
729.976	3470.01
730.167	3482.41
730.357	3442.5
730.547	3509.92
730.737	3522.91
730.928	3531.24
731.118	3599.05
731.308	3533.95
731.498	3549.84
731.688	3666.86
731.879	3656.98
732.069	3745.13
732.259	3771.87
732.449	3813.53
732.639	3873.2
732.829	3911.95
733.019	3929.58
733.209	4018.12
733.399	4002.82
733.589	4123.72
733.779	4119.26
733.969	4078.96
734.159	4263.21
734.349	4257.4
734.539	4297.7
734.729	4265.15
734.919	4346.72
735.109	4400
735.299	4332.58
735.488	4374.62
735.678	4365.9
735.868	4386.44
736.058	4365.71
736.248	4362.8
736.437	4329.48
736.627	4341.1
736.817	4455.22
737.007	4364.16
737.196	4478.85
737.386	4436.04
737.576	4402.91
737.765	4532.14
737.955	4519.35
738.144	4638.11
738.334	4560.81
738.524	4477.69
738.713	4548.99
738.903	4536.01
739.092	4575.34
739.282	4613.9
739.471	4587.55
739.661	4572.82
739.85	4653.81
740.04	4670.86
740.229	4673.96
740.419	4653.42
740.608	4683.26
740.797	4684.61
740.987	4742.35
741.176	4749.71
741.365	4721.81
741.555	4605.18
741.744	4786.72
741.933	4741.96
742.123	4737.12
742.312	4758.04
742.501	4802.61
742.69	4834.19
742.88	4689.85
743.069	4880.88
743.258	4861.12
743.447	4917.5
743.636	4849.88
743.825	4840
744.014	4911.1
744.204	4933.97
744.393	4806.48
744.582	4953.34
744.771	4952.95
744.96	4866.35
745.149	4899.29
745.338	4885.72
745.527	4944.04
745.716	4942.1
745.905	4950.05
746.094	4971.94
746.283	4998.48
746.471	4934.74
746.66	4998.1
746.849	5021.73
747.038	5057.97
747.227	4986.28
747.416	5013.98
747.604	4945.4
747.793	4951.02
747.982	4974.46
748.171	5010.5
748.359	4965.35
748.548	4952.76
748.737	4983.95
748.926	5023.87
749.114	4895.02
749.303	4966.71
749.491	4982.6
749.68	4915.95
749.869	5012.05
750.057	4918.08
750.246	4928.15
750.434	4922.15
750.623	4955.47
750.811	4890.76
751	4915.37
751.188	4907.62
751.377	4873.71
751.565	4905.29
751.754	4867.9
751.942	4868.48
752.131	4987.44
752.319	4864.22
752.507	4825.86
752.696	4933.58
752.884	4867.12
753.072	4846.01
753.261	4895.22
753.449	4904.71
753.637	4816.36
753.825	4952.57
754.014	4890.96
754.202	4888.05
754.39	4950.44
754.578	4879.33
754.766	4883.79
754.955	4791.18
755.143	4888.82
755.331	4828.76
755.519	4858.02
755.707	4864.61
755.895	4826.44
756.083	4780.71
756.271	4783.23
756.459	4767.54
756.647	4914.59
756.835	4777.42
757.023	4735.76
757.211	4769.67
757.399	4722.78
757.587	4773.93
757.775	4710.96
757.963	4682.87
758.151	4736.93
758.339	4695.66
758.526	4716.39
758.714	4722.78
758.902	4578.63
759.09	4493.39
759.278	4314.94
759.465	4080.7
759.653	3637.6
759.841	3351.25
760.028	2908.15
760.216	2580.91
760.404	2419.13
760.591	2126.57
760.779	1848.93
760.967	1672.43
761.154	1460.47
761.342	1519.75
761.529	1527.12
761.717	1607.52
761.905	1586.98
762.092	1735.98
762.28	1745.08
762.467	1778.79
762.655	1704.78
762.842	1752.83
763.029	1785.96
763.217	1791.97
763.404	1816.77
763.592	1850.29
763.779	1793.91
763.966	1876.25
764.154	1927.78
764.341	1993.66
764.528	2007.8
764.716	2094.8
764.903	2125.41
765.09	2258.71
765.277	2310.63
765.465	2459.62
765.652	2559.01
765.839	2620.82
766.026	2793.25
766.213	2820.18
766.4	2927.91
766.588	3158.08
766.775	3145.1
766.962	3281.69
767.149	3357.83
767.336	3576.57
767.523	3476.99
767.71	3658.72
767.897	3758.7
768.084	3844.14
768.271	3860.61
768.458	3902.26
768.645	3965.04
768.832	3948.18
769.019	3978.79
769.206	4039.44
769.392	4118.29
769.579	4163.82
769.766	4125.27
769.953	4124.3
770.14	4192.3
770.327	4142.7
770.513	4205.67
770.7	4279.3
770.887	4132.43
771.073	4247.71
771.26	4298.28
771.447	4198.7
771.634	4132.24
771.82	4247.13
772.007	4161.3
772.193	4203.35
772.38	4229.89
772.567	4175.83
772.753	4166.34
772.94	4220.59
773.126	4225.82
773.313	4288.01
773.499	4208.19
773.686	4278.52
773.872	4164.21
774.059	4186.68
774.245	4174.67
774.432	4196.56
774.618	4072.18
774.804	4111.12
774.991	4095.62
775.177	4128.95
775.363	4181.84
775.55	4124.49
775.736	4067.53
775.922	4104.34
776.109	4103.37
776.295	4125.46
776.481	4130.5
776.667	4120.03
776.853	4068.5
777.04	4067.53
777.226	4091.94
777.412	4140.77
777.598	4015.22
777.784	4045.83
777.97	4004.56
778.156	4016.19
778.342	4012.51
778.528	4011.54
778.715	3920.48
778.901	3948.57
779.087	4023.16
779.272	3952.64
779.458	3940.24
779.644	3941.4
779.83	3930.16
780.016	4043.12
780.202	3946.05
780.388	3931.71
780.574	3809.65
780.76	3882.69
780.946	3943.53
781.131	3856.15
781.317	3846.08
781.503	3831.74
781.689	3878.04
781.874	3996.62
782.06	3837.16
782.246	3916.21
782.432	3905.56
782.617	3804.81
782.803	3885.41
782.989	3773.81
783.174	3830.38
783.36	3778.07
783.545	3760.44
783.731	3799.77
783.916	3682.75
784.102	3813.91
784.288	3711.03
784.473	3712.58
784.659	3698.05
784.844	3767.41
785.029	3676.35
785.215	3684.68
785.4	3649.62
785.586	3738.35
785.771	3588.78
785.956	3708.9
786.142	3630.82
786.327	3632.95
786.512	3633.15
786.698	3631.79
786.883	3548.48
787.068	3617.26
787.254	3649.04
787.439	3564.95
787.624	3565.53
787.809	3606.41
787.994	3569.21
788.18	3588.97
788.365	3502.95
788.55	3524.26
788.735	3568.05
788.92	3516.71
789.105	3503.92
789.29	3552.36
789.475	3428.94
789.66	3447.54
789.845	3441.92
790.03	3439.01
790.215	3487.26
790.4	3494.04
790.585	3474.86
790.77	3419.06
790.955	3387.48
791.14	3441.73
791.325	3484.93
791.51	3300.1
791.695	3381.47
791.879	3351.05
792.064	3353.38
792.249	3420.22
792.434	3367.71
792.618	3381.66
792.803	3414.21
792.988	3368.3
793.173	3356.28
793.357	3384.57
793.542	3343.5
793.727	3371.01
793.911	3420.03
794.096	3374.69
794.281	3401.62
794.465	3508.18
794.65	3384.96
794.834	3416.15
795.019	3435.53
795.203	3414.79
795.388	3439.4
795.572	3438.04
795.757	3444.24
795.941	3450.44
796.126	3443.08
796.31	3354.54
796.494	3434.75
796.679	3418.48
796.863	3347.37
797.048	3435.72
797.232	3413.24
797.416	3451.99
797.601	3430.1
797.785	3488.23
797.969	3471.76
798.153	3388.06
798.338	3471.18
798.522	3510.51
798.706	3490.36
798.89	3497.33
799.074	3579.09
799.258	3535.11
799.443	3479.7
799.627	3468.27
799.811	3544.41
799.995	3471.37
800.179	3434.75
800.363	3429.91
800.547	3492.68
800.731	3506.63
800.915	3432.62
801.099	3422.54
801.283	3451.22
801.467	3466.91
801.651	3407.43
801.835	3433.78
802.019	3448.7
802.202	3454.32
802.386	3411.5
802.57	3388.25
802.754	3423.51
802.938	3402.78
803.121	3349.11
803.305	3501.21
803.489	3388.45
803.673	3417.31
803.856	3467.69
804.04	3424.48
804.224	3440.76
804.407	3451.61
804.591	3373.14
804.775	3371.78
804.958	3411.89
805.142	3552.55
805.326	3394.06
805.509	3436.11
805.693	3469.24
805.876	3417.7
806.06	3443.66
806.243	3467.3
806.427	3480.67
806.61	3499.46
806.794	3446.57
806.977	3467.11
807.16	3482.8
807.344	3460.52
807.527	3414.99
807.71	3430.49
807.894	3400.85
808.077	3483.96
808.26	3381.86
808.444	3372.95
808.627	3437.66
808.81	3368.1
808.993	3295.06
809.177	3289.44
809.36	3340.01
809.543	3377.98
809.726	3262.32
809.909	3262.7
810.092	3253.98
810.276	3240.62
810.459	3229.19
810.642	3270.45
810.825	3147.04
811.008	3247.98
811.191	3077.87
811.374	3104.22
811.557	3100.15
811.74	3203.8
811.923	3115.46
812.106	3058.49
812.289	3016.45
812.472	3068.18
812.654	3060.24
812.837	3018.39
813.02	2956.58
813.203	2974.21
813.386	2818.44
813.569	2803.91
813.751	2742.69
813.934	2763.42
814.117	2708.97
814.3	2691.15
814.482	2652.59
814.665	2594.47
814.848	2525.11
815.03	2508.45
815.213	2488.49
815.396	2462.33
815.578	2435.98
815.761	2427.65
815.943	2460.2
816.126	2355.39
816.309	2324.77
816.491	2280.4
816.674	2201.94
816.856	2264.52
817.039	2257.93
817.221	2349.38
817.403	2277.69
817.586	2284.67
817.768	2266.65
817.951	2220.34
818.133	2229.64
818.315	2194.38
818.498	2234.29
818.68	2291.84
818.862	2287.19
819.045	2343.18
819.227	2313.54
819.409	2312.57
819.591	2329.23
819.774	2298.23
819.956	2236.04
820.138	2336.98
820.32	2267.81
820.502	2338.92
820.684	2429.59
820.866	2427.46
821.048	2448.19
821.231	2511.55
821.413	2523.75
821.595	2449.74
821.777	2433.27
821.959	2485
822.141	2555.91
822.323	2440.63
822.505	2340.85
822.686	2271.69
822.868	2184.5
823.05	2076.2
823.232	2001.41
823.414	1921.78
823.596	2072.32
823.778	2003.93
823.96	2025.24
824.141	2032.8
824.323	2043.84
824.505	2167.45
824.687	2220.73
824.868	2288.54
825.05	2361.39
825.232	2379.02
825.413	2468.92
825.595	2443.93
825.777	2321.09
825.958	2398.2
826.14	2386.97
826.321	2430.37
826.503	2396.65
826.685	2420.87
826.866	2470.66
827.048	2443.15
827.229	2365.07
827.411	2333.49
827.592	2271.11
827.773	2268.59
827.955	2239.72
828.136	2229.64
828.318	2151.37
828.499	2229.64
828.68	2155.24
828.862	2210.85
829.043	2224.41
829.224	2166.68
829.406	2159.7
829.587	2169.58
829.768	2163.58
829.949	2186.82
830.131	2146.33
830.312	2271.11
830.493	2180.04
830.674	2189.54
830.855	2209.11
831.036	2170.74
831.218	2224.99
831.399	2245.14
831.58	2200.19
831.761	2178.11
831.942	2178.88
832.123	2186.24
832.304	2105.06
832.485	2133.16
832.666	2134.32
832.847	2200.39
833.028	2145.75
833.209	2187.21
833.389	2154.08
833.57	2090.73
833.751	2137.81
833.932	2172.68
834.113	2138.19
834.294	2122.89
834.475	2149.24
834.655	2203.1
834.836	2237.01
835.017	2240.49
835.198	2164.35
835.378	2189.73
835.559	2212.59
835.74	2172.68
835.92	2168.81
836.101	2162.61
836.281	2207.75
836.462	2190.51
836.643	2203.68
836.823	2251.73
837.004	2232.55
837.184	2275.95
837.365	2239.14
837.545	2218.02
837.726	2180.63
837.906	2261.42
838.087	2198.06
838.267	2247.66
838.448	2181.4
838.628	2216.66
838.808	2167.06
838.989	2234.49
839.169	2168.03
839.349	2230.81
839.53	2219.18
839.71	2260.06
839.89	2206.01
840.07	2265.29
840.251	2196.12
840.431	2228.48
840.611	2216.86
840.791	2156.99
840.971	2202.71
841.151	2175.2
841.332	2127.54
841.512	2204.26
841.692	2153.69
841.872	2213.17
842.052	2155.05
842.232	2178.88
842.412	2113.98
842.592	2133.93
842.772	2198.26
842.952	2157.18
843.132	2127.54
843.312	2123.28
843.492	2131.03
843.672	2160.48
843.851	2064.96
844.031	2128.12
844.211	2123.08
844.391	2072.32
844.571	2114.17
844.751	2126.96
844.93	2118.63
845.11	2034.54
845.29	2107.97
845.47	2120.76
845.649	2110.49
845.829	2128.89
846.009	2110.68
846.188	2140.91
846.368	2118.04
846.547	2072.13
846.727	2117.27
846.907	2035.7
847.086	2084.14
847.266	2085.69
847.445	2061.28
847.625	2077.36
847.804	2047.33
847.984	2066.7
848.163	2039.96
848.343	2030.47
848.522	2075.81
848.701	2040.93
848.881	2007.03
849.06	2016.71
849.239	2023.5
849.419	2031.44
849.598	1947.16
849.777	1939.8
849.957	1930.11
850.136	1847.77
850.315	1839.05
850.494	1852.03
850.674	1850.29
850.853	1922.55
851.032	1856.1
851.211	1915.58
851.39	1914.22
851.569	1869.08
851.748	1852.22
851.927	1923.52
852.107	1896.59
852.286	1842.34
852.465	1836.53
852.644	1959.37
852.823	1875.67
853.002	1877.6
853.181	1875.09
853.359	1904.15
853.538	1841.18
853.717	1871.21
853.896	1770.66
854.075	1693.54
854.254	1680.95
854.433	1596.67
854.611	1646.66
854.79	1588.92
854.969	1621.86
855.148	1672.62
855.327	1628.06
855.505	1695.87
855.684	1701.68
855.863	1688.31
856.041	1720.48
856.22	1731.91
856.399	1697.03
856.577	1832.07
856.756	1801.46
856.934	1923.13
857.113	1927.2
857.291	1824.13
857.47	1797.2
857.648	1802.24
857.827	1814.06
858.005	1846.02
858.184	1774.34
858.362	1863.85
858.541	1817.35
858.719	1801.27
858.898	1802.62
859.076	1765.04
859.254	1844.86
859.433	1749.54
859.611	1748.76
859.789	1696.26
859.967	1815.61
860.146	1837.89
860.324	1724.54
860.502	1730.16
860.68	1714.47
860.859	1707.88
861.037	1705.94
861.215	1757.09
861.393	1729.78
861.571	1731.52
861.749	1692.58
861.927	1730.94
862.105	1754.19
862.283	1692.38
862.461	1691.41
862.639	1678.04
862.817	1670.1
862.995	1723.58
863.173	1672.62
863.351	1680.95
863.529	1710.79
863.707	1714.47
863.885	1707.88
864.063	1653.05
864.241	1677.08
864.418	1700.13
864.596	1680.37
864.774	1605.78
864.952	1619.92
865.129	1663.13
865.307	1594.35
865.485	1569.35
865.663	1665.26
865.84	1581.36
866.018	1580.4
866.196	1438.19
866.373	1468.22
866.551	1415.32
866.728	1350.61
866.906	1402.73
867.084	1428.69
867.261	1458.53
867.439	1472.09
867.616	1523.63
867.794	1507.55
867.971	1530.22
868.149	1504.45
868.326	1589.89
868.503	1560.63
868.681	1546.88
868.858	1501.54
869.035	1472.29
869.213	1552.88
869.39	1485.46
869.567	1579.62
869.745	1528.47
869.922	1543.97
870.099	1561.22
870.276	1536.8
870.454	1532.54
870.631	1533.7
870.808	1513.55
870.985	1534.28
871.162	1593.96
871.339	1503.48
871.517	1466.67
871.694	1460.66
871.871	1479.07
872.048	1512.97
872.225	1468.02
872.402	1493.21
872.579	1439.35
872.756	1474.8
872.933	1433.34
873.11	1502.51
873.287	1499.02
873.463	1428.3
873.64	1432.95
873.817	1451.17
873.994	1439.35
874.171	1417.65
874.348	1443.61
874.524	1403.12
874.701	1446.52
874.878	1353.32
875.055	1445.55
875.231	1443.03
875.408	1441.29
875.585	1362.82
875.762	1400.4
875.938	1374.64
876.115	1413.97
876.291	1345.19
876.468	1387.23
876.645	1342.86
876.821	1340.54
876.998	1365.53
877.174	1376.57
877.351	1368.24
877.527	1312.64
877.704	1386.65
877.88	1373.47
878.057	1356.04
878.233	1399.44
878.409	1344.41
878.586	1353.71
878.762	1363.98
878.938	1336.66
879.115	1232.62
879.291	1331.82
879.467	1280.48
879.644	1272.14
879.82	1339.96
879.996	1286.87
880.172	1278.54
880.349	1315.74
880.525	1293.65
880.701	1253.93
880.877	1216.73
881.053	1292.68
881.229	1263.04
881.405	1327.36
881.581	1227.19
881.757	1233.59
881.933	1296.17
882.109	1295.01
882.285	1283.38
882.461	1219.83
882.637	1254.51
882.813	1263.62
882.989	1270.4
883.165	1297.33
883.341	1257.03
883.517	1272.53
883.693	1289.97
883.869	1288.23
884.044	1237.08
884.22	1303.73
884.396	1329.3
884.572	1288.61
884.747	1302.95
884.923	1295.2
885.099	1296.75
885.275	1320.39
885.45	1223.71
885.626	1284.93
885.801	1243.66
885.977	1246.18
886.153	1187.86
886.328	1302.37
886.504	1239.4
886.679	1279.89
886.855	1236.3
887.03	1285.51
887.206	1295.01
887.381	1257.23
887.557	1309.34
887.732	1265.36
887.908	1310.31
888.083	1289.78
888.258	1265.94
888.434	1277.96
888.609	1262.84
888.784	1309.73
888.96	1243.86
889.135	1240.76
889.31	1241.34
889.485	1268.08
889.661	1269.82
889.836	1304.31
890.011	1286.29
890.186	1238.24
890.361	1250.64
890.537	1304.5
890.712	1282.8
890.887	1270.98
891.062	1251.99
891.237	1331.04
891.412	1228.16
891.587	1271.56
891.762	1313.61
891.937	1317.29
892.112	1204.14
892.287	1257.61
892.462	1234.75
892.637	1183.41
892.812	1180.31
892.987	1160.16
893.161	1137.1
893.336	1196.78
893.511	1141.17
893.686	1214.21
893.861	1163.65
894.035	1211.11
894.21	1191.35
894.385	1118.7
894.56	1188.83
894.734	1089.05
894.909	1120.44
895.084	1084.4
895.258	1092.93
895.433	1103
895.608	1052.43
895.782	1012.91
895.957	1029.96
896.131	1035.97
896.306	986.17
896.48	977.45
896.655	975.13
896.829	900.73
897.004	875.93
897.178	911.19
897.353	914.87
897.527	964.09
897.701	937.54
897.876	861.98
898.05	958.66
898.224	929.99
898.399	946.07
898.573	845.13
898.747	807.73
898.921	847.64
899.096	748.64
899.27	735.85
899.444	757.75
899.618	782.93
899.792	791.46
899.967	779.83
900.141	873.03
900.315	785.26
900.489	814.9
900.663	808.51
900.837	806.38
901.011	756.78
901.185	857.72
901.359	793.39
901.533	823.43
901.707	825.94
901.881	811.41
902.055	767.05
902.229	781.96
902.403	840.48
902.576	802.31
902.75	819.55
902.924	903.25
903.098	863.53
903.272	900.92
903.446	927.08
903.619	915.07
903.793	939.67
903.967	917.01
904.14	963.31
904.314	994.89
904.488	975.9
904.661	981.72
904.835	973.39
905.009	1005.16
905.182	1025.5
905.356	987.72
905.529	964.86
905.703	937.93
905.876	917.39
906.05	921.27
906.223	907.51
906.397	838.93
906.57	824.2
906.744	811.03
906.917	800.95
907.09	811.03
907.264	783.71
907.437	790.49
907.61	728.1
907.784	747.86
907.957	758.91
908.13	736.05
908.304	783.51
908.477	701.17
908.65	744.57
908.823	695.36
908.996	791.65
909.17	692.07
909.343	715.7
909.516	711.83
909.689	742.63
909.862	681.8
910.035	660.48
910.208	672.11
910.381	675.98
910.554	755.61
910.727	693.62
910.9	681.99
911.073	672.5
911.246	774.99
911.419	770.34
911.592	710.47
911.765	706.6
911.938	664.36
912.11	701.75
912.283	729.26
912.456	769.18
912.629	711.25
912.802	672.11
912.974	612.82
913.147	574.07
913.32	533.58
913.493	587.25
913.665	611.66
913.838	620.18
914.01	606.82
914.183	637.43
914.356	660.1
914.528	675.98
914.701	693.81
914.873	707.76
915.046	642.85
915.218	594.03
915.391	525.83
915.563	545.01
915.736	605.46
915.908	601.97
916.081	582.99
916.253	626.38
916.425	609.72
916.598	641.11
916.77	606.62
916.942	587.44
917.115	543.46
917.287	622.32
917.459	561.09
917.632	521.76
917.804	493.86
917.976	568.65
918.148	591.32
918.32	591.51
918.493	628.32
918.665	649.05
918.837	603.91
919.009	651.96
919.181	663.2
919.353	643.43
919.525	621.73
919.697	601.97
919.869	642.08
920.041	681.99
920.213	731.2
920.385	635.49
920.557	633.17
920.729	662.42
920.901	639.75
921.073	648.08
921.244	613.02
921.416	661.07
921.588	632.97
921.76	598.49
921.932	671.72
922.103	599.07
922.275	626.97
922.447	635.88
922.619	541.33
922.79	590.54
922.962	576.01
923.134	640.14
923.305	568.84
923.477	574.65
923.648	561.29
923.82	553.54
923.991	526.02
924.163	489.41
924.335	547.53
924.506	515.17
924.677	570.39
924.849	524.09
925.02	555.86
925.192	577.75
925.363	538.23
925.535	553.92
925.706	507.42
925.877	592.29
926.049	518.27
926.22	529.9
926.391	539
926.562	564.97
926.734	509.36
926.905	600.23
927.076	495.99
927.247	505.87
927.419	509.36
927.59	447.36
927.761	483.01
927.932	464.8
928.103	452.79
928.274	394.86
928.445	397.96
928.616	433.03
928.787	370.83
928.958	446.01
929.129	416.75
929.3	418.88
929.471	362.89
929.642	304.38
929.813	259.23
929.984	349.91
930.155	273.38
930.326	331.89
930.496	309.22
930.667	233.27
930.838	259.23
931.009	221.26
931.18	252.45
931.35	236.95
931.521	247.61
931.692	202.66
931.863	165.85
932.033	186.97
932.204	195.49
932.374	182.9
932.545	152.67
932.716	185.61
932.886	194.13
933.057	108.5
933.227	113.73
933.398	195.3
933.568	117.8
933.739	107.92
933.909	104.24
934.08	148.22
934.25	27.51
934.421	53.28
934.591	141.24
934.761	77.11
934.932	78.86
935.102	117.6
935.272	100.36
935.443	107.53
935.613	76.14
935.783	112.18
935.953	71.11
936.123	232.88
936.294	80.41
936.464	89.7
936.634	92.22
936.804	46.11
936.974	52.89
937.144	110.44
937.314	110.82
937.484	58.9
937.655	55.41
937.825	111.4
937.995	74.98
938.165	126.52
938.334	91.84
938.504	121.29
938.674	85.64
938.844	123.22
939.014	162.75
939.184	187.55
939.354	235.6
939.524	200.14
939.694	142.21
939.863	150.54
940.033	218.16
940.203	215.06
940.373	204.98
940.542	186.97
940.712	151.9
940.882	191.03
941.051	204.98
941.221	194.72
941.391	214.28
941.56	123.42
941.73	136.98
941.899	245.09
942.069	157.52
942.238	198.98
942.408	163.33
942.577	170.89
942.747	139.5
942.916	103.85
943.086	113.15
943.255	189.29
943.425	156.16
943.594	113.73
943.763	59.48
943.933	69.36
944.102	22.67
944.271	109.47
944.441	133.3
944.61	78.66
944.779	123.8
944.948	219.9
945.117	81.37
945.287	125.35
945.456	82.54
945.625	83.12
945.794	139.5
945.963	89.9
946.132	159.26
946.301	99.78
946.47	170.69
946.639	55.22
946.808	111.6
946.977	115.28
947.146	148.41
947.315	111.4
947.484	153.06
947.653	87.96
947.822	82.92
947.991	79.82
948.16	160.81
948.329	162.17
948.498	107.72
948.666	117.6
948.835	123.22
949.004	87.57
949.173	98.62
949.341	123.03
949.51	124.97
949.679	142.99
949.847	113.34
950.016	173.02
950.185	163.72
950.353	88.54
950.522	116.05
950.69	192.58
950.859	115.67
951.028	182.7
951.196	137.37
951.365	80.6
951.533	101.33
951.701	142.21
951.87	141.05
952.038	91.25
952.207	101.14
952.375	185.42
952.543	107.92
952.712	121.29
952.88	111.21
953.048	167.59
953.217	131.94
953.385	118.38
953.553	185.61
953.721	72.85
953.89	116.05
954.058	73.24
954.226	66.65
954.394	121.48
954.562	75.17
954.73	109.66
954.898	99.78
955.067	153.64
955.235	94.16
955.403	127.68
955.571	190.26
955.739	121.67
955.907	82.92
956.075	73.43
956.243	106.95
956.41	127.1
956.578	69.94
956.746	68.59
956.914	85.06
957.082	121.09
957.25	123.03
957.418	86.61
957.585	126.71
957.753	151.12
957.921	84.86
958.089	147.64
958.256	127.87
958.424	124.39
958.592	135.24
958.759	98.23
958.927	152.67
959.095	71.69
959.262	117.99
959.43	122.45
959.597	71.88
959.765	131.94
959.932	87.96
960.1	148.41
960.267	115.47
960.435	120.12
960.602	142.02
960.77	96.87
960.937	93.19
961.104	94.94
961.272	73.43
961.439	112.95
961.606	118.38
961.774	156.16
961.941	101.91
962.108	121.29
962.275	117.8
962.443	166.04
962.61	124.77
962.777	191.81
962.944	180.57
963.111	135.62
963.278	161.78
963.446	144.92
963.613	103.46
963.78	114.5
963.947	149.77
964.114	134.85
964.281	178.83
964.448	163.14
964.615	91.64
964.782	142.4
964.949	155.58
965.116	144.92
965.282	171.85
965.449	139.69
965.616	101.72
965.783	157.52
965.95	111.6
966.117	97.07
966.283	130.2
966.45	133.3
966.617	130
966.784	187.93
966.95	153.25
967.117	154.61
967.284	98.81
967.45	93
967.617	173.4
967.784	160.42
967.95	205.76
968.117	155.58
968.283	186.19
968.45	249.16
968.616	149.38
968.783	178.83
968.949	168.56
969.116	172.82
969.282	159.84
969.449	159.65
969.615	147.83
969.781	111.21
969.948	138.14
970.114	105.4
970.28	229.4
970.447	158.87
970.613	190.45
970.779	133.1
970.945	186.38
971.112	162.94
971.278	143.95
971.444	126.71
971.61	200.72
971.776	127.49
971.942	189.29
972.108	158.49
972.275	132.14
972.441	192.58
972.607	204.98
972.773	100.94
972.939	156.55
973.105	148.41
973.271	117.22
973.437	116.83
973.602	107.14
973.768	152.09
973.934	148.41
974.1	177.67
974.266	74.98
974.432	146.28
974.598	120.12
974.763	148.8
974.929	94.94
975.095	170.89
975.261	113.73
975.426	60.64
975.592	127.29
975.758	166.24
975.923	100.75
976.089	88.54
976.255	157.71
976.42	135.43
976.586	124.39
976.751	116.64
976.917	209.25
977.082	128.84
977.248	105.98
977.413	65.87
977.579	104.04
977.744	142.6
977.91	92.61
978.075	93.58
978.24	150.93
978.406	128.84
978.571	101.33
978.736	97.26
978.902	127.68
979.067	109.47
979.232	44.37
979.397	143.18
979.563	162.55
979.728	108.11
979.893	120.9
980.058	95.13
980.223	181.54
980.388	122.06
980.554	132.72
980.719	99
980.884	119.93
981.049	152.29
981.214	105.4
981.379	121.48
981.544	99.2
981.709	118.96
981.874	98.23
982.039	110.24
982.204	160.81
982.368	142.02
982.533	98.04
982.698	138.34
982.863	152.48
983.028	86.8
983.193	115.09
983.357	136.98
983.522	119.15
983.687	98.04
983.852	76.14
984.016	106.56
984.181	105.4
984.346	131.75
984.51	135.82
984.675	139.3
984.839	148.6
985.004	131.36
985.168	168.95
985.333	120.51
985.498	111.99
985.662	130
985.827	151.9
985.991	101.52
986.155	103.27
986.32	146.47
986.484	156.94
986.649	129.42
986.813	55.41
986.977	130.97
987.142	128.84
987.306	77.5
987.47	89.12
987.634	100.94
987.799	122.84
987.963	130.78
988.127	119.54
988.291	191.62
988.455	108.3
988.62	106.75
988.784	147.83
988.948	130
989.112	83.31
989.276	127.29
989.44	100.36
989.604	91.45
989.768	96.1
989.932	203.82
990.096	70.52
990.26	80.41
990.424	81.37
990.588	130.59
990.752	185.8
990.915	142.21
991.079	103.46
991.243	69.36
991.407	135.62
991.571	91.25
991.734	112.37
991.898	139.69
992.062	187.55
992.226	57.74
992.389	70.52
992.553	40.69
992.717	82.73
992.88	89.9
993.044	91.64
993.207	97.26
993.371	117.6
993.535	117.8
993.698	115.86
993.862	135.82
994.025	149.19
994.189	100.36
994.352	89.12
994.515	114.31
994.679	125.16
994.842	69.56
995.006	124.39
995.169	91.64
995.332	58.51
995.496	106.75
995.659	31.58
995.822	91.84
995.985	100.94
996.149	128.26
996.312	93.97
996.475	128.26
996.638	69.17
996.801	135.82
996.964	163.72
997.128	75.76
997.291	78.27
997.454	86.8
997.617	47.66
997.78	116.25
997.943	62.19
998.106	109.27
998.269	65.1
998.432	68.39
998.595	87.57
998.758	30.03
998.92	71.49
999.083	42.04
999.246	80.99
999.409	25.19
999.572	14.72
999.735	37.39
999.897	113.73
1000.06	75.37
1000.223	81.57
1000.386	116.25
1000.548	92.42
1000.711	98.42
1000.874	83.89
1001.036	28.09
1001.199	94.74
1001.361	56.19
1001.524	69.56
1001.687	87.96
1001.849	48.44
1002.012	84.47
1002.174	68.97
1002.337	104.43
1002.499	66.26
1002.661	118.38
1002.824	37.01
1002.986	32.36
1003.149	64.91
1003.311	52.51
1003.473	135.43
1003.636	44.37
1003.798	80.6
1003.96	59.09
1004.123	68.59
1004.285	17.63
1004.447	67.23
1004.609	58.51
1004.771	129.62
1004.933	24.22
1005.096	28.29
1005.258	14.14
1005.42	55.8
1005.582	95.13
1005.744	71.3
1005.906	11.04
1006.068	84.09
1006.23	41.27
1006.392	-0.39
1006.554	32.74
1006.716	91.06
1006.878	94.16
1007.04	8.52
1007.202	52.31
1007.363	67.23
1007.525	47.27
1007.687	54.06
1007.849	85.06
1008.011	-4.65
1008.172	31
1008.334	31
1008.496	51.54
1008.658	9.3
1008.819	18.99
1008.981	7.17
1009.143	32.36
1009.304	41.27
1009.466	42.04
1009.627	95.52
1009.789	126.9
1009.95	57.93
1010.112	35.84
1010.273	74.21
1010.435	29.45
1010.596	31.58
1010.758	58.9
1010.919	22.67
1011.081	-6.59
1011.242	38.56
1011.403	58.12
1011.565	40.69
1011.726	68.01
1011.887	2.91
1012.049	45.72
1012.21	85.25
1012.371	108.11
1012.532	-6.78
1012.693	33.13
1012.855	27.32
1013.016	48.44
1013.177	67.81
1013.338	36.81
1013.499	95.32
1013.66	46.11
1013.821	60.45
1013.982	45.92
1014.143	35.26
1014.304	41.66
1014.465	54.06
1014.626	89.7
1014.787	31.97
1014.948	134.65
1015.109	-31.39
1015.27	82.15
1015.431	23.83
1015.592	25.19
1015.752	81.57
1015.913	31.58
1016.074	47.08
1016.235	27.71
1016.395	52.51
1016.556	28.09
1016.717	14.53
1016.877	83.51
1017.038	11.62
1017.199	51.92
1017.359	41.46
1017.52	47.86
1017.681	15.89
1017.841	26.16
1018.002	46.89
1018.162	12.98
1018.323	99.2
1018.483	33.71
1018.644	20.73
1018.804	4.84
1018.964	6.97
1019.125	12.79
1019.285	57.16
1019.446	-11.62
1019.606	-4.84
1019.766	-22.47
1019.926	48.44
1020.087	59.67
1020.247	-3.87
1020.407	56.19
1020.567	80.79
1020.728	20.73
1020.888	-8.33
1021.048	20.73
1021.208	-5.04
1021.368	17.24
1021.528	57.54
1021.688	81.96
1021.848	58.71
1022.008	47.27
1022.168	8.14
1022.328	14.92
1022.488	43.01
1022.648	24.99
1022.808	27.9
1022.968	51.92
1023.128	-11.82
1023.288	20.73
1023.448	13.17
1023.608	45.14
1023.767	34.1
1023.927	-9.3
1024.087	-12.59
1024.247	-26.54
1024.406	16.47
1024.566	-4.26
1024.726	-11.82
1024.885	23.25
1025.045	70.14
1025.205	-0.19
1025.364	5.81
1025.524	47.86
1025.683	10.27
1025.843	18.21
1026.003	14.34
1026.162	73.82
1026.321	32.36
1026.481	35.65
1026.64	21.31
1026.8	29.26
1026.959	27.51
1027.119	33.71
1027.278	6.78
1027.437	-17.82
1027.597	25.96
1027.756	15.31
1027.915	45.53
1028.074	29.64
1028.234	7.36
1028.393	37.78
1028.552	10.07
1028.711	-85.64
1028.87	39.91
1029.03	-26.16
1029.189	29.84
1029.348	-56.19
1029.507	-5.62
1029.666	25.19
1029.825	-1.36
1029.984	-0.77
1030.143	18.79
1030.302	-3.1
1030.461	-47.27
1030.62	16.27
1030.779	28.67
1030.938	-26.35
1031.097	-21.31
1031.255	28.29
1031.414	74.98
1031.573	55.22
1031.732	-31.58
1031.891	16.27
1032.049	33.52
1032.208	14.34
1032.367	-12.59
1032.525	14.53
1032.684	2.71
1032.843	34.1
1033.001	-53.86
1033.16	153.45
1033.319	62.58
1033.477	28.48
1033.636	-8.33
1033.794	-45.14
1033.953	19.76
1034.111	50.96
1034.27	-17.05
1034.428	27.9
1034.587	-30.22
1034.745	25.19
1034.903	13.37
1035.062	54.83
1035.22	-2.91
1035.378	33.13
1035.537	-15.89
1035.695	41.27
1035.853	32.74
1036.011	51.15
1036.17	6.59
1036.328	-57.54
1036.486	28.48
1036.644	-14.72
1036.802	-77.69
1036.96	-5.62
1037.119	16.47
1037.277	4.65
1037.435	-35.84
1037.593	-30.22
1037.751	6.39
1037.909	22.47
1038.067	22.47
