Data from gum_old_FLMT105791__15__15-42-37-259.txt Node

Date: Mon Mar 20 15:42:37 GMT 2023
User: antho
Spectrometer: FLMT10579
Trigger mode: 0
Integration Time (sec): 1.000000E-1
Scans to average: 10
Electric dark correction enabled: true
Nonlinearity correction enabled: false
Boxcar width: 0
XAxis mode: Wavelengths
Number of Pixels in Spectrum: 3648
>>>>>Begin Spectral Data<<<<<
345.248	-172.02
345.464	-172.02
345.681	-172.02
345.898	-185.97
346.114	-168.92
346.331	-4.23
346.548	15.34
346.764	-9.85
346.981	-13.53
347.197	-21.09
347.414	0.81
347.631	-11.01
347.847	73.85
348.064	2.55
348.28	21.93
348.497	-49.95
348.713	-4.81
348.93	40.53
349.146	33.94
349.363	11.46
349.579	41.49
349.796	26.19
350.012	14.37
350.229	70.36
350.445	37.04
350.661	6.23
350.878	13.98
351.094	49.44
351.311	51.96
351.527	46.92
351.743	29.29
351.96	17.66
352.176	76.76
352.392	44.21
352.609	59.9
352.825	31.42
353.041	26.19
353.257	8.17
353.474	38.2
353.69	55.64
353.906	41.11
354.122	12.63
354.339	74.43
354.555	15.34
354.771	14.76
354.987	103.11
355.203	79.27
355.42	51.38
355.636	17.86
355.852	9.14
356.068	37.81
356.284	-7.14
356.5	88.19
356.716	50.41
356.932	12.63
357.148	52.73
357.364	14.18
357.58	62.61
357.796	98.84
358.012	91.87
358.228	72.49
358.444	-28.06
358.66	100.59
358.876	37.81
359.092	31.81
359.308	64.36
359.524	65.13
359.74	34.71
359.956	47.89
360.172	30.26
360.388	63.78
360.604	56.8
360.819	125.77
361.035	52.34
361.251	81.6
361.467	50.79
361.683	100.97
361.898	79.47
362.114	63.19
362.33	65.33
362.546	76.56
362.762	45.37
362.977	66.68
363.193	18.63
363.409	82.96
363.624	21.34
363.84	44.98
364.056	58.93
364.271	82.18
364.487	93.81
364.703	49.63
364.918	17.28
365.134	59.13
365.35	56.41
365.565	182.93
365.781	81.02
365.996	90.9
366.212	129.46
366.427	91.48
366.643	82.96
366.858	67.26
367.074	50.21
367.289	144.18
367.505	159.1
367.72	22.51
367.936	70.17
368.151	113.76
368.367	81.6
368.582	77.34
368.798	80.44
369.013	129.26
369.228	74.24
369.444	89.74
369.659	138.76
369.874	98.07
370.09	144.18
370.305	44.98
370.52	53.12
370.736	138.56
370.951	72.69
371.166	124.61
371.381	146.51
371.597	157.36
371.812	67.46
372.027	44.01
372.242	74.24
372.458	182.15
372.673	43.24
372.888	83.54
373.103	102.33
373.318	175.57
373.533	112.6
373.749	90.51
373.964	47.11
374.179	135.46
374.394	64.74
374.609	105.82
374.824	57.38
375.039	121.51
375.254	65.71
375.469	150.38
375.684	95.74
375.899	105.04
376.114	87.22
376.329	84.12
376.544	131.01
376.759	113.18
376.974	98.07
377.189	87.41
377.404	70.75
377.619	143.6
377.834	83.92
378.049	84.51
378.264	78.11
378.478	146.12
378.693	92.26
378.908	126.16
379.123	125.19
379.338	167.04
379.553	155.81
379.767	120.93
379.982	130.62
380.197	119.19
380.412	90.32
380.626	132.56
380.841	185.84
381.056	128.1
381.271	177.31
381.485	102.14
381.7	86.64
381.915	127.13
382.129	76.37
382.344	120.54
382.559	112.6
382.773	150.77
382.988	44.4
383.202	96.13
383.417	75.79
383.632	164.52
383.846	95.55
384.061	111.82
384.275	98.07
384.49	122.29
384.704	156
384.919	112.79
385.133	128.1
385.348	168.79
385.562	99.42
385.777	184.87
385.991	123.26
386.206	119.96
386.42	111.82
386.634	179.83
386.849	171.69
387.063	140.31
387.277	117.06
387.492	126.94
387.706	121.32
387.92	131.78
388.135	162.78
388.349	172.66
388.563	187.19
388.778	148.25
388.992	158.91
389.206	165.3
389.42	204.82
389.635	152.12
389.849	206.37
390.063	240.47
390.277	193.39
390.491	254.23
390.706	221.29
390.92	207.92
391.134	194.94
391.348	205.6
391.562	154.64
391.776	190.29
391.99	184.29
392.205	223.62
392.419	169.95
392.633	189.32
392.847	220.52
393.061	125.58
393.275	188.16
393.489	108.53
393.703	124.03
393.917	161.23
394.131	117.64
394.345	145.73
394.559	180.02
394.773	173.05
394.986	191.84
395.2	197.65
395.414	235.24
395.628	194.94
395.842	255.2
396.056	217.03
396.27	158.13
396.484	226.14
396.697	212.57
396.911	214.12
397.125	135.66
397.339	174.99
397.553	142.82
397.766	217.42
397.98	229.24
398.194	237.37
398.408	225.36
398.621	277.48
398.835	302.67
399.049	283.87
399.262	334.44
399.476	334.25
399.69	341.61
399.903	366.6
400.117	301.5
400.331	335.02
400.544	298.4
400.758	409.81
400.971	343.93
401.185	362.92
401.398	317.39
401.612	391.4
401.826	387.14
402.039	386.56
402.253	347.42
402.466	340.83
402.68	354.78
402.893	371.83
403.106	366.6
403.32	346.06
403.533	379.78
403.747	343.55
403.96	340.83
404.174	374.74
404.387	376.48
404.6	362.15
404.814	408.84
405.027	358.27
405.24	362.53
405.454	351.1
405.667	364.08
405.88	329.02
406.094	361.56
406.307	418.14
406.52	393.34
406.733	324.75
406.947	310.42
407.16	446.04
407.373	431.12
407.586	365.63
407.799	343.74
408.012	394.89
408.226	379.39
408.439	467.35
408.652	380.94
408.865	434.99
409.078	463.28
409.291	431.12
409.504	370.28
409.717	434.99
409.93	450.11
410.143	429.96
410.357	343.93
410.57	331.34
410.783	369.9
410.996	377.45
411.209	390.05
411.421	449.33
411.634	422.98
411.847	441.97
412.06	460.38
412.273	455.73
412.486	478.01
412.699	506.49
412.912	450.3
413.125	493.89
413.338	454.76
413.55	471.61
413.763	441.39
413.976	479.36
414.189	449.72
414.402	451.27
414.615	523.73
414.827	427.63
415.04	521.02
415.253	473.16
415.466	510.94
415.678	532.06
415.891	501.06
416.104	486.14
416.316	476.26
416.529	470.26
416.742	523.54
416.954	566.16
417.167	500.48
417.38	507.46
417.592	517.92
417.805	462.89
418.017	458.44
418.23	502.42
418.442	463.86
418.655	466.96
418.868	507.26
419.08	539.42
419.293	543.3
419.505	524.12
419.718	522.18
419.93	533.61
420.142	495.06
420.355	559.96
420.567	523.34
420.78	513.27
420.992	504.36
421.205	631.65
421.417	506.49
421.629	527.22
421.842	517.53
422.054	518.11
422.266	532.45
422.479	573.33
422.691	511.91
422.903	550.86
423.115	503.78
423.328	516.37
423.54	507.65
423.752	505.13
423.964	522.18
424.177	559.96
424.389	529.35
424.601	622.93
424.813	545.82
425.025	598.32
425.238	584.76
425.45	532.26
425.662	544.85
425.874	827.72
426.086	537.1
426.298	572.94
426.51	555.31
426.722	545.04
426.934	557.64
427.146	581.86
427.358	551.24
427.57	577.4
427.782	522.76
427.994	517.72
428.206	534
428.418	485.18
428.63	591.16
428.842	621.77
429.054	563.84
429.266	604.33
429.478	528.96
429.69	559.77
429.902	489.83
430.114	539.62
430.325	524.51
430.537	482.66
430.749	454.18
430.961	382.1
431.173	456.31
431.384	469.29
431.596	414.65
431.808	516.56
432.02	552.41
432.231	595.81
432.443	714.57
432.655	642.89
432.867	614.02
433.078	617.5
433.29	677.76
433.502	667.3
433.713	704.3
433.925	686.48
434.136	726.97
434.348	600.26
434.56	563.45
434.771	704.88
434.983	565.58
435.194	621.19
435.406	642.89
435.617	687.45
435.829	738.02
436.04	713.22
436.252	733.75
436.463	775.8
436.675	749.06
436.886	751.38
437.098	765.14
437.309	820.36
437.521	727.55
437.732	745.96
437.943	704.3
438.155	737.82
438.366	652.77
438.578	751
438.789	706.24
439	694.03
439.211	677.37
439.423	698.1
439.634	697.13
439.845	749.25
440.057	780.64
440.268	781.22
440.479	737.82
440.69	775.41
440.902	734.72
441.113	706.05
441.324	729.3
441.535	805.63
441.746	854.46
441.957	788
442.168	804.08
442.38	834.7
442.591	841.67
442.802	769.98
443.013	819.97
443.224	872.67
443.435	855.23
443.646	809.9
443.857	829.08
444.068	834.89
444.279	793.04
444.49	925.76
444.701	837.6
444.912	961.6
445.123	902.89
445.334	883.91
445.545	900.76
445.756	826.36
445.967	846.13
446.178	851.16
446.388	839.54
446.599	868.79
446.81	829.85
447.021	859.69
447.232	868.41
447.443	916.26
447.653	844.96
447.864	987.17
448.075	895.34
448.286	990.66
448.496	921.88
448.707	940.48
448.918	887.78
449.129	989.69
449.339	882.55
449.55	941.06
449.761	920.14
449.971	990.86
450.182	892.63
450.393	960.24
450.603	956.76
450.814	980.59
451.024	964.7
451.235	1038.9
451.446	1064.67
451.656	1040.65
451.867	959.27
452.077	968.19
452.288	1043.75
452.498	1007.91
452.709	930.6
452.919	937.19
453.13	887.01
453.34	950.17
453.55	898.63
453.761	941.45
453.971	933.89
454.182	947.07
454.392	968.77
454.602	1008.29
454.813	984.07
455.023	1000.16
455.233	931.76
455.444	980.59
455.654	893.21
455.864	958.11
456.075	949.2
456.285	971.29
456.495	954.82
456.705	1015.46
456.916	1045.69
457.126	1041.23
457.336	1025.15
457.546	941.45
457.756	1005
457.967	1025.73
458.177	1021.86
458.387	982.33
458.597	974
458.807	991.05
459.017	980.39
459.227	988.34
459.437	961.79
459.647	1037.55
459.857	1010.23
460.068	972.84
460.278	1087.54
460.488	1020.89
460.698	1053.44
460.908	1027.28
461.117	976.52
461.327	1020.89
461.537	1064.67
461.747	1081.72
461.957	1061.57
462.167	1138.68
462.377	1108.27
462.587	1059.44
462.797	1135
463.007	1073.39
463.216	1143.53
463.426	1158.25
463.636	1120.86
463.846	1042.2
464.056	1033.48
464.265	1126.87
464.475	1046.27
464.685	1081.92
464.895	1110.4
465.104	1077.65
465.314	1139.07
465.524	1069.52
465.733	1054.4
465.943	1173.17
466.153	1167.17
466.362	1178.79
466.572	1154.57
466.782	1123.57
466.991	1122.99
467.201	1180.73
467.41	1025.34
467.62	1135.58
467.829	1144.5
468.039	1177.82
468.249	1128.8
468.458	1165.23
468.668	1146.82
468.877	1169.49
469.086	1209.79
469.296	1214.25
469.505	1153.99
469.715	1265.78
469.924	1204.75
470.134	1207.85
470.343	1246.41
470.552	1212.31
470.762	1201.46
470.971	1164.65
471.18	1201.46
471.39	1200.88
471.599	1150.31
471.808	1250.86
472.018	1253.58
472.227	1305.89
472.436	1322.55
472.645	1322.94
472.855	1267.53
473.064	1362.85
473.273	1342.51
473.482	1289.42
473.691	1360.72
473.901	1351.03
474.11	1286.32
474.319	1396.95
474.528	1326.81
474.737	1418.84
474.946	1389.01
475.155	1397.34
475.364	1446.16
475.573	1432.79
475.783	1465.73
475.992	1421.75
476.201	1472.32
476.41	1470.19
476.619	1407.61
476.828	1433.76
477.037	1409.16
477.245	1408.38
477.454	1475.03
477.663	1458.37
477.872	1487.24
478.081	1567.83
478.29	1494.6
478.499	1622.67
478.708	1575
478.917	1670.91
479.125	1505.06
479.334	1507.97
479.543	1553.5
479.752	1587.79
479.961	1553.89
480.169	1623.44
480.378	1609.68
480.587	1740.46
480.796	1642.82
481.004	1646.11
481.213	1655.02
481.422	1669.36
481.63	1702.3
481.839	1744.73
482.048	1780.57
482.256	1709.46
482.465	1764.68
482.674	1775.92
482.882	1800.72
483.091	1828.62
483.299	1742.21
483.508	1794.33
483.716	1763.13
483.925	1818.74
484.134	1744.73
484.342	1780.18
484.551	1822.42
484.759	1819.32
484.967	1864.27
485.176	1897.98
485.384	1852.84
485.593	1907.47
485.801	1829.39
486.01	1750.73
486.218	1700.55
486.426	1602.32
486.635	1578.88
486.843	1569
487.051	1635.26
487.26	1623.44
487.468	1698.03
487.676	1756.74
487.885	1743.18
488.093	1823.19
488.301	1900.5
488.509	1886.74
488.717	1959.4
488.926	1933.05
489.134	1869.31
489.342	1923.94
489.55	1860.59
489.758	1911.35
489.967	1947.58
490.175	2072.35
490.383	2020.62
490.591	2102.58
490.799	2012.48
491.007	2092.31
491.215	2023.53
491.423	2029.34
491.631	2029.53
491.839	1981.49
492.047	2015.58
492.255	1940.99
492.463	1914.45
492.671	1938.86
492.879	2025.66
493.087	1982.07
493.295	2039.8
493.503	2066.73
493.711	2145.78
493.919	2146.75
494.127	2133.77
494.334	2073.9
494.542	2012.48
494.75	2147.53
494.958	2119.43
495.166	2202.36
495.374	2184.34
495.581	2195.77
495.789	2210.88
495.997	2245.56
496.205	2158.96
496.412	2146.75
496.62	2164.96
496.828	2165.74
497.035	2195.77
497.243	2222.89
497.451	2205.65
497.658	2241.3
497.866	2211.85
498.074	2268.62
498.281	2211.46
498.489	2278.69
498.696	2185.31
498.904	2133.96
499.112	2137.45
499.319	2259.9
499.527	2225.03
499.734	2252.34
499.942	2151.6
500.149	2218.63
500.357	2214.76
500.564	2195.77
500.771	2177.17
500.979	2155.66
501.186	2103.93
501.394	2223.09
501.601	2156.83
501.808	2192.86
502.016	2186.47
502.223	2142.88
502.43	2195.58
502.638	2184.34
502.845	2151.98
503.052	2276.95
503.26	2211.66
503.467	2324.42
503.674	2259.51
503.881	2270.36
504.089	2305.04
504.296	2331.97
504.503	2194.41
504.71	2211.08
504.917	2179.88
505.125	2254.67
505.332	2275.21
505.539	2265.71
505.746	2373.63
505.953	2358.71
506.16	2392.23
506.367	2401.34
506.574	2453.26
506.781	2439.89
506.988	2334.11
507.195	2337.01
507.402	2368.4
507.609	2409.67
507.816	2296.71
508.023	2321.32
508.23	2307.76
508.437	2229.29
508.644	2306.59
508.851	2347.28
509.058	2406.57
509.265	2341.66
509.472	2374.21
509.679	2484.65
509.885	2395.52
510.092	2417.22
510.299	2410.05
510.506	2354.45
510.713	2358.32
510.92	2354.45
511.126	2382.15
511.333	2434.08
511.54	2428.46
511.746	2504.22
511.953	2465.27
512.16	2479.8
512.367	2442.6
512.573	2440.08
512.78	2440.28
512.987	2468.18
513.193	2378.67
513.4	2305.43
513.606	2394.75
513.813	2447.06
514.02	2398.24
514.226	2470.7
514.433	2502.67
514.639	2388.74
514.846	2397.07
515.052	2374.79
515.259	2389.9
515.465	2450.55
515.672	2419.55
515.878	2534.25
516.085	2439.89
516.291	2505.77
516.497	2468.37
516.704	2392.04
516.91	2329.07
517.117	2235.68
517.323	2169.03
517.529	2196.54
517.736	2174.26
517.942	2171.36
518.148	2214.95
518.354	2301.36
518.561	2291.29
518.767	2281.41
518.973	2329.65
519.179	2354.06
519.386	2303.11
519.592	2313.96
519.798	2346.89
520.004	2444.54
520.21	2448.61
520.417	2508.67
520.623	2566.41
520.829	2529.98
521.035	2508.48
521.241	2528.82
521.447	2519.71
521.653	2666.77
521.859	2567.96
522.065	2586.75
522.271	2664.44
522.477	2624.34
522.683	2692.34
522.889	2585.59
523.095	2580.75
523.301	2622.98
523.507	2496.08
523.713	2570.48
523.919	2552.65
524.125	2649.72
524.331	2640.81
524.537	2744.46
524.742	2727.61
524.948	2749.69
525.154	2731.87
525.36	2837.46
525.566	2769.07
525.772	2805.69
525.977	2714.04
526.183	2775.66
526.389	2787.86
526.595	2694.09
526.8	2699.51
527.006	2569.51
527.212	2509.06
527.417	2542.77
527.623	2482.32
527.829	2555.36
528.034	2653.79
528.24	2620.27
528.446	2630.34
528.651	2808.98
528.857	2752.41
529.062	2864.59
529.268	2878.15
529.473	2853.35
529.679	2893.45
529.884	2990.71
530.09	2915.73
530.295	2889.58
530.501	2870.59
530.706	2920
530.912	2854.12
531.117	2893.45
531.323	2893.84
531.528	2994.98
531.733	3011.25
531.939	2957.39
532.144	2951.38
532.35	2954.68
532.555	2952.74
532.76	2930.46
532.966	2922.9
533.171	2856.25
533.376	2836.69
533.581	2792.7
533.787	2855.09
533.992	2941.89
534.197	2944.22
534.402	2937.63
534.607	2926.58
534.813	3021.13
535.018	2924.65
535.223	2957.97
535.428	2938.79
535.633	3031.98
535.838	3038.38
536.043	3018.61
536.249	3133.12
536.454	3074.61
536.659	3093.79
536.864	3011.83
537.069	2992.85
537.274	3045.54
537.479	3014.16
537.684	2991.68
537.889	2957.97
538.094	3087.78
538.299	3026.56
538.504	3047.29
538.708	3020.75
538.913	3107.16
539.118	3040.31
539.323	3044.19
539.528	3012.41
539.733	2996.72
539.938	3017.06
540.142	3028.88
540.347	2994.59
540.552	2914.96
540.757	2945.57
540.962	2955.07
541.166	2948.67
541.371	2883.18
541.576	2925.81
541.781	2876.79
541.985	3003.7
542.19	2971.92
542.395	3082.74
542.599	3136.99
542.804	3046.32
543.008	3107.35
543.213	3071.89
543.418	3002.92
543.622	3037.8
543.827	2963.98
544.031	3081
544.236	3065.89
544.44	3094.76
544.645	3146.1
544.849	3058.53
545.054	3136.8
545.258	3166.83
545.463	3139.32
545.667	3051.74
545.872	3135.44
546.076	3120.53
546.281	3095.73
546.485	3059.88
546.689	3147.07
546.894	3151.14
547.098	3123.82
547.302	3071.89
547.507	3110.45
547.711	3127.31
547.915	3111.42
548.119	3003.11
548.324	3012.41
548.528	3141.84
548.732	3096.5
548.936	3126.73
549.141	3121.11
549.345	3059.88
549.549	3110.84
549.753	3114.33
549.957	3199.19
550.161	3172.45
550.366	3127.69
550.57	3090.69
550.774	3060.08
550.978	3076.54
551.182	3135.64
551.386	3082.74
551.59	3081.58
551.794	3062.98
551.998	3088.94
552.202	3112.58
552.406	3077.71
552.61	3141.64
552.814	3118.98
553.018	3109.29
553.222	3052.52
553.426	3074.22
553.63	3177.87
553.833	3051.94
554.037	3004.86
554.241	3093.4
554.445	3055.43
554.649	3085.07
554.853	3064.73
555.056	3097.47
555.26	3149.01
555.464	3109.09
555.668	3114.52
555.871	3116.26
556.075	3131.96
556.279	3074.41
556.483	3043.99
556.686	3071.51
556.89	3091.66
557.094	3059.49
557.297	2998.08
557.501	3055.04
557.704	2951
557.908	3042.25
558.112	2991.68
558.315	3043.41
558.519	2985.48
558.722	2979.28
558.926	2995.95
559.129	2866.14
559.333	2880.47
559.536	2915.93
559.74	2894.42
559.943	2809.37
560.147	2857.22
560.35	2873.3
560.553	2922.71
560.757	2882.6
560.96	2941.5
561.164	2912.63
561.367	3028.3
561.57	2965.33
561.774	2944.99
561.977	2922.52
562.18	2893.26
562.384	3045.93
562.587	2931.82
562.79	2919.8
562.993	2919.03
563.197	2888.22
563.4	3000.01
563.603	2957.58
563.806	3016.1
564.009	2925.62
564.212	2925.42
564.416	2854.32
564.619	2925.62
564.822	2826.42
565.025	2958.55
565.228	2895.39
565.431	2917.28
565.634	2783.21
565.837	2837.07
566.04	2779.92
566.243	2784.18
566.446	2722.76
566.649	2816.54
566.852	2750.47
567.055	2772.36
567.258	2849.67
567.461	2871.37
567.664	2875.63
567.867	2732.06
568.07	2762.87
568.273	2816.54
568.475	2874.66
568.678	2780.5
568.881	2772.94
569.084	2749.5
569.287	2650.88
569.489	2711.14
569.692	2698.35
569.895	2741.17
570.098	2674.52
570.3	2637.32
570.503	2611.36
570.706	2614.46
570.909	2669.29
571.111	2553.62
571.314	2502.28
571.516	2589.46
571.719	2578.42
571.922	2571.64
572.124	2559.43
572.327	2628.41
572.529	2562.34
572.732	2571.83
572.935	2605.74
573.137	2668.32
573.34	2596.25
573.542	2670.45
573.745	2591.98
573.947	2638.09
574.15	2583.26
574.352	2575.9
574.554	2628.41
574.757	2555.95
574.959	2527.46
575.162	2582.49
575.364	2555.95
575.566	2592.95
575.769	2469.15
575.971	2530.95
576.173	2388.74
576.376	2502.28
576.578	2503.25
576.78	2564.66
576.982	2420.9
577.185	2494.53
577.387	2432.72
577.589	2462.95
577.791	2488.33
577.993	2496.85
578.196	2479.8
578.398	2482.9
578.6	2435.63
578.802	2379.25
579.004	2387.97
579.206	2374.99
579.408	2445.32
579.61	2353.67
579.812	2477.48
580.014	2382.54
580.216	2437.37
580.418	2430.4
580.62	2406.95
580.822	2402.89
581.024	2461.01
581.226	2485.62
581.428	2419.74
581.63	2528.05
581.832	2387
582.034	2478.83
582.236	2446.87
582.438	2466.05
582.64	2508.28
582.841	2560.01
583.043	2542.19
583.245	2481.93
583.447	2509.64
583.649	2487.75
583.85	2476.12
584.052	2477.28
584.254	2442.41
584.456	2496.85
584.657	2424.39
584.859	2480.77
585.061	2456.94
585.262	2416.25
585.464	2376.73
585.666	2473.99
585.867	2406.37
586.069	2439.89
586.27	2400.95
586.472	2390.1
586.674	2357.55
586.875	2351.54
587.077	2385.25
587.278	2343.02
587.48	2402.11
587.681	2487.94
587.883	2412.38
588.084	2302.91
588.285	2382.54
588.487	2345.92
588.688	2356.97
588.89	2260.29
589.091	2205.26
589.292	2226.77
589.494	2133.38
589.695	2114.4
589.896	2009.58
590.098	2018.68
590.299	2095.99
590.5	2113.62
590.702	2141.71
590.903	2179.49
591.104	2236.26
591.305	2230.84
591.507	2278.11
591.708	2235.49
591.909	2222.31
592.11	2288.38
592.311	2249.63
592.512	2214.76
592.714	2155.86
592.915	2193.25
593.116	2207.98
593.317	2255.25
593.518	2205.07
593.719	2248.08
593.92	2238.59
594.121	2289.35
594.322	2231.23
594.523	2232.19
594.724	2172.71
594.925	2214.56
595.126	2185.89
595.327	2223.09
595.528	2199.06
595.729	2207.78
595.929	2181.63
596.13	2174.84
596.331	2200.81
596.532	2188.6
596.733	2271.14
596.934	2263.39
597.135	2220.96
597.335	2232.78
597.536	2165.74
597.737	2230.06
597.938	2187.05
598.138	2177.36
598.339	2182.21
598.54	2220.76
598.74	2149.08
598.941	2193.25
599.142	2238.78
599.342	2160.51
599.543	2137.84
599.744	2157.8
599.944	2175.62
600.145	2158.76
600.345	2191.12
600.546	2225.03
600.746	2203.91
600.947	2259.32
601.147	2190.15
601.348	2216.11
601.548	2134.35
601.749	2167.48
601.949	2101.22
602.15	2136.29
602.35	2153.15
602.551	2159.73
602.751	2113.81
602.951	2143.07
603.152	2072.16
603.352	2182.4
603.552	2154.5
603.753	2180.46
603.953	2207.78
604.153	2193.44
604.354	2131.45
604.554	2158.18
604.754	2178.72
604.954	2130.86
605.155	2207.2
605.355	2137.26
605.555	2171.74
605.755	2198.68
605.955	2165.74
606.155	2189.76
606.356	2183.95
606.556	2164
606.756	2159.73
606.956	2083.01
607.156	2220.18
607.356	2103.93
607.556	2163.22
607.756	2124.47
607.956	2218.44
608.156	2142.1
608.356	2119.24
608.556	2181.24
608.756	2116.14
608.956	2097.35
609.156	2150.43
609.356	2101.03
609.556	2084.36
609.755	2116.33
609.955	2085.53
610.155	2087.66
610.355	2093.28
610.555	2088.63
610.755	2076.42
610.954	2014.23
611.154	2114.98
611.354	2124.28
611.554	2031.08
611.753	2049.68
611.953	2021.01
612.153	2084.95
612.352	2093.66
612.552	2011.52
612.752	2005.32
612.951	2059.37
613.151	2079.91
613.351	2059.57
613.55	2006.87
613.75	2025.27
613.949	1986.72
614.149	2013.26
614.348	2017.91
614.548	1969.28
614.747	1949.52
614.947	1984.2
615.146	1912.12
615.346	2049.68
615.545	1997.37
615.745	1996.02
615.944	2023.92
616.144	1961.92
616.343	1992.92
616.542	1971.02
616.742	1947.19
616.941	1951.84
617.14	1896.04
617.34	1917.74
617.539	1951.45
617.738	1913.67
617.938	2018.1
618.137	1918.32
618.336	1907.09
618.535	1957.27
618.734	1930.72
618.934	1938.86
619.133	1953.78
619.332	1976.45
619.531	1888.68
619.73	1963.47
619.929	1972.96
620.128	1936.34
620.328	2021.98
620.527	1951.45
620.726	1918.32
620.925	1956.1
621.124	1953.97
621.323	1961.34
621.522	1873.18
621.721	1884.61
621.92	1908.25
622.119	1949.9
622.318	1874.15
622.517	1862.33
622.715	1876.47
622.914	1821.06
623.113	1863.69
623.312	1831.14
623.511	1906.31
623.71	1852.45
623.909	1863.49
624.107	1912.51
624.306	1797.04
624.505	1811.76
624.704	1820.67
624.902	1810.41
625.101	1873.96
625.3	1862.14
625.499	1791.81
625.697	1795.88
625.896	1775.34
626.095	1809.05
626.293	1767.98
626.492	1800.53
626.69	1806.34
626.889	1798.01
627.088	1815.83
627.286	1805.56
627.485	1780.96
627.683	1785.03
627.882	1799.36
628.08	1741.24
628.279	1723.22
628.477	1826.1
628.676	1726.51
628.874	1781.73
629.073	1740.46
629.271	1714.31
629.469	1754.61
629.668	1705.2
629.866	1696.29
630.065	1736.01
630.263	1734.65
630.461	1689.12
630.66	1702.88
630.858	1721.86
631.056	1750.15
631.254	1770.88
631.453	1702.68
631.651	1765.26
631.849	1704.81
632.047	1737.56
632.245	1724.96
632.444	1708.5
632.642	1736.01
632.84	1739.3
633.038	1710.24
633.236	1669.94
633.434	1703.65
633.632	1667.81
633.83	1701.71
634.028	1715.28
634.227	1726.71
634.425	1802.46
634.623	1674.98
634.821	1717.8
635.019	1753.06
635.216	1724.58
635.414	1749.18
635.612	1702.3
635.81	1706.95
636.008	1766.04
636.206	1706.56
636.404	1736.59
636.602	1680.79
636.8	1727.48
636.997	1769.91
637.195	1764.1
637.393	1705.01
637.591	1784.44
637.789	1773.4
637.986	1729.42
638.184	1701.33
638.382	1787.35
638.58	1779.21
638.777	1833.07
638.975	1705.2
639.173	1764.49
639.37	1733.29
639.568	1764.49
639.765	1747.05
639.963	1649.01
640.161	1725.16
640.358	1701.52
640.556	1637
640.753	1641.46
640.951	1678.08
641.148	1668
641.346	1651.73
641.543	1681.18
641.741	1674.98
641.938	1632.55
642.136	1659.09
642.333	1618.02
642.531	1696.48
642.728	1728.84
642.925	1659.67
643.123	1649.79
643.32	1662.58
643.517	1628.48
643.715	1672.85
643.912	1616.47
644.109	1657.54
644.306	1652.7
644.504	1610.46
644.701	1627.12
644.898	1641.65
645.095	1612.2
645.293	1625.57
645.49	1659.48
645.687	1639.91
645.884	1672.26
646.081	1564.15
646.278	1596.9
646.475	1568.8
646.672	1557.95
646.87	1597.48
647.067	1602.13
647.264	1612.4
647.461	1545.36
647.658	1533.54
647.855	1548.85
648.052	1524.44
648.249	1416.52
648.446	1535.09
648.642	1531.22
648.839	1514.36
649.036	1507.77
649.233	1459.34
649.43	1491.89
649.627	1440.54
649.824	1477.74
650.021	1477.16
650.217	1452.36
650.414	1490.14
650.611	1484.33
650.808	1488.2
651.004	1519.59
651.201	1526.76
651.398	1573.07
651.595	1506.61
651.791	1482.97
651.988	1532.77
652.185	1479.29
652.381	1549.43
652.578	1445.97
652.775	1495.76
652.971	1505.45
653.168	1503.12
653.364	1519.01
653.561	1436.86
653.757	1473.09
653.954	1513.97
654.15	1470.96
654.347	1570.74
654.543	1492.66
654.74	1456.04
654.936	1415.94
655.133	1477.94
655.329	1446.36
655.525	1429.89
655.722	1475.03
655.918	1401.21
656.115	1417.29
656.311	1316.16
656.507	1260.16
656.704	1215.99
656.9	1264.23
657.096	1255.13
657.292	1256.68
657.489	1330.3
657.685	1345.61
657.881	1337.47
658.077	1375.25
658.273	1354.91
658.47	1448.29
658.666	1400.24
658.862	1431.63
659.058	1421.75
659.254	1482.59
659.45	1438.22
659.646	1452.94
659.842	1386.29
660.038	1479.87
660.234	1412.45
660.43	1444.22
660.626	1463.79
660.822	1483.94
661.018	1484.52
661.214	1431.63
661.41	1439.38
661.606	1445.58
661.802	1503.51
661.998	1439.19
662.194	1436.86
662.39	1475.03
662.586	1470.77
662.781	1493.63
662.977	1502.35
663.173	1481.62
663.369	1475.61
663.564	1467.47
663.76	1515.33
663.956	1427.95
664.152	1494.99
664.347	1363.24
664.543	1458.17
664.739	1397.72
664.934	1402.37
665.13	1377.19
665.326	1420.01
665.521	1441.32
665.717	1404.51
665.912	1415.16
666.108	1355.88
666.304	1415.16
666.499	1412.45
666.695	1349.68
666.89	1420.2
667.086	1457.4
667.281	1429.89
667.477	1485.49
667.672	1416.71
667.867	1428.14
668.063	1402.57
668.258	1403.34
668.454	1375.83
668.649	1476.39
668.844	1411.48
669.04	1426.98
669.235	1407.61
669.43	1410.32
669.626	1333.01
669.821	1383.39
670.016	1367.11
670.211	1400.44
670.407	1350.84
670.602	1420.59
670.797	1382.03
670.992	1430.47
671.187	1342.51
671.382	1445.58
671.578	1387.46
671.773	1406.64
671.968	1342.89
672.163	1392.69
672.358	1434.34
672.553	1376.8
672.748	1358.78
672.943	1409.35
673.138	1378.93
673.333	1392.88
673.528	1364.01
673.723	1394.04
673.918	1361.3
674.113	1365.95
674.308	1433.37
674.503	1409.93
674.698	1414.58
674.892	1364.21
675.087	1390.75
675.282	1396.95
675.477	1360.53
675.672	1411.09
675.867	1352.97
676.061	1336.5
676.256	1295.23
676.451	1364.01
676.646	1349.68
676.84	1353.16
677.035	1296.2
677.23	1317.9
677.424	1360.91
677.619	1383.19
677.814	1378.16
678.008	1393.66
678.203	1287.68
678.397	1302.59
678.592	1349.68
678.787	1425.24
678.981	1317.13
679.176	1337.28
679.37	1334.18
679.565	1288.84
679.759	1335.73
679.954	1354.71
680.148	1377.19
680.342	1367.69
680.537	1351.03
680.731	1320.23
680.926	1352.58
681.12	1345.03
681.314	1299.11
681.509	1308.79
681.703	1321.97
681.897	1342.7
682.092	1320.23
682.286	1289.23
682.48	1376.03
682.674	1337.47
682.869	1300.46
683.063	1302.59
683.257	1375.25
683.451	1281.67
683.645	1308.79
683.839	1305.69
684.034	1291.36
684.228	1306.86
684.422	1210.76
684.616	1236.53
684.81	1316.35
685.004	1258.81
685.198	1262.3
685.392	1293.1
685.586	1255.51
685.78	1277.02
685.974	1288.84
686.168	1273.34
686.362	1317.9
686.556	1168.33
686.75	1165.81
686.944	1164.45
687.138	1153.41
687.331	1052.85
687.525	1080.75
687.719	982.33
687.913	1047.24
688.107	1042.78
688.301	1013.52
688.494	1078.24
688.688	1044.91
688.882	1004.03
689.076	995.51
689.269	1027.47
689.463	1141.2
689.657	1065.06
689.85	1030.38
690.044	1082.5
690.238	1044.91
690.431	1077.07
690.625	1076.1
690.818	1121.25
691.012	1115.63
691.205	1154.96
691.399	1098.97
691.593	1133.45
691.786	1186.73
691.98	1170.65
692.173	1195.84
692.366	1171.23
692.56	1182.67
692.753	1222
692.947	1145.47
693.14	1227.23
693.333	1207.08
693.527	1142.95
693.72	1246.41
693.914	1150.12
694.107	1147.02
694.3	1207.08
694.493	1150.31
694.687	1215.21
694.88	1135.39
695.073	1224.32
695.266	1190.03
695.46	1193.52
695.653	1237.3
695.846	1258.81
696.039	1142.95
696.232	1214.25
696.425	1244.47
696.618	1263.07
696.812	1254.93
697.005	1312.48
697.198	1393.46
697.391	1299.11
697.584	1332.24
697.777	1366.34
697.97	1362.08
698.163	1383.97
698.356	1353.55
698.549	1447.32
698.742	1415.55
698.935	1339.79
699.127	1390.56
699.32	1373.89
699.513	1348.32
699.706	1387.07
699.899	1398.5
700.092	1359.75
700.285	1425.24
700.477	1395.4
700.67	1402.96
700.863	1469.22
701.056	1487.82
701.248	1476.77
701.441	1518.62
701.634	1448.68
701.826	1557.95
702.019	1452.17
702.212	1510.49
702.404	1431.44
702.597	1492.08
702.79	1513
702.982	1533.35
703.175	1567.45
703.367	1587.6
703.56	1600.38
703.752	1661.03
703.945	1635.07
704.137	1662.38
704.33	1675.17
704.522	1691.83
704.715	1679.24
704.907	1710.43
705.1	1736.39
705.292	1765.46
705.484	1742.98
705.677	1757.32
705.869	1794.33
706.061	1821.26
706.254	1862.72
706.446	1793.36
706.638	1831.72
706.831	1904.76
707.023	1868.14
707.215	1968.31
707.407	1939.44
707.599	1917.35
707.792	1991.95
707.984	1996.02
708.176	2022.75
708.368	1970.25
708.56	2015.39
708.752	2001.05
708.944	2027.4
709.136	2070.61
709.329	2036.9
709.521	2187.83
709.713	2144.23
709.905	2158.96
710.097	2207.59
710.289	2143.46
710.481	2203.52
710.672	2211.46
710.864	2216.69
711.056	2275.4
711.248	2274.43
711.44	2272.3
711.632	2274.62
711.824	2347.67
712.016	2368.2
712.207	2355.8
712.399	2371.69
712.591	2400.75
712.783	2419.35
712.975	2451.13
713.166	2382.35
713.358	2399.79
713.55	2491.62
713.741	2503.05
713.933	2489.1
714.125	2535.99
714.316	2474.77
714.508	2565.44
714.7	2596.44
714.891	2552.26
715.083	2641
715.274	2597.8
715.466	2647.78
715.657	2681.11
715.849	2584.43
716.04	2657.66
716.232	2595.47
716.423	2663.67
716.615	2574.35
716.806	2573.96
716.998	2535.21
717.189	2491.04
717.381	2402.89
717.572	2384.29
717.763	2357.16
717.955	2374.6
718.146	2366.85
718.337	2289.35
718.528	2250.41
718.72	2256.22
718.911	2282.96
719.102	2203.52
719.293	2328.29
719.485	2279.27
719.676	2263
719.867	2194.8
720.058	2251.38
720.249	2251.76
720.44	2274.43
720.632	2312.6
720.823	2366.27
721.014	2524.95
721.205	2547.81
721.396	2615.81
721.587	2726.06
721.778	2762.87
721.969	2814.02
722.16	2868.46
722.351	2860.32
722.542	3017.65
722.733	3034.11
722.924	2933.75
723.115	3041.09
723.305	3002.53
723.496	3019.58
723.687	2912.44
723.878	2879.5
724.069	2919.03
724.26	2915.35
724.45	2891.71
724.641	2826.8
724.832	2870.78
725.023	2868.65
725.213	2888.42
725.404	2856.84
725.595	2854.12
725.785	2862.26
725.976	2946.73
726.167	2960.49
726.357	2964.75
726.548	3067.83
726.739	2980.64
726.929	3085.26
727.12	3091.08
727.31	3141.84
727.501	3079.45
727.691	3056.98
727.882	3085.46
728.072	3161.21
728.263	3165.47
728.453	3224.76
728.644	3217.01
728.834	3233.87
729.024	3180.39
729.215	3194.54
729.405	3233.48
729.596	3289.28
729.786	3257.7
729.976	3341.78
730.167	3393.51
730.357	3335.97
730.547	3385.18
730.737	3409.6
730.928	3402.43
731.118	3500.46
731.308	3419.48
731.498	3476.83
731.688	3538.44
731.879	3547.35
732.069	3587.46
732.259	3657.4
732.449	3697.31
732.639	3766.09
732.829	3767.83
733.019	3804.84
733.209	3940.46
733.399	3882.15
733.589	3993.36
733.779	4018.16
733.969	3987.16
734.159	4081.9
734.349	4106.5
734.539	4180.13
734.729	4180.13
734.919	4195.05
735.109	4267.12
735.299	4171.02
735.488	4214.81
735.678	4220.43
735.868	4211.13
736.058	4237.87
736.248	4248.91
736.437	4173.93
736.627	4159.98
736.817	4358.76
737.007	4271.19
737.196	4351.6
737.386	4292.11
737.576	4309.94
737.765	4337.26
737.955	4358.18
738.144	4454.86
738.334	4459.32
738.524	4359.54
738.713	4425.8
738.903	4427.54
739.092	4439.17
739.282	4448.47
739.471	4487.22
739.661	4441.69
739.85	4521.71
740.04	4501.56
740.229	4548.44
740.419	4489.54
740.608	4542.82
740.797	4517.25
740.987	4606.57
741.176	4581.57
741.365	4570.92
741.555	4481.21
741.744	4623.42
741.933	4542.82
742.123	4642.22
742.312	4642.02
742.501	4687.75
742.69	4711.96
742.88	4593.97
743.069	4769.51
743.258	4685.62
743.447	4743.35
743.636	4697.05
743.825	4705.38
744.014	4737.73
744.204	4757.5
744.393	4709.25
744.582	4808.64
744.771	4826.66
744.96	4771.25
745.149	4791.21
745.338	4779.2
745.527	4822.79
745.716	4756.91
745.905	4709.06
746.094	4885.17
746.283	4814.26
746.471	4833.83
746.66	4821.82
746.849	4889.63
747.038	4859.79
747.227	4810.97
747.416	4902.42
747.604	4816.59
747.793	4759.43
747.982	4843.91
748.171	4879.36
748.359	4884.98
748.548	4895.44
748.737	4834.99
748.926	4828.21
749.114	4734.63
749.303	4844.29
749.491	4825.89
749.68	4740.83
749.869	4842.94
750.057	4812.52
750.246	4788.5
750.434	4803.61
750.623	4791.21
750.811	4799.54
751	4851.08
751.188	4818.33
751.377	4769.51
751.565	4774.93
751.754	4744.13
751.942	4728.82
752.131	4828.41
752.319	4762.92
752.507	4719.52
752.696	4800.89
752.884	4804.58
753.072	4731.34
753.261	4775.32
753.449	4800.89
753.637	4693.17
753.825	4843.52
754.014	4756.14
754.202	4761.95
754.39	4808.64
754.578	4815.81
754.766	4755.17
754.955	4705.76
755.143	4800.7
755.331	4705.57
755.519	4768.54
755.707	4726.3
755.895	4670.12
756.083	4699.37
756.271	4667.98
756.459	4701.12
756.647	4710.61
756.835	4690.46
757.023	4649.97
757.211	4638.34
757.399	4624.2
757.587	4663.92
757.775	4594.55
757.963	4623.03
758.151	4664.3
758.339	4584.87
758.526	4585.06
758.714	4613.35
758.902	4531.39
759.09	4375.23
759.278	4187.88
759.465	3948.79
759.653	3589.59
759.841	3285.79
760.028	2875.63
760.216	2548.2
760.404	2362.59
760.591	2030.31
760.779	1807.89
760.967	1616.85
761.154	1451.78
761.342	1497.7
761.529	1468.44
761.717	1570.74
761.905	1625.77
762.092	1712.56
762.28	1677.3
762.467	1716.05
762.655	1666.06
762.842	1682.92
763.029	1746.28
763.217	1766.62
763.404	1766.43
763.592	1816.61
763.779	1754.99
763.966	1823
764.154	1870.08
764.341	1955.33
764.528	1967.34
764.716	2011.13
764.903	2131.64
765.09	2184.73
765.277	2252.73
765.465	2428.07
765.652	2433.69
765.839	2547.61
766.026	2712.88
766.213	2752.21
766.4	2845.6
766.588	3055.62
766.775	3102.89
766.962	3186.4
767.149	3269.52
767.336	3417.73
767.523	3411.15
767.71	3537.47
767.897	3636.86
768.084	3733.74
768.271	3769.38
768.458	3808.91
768.645	3898.61
768.832	3845.72
769.019	3958.87
769.206	3939.49
769.392	3993.55
769.579	4118.13
769.766	4044.7
769.953	3998.39
770.14	4113.87
770.327	4122
770.513	4136.34
770.7	4139.25
770.887	4085.19
771.073	4159.79
771.26	4096.04
771.447	4063.69
771.634	4067.76
771.82	4176.84
772.007	4036.56
772.193	4197.37
772.38	4143.12
772.567	4066.98
772.753	4094.69
772.94	4153
773.126	4128.98
773.313	4132.27
773.499	4100.5
773.686	4160.37
773.872	4098.17
774.059	4124.14
774.245	4054.97
774.432	4046.64
774.618	4017.38
774.804	4059.42
774.991	3980.96
775.177	4024.55
775.363	3968.75
775.55	4072.99
775.736	3951.7
775.922	4011.37
776.109	4007.31
776.295	4028.04
776.481	4058.07
776.667	4004.01
776.853	3982.51
777.04	3922.25
777.226	3983.67
777.412	4003.04
777.598	3985.41
777.784	3936.39
777.97	3927.48
778.156	3965.84
778.342	3950.34
778.528	3887.96
778.715	3821.12
778.901	3880.79
779.087	3944.73
779.272	3879.63
779.458	3831.38
779.644	3859.48
779.83	3793.8
780.016	3927.48
780.202	3863.35
780.388	3827.51
780.574	3770.35
780.76	3828.48
780.946	3859.09
781.131	3849.4
781.317	3775
781.503	3765.9
781.689	3748.07
781.874	3915.47
782.06	3745.36
782.246	3788.95
782.432	3763.57
782.617	3770.55
782.803	3801.74
782.989	3689.75
783.174	3714.55
783.36	3630.27
783.545	3700.6
783.731	3716.3
783.916	3592.88
784.102	3685.3
784.288	3662.82
784.473	3658.17
784.659	3645.58
784.844	3679.49
785.029	3631.63
785.215	3603.15
785.4	3584.55
785.586	3669.22
785.771	3556.46
785.956	3589.78
786.142	3592.69
786.327	3584.36
786.512	3569.05
786.698	3508.99
786.883	3461.33
787.068	3537.86
787.254	3575.06
787.439	3490.97
787.624	3490
787.809	3491.74
787.994	3462.3
788.18	3513.83
788.365	3397
788.55	3458.42
788.735	3454.16
788.92	3447.38
789.105	3423.55
789.29	3505.69
789.475	3406.3
789.66	3386.93
789.845	3359.22
790.03	3336.36
790.215	3409.6
790.4	3377.24
790.585	3456.1
790.77	3387.32
790.955	3286.76
791.14	3406.5
791.325	3405.72
791.51	3281.34
791.695	3352.63
791.879	3356.7
792.064	3262.15
792.249	3411.15
792.434	3308.85
792.618	3342.37
792.803	3364.07
792.988	3305.94
793.173	3352.83
793.357	3326.87
793.542	3262.54
793.727	3303.42
793.911	3284.63
794.096	3323.96
794.281	3341.78
794.465	3427.03
794.65	3322.22
794.834	3331.71
795.019	3380.92
795.203	3404.36
795.388	3366.97
795.572	3420.25
795.757	3391.97
795.941	3359.22
796.126	3377.82
796.31	3326.09
796.494	3332.87
796.679	3346.24
796.863	3296.06
797.048	3420.45
797.232	3351.67
797.416	3382.28
797.601	3350.89
797.785	3440.98
797.969	3420.64
798.153	3370.85
798.338	3407.08
798.522	3434.4
798.706	3460.75
798.89	3436.14
799.074	3496.98
799.258	3452.03
799.443	3387.7
799.627	3412.7
799.811	3455.13
799.995	3393.13
800.179	3352.25
800.363	3355.15
800.547	3419.09
800.731	3407.27
800.915	3302.65
801.099	3364.07
801.283	3393.9
801.467	3363.48
801.651	3323.57
801.835	3403.01
802.019	3378.79
802.202	3399.52
802.386	3355.73
802.57	3296.84
802.754	3390.8
802.938	3336.94
803.121	3343.72
803.305	3434.01
803.489	3373.75
803.673	3368.91
803.856	3434.98
804.04	3287.73
804.224	3382.28
804.407	3324.93
804.591	3291.99
804.775	3344.3
804.958	3353.8
805.142	3441.56
805.326	3292.57
805.509	3350.5
805.693	3394.48
805.876	3381.7
806.06	3387.9
806.243	3403.2
806.427	3388.87
806.61	3421.61
806.794	3386.35
806.977	3398.75
807.16	3353.22
807.344	3341.4
807.527	3326.87
807.71	3348.95
807.894	3334.03
808.077	3359.42
808.26	3342.95
808.444	3336.17
808.627	3373.37
808.81	3309.43
808.993	3264.67
809.177	3257.89
809.36	3227.09
809.543	3277.07
809.726	3145.71
809.909	3188.92
810.092	3146.49
810.276	3177.87
810.459	3155.4
810.642	3161.02
810.825	3135.64
811.008	3173.22
811.191	3037.21
811.374	3085.07
811.557	3056.98
811.74	3118.39
811.923	3025.01
812.106	3017.26
812.289	2987.23
812.472	2996.53
812.654	3020.36
812.837	2938.02
813.02	2858.97
813.203	2875.43
813.386	2785.73
813.569	2749.11
813.751	2689.24
813.934	2751.24
814.117	2681.69
814.3	2604.58
814.482	2586.17
814.665	2556.72
814.848	2522.81
815.03	2455
815.213	2441.25
815.396	2432.72
815.578	2444.15
815.761	2338.56
815.943	2442.6
816.126	2295.55
816.309	2282.76
816.491	2215.73
816.674	2150.43
816.856	2236.07
817.039	2198.48
817.221	2274.82
817.403	2234.91
817.586	2248.66
817.768	2275.79
817.951	2145.78
818.133	2156.25
818.315	2161.86
818.498	2232.97
818.68	2250.6
818.862	2234.91
819.045	2285.09
819.227	2199.64
819.409	2220.76
819.591	2299.23
819.774	2209.33
819.956	2205.26
820.138	2251.38
820.32	2259.71
820.502	2317.64
820.684	2380.02
820.866	2395.14
821.048	2436.21
821.231	2482.13
821.413	2469.73
821.595	2424.2
821.777	2440.86
821.959	2425.17
822.141	2480
822.323	2359.68
822.505	2284.89
822.686	2259.12
822.868	2160.31
823.05	2045.23
823.232	2041.35
823.414	1939.44
823.596	2000.28
823.778	1978.77
823.96	2004.73
824.141	2015.39
824.323	2059.76
824.505	2091.15
824.687	2174.07
824.868	2194.41
825.05	2344.18
825.232	2347.47
825.413	2414.12
825.595	2393
825.777	2301.75
825.958	2391.07
826.14	2358.13
826.321	2394.75
826.503	2359.29
826.685	2396.1
826.866	2418
827.048	2386.61
827.229	2322.09
827.411	2317.44
827.592	2254.67
827.773	2231.61
827.955	2186.66
828.136	2149.66
828.318	2141.52
828.499	2230.64
828.68	2123.11
828.862	2173.88
829.043	2189.96
829.224	2143.26
829.406	2115.95
829.587	2115.17
829.768	2121.76
829.949	2141.71
830.131	2133.38
830.312	2185.69
830.493	2195.38
830.674	2137.26
830.855	2138.81
831.036	2118.08
831.218	2150.05
831.399	2225.8
831.58	2175.81
831.761	2178.53
831.942	2168.06
832.123	2124.86
832.304	2085.53
832.485	2074.29
832.666	2132.03
832.847	2150.63
833.028	2128.73
833.209	2109.36
833.389	2128.54
833.57	2030.7
833.751	2059.18
833.932	2162.64
834.113	2089.21
834.294	2093.47
834.475	2143.26
834.655	2147.72
834.836	2190.73
835.017	2180.08
835.198	2084.95
835.378	2161.09
835.559	2187.63
835.74	2148.3
835.92	2155.08
836.101	2091.34
836.281	2157.8
836.462	2154.7
836.643	2199.06
836.823	2180.27
837.004	2186.28
837.184	2250.21
837.365	2194.99
837.545	2225.61
837.726	2183.18
837.906	2242.27
838.087	2153.15
838.267	2190.15
838.448	2144.62
838.628	2171.36
838.808	2185.69
838.989	2234.52
839.169	2158.57
839.349	2207.2
839.53	2189.38
839.71	2199.45
839.89	2149.08
840.07	2212.63
840.251	2140.94
840.431	2174.07
840.611	2161.67
840.791	2138.81
840.971	2125.05
841.151	2148.5
841.332	2095.8
841.512	2196.74
841.692	2092.7
841.872	2139.97
842.052	2150.05
842.232	2152.76
842.412	2077.97
842.592	2110.52
842.772	2117.69
842.952	2171.36
843.132	2089.21
843.312	2077
843.492	2052.2
843.672	2130.09
843.851	1995.43
844.031	2067.51
844.211	2076.03
844.391	2052.2
844.571	2070.42
844.751	2078.94
844.93	2116.53
845.11	2069.06
845.29	2066.73
845.47	2088.43
845.649	2048.91
845.829	2086.5
846.009	2029.34
846.188	2075.26
846.368	2081.46
846.547	2054.72
846.727	2091.73
846.907	1987.69
847.086	2066.35
847.266	2112.46
847.445	2011.13
847.625	2021.2
847.804	1979.35
847.984	2023.14
848.163	2022.37
848.343	1966.95
848.522	2010.74
848.701	1990.98
848.881	1979.16
849.06	2019.27
849.239	1976.64
849.419	2022.75
849.598	1902.05
849.777	1923.75
849.957	1890.23
850.136	1876.09
850.315	1823.39
850.494	1817.38
850.674	1785.22
850.853	1878.8
851.032	1840.44
851.211	1901.08
851.39	1876.28
851.569	1827.84
851.748	1822.81
851.927	1902.44
852.107	1858.26
852.286	1840.44
852.465	1801.69
852.644	1900.11
852.823	1854.97
853.002	1862.52
853.181	1855.16
853.359	1851.09
853.538	1783.67
853.717	1869.69
853.896	1746.28
854.075	1700.55
854.254	1649.4
854.433	1540.9
854.611	1589.92
854.79	1532.77
854.969	1596.9
855.148	1631.97
855.327	1589.53
855.505	1649.21
855.684	1639.72
855.863	1677.88
856.041	1629.83
856.22	1700.36
856.399	1673.04
856.577	1768.36
856.756	1741.43
856.934	1847.8
857.113	1885.77
857.291	1769.14
857.47	1742.98
857.648	1787.16
857.827	1804.98
858.005	1810.41
858.184	1746.08
858.362	1832.3
858.541	1786.77
858.719	1790.06
858.898	1739.11
859.076	1736.78
859.254	1829.01
859.433	1733.1
859.611	1712.18
859.789	1662.19
859.967	1784.64
860.146	1791.42
860.324	1694.93
860.502	1684.08
860.68	1683.5
860.859	1676.53
861.037	1700.94
861.215	1730.58
861.393	1706.17
861.571	1730.58
861.749	1652.7
861.927	1688.15
862.105	1702.49
862.283	1660.06
862.461	1639.72
862.639	1649.98
862.817	1634.87
862.995	1688.54
863.173	1624.8
863.351	1672.85
863.529	1676.33
863.707	1692.61
863.885	1680.01
864.063	1571.32
864.241	1610.46
864.418	1641.85
864.596	1619.37
864.774	1566.67
864.952	1657.73
865.129	1632.55
865.307	1555.44
865.485	1526.37
865.663	1604.45
865.84	1553.5
866.018	1539.55
866.196	1406.44
866.373	1434.34
866.551	1415.16
866.728	1345.61
866.906	1385.91
867.084	1432.79
867.261	1465.34
867.439	1454.3
867.616	1501.38
867.794	1485.3
867.971	1472.7
868.149	1457.21
868.326	1558.15
868.503	1538.97
868.681	1484.72
868.858	1483.17
869.035	1474.64
869.213	1510.29
869.39	1502.54
869.567	1560.86
869.745	1482.78
869.922	1498.67
870.099	1500.6
870.276	1509.71
870.454	1523.47
870.631	1528.5
870.808	1475.8
870.985	1512.81
871.162	1563.77
871.339	1525.99
871.517	1445.19
871.694	1415.16
871.871	1487.62
872.048	1463.79
872.225	1434.73
872.402	1463.41
872.579	1406.83
872.756	1460.11
872.933	1420.78
873.11	1442.09
873.287	1463.41
873.463	1386.1
873.64	1413.81
873.817	1411.09
873.994	1462.05
874.171	1401.6
874.348	1421.94
874.524	1349.09
874.701	1369.83
874.878	1332.63
875.055	1394.82
875.231	1377.19
875.408	1401.99
875.585	1326.43
875.762	1378.16
875.938	1356.46
876.115	1335.73
876.291	1364.4
876.468	1333.98
876.645	1327.59
876.821	1345.99
876.998	1373.12
877.174	1360.91
877.351	1313.25
877.527	1318.87
877.704	1351.42
877.88	1376.99
878.057	1348.13
878.233	1358.78
878.409	1288.45
878.586	1320.03
878.762	1336.5
878.938	1316.93
879.115	1234.4
879.291	1303.37
879.467	1227.23
879.644	1255.9
879.82	1327.98
879.996	1285.93
880.172	1210.95
880.349	1278.96
880.525	1316.54
880.701	1221.8
880.877	1221.22
881.053	1278.18
881.229	1271.4
881.405	1282.83
881.581	1246.6
881.757	1272.18
881.933	1260.16
882.109	1264.23
882.285	1292.33
882.461	1211.73
882.637	1275.28
882.813	1210.18
882.989	1253.77
883.165	1289.23
883.341	1253.58
883.517	1280.31
883.693	1286.51
883.869	1279.93
884.044	1224.32
884.22	1275.66
884.396	1282.06
884.572	1268.88
884.747	1289.81
884.923	1275.08
885.099	1271.98
885.275	1303.37
885.45	1237.3
885.626	1237.11
885.801	1217.15
885.977	1226.06
886.153	1173.56
886.328	1268.5
886.504	1236.91
886.679	1242.53
886.855	1207.85
887.03	1253.77
887.206	1256.1
887.381	1241.95
887.557	1270.43
887.732	1303.76
887.908	1291.94
888.083	1296.39
888.258	1234.59
888.434	1222.38
888.609	1247.38
888.784	1292.52
888.96	1226.26
889.135	1238.27
889.31	1206.3
889.485	1240.98
889.661	1200.88
889.836	1285.93
890.011	1271.21
890.186	1237.3
890.361	1224.71
890.537	1256.87
890.712	1264.04
890.887	1281.86
891.062	1223.16
891.237	1292.52
891.412	1184.41
891.587	1273.92
891.762	1261.91
891.937	1285.16
892.112	1215.6
892.287	1205.14
892.462	1174.14
892.637	1167.94
892.812	1170.85
892.987	1172.2
893.161	1157.48
893.336	1166.58
893.511	1159.8
893.686	1202.82
893.861	1166.97
894.035	1112.72
894.21	1161.16
894.385	1117.76
894.56	1156.51
894.734	1081.14
894.909	1065.06
895.084	1095.09
895.258	1085.4
895.433	1089.47
895.608	1042.59
895.782	993.37
895.957	1014.11
896.131	992.02
896.306	958.31
896.48	918.2
896.655	952.11
896.829	888.75
897.004	902.7
897.178	891.08
897.353	871.31
897.527	901.15
897.701	907.35
897.876	869.18
898.05	931.96
898.224	923.24
898.399	943
898.573	873.06
898.747	792.65
898.921	823.85
899.096	728.33
899.27	774.05
899.444	736.27
899.618	789.75
899.792	776.57
899.967	789.36
900.141	854.85
900.315	759.91
900.489	767.47
900.663	798.66
900.837	780.25
901.011	697.13
901.185	855.04
901.359	781.41
901.533	798.08
901.707	843.61
901.881	796.33
902.055	724.84
902.229	789.36
902.403	841.86
902.576	768.63
902.75	806.8
902.924	920.33
903.098	871.7
903.272	889.53
903.446	936.99
903.619	907.54
903.793	958.11
903.967	937.19
904.14	972.06
904.314	966.06
904.488	952.69
904.661	987.37
904.835	936.99
905.009	1005.19
905.182	1030.57
905.356	961.79
905.529	989.31
905.703	905.22
905.876	927.11
906.05	917.04
906.223	869.18
906.397	819
906.57	827.91
906.744	780.45
906.917	796.14
907.09	817.65
907.264	772.89
907.437	761.46
907.61	705.08
907.784	745.57
907.957	752.93
908.13	702.56
908.304	750.03
908.477	686.28
908.65	741.89
908.823	692.1
908.996	787.03
909.17	688.8
909.343	703.53
909.516	737.82
909.689	702.17
909.862	644.05
910.035	688.42
910.208	680.67
910.381	678.34
910.554	770.18
910.727	687.64
910.9	683.19
911.073	684.73
911.246	741.31
911.419	743.63
911.592	716.9
911.765	677.18
911.938	708.37
912.11	700.62
912.283	684.93
912.456	761.85
912.629	698.68
912.802	698.1
912.974	610.53
913.147	611.5
913.32	575.27
913.493	599.49
913.665	610.34
913.838	609.56
914.01	593.29
914.183	606.85
914.356	619.83
914.528	671.75
914.701	728.91
914.873	694.42
915.046	610.34
915.218	585.73
915.391	505.13
915.563	531.29
915.736	563.64
915.908	603.94
916.081	600.84
916.253	584.96
916.425	618.67
916.598	630.29
916.77	623.51
916.942	577.59
917.115	526.06
917.287	595.22
917.459	552.41
917.632	515.79
917.804	488.47
917.976	596.19
918.148	565.39
918.32	589.02
918.493	605.88
918.665	634.75
918.837	608.01
919.009	678.54
919.181	670.01
919.353	608.59
919.525	615.57
919.697	622.15
919.869	621.19
920.041	683.38
920.213	722.9
920.385	696.94
920.557	616.54
920.729	646.95
920.901	653.93
921.073	628.35
921.244	595.81
921.416	651.02
921.588	641.34
921.76	622.15
921.932	684.93
922.103	629.71
922.275	626.03
922.447	629.13
922.619	536.91
922.79	602.2
922.962	583.41
923.134	618.09
923.305	558.8
923.477	550.27
923.648	562.67
923.82	559.38
923.991	527.22
924.163	504.94
924.335	538.26
924.506	497.77
924.677	615.57
924.849	479.36
925.02	575.27
925.192	588.64
925.363	529.74
925.535	564.42
925.706	516.17
925.877	581.08
926.049	515.21
926.22	532.64
926.391	529.35
926.562	568.49
926.734	514.04
926.905	551.44
927.076	477.23
927.247	545.24
927.419	488.08
927.59	459.99
927.761	426.28
927.932	457.47
928.103	453.79
928.274	429.18
928.445	402.25
928.616	416.78
928.787	420.27
928.958	436.35
929.129	414.07
929.3	402.45
929.471	335.41
929.642	301.12
929.813	255.58
929.984	374.35
930.155	261.2
930.326	323.59
930.496	294.33
930.667	227.69
930.838	251.9
931.009	225.94
931.18	240.67
931.35	230.2
931.521	243.19
931.692	210.25
931.863	150.96
932.033	195.33
932.204	220.13
932.374	202.69
932.545	113.76
932.716	214.12
932.886	209.86
933.057	123.84
933.227	113.96
933.398	219.35
933.568	128.1
933.739	91.09
933.909	78.5
934.08	147.28
934.25	50.79
934.421	72.49
934.591	130.81
934.761	90.32
934.932	50.79
935.102	100.97
935.272	106.98
935.443	103.88
935.613	105.04
935.783	137.59
935.953	75.21
936.123	240.28
936.294	71.72
936.464	77.92
936.634	101.17
936.804	64.16
936.974	45.76
937.144	120.93
937.314	84.31
937.484	90.12
937.655	72.11
937.825	127.52
937.995	75.79
938.165	150.38
938.334	89.16
938.504	114.92
938.674	138.17
938.844	111.44
939.014	181.19
939.184	168.4
939.354	217.03
939.524	206.37
939.694	143.6
939.863	173.82
940.033	207.54
940.203	233.89
940.373	201.34
940.542	200.37
940.712	171.5
940.882	185.06
941.051	217.22
941.221	222.45
941.391	183.9
941.56	157.74
941.73	172.66
941.899	258.3
942.069	174.21
942.238	166.85
942.408	141.47
942.577	174.02
942.747	130.81
942.916	73.46
943.086	129.07
943.255	194.75
943.425	156.39
943.594	130.23
943.763	59.51
943.933	90.12
944.102	58.35
944.271	110.86
944.441	132.36
944.61	121.12
944.779	121.71
944.948	177.12
945.117	84.7
945.287	118.22
945.456	53.12
945.625	79.66
945.794	127.52
945.963	89.74
946.132	134.11
946.301	113.57
946.47	144.37
946.639	40.72
946.808	90.12
946.977	160.65
947.146	174.99
947.315	118.02
947.484	163.75
947.653	126.16
947.822	105.82
947.991	106.59
948.16	195.52
948.329	172.66
948.498	125
948.666	137.21
948.835	147.09
949.004	65.33
949.173	90.9
949.341	124.22
949.51	147.09
949.679	160.45
949.847	164.33
950.016	193.59
950.185	206.76
950.353	102.14
950.522	118.99
950.69	172.27
950.859	144.18
951.028	156.39
951.196	153.29
951.365	94.77
951.533	87.61
951.701	153.48
951.87	152.9
952.038	76.76
952.207	134.88
952.375	187.19
952.543	81.99
952.712	125
952.88	111.24
953.048	183.9
953.217	127.32
953.385	125.19
953.553	169.37
953.721	58.74
953.89	134.49
954.058	67.84
954.226	79.47
954.394	131.2
954.562	54.28
954.73	121.32
954.898	91.67
955.067	124.81
955.235	122.87
955.403	120.16
955.571	188.94
955.739	146.31
955.907	80.44
956.075	98.07
956.243	71.72
956.41	140.69
956.578	68.04
956.746	76.95
956.914	86.64
957.082	144.37
957.25	145.73
957.418	126.94
957.585	124.22
957.753	164.14
957.921	104.27
958.089	106.21
958.256	133.14
958.424	135.46
958.592	125.39
958.759	79.27
958.927	133.14
959.095	124.42
959.262	131.78
959.43	125.19
959.597	85.28
959.765	122.87
959.932	91.48
960.1	167.82
960.267	105.82
960.435	105.43
960.602	163.17
960.77	75.01
960.937	79.08
961.104	116.86
961.272	71.91
961.439	107.76
961.606	152.32
961.774	149.61
961.941	129.26
962.108	124.03
962.275	140.69
962.443	174.21
962.61	179.64
962.777	193
962.944	141.86
963.111	138.37
963.278	132.75
963.446	146.7
963.613	161.42
963.78	135.07
963.947	140.5
964.114	129.65
964.281	192.04
964.448	144.57
964.615	108.72
964.782	130.23
964.949	173.82
965.116	136.24
965.282	210.05
965.449	136.82
965.616	101.17
965.783	167.62
965.95	135.46
966.117	93.22
966.283	143.79
966.45	166.46
966.617	157.74
966.784	193
966.95	172.85
967.117	165.49
967.284	103.49
967.45	109.5
967.617	176.54
967.784	167.24
967.95	197.07
968.117	125.19
968.283	170.72
968.45	267.4
968.616	162.78
968.783	172.27
968.949	186.22
969.116	187.97
969.282	153.87
969.449	152.71
969.615	149.99
969.781	108.53
969.948	140.69
970.114	134.3
970.28	206.18
970.447	166.07
970.613	213.93
970.779	157.94
970.945	172.66
971.112	149.99
971.278	139.53
971.444	165.1
971.61	199.01
971.776	106.98
971.942	173.05
972.108	202.3
972.275	133.91
972.441	167.24
972.607	220.13
972.773	123.45
972.939	167.43
973.105	167.04
973.271	111.82
973.437	141.27
973.602	108.34
973.768	168.98
973.934	141.27
974.1	159.68
974.266	86.06
974.432	153.09
974.598	105.62
974.763	163.36
974.929	107.76
975.095	208.89
975.261	106.21
975.426	98.26
975.592	144.18
975.758	187.58
975.923	89.54
976.089	111.82
976.255	158.71
976.42	140.89
976.586	131.78
976.751	165.69
976.917	212.19
977.082	170.14
977.248	101.94
977.413	62.42
977.579	115.31
977.744	117.83
977.91	109.5
978.075	98.84
978.24	166.27
978.406	120.16
978.571	105.62
978.736	108.53
978.902	153.48
979.067	105.04
979.232	30.84
979.397	136.24
979.563	154.64
979.728	107.37
979.893	113.18
980.058	100.78
980.223	144.57
980.388	152.12
980.554	138.56
980.719	107.56
980.884	130.62
981.049	165.49
981.214	115.89
981.379	141.27
981.544	77.53
981.709	119.77
981.874	114.92
982.039	118.22
982.204	137.21
982.368	135.85
982.533	98.26
982.698	116.28
982.863	152.71
983.028	103.49
983.193	129.26
983.357	132.94
983.522	131.01
983.687	110.27
983.852	123.45
984.016	101.94
984.181	136.43
984.346	136.43
984.51	130.23
984.675	103.11
984.839	153.48
985.004	126.36
985.168	174.99
985.333	136.24
985.498	120.35
985.662	158.71
985.827	119.19
985.991	119.19
986.155	94.97
986.32	157.55
986.484	174.79
986.649	137.59
986.813	64.36
986.977	116.47
987.142	142.82
987.306	80.05
987.47	70.56
987.634	102.52
987.799	117.06
987.963	141.86
988.127	136.24
988.291	180.41
988.455	132.36
988.62	112.6
988.784	137.98
988.948	155.03
989.112	70.94
989.276	126.94
989.44	118.8
989.604	94
989.768	101.17
989.932	179.64
990.096	104.27
990.26	54.48
990.424	75.59
990.588	93.42
990.752	177.89
990.915	121.32
991.079	98.07
991.243	116.86
991.407	136.43
991.571	90.51
991.734	120.74
991.898	151.54
992.062	189.52
992.226	114.92
992.389	69.39
992.553	54.28
992.717	94.19
992.88	87.22
993.044	113.96
993.207	84.89
993.371	109.69
993.535	111.82
993.698	145.34
993.862	141.08
994.025	153.48
994.189	117.25
994.352	92.26
994.515	125
994.679	149.02
994.842	80.63
995.006	143.6
995.169	75.59
995.332	91.29
995.496	95.94
995.659	30.64
995.822	77.34
995.985	93.22
996.149	131.97
996.312	98.84
996.475	158.32
996.638	70.75
996.801	151.74
996.964	168.79
997.128	66.29
997.291	75.4
997.454	115.31
997.617	60.09
997.78	134.11
997.943	56.41
998.106	108.92
998.269	66.49
998.432	81.6
998.595	94
998.758	30.26
998.92	52.73
999.083	38.98
999.246	73.07
999.409	64.16
999.572	27.74
999.735	51.96
999.897	92.64
1000.06	64.55
1000.223	82.37
1000.386	99.62
1000.548	112.21
1000.711	98.46
1000.874	85.09
1001.036	53.31
1001.199	117.64
1001.361	55.44
1001.524	68.81
1001.687	123.45
1001.849	35.68
1002.012	104.07
1002.174	89.16
1002.337	110.47
1002.499	78.31
1002.661	139.34
1002.824	59.71
1002.986	60.09
1003.149	64.94
1003.311	42.66
1003.473	130.23
1003.636	38.59
1003.798	71.33
1003.96	97.87
1004.123	76.17
1004.285	62.81
1004.447	66.29
1004.609	69.2
1004.771	113.18
1004.933	21.73
1005.096	25.03
1005.258	21.15
1005.42	44.79
1005.582	95.55
1005.744	91.48
1005.906	50.99
1006.068	47.31
1006.23	59.32
1006.392	12.24
1006.554	30.45
1006.716	82.76
1006.878	74.24
1007.04	10.69
1007.202	66.49
1007.363	81.99
1007.525	67.07
1007.687	85.47
1007.849	107.56
1008.011	13.21
1008.172	46.73
1008.334	35.49
1008.496	73.85
1008.658	5.26
1008.819	33.74
1008.981	25.22
1009.143	18.44
1009.304	58.54
1009.466	81.21
1009.627	105.43
1009.789	162.59
1009.95	75.79
1010.112	24.06
1010.273	62.81
1010.435	21.15
1010.596	68.81
1010.758	45.18
1010.919	33.94
1011.081	9.33
1011.242	55.25
1011.403	83.54
1011.565	45.18
1011.726	53.7
1011.887	-8.3
1012.049	47.31
1012.21	69.98
1012.371	110.47
1012.532	-20.89
1012.693	33.94
1012.855	34.71
1013.016	54.67
1013.177	86.44
1013.338	29.09
1013.499	113.37
1013.66	63
1013.821	74.43
1013.982	47.89
1014.143	56.99
1014.304	27.93
1014.465	65.71
1014.626	72.88
1014.787	34.33
1014.948	145.92
1015.109	-10.82
1015.27	75.4
1015.431	16.5
1015.592	10.88
1015.752	94.39
1015.913	57.77
1016.074	36.65
1016.235	50.99
1016.395	41.49
1016.556	25.8
1016.717	39.56
1016.877	94.58
1017.038	28.32
1017.199	75.98
1017.359	64.55
1017.52	60.29
1017.681	53.51
1017.841	39.36
1018.002	47.89
1018.162	25.8
1018.323	106.21
1018.483	35.1
1018.644	40.14
1018.804	-11.4
1018.964	18.44
1019.125	24.64
1019.285	57.96
1019.446	-14.31
1019.606	5.46
1019.766	-9.85
1019.926	54.09
1020.087	62.23
1020.247	-12.76
1020.407	42.85
1020.567	75.98
1020.728	25.41
1020.888	14.37
1021.048	7.01
1021.208	23.09
1021.368	23.86
1021.528	77.72
1021.688	57.38
1021.848	52.73
1022.008	35.1
1022.168	9.14
1022.328	25.61
1022.488	46.34
1022.648	14.95
1022.808	17.28
1022.968	48.08
1023.128	22.51
1023.288	6.04
1023.448	52.34
1023.608	50.41
1023.767	33.74
1023.927	21.93
1024.087	-19.73
1024.247	7.78
1024.406	8.56
1024.566	-4.81
1024.726	10.3
1024.885	19.79
1025.045	51.18
1025.205	23.28
1025.364	13.98
1025.524	40.91
1025.683	12.43
1025.843	47.89
1026.003	36.26
1026.162	91.67
1026.321	84.89
1026.481	31.81
1026.64	37.62
1026.8	35.49
1026.959	40.53
1027.119	39.36
1027.278	14.37
1027.437	34.91
1027.597	31.23
1027.756	26.96
1027.915	33.74
1028.074	40.72
1028.234	5.07
1028.393	46.73
1028.552	8.56
1028.711	-37.17
1028.87	47.11
1029.03	-21.28
1029.189	7.59
1029.348	-49.18
1029.507	16.11
1029.666	-8.49
1029.825	-5.39
1029.984	-32.13
1030.143	34.13
1030.302	-0.36
1030.461	-42.2
1030.62	17.08
1030.779	39.17
1030.938	-22.05
1031.097	-8.3
1031.255	55.44
1031.414	74.24
1031.573	87.61
1031.732	-26.32
1031.891	17.86
1032.049	56.8
1032.208	45.95
1032.367	-0.16
1032.525	6.43
1032.684	-7.33
1032.843	43.04
1033.001	-20.89
1033.16	174.79
1033.319	49.83
1033.477	49.63
1033.636	-0.16
1033.794	-26.12
1033.953	38.98
1034.111	44.01
1034.27	11.85
1034.428	13.79
1034.587	-18.18
1034.745	17.66
1034.903	27.54
1035.062	35.29
1035.22	-18.37
1035.378	50.79
1035.537	-10.82
1035.695	30.64
1035.853	-13.92
1036.011	57.96
1036.17	16.69
1036.328	-29.42
1036.486	32.19
1036.644	31.23
1036.802	-46.85
1036.96	-6.75
1037.119	10.49
1037.277	-9.07
1037.435	-10.04
1037.593	-28.84
1037.751	18.05
1037.909	53.7
1038.067	53.7
