Data from gum_old_FLMT105791__178__15-48-05-249.txt Node

Date: Mon Mar 20 15:48:05 GMT 2023
User: antho
Spectrometer: FLMT10579
Trigger mode: 0
Integration Time (sec): 1.000000E-1
Scans to average: 10
Electric dark correction enabled: true
Nonlinearity correction enabled: false
Boxcar width: 0
XAxis mode: Wavelengths
Number of Pixels in Spectrum: 3648
>>>>>Begin Spectral Data<<<<<
345.248	-185.32
345.464	-185.32
345.681	-185.32
345.898	-186.48
346.114	-191.71
346.331	-23.93
346.548	35.17
346.764	-21.6
346.981	-10.17
347.197	-12.3
347.414	1.65
347.631	-39.43
347.847	46.21
348.064	2.23
348.28	38.65
348.497	-29.93
348.713	13.47
348.93	8.62
349.146	38.07
349.363	-8.82
349.579	25.09
349.796	-8.04
350.012	-8.23
350.229	34.58
350.445	-4.36
350.661	0.48
350.878	3.2
351.094	49.31
351.311	14.63
351.527	25.48
351.743	-13.85
351.96	53.57
352.176	47.18
352.392	33.81
352.609	39.82
352.825	-26.64
353.041	21.8
353.257	12.88
353.474	3.39
353.69	35.75
353.906	27.61
354.122	-13.47
354.339	82.25
354.555	11.92
354.771	14.05
354.987	76.82
355.203	70.62
355.42	9.78
355.636	16.57
355.852	-9.98
356.068	22.96
356.284	-13.08
356.5	99.1
356.716	32.65
356.932	4.55
357.148	42.92
357.364	14.82
357.58	59.38
357.796	71.59
358.012	65.97
358.228	59.77
358.444	-66.75
358.66	47.56
358.876	25.67
359.092	-2.42
359.308	31.48
359.524	65.78
359.74	1.84
359.956	12.5
360.172	20.83
360.388	76.82
360.604	21.99
360.819	97.55
361.035	60.55
361.251	50.47
361.467	-9.78
361.683	77.6
361.898	49.11
362.114	56.86
362.33	27.22
362.546	58.41
362.762	30.13
362.977	34
363.193	-0.1
363.409	71.78
363.624	-15.21
363.84	9.98
364.056	10.56
364.271	57.06
364.487	50.66
364.703	10.75
364.918	3
365.134	48.92
365.35	15.98
365.565	132.04
365.781	61.51
365.996	65.58
366.212	109.56
366.427	51.44
366.643	18.31
366.858	11.53
367.074	-11.33
367.289	74.69
367.505	149.09
367.72	-1.45
367.936	34.78
368.151	98.91
368.367	64.61
368.582	29.74
368.798	-0.1
369.013	91.93
369.228	57.64
369.444	40.01
369.659	103.17
369.874	71.78
370.09	97.75
370.305	-34.2
370.52	20.63
370.736	96.78
370.951	54.93
371.166	101.43
371.381	93.68
371.597	70.04
371.812	15.4
372.027	17.53
372.242	32.84
372.458	132.23
372.673	42.53
372.888	48.53
373.103	50.08
373.318	110.73
373.533	72.56
373.749	72.56
373.964	-3.2
374.179	93.1
374.394	30.9
374.609	114.41
374.824	35.55
375.039	72.56
375.254	20.83
375.469	90.38
375.684	77.01
375.899	82.25
376.114	63.06
376.329	68.88
376.544	98.71
376.759	85.73
376.974	49.5
377.189	18.7
377.404	58.61
377.619	107.43
377.834	23.54
378.049	21.22
378.264	68.1
378.478	85.54
378.693	49.11
378.908	98.33
379.123	58.61
379.338	110.92
379.553	96.2
379.767	57.06
379.982	76.43
380.197	93.48
380.412	56.67
380.626	63.65
380.841	132.62
381.056	87.09
381.271	115.18
381.485	32.26
381.7	54.15
381.915	73.72
382.129	61.13
382.344	68.68
382.559	54.73
382.773	95.42
382.988	32.65
383.202	65
383.417	28.58
383.632	143.28
383.846	59.38
384.061	73.72
384.275	46.21
384.49	89.03
384.704	68.88
384.919	69.26
385.133	59.96
385.348	114.99
385.562	24.32
385.777	133.39
385.991	103.75
386.206	70.43
386.42	30.9
386.634	91.74
386.849	77.6
387.063	104.33
387.277	53.38
387.492	65.2
387.706	52.99
387.92	72.17
388.135	107.43
388.349	95.42
388.563	124.1
388.778	89.22
388.992	87.28
389.206	122.16
389.42	191.52
389.635	100.46
389.849	123.51
390.063	132.81
390.277	117.31
390.491	205.47
390.706	121.19
390.92	149.09
391.134	98.52
391.348	152.58
391.562	69.46
391.776	136.11
391.99	97.16
392.205	152.58
392.419	82.25
392.633	129.13
392.847	156.06
393.061	96.97
393.275	164.98
393.489	113.05
393.703	100.65
393.917	121.19
394.131	44.08
394.345	96
394.559	126.81
394.773	87.67
394.986	126.03
395.2	103.95
395.414	167.3
395.628	111.11
395.842	176.99
396.056	100.26
396.27	82.25
396.484	159.55
396.697	133.2
396.911	142.69
397.125	116.54
397.339	120.22
397.553	129.33
397.766	166.14
397.98	171.76
398.194	154.9
398.408	132.62
398.621	176.99
398.835	216.13
399.049	188.23
399.262	246.93
399.476	198.49
399.69	220.58
399.903	264.95
400.117	209.34
400.331	222.13
400.544	173.69
400.758	319.2
400.971	225.23
401.185	240.54
401.398	198.3
401.612	271.54
401.826	242.09
402.039	244.22
402.253	191.91
402.466	260.69
402.68	217.68
402.893	246.35
403.106	248.87
403.32	227.56
403.533	257.59
403.747	214.77
403.96	265.14
404.174	269.02
404.387	213.99
404.6	243.06
404.814	270.76
405.027	232.4
405.24	248.87
405.454	213.99
405.667	275.41
405.88	177.96
406.094	243.25
406.307	297.31
406.52	259.91
406.733	190.74
406.947	187.26
407.16	303.31
407.373	269.79
407.586	236.86
407.799	208.18
408.012	263.59
408.226	269.99
408.439	311.45
408.652	218.45
408.865	285.68
409.078	322.3
409.291	296.34
409.504	239.57
409.717	318.62
409.93	295.95
410.143	275.22
410.357	198.69
410.57	207.6
410.783	236.08
410.996	265.53
411.209	275.61
411.421	326.37
411.634	309.9
411.847	258.36
412.06	284.32
412.273	282.77
412.486	283.74
412.699	379.65
412.912	282.19
413.125	323.27
413.338	319
413.55	360.85
413.763	299.05
413.976	345.55
414.189	293.62
414.402	291.49
414.615	359.5
414.827	286.65
415.04	346.52
415.253	346.32
415.466	366.86
415.678	394.57
415.891	328.69
416.104	328.89
416.316	324.04
416.529	322.88
416.742	368.99
416.954	375
417.167	350.78
417.38	311.45
417.592	347.68
417.805	302.54
418.017	255.07
418.23	387.79
418.442	298.08
418.655	336.44
418.868	337.99
419.08	380.23
419.293	383.91
419.505	342.84
419.718	370.35
419.93	394.37
420.142	344
420.355	389.34
420.567	400.77
420.78	388.17
420.992	366.09
421.205	433.51
421.417	305.06
421.629	364.73
421.842	331.99
422.054	340.7
422.266	390.69
422.479	423.63
422.691	322.1
422.903	377.9
423.115	329.85
423.328	375.77
423.54	350
423.752	360.27
423.964	333.73
424.177	410.07
424.389	360.08
424.601	467.61
424.813	414.91
425.025	412.58
425.238	441.84
425.45	366.86
425.662	406.77
425.874	718.51
426.086	373.25
426.298	400.77
426.51	389.34
426.722	373.06
426.934	357.56
427.146	423.24
427.358	339.74
427.57	428.86
427.782	387.01
427.994	377.52
428.206	380.04
428.418	368.22
428.63	421.69
428.842	460.63
429.054	408.9
429.266	441.07
429.478	349.62
429.69	389.14
429.902	311.64
430.114	408.32
430.325	400.57
430.537	346.32
430.749	331.79
430.961	256.62
431.173	305.06
431.384	364.73
431.596	261.66
431.808	343.42
432.02	403.67
432.231	459.47
432.443	510.81
432.655	468.97
432.867	430.02
433.078	466.64
433.29	517.98
433.502	483.88
433.713	512.95
433.925	470.71
434.136	529.03
434.348	418.01
434.56	379.65
434.771	549.18
434.983	402.7
435.194	404.64
435.406	474.39
435.617	558.86
435.829	560.8
436.04	498.22
436.252	542.01
436.463	571.46
436.675	568.94
436.886	568.55
437.098	560.22
437.309	610.4
437.521	536.97
437.732	545.88
437.943	525.54
438.155	524.96
438.366	492.21
438.578	575.72
438.789	489.89
439	518.37
439.211	472.65
439.423	506.36
439.634	550.73
439.845	558.09
440.057	566.81
440.268	599.74
440.479	527.28
440.69	542.2
440.902	506.16
441.113	543.36
441.324	504.61
441.535	575.53
441.746	633.84
441.957	547.05
442.168	581.73
442.38	621.06
442.591	615.24
442.802	533.1
443.013	591.8
443.224	625.9
443.435	596.84
443.646	597.61
443.857	585.79
444.068	608.85
444.279	567
444.49	684.02
444.701	633.07
444.912	762.3
445.123	656.12
445.334	639.85
445.545	641.4
445.756	644.5
445.967	580.37
446.178	643.92
446.388	656.9
446.599	654.96
446.81	682.28
447.021	578.82
447.232	662.13
447.443	702.62
447.653	622.8
447.864	698.75
448.075	657.29
448.286	685.77
448.496	664.26
448.707	706.69
448.918	646.24
449.129	758.42
449.339	605.75
449.55	678.02
449.761	668.33
449.971	724.32
450.182	668.72
450.393	732.66
450.603	692.55
450.814	772.37
451.024	727.62
451.235	756.1
451.446	783.03
451.656	775.86
451.867	699.91
452.077	730.14
452.288	806.86
452.498	770.44
452.709	732.27
452.919	728.97
453.13	642.76
453.34	754.94
453.55	671.43
453.761	751.64
453.971	707.27
454.182	728.78
454.392	709.6
454.602	797.75
454.813	765.98
455.023	793.1
455.233	667.56
455.444	731.69
455.654	633.07
455.864	695.07
456.075	712.7
456.285	720.45
456.495	729.17
456.705	744.47
456.916	803.95
457.126	821.39
457.336	728.59
457.546	678.79
457.756	723.16
457.967	824.69
458.177	730.91
458.387	758.23
458.597	718.32
458.807	752.03
459.017	716.96
459.227	728.97
459.437	728.01
459.647	811.9
459.857	795.43
460.068	727.81
460.278	778.77
460.488	772.57
460.698	827.59
460.908	747.96
461.117	765.59
461.327	752.8
461.537	789.04
461.747	803.18
461.957	783.42
462.167	922.53
462.377	814.22
462.587	801.24
462.797	874.28
463.007	814.61
463.216	861.11
463.426	904.9
463.636	855.68
463.846	771.6
464.056	825.27
464.265	850.07
464.475	775.86
464.685	817.71
464.895	872.73
465.104	839.99
465.314	871.18
465.524	817.71
465.733	774.89
465.943	903.15
466.153	891.14
466.362	871.77
466.572	841.54
466.782	851.81
466.991	863.43
467.201	925.63
467.41	761.91
467.62	847.74
467.829	868.08
468.039	874.09
468.249	851.23
468.458	889.98
468.668	921.17
468.877	885.91
469.086	953.91
469.296	911.1
469.505	899.47
469.715	959.15
469.924	919.04
470.134	943.06
470.343	931.83
470.552	899.47
470.762	900.25
470.971	872.93
471.18	895.79
471.39	909.16
471.599	897.92
471.808	940.35
472.018	927.56
472.227	1010.29
472.436	1051.76
472.645	983.56
472.855	950.43
473.064	1071.52
473.273	998.28
473.482	1027.34
473.691	1050.79
473.901	1048.46
474.11	986.46
474.319	1102.91
474.528	1022.69
474.737	1101.74
474.946	1054.08
475.155	1090.89
475.364	1123.83
475.573	1087.99
475.783	1095.93
475.992	1099.61
476.201	1116.08
476.41	1073.65
476.619	1038.19
476.828	1084.89
477.037	1076.94
477.245	1081.98
477.454	1154.44
477.663	1105.42
477.872	1163.16
478.081	1211.79
478.29	1117.24
478.499	1252.09
478.708	1199
478.917	1253.64
479.125	1214.89
479.334	1171.11
479.543	1173.62
479.752	1231.36
479.961	1261.2
480.169	1260.62
480.378	1259.26
480.587	1386.94
480.796	1270.69
481.004	1257.52
481.213	1294.33
481.422	1289.29
481.63	1312.93
481.839	1301.5
482.048	1380.74
482.256	1319.52
482.465	1381.51
482.674	1376.67
482.882	1369.5
483.091	1430.73
483.299	1327.85
483.508	1411.93
483.716	1366.21
483.925	1378.22
484.134	1329.98
484.342	1332.69
484.551	1398.95
484.759	1385.39
484.967	1407.28
485.176	1434.99
485.384	1416.97
485.593	1395.46
485.801	1414.65
486.01	1330.95
486.218	1287.55
486.426	1222.64
486.635	1220.51
486.843	1196.87
487.051	1282.32
487.26	1255.19
487.468	1300.33
487.676	1346.45
487.885	1325.13
488.093	1375.7
488.301	1460.18
488.509	1420.07
488.717	1466.76
488.926	1472.96
489.134	1448.16
489.342	1441
489.55	1422.98
489.758	1452.23
489.967	1453.2
490.175	1597.74
490.383	1517.14
490.591	1621.57
490.799	1529.54
491.007	1622.15
491.215	1556.08
491.423	1545.23
491.631	1576.23
491.839	1525.66
492.047	1591.34
492.255	1522.95
492.463	1466.38
492.671	1471.41
492.879	1586.89
493.087	1541.36
493.295	1573.91
493.503	1605.68
493.711	1626.8
493.919	1639.97
494.127	1670.78
494.334	1646.95
494.542	1577.97
494.75	1625.05
494.958	1609.75
495.166	1731.81
495.374	1679.69
495.581	1677.75
495.789	1657.99
495.997	1742.27
496.205	1643.46
496.412	1656.25
496.62	1687.05
496.828	1670.2
497.035	1711.08
497.243	1725.22
497.451	1697.13
497.658	1715.92
497.866	1698.87
498.074	1808.15
498.281	1695
498.489	1779.08
498.696	1719.99
498.904	1685.89
499.112	1681.24
499.319	1751.38
499.527	1735.1
499.734	1799.43
499.942	1668.45
500.149	1721.35
500.357	1748.47
500.564	1697.71
500.771	1696.94
500.979	1647.34
501.186	1645.79
501.394	1716.89
501.601	1680.27
501.808	1690.74
502.016	1685.31
502.223	1681.05
502.43	1700.62
502.638	1653.92
502.845	1686.28
503.052	1824.23
503.26	1684.15
503.467	1815.9
503.674	1758.93
503.881	1788.97
504.089	1822.29
504.296	1828.88
504.503	1702.55
504.71	1755.06
504.917	1727.16
505.125	1768.23
505.332	1788.19
505.539	1807.56
505.746	1885.45
505.953	1855.42
506.16	1846.7
506.367	1922.26
506.574	1919.74
506.781	1948.61
506.988	1887.58
507.195	1896.69
507.402	1879.06
507.609	1932.34
507.816	1848.64
508.023	1893.39
508.23	1820.16
508.437	1777.92
508.644	1887.58
508.851	1878.28
509.058	1885.06
509.265	1888.36
509.472	1925.94
509.679	2004.22
509.885	1914.32
510.092	1950.74
510.299	1973.22
510.506	1936.79
510.713	1924.2
510.92	1881.19
511.126	1949.78
511.333	1990.46
511.54	1979.42
511.746	2023.21
511.953	2004.99
512.16	2022.82
512.367	1968.76
512.573	2003.25
512.78	2025.14
512.987	1989.88
513.193	1968.76
513.4	1903.66
513.606	1932.92
513.813	1993.95
514.02	1967.21
514.226	2019.33
514.433	2005.96
514.639	1925.75
514.846	1976.12
515.052	1931.95
515.259	1999.96
515.465	1996.86
515.672	1992.59
515.878	2103.22
516.085	2027.08
516.291	2074.74
516.497	2006.54
516.704	1986.2
516.91	1948.81
517.117	1884.09
517.323	1810.28
517.529	1810.47
517.736	1812.21
517.942	1826.36
518.148	1854.45
518.354	1929.24
518.561	1932.73
518.767	1915.29
518.973	1940.09
519.179	1961.4
519.386	1933.31
519.592	1945.9
519.798	2005.77
520.004	2090.63
520.21	2044.91
520.417	2130.15
520.623	2143.13
520.829	2187.7
521.035	2166.97
521.241	2166.58
521.447	2164.83
521.653	2279.92
521.859	2159.02
522.065	2233.03
522.271	2327.78
522.477	2302.59
522.683	2297.16
522.889	2226.45
523.095	2260.35
523.301	2232.26
523.507	2209.78
523.713	2195.06
523.919	2209.98
524.125	2300.46
524.331	2270.43
524.537	2383.77
524.742	2395.2
524.948	2371.76
525.154	2398.3
525.36	2494.79
525.566	2352.38
525.772	2422.71
525.977	2366.33
526.183	2402.18
526.389	2432.4
526.595	2352.38
526.8	2313.83
527.006	2218.5
527.212	2211.14
527.417	2179.75
527.623	2166
527.829	2256.48
528.034	2265.97
528.24	2271.59
528.446	2326.23
528.651	2432.59
528.857	2444.41
529.062	2511.06
529.268	2478.51
529.473	2498.66
529.679	2498.27
529.884	2566.28
530.09	2556.2
530.295	2540.32
530.501	2554.46
530.706	2552.52
530.912	2517.45
531.117	2567.44
531.323	2564.73
531.528	2624.4
531.733	2642.03
531.939	2596.12
532.144	2649.4
532.35	2643.78
532.555	2656.37
532.76	2599.41
532.966	2599.6
533.171	2522.1
533.376	2510.87
533.581	2480.64
533.787	2524.24
533.992	2580.23
534.197	2603.48
534.402	2602.9
534.607	2607.93
534.813	2694.35
535.018	2570.74
535.223	2637.77
535.428	2608.13
535.633	2663.73
535.838	2684.27
536.043	2729.03
536.249	2814.86
536.454	2726.31
536.659	2723.8
536.864	2672.26
537.069	2704.03
537.274	2680.59
537.479	2678.26
537.684	2666.83
537.889	2598.63
538.094	2818.54
538.299	2655.98
538.504	2711.2
538.708	2693.38
538.913	2770.49
539.118	2690.86
539.323	2707.13
539.528	2687.18
539.733	2672.06
539.938	2705.2
540.142	2680.98
540.347	2672.45
540.552	2623.24
540.757	2680.2
540.962	2606.38
541.166	2601.73
541.371	2569.38
541.576	2667.61
541.781	2568.02
541.985	2707.13
542.19	2603.87
542.395	2771.46
542.599	2820.48
542.804	2701.13
543.008	2784.63
543.213	2708.88
543.418	2664.12
543.622	2774.56
543.827	2672.65
544.031	2782.89
544.236	2791.61
544.44	2763.13
544.645	2835.98
544.849	2747.63
545.054	2847.02
545.258	2864.26
545.463	2868.72
545.667	2737.36
545.872	2794.51
546.076	2808.85
546.281	2804.2
546.485	2753.24
546.689	2806.72
546.894	2829.78
547.098	2789.28
547.302	2747.24
547.507	2801.1
547.711	2823.58
547.915	2841.59
548.119	2716.24
548.324	2779.59
548.528	2837.72
548.732	2783.28
548.936	2822.22
549.141	2847.6
549.345	2791.22
549.549	2795.48
549.753	2818.54
549.957	2919.09
550.161	2923.94
550.366	2827.84
550.57	2810.21
550.774	2833.46
550.978	2823.77
551.182	2837.72
551.386	2791.03
551.59	2808.85
551.794	2828.81
551.998	2839.85
552.202	2787.73
552.406	2767.58
552.61	2829.39
552.814	2842.37
553.018	2874.34
553.222	2782.5
553.426	2793.74
553.63	2892.36
553.833	2798.97
554.037	2746.08
554.241	2810.01
554.445	2841.4
554.649	2814.86
554.853	2791.41
555.056	2831.71
555.26	2857.87
555.464	2808.27
555.668	2861.16
555.871	2854.38
556.075	2866.01
556.279	2801.88
556.483	2777.46
556.686	2783.47
556.89	2779.01
557.094	2815.83
557.297	2684.08
557.501	2808.66
557.704	2661.22
557.908	2762.93
558.112	2706.36
558.315	2810.59
558.519	2739.49
558.722	2757.12
558.926	2728.83
559.129	2627.7
559.333	2654.24
559.536	2646.1
559.74	2576.74
559.943	2574.22
560.147	2591.08
560.35	2589.14
560.553	2675.55
560.757	2565.12
560.96	2728.45
561.164	2620.14
561.367	2721.66
561.57	2695.7
561.774	2710.23
561.977	2645.91
562.18	2626.73
562.384	2733.1
562.587	2645.72
562.79	2624.98
562.993	2672.26
563.197	2634.48
563.4	2703.45
563.603	2697.83
563.806	2761.77
564.009	2644.75
564.212	2724.18
564.416	2589.72
564.619	2665.48
564.822	2553.1
565.025	2679.23
565.228	2605.42
565.431	2624.21
565.634	2504.28
565.837	2587.98
566.04	2527.34
566.243	2547.87
566.446	2404.11
566.649	2556.98
566.852	2458.56
567.055	2459.91
567.258	2521.52
567.461	2609.68
567.664	2562.4
567.867	2467.27
568.07	2546.52
568.273	2541.29
568.475	2577.71
568.678	2478.71
568.881	2462.82
569.084	2496.34
569.287	2347.15
569.489	2376.79
569.692	2414.38
569.895	2454.49
570.098	2389
570.3	2386.48
570.503	2358.58
570.706	2388.23
570.909	2364.59
571.111	2333.98
571.314	2232.84
571.516	2299.3
571.719	2339.79
571.922	2295.42
572.124	2281.66
572.327	2329.91
572.529	2293.1
572.732	2263.84
572.935	2375.24
573.137	2414.38
573.34	2360.33
573.542	2382.61
573.745	2323.51
573.947	2372.53
574.15	2332.04
574.352	2319.44
574.554	2376.99
574.757	2285.73
574.959	2270.43
575.162	2286.12
575.364	2261.13
575.566	2381.25
575.769	2196.61
575.971	2243.69
576.173	2124.15
576.376	2204.17
576.578	2262.29
576.78	2296.39
576.982	2163.28
577.185	2236.52
577.387	2202.81
577.589	2204.75
577.791	2219.47
577.993	2259.38
578.196	2203.39
578.398	2200.68
578.6	2199.9
578.802	2125.12
579.004	2075.13
579.206	2139.45
579.408	2201.84
579.61	2118.53
579.812	2190.99
580.014	2124.92
580.216	2136.55
580.418	2148.56
580.62	2146.82
580.822	2099.54
581.024	2144.3
581.226	2177.04
581.428	2132.87
581.63	2243.3
581.832	2116.98
582.034	2203.97
582.236	2165.22
582.438	2180.72
582.64	2199.52
582.841	2258.41
583.043	2265.39
583.245	2165.61
583.447	2186.53
583.649	2181.88
583.85	2145.85
584.052	2209.01
584.254	2116.79
584.456	2177.43
584.657	2092.57
584.859	2158.44
585.061	2130.15
585.262	2101.48
585.464	2085.79
585.666	2183.82
585.867	2067.19
586.069	2128.99
586.27	2101.67
586.472	2098.77
586.674	2083.65
586.875	2075.52
587.077	2015.07
587.278	2101.48
587.48	2072.03
587.681	2169.68
587.883	2137.13
588.084	2051.88
588.285	2068.35
588.487	2035.02
588.688	2043.94
588.89	1963.14
589.091	1911.61
589.292	1948.03
589.494	1881.19
589.695	1830.43
589.896	1738.4
590.098	1791.48
590.299	1810.08
590.5	1780.25
590.702	1842.05
590.903	1893.78
591.104	1972.25
591.305	1929.82
591.507	1956.75
591.708	1992.4
591.909	1970.31
592.11	2008.67
592.311	1950.16
592.512	1930.79
592.714	1867.82
592.915	1918.19
593.116	1936.79
593.317	1951.52
593.518	1962.76
593.719	1934.08
593.92	1971.28
594.121	2031.34
594.322	1938.93
594.523	1973.99
594.724	1884.87
594.925	1950.55
595.126	1959.27
595.327	1946.29
595.528	1977.48
595.729	1966.24
595.929	1942.99
596.13	1921.88
596.331	1949.19
596.532	1935.44
596.733	1996.66
596.934	1955.59
597.135	2000.34
597.335	1963.53
597.536	1942.99
597.737	1933.89
597.938	1873.44
598.138	1917.23
598.339	1916.84
598.54	1929.24
598.74	1937.57
598.941	1897.85
599.142	1970.7
599.342	1938.15
599.543	1903.28
599.744	1917.03
599.944	1937.57
600.145	1892.04
600.345	1910.44
600.546	1993.37
600.746	1995.11
600.947	1962.37
601.147	1917.23
601.348	1944.54
601.548	1875.96
601.749	1917.03
601.949	1850.77
602.15	1887.97
602.35	1873.25
602.551	1900.37
602.751	1847.09
602.951	1869.56
603.152	1827.13
603.352	1934.28
603.552	1880.03
603.753	1905.41
603.953	1914.13
604.153	1908.51
604.354	1903.86
604.554	1887
604.754	1880.41
604.954	1825.39
605.155	1886.23
605.355	1843.21
605.555	1931.76
605.755	1973.99
605.955	1885.45
606.155	1907.73
606.356	1897.85
606.556	1889.71
606.756	1918.78
606.956	1816.86
607.156	1891.46
607.356	1827.91
607.556	1893.59
607.756	1869.18
607.956	1935.83
608.156	1877.7
608.356	1845.15
608.556	1881.77
608.756	1855.61
608.956	1783.15
609.156	1853.48
609.356	1810.47
609.556	1781.6
609.755	1830.43
609.955	1789.55
610.155	1830.62
610.355	1827.71
610.555	1777.34
610.755	1776.76
610.954	1737.04
611.154	1760.48
611.354	1813.38
611.554	1748.47
611.753	1788
611.953	1719.99
612.153	1787.61
612.352	1787.61
612.552	1721.93
612.752	1688.22
612.951	1736.46
613.151	1754.48
613.351	1691.32
613.55	1752.93
613.75	1753.51
613.949	1736.27
614.149	1706.62
614.348	1693.25
614.548	1711.27
614.747	1620.4
614.947	1678.34
615.146	1643.65
615.346	1725.03
615.545	1707.4
615.745	1694.22
615.944	1716.31
616.144	1686.28
616.343	1711.08
616.542	1627.77
616.742	1639.39
616.941	1642.49
617.14	1620.6
617.34	1641.72
617.539	1644.82
617.738	1617.69
617.938	1722.12
618.137	1632.61
618.336	1593.67
618.535	1684.54
618.734	1677.17
618.934	1638.42
619.133	1646.95
619.332	1691.9
619.531	1614.4
619.73	1639
619.929	1676.98
620.128	1676.4
620.328	1733.75
620.527	1653.92
620.726	1635.32
620.925	1641.52
621.124	1635.13
621.323	1669.23
621.522	1585.34
621.721	1626.99
621.92	1588.63
622.119	1621.37
622.318	1593.09
622.517	1596.57
622.715	1597.93
622.914	1537.87
623.113	1580.49
623.312	1494.28
623.511	1597.93
623.71	1551.43
623.909	1539.42
624.107	1629.51
624.306	1507.45
624.505	1505.71
624.704	1542.32
624.902	1511.71
625.101	1595.61
625.3	1538.64
625.499	1512.88
625.697	1524.89
625.896	1500.28
626.095	1528.96
626.293	1452.23
626.492	1485.56
626.69	1542.32
626.889	1491.95
627.088	1555.11
627.286	1486.91
627.485	1494.66
627.683	1531.47
627.882	1558.02
628.08	1439.06
628.279	1479.16
628.477	1586.11
628.676	1470.25
628.874	1517.33
629.073	1450.29
629.271	1465.02
629.469	1503.77
629.668	1469.48
629.866	1456.49
630.065	1454.75
630.263	1493.69
630.461	1440.41
630.66	1479.55
630.858	1471.99
631.056	1494.66
631.254	1532.25
631.453	1472.58
631.651	1479.36
631.849	1450.29
632.047	1466.18
632.245	1465.99
632.444	1443.51
632.642	1490.98
632.84	1468.31
633.038	1447
633.236	1440.41
633.434	1424.91
633.632	1474.13
633.83	1398.37
634.028	1494.66
634.227	1456.49
634.425	1491.56
634.623	1469.09
634.821	1444.68
635.019	1487.11
635.216	1436.35
635.414	1509.97
635.612	1452.23
635.81	1433.44
636.008	1521.79
636.206	1441.96
636.404	1452.81
636.602	1397.01
636.8	1400.89
636.997	1451.46
637.195	1443.32
637.393	1437.51
637.591	1484.59
637.789	1447.58
637.986	1425.11
638.184	1433.05
638.382	1488.27
638.58	1461.34
638.777	1517.53
638.975	1430.53
639.173	1436.54
639.37	1436.54
639.568	1413.68
639.765	1481.88
639.963	1427.43
640.161	1444.68
640.358	1437.31
640.556	1337.73
640.753	1362.72
640.951	1344.9
641.148	1410.38
641.346	1360.2
641.543	1369.89
641.741	1386.94
641.938	1324.94
642.136	1372.02
642.333	1371.25
642.531	1421.23
642.728	1470.44
642.925	1366.01
643.123	1321.26
643.32	1374.73
643.517	1375.12
643.715	1356.91
643.912	1340.05
644.109	1356.91
644.306	1345.09
644.504	1344.51
644.701	1331.33
644.898	1375.7
645.095	1305.18
645.293	1336.95
645.49	1357.49
645.687	1319.52
645.884	1372.99
646.081	1270.69
646.278	1299.95
646.475	1304.4
646.672	1290.45
646.87	1309.83
647.067	1313.51
647.264	1292.39
647.461	1269.33
647.658	1218.57
647.855	1279.99
648.052	1265.07
648.249	1187.38
648.446	1243.37
648.642	1248.99
648.839	1207.53
649.036	1234.07
649.233	1202.69
649.43	1190.87
649.627	1164.13
649.824	1187.96
650.021	1182.15
650.217	1199.59
650.414	1210.82
650.611	1204.43
650.808	1248.8
651.004	1241.44
651.201	1239.69
651.398	1297.82
651.595	1209.27
651.791	1241.63
651.988	1255.39
652.185	1203.85
652.381	1229.42
652.578	1152.89
652.775	1197.45
652.971	1226.52
653.168	1212.37
653.364	1244.15
653.561	1150.18
653.757	1195.32
653.954	1219.93
654.15	1225.55
654.347	1266.04
654.543	1248.6
654.74	1148.05
654.936	1158.71
655.133	1191.84
655.329	1195.32
655.525	1168.2
655.722	1200.17
655.918	1127.51
656.115	1149.21
656.311	1050.21
656.507	993.05
656.704	983.56
656.9	1015.72
657.096	1026.96
657.292	990.92
657.489	1095.16
657.685	1064.93
657.881	1051.95
658.077	1063.58
658.273	1104.46
658.47	1153.67
658.666	1102.91
658.862	1163.16
659.058	1134.87
659.254	1174.01
659.45	1126.93
659.646	1135.65
659.842	1116.47
660.038	1190.87
660.234	1128.67
660.43	1163.16
660.626	1212.76
660.822	1195.71
661.018	1216.05
661.214	1154.25
661.41	1077.33
661.606	1152.7
661.802	1165.49
661.998	1138.36
662.194	1112.59
662.39	1166.84
662.586	1160.84
662.781	1185.05
662.977	1167.62
663.173	1145.92
663.369	1134.29
663.564	1144.76
663.76	1152.89
663.956	1087.21
664.152	1177.31
664.347	1047.3
664.543	1109.3
664.739	1092.44
664.934	1047.49
665.13	1072.1
665.326	1136.62
665.521	1106.59
665.717	1056.02
665.912	1068.03
666.108	1015.91
666.304	1074.23
666.499	1086.24
666.695	970
666.89	1055.05
667.086	1123.64
667.281	1092.64
667.477	1154.83
667.672	1106.97
667.867	1062.03
668.063	1116.66
668.258	1031.61
668.454	1041.88
668.649	1150.57
668.844	1027.93
669.04	1110.46
669.235	1031.22
669.43	1044.2
669.626	1017.85
669.821	1020.76
670.016	1017.66
670.211	1031.03
670.407	1018.24
670.602	1081.01
670.797	1051.18
670.992	1090.12
671.187	1015.33
671.382	1085.08
671.578	1011.84
671.773	1061.83
671.968	1002.35
672.163	1029.09
672.358	1060.28
672.553	1007.58
672.748	1010.88
672.943	1107.17
673.138	1023.86
673.333	1061.25
673.528	998.86
673.723	1020.18
673.918	987.63
674.113	999.25
674.308	1100.19
674.503	1021.73
674.698	1047.88
674.892	1028.89
675.087	1028.7
675.282	1044.39
675.477	996.35
675.672	1031.61
675.867	1031.41
676.061	971.35
676.256	947.13
676.451	992.86
676.646	1031.8
676.84	961.86
677.035	951.59
677.23	962.44
677.424	1004.68
677.619	1038.78
677.814	1037.03
678.008	1017.66
678.203	939.96
678.397	978.33
678.592	1024.24
678.787	1032.58
678.981	983.56
679.176	997.31
679.37	981.81
679.565	961.28
679.759	952.75
679.954	997.12
680.148	1047.49
680.342	1063.38
680.537	1013.2
680.731	991.31
680.926	1032.58
681.12	1052.34
681.314	956.05
681.509	983.75
681.703	990.53
681.897	1012.04
682.092	966.9
682.286	985.88
682.48	1039.94
682.674	1007.19
682.869	981.43
683.063	963.99
683.257	1055.24
683.451	934.73
683.645	996.15
683.839	978.13
684.034	964.38
684.228	1019.98
684.422	921.17
684.616	923.5
684.81	1004.1
685.004	974.06
685.198	983.17
685.392	1020.95
685.586	970.19
685.78	956.63
685.974	1003.71
686.168	990.53
686.362	1048.27
686.556	923.3
686.75	896.18
686.944	895.79
687.138	885.13
687.331	819.45
687.525	832.63
687.719	753.39
687.913	858.59
688.107	833.02
688.301	797.17
688.494	827.79
688.688	812.48
688.882	774.7
689.076	792.33
689.269	822.36
689.463	899.28
689.657	825.46
689.85	811.32
690.044	860.72
690.238	864.6
690.431	854.13
690.625	814.61
690.818	883.97
691.012	865.76
691.205	931.63
691.399	866.92
691.593	908.19
691.786	951.59
691.98	933.38
692.173	990.73
692.366	941.51
692.56	952.36
692.753	1022.69
692.947	893.08
693.14	1015.91
693.333	989.76
693.527	933.57
693.72	973.1
693.914	940.16
694.107	927.37
694.3	1008.36
694.493	984.53
694.687	1014.94
694.88	951.98
695.073	1015.53
695.266	996.93
695.46	988.01
695.653	1044.98
695.846	1035.87
696.039	960.7
696.232	999.06
696.425	1058.15
696.618	1063.58
696.812	1076.36
697.005	1112.98
697.198	1173.62
697.391	1152.7
697.584	1145.72
697.777	1185.05
697.97	1143.59
698.163	1153.09
698.356	1160.45
698.549	1241.05
698.742	1180.79
698.935	1142.24
699.127	1222.25
699.32	1160.84
699.513	1164.91
699.706	1198.42
699.899	1203.85
700.092	1199
700.285	1253.25
700.477	1171.88
700.67	1224.97
700.863	1265.65
701.056	1313.32
701.248	1324.94
701.441	1301.5
701.634	1273.6
701.826	1403.6
702.019	1278.44
702.212	1348.97
702.404	1290.26
702.597	1281.54
702.79	1330.75
702.982	1351.68
703.175	1420.07
703.367	1394.3
703.56	1401.28
703.752	1520.63
703.945	1511.33
704.137	1482.46
704.33	1450.68
704.522	1512.1
704.715	1507.45
704.907	1542.13
705.1	1607.62
705.292	1598.32
705.484	1587.47
705.677	1604.71
705.869	1633.77
706.061	1688.99
706.254	1678.34
706.446	1658.19
706.638	1641.91
706.831	1725.42
707.023	1673.1
707.215	1817.83
707.407	1819
707.599	1752.15
707.792	1867.24
707.984	1808.15
708.176	1852.51
708.368	1827.91
708.56	1847.67
708.752	1856.39
708.944	1835.27
709.136	1906.76
709.329	1876.35
709.521	1997.24
709.713	2002.09
709.905	1996.86
710.097	2033.67
710.289	2018.36
710.481	2067.57
710.672	2073.77
710.864	2066.22
711.056	2117.75
711.248	2106.52
711.44	2150.11
711.632	2120.85
711.824	2191.57
712.016	2219.67
712.207	2211.72
712.399	2217.15
712.591	2317.7
712.783	2261.32
712.975	2306.66
713.166	2265.97
713.358	2290.96
713.55	2350.25
713.741	2384.16
713.933	2361.68
714.125	2361.68
714.316	2363.23
714.508	2462.82
714.7	2469.21
714.891	2403.34
715.083	2551.36
715.274	2486.65
715.466	2476.57
715.657	2526.56
715.849	2427.56
716.04	2537.41
716.232	2449.84
716.423	2542.84
716.615	2507.77
716.806	2420.58
716.998	2401.98
717.189	2339.98
717.381	2288.64
717.572	2280.89
717.763	2290.58
717.955	2253.96
718.146	2212.69
718.337	2196.42
718.528	2148.17
718.72	2035.02
718.911	2172
719.102	2059.24
719.293	2179.37
719.485	2171.81
719.676	2179.17
719.867	2112.91
720.058	2139.84
720.249	2168.71
720.44	2206.3
720.632	2239.81
720.823	2310.34
721.014	2401.4
721.205	2421.55
721.396	2473.28
721.587	2592.05
721.778	2636.61
721.969	2711.01
722.16	2759.83
722.351	2773.98
722.542	2908.44
722.733	2980.12
722.924	2815.63
723.115	2938.27
723.305	2914.44
723.496	2928.39
723.687	2765.26
723.878	2811.76
724.069	2826.87
724.26	2810.21
724.45	2706.55
724.641	2754.21
724.832	2818.15
725.023	2791.61
725.213	2794.71
725.404	2771.65
725.595	2806.72
725.785	2775.91
725.976	2873.56
726.167	2843.53
726.357	2842.56
726.548	2952.03
726.739	2900.11
726.929	2977.99
727.12	3030.69
727.31	3017.71
727.501	2962.1
727.691	3019.65
727.882	2996.2
728.072	3038.25
728.263	3039.8
728.453	3119.62
728.644	3156.63
728.834	3098.5
729.024	3064.4
729.215	3085.72
729.405	3096.18
729.596	3218.82
729.786	3217.27
729.976	3263.96
730.167	3243.23
730.357	3232.77
730.547	3228.12
730.737	3246.91
730.928	3331.97
731.118	3380.21
731.308	3324.61
731.498	3311.24
731.688	3435.04
731.879	3444.92
732.069	3517.38
732.259	3543.73
732.449	3502.08
732.639	3644.87
732.829	3649.13
733.019	3637.51
733.209	3809.55
733.399	3789.99
733.589	3856.64
733.779	3868.45
733.969	3863.03
734.159	3910.88
734.349	3964.75
734.539	4049.22
734.729	4042.83
734.919	4094.75
735.109	4118.58
735.299	4054.84
735.488	4122.26
735.678	4116.45
735.868	4105.21
736.058	4099.01
736.248	4086.81
736.437	4039.34
736.627	4041.66
736.817	4254.59
737.007	4096.88
737.196	4190.07
737.386	4153.46
737.576	4153.26
737.765	4239.29
737.955	4168.57
738.144	4305.16
738.334	4284.43
738.524	4195.5
738.713	4256.72
738.903	4242
739.092	4273
739.282	4240.64
739.471	4312.33
739.661	4252.65
739.85	4323.37
740.04	4337.13
740.229	4330.15
740.419	4403.97
740.608	4383.63
740.797	4390.6
740.987	4418.5
741.176	4417.53
741.365	4384.79
741.555	4332.48
741.744	4496.97
741.933	4422.38
742.123	4452.6
742.312	4495.61
742.501	4484.96
742.69	4532.62
742.88	4415.79
743.069	4529.13
743.258	4511.5
743.447	4572.14
743.636	4534.17
743.825	4478.76
744.014	4532.62
744.204	4603.34
744.393	4492.51
744.582	4629.69
744.771	4623.1
744.96	4576.6
745.149	4616.71
745.338	4562.84
745.527	4611.86
745.716	4512.28
745.905	4558.78
746.094	4647.12
746.283	4619.61
746.471	4581.83
746.66	4714.35
746.849	4634.14
747.038	4713.77
747.227	4579.31
747.416	4676.38
747.604	4576.02
747.793	4646.35
747.982	4598.88
748.171	4649.06
748.359	4646.54
748.548	4637.63
748.737	4659.33
748.926	4605.66
749.114	4580.09
749.303	4593.84
749.491	4576.41
749.68	4532.04
749.869	4676.38
750.057	4543.47
750.246	4595.97
750.434	4608.76
750.623	4589.19
750.811	4553.93
751	4620.19
751.188	4555.09
751.377	4600.43
751.565	4547.93
751.754	4515.96
751.942	4499.88
752.131	4574.66
752.319	4514.79
752.507	4466.36
752.696	4538.63
752.884	4567.49
753.072	4510.92
753.261	4541.92
753.449	4520.41
753.637	4482.63
753.825	4608.37
754.014	4513.44
754.202	4539.79
754.39	4604.11
754.578	4586.09
754.766	4474.3
754.955	4486.12
755.143	4581.44
755.331	4477.4
755.519	4514.21
755.707	4501.23
755.895	4448.73
756.083	4470.23
756.271	4398.74
756.459	4435.94
756.647	4470.23
756.835	4452.21
757.023	4418.5
757.211	4466.55
757.399	4415.6
757.587	4386.92
757.775	4341.39
757.963	4369.87
758.151	4438.26
758.339	4343.13
758.526	4325.89
758.714	4367.93
758.902	4263.89
759.09	4179.22
759.278	4018.61
759.465	3740.77
759.653	3385.64
759.841	3102.96
760.028	2690.28
760.216	2406.05
760.404	2243.3
760.591	1922.65
760.779	1660.32
760.967	1488.66
761.154	1325.52
761.342	1367.95
761.529	1390.43
761.717	1469.09
761.905	1472.38
762.092	1590.18
762.28	1607.42
762.467	1614.79
762.655	1551.62
762.842	1617.11
763.029	1615.17
763.217	1648.89
763.404	1646.17
763.592	1696.74
763.779	1636.29
763.966	1701.39
764.154	1765.33
764.341	1851.74
764.528	1819.38
764.716	1909.48
764.903	2009.64
765.09	2052.66
765.277	2076.49
765.465	2296.39
765.652	2337.85
765.839	2402.56
766.026	2554.85
766.213	2601.73
766.4	2731.35
766.588	2917.16
766.775	2938.47
766.962	3063.43
767.149	3100.25
767.336	3277.72
767.523	3230.44
767.71	3336.04
767.897	3449.19
768.084	3536.37
768.271	3627.63
768.458	3643.13
768.645	3724.69
768.832	3674.13
769.019	3661.14
769.206	3781.85
769.392	3798.9
769.579	3922.51
769.766	3866.32
769.953	3842.49
770.14	3868.65
770.327	3888.02
770.513	3938.2
770.7	4013.18
770.887	3880.66
771.073	3961.26
771.26	3915.73
771.447	3861.48
771.634	3893.83
771.82	4016.48
772.007	3861.48
772.193	3920.38
772.38	3953.7
772.567	3867.68
772.753	3900.81
772.94	3988.38
773.126	3972.3
773.313	3923.87
773.499	3898.1
773.686	3986.25
773.872	3878.34
774.059	3908.37
774.245	3893.45
774.432	3859.74
774.618	3772.94
774.804	3879.5
774.991	3815.95
775.177	3871.94
775.363	3821.18
775.55	3885.89
775.736	3793.86
775.922	3860.51
776.109	3816.72
776.295	3843.65
776.481	3850.44
776.667	3815.56
776.853	3773.52
777.04	3771.97
777.226	3802
777.412	3842.88
777.598	3731.86
777.784	3768.67
777.97	3721.21
778.156	3736.71
778.342	3736.71
778.528	3693.89
778.715	3637.12
778.901	3680.33
779.087	3776.42
779.272	3703.38
779.458	3636.34
779.644	3692.14
779.83	3668.12
780.016	3763.83
780.202	3671.22
780.388	3656.11
780.574	3575.7
780.76	3653.59
780.946	3670.64
781.131	3640.22
781.317	3617.55
781.503	3607.86
781.689	3613.87
781.874	3712.88
782.06	3578.8
782.246	3624.72
782.432	3561.95
782.617	3583.26
782.803	3620.26
782.989	3508.47
783.174	3567.18
783.36	3497.43
783.545	3521.65
783.731	3558.46
783.916	3410.24
784.102	3497.04
784.288	3486.97
784.473	3494.72
784.659	3440.27
784.844	3488.32
785.029	3448.02
785.215	3403.07
785.4	3385.83
785.586	3510.99
785.771	3392.8
785.956	3460.62
786.142	3402.1
786.327	3432.72
786.512	3372.46
786.698	3355.02
786.883	3327.12
787.068	3360.26
787.254	3379.05
787.439	3304.84
787.624	3343.21
787.809	3278.69
787.994	3316.86
788.18	3377.5
788.365	3212.81
788.55	3256.02
788.735	3265.9
788.92	3274.43
789.105	3281.4
789.29	3247.11
789.475	3245.36
789.66	3185.69
789.845	3190.73
790.03	3185.88
790.215	3228.51
790.4	3245.94
790.585	3276.36
790.77	3179.1
790.955	3140.35
791.14	3139.19
791.325	3273.84
791.51	3076.03
791.695	3163.8
791.879	3121.56
792.064	3092.11
792.249	3186.46
792.434	3167.67
792.618	3176.2
792.803	3211.46
792.988	3126.6
793.173	3177.55
793.357	3160.89
793.542	3053.75
793.727	3123.5
793.911	3183.36
794.096	3129.5
794.281	3165.93
794.465	3257.76
794.65	3144.61
794.834	3190.73
795.019	3177.55
795.203	3232.77
795.388	3210.49
795.572	3264.93
795.757	3200.41
795.941	3204.09
796.126	3231.8
796.31	3204.29
796.494	3216.88
796.679	3170
796.863	3151.98
797.048	3237.81
797.232	3210.49
797.416	3222.11
797.601	3223.86
797.785	3289.54
797.969	3255.24
798.153	3187.63
798.338	3231.03
798.522	3248.27
798.706	3278.11
798.89	3286.63
799.074	3353.28
799.258	3320.92
799.443	3219.21
799.627	3262.41
799.811	3317.44
799.995	3196.54
800.179	3211.65
800.363	3193.63
800.547	3252.92
800.731	3273.26
800.915	3187.05
801.099	3214.56
801.283	3205.84
801.467	3233.93
801.651	3245.56
801.835	3281.59
802.019	3204.68
802.202	3238
802.386	3188.6
802.57	3162.25
802.754	3198.48
802.938	3148.49
803.121	3164.96
803.305	3251.56
803.489	3263.77
803.673	3256.99
803.856	3220.76
804.04	3179.88
804.224	3230.44
804.407	3200.03
804.591	3171.35
804.775	3160.7
804.958	3207.19
805.142	3304.07
805.326	3215.33
805.509	3219.21
805.693	3252.92
805.876	3261.64
806.06	3183.36
806.243	3198.86
806.427	3271.52
806.61	3286.82
806.794	3207.97
806.977	3282.56
807.16	3211.46
807.344	3270.74
807.527	3194.99
807.71	3179.49
807.894	3221.34
808.077	3220.95
808.26	3178.71
808.444	3148.88
808.627	3233.54
808.81	3166.9
808.993	3109.74
809.177	3070.6
809.36	3097.92
809.543	3107.22
809.726	3034.37
809.909	3032.63
810.092	3011.7
810.276	2996.98
810.459	2955.52
810.642	3030.5
810.825	2965.59
811.008	2986.9
811.191	2888.48
811.374	2957.26
811.557	2950.29
811.74	3023.33
811.923	2851.67
812.106	2882.09
812.289	2832.88
812.472	2864.26
812.654	2856.32
812.837	2842.76
813.02	2765.84
813.203	2765.64
813.386	2619.37
813.569	2616.46
813.751	2589.72
813.934	2638.55
814.117	2587.78
814.3	2527.72
814.482	2501.95
814.665	2416.12
814.848	2404.69
815.03	2307.05
815.213	2322.74
815.396	2336.3
815.578	2282.05
815.761	2258.22
815.943	2330.88
816.126	2222.57
816.309	2190.6
816.491	2122.4
816.674	2081.33
816.856	2085.59
817.039	2121.82
817.221	2182.66
817.403	2118.14
817.586	2140.23
817.768	2169.87
817.951	2053.82
818.133	2069.51
818.315	2095.47
818.498	2146.43
818.68	2196.22
818.862	2139.45
819.045	2212.5
819.227	2150.88
819.409	2119.69
819.591	2149.53
819.774	2128.22
819.956	2098.57
820.138	2172.39
820.32	2171.23
820.502	2213.27
820.684	2286.7
820.866	2290.38
821.048	2350.64
821.231	2380.48
821.413	2376.79
821.595	2320.41
821.777	2343.47
821.959	2312.47
822.141	2378.15
822.323	2235.36
822.505	2197.77
822.686	2182.66
822.868	2059.24
823.05	1916.26
823.232	1915.68
823.414	1793.61
823.596	1905.79
823.778	1887.58
823.96	1929.43
824.141	1957.14
824.323	1961.4
824.505	2047.81
824.687	2077.26
824.868	2161.54
825.05	2226.64
825.232	2226.83
825.413	2363.23
825.595	2311.31
825.777	2209.59
825.958	2260.16
826.14	2233.81
826.321	2277.6
826.503	2217.53
826.685	2284.38
826.866	2297.55
827.048	2289.03
827.229	2224.9
827.411	2177.04
827.592	2172.2
827.773	2103.42
827.955	2084.82
828.136	2078.62
828.318	2027.08
828.499	2091.4
828.68	2010.22
828.862	2031.73
829.043	2097.6
829.224	2050.91
829.406	2020.11
829.587	2010.81
829.768	2072.8
829.949	2042.77
830.131	2051.3
830.312	2115.43
830.493	2031.54
830.674	2091.4
830.855	2030.57
831.036	1994.92
831.218	2127.44
831.399	2120.27
831.58	2079
831.761	2042.19
831.942	2062.15
832.123	2030.96
832.304	1990.07
832.485	2023.4
832.666	2035.22
832.847	2075.71
833.028	2015.26
833.209	2042.77
833.389	2017.59
833.57	1941.25
833.751	2005.38
833.932	2037.54
834.113	2049.56
834.294	1968.76
834.475	2028.82
834.655	2075.52
834.836	2107.1
835.017	2121.24
835.198	2005.57
835.378	2050.72
835.559	2090.44
835.74	2067.19
835.92	2026.5
836.101	2036.96
836.281	2118.14
836.462	2044.32
836.643	2076.87
836.823	2109.04
837.004	2054.4
837.184	2116.98
837.365	2092.37
837.545	2086.17
837.726	2070.09
837.906	2134.03
838.087	2102.25
838.267	2084.82
838.448	1998.02
838.628	2085.01
838.808	2071.84
838.989	2119.3
839.169	2003.06
839.349	2089.85
839.53	2096.83
839.71	2098.96
839.89	2018.56
840.07	2110.97
840.251	2005.38
840.431	2114.07
840.611	2030.37
840.791	2013.91
840.971	2075.32
841.151	2027.08
841.332	2031.54
841.512	2105.55
841.692	2004.02
841.872	2053.43
842.052	2066.22
842.232	2102.84
842.412	1951.71
842.592	2003.44
842.772	2019.33
842.952	2021.07
843.132	1967.41
843.312	1983.68
843.492	1960.24
843.672	2032.12
843.851	1942.8
844.031	2006.54
844.211	2005.38
844.391	1956.17
844.571	1993.56
844.751	2017.2
844.93	2005.57
845.11	1946.87
845.29	1979.81
845.47	2017.97
845.649	1942.99
845.829	2025.53
846.009	1970.89
846.188	1982.32
846.368	1954.62
846.547	1971.09
846.727	2001.51
846.907	1928.08
847.086	1978.45
847.266	1991.24
847.445	1932.73
847.625	1924.2
847.804	1910.83
847.984	1924.01
848.163	1909.86
848.343	1923.62
848.522	1908.51
848.701	1915.48
848.881	1915.48
849.06	1909.67
849.239	1923.23
849.419	1911.03
849.598	1815.7
849.777	1828.88
849.957	1826.36
850.136	1764.36
850.315	1743.63
850.494	1758.55
850.674	1734.52
850.853	1786.45
851.032	1781.6
851.211	1834.5
851.39	1802.53
851.569	1719.99
851.748	1738.4
851.927	1809.7
852.107	1791.29
852.286	1751.38
852.465	1738.98
852.644	1802.72
852.823	1806.01
853.002	1749.44
853.181	1782.38
853.359	1791.87
853.538	1717.47
853.717	1803.5
853.896	1628.74
854.075	1582.62
854.254	1557.63
854.433	1481.29
854.611	1514.62
854.79	1477.23
854.969	1506.68
855.148	1588.24
855.327	1526.05
855.505	1587.86
855.684	1585.14
855.863	1620.6
856.041	1573.13
856.22	1637.26
856.399	1636.1
856.577	1748.47
856.756	1686.67
856.934	1798.26
857.113	1807.37
857.291	1702.36
857.47	1701.97
857.648	1694.61
857.827	1741.3
858.005	1768.04
858.184	1663.61
858.362	1781.41
858.541	1679.89
858.719	1679.5
858.898	1643.07
859.076	1671.55
859.254	1735.1
859.433	1684.92
859.611	1631.64
859.789	1644.04
859.967	1714.95
860.146	1733.36
860.324	1590.18
860.502	1657.41
860.68	1572.94
860.859	1600.45
861.037	1631.25
861.215	1636.1
861.393	1634.94
861.571	1631.64
861.749	1596.19
861.927	1634.16
862.105	1658.77
862.283	1585.34
862.461	1570.22
862.639	1583.21
862.817	1608.39
862.995	1583.01
863.173	1588.05
863.351	1625.44
863.529	1608.78
863.707	1624.67
863.885	1600.45
864.063	1519.08
864.241	1531.67
864.418	1621.37
864.596	1540.97
864.774	1513.26
864.952	1534.57
865.129	1561.51
865.307	1531.67
865.485	1471.61
865.663	1552.59
865.84	1465.41
866.018	1455.72
866.196	1348.38
866.373	1360.78
866.551	1327.46
866.728	1249.38
866.906	1335.98
867.084	1346.64
867.261	1399.53
867.439	1415.23
867.616	1443.13
867.794	1428.79
867.971	1453.98
868.149	1438.28
868.326	1472.77
868.503	1482.65
868.681	1430.34
868.858	1430.53
869.035	1406.9
869.213	1460.95
869.39	1407.86
869.567	1521.21
869.745	1372.8
869.922	1487.88
870.099	1453.78
870.276	1475.48
870.454	1480.13
870.631	1456.3
870.808	1392.17
870.985	1457.46
871.162	1508.23
871.339	1461.34
871.517	1359.23
871.694	1362.53
871.871	1399.92
872.048	1407.86
872.225	1414.45
872.402	1439.06
872.579	1373.38
872.756	1407.28
872.933	1361.36
873.11	1382.87
873.287	1403.21
873.463	1373.96
873.64	1329.98
873.817	1385
873.994	1384.81
874.171	1326.68
874.348	1383.26
874.524	1318.74
874.701	1341.02
874.878	1281.54
875.055	1386.36
875.231	1341.22
875.408	1363.3
875.585	1306.53
875.762	1329.59
875.938	1298.59
876.115	1325.52
876.291	1272.82
876.468	1335.98
876.645	1252.48
876.821	1260.23
876.998	1295.1
877.174	1278.83
877.351	1304.4
877.527	1288.52
877.704	1304.6
877.88	1296.85
878.057	1270.69
878.233	1291.23
878.409	1255.58
878.586	1297.62
878.762	1250.54
878.938	1228.07
879.115	1186.22
879.291	1273.6
879.467	1196.87
879.644	1257.71
879.82	1282.9
879.996	1202.69
880.172	1184.28
880.349	1244.73
880.525	1259.07
880.701	1193.97
880.877	1204.82
881.053	1217.41
881.229	1202.69
881.405	1262.36
881.581	1185.05
881.757	1179.24
881.933	1214.31
882.109	1241.24
882.285	1188.54
882.461	1182.73
882.637	1201.91
882.813	1181.37
882.989	1188.54
883.165	1238.14
883.341	1174.21
883.517	1225.74
883.693	1216.64
883.869	1240.27
884.044	1164.13
884.22	1208.69
884.396	1267.59
884.572	1215.47
884.747	1227.87
884.923	1231.94
885.099	1240.47
885.275	1254.03
885.45	1180.02
885.626	1147.08
885.801	1186.8
885.977	1191.84
886.153	1142.24
886.328	1231.55
886.504	1182.73
886.679	1201.33
886.855	1184.47
887.03	1201.72
887.206	1255.97
887.381	1237.56
887.557	1201.72
887.732	1205.59
887.908	1232.91
888.083	1207.92
888.258	1205.59
888.434	1180.79
888.609	1204.82
888.784	1230.2
888.96	1208.3
889.135	1166.84
889.31	1197.26
889.485	1204.24
889.661	1203.65
889.836	1214.12
890.011	1231.17
890.186	1183.5
890.361	1189.7
890.537	1191.64
890.712	1219.15
890.887	1229.42
891.062	1218.57
891.237	1271.27
891.412	1185.64
891.587	1218.57
891.762	1199.59
891.937	1279.41
892.112	1142.62
892.287	1166.07
892.462	1138.75
892.637	1099.81
892.812	1109.3
892.987	1146.11
893.161	1103.87
893.336	1122.67
893.511	1122.09
893.686	1149.79
893.861	1119.18
894.035	1136.42
894.21	1127.51
894.385	1074.04
894.56	1122.86
894.734	1036.26
894.909	1040.13
895.084	1025.79
895.258	1011.26
895.433	1071.71
895.608	1020.56
895.782	976
895.957	977.16
896.131	989.76
896.306	915.17
896.48	899.47
896.655	931.63
896.829	866.34
897.004	876.22
897.178	844.45
897.353	874.87
897.527	877.77
897.701	869.83
897.876	823.33
898.05	892.88
898.224	885.52
898.399	923.3
898.573	881.26
898.747	751.06
898.921	810.74
899.096	693.32
899.27	689.84
899.444	699.52
899.618	756.29
899.792	771.02
899.967	749.9
900.141	823.72
900.315	727.42
900.489	766.37
900.663	790.39
900.837	761.72
901.011	715.22
901.185	821.39
901.359	767.92
901.533	797.17
901.707	793.1
901.881	782.25
902.055	729.36
902.229	741.57
902.403	821.39
902.576	782.25
902.75	774.7
902.924	901.22
903.098	827.2
903.272	876.42
903.446	923.11
903.619	865.76
903.793	902.38
903.967	855.1
904.14	953.72
904.314	956.82
904.488	913.23
904.661	958.76
904.835	907.03
905.009	939.58
905.182	999.25
905.356	950.62
905.529	955.08
905.703	914.39
905.876	884.55
906.05	844.64
906.223	883.78
906.397	827.79
906.57	780.12
906.744	769.08
906.917	788.07
907.09	780.9
907.264	758.81
907.437	730.91
907.61	696.23
907.784	718.51
907.957	762.49
908.13	658.45
908.304	732.27
908.477	687.32
908.65	695.26
908.823	643.14
908.996	742.54
909.17	660.39
909.343	684.99
909.516	699.33
909.689	674.34
909.862	622.61
910.035	670.27
910.208	660
910.381	623.58
910.554	765.98
910.727	693.32
910.9	646.24
911.073	658.45
911.246	720.84
911.419	726.26
911.592	700.11
911.765	645.28
911.938	630.55
912.11	680.92
912.283	657.48
912.456	720.64
912.629	665.23
912.802	642.56
912.974	660.58
913.147	556.35
913.32	512.36
913.493	585.02
913.665	604.01
913.838	582.69
914.01	596.26
914.183	598.39
914.356	591.61
914.528	633.84
914.701	675.89
914.873	647.6
915.046	564.87
915.218	551.89
915.391	478.65
915.563	514.11
915.736	589.67
915.908	589.86
916.081	560.8
916.253	573.2
916.425	570.88
916.598	590.25
916.77	578.43
916.942	574.17
917.115	501.71
917.287	566.81
917.459	562.55
917.632	506.16
917.804	457.15
917.976	545.69
918.148	560.22
918.32	566.81
918.493	596.26
918.665	638.3
918.837	607.49
919.009	628.81
919.181	632.29
919.353	600.13
919.525	615.44
919.697	590.06
919.869	591.03
920.041	657.67
920.213	686.93
920.385	634.62
920.557	620.86
920.729	643.73
920.901	609.24
921.073	590.83
921.244	586.96
921.416	618.15
921.588	581.14
921.76	578.63
921.932	648.38
922.103	593.93
922.275	625.13
922.447	606.91
922.619	519.53
922.79	588.12
922.962	553.83
923.134	581.14
923.305	519.34
923.477	511.78
923.648	513.91
923.82	542.01
923.991	492.41
924.163	474.78
924.335	534.26
924.506	480.2
924.677	579.79
924.849	487.18
925.02	537.94
925.192	542.4
925.363	521.86
925.535	548.01
925.706	497.45
925.877	566.81
926.049	505.2
926.22	501.32
926.391	533.48
926.562	547.63
926.734	490.08
926.905	534.65
927.076	473.23
927.247	458.89
927.419	439.13
927.59	441.45
927.761	452.11
927.932	415.3
928.103	441.65
928.274	385.27
928.445	369.96
928.616	407.74
928.787	385.07
928.958	414.72
929.129	413.94
929.3	374.22
929.471	334.7
929.642	300.21
929.813	230.66
929.984	364.92
930.155	247.51
930.326	335.67
930.496	247.9
930.667	216.9
930.838	256.04
931.009	205.08
931.18	227.94
931.35	238.6
931.521	235.31
931.692	165.94
931.863	127.58
932.033	210.12
932.204	178.54
932.374	169.04
932.545	134.56
932.716	184.54
932.886	196.75
933.057	109.95
933.227	90.77
933.398	222.91
933.568	109.37
933.739	58.03
933.909	86.31
934.08	113.44
934.25	36.33
934.421	74.3
934.591	127.2
934.761	83.8
934.932	34.2
935.102	108.01
935.272	90.19
935.443	87.09
935.613	64.03
935.783	102.59
935.953	48.15
936.123	245.96
936.294	48.73
936.464	61.32
936.634	97.36
936.804	67.13
936.974	21.6
937.144	96.58
937.314	90
937.484	77.21
937.655	50.47
937.825	117.9
937.995	51.05
938.165	103.75
938.334	65.58
938.504	118.28
938.674	91.55
938.844	101.62
939.014	129.13
939.184	147.73
939.354	219.81
939.524	207.21
939.694	146.57
939.863	132.62
940.033	204.5
940.203	173.89
940.373	182.22
940.542	187.26
940.712	139.59
940.882	176.6
941.051	208.76
941.221	169.82
941.391	186.29
941.56	139.4
941.73	129.52
941.899	257.78
942.069	145.6
942.238	173.31
942.408	119.45
942.577	164.59
942.747	153.74
942.916	68.88
943.086	95.23
943.255	164.39
943.425	121.96
943.594	89.8
943.763	28.97
943.933	74.88
944.102	63.84
944.271	111.7
944.441	134.94
944.61	79.92
944.779	100.85
944.948	209.54
945.117	85.15
945.287	83.21
945.456	45.24
945.625	86.9
945.794	107.63
945.963	81.28
946.132	136.69
946.301	77.4
946.47	127.2
946.639	33.81
946.808	76.63
946.977	123.71
947.146	180.86
947.315	101.04
947.484	140.76
947.653	98.52
947.822	89.41
947.991	71.01
948.16	185.9
948.329	150.44
948.498	117.7
948.666	116.35
948.835	121.77
949.004	53.18
949.173	51.05
949.341	103.17
949.51	115.38
949.679	146.38
949.847	114.41
950.016	194.43
950.185	181.44
950.353	76.05
950.522	88.25
950.69	155.68
950.859	105.88
951.028	154.13
951.196	149.48
951.365	76.82
951.533	86.7
951.701	143.66
951.87	112.47
952.038	87.28
952.207	124.48
952.375	149.67
952.543	80.11
952.712	92.71
952.88	77.98
953.048	171.18
953.217	136.11
953.385	133.2
953.553	172.73
953.721	63.84
953.89	104.72
954.058	73.14
954.226	63.84
954.394	110.92
954.562	69.26
954.73	101.04
954.898	97.16
955.067	115.76
955.235	101.04
955.403	124.29
955.571	175.05
955.739	111.31
955.907	81.47
956.075	90.58
956.243	67.13
956.41	106.85
956.578	38.65
956.746	20.83
956.914	97.55
957.082	133.39
957.25	162.65
957.418	76.05
957.585	125.65
957.753	166.14
957.921	97.55
958.089	93.29
958.256	85.54
958.424	121.58
958.592	121
958.759	80.11
958.927	124.29
959.095	56.48
959.262	96.39
959.43	126.81
959.597	75.27
959.765	108.79
959.932	58.41
960.1	123.32
960.267	112.28
960.435	82.25
960.602	118.48
960.77	74.88
960.937	49.11
961.104	118.67
961.272	63.45
961.439	71.98
961.606	131.46
961.774	166.33
961.941	94.45
962.108	135.14
962.275	108.98
962.443	132.04
962.61	121.96
962.777	175.63
962.944	137.08
963.111	130.3
963.278	133.39
963.446	123.9
963.613	135.33
963.78	109.95
963.947	122.35
964.114	105.88
964.281	226.01
964.448	155.09
964.615	105.11
964.782	153.16
964.949	138.43
965.116	145.21
965.282	173.11
965.449	121.77
965.616	88.64
965.783	164.39
965.95	137.08
966.117	76.63
966.283	124.29
966.45	139.4
966.617	123.51
966.784	172.14
966.95	159.94
967.117	155.68
967.284	105.69
967.45	112.47
967.617	189
967.784	139.01
967.95	220.19
968.117	115.57
968.283	187.84
968.45	226.59
968.616	145.99
968.783	191.52
968.949	139.98
969.116	164.2
969.282	143.66
969.449	126.81
969.615	151.99
969.781	92.51
969.948	118.28
970.114	105.69
970.28	216.13
970.447	160.91
970.613	168.46
970.779	153.74
970.945	140.76
971.112	138.82
971.278	155.29
971.444	116.15
971.61	212.25
971.776	133.78
971.942	151.41
972.108	167.11
972.275	125.65
972.441	159.74
972.607	212.83
972.773	93.29
972.939	156.26
973.105	119.25
973.271	95.03
973.437	145.99
973.602	89.03
973.768	154.32
973.934	133.2
974.1	131.26
974.266	74.3
974.432	117.31
974.598	130.1
974.763	142.31
974.929	111.89
975.095	200.43
975.261	104.72
975.426	86.9
975.592	123.9
975.758	198.11
975.923	71.2
976.089	88.45
976.255	161.1
976.42	109.37
976.586	139.01
976.751	131.84
976.917	237.63
977.082	136.11
977.248	81.66
977.413	47.18
977.579	105.3
977.744	157.23
977.91	73.72
978.075	94.06
978.24	128.55
978.406	109.37
978.571	93.68
978.736	90.38
978.902	130.1
979.067	87.28
979.232	60.55
979.397	120.03
979.563	150.83
979.728	77.21
979.893	114.8
980.058	90.77
980.223	116.35
980.388	118.28
980.554	97.16
980.719	95.42
980.884	117.51
981.049	148.51
981.214	96.97
981.379	114.6
981.544	93.48
981.709	80.5
981.874	85.93
982.039	111.5
982.204	150.25
982.368	108.98
982.533	99.68
982.698	146.57
982.863	137.46
983.028	97.94
983.193	108.79
983.357	113.05
983.522	134.17
983.687	112.28
983.852	97.94
984.016	102.98
984.181	112.47
984.346	145.21
984.51	128.55
984.675	102.78
984.839	108.4
985.004	137.66
985.168	133.98
985.333	104.33
985.498	89.41
985.662	144.24
985.827	99.49
985.991	106.27
986.155	107.43
986.32	136.11
986.484	179.12
986.649	144.24
986.813	24.12
986.977	139.4
987.142	153.16
987.306	77.4
987.47	91.35
987.634	64.03
987.799	101.62
987.963	124.68
988.127	130.88
988.291	185.9
988.455	103.36
988.62	98.91
988.784	140.37
988.948	101.23
989.112	84.57
989.276	98.52
989.44	89.61
989.604	64.81
989.768	96
989.932	177.96
990.096	75.08
990.26	65
990.424	68.1
990.588	119.83
990.752	164.2
990.915	122.16
991.079	89.03
991.243	71.98
991.407	129.91
991.571	90.96
991.734	112.86
991.898	118.28
992.062	178.54
992.226	64.42
992.389	78.37
992.553	40.78
992.717	55.31
992.88	92.9
993.044	96.39
993.207	70.43
993.371	129.91
993.535	103.36
993.698	108.98
993.862	150.25
994.025	132.62
994.189	116.73
994.352	101.43
994.515	87.28
994.679	132.23
994.842	90.19
995.006	148.7
995.169	50.66
995.332	62.1
995.496	113.05
995.659	32.84
995.822	77.01
995.985	95.23
996.149	146.18
996.312	60.55
996.475	142.31
996.638	76.43
996.801	140.56
996.964	163.62
997.128	86.7
997.291	72.95
997.454	103.56
997.617	18.31
997.78	123.51
997.943	54.15
998.106	96.78
998.269	83.6
998.432	56.86
998.595	99.68
998.758	19.08
998.92	43.88
999.083	20.44
999.246	63.84
999.409	35.75
999.572	13.85
999.735	50.86
999.897	75.66
1000.06	38.07
1000.223	84.38
1000.386	81.86
1000.548	106.85
1000.711	65.97
1000.874	106.27
1001.036	24.32
1001.199	100.07
1001.361	57.83
1001.524	60.93
1001.687	86.51
1001.849	44.08
1002.012	71.2
1002.174	71.4
1002.337	116.73
1002.499	36.91
1002.661	80.31
1002.824	9.01
1002.986	36.72
1003.149	77.79
1003.311	39.62
1003.473	120.03
1003.636	55.9
1003.798	77.98
1003.96	87.09
1004.123	62.87
1004.285	33.81
1004.447	62.68
1004.609	62.29
1004.771	121.19
1004.933	14.24
1005.096	31.1
1005.258	24.32
1005.42	41.17
1005.582	128.75
1005.744	55.31
1005.906	33.81
1006.068	57.45
1006.23	-1.26
1006.392	-5.13
1006.554	21.41
1006.716	109.76
1006.878	60.35
1007.04	18.5
1007.202	46.6
1007.363	68.1
1007.525	55.31
1007.687	74.69
1007.849	100.26
1008.011	-5.91
1008.172	2.81
1008.334	27.61
1008.496	50.66
1008.658	-7.65
1008.819	14.63
1008.981	23.35
1009.143	18.12
1009.304	39.04
1009.466	64.23
1009.627	111.11
1009.789	151.03
1009.95	68.3
1010.112	11.14
1010.273	53.57
1010.435	20.05
1010.596	24.51
1010.758	39.82
1010.919	39.82
1011.081	26.64
1011.242	26.83
1011.403	68.88
1011.565	45.63
1011.726	53.18
1011.887	12.88
1012.049	43.3
1012.21	63.06
1012.371	123.71
1012.532	-44.85
1012.693	67.13
1012.855	18.12
1013.016	49.31
1013.177	45.63
1013.338	62.29
1013.499	117.9
1013.66	69.65
1013.821	63.26
1013.982	50.47
1014.143	34.2
1014.304	17.92
1014.465	59.58
1014.626	54.73
1014.787	26.45
1014.948	110.73
1015.109	-49.31
1015.27	97.94
1015.431	27.61
1015.592	-5.91
1015.752	98.52
1015.913	48.73
1016.074	58.22
1016.235	51.25
1016.395	15.98
1016.556	19.67
1016.717	14.05
1016.877	68.88
1017.038	8.43
1017.199	44.08
1017.359	50.08
1017.52	50.28
1017.681	9.78
1017.841	20.05
1018.002	12.5
1018.162	-0.48
1018.323	87.86
1018.483	23.54
1018.644	27.61
1018.804	-21.99
1018.964	-11.14
1019.125	-17.53
1019.285	45.05
1019.446	-1.07
1019.606	-3.78
1019.766	-29.93
1019.926	29.93
1020.087	29.93
1020.247	-16.37
1020.407	55.51
1020.567	84.38
1020.728	11.33
1020.888	3.97
1021.048	12.3
1021.208	-16.18
1021.368	2.03
1021.528	60.16
1021.688	82.63
1021.848	52.6
1022.008	37.3
1022.168	16.76
1022.328	26.83
1022.488	55.12
1022.648	19.08
1022.808	14.63
1022.968	78.18
1023.128	4.36
1023.288	6.68
1023.448	26.64
1023.608	39.82
1023.767	49.11
1023.927	26.64
1024.087	-3.39
1024.247	-30.13
1024.406	-0.48
1024.566	-40.01
1024.726	-9.4
1024.885	11.14
1025.045	39.23
1025.205	3.78
1025.364	28.38
1025.524	13.85
1025.683	-19.86
1025.843	0.87
1026.003	26.64
1026.162	69.65
1026.321	67.91
1026.481	62.48
1026.64	7.65
1026.8	19.08
1026.959	39.43
1027.119	11.33
1027.278	12.5
1027.437	-10.56
1027.597	10.56
1027.756	14.43
1027.915	32.45
1028.074	14.43
1028.234	-5.33
1028.393	31.29
1028.552	-2.62
1028.711	-70.23
1028.87	54.35
1029.03	-29.74
1029.189	-14.82
1029.348	-47.37
1029.507	3.39
1029.666	21.6
1029.825	-26.83
1029.984	-10.75
1030.143	20.44
1030.302	24.7
1030.461	-32.07
1030.62	15.21
1030.779	39.82
1030.938	-28
1031.097	11.53
1031.255	46.79
1031.414	89.8
1031.573	38.27
1031.732	-51.25
1031.891	9.98
1032.049	74.3
1032.208	23.35
1032.367	15.6
1032.525	-15.21
1032.684	3.39
1032.843	-0.68
1033.001	-34
1033.16	190.94
1033.319	27.8
1033.477	40.01
1033.636	-5.13
1033.794	-39.23
1033.953	23.93
1034.111	36.13
1034.27	-10.95
1034.428	23.73
1034.587	-22.77
1034.745	18.89
1034.903	-5.13
1035.062	26.25
1035.22	-17.15
1035.378	39.82
1035.537	-48.92
1035.695	57.83
1035.853	8.62
1036.011	30.9
1036.17	33.42
1036.328	-55.12
1036.486	3.58
1036.644	25.87
1036.802	-53.76
1036.96	-24.9
1037.119	13.08
1037.277	-32.65
1037.435	-26.64
1037.593	-61.13
1037.751	-15.21
1037.909	41.56
1038.067	41.56
