Data from gum_old_FLMT105791__147__15-46-36-252.txt Node

Date: Mon Mar 20 15:46:36 GMT 2023
User: antho
Spectrometer: FLMT10579
Trigger mode: 0
Integration Time (sec): 1.000000E-1
Scans to average: 10
Electric dark correction enabled: true
Nonlinearity correction enabled: false
Boxcar width: 0
XAxis mode: Wavelengths
Number of Pixels in Spectrum: 3648
>>>>>Begin Spectral Data<<<<<
345.248	-176.37
345.464	-176.37
345.681	-176.37
345.898	-191.49
346.114	-176.76
346.331	-16.92
346.548	29.58
346.764	-17.11
346.981	-10.91
347.197	-13.05
347.414	22.8
347.631	-41.91
347.847	64.45
348.064	17.76
348.28	12.92
348.497	-41.72
348.713	-5.88
348.93	30.93
349.146	21.64
349.363	18.15
349.579	46.43
349.796	19.12
350.012	-4.13
350.229	73.37
350.445	12.72
350.661	-17.7
350.878	29
351.094	2.26
351.311	39.46
351.527	26.48
351.743	-3.94
351.96	73.75
352.176	54.38
352.392	65.62
352.609	50.12
352.825	-8.4
353.041	15.44
353.257	10.59
353.474	25.32
353.69	32.87
353.906	36.75
354.122	-7.23
354.339	87.32
354.555	33.65
354.771	10.79
354.987	74.72
355.203	92.55
355.42	7.1
355.636	-12.85
355.852	13.69
356.068	34.03
356.284	-15.56
356.5	102.04
356.716	59.22
356.932	16.4
357.148	37.91
357.364	28.8
357.58	53.6
357.796	60.77
358.012	59.42
358.228	31.13
358.444	-37.07
358.66	73.56
358.876	29.19
359.092	9.62
359.308	28.8
359.524	48.37
359.74	20.47
359.956	14.47
360.172	31.71
360.388	66.39
360.604	15.05
360.819	96.81
361.035	50.5
361.251	45.47
361.467	-16.53
361.683	77.82
361.898	62.32
362.114	79.37
362.33	60.97
362.546	78.79
362.762	-2.97
362.977	33.07
363.193	16.21
363.409	84.8
363.624	-5.3
363.84	25.12
364.056	25.12
364.271	66.2
364.487	34.23
364.703	3.23
364.918	17.18
365.134	20.86
365.35	30.16
365.565	133.43
365.781	61.74
365.996	64.26
366.212	108.43
366.427	30.55
366.643	42.56
366.858	47.98
367.074	8.85
367.289	85.96
367.505	138.66
367.72	-6.46
367.936	24.35
368.151	82.08
368.367	60.19
368.582	40.43
368.798	21.44
369.013	65.81
369.228	46.05
369.444	55.73
369.659	123.55
369.874	70.46
370.09	107.27
370.305	-7.62
370.52	35.2
370.736	74.53
370.951	61.16
371.166	87.12
371.381	124.9
371.597	84.22
371.812	10.2
372.027	18.34
372.242	35.39
372.458	110.76
372.673	28.03
372.888	45.47
373.103	55.93
373.318	137.5
373.533	70.85
373.749	52.63
373.964	-0.45
374.179	107.27
374.394	19.89
374.609	100.88
374.824	-4.91
375.039	79.37
375.254	34.62
375.469	116.57
375.684	54.96
375.899	93.13
376.114	62.52
376.329	54.96
376.544	88.28
376.759	85.38
376.974	30.35
377.189	54.18
377.404	55.93
377.619	100.1
377.834	-0.06
378.049	11.17
378.264	11.95
378.478	46.05
378.693	43.92
378.908	85.77
379.123	40.62
379.338	127.81
379.553	60.77
379.767	84.8
379.982	75.3
380.197	104.17
380.412	47.4
380.626	94.29
380.841	134.78
381.056	101.65
381.271	134.4
381.485	37.72
381.7	49.92
381.915	63.68
382.129	24.15
382.344	73.37
382.559	35.78
382.773	105.72
382.988	15.05
383.202	42.37
383.417	29
383.632	135.56
383.846	30.74
384.061	66.97
384.275	53.8
384.49	71.04
384.704	96.03
384.919	83.05
385.133	52.25
385.348	107.47
385.562	41.2
385.777	105.14
385.991	81.7
386.206	44.5
386.42	53.41
386.634	77.43
386.849	98.94
387.063	78.21
387.277	29.97
387.492	47.98
387.706	28.22
387.92	50.5
388.135	106.69
388.349	49.73
388.563	83.05
388.778	107.47
388.992	105.53
389.206	96.62
389.42	169.46
389.635	73.17
389.849	112.7
390.063	120.45
390.277	89.64
390.491	154.55
390.706	101.85
390.92	149.9
391.134	108.05
391.348	116.76
391.562	25.12
391.776	92.35
391.99	65.42
392.205	129.75
392.419	53.99
392.633	86.15
392.847	137.5
393.061	41.78
393.275	143.5
393.489	73.75
393.703	65.23
393.917	107.85
394.131	63.68
394.345	103.4
394.559	117.35
394.773	60.38
394.986	104.95
395.2	80.34
395.414	124.13
395.628	60.77
395.842	109.4
396.056	98.75
396.27	31.13
396.484	115.41
396.697	135.56
396.911	140.4
397.125	102.04
397.339	134.4
397.553	84.99
397.766	143.31
397.98	143.11
398.194	140.98
398.408	89.06
398.621	115.99
398.835	176.05
399.049	133.62
399.262	192.52
399.476	172.76
399.69	174.89
399.903	201.82
400.117	145.25
400.331	185.74
400.544	111.73
400.758	275.44
400.971	194.07
401.185	189.81
401.398	127.61
401.612	223.33
401.826	195.62
402.039	197.36
402.253	153.96
402.466	218.87
402.68	170.82
402.893	166.95
403.106	195.43
403.32	171.01
403.533	206.08
403.747	181.48
403.96	177.02
404.174	204.53
404.387	130.91
404.6	189.23
404.814	193.88
405.027	169.08
405.24	171.98
405.454	157.06
405.667	237.86
405.88	149.12
406.094	218.48
406.307	220.42
406.52	196.2
406.733	138.85
406.947	119.86
407.16	252.39
407.373	224.29
407.586	155.32
407.799	168.11
408.012	208.79
408.226	191.94
408.439	249.68
408.652	130.52
408.865	205.89
409.078	264.21
409.291	233.59
409.504	166.56
409.717	235.14
409.93	224.29
410.143	220.61
410.357	185.93
410.57	130.33
410.783	177.02
410.996	225.26
411.209	220.42
411.421	259.94
411.634	231.27
411.847	203.56
412.06	223.91
412.273	234.76
412.486	215.77
412.699	287.65
412.912	221.58
413.125	221.19
413.338	203.56
413.55	277.96
413.763	218.09
413.976	231.08
414.189	208.41
414.402	233.4
414.615	274.86
414.827	172.76
415.04	259.36
415.253	251.42
415.466	278.54
415.678	328.14
415.891	258.78
416.104	227.98
416.316	235.14
416.529	218.48
416.742	280.68
416.954	276.41
417.167	280.09
417.38	261.88
417.592	275.64
417.805	212.09
418.017	181.09
418.23	249.87
418.442	235.34
418.655	216.35
418.868	267.69
419.08	277.77
419.293	283.78
419.505	256.65
419.718	257.43
419.93	295.98
420.142	257.04
420.355	277.77
420.567	293.07
420.78	273.12
420.992	260.91
421.205	317.49
421.417	220.23
421.629	267.31
421.842	228.75
422.054	215.77
422.266	323.69
422.479	294.43
422.691	231.66
422.903	278.93
423.115	240.76
423.328	253.94
423.54	275.64
423.752	256.07
423.964	247.35
424.177	258.78
424.389	243.67
424.601	357.21
424.813	294.62
425.025	303.34
425.238	286.29
425.45	255.68
425.662	263.04
425.874	594.16
426.086	273.89
426.298	300.24
426.51	270.21
426.722	267.69
426.934	244.06
427.146	297.14
427.358	243.09
427.57	321.56
427.782	269.24
427.994	282.42
428.206	242.89
428.418	240.18
428.63	308.96
428.842	320.39
429.054	317.87
429.266	328.92
429.478	242.89
429.69	267.11
429.902	204.73
430.114	299.86
430.325	268.66
430.537	216.54
430.749	201.63
430.961	181.86
431.173	217.13
431.384	245.41
431.596	174.89
431.808	250.64
432.02	295.21
432.231	322.91
432.443	365.15
432.655	334.73
432.867	269.05
433.078	314.77
433.29	372.71
433.502	330.27
433.713	361.08
433.925	326.21
434.136	362.44
434.348	279.9
434.56	226.23
434.771	405.45
434.983	258.2
435.194	273.12
435.406	295.98
435.617	388.79
435.829	398.28
436.04	349.65
436.252	358.95
436.463	375.03
436.675	368.06
436.886	336.09
437.098	365.34
437.309	423.66
437.521	360.5
437.732	362.82
437.943	362.05
438.155	341.12
438.366	294.04
438.578	400.02
438.789	341.12
439	369.61
439.211	335.7
439.423	372.51
439.634	354.3
439.845	356.24
440.057	369.22
440.268	391.11
440.479	328.34
440.69	359.53
440.902	332.6
441.113	348.87
441.324	364.96
441.535	388.01
441.746	434.51
441.957	343.64
442.168	374.84
442.38	437.03
442.591	418.62
442.802	331.44
443.013	368.83
443.224	420.17
443.435	401.19
443.646	404.29
443.857	391.11
444.068	371.74
444.279	360.31
444.49	472.48
444.701	403.7
444.912	504.26
445.123	422.11
445.334	443.81
445.545	420.95
445.756	419.01
445.967	365.54
446.178	419.4
446.388	449.24
446.599	420.56
446.81	415.14
447.021	388.98
447.232	450.59
447.443	461.64
447.653	393.44
447.864	463.19
448.075	441.49
448.286	442.45
448.496	426.76
448.707	465.51
448.918	420.75
449.129	513.95
449.339	412.23
449.55	491.67
449.761	413.97
449.971	491.28
450.182	426.37
450.393	463.96
450.603	420.56
450.814	487.21
451.024	463.19
451.235	491.08
451.446	527.12
451.656	531.58
451.867	461.05
452.077	464.74
452.288	528.48
452.498	524.99
452.709	474.81
452.919	493.99
453.13	408.55
453.34	502.71
453.55	448.07
453.761	492.63
453.971	464.15
454.182	461.25
454.392	435.67
454.602	547.66
454.813	510.65
455.023	514.72
455.233	425.4
455.444	483.33
455.654	394.6
455.864	448.46
456.075	462.02
456.285	430.83
456.495	448.65
456.705	478.68
456.916	543.78
457.126	548.82
457.336	486.05
457.546	409.71
457.756	464.54
457.967	551.53
458.177	481.59
458.387	489.53
458.597	455.24
458.807	491.47
459.017	450.79
459.227	455.63
459.437	486.63
459.647	514.72
459.857	519.18
460.068	468.42
460.278	525.96
460.488	513.75
460.698	553.08
460.908	474.23
461.117	423.85
461.327	479.07
461.537	511.82
461.747	493.22
461.957	489.92
462.167	641.43
462.377	547.08
462.587	510.85
462.797	586.21
463.007	529.25
463.216	548.24
463.426	590.48
463.636	537.97
463.846	476.36
464.056	508.72
464.265	542.23
464.475	491.47
464.685	547.66
464.895	522.08
465.104	520.92
465.314	570.33
465.524	475
465.733	487.6
465.943	597.65
466.153	593
466.362	573.62
466.572	553.47
466.782	509.88
466.991	531
467.201	603.07
467.41	452.92
467.62	529.83
467.829	518.02
468.039	570.91
468.249	543.2
468.458	564.51
468.668	570.13
468.877	558.9
469.086	610.82
469.296	607.91
469.505	546.11
469.715	635.23
469.924	584.28
470.134	615.66
470.343	640.66
470.552	563.35
470.762	571.49
470.971	560.06
471.18	564.71
471.39	575.36
471.599	528.28
471.808	606.95
472.018	536.42
472.227	643.37
472.436	657.51
472.645	639.3
472.855	583.5
473.064	679.41
473.273	635.62
473.482	626.51
473.691	674.18
473.901	667.98
474.11	630.97
474.319	737.53
474.528	635.23
474.737	711.76
474.946	669.33
475.155	664.68
475.364	719.71
475.573	671.66
475.783	687.74
475.992	689.87
476.201	725.13
476.41	688.32
476.619	653.25
476.828	707.31
477.037	648.99
477.245	686.58
477.454	728.04
477.663	676.89
477.872	687.35
478.081	792.56
478.29	686.96
478.499	824.52
478.708	750.51
478.917	808.25
479.125	751.29
479.334	743.54
479.543	718.16
479.752	739.86
479.961	735.01
480.169	804.96
480.378	723
480.587	902.22
480.796	793.72
481.004	801.27
481.213	796.62
481.422	805.73
481.63	796.24
481.839	818.52
482.048	887.69
482.256	806.12
482.465	841.38
482.674	843.51
482.882	852.23
483.091	908.42
483.299	835.37
483.508	854.55
483.716	835.57
483.925	848.35
484.134	791.2
484.342	842.35
484.551	901.83
484.759	840.99
484.967	882.65
485.176	888.07
485.384	888.65
485.593	885.55
485.801	862.11
486.01	860.75
486.218	820.07
486.426	757.49
486.635	757.1
486.843	732.3
487.051	797.59
487.26	782.09
487.468	829.75
487.676	858.04
487.885	820.07
488.093	859.98
488.301	859.98
488.509	895.82
488.717	925.27
488.926	909.77
489.134	905.7
489.342	893.11
489.55	875.48
489.758	916.36
489.967	874.7
490.175	1018.27
490.383	899.12
490.591	1030.86
490.799	933.99
491.007	1010.33
491.215	984.95
491.423	946.97
491.631	962.86
491.839	970.22
492.047	966.73
492.255	904.93
492.463	914.62
492.671	938.25
492.879	952.2
493.087	966.35
493.295	969.45
493.503	1012.85
493.711	1018.27
493.919	1053.73
494.127	1017.5
494.334	1023.31
494.542	964.02
494.75	989.6
494.958	1007.03
495.166	1054.89
495.374	1020.98
495.581	1054.5
495.789	1037.26
495.997	1119.02
496.205	1006.65
496.412	999.09
496.62	1073.1
496.828	1038.42
497.035	1014.78
497.243	1083.37
497.451	1038.61
497.658	1105.46
497.866	1040.36
498.074	1102.74
498.281	1041.33
498.489	1109.33
498.696	1047.91
498.904	1043.26
499.112	1034.55
499.319	1114.56
499.527	1072.71
499.734	1132.97
499.942	1015.75
500.149	1073.3
500.357	1052.76
500.564	1012.26
500.771	1092.67
500.979	1013.62
501.186	1024.47
501.394	1067.68
501.601	1020.98
501.808	1103.91
502.016	1059.73
502.223	1043.65
502.43	1048.69
502.638	1059.35
502.845	1006.26
503.052	1136.65
503.26	1041.52
503.467	1150.99
503.674	1086.28
503.881	1085.5
504.089	1194.77
504.296	1108.75
504.503	1058.76
504.71	1083.37
504.917	1051.01
505.125	1083.18
505.332	1101.78
505.539	1111.08
505.746	1141.11
505.953	1148.08
506.16	1137.81
506.367	1158.35
506.574	1223.64
506.781	1222.09
506.988	1117.47
507.195	1154.09
507.402	1171.33
507.609	1174.24
507.816	1121.15
508.023	1115.92
508.23	1145.18
508.437	1091.51
508.644	1154.09
508.851	1204.85
509.058	1171.14
509.265	1179.47
509.472	1212.6
509.679	1259.87
509.885	1172.88
510.092	1177.34
510.299	1166.68
510.506	1148.86
510.713	1192.06
510.92	1187.99
511.126	1221.12
511.333	1216.67
511.54	1214.34
511.746	1279.44
511.953	1283.12
512.16	1303.47
512.367	1230.04
512.573	1226.55
512.78	1233.91
512.987	1222.48
513.193	1227.52
513.4	1144.01
513.606	1203.88
513.813	1243.02
514.02	1228.1
514.226	1293.97
514.433	1261.42
514.639	1195.94
514.846	1211.63
515.052	1167.26
515.259	1220.35
515.465	1254.45
515.672	1236.43
515.878	1330.98
516.085	1260.65
516.291	1313.54
516.497	1221.32
516.704	1253.29
516.91	1193.42
517.117	1173.85
517.323	1103.13
517.529	1129.48
517.736	1152.73
517.942	1132.39
518.148	1164.55
518.354	1212.21
518.561	1200.97
518.767	1231.39
518.973	1274.02
519.179	1228.49
519.386	1238.76
519.592	1225.77
519.798	1234.3
520.004	1345.32
520.21	1327.1
520.417	1377.87
520.623	1376.51
520.829	1404.02
521.035	1337.37
521.241	1375.73
521.447	1377.28
521.653	1508.84
521.859	1371.28
522.065	1448.2
522.271	1518.53
522.477	1460.01
522.683	1497.21
522.889	1439.09
523.095	1456.33
523.301	1466.6
523.507	1404.99
523.713	1464.47
523.919	1409.45
524.125	1467.38
524.331	1453.23
524.537	1571.81
524.742	1523.18
524.948	1559.21
525.154	1548.75
525.36	1673.91
525.566	1573.55
525.772	1625.67
525.977	1507.1
526.183	1597.19
526.389	1577.04
526.595	1516.01
526.8	1536.93
527.006	1467.18
527.212	1441.03
527.417	1438.9
527.623	1391.04
527.829	1509.03
528.034	1531.12
528.24	1519.49
528.446	1540.23
528.651	1614.82
528.857	1614.04
529.062	1700.45
529.268	1638.07
529.473	1660.35
529.679	1690.19
529.884	1739.2
530.09	1707.43
530.295	1745.6
530.501	1712.66
530.706	1693.09
530.912	1675.46
531.117	1712.47
531.323	1713.82
531.528	1739.4
531.733	1754.12
531.939	1693.48
532.144	1779.7
532.35	1720.8
532.555	1770.2
532.76	1770.4
532.966	1720.8
533.171	1689.99
533.376	1688.83
533.581	1642.14
533.787	1699.29
533.992	1752.57
534.197	1763.42
534.402	1777.18
534.607	1761.87
534.813	1839.18
535.018	1738.62
535.223	1739.59
535.428	1789.97
535.633	1799.07
535.838	1804.88
536.043	1828.33
536.249	1911.06
536.454	1838.98
536.659	1870.95
536.864	1825.23
537.069	1782.99
537.274	1836.85
537.479	1813.99
537.684	1838.02
537.889	1744.44
538.094	1915.13
538.299	1832.2
538.504	1831.62
538.708	1843.05
538.913	1892.26
539.118	1872.11
539.323	1864.17
539.528	1832.78
539.733	1837.05
539.938	1856.23
540.142	1829.1
540.347	1852.55
540.552	1819.03
540.757	1784.93
540.962	1809.34
541.166	1774.47
541.371	1742.5
541.576	1793.65
541.781	1710.14
541.985	1835.3
542.19	1811.28
542.395	1895.56
542.599	1909.31
542.804	1900.01
543.008	1955.04
543.213	1840.34
543.418	1839.57
543.622	1893.62
543.827	1838.98
544.031	1925.78
544.236	1928.5
544.44	1901.37
544.645	1995.92
544.849	1891.49
545.054	1941.86
545.258	1986.43
545.463	1985.07
545.667	1857
545.872	1944.77
546.076	1930.82
546.281	1958.53
546.485	1882.77
546.689	1917.26
546.894	1964.14
547.098	1930.63
547.302	1861.65
547.507	1905.63
547.711	1925.2
547.915	1972.86
548.119	1876.57
548.324	1908.35
548.528	1959.88
548.732	1913.96
548.936	1967.44
549.141	1974.03
549.345	1900.21
549.549	1954.07
549.753	1947.87
549.957	2037.38
550.161	2018.98
550.366	1945.55
550.57	1943.41
550.774	1914.35
550.978	1946.9
551.182	1979.84
551.386	1892.46
551.59	1897.88
551.794	1906.02
551.998	1979.06
552.202	1933.73
552.406	1896.91
552.61	1964.73
552.814	1958.33
553.018	2007.16
553.222	1924.62
553.426	1926.56
553.63	2003.28
553.833	1916.1
554.037	1857.97
554.241	1947.48
554.445	1957.36
554.649	1957.17
554.853	1926.36
555.056	1997.86
555.26	2013.55
555.464	1942.45
555.668	1958.53
555.871	2018.39
556.075	1967.63
556.279	1928.88
556.483	1915.32
556.686	1933.92
556.89	1944.38
557.094	1916.68
557.297	1876.96
557.501	1955.23
557.704	1835.11
557.908	1946.51
558.112	1858.17
558.315	1971.31
558.519	1920.55
558.722	1889.16
558.926	1873.47
559.129	1824.84
559.333	1796.36
559.536	1816.9
559.74	1809.92
559.943	1791.32
560.147	1791.71
560.35	1848.67
560.553	1823.68
560.757	1773.11
560.96	1886.84
561.164	1832.2
561.367	1925.59
561.57	1850.61
561.774	1851.19
561.977	1831.43
562.18	1777.37
562.384	1922.68
562.587	1852.16
562.79	1800.62
562.993	1798.49
563.197	1815.54
563.4	1878.9
563.603	1846.93
563.806	1926.95
564.009	1780.67
564.212	1836.66
564.416	1779.5
564.619	1788.42
564.822	1733.39
565.025	1808.37
565.228	1776.4
565.431	1759.16
565.634	1679.14
565.837	1713.44
566.04	1698.32
566.243	1723.7
566.446	1611.33
566.649	1753.54
566.852	1645.24
567.055	1701.42
567.258	1705.88
567.461	1740.17
567.664	1741.34
567.867	1656.67
568.07	1715.18
568.273	1701.04
568.475	1758.77
568.678	1665
568.881	1680.5
569.084	1669.07
569.287	1531.31
569.489	1609.59
569.692	1654.34
569.895	1662.67
570.098	1539.45
570.3	1587.89
570.503	1526.86
570.706	1526.86
570.909	1545.26
571.111	1505.35
571.314	1483.65
571.516	1522.79
571.719	1562.51
571.922	1487.33
572.124	1517.56
572.327	1537.71
572.529	1479.39
572.732	1457.88
572.935	1561.15
573.137	1590.99
573.34	1531.51
573.542	1546.04
573.745	1565.61
573.947	1543.52
574.15	1511.75
574.352	1517.56
574.554	1565.22
574.757	1476.29
574.959	1456.53
575.162	1479.39
575.364	1492.76
575.566	1600.29
575.769	1474.74
575.971	1470.28
576.173	1363.92
576.376	1474.74
576.578	1489.85
576.78	1542.36
576.982	1392.2
577.185	1418.36
577.387	1393.37
577.589	1391.23
577.791	1468.73
577.993	1429.98
578.196	1423.2
578.398	1423.01
578.6	1483.65
578.802	1362.56
579.004	1377.28
579.206	1365.47
579.408	1425.53
579.61	1375.93
579.812	1431.34
580.014	1369.15
580.216	1381.55
580.418	1378.45
580.62	1367.6
580.822	1321.87
581.024	1374.38
581.226	1414.68
581.428	1385.42
581.63	1451.88
581.832	1344.93
582.034	1429.4
582.236	1373.41
582.438	1400.73
582.64	1442.96
582.841	1435.8
583.043	1525.89
583.245	1358.88
583.447	1413.71
583.649	1390.46
583.85	1401.89
584.052	1433.66
584.254	1335.82
584.456	1411.19
584.657	1362.37
584.859	1369.34
585.061	1359.46
585.262	1299.01
585.464	1301.53
585.666	1380.19
585.867	1328.85
586.069	1390.85
586.27	1350.55
586.472	1325.94
586.674	1303.08
586.875	1319.55
587.077	1302.5
587.278	1348.61
587.48	1300.17
587.681	1444.32
587.883	1309.86
588.084	1263.94
588.285	1316.45
588.487	1295.33
588.688	1328.46
588.89	1231.59
589.091	1186.25
589.292	1232.94
589.494	1211.63
589.695	1166.68
589.896	1115.34
590.098	1105.07
590.299	1169.59
590.5	1136.07
590.702	1155.44
590.903	1187.22
591.104	1261.62
591.305	1230.42
591.507	1235.27
591.708	1229.46
591.909	1219.19
592.11	1272.66
592.311	1235.46
592.512	1233.72
592.714	1181.99
592.915	1180.24
593.116	1167.84
593.317	1198.65
593.518	1194.58
593.719	1216.67
593.92	1216.28
594.121	1285.64
594.322	1192.64
594.523	1197.87
594.724	1163.97
594.925	1208.92
595.126	1248.64
595.327	1208.92
595.528	1233.14
595.729	1185.67
595.929	1191.67
596.13	1208.72
596.331	1191.29
596.532	1230.23
596.733	1265.88
596.934	1245.34
597.135	1245.54
597.335	1225.97
597.536	1185.09
597.737	1218.02
597.938	1192.45
598.138	1219.96
598.339	1194.97
598.54	1222.67
598.74	1194
598.941	1167.07
599.142	1243.21
599.342	1200.59
599.543	1191.67
599.744	1197.1
599.944	1200.39
600.145	1163.19
600.345	1169.78
600.546	1290.87
600.746	1235.66
600.947	1288.74
601.147	1178.31
601.348	1229.46
601.548	1143.04
601.749	1229.26
601.949	1141.88
602.15	1165.32
602.35	1131.42
602.551	1206.01
602.751	1167.84
602.951	1127.35
603.152	1107.2
603.352	1177.72
603.552	1140.91
603.753	1214.15
603.953	1217.06
604.153	1166.49
604.354	1140.33
604.554	1174.43
604.754	1187.99
604.954	1136.07
605.155	1207.56
605.355	1135.1
605.555	1209.31
605.755	1231.97
605.955	1156.03
606.155	1229.07
606.356	1160.29
606.556	1177.14
606.756	1180.24
606.956	1112.82
607.156	1221.32
607.356	1117.47
607.556	1159.13
607.756	1157.38
607.956	1216.47
608.156	1196.32
608.356	1102.74
608.556	1156.8
608.756	1141.11
608.956	1110.3
609.156	1132.19
609.356	1108.36
609.556	1100.03
609.755	1150.02
609.955	1111.46
610.155	1122.31
610.355	1116.89
610.555	1090.93
610.755	1125.03
610.954	1058.96
611.154	1118.44
611.354	1143.82
611.554	1047.91
611.753	1057.6
611.953	1046.95
612.153	1086.66
612.352	1105.46
612.552	1057.6
612.752	1028.54
612.951	1076.59
613.151	1098.09
613.351	1052.37
613.55	1050.82
613.75	1098.87
613.949	1058.18
614.149	1072.33
614.348	1040.16
614.548	1024.47
614.747	972.55
614.947	1036.68
615.146	1012.65
615.346	1072.52
615.545	1051.4
615.745	1062.45
615.944	1076.01
616.144	1037.06
616.343	1046.36
616.542	1030.48
616.742	1030.28
616.941	1036.48
617.14	988.24
617.34	995.41
617.539	1012.85
617.738	980.68
617.938	1065.55
618.137	1010.71
618.336	965.38
618.535	1061.28
618.734	984.95
618.934	1000.64
619.133	1040.75
619.332	987.08
619.531	993.86
619.73	1033.19
619.929	1038.23
620.128	1011.68
620.328	1087.44
620.527	979.72
620.726	989.21
620.925	1003.55
621.124	976.81
621.323	1027.57
621.522	960.34
621.721	961.5
621.92	940.58
622.119	976.81
622.318	950.27
622.517	959.76
622.715	973.71
622.914	930.12
623.113	940
623.312	893.3
623.511	982.43
623.71	940.38
623.909	924.88
624.107	991.15
624.306	872.38
624.505	902.99
624.704	932.05
624.902	903.77
625.101	995.99
625.3	949.68
625.499	903.57
625.697	894.85
625.896	893.11
626.095	941.93
626.293	877.61
626.492	872.19
626.69	941.74
626.889	907.45
627.088	956.85
627.286	872.77
627.485	909.97
627.683	892.72
627.882	952.2
628.08	843.32
628.279	891.17
628.477	988.82
628.676	875.29
628.874	941.16
629.073	876.84
629.271	863.85
629.469	920.43
629.668	881.87
629.866	909.77
630.065	874.7
630.263	912.29
630.461	851.07
630.66	868.7
630.858	930.12
631.056	958.98
631.254	932.05
631.453	840.02
631.651	907.64
631.849	913.26
632.047	892.72
632.245	873.15
632.444	884.39
632.642	856.88
632.84	916.75
633.038	872.96
633.236	815.42
633.434	837.12
633.632	844.29
633.83	833.82
634.028	900.28
634.227	881.1
634.425	921.2
634.623	846.61
634.821	864.05
635.019	845.45
635.216	867.34
635.414	893.5
635.612	883.42
635.81	867.92
636.008	909
636.206	850.87
636.404	882.45
636.602	839.05
636.8	848.55
636.997	894.66
637.195	905.51
637.393	872.57
637.591	916.55
637.789	850.87
637.986	855.72
638.184	830.72
638.382	878.97
638.58	883.62
638.777	956.66
638.975	854.75
639.173	846.8
639.37	857.85
639.568	876.06
639.765	896.79
639.963	856.49
640.161	900.09
640.358	889.43
640.556	847.19
640.753	808.64
640.951	792.36
641.148	870.83
641.346	807.86
641.543	820.26
641.741	868.12
641.938	794.3
642.136	800.31
642.333	779.19
642.531	833.44
642.728	873.74
642.925	830.14
643.123	815.03
643.32	814.45
643.517	812.32
643.715	811.16
643.912	813.48
644.109	817.35
644.306	785.39
644.504	781.71
644.701	793.33
644.898	829.75
645.095	772.41
645.293	824.91
645.49	814.64
645.687	806.51
645.884	812.71
646.081	756.52
646.278	764.27
646.475	748.19
646.672	746.25
646.87	782.48
647.067	801.27
647.264	775.7
647.461	744.7
647.658	730.17
647.855	778.99
648.052	755.36
648.249	672.63
648.446	759.23
648.642	725.71
648.839	686.77
649.036	727.84
649.233	694.33
649.43	701.49
649.627	685.03
649.824	722.03
650.021	705.76
650.217	725.33
650.414	689.09
650.611	741.02
650.808	745.86
651.004	752.06
651.201	723.19
651.398	791.78
651.595	715.44
651.791	687.74
651.988	746.25
652.185	684.25
652.381	735.4
652.578	694.71
652.775	706.92
652.971	719.51
653.168	723.39
653.364	747.61
653.561	668.94
653.757	713.89
653.954	724.94
654.15	690.45
654.347	755.36
654.543	713.12
654.74	672.43
654.936	661.58
655.133	714.28
655.329	711.38
655.525	668.17
655.722	752.84
655.918	641.24
656.115	743.15
656.311	616.83
656.507	607.14
656.704	555.8
656.9	601.91
657.096	581.18
657.292	624.38
657.489	691.81
657.685	622.06
657.881	614.89
658.077	615.28
658.273	644.34
658.47	716.41
658.666	651.51
658.862	704.79
659.058	657.9
659.254	717.77
659.45	636.78
659.646	700.53
659.842	670.49
660.038	726.88
660.234	641.82
660.43	656.35
660.626	762.72
660.822	703.82
661.018	718.35
661.214	693.16
661.41	647.63
661.606	738.31
661.802	713.89
661.998	653.64
662.194	662.94
662.39	702.85
662.586	698.59
662.781	699.56
662.977	706.73
663.173	724.36
663.369	689.48
663.564	682.51
663.76	698.2
663.956	678.63
664.152	725.52
664.347	615.28
664.543	675.34
664.739	669.91
664.934	595.51
665.13	603.85
665.326	698.78
665.521	697.81
665.717	618.57
665.912	623.03
666.108	558.7
666.304	644.73
666.499	643.18
666.695	551.34
666.89	643.37
667.086	679.6
667.281	699.56
667.477	743.92
667.672	668.94
667.867	670.3
668.063	658.68
668.258	615.47
668.454	651.89
668.649	758.46
668.844	664.1
669.04	684.25
669.235	641.82
669.43	619.15
669.626	590.09
669.821	621.67
670.016	605.01
670.211	625.74
670.407	593.38
670.602	688.13
670.797	630.2
670.992	662.74
671.187	608.69
671.382	679.02
671.578	630.39
671.773	650.93
671.968	592.8
672.163	647.83
672.358	672.04
672.553	596.87
672.748	631.94
672.943	714.48
673.138	615.66
673.333	658.29
673.528	592.61
673.723	628.65
673.918	618.18
674.113	610.05
674.308	717.19
674.503	691.81
674.698	646.08
674.892	644.34
675.087	672.63
675.282	646.08
675.477	604.23
675.672	666.62
675.867	616.83
676.061	618.18
676.256	593.19
676.451	629.81
676.646	645.5
676.84	604.04
677.035	569.36
677.23	602.1
677.424	643.18
677.619	659.64
677.814	654.41
678.008	681.15
678.203	566.45
678.397	611.6
678.592	603.26
678.787	679.02
678.981	622.83
679.176	646.47
679.37	626.13
679.565	585.63
679.759	605.59
679.954	639.69
680.148	700.53
680.342	689.09
680.537	657.13
680.731	600.16
680.926	642.79
681.12	644.53
681.314	623.22
681.509	610.82
681.703	636.01
681.897	670.11
682.092	621.28
682.286	594.55
682.48	702.08
682.674	653.64
682.869	657.32
683.063	636.59
683.257	698.01
683.451	621.09
683.645	668.36
683.839	657.32
684.034	608.69
684.228	661.58
684.422	579.63
684.616	601.71
684.81	635.23
685.004	612.37
685.198	632.71
685.392	666.04
685.586	597.45
685.78	649.76
685.974	636.4
686.168	636.01
686.362	682.89
686.556	594.93
686.75	567.61
686.944	562.19
687.138	618.57
687.331	511.62
687.525	527.32
687.719	486.63
687.913	574.78
688.107	550.37
688.301	482.56
688.494	572.65
688.688	504.07
688.882	467.83
689.076	480.23
689.269	549.02
689.463	603.46
689.657	530.8
689.85	529.64
690.044	536.03
690.238	545.53
690.431	519.95
690.625	528.09
690.818	598.03
691.012	554.05
691.205	584.66
691.399	524.02
691.593	589.7
691.786	601.52
691.98	633.49
692.173	643.76
692.366	605.2
692.56	626.9
692.753	693.16
692.947	580.01
693.14	665.07
693.333	681.15
693.527	582.15
693.72	680.57
693.914	633.88
694.107	614.31
694.3	654.22
694.493	630.97
694.687	648.79
694.88	626.13
695.073	741.21
695.266	707.31
695.46	656.93
695.653	711.57
695.846	755.36
696.039	611.01
696.232	674.95
696.425	695.88
696.618	710.99
696.812	736.76
697.005	786.55
697.198	851.07
697.391	747.02
697.584	833.24
697.777	838.09
697.97	825.1
698.163	829.75
698.356	815.8
698.549	899.5
698.742	878.77
698.935	847.19
699.127	866.76
699.32	856.69
699.513	850.68
699.706	873.74
699.899	905.9
700.092	878.97
700.285	922.17
700.477	874.9
700.67	925.27
700.863	975.07
701.056	1036.48
701.248	1033.19
701.441	1008.58
701.634	981.85
701.826	1120.57
702.019	979.13
702.212	1068.65
702.404	998.31
702.597	1003.55
702.79	1015.36
702.982	1074.46
703.175	1115.34
703.367	1124.83
703.56	1147.11
703.752	1235.46
703.945	1184.7
704.137	1193.61
704.33	1219.57
704.522	1236.62
704.715	1248.64
704.907	1257.74
705.1	1281.38
705.292	1323.81
705.484	1263.17
705.677	1351.13
705.869	1311.8
706.061	1370.12
706.254	1407.51
706.446	1375.73
706.638	1406.93
706.831	1437.73
707.023	1386.78
707.215	1479
707.407	1504.19
707.599	1474.74
707.792	1575.49
707.984	1538.09
708.176	1549.91
708.368	1564.83
708.56	1557.47
708.752	1540.42
708.944	1544.29
709.136	1625.09
709.329	1571.23
709.521	1739.59
709.713	1675.66
709.905	1702.78
710.097	1762.84
710.289	1680.69
710.481	1694.84
710.672	1775.24
710.864	1768.65
711.056	1838.02
711.248	1799.46
711.44	1810.5
711.632	1818.45
711.824	1855.84
712.016	1932.18
712.207	1938.57
712.399	1920.16
712.591	1995.53
712.783	1950.39
712.975	1980.03
713.166	1951.16
713.358	1959.49
713.55	2055.98
713.741	2055.79
713.933	2035.44
714.125	2084.66
714.316	2034.48
714.508	2109.26
714.7	2142.39
714.891	2113.14
715.083	2161.19
715.274	2141.62
715.466	2156.34
715.657	2213.88
715.849	2093.96
716.04	2202.45
716.232	2151.89
716.423	2213.88
716.615	2154.6
716.806	2102.09
716.998	2093.96
717.189	2043.58
717.381	2007.54
717.572	1980.03
717.763	2044.94
717.955	2000.76
718.146	1948.84
718.337	1912.8
718.528	1857
718.72	1814.18
718.911	1934.11
719.102	1864.75
719.293	1913.96
719.485	1891.1
719.676	1904.47
719.867	1864.36
720.058	1828.72
720.249	1903.5
720.44	1883.74
720.632	1947.48
720.823	1969.57
721.014	2081.56
721.205	2138.9
721.396	2171.84
721.587	2292.55
721.778	2336.72
721.969	2338.85
722.16	2416.35
722.351	2417.51
722.542	2547.13
722.733	2601.38
722.924	2459.36
723.115	2526.98
723.305	2520.78
723.496	2593.44
723.687	2462.66
723.878	2448.13
724.069	2443.67
724.26	2503.73
724.45	2441.54
724.641	2397.17
724.832	2486.1
725.023	2420.23
725.213	2428.36
725.404	2433.98
725.595	2447.93
725.785	2407.44
725.976	2523.3
726.167	2483.58
726.357	2492.69
726.548	2631.8
726.739	2506.64
726.929	2630.64
727.12	2659.12
727.31	2687.79
727.501	2638.19
727.691	2639.35
727.882	2647.1
728.072	2662.02
728.263	2648.46
728.453	2724.99
728.644	2730.8
728.834	2764.51
729.024	2686.05
729.215	2704.84
729.405	2725.57
729.596	2797.65
729.786	2856.16
729.976	2849.76
730.167	2849.18
730.357	2831.94
730.547	2874.18
730.737	2896.26
730.928	2944.12
731.118	2983.84
731.308	2920.48
731.498	2915.83
731.688	2995.27
731.879	3014.84
732.069	3060.56
732.259	3082.45
732.449	3085.94
732.639	3198.9
732.829	3204.51
733.019	3275.43
733.209	3315.34
733.399	3316.31
733.589	3381.6
733.779	3387.22
733.969	3391.29
734.159	3441.66
734.349	3512.77
734.539	3538.53
734.729	3595.69
734.919	3602.86
735.109	3658.66
735.299	3550.35
735.488	3619.13
735.678	3584.07
735.868	3614.1
736.058	3589.68
736.248	3628.82
736.437	3573.22
736.627	3577.28
736.817	3717.36
737.007	3618.16
737.196	3668.15
737.386	3678.81
737.576	3624.95
737.765	3758.83
737.955	3653.23
738.144	3818.31
738.334	3766.96
738.524	3706.9
738.713	3731.31
738.903	3754.37
739.092	3732.28
739.282	3800.67
739.471	3797.57
739.661	3758.44
739.85	3802.81
740.04	3832.26
740.229	3844.85
740.419	3919.05
740.608	3836.52
740.797	3861.51
740.987	3961.29
741.176	3921.57
741.365	3870.23
741.555	3869.46
741.744	3948.12
741.933	3906.07
742.123	3922.74
742.312	3938.62
742.501	3983.18
742.69	4033.75
742.88	3869.46
743.069	4019.42
743.258	3980.67
743.447	4001.4
743.636	4044.22
743.825	4001.2
744.014	4025.23
744.204	4051.19
744.393	3992.48
744.582	4077.35
744.771	4126.17
744.96	4039.37
745.149	4064.95
745.338	4027.17
745.527	4093.04
745.716	4113.77
745.905	4039.95
746.094	4139.15
746.283	4092.26
746.471	4092.65
746.66	4188.94
746.849	4174.8
747.038	4170.15
747.227	4093.43
747.416	4190.49
747.604	4087.23
747.793	4121.13
747.982	4146.32
748.171	4132.56
748.359	4159.88
748.548	4139.54
748.737	4150
748.926	4096.53
749.114	4014.18
749.303	4128.11
749.491	4084.13
749.68	4014.77
749.869	4125.4
750.057	4084.32
750.246	4074.63
750.434	4038.02
750.623	4119.97
750.811	4044.99
751	4101.76
751.188	4047.9
751.377	4077.54
751.565	4075.21
751.754	4004.5
751.942	4044.22
752.131	4114.93
752.319	4021.16
752.507	3994.81
752.696	4041.89
752.884	4104.86
753.072	4010.89
753.261	4051.19
753.449	4043.83
753.637	4003.72
753.825	4119.39
754.014	4013.41
754.202	4038.4
754.39	4077.93
754.578	4118.61
754.766	4036.66
754.955	3984.93
755.143	4126.75
755.331	4034.72
755.519	4063.01
755.707	4046.15
755.895	3990.93
756.083	4021.16
756.271	3967.88
756.459	3972.33
756.647	4035.3
756.835	3960.9
757.023	3964.97
757.211	3951.99
757.399	3916.92
757.587	3938.82
757.775	3894.25
757.963	3923.12
758.151	3906.65
758.339	3905.1
758.526	3907.24
758.714	3945.02
758.902	3815.98
759.09	3748.75
759.278	3599.57
759.465	3363.58
759.653	3023.17
759.841	2817.21
760.028	2419.26
760.216	2177.07
760.404	2036.8
760.591	1765.17
760.779	1538.68
760.967	1372.63
761.154	1200.59
761.342	1238.17
761.529	1270.92
761.717	1338.34
761.905	1318.39
762.092	1490.82
762.28	1443.55
762.467	1471.45
762.655	1372.63
762.842	1455.17
763.029	1454.78
763.217	1485.4
763.404	1499.54
763.592	1545.65
763.779	1456.53
763.966	1551.66
764.154	1583.82
764.341	1671.59
764.528	1664.42
764.716	1744.63
764.903	1782.02
765.09	1848.87
765.277	1893.43
765.465	2037.77
765.652	2116.04
765.839	2188.89
766.026	2316.18
766.213	2314.83
766.4	2437.28
766.588	2611.45
766.775	2616.88
766.962	2719.18
767.149	2791.64
767.336	2980.35
767.523	2871.66
767.71	3016.97
767.897	3151.43
768.084	3166.93
768.271	3180.49
768.458	3265.16
768.645	3305.84
768.832	3272.91
769.019	3318.24
769.206	3381.79
769.392	3463.55
769.579	3461.23
769.766	3450.19
769.953	3449.8
770.14	3496.69
770.327	3486.03
770.513	3548.8
770.7	3584.07
770.887	3486.22
771.073	3535.82
771.26	3506.95
771.447	3489.13
771.634	3492.42
771.82	3598.21
772.007	3447.47
772.193	3528.65
772.38	3546.09
772.567	3487.39
772.753	3562.95
772.94	3563.33
773.126	3545.32
773.313	3581.35
773.499	3522.84
773.686	3586.39
773.872	3496.69
774.059	3509.86
774.245	3485.84
774.432	3483.51
774.618	3389.74
774.804	3471.11
774.991	3405.62
775.177	3495.91
775.363	3455.42
775.55	3470.72
775.736	3410.86
775.922	3419.19
776.109	3435.46
776.295	3449.8
776.481	3443.99
776.667	3482.15
776.853	3435.07
777.04	3361.45
777.226	3449.41
777.412	3494.75
777.598	3402.52
777.784	3376.37
777.97	3364.16
778.156	3357.57
778.342	3391.67
778.528	3343.43
778.715	3309.33
778.901	3320.96
779.087	3367.07
779.272	3295.38
779.458	3256.83
779.644	3329.09
779.83	3273.1
780.016	3411.44
780.202	3305.07
780.388	3242.88
780.574	3224.08
780.76	3273.88
780.946	3368.23
781.131	3261.28
781.317	3250.24
781.503	3187.27
781.689	3208.58
781.874	3385.47
782.06	3203.16
782.246	3257.8
782.432	3245.98
782.617	3219.63
782.803	3288.6
782.989	3158.4
783.174	3184.56
783.36	3126.05
783.545	3155.69
783.731	3157.82
783.916	3093.3
784.102	3165.18
784.288	3120.62
784.473	3151.62
784.659	3095.24
784.844	3145.62
785.029	3135.54
785.215	3109.77
785.4	3017.16
785.586	3156.66
785.771	3027.24
785.956	3093.5
786.142	3026.46
786.327	3044.67
786.512	3047.77
786.698	3009.22
786.883	2997.21
787.068	3049.71
787.254	3033.63
787.439	3022
787.624	3011.35
787.809	2987.32
787.994	2956.52
788.18	3060.75
788.365	2897.43
788.55	2922.03
788.735	2940.63
788.92	2948.77
789.105	2943.73
789.29	2975.12
789.475	2894.91
789.66	2875.53
789.845	2914.86
790.03	2907.89
790.215	2945.86
790.4	2961.36
790.585	2966.01
790.77	2904.21
790.955	2797.65
791.14	2859.06
791.325	2928.81
791.51	2774.59
791.695	2858.29
791.879	2821.67
792.064	2803.65
792.249	2875.92
792.434	2827.29
792.618	2840.08
792.803	2871.85
792.988	2852.67
793.173	2882.7
793.357	2885.8
793.542	2797.06
793.727	2855.96
793.911	2866.62
794.096	2834.84
794.281	2828.26
794.465	2915.25
794.65	2844.73
794.834	2885.99
795.019	2908.86
795.203	2895.49
795.388	2903.82
795.572	2899.17
795.757	2920.67
795.941	2881.34
796.126	2921.45
796.31	2828.26
796.494	2870.88
796.679	2840.08
796.863	2839.11
797.048	2933.66
797.232	2860.61
797.416	2882.31
797.601	2876.69
797.785	2927.26
797.969	2899.94
798.153	2824
798.338	2936.37
798.522	2935.21
798.706	2956.52
798.89	2950.12
799.074	3071.99
799.258	2976.47
799.443	2929.2
799.627	2923
799.811	2961.36
799.995	2912.15
800.179	2918.54
800.363	2867.78
800.547	2940.82
800.731	2955.94
800.915	2855.58
801.099	2869.91
801.283	2907.11
801.467	2914.28
801.651	2906.34
801.835	2940.05
802.019	2925.52
802.202	2952.06
802.386	2849.96
802.57	2848.21
802.754	2891.61
802.938	2888.71
803.121	2881.93
803.305	2996.82
803.489	2892.39
803.673	2963.88
803.856	2869.14
804.04	2891.23
804.224	2919.32
804.407	2878.24
804.591	2879.99
804.775	2870.88
804.958	2877.47
805.142	3014.45
805.326	2870.69
805.509	2904.98
805.693	2953.61
805.876	2923
806.06	2945.86
806.243	2897.04
806.427	2955.74
806.61	2977.44
806.794	2882.7
806.977	2987.32
807.16	2930.36
807.344	2939.47
807.527	2862.36
807.71	2896.84
807.894	2894.52
808.077	2905.18
808.26	2891.23
808.444	2816.63
808.627	2947.02
808.81	2842.79
808.993	2773.81
809.177	2793.58
809.36	2804.23
809.543	2842.79
809.726	2752.11
809.909	2731.19
810.092	2700
810.276	2741.26
810.459	2774.4
810.642	2706.97
810.825	2696.7
811.008	2703.48
811.191	2568.25
811.374	2630.25
811.557	2682.56
811.74	2700.77
811.923	2583.55
812.106	2577.94
812.289	2553.52
812.472	2577.74
812.654	2603.7
812.837	2519.23
813.02	2515.16
813.203	2506.06
813.386	2384.19
813.569	2361.13
813.751	2320.83
813.934	2359
814.117	2324.9
814.3	2294.87
814.482	2247.79
814.665	2196.84
814.848	2211.17
815.03	2126.7
815.213	2131.74
815.396	2092.79
815.578	2085.24
815.761	2050.36
815.943	2099.77
816.126	2024.01
816.309	1993.79
816.491	1928.69
816.674	1848.28
816.856	1907.18
817.039	1914.16
817.221	1999.21
817.403	1965.31
817.586	1932.76
817.768	1972.09
817.951	1849.64
818.133	1856.81
818.315	1880.64
818.498	1948.06
818.68	1981.58
818.862	1925.59
819.045	1973.83
819.227	1980.61
819.409	1942.06
819.591	1989.14
819.774	1936.83
819.956	1883.35
820.138	1990.3
820.32	1977.51
820.502	2000.96
820.684	2081.56
820.866	2080.01
821.048	2141.23
821.231	2145.88
821.413	2139.1
821.595	2064.31
821.777	2085.24
821.959	2091.24
822.141	2176.69
822.323	2024.01
822.505	1982.94
822.686	1957.75
822.868	1870.18
823.05	1771.56
823.232	1740.95
823.414	1656.47
823.596	1729.71
823.778	1676.82
823.96	1745.99
824.141	1735.33
824.323	1779.12
824.505	1817.28
824.687	1868.05
824.868	1918.42
825.05	1999.21
825.232	2053.07
825.413	2103.64
825.595	2065.67
825.777	1997.08
825.958	2049.01
826.14	2036.41
826.321	2049.2
826.503	2022.27
826.685	2033.7
826.866	2083.3
827.048	2099.38
827.229	2010.26
827.411	1988.56
827.592	1937.6
827.773	1938.18
827.955	1918.61
828.136	1899.82
828.318	1861.65
828.499	1898.46
828.68	1843.63
828.862	1878.12
829.043	1885.87
829.224	1830.07
829.406	1831.04
829.587	1833.17
829.768	1843.25
829.949	1854.68
830.131	1834.33
830.312	1916.87
830.493	1866.69
830.674	1889.94
830.855	1841.12
831.036	1848.09
831.218	1893.62
831.399	1912.61
831.58	1872.7
831.761	1876.76
831.942	1891.3
832.123	1861.07
832.304	1789.77
832.485	1823.29
832.666	1805.85
832.847	1868.05
833.028	1822.71
833.209	1819.03
833.389	1834.33
833.57	1762.07
833.751	1784.93
833.932	1865.53
834.113	1801.59
834.294	1769.43
834.475	1844.22
834.655	1874.63
834.836	1905.63
835.017	1895.75
835.198	1799.07
835.378	1850.61
835.559	1879.67
835.74	1842.86
835.92	1834.92
836.101	1817.09
836.281	1853.71
836.462	1863.01
836.643	1889.36
836.823	1939.93
837.004	1914.93
837.184	1932.56
837.365	1895.75
837.545	1921.13
837.726	1831.82
837.906	1962.21
838.087	1885.29
838.267	1896.53
838.448	1824.84
838.628	1897.11
838.808	1839.76
838.989	1939.93
839.169	1809.73
839.349	1881.8
839.53	1901.76
839.71	1877.93
839.89	1859.52
840.07	1928.88
840.251	1817.48
840.431	1908.73
840.611	1836.66
840.791	1846.73
840.971	1880.25
841.151	1833.17
841.332	1778.34
841.512	1896.14
841.692	1768.27
841.872	1871.92
842.052	1871.92
842.232	1904.28
842.412	1789
842.592	1831.62
842.772	1832.01
842.952	1824.45
843.132	1775.05
843.312	1783.57
843.492	1756.84
843.672	1857.78
843.851	1755.67
844.031	1812.44
844.211	1777.18
844.391	1828.33
844.571	1791.52
844.751	1793.65
844.93	1844.41
845.11	1768.27
845.29	1754.12
845.47	1790.74
845.649	1791.71
845.829	1827.36
846.009	1766.52
846.188	1757.42
846.368	1806.24
846.547	1807.4
846.727	1800.23
846.907	1735.91
847.086	1764.39
847.266	1769.04
847.445	1710.72
847.625	1704.14
847.804	1768.65
847.984	1774.66
848.163	1719.83
848.343	1718.86
848.522	1748.12
848.701	1736.69
848.881	1716.54
849.06	1762.45
849.239	1758.58
849.419	1732.81
849.598	1643.3
849.777	1634.58
849.957	1652.21
850.136	1571.23
850.315	1585.18
850.494	1533.25
850.674	1573.94
850.853	1639.81
851.032	1618.69
851.211	1685.54
851.39	1657.44
851.569	1549.14
851.748	1572.58
851.927	1614.82
852.107	1634.77
852.286	1567.35
852.465	1570.84
852.644	1619.66
852.823	1602.42
853.002	1617.14
853.181	1606.1
853.359	1634.19
853.538	1523.95
853.717	1639.23
853.896	1493.53
854.075	1426.88
854.254	1427.85
854.433	1362.95
854.611	1409.83
854.79	1308.7
854.969	1403.83
855.148	1434.63
855.327	1409.64
855.505	1444.51
855.684	1432.89
855.863	1474.16
856.041	1411.38
856.22	1489.85
856.399	1472.41
856.577	1537.71
856.756	1560.76
856.934	1641.75
857.113	1619.47
857.291	1547.01
857.47	1497.21
857.648	1560.76
857.827	1525.69
858.005	1552.24
858.184	1489.08
858.362	1618.31
858.541	1542.74
858.719	1508.84
858.898	1470.48
859.076	1555.92
859.254	1617.34
859.433	1510.97
859.611	1476.68
859.789	1477.45
859.967	1562.31
860.146	1596.22
860.324	1463.89
860.502	1509.81
860.68	1426.88
860.859	1466.8
861.037	1491.21
861.215	1476.68
861.393	1445.1
861.571	1483.26
861.749	1455.17
861.927	1438.9
862.105	1482.3
862.283	1455.56
862.461	1441.03
862.639	1400.15
862.817	1411.19
862.995	1414.87
863.173	1427.66
863.351	1427.08
863.529	1464.28
863.707	1475.71
863.885	1503.41
864.063	1333.3
864.241	1396.27
864.418	1475.13
864.596	1397.82
864.774	1357.72
864.952	1408.28
865.129	1437.15
865.307	1378.45
865.485	1321.29
865.663	1409.64
865.84	1311.8
866.018	1338.73
866.196	1191.29
866.373	1267.04
866.551	1203.3
866.728	1163.19
866.906	1212.02
867.084	1215.7
867.261	1273.44
867.439	1251.54
867.616	1304.05
867.794	1236.24
867.971	1312.57
868.149	1269.95
868.326	1363.33
868.503	1334.08
868.681	1301.53
868.858	1263.55
869.035	1268.59
869.213	1354.62
869.39	1284.48
869.567	1388.13
869.745	1294.75
869.922	1291.26
870.099	1291.07
870.276	1346.87
870.454	1312.77
870.631	1324.78
870.808	1281.57
870.985	1325.75
871.162	1348.8
871.339	1320.32
871.517	1254.06
871.694	1247.86
871.871	1267.04
872.048	1276.92
872.225	1238.95
872.402	1267.04
872.579	1234.88
872.756	1284.48
872.933	1213.37
873.11	1233.14
873.287	1244.37
873.463	1220.16
873.64	1215.12
873.817	1237.59
873.994	1216.28
874.171	1213.57
874.348	1230.62
874.524	1170.75
874.701	1203.88
874.878	1109.33
875.055	1226.55
875.231	1207.95
875.408	1214.54
875.585	1138.39
875.762	1165.52
875.938	1198.65
876.115	1202.14
876.291	1174.62
876.468	1191.09
876.645	1113.98
876.821	1151.96
876.998	1171.72
877.174	1197.29
877.351	1158.54
877.527	1130.64
877.704	1181.02
877.88	1169.59
878.057	1137.43
878.233	1198.65
878.409	1125.99
878.586	1196.32
878.762	1130.45
878.938	1156.03
879.115	1080.27
879.291	1144.98
879.467	1103.13
879.644	1100.42
879.82	1165.71
879.996	1132.97
880.172	1053.92
880.349	1128.32
880.525	1163.58
880.701	1087.24
880.877	1088.6
881.053	1100.23
881.229	1087.44
881.405	1145.95
881.581	1054.5
881.757	1075.62
881.933	1121.73
882.109	1128.32
882.285	1126.77
882.461	1033.96
882.637	1094.03
882.813	1074.46
882.989	1083.37
883.165	1137.23
883.341	1087.63
883.517	1137.43
883.693	1112.43
883.869	1140.91
884.044	1061.86
884.22	1153.12
884.396	1149.83
884.572	1121.93
884.747	1132.58
884.923	1129.87
885.099	1137.62
885.275	1175.01
885.45	1071.16
885.626	1041.52
885.801	1090.34
885.977	1107.01
886.153	1015.36
886.328	1089.18
886.504	1039.2
886.679	1081.63
886.855	1070.2
887.03	1076.78
887.206	1135.1
887.381	1065.93
887.557	1113.79
887.732	1126.38
887.908	1098.29
888.083	1105.65
888.258	1125.41
888.434	1088.99
888.609	1090.93
888.784	1138.78
888.96	1089.18
889.135	1051.98
889.31	1031.06
889.485	1081.63
889.661	1070.97
889.836	1101.19
890.011	1105.84
890.186	1077.36
890.361	1054.5
890.537	1076.59
890.712	1059.15
890.887	1094.8
891.062	1101.39
891.237	1142.08
891.412	1051.98
891.587	1087.24
891.762	1114.37
891.937	1135.88
892.112	1045.4
892.287	1096.35
892.462	1026.99
892.637	1008.2
892.812	997.73
892.987	1022.15
893.161	1018.08
893.336	1011.68
893.511	1025.05
893.686	999.48
893.861	1019.43
894.035	1029.51
894.21	1029.51
894.385	981.07
894.56	993.66
894.734	936.7
894.909	920.04
895.084	955.69
895.258	934.18
895.433	955.5
895.608	908.22
895.782	881.87
895.957	902.6
896.131	907.83
896.306	817.35
896.48	825.88
896.655	823.36
896.829	799.72
897.004	796.24
897.178	780.16
897.353	776.86
897.527	814.26
897.701	803.02
897.876	747.41
898.05	823.36
898.224	794.88
898.399	845.06
898.573	815.22
898.747	687.35
898.921	778.99
899.096	652.09
899.27	679.21
899.444	643.95
899.618	663.13
899.792	706.73
899.967	708.86
900.141	760.97
900.315	662.36
900.489	673.21
900.663	723.39
900.837	702.85
901.011	655.19
901.185	756.52
901.359	676.11
901.533	712.73
901.707	689.87
901.881	693.94
902.055	628.26
902.229	697.23
902.403	776.28
902.576	688.13
902.75	707.5
902.924	820.07
903.098	755.74
903.272	791.59
903.446	821.81
903.619	791.78
903.793	837.7
903.967	807.47
904.14	878
904.314	827.82
904.488	859.98
904.661	856.3
904.835	836.15
905.009	869.86
905.182	898.73
905.356	872.57
905.529	815.8
905.703	796.04
905.876	792.94
906.05	768.14
906.223	750.51
906.397	690.45
906.57	707.5
906.744	664.68
906.917	691.23
907.09	720.87
907.264	683.86
907.437	674.37
907.61	622.06
907.784	669.33
907.957	643.56
908.13	608.69
908.304	662.94
908.477	634.07
908.65	636.59
908.823	593.58
908.996	701.69
909.17	636.78
909.343	629.23
909.516	642.21
909.689	619.15
909.862	605.4
910.035	623.03
910.208	572.26
910.381	560.25
910.554	683.09
910.727	596.87
910.9	592.03
911.073	581.95
911.246	645.5
911.419	679.02
911.592	616.05
911.765	586.99
911.938	598.23
912.11	630.39
912.283	600.16
912.456	661.97
912.629	632.52
912.802	568.39
912.974	588.93
913.147	542.23
913.32	469.97
913.493	512.98
913.665	530.42
913.838	553.66
914.01	531.38
914.183	548.24
914.356	555.02
914.528	585.83
914.701	657.32
914.873	605.01
915.046	532.74
915.218	521.12
915.391	450.01
915.563	484.88
915.736	507.94
915.908	559.28
916.081	537.2
916.253	519.95
916.425	511.82
916.598	550.76
916.77	554.05
916.942	512.01
917.115	443.04
917.287	540.3
917.459	502.52
917.632	470.55
917.804	415.33
917.976	474.42
918.148	494.38
918.32	497.09
918.493	529.64
918.665	592.22
918.837	534.48
919.009	592.41
919.181	574.4
919.353	546.69
919.525	535.26
919.697	564.32
919.869	536.42
920.041	615.86
920.213	662.16
920.385	559.67
920.557	565.1
920.729	598.61
920.901	549.6
921.073	522.28
921.244	583.11
921.416	600.75
921.588	522.28
921.76	514.53
921.932	588.54
922.103	529.45
922.275	555.99
922.447	553.66
922.619	458.73
922.79	546.88
922.962	529.06
923.134	556.76
923.305	489.34
923.477	456.21
923.648	482.75
923.82	469.38
923.991	430.83
924.163	425.21
924.335	480.62
924.506	453.5
924.677	519.37
924.849	444.78
925.02	456.99
925.192	517.05
925.363	473.65
925.535	484.11
925.706	452.53
925.877	531.19
926.049	435.29
926.22	482.95
926.391	482.75
926.562	512.98
926.734	439.74
926.905	474.42
927.076	424.63
927.247	443.42
927.419	379.49
927.59	390.53
927.761	405.25
927.932	419.98
928.103	400.02
928.274	358.37
928.445	343.45
928.616	392.47
928.787	380.26
928.958	393.05
929.129	368.06
929.3	357.01
929.471	315.74
929.642	285.52
929.813	202.79
929.984	321.17
930.155	220.23
930.326	300.63
930.496	243.67
930.667	209.57
930.838	218.29
931.009	218.87
931.18	236.11
931.35	244.64
931.521	240.57
931.692	186.71
931.863	129.75
932.033	192.71
932.204	193.68
932.374	195.62
932.545	143.31
932.716	209.38
932.886	208.99
933.057	86.54
933.227	135.95
933.398	196.59
933.568	114.44
933.739	60.58
933.909	84.8
934.08	101.85
934.25	57.09
934.421	58.45
934.591	106.88
934.761	72.2
934.932	49.53
935.102	117.15
935.272	98.55
935.443	91.77
935.613	89.45
935.783	116.18
935.953	73.75
936.123	265.95
936.294	87.9
936.464	92.16
936.634	71.62
936.804	53.8
936.974	22.02
937.144	97.39
937.314	100.1
937.484	64.65
937.655	53.02
937.825	105.33
937.995	55.54
938.165	115.22
938.334	68.72
938.504	115.99
938.674	94.29
938.844	103.78
939.014	157.45
939.184	137.3
939.354	190.97
939.524	192.91
939.694	129.36
939.863	139.05
940.033	213.25
940.203	200.27
940.373	175.08
940.542	171.4
940.712	141.56
940.882	191.36
941.051	204.14
941.221	164.04
941.391	197.56
941.56	128.58
941.73	114.25
941.899	244.83
942.069	144.47
942.238	167.14
942.408	118.7
942.577	175.08
942.747	140.4
942.916	74.92
943.086	106.69
943.255	178.96
943.425	124.71
943.594	115.99
943.763	43.33
943.933	79.18
944.102	39.27
944.271	107.08
944.441	116.96
944.61	90.03
944.779	117.35
944.948	232.24
945.117	83.83
945.287	94.29
945.456	24.74
945.625	74.92
945.794	114.83
945.963	92.55
946.132	142.15
946.301	106.3
946.47	142.34
946.639	52.83
946.808	80.92
946.977	115.41
947.146	152.22
947.315	96.23
947.484	123.35
947.653	97.97
947.822	103.2
947.991	82.08
948.16	178.57
948.329	145.44
948.498	115.8
948.666	91.38
948.835	131.49
949.004	77.82
949.173	55.35
949.341	112.89
949.51	127.23
949.679	143.89
949.847	117.35
950.016	208.6
950.185	176.63
950.353	67.75
950.522	96.42
950.69	162.68
950.859	78.21
951.028	141.37
951.196	123.93
951.365	102.43
951.533	93.52
951.701	120.45
951.87	140.4
952.038	86.15
952.207	108.63
952.375	185.35
952.543	61.35
952.712	103.98
952.88	87.32
953.048	160.94
953.217	118.51
953.385	83.63
953.553	154.93
953.721	78.79
953.89	71.23
954.058	62.52
954.226	77.43
954.394	98.55
954.562	35
954.73	87.32
954.898	95.84
955.067	163.07
955.235	88.67
955.403	134.98
955.571	174.89
955.739	136.53
955.907	82.08
956.075	73.75
956.243	89.64
956.41	139.24
956.578	47.4
956.746	34.62
956.914	89.45
957.082	149.9
957.25	143.7
957.418	101.46
957.585	109.02
957.753	165.78
957.921	69.68
958.089	106.11
958.256	126.06
958.424	107.66
958.592	91.58
958.759	78.98
958.927	115.02
959.095	80.34
959.262	82.47
959.43	94.87
959.597	87.9
959.765	99.72
959.932	62.9
960.1	133.62
960.267	105.14
960.435	101.65
960.602	146.02
960.77	91.38
960.937	54.18
961.104	133.04
961.272	37.91
961.439	90.03
961.606	130.71
961.774	123.16
961.941	99.91
962.108	121.41
962.275	127.03
962.443	153.38
962.61	143.5
962.777	195.04
962.944	126.45
963.111	132.65
963.278	127.42
963.446	106.5
963.613	86.73
963.78	148.93
963.947	141.56
964.114	119.86
964.281	215.58
964.448	142.53
964.615	106.11
964.782	123.93
964.949	170.63
965.116	165.4
965.282	165.2
965.449	88.09
965.616	105.33
965.783	168.3
965.95	138.46
966.117	95.84
966.283	94.68
966.45	128.58
966.617	141.76
966.784	155.9
966.95	151.83
967.117	142.92
967.284	77.43
967.45	86.73
967.617	159.2
967.784	154.93
967.95	168.69
968.117	113.08
968.283	173.15
968.45	240.57
968.616	130.13
968.783	190
968.949	159.2
969.116	190.39
969.282	152.03
969.449	143.5
969.615	132.65
969.781	82.86
969.948	129.55
970.114	95.65
970.28	186.32
970.447	124.51
970.613	192.71
970.779	114.83
970.945	151.83
971.112	141.95
971.278	145.05
971.444	130.33
971.61	196.01
971.776	133.43
971.942	153.96
972.108	159.2
972.275	115.22
972.441	141.37
972.607	193.1
972.773	110.76
972.939	127.23
973.105	125.48
973.271	92.35
973.437	107.27
973.602	84.22
973.768	123.16
973.934	124.9
974.1	155.13
974.266	53.8
974.432	147.96
974.598	88.28
974.763	161.71
974.929	132.26
975.095	171.6
975.261	88.28
975.426	76.85
975.592	112.12
975.758	173.73
975.923	68.33
976.089	102.23
976.255	163.46
976.42	146.8
976.586	145.25
976.751	124.32
976.917	201.82
977.082	129.75
977.248	74.72
977.413	15.82
977.579	100.3
977.744	109.79
977.91	68.72
978.075	81.31
978.24	120.83
978.406	98.36
978.571	116.18
978.736	82.67
978.902	139.43
979.067	60.58
979.232	15.82
979.397	107.66
979.563	167.14
979.728	84.8
979.893	84.8
980.058	92.55
980.223	143.89
980.388	118.31
980.554	119.48
980.719	90.03
980.884	109.02
981.049	163.26
981.214	88.09
981.379	94.1
981.544	80.92
981.709	138.46
981.874	131.3
982.039	77.82
982.204	128.78
982.368	101.46
982.533	89.25
982.698	114.63
982.863	147.57
983.028	66.39
983.193	143.5
983.357	115.22
983.522	80.73
983.687	103.78
983.852	89.45
984.016	85.18
984.181	103.4
984.346	109.02
984.51	147.38
984.675	105.92
984.839	139.63
985.004	136.72
985.168	141.76
985.333	107.08
985.498	104.37
985.662	122.96
985.827	114.83
985.991	91.58
986.155	99.91
986.32	141.76
986.484	181.48
986.649	117.54
986.813	69.68
986.977	98.36
987.142	143.5
987.306	75.5
987.47	85.18
987.634	114.63
987.799	116.76
987.963	109.6
988.127	108.05
988.291	169.27
988.455	128.78
988.62	98.36
988.784	127.42
988.948	132.26
989.112	67.75
989.276	97.58
989.44	98.55
989.604	74.14
989.768	89.06
989.932	196.4
990.096	73.37
990.26	47.98
990.424	42.37
990.588	101.07
990.752	143.89
990.915	125.29
991.079	95.45
991.243	95.65
991.407	125.87
991.571	88.09
991.734	141.95
991.898	115.02
992.062	189.03
992.226	86.93
992.389	69.88
992.553	47.02
992.717	73.75
992.88	64.07
993.044	117.93
993.207	74.72
993.371	112.12
993.535	122
993.698	90.8
993.862	132.65
994.025	127.42
994.189	85.18
994.352	101.85
994.515	91.97
994.679	118.9
994.842	100.3
995.006	116.18
995.169	51.67
995.332	66.97
995.496	119.86
995.659	51.08
995.822	88.87
995.985	68.13
996.149	123.55
996.312	71.82
996.475	157.45
996.638	77.24
996.801	139.82
996.964	140.4
997.128	77.43
997.291	58.06
997.454	99.72
997.617	13.3
997.78	114.25
997.943	33.26
998.106	123.55
998.269	45.47
998.432	85.38
998.595	70.07
998.758	25.9
998.92	47.79
999.083	9.24
999.246	79.37
999.409	28.61
999.572	26.29
999.735	52.83
999.897	123.74
1000.06	37.52
1000.223	92.16
1000.386	107.66
1000.548	110.18
1000.711	79.76
1000.874	93.13
1001.036	31.13
1001.199	142.53
1001.361	33.45
1001.524	87.12
1001.687	102.62
1001.849	47.21
1002.012	72.01
1002.174	83.05
1002.337	96.81
1002.499	70.65
1002.661	91.58
1002.824	20.67
1002.986	43.33
1003.149	49.73
1003.311	45.66
1003.473	131.68
1003.636	33.07
1003.798	82.86
1003.96	89.06
1004.123	70.46
1004.285	61.35
1004.447	56.51
1004.609	52.44
1004.771	131.49
1004.933	33.07
1005.096	17.37
1005.258	13.3
1005.42	52.25
1005.582	95.07
1005.744	72.01
1005.906	10.59
1006.068	84.8
1006.23	11.37
1006.392	1.49
1006.554	34.42
1006.716	99.33
1006.878	68.13
1007.04	13.69
1007.202	56.32
1007.363	74.92
1007.525	93.13
1007.687	66.97
1007.849	104.95
1008.011	19.12
1008.172	14.66
1008.334	58.64
1008.496	88.67
1008.658	13.89
1008.819	12.14
1008.981	14.66
1009.143	14.66
1009.304	44.5
1009.466	61.16
1009.627	111.15
1009.789	156.1
1009.95	77.05
1010.112	52.05
1010.273	98.55
1010.435	31.52
1010.596	38.3
1010.758	48.18
1010.919	34.42
1011.081	19.5
1011.242	24.74
1011.403	68.13
1011.565	57.87
1011.726	52.05
1011.887	1.49
1012.049	34.42
1012.21	64.84
1012.371	109.4
1012.532	-32.42
1012.693	24.93
1012.855	35.97
1013.016	58.64
1013.177	75.69
1013.338	42.75
1013.499	118.31
1013.66	85.18
1013.821	102.23
1013.982	34.03
1014.143	24.74
1014.304	-11.5
1014.465	49.92
1014.626	90.61
1014.787	30.55
1014.948	124.9
1015.109	-44.05
1015.27	78.21
1015.431	27.64
1015.592	18.92
1015.752	92.35
1015.913	38.68
1016.074	78.21
1016.235	53.6
1016.395	5.36
1016.556	22.22
1016.717	17.95
1016.877	90.22
1017.038	19.5
1017.199	48.37
1017.359	39.85
1017.52	70.07
1017.681	22.22
1017.841	36.75
1018.002	38.49
1018.162	34.23
1018.323	96.81
1018.483	42.17
1018.644	30.93
1018.804	12.14
1018.964	-6.07
1019.125	16.21
1019.285	65.03
1019.446	0.32
1019.606	10.2
1019.766	-27.77
1019.926	73.37
1020.087	65.81
1020.247	16.02
1020.407	71.04
1020.567	69.1
1020.728	29.77
1020.888	-11.88
1021.048	16.21
1021.208	-5.88
1021.368	-0.26
1021.528	89.83
1021.688	50.89
1021.848	74.14
1022.008	41.01
1022.168	42.95
1022.328	23.19
1022.488	57.67
1022.648	17.18
1022.808	18.15
1022.968	23.57
1023.128	-7.43
1023.288	18.54
1023.448	44.5
1023.608	69.68
1023.767	42.37
1023.927	4
1024.087	16.6
1024.247	-15.18
1024.406	9.43
1024.566	-6.65
1024.726	1.29
1024.885	29.58
1025.045	50.5
1025.205	32.48
1025.364	8.27
1025.524	31.52
1025.683	18.92
1025.843	45.27
1026.003	29.19
1026.162	108.05
1026.321	54.38
1026.481	41.2
1026.64	11.17
1026.8	23.38
1026.959	16.4
1027.119	45.08
1027.278	26.29
1027.437	36.36
1027.597	41.2
1027.756	64.26
1027.915	52.05
1028.074	50.89
1028.234	13.11
1028.393	50.89
1028.552	9.62
1028.711	-50.05
1028.87	69.88
1029.03	-30.48
1029.189	25.32
1029.348	-53.54
1029.507	12.53
1029.666	15.63
1029.825	-27.58
1029.984	21.44
1030.143	-3.36
1030.302	9.04
1030.461	-63.03
1030.62	37.52
1030.779	39.07
1030.938	9.24
1031.097	7.49
1031.255	55.15
1031.414	89.83
1031.573	50.89
1031.732	-33.97
1031.891	-2.2
1032.049	84.41
1032.208	47.79
1032.367	24.54
1032.525	6.91
1032.684	18.92
1032.843	20.47
1033.001	-31.65
1033.16	149.31
1033.319	52.83
1033.477	40.82
1033.636	-7.23
1033.794	-46.56
1033.953	57.09
1034.111	54.18
1034.27	9.24
1034.428	27.45
1034.587	-21.76
1034.745	43.72
1034.903	43.92
1035.062	53.6
1035.22	-18.47
1035.378	37.91
1035.537	-8.2
1035.695	54.38
1035.853	19.12
1036.011	56.32
1036.17	29
1036.328	-50.44
1036.486	34.03
1036.644	30.16
1036.802	-53.15
1036.96	-15.37
1037.119	-13.05
1037.277	-10.14
1037.435	-22.35
1037.593	13.89
1037.751	36.94
1037.909	43.72
1038.067	43.72
