Data from gum_old_FLMT105791__150__15-47-37-250.txt Node

Date: Mon Mar 20 15:47:37 GMT 2023
User: antho
Spectrometer: FLMT10579
Trigger mode: 0
Integration Time (sec): 1.000000E-1
Scans to average: 10
Electric dark correction enabled: true
Nonlinearity correction enabled: false
Boxcar width: 0
XAxis mode: Wavelengths
Number of Pixels in Spectrum: 3648
>>>>>Begin Spectral Data<<<<<
345.248	-200.5
345.464	-200.5
345.681	-200.5
345.898	-208.63
346.114	-188.68
346.331	-21.28
346.548	31.61
346.764	-5.39
346.981	-5.78
347.197	-7.52
347.414	10.3
347.631	-39.49
347.847	50.79
348.064	41.49
348.28	11.66
348.497	-56.74
348.713	-9.66
348.93	16.5
349.146	41.49
349.363	13.59
349.579	29.87
349.796	2.36
350.012	3.33
350.229	52.15
350.445	29.68
350.661	-7.91
350.878	-3.26
351.094	33.74
351.311	11.08
351.527	22.7
351.743	-0.94
351.96	50.21
352.176	75.59
352.392	28.9
352.609	77.53
352.825	-26.7
353.041	9.53
353.257	16.31
353.474	6.81
353.69	26.77
353.906	42.66
354.122	-4.81
354.339	45.37
354.555	14.18
354.771	-11.59
354.987	93.81
355.203	66.29
355.42	-2.1
355.636	20.76
355.852	4.29
356.068	47.11
356.284	-19.15
356.5	84.89
356.716	46.73
356.932	20.96
357.148	53.31
357.364	35.68
357.58	77.72
357.796	85.86
358.012	75.4
358.228	40.72
358.444	-54.6
358.66	65.71
358.876	22.31
359.092	30.06
359.308	27.16
359.524	50.79
359.74	-1.71
359.956	30.64
360.172	17.86
360.388	65.52
360.604	13.01
360.819	127.32
361.035	45.18
361.251	78.11
361.467	19.99
361.683	72.88
361.898	33.36
362.114	75.98
362.33	53.12
362.546	64.55
362.762	46.53
362.977	39.17
363.193	-5.39
363.409	65.71
363.624	0.42
363.84	-10.43
364.056	-6.94
364.271	41.49
364.487	66.1
364.703	27.35
364.918	-3.65
365.134	33.36
365.35	34.52
365.565	161.23
365.781	53.51
365.996	76.17
366.212	120.74
366.427	78.31
366.643	22.51
366.858	22.51
367.074	-0.55
367.289	98.07
367.505	146.7
367.72	-11.79
367.936	56.61
368.151	80.63
368.367	66.1
368.582	48.66
368.798	-1.13
369.013	88.19
369.228	65.13
369.444	58.54
369.659	113.57
369.874	91.09
370.09	145.73
370.305	-17.02
370.52	40.14
370.736	113.18
370.951	19.41
371.166	109.5
371.381	108.14
371.597	86.44
371.812	39.94
372.027	18.83
372.242	29.48
372.458	133.52
372.673	55.25
372.888	39.94
373.103	68.43
373.318	125.58
373.533	81.99
373.749	48.28
373.964	-12.37
374.179	80.05
374.394	22.51
374.609	86.25
374.824	31.23
375.039	112.6
375.254	67.46
375.469	97.49
375.684	70.75
375.899	96.32
376.114	51.38
376.329	60.29
376.544	106.21
376.759	82.96
376.974	46.73
377.189	48.08
377.404	57.58
377.619	80.05
377.834	35.49
378.049	17.86
378.264	56.61
378.478	83.92
378.693	41.69
378.908	103.69
379.123	68.23
379.338	131.39
379.553	76.95
379.767	94.19
379.982	88.77
380.197	99.04
380.412	71.14
380.626	83.73
380.841	156.39
381.056	97.49
381.271	151.93
381.485	44.98
381.7	50.21
381.915	85.86
382.129	64.74
382.344	70.36
382.559	54.28
382.773	93.03
382.988	15.92
383.202	67.65
383.417	37.62
383.632	161.23
383.846	74.43
384.061	66.68
384.275	68.43
384.49	76.56
384.704	106.01
384.919	89.35
385.133	79.86
385.348	95.55
385.562	29.68
385.777	111.82
385.991	78.5
386.206	82.57
386.42	64.94
386.634	108.92
386.849	97.49
387.063	71.91
387.277	60.09
387.492	40.91
387.706	37.23
387.92	55.83
388.135	159.49
388.349	77.72
388.563	108.14
388.778	90.9
388.992	106.21
389.206	123.64
389.42	158.13
389.635	88.19
389.849	105.82
390.063	187.77
390.277	123.84
390.491	177.89
390.706	133.14
390.92	142.24
391.134	103.3
391.348	168.59
391.562	39.56
391.776	129.26
391.99	92.06
392.205	163.36
392.419	79.08
392.633	99.81
392.847	145.54
393.061	84.89
393.275	189.71
393.489	70.36
393.703	84.51
393.917	115.31
394.131	46.53
394.345	120.16
394.559	129.65
394.773	101.56
394.986	154.06
395.2	116.47
395.414	163.36
395.628	80.63
395.842	134.49
396.056	159.68
396.27	59.9
396.484	106.4
396.697	131.39
396.911	164.33
397.125	122.87
397.339	139.72
397.553	119.19
397.766	174.99
397.98	157.94
398.194	183.51
398.408	137.4
398.621	194.36
398.835	191.84
399.049	193.2
399.262	226.52
399.476	209.86
399.69	197.65
399.903	265.27
400.117	204.24
400.331	206.18
400.544	199.2
400.758	304.22
400.971	200.37
401.185	239.89
401.398	182.74
401.612	242.22
401.826	233.3
402.039	243.38
402.253	211.6
402.466	236.4
402.68	211.8
402.893	224.2
403.106	222.26
403.32	210.64
403.533	232.53
403.747	223.81
403.96	248.61
404.174	261.2
404.387	200.37
404.6	223.42
404.814	296.85
405.027	230.4
405.24	227.49
405.454	214.51
405.667	273.8
405.88	179.64
406.094	249.58
406.307	295.11
406.52	263.33
406.733	187.97
406.947	170.72
407.16	317.2
407.373	299.18
407.586	230.2
407.799	182.54
408.012	265.27
408.226	240.67
408.439	312.16
408.652	207.54
408.865	271.08
409.078	309.64
409.291	286.2
409.504	230.01
409.717	290.65
409.93	286.39
410.143	285.62
410.357	214.51
410.57	181.38
410.783	227.49
410.996	251.32
411.209	278.06
411.421	295.5
411.634	242.8
411.847	267.6
412.06	293.56
412.273	289.1
412.486	327.47
412.699	391.79
412.912	301.7
413.125	315.07
413.338	307.9
413.55	335.21
413.763	298.79
413.976	306.73
414.189	272.63
414.402	281.55
414.615	360.01
414.827	286.39
415.04	356.14
415.253	353.23
415.466	348.58
415.678	376.48
415.891	335.21
416.104	300.73
416.316	286.58
416.529	309.45
416.742	345.87
416.954	351.1
417.167	346.84
417.38	309.64
417.592	376.29
417.805	312.55
418.017	285.23
418.23	348.39
418.442	283.48
418.655	281.16
418.868	339.86
419.08	361.18
419.293	376.68
419.505	330.57
419.718	380.55
419.93	353.81
420.142	325.14
420.355	377.06
420.567	376.29
420.78	342.58
420.992	337.73
421.205	411.94
421.417	323.98
421.629	327.47
421.842	317.39
422.054	318.55
422.266	407.48
422.479	410.39
422.691	322.23
422.903	382.3
423.115	301.7
423.328	351.88
423.54	354.01
423.752	338.31
423.964	318.94
424.177	389.27
424.389	333.08
424.601	504.74
424.813	361.37
425.025	367.18
425.238	390.05
425.45	365.25
425.662	329.02
425.874	727.17
426.086	365.63
426.298	405.74
426.51	380.36
426.722	374.55
426.934	353.43
427.146	405.93
427.358	365.05
427.57	405.93
427.782	346.45
427.994	374.35
428.206	348.2
428.418	333.67
428.63	387.33
428.842	420.27
429.054	383.65
429.266	406.9
429.478	347.03
429.69	377.26
429.902	322.23
430.114	402.45
430.325	382.49
430.537	341.22
430.749	312.16
430.961	247.06
431.173	297.82
431.384	353.62
431.596	258.3
431.808	311.77
432.02	410.78
432.231	440.23
432.443	480.53
432.655	451.27
432.867	395.47
433.078	439.64
433.29	476.26
433.502	454.76
433.713	501.64
433.925	486.73
434.136	485.37
434.348	413.49
434.56	379.39
434.771	533.03
434.983	387.14
435.194	412.91
435.406	447.39
435.617	500.68
435.829	520.63
436.04	505.52
436.252	458.63
436.463	549.69
436.675	521.21
436.886	503
437.098	540.97
437.309	552.99
437.521	504.94
437.732	519.27
437.943	509.97
438.155	500.48
438.366	447.01
438.578	537.29
438.789	502.81
439	499.13
439.211	457.86
439.423	477.62
439.634	524.12
439.845	539.42
440.057	520.24
440.268	558.99
440.479	517.14
440.69	529.16
440.902	512.3
441.113	538.46
441.324	498.35
441.535	560.74
441.746	602.97
441.957	557.06
442.168	526.44
442.38	579.92
442.591	598.13
442.802	544.07
443.013	587.86
443.224	604.91
443.435	541.94
443.646	582.82
443.857	571.39
444.068	550.86
444.279	539.81
444.49	648.7
444.701	569.46
444.912	701.59
445.123	652.96
445.334	627.97
445.545	598.32
445.756	572.94
445.967	544.85
446.178	586.89
446.388	585.15
446.599	592.12
446.81	626.22
447.021	561.12
447.232	631.84
447.443	673.5
447.653	608.79
447.864	658.77
448.075	636.3
448.286	658.19
448.496	642.11
448.707	631.84
448.918	620.22
449.129	739.37
449.339	615.57
449.55	661.87
449.761	630.29
449.971	694.62
450.182	640.17
450.393	677.37
450.603	618.47
450.814	722.32
451.024	706.43
451.235	730.27
451.446	782
451.656	749.25
451.867	684.73
452.077	701.98
452.288	786.06
452.498	753.71
452.709	656.25
452.919	696.75
453.13	629.52
453.34	696.36
453.55	608.2
453.761	701.98
453.971	680.28
454.182	709.53
454.392	685.51
454.602	773.66
454.813	717.09
455.023	742.86
455.233	642.11
455.444	716.32
455.654	622.15
455.864	699.85
456.075	671.75
456.285	671.95
456.495	713.02
456.705	707.21
456.916	719.42
457.126	771.34
457.336	713.6
457.546	674.27
457.756	659.55
457.967	769.6
458.177	694.03
458.387	733.75
458.597	661.87
458.807	692.48
459.017	677.76
459.227	690.74
459.437	684.35
459.647	738.4
459.857	752.16
460.068	697.72
460.278	759.13
460.488	738.02
460.698	823.26
460.908	743.25
461.117	675.63
461.327	691.32
461.537	755.26
461.747	756.03
461.957	767.66
462.167	894.37
462.377	819.2
462.587	741.7
462.797	838.38
463.007	761.07
463.216	797.3
463.426	841.09
463.636	822.3
463.846	707.21
464.056	763.2
464.265	821.13
464.475	772.31
464.685	779.28
464.895	800.21
465.104	747.12
465.314	835.66
465.524	764.37
465.733	742.67
465.943	849.81
466.153	879.84
466.362	845.55
466.572	834.89
466.782	772.5
466.991	817.06
467.201	860.08
467.41	718.06
467.62	836.83
467.829	793.23
468.039	844.19
468.249	808.93
468.458	847.48
468.668	856.98
468.877	834.89
469.086	906.19
469.296	895.14
469.505	850
469.715	941.84
469.924	877.32
470.134	893.59
470.343	916.46
470.552	827.72
470.762	865.5
470.971	815.71
471.18	829.27
471.39	885.65
471.599	821.52
471.808	900.76
472.018	865.31
472.227	932.54
472.436	976.13
472.645	919.17
472.855	879.84
473.064	994.54
473.273	992.21
473.482	969.35
473.691	997.44
473.901	980.01
474.11	941.45
474.319	1020.11
474.528	925.18
474.737	1064.09
474.946	1007.13
475.155	997.64
475.364	1050.92
475.573	996.86
475.783	1028.25
475.992	1053.05
476.201	1044.52
476.41	1022.63
476.619	1026.89
476.828	1038.13
477.037	1008.29
477.245	1008.87
477.454	1074.75
477.663	1052.08
477.872	1057.89
478.081	1151.86
478.29	1047.04
478.499	1190.8
478.708	1138.68
478.917	1217.54
479.125	1128.8
479.334	1157.09
479.543	1133.07
479.752	1182.08
479.961	1156.9
480.169	1205.53
480.378	1190.22
480.587	1339.6
480.796	1206.88
481.004	1170.27
481.213	1197
481.422	1193.52
481.63	1221.22
481.839	1282.64
482.048	1284.96
482.256	1259.2
482.465	1283.8
482.674	1281.67
482.882	1292.13
483.091	1382.03
483.299	1275.86
483.508	1341.73
483.716	1317.32
483.925	1296.59
484.134	1260.36
484.342	1265.98
484.551	1324.1
484.759	1321.58
484.967	1343.67
485.176	1336.89
485.384	1322.16
485.593	1384.94
485.801	1361.49
486.01	1305.5
486.218	1242.34
486.426	1135.58
486.635	1140.23
486.843	1185.18
487.051	1198.36
487.26	1203.59
487.468	1242.92
487.676	1281.48
487.885	1285.16
488.093	1302.98
488.301	1354.52
488.509	1352
488.717	1424.66
488.926	1379.13
489.134	1363.04
489.342	1371.57
489.55	1324.49
489.758	1378.54
489.967	1387.65
490.175	1474.45
490.383	1413.61
490.591	1562.99
490.799	1429.31
491.007	1545.94
491.215	1467.86
491.423	1445.39
491.631	1430.86
491.839	1482.97
492.047	1501.77
492.255	1421.75
492.463	1385.32
492.671	1413.42
492.879	1503.12
493.087	1446.94
493.295	1516.49
493.503	1513.2
493.711	1560.47
493.919	1576.17
494.127	1553.3
494.334	1539.35
494.542	1474.84
494.75	1552.14
494.958	1540.32
495.166	1607.75
495.374	1621.7
495.581	1613.56
495.789	1582.56
495.997	1661.22
496.205	1568.03
496.412	1547.1
496.62	1598.45
496.828	1617.43
497.035	1638.94
497.243	1655.6
497.451	1630.03
497.658	1639.72
497.866	1601.35
498.074	1718.38
498.281	1609.88
498.489	1712.95
498.696	1608.91
498.904	1577.91
499.112	1559.31
499.319	1672.26
499.527	1606.97
499.734	1738.14
499.942	1579.46
500.149	1603.29
500.357	1691.64
500.564	1606
500.771	1640.3
500.979	1577.52
501.186	1570.35
501.394	1613.56
501.601	1608.33
501.808	1642.62
502.016	1620.53
502.223	1576.94
502.43	1613.75
502.638	1611.43
502.845	1583.92
503.052	1692.41
503.26	1660.83
503.467	1746.08
503.674	1705.01
503.881	1699.97
504.089	1777.28
504.296	1697.65
504.503	1622.86
504.71	1651.53
504.917	1616.47
505.125	1649.98
505.332	1695.71
505.539	1717.02
505.746	1799.36
505.953	1772.63
506.16	1772.04
506.367	1815.06
506.574	1852.06
506.781	1831.14
506.988	1761.19
507.195	1811.96
507.402	1735.81
507.609	1825.71
507.816	1783.28
508.023	1756.93
508.23	1784.83
508.437	1677.69
508.644	1785.22
508.851	1782.31
509.058	1857.1
509.265	1802.66
509.472	1813.51
509.679	1920.65
509.885	1837.34
510.092	1835.59
510.299	1822.42
510.506	1842.57
510.713	1824.55
510.92	1789.87
511.126	1869.5
511.333	1862.72
511.54	1882.29
511.746	1897.21
511.953	1948.16
512.16	1961.14
512.367	1894.69
512.573	1883.64
512.78	1902.63
512.987	1902.24
513.193	1855.55
513.4	1792.19
513.606	1852.06
513.813	1889.65
514.02	1882.87
514.226	1937.7
514.433	1947.97
514.639	1847.8
514.846	1883.64
515.052	1851.87
515.259	1858.07
515.465	1901.66
515.672	1909.99
515.878	1978.97
516.085	1941.77
516.291	1956.1
516.497	1911.15
516.704	1914.64
516.91	1836.76
517.117	1771.27
517.323	1693.19
517.529	1746.08
517.736	1691.83
517.942	1707.91
518.148	1784.06
518.354	1831.52
518.561	1835.79
518.767	1812.54
518.973	1866.21
519.179	1881.32
519.386	1858.46
519.592	1884.22
519.798	1873.96
520.004	1983.62
520.21	1980.32
520.417	2034.96
520.623	2056.85
520.829	2036.12
521.035	2052.4
521.241	2067.51
521.447	2071
521.653	2207.78
521.859	2091.73
522.065	2120.21
522.271	2237.62
522.477	2139.58
522.683	2214.76
522.889	2164.58
523.095	2146.17
523.301	2150.24
523.507	2055.69
523.713	2166.9
523.919	2107.23
524.125	2209.14
524.331	2169.03
524.537	2307.37
524.742	2289.16
524.948	2301.75
525.154	2289.16
525.36	2385.25
525.566	2291.09
525.772	2361.04
525.977	2272.11
526.183	2317.83
526.389	2332.36
526.595	2238.78
526.8	2221.34
527.006	2163.41
527.212	2094.25
527.417	2087.46
527.623	2065.57
527.829	2178.53
528.034	2211.27
528.24	2244.79
528.446	2258.54
528.651	2376.73
528.857	2321.12
529.062	2394.36
529.268	2380.8
529.473	2402.11
529.679	2413.15
529.884	2522.04
530.09	2483.1
530.295	2465.27
530.501	2491.82
530.706	2440.67
530.912	2425.17
531.117	2455.39
531.323	2510.42
531.528	2561.18
531.733	2539.48
531.939	2468.76
532.144	2551.3
532.35	2494.72
532.555	2542.77
532.76	2524.56
532.966	2535.8
533.171	2477.87
533.376	2425.94
533.581	2337.79
533.787	2424.97
533.992	2522.04
534.197	2538.12
534.402	2506.73
534.607	2480.58
534.813	2580.75
535.018	2510.42
535.223	2533.47
535.428	2512.55
535.633	2616.2
535.838	2584.81
536.043	2611.16
536.249	2721.99
536.454	2627.24
536.659	2629.57
536.864	2581.91
537.069	2585.98
537.274	2633.25
537.479	2570.09
537.684	2628.02
537.889	2515.26
538.094	2656.89
538.299	2595.86
538.504	2616.2
538.708	2604.96
538.913	2659.6
539.118	2635.19
539.323	2662.7
539.528	2617.17
539.733	2611.36
539.938	2623.18
540.142	2601.48
540.347	2587.72
540.552	2548.2
540.757	2519.71
540.962	2567.57
541.166	2535.02
541.371	2483.1
541.576	2531.53
541.781	2469.53
541.985	2600.12
542.19	2585.01
542.395	2681.88
542.599	2678.98
542.804	2634.03
543.008	2729.16
543.213	2596.05
543.418	2578.81
543.622	2675.49
543.827	2572.41
544.031	2686.92
544.236	2705.91
544.44	2650.69
544.645	2764.81
544.849	2682.46
545.054	2742.33
545.258	2781.27
545.463	2783.21
545.667	2720.82
545.872	2725.28
546.076	2709.97
546.281	2742.14
546.485	2679.36
546.689	2742.14
546.894	2767.71
547.098	2733.03
547.302	2633.83
547.507	2755.31
547.711	2722.37
547.915	2783.4
548.119	2660.18
548.324	2671.23
548.528	2797.16
548.732	2710.94
548.936	2751.82
549.141	2737.87
549.345	2694.67
549.549	2730.32
549.753	2731.87
549.957	2822.35
550.161	2823.32
550.366	2748.14
550.57	2728.96
550.774	2726.64
550.978	2696.22
551.182	2746.01
551.386	2687.5
551.59	2711.33
551.794	2705.13
551.998	2769.65
552.202	2728.77
552.406	2713.07
552.61	2762.09
552.814	2754.54
553.018	2819.44
553.222	2728.57
553.426	2701.84
553.63	2804.52
553.833	2732.84
554.037	2665.99
554.241	2733.81
554.445	2730.71
554.649	2722.37
554.853	2706.49
555.056	2805.69
555.26	2814.79
555.464	2737.49
555.668	2746.79
555.871	2782.05
556.075	2773.91
556.279	2720.63
556.483	2679.36
556.686	2710.36
556.89	2743.11
557.094	2687.69
557.297	2648.56
557.501	2739.23
557.704	2625.69
557.908	2683.24
558.112	2617.17
558.315	2765.39
558.519	2701.64
558.722	2641.19
558.926	2644.29
559.129	2562.92
559.333	2560.98
559.536	2554.01
559.74	2547.42
559.943	2536.38
560.147	2514.29
560.35	2549.36
560.553	2560.01
560.757	2517.58
560.96	2654.95
561.164	2591.01
561.367	2629.38
561.57	2588.88
561.774	2572.22
561.977	2546.06
562.18	2542.19
562.384	2665.22
562.587	2539.86
562.79	2535.8
562.993	2513.32
563.197	2615.43
563.4	2617.94
563.603	2635.19
563.806	2673.55
564.009	2568.15
564.212	2578.61
564.416	2492.4
564.619	2509.83
564.822	2429.04
565.025	2573.58
565.228	2536.96
565.431	2543.16
565.634	2408.5
565.837	2436.98
566.04	2400.17
566.243	2461.01
566.446	2337.21
566.649	2438.15
566.852	2368.98
567.055	2396.49
567.258	2445.51
567.461	2473.6
567.664	2490.27
567.867	2360.84
568.07	2425.36
568.273	2417.42
568.475	2470.31
568.678	2382.15
568.881	2351.74
569.084	2365.3
569.287	2276.76
569.489	2319.19
569.692	2402.69
569.895	2359.49
570.098	2310.86
570.3	2284.12
570.503	2251.18
570.706	2278.89
570.909	2264.16
571.111	2207.01
571.314	2229.29
571.516	2215.92
571.719	2212.82
571.922	2211.66
572.124	2205.07
572.327	2216.5
572.529	2194.8
572.732	2189.18
572.935	2217.28
573.137	2338.17
573.34	2230.45
573.542	2276.37
573.745	2257.77
573.947	2226.77
574.15	2211.85
574.352	2209.91
574.554	2287.41
574.757	2215.53
574.959	2159.15
575.162	2185.11
575.364	2162.25
575.566	2268.23
575.769	2163.22
575.971	2144.81
576.173	2021.01
576.376	2125.44
576.578	2154.7
576.78	2198.68
576.982	2038.25
577.185	2105.48
577.387	2048.13
577.589	2110.91
577.791	2164.96
577.993	2176.2
578.196	2128.15
578.398	2129.31
578.6	2143.26
578.802	2032.83
579.004	2054.14
579.206	2047.94
579.408	2087.66
579.61	2034.96
579.812	2109.55
580.014	2025.85
580.216	2051.82
580.418	2049.3
580.62	2027.98
580.822	1985.55
581.024	2073.13
581.226	2072.35
581.428	2061.7
581.63	2141.52
581.832	2029.34
582.034	2087.08
582.236	2055.69
582.438	2093.66
582.64	2117.69
582.841	2139.97
583.043	2176.39
583.245	2134.16
583.447	2118.66
583.649	2067.9
583.85	2075.07
584.052	2104.51
584.254	2022.95
584.456	2083.59
584.657	2014.62
584.859	2066.93
585.061	2036.7
585.262	1990.4
585.464	1957.65
585.666	2059.18
585.867	1995.63
586.069	2041.35
586.27	1991.56
586.472	1977.03
586.674	1975.87
586.875	1957.46
587.077	2025.27
587.278	1990.98
587.48	1978.58
587.681	2126.99
587.883	1980.32
588.084	1904.76
588.285	1983.62
588.487	1965.79
588.688	1977.22
588.89	1865.62
589.091	1847.41
589.292	1815.83
589.494	1785.41
589.695	1743.37
589.896	1699.78
590.098	1670.33
590.299	1728.26
590.5	1688.54
590.702	1780.96
590.903	1767.98
591.104	1864.46
591.305	1831.52
591.507	1860.39
591.708	1868.34
591.909	1867.76
592.11	1900.69
592.311	1865.82
592.512	1837.14
592.714	1784.25
592.915	1817.77
593.116	1795.1
593.317	1825.52
593.518	1881.71
593.719	1832.88
593.92	1895.07
594.121	1899.14
594.322	1853.81
594.523	1845.47
594.724	1788.51
594.925	1812.15
595.126	1818.54
595.327	1833.66
595.528	1821.06
595.729	1832.49
595.929	1827.07
596.13	1794.71
596.331	1877.83
596.532	1844.7
596.733	1884.42
596.934	1872.6
597.135	1870.86
597.335	1877.25
597.536	1810.02
597.737	1843.73
597.938	1781.15
598.138	1841.02
598.339	1820.09
598.54	1853.22
598.74	1833.46
598.941	1822.61
599.142	1876.28
599.342	1839.08
599.543	1790.64
599.744	1834.82
599.944	1796.65
600.145	1782.7
600.345	1827.26
600.546	1893.91
600.746	1888.1
600.947	1890.23
601.147	1802.27
601.348	1853.03
601.548	1797.62
601.749	1794.91
601.949	1730.97
602.15	1748.6
602.35	1805.56
602.551	1856.71
602.751	1695.51
602.951	1735.04
603.152	1693.77
603.352	1800.33
603.552	1788.32
603.753	1818.54
603.953	1806.53
604.153	1771.46
604.354	1785.61
604.554	1796.46
604.754	1804.98
604.954	1755.58
605.155	1795.88
605.355	1785.61
605.555	1823.19
605.755	1819.71
605.955	1773.4
606.155	1805.18
606.356	1771.46
606.556	1790.64
606.756	1774.76
606.956	1732.13
607.156	1844.7
607.356	1718.38
607.556	1798.78
607.756	1811.18
607.956	1792.58
608.156	1759.45
608.356	1747.44
608.556	1794.52
608.756	1712.18
608.956	1693.58
609.156	1745.31
609.356	1692.22
609.556	1670.13
609.755	1754.41
609.955	1686.41
610.155	1706.17
610.355	1733.68
610.555	1670.91
610.755	1669.36
610.954	1641.85
611.154	1700.75
611.354	1717.8
611.554	1627.9
611.753	1662.38
611.953	1619.18
612.153	1689.51
612.352	1715.08
612.552	1627.12
612.752	1608.13
612.951	1660.64
613.151	1662.58
613.351	1639.33
613.55	1617.63
613.75	1640.3
613.949	1602.71
614.149	1620.53
614.348	1597.48
614.548	1560.28
614.747	1552.72
614.947	1562.99
615.146	1503.32
615.346	1637
615.545	1625.77
615.745	1647.08
615.944	1644.37
616.144	1592.83
616.343	1631
616.542	1573.45
616.742	1563.38
616.941	1581.4
617.14	1487.43
617.34	1569.38
617.539	1559.7
617.738	1509.32
617.938	1636.62
618.137	1547.3
618.336	1485.3
618.535	1544.2
618.734	1539.16
618.934	1555.05
619.133	1568.8
619.332	1578.1
619.531	1507.97
619.73	1539.94
619.929	1627.7
620.128	1564.54
620.328	1631.58
620.527	1541.29
620.726	1529.09
620.925	1543.23
621.124	1531.6
621.323	1573.45
621.522	1491.69
621.721	1531.8
621.92	1480.07
622.119	1535.29
622.318	1490.72
622.517	1504.48
622.715	1504.09
622.914	1445.77
623.113	1498.67
623.312	1423.49
623.511	1505.45
623.71	1467.86
623.909	1454.69
624.107	1536.84
624.306	1420.39
624.505	1446.74
624.704	1449.26
624.902	1434.73
625.101	1520.17
625.3	1457.59
625.499	1471.15
625.697	1446.16
625.896	1399.86
626.095	1462.82
626.293	1377.77
626.492	1426.01
626.69	1447.91
626.889	1401.79
627.088	1455.07
627.286	1451.39
627.485	1401.79
627.683	1386.68
627.882	1446.36
628.08	1358.59
628.279	1367.11
628.477	1459.53
628.676	1360.91
628.874	1445.77
629.073	1358.01
629.271	1378.16
629.469	1392.3
629.668	1382.61
629.866	1380.87
630.065	1336.69
630.263	1401.41
630.461	1341.93
630.66	1402.76
630.858	1378.35
631.056	1402.76
631.254	1431.63
631.453	1350.26
631.651	1390.56
631.849	1330.49
632.047	1338.44
632.245	1368.47
632.444	1357.43
632.642	1388.04
632.84	1375.44
633.038	1332.82
633.236	1329.72
633.434	1325.07
633.632	1331.46
633.83	1367.31
634.028	1417.87
634.227	1380.48
634.425	1424.85
634.623	1344.64
634.821	1349.29
635.019	1364.4
635.216	1337.66
635.414	1382.42
635.612	1367.5
635.81	1354.33
636.008	1408.19
636.206	1371.18
636.404	1366.34
636.602	1321.58
636.8	1331.46
636.997	1376.61
637.195	1367.31
637.393	1351.23
637.591	1399.27
637.789	1387.84
637.986	1329.91
638.184	1342.89
638.382	1404.31
638.58	1354.33
638.777	1405.09
638.975	1337.47
639.173	1374.86
639.37	1366.14
639.568	1354.52
639.765	1352
639.963	1349.09
640.161	1380.87
640.358	1368.66
640.556	1288.06
640.753	1270.05
640.951	1269.85
641.148	1301.24
641.346	1300.46
641.543	1271.21
641.741	1311.89
641.938	1312.48
642.136	1310.73
642.333	1246.8
642.531	1333.01
642.728	1362.08
642.925	1306.86
643.123	1310.54
643.32	1287.68
643.517	1268.11
643.715	1300.46
643.912	1262.3
644.109	1275.47
644.306	1282.06
644.504	1230.91
644.701	1270.43
644.898	1311.7
645.095	1240.6
645.293	1261.91
645.49	1256.48
645.687	1265.59
645.884	1272.18
646.081	1209.79
646.278	1225.1
646.475	1203.78
646.672	1235.17
646.87	1237.11
647.067	1217.15
647.264	1215.02
647.461	1190.22
647.658	1170.07
647.855	1239.82
648.052	1184.41
648.249	1082.3
648.446	1185.57
648.642	1174.92
648.839	1146.82
649.036	1153.41
649.233	1118.73
649.43	1122.02
649.627	1092.19
649.824	1160.58
650.021	1131.9
650.217	1110.98
650.414	1122.99
650.611	1175.3
650.808	1169.1
651.004	1148.18
651.201	1185.18
651.398	1249.7
651.595	1149.92
651.791	1113.11
651.988	1181.5
652.185	1141.4
652.381	1160.77
652.578	1091.22
652.775	1120.09
652.971	1124.15
653.168	1126.87
653.364	1189.06
653.561	1094.51
653.757	1147.21
653.954	1160.38
654.15	1115.82
654.347	1229.94
654.543	1129.97
654.74	1082.11
654.936	1049.95
655.133	1106.91
655.329	1123.96
655.525	1068.35
655.722	1147.6
655.918	1062.15
656.115	1067.77
656.311	984.07
656.507	957.34
656.704	913.94
656.9	949.97
657.096	947.65
657.292	951.72
657.489	1030.19
657.685	1018.17
657.881	992.79
658.077	1017.98
658.273	1012.36
658.47	1142.95
658.666	1043.17
658.862	1087.73
659.058	1055.37
659.254	1117.18
659.45	1032.32
659.646	1072.04
659.842	1070.68
660.038	1120.86
660.234	1056.73
660.43	1066.42
660.626	1173.95
660.822	1086.57
661.018	1115.44
661.214	1059.25
661.41	1006.94
661.606	1097.8
661.802	1089.47
661.998	1046.07
662.194	1035.61
662.39	1110.59
662.586	1051.89
662.781	1115.63
662.977	1113.5
663.173	1104
663.369	1099.55
663.564	1084.05
663.76	1090.64
663.956	1039.49
664.152	1074.75
664.347	981.56
664.543	1045.49
664.739	1056.92
664.934	992.21
665.13	974.39
665.326	1063.7
665.521	1039.49
665.717	984.27
665.912	967.22
666.108	956.56
666.304	994.92
666.499	1016.82
666.695	877.71
666.89	999.19
667.086	1038.52
667.281	1031.54
667.477	1071.07
667.672	1012.94
667.867	1009.26
668.063	1006.74
668.258	937.96
668.454	1006.55
668.649	1082.3
668.844	992.79
669.04	1043.75
669.235	1024.57
669.43	968.38
669.626	943.19
669.821	983.3
670.016	924.98
670.211	987.95
670.407	975.16
670.602	1042.78
670.797	967.02
670.992	1006.36
671.187	941.45
671.382	1044.52
671.578	944.16
671.773	992.41
671.968	934.48
672.163	970.71
672.358	978.65
672.553	942.03
672.748	941.06
672.943	1026.31
673.138	972.64
673.333	987.95
673.528	914.71
673.723	977.1
673.918	942.81
674.113	940.48
674.308	1019.34
674.503	962.96
674.698	1003.45
674.892	981.75
675.087	974.77
675.282	928.86
675.477	904.44
675.672	957.34
675.867	941.64
676.061	904.44
676.256	872.09
676.451	951.33
676.646	948.62
676.84	903.67
677.035	885.84
677.23	882.16
677.424	977.49
677.619	988.72
677.814	959.66
678.008	983.88
678.203	856.01
678.397	896.31
678.592	934.86
678.787	1002.67
678.981	910.26
679.176	916.65
679.37	950.94
679.565	926.92
679.759	899.79
679.954	939.9
680.148	1022.05
680.342	975.16
680.537	944.55
680.731	942.61
680.926	953.46
681.12	942.81
681.314	882.55
681.509	921.49
681.703	915.68
681.897	944.36
682.092	921.69
682.286	885.84
682.48	998.22
682.674	982.33
682.869	916.07
683.063	901.34
683.257	981.75
683.451	896.11
683.645	953.66
683.839	899.21
684.034	918.01
684.228	953.66
684.422	887.78
684.616	898.63
684.81	944.94
685.004	903.86
685.198	915.1
685.392	966.06
685.586	867.05
685.78	911.81
685.974	952.3
686.168	934.28
686.362	963.34
686.556	886.43
686.75	851.94
686.944	838.18
687.138	850
687.331	754.68
687.525	787.42
687.719	703.33
687.913	796.14
688.107	774.83
688.301	785.87
688.494	788.39
688.688	763.78
688.882	735.3
689.076	740.92
689.269	771.92
689.463	871.89
689.657	789.75
689.85	793.04
690.044	818.81
690.238	825.78
690.431	806.8
690.625	792.26
690.818	831.4
691.012	833.53
691.205	844.58
691.399	805.44
691.593	847.68
691.786	890.69
691.98	887.78
692.173	931.76
692.366	912.19
692.56	898.83
692.753	953.85
692.947	863.37
693.14	919.94
693.333	957.14
693.527	889.91
693.72	945.13
693.914	917.81
694.107	879.64
694.3	925.18
694.493	895.73
694.687	992.79
694.88	905.99
695.073	968.77
695.266	935.25
695.46	919.36
695.653	1006.55
695.846	975.74
696.039	866.28
696.232	924.21
696.425	1022.82
696.618	995.12
696.812	1021.47
697.005	1071.65
697.198	1142.56
697.391	1057.12
697.584	1084.24
697.777	1129.58
697.97	1066.61
698.163	1123.38
698.356	1084.24
698.549	1200.49
698.742	1150.7
698.935	1097.61
699.127	1131.52
699.32	1111.75
699.513	1109.04
699.706	1160.19
699.899	1206.69
700.092	1140.43
700.285	1179.37
700.477	1120.28
700.67	1210.95
700.863	1220.25
701.056	1302.59
701.248	1227.42
701.441	1269.85
701.634	1231.68
701.826	1336.5
702.019	1217.15
702.212	1309.38
702.404	1220.83
702.597	1237.11
702.79	1271.4
702.982	1299.3
703.175	1363.24
703.367	1358.78
703.56	1364.79
703.752	1470.57
703.945	1402.96
704.137	1433.18
704.33	1459.53
704.522	1457.79
704.715	1471.93
704.907	1533.15
705.1	1532.96
705.292	1578.3
705.484	1534.51
705.677	1559.5
705.869	1588.57
706.061	1610.46
706.254	1649.01
706.446	1606.2
706.638	1647.27
706.831	1697.26
707.023	1649.4
707.215	1770.49
707.407	1757.71
707.599	1744.53
707.792	1816.41
707.984	1762.55
708.176	1823.39
708.368	1798.39
708.56	1824.74
708.752	1877.44
708.944	1857.87
709.136	1897.4
709.329	1869.5
709.521	2018.88
709.713	1988.27
709.905	1973.93
710.097	2051.04
710.289	1976.84
710.481	1990.79
710.672	2037.48
710.864	2069.45
711.056	2078.55
711.248	2088.24
711.44	2107.03
711.632	2117.88
711.824	2171.55
712.016	2197.51
712.207	2217.66
712.399	2194.41
712.591	2264.16
712.783	2256.41
712.975	2244.4
713.166	2235.49
713.358	2283.54
713.55	2328.1
713.741	2359.87
713.933	2362.97
714.125	2333.52
714.316	2329.84
714.508	2461.01
714.7	2428.07
714.891	2427.88
715.083	2479.8
715.274	2455.58
715.466	2510.8
715.657	2518.94
715.849	2435.43
716.04	2497.63
716.232	2474.57
716.423	2511.77
716.615	2463.92
716.806	2459.27
716.998	2377.12
717.189	2367.04
717.381	2276.37
717.572	2260.48
717.763	2301.17
717.955	2289.16
718.146	2251.18
718.337	2195.38
718.528	2184.73
718.72	2110.52
718.911	2198.48
719.102	2090.37
719.293	2213.01
719.485	2174.46
719.676	2144.23
719.867	2110.52
720.058	2128.73
720.249	2138.42
720.44	2153.73
720.632	2222.12
720.823	2329.07
721.014	2416.84
721.205	2424.2
721.396	2515.84
721.587	2651.46
721.778	2692.93
721.969	2723.15
722.16	2765.39
722.351	2821.19
722.542	2932.01
722.733	2932.2
722.924	2925.03
723.115	2926.2
723.305	2936.47
723.496	2948.09
723.687	2813.44
723.878	2825.84
724.069	2819.05
724.26	2845.99
724.45	2783.21
724.641	2765.97
724.832	2806.07
725.023	2834.36
725.213	2831.26
725.404	2805.88
725.595	2843.66
725.785	2786.12
725.976	2893.45
726.167	2874.27
726.357	2907.21
726.548	3014.55
726.739	2924.26
726.929	3036.44
727.12	3074.99
727.31	3140.48
727.501	2985.87
727.691	3029.08
727.882	3062.21
728.072	3076.74
728.263	3094.76
728.453	3169.16
728.644	3172.64
728.834	3161.02
729.024	3111.81
729.215	3136.61
729.405	3194.54
729.596	3270.1
729.786	3295.48
729.976	3299.55
730.167	3328.03
730.357	3259.44
730.547	3328.61
730.737	3321.63
730.928	3364.45
731.118	3423.16
731.308	3366.78
731.498	3391.58
731.688	3503.37
731.879	3490.58
732.069	3609.35
732.259	3561.11
732.449	3627.76
732.639	3662.82
732.829	3707.58
733.019	3787.98
733.209	3781.78
733.399	3828.67
733.589	3938.91
733.779	3982.7
733.969	3909.66
734.159	4038.69
734.349	4044.7
734.539	4104.57
734.729	4154.55
734.919	4157.07
735.109	4238.25
735.299	4157.27
735.488	4208.22
735.678	4192.92
735.868	4171.99
736.058	4202.8
736.248	4173.93
736.437	4137.12
736.627	4147.19
736.817	4275.84
737.007	4186.33
737.196	4307.03
737.386	4271.58
737.576	4222.17
737.765	4324.08
737.955	4268.28
738.144	4419.6
738.334	4379.88
738.524	4275.45
738.713	4387.05
738.903	4324.66
739.092	4402.16
739.282	4421.54
739.471	4395.19
739.661	4369.23
739.85	4445.56
740.04	4406.04
740.229	4428.9
740.419	4549.41
740.608	4509.5
740.797	4504.27
740.987	4570.34
741.176	4540.5
741.365	4505.04
741.555	4454.09
741.744	4556.19
741.933	4550.19
742.123	4541.47
742.312	4600.37
742.501	4621.87
742.69	4623.62
742.88	4503.69
743.069	4665.08
743.258	4587
743.447	4688.52
743.636	4636.6
743.825	4612.57
744.014	4631.95
744.204	4670.31
744.393	4631.17
744.582	4710.22
744.771	4716.42
744.96	4651.13
745.149	4699.76
745.338	4658.3
745.527	4769.9
745.716	4699.37
745.905	4680.97
746.094	4777.84
746.283	4729.79
746.471	4721.07
746.66	4795.08
746.849	4773.38
747.038	4847.59
747.227	4716.61
747.416	4797.6
747.604	4707.9
747.793	4716.61
747.982	4752.07
748.171	4760.21
748.359	4810.97
748.548	4774.55
748.737	4790.43
748.926	4757.5
749.114	4647.64
749.303	4742
749.491	4738.51
749.68	4604.24
749.869	4794.69
750.057	4761.95
750.246	4672.83
750.434	4806.9
750.623	4695.3
750.811	4672.44
751	4728.24
751.188	4682.9
751.377	4653.84
751.565	4653.45
751.754	4644.93
751.942	4654.81
752.131	4732.11
752.319	4587.77
752.507	4611.6
752.696	4681.55
752.884	4722.62
753.072	4628.07
753.261	4682.13
753.449	4645.9
753.637	4617.61
753.825	4726.5
754.014	4680.77
754.202	4652.68
754.39	4745.1
754.578	4715.84
754.766	4642.02
754.955	4643.18
755.143	4678.45
755.331	4643.57
755.519	4651.71
755.707	4623.03
755.895	4571.89
756.083	4615.09
756.271	4566.46
756.459	4590.68
756.647	4624.39
756.835	4569.75
757.023	4549.8
757.211	4584.48
757.399	4533.33
757.587	4557.16
757.775	4493.61
757.963	4535.27
758.151	4504.07
758.339	4445.76
758.526	4454.86
758.714	4512.02
758.902	4366.71
759.09	4340.94
759.278	4128.79
759.465	3903.85
759.653	3454.74
759.841	3194.34
760.028	2773.14
760.216	2458.3
760.404	2324.81
760.591	2033.22
760.779	1755.58
760.967	1575.97
761.154	1348.9
761.342	1421.56
761.529	1405.28
761.717	1521.53
761.905	1545.36
762.092	1646.69
762.28	1631.19
762.467	1655.8
762.655	1571.71
762.842	1640.68
763.029	1700.16
763.217	1729.61
763.404	1693.96
763.592	1743.76
763.779	1715.66
763.966	1786.77
764.154	1832.3
764.341	1879.38
764.528	1890.04
764.716	2002.22
764.903	2019.65
765.09	2117.3
765.277	2191.12
765.465	2329.46
765.652	2386.22
765.839	2477.67
766.026	2652.43
766.213	2682.08
766.4	2780.5
766.588	2963.4
766.775	3041.09
766.962	3128.28
767.149	3185.62
767.336	3389.83
767.523	3317.76
767.71	3474.31
767.897	3604.31
768.084	3666.89
768.271	3666.89
768.458	3745.55
768.645	3819.57
768.832	3787.4
769.019	3794.96
769.206	3819.18
769.392	3922.25
769.579	4045.86
769.766	3958.87
769.953	3939.69
770.14	3959.06
770.327	3995.88
770.513	4045.47
770.7	4076.86
770.887	3957.13
771.073	4100.5
771.26	4032.3
771.447	3968.94
771.634	3989.09
771.82	4062.33
772.007	4006.34
772.193	4014.67
772.38	4089.46
772.567	3985.41
772.753	3981.34
772.94	4098.37
773.126	4019.51
773.313	4092.94
773.499	4020.09
773.686	4092.36
773.872	3991.23
774.059	4044.89
774.245	3948.79
774.432	3950.93
774.618	3905.01
774.804	4011.57
774.991	3910.43
775.177	3975.53
775.363	3883.7
775.55	3969.91
775.736	3889.7
775.922	3921.09
776.109	3905.59
776.295	3927.48
776.481	3919.73
776.667	3949.96
776.853	3904.62
777.04	3884.08
777.226	3872.85
777.412	3918.18
777.598	3890.67
777.784	3857.73
777.97	3828.87
778.156	3845.33
778.342	3839.33
778.528	3839.13
778.715	3772.87
778.901	3774.42
779.087	3855.21
779.272	3781.4
779.458	3730.25
779.644	3806.78
779.83	3781.98
780.016	3865.29
780.202	3756.6
780.388	3785.85
780.574	3659.53
780.76	3706.42
780.946	3769
781.131	3743.81
781.317	3695.37
781.503	3702.74
781.689	3679.1
781.874	3850.37
782.06	3672.7
782.246	3712.81
782.432	3692.08
782.617	3707.19
782.803	3756.21
782.989	3660.69
783.174	3626.59
783.36	3578.74
783.545	3612.45
783.731	3632.99
783.916	3497.56
784.102	3626.59
784.288	3551.42
784.473	3602.76
784.659	3574.86
784.844	3630.47
785.029	3559.17
785.215	3576.61
785.4	3460.36
785.586	3629.11
785.771	3478.76
785.956	3587.26
786.142	3490.19
786.327	3451.64
786.512	3499.88
786.698	3547.35
786.883	3410.18
787.068	3471.79
787.254	3462.88
787.439	3415.6
787.624	3413.08
787.809	3406.11
787.994	3370.85
788.18	3522.74
788.365	3335.58
788.55	3384.02
788.735	3372.78
788.92	3389.64
789.105	3373.17
789.29	3407.66
789.475	3291.99
789.66	3285.99
789.845	3287.54
790.03	3269.71
790.215	3302.26
790.4	3367.94
790.585	3356.12
790.77	3308.07
790.955	3234.64
791.14	3268.55
791.325	3349.73
791.51	3142.81
791.695	3273.2
791.879	3237.16
792.064	3203.06
792.249	3305.55
792.434	3235.42
792.618	3240.07
792.803	3270.68
792.988	3240.65
793.173	3239.29
793.357	3279.59
793.542	3204.42
793.727	3214.11
793.911	3290.83
794.096	3215.85
794.281	3308.65
794.465	3302.65
794.65	3231.54
794.834	3273.39
795.019	3284.24
795.203	3299.35
795.388	3300.32
795.572	3360.58
795.757	3315.63
795.941	3294.9
796.126	3321.63
796.31	3216.24
796.494	3303.04
796.679	3242.59
796.863	3227.28
797.048	3332.87
797.232	3309.04
797.416	3331.52
797.601	3296.84
797.785	3362.13
797.969	3386.15
798.153	3272.04
798.338	3369.49
798.522	3377.43
798.706	3355.35
798.89	3340.04
799.074	3462.3
799.258	3389.64
799.443	3368.52
799.627	3336.94
799.811	3398.16
799.995	3351.28
800.179	3310.78
800.363	3295.67
800.547	3361.35
800.731	3397.78
800.915	3264.67
801.099	3283.47
801.283	3294.12
801.467	3326.09
801.651	3326.09
801.835	3386.15
802.019	3356.32
802.202	3314.47
802.386	3301.29
802.57	3255.37
802.754	3309.82
802.938	3256.73
803.121	3295.87
803.305	3372.78
803.489	3269.32
803.673	3284.44
803.856	3306.33
804.04	3254.6
804.224	3330.55
804.407	3248.79
804.591	3287.34
804.775	3278.24
804.958	3321.44
805.142	3397.39
805.326	3298
805.509	3294.12
805.693	3341.59
805.876	3337.91
806.06	3315.24
806.243	3369.49
806.427	3372.2
806.61	3332.87
806.794	3273.39
806.977	3360.58
807.16	3310.01
807.344	3317.76
807.527	3317.37
807.71	3294.51
807.894	3309.23
808.077	3314.08
808.26	3312.14
808.444	3254.6
808.627	3295.29
808.81	3241.62
808.993	3203.84
809.177	3154.43
809.36	3184.66
809.543	3280.56
809.726	3148.23
809.909	3121.88
810.092	3096.11
810.276	3117.23
810.459	3131.37
810.642	3108.51
810.825	3081.19
811.008	3114.91
811.191	2963.4
811.374	2993.81
811.557	3005.83
811.74	3060.66
811.923	2949.83
812.106	2948.48
812.289	2941.89
812.472	2937.05
812.654	2986.45
812.837	2894.42
813.02	2852.57
813.203	2804.72
813.386	2716.17
813.569	2700.29
813.751	2650.69
813.934	2676.26
814.117	2639.84
814.3	2606.13
814.482	2535.8
814.665	2471.67
814.848	2455.39
815.03	2411.41
815.213	2404.44
815.396	2377.31
815.578	2358.32
815.761	2307.76
815.943	2402.11
816.126	2292.64
816.309	2257.96
816.491	2177.56
816.674	2147.33
816.856	2163.03
817.039	2165.93
817.221	2222.51
817.403	2211.27
817.586	2197.32
817.768	2215.73
817.951	2137.65
818.133	2089.98
818.315	2141.13
818.498	2180.08
818.68	2248.47
818.862	2229.48
819.045	2236.84
819.227	2220.76
819.409	2213.01
819.591	2224.06
819.774	2198.29
819.956	2108.2
820.138	2259.51
820.32	2226.96
820.502	2282.76
820.684	2343.79
820.866	2344.57
821.048	2418.19
821.231	2418.97
821.413	2404.05
821.595	2395.72
821.777	2425.36
821.959	2405.02
822.141	2460.82
822.323	2318.41
822.505	2281.6
822.686	2187.24
822.868	2107.42
823.05	1971.22
823.232	1970.44
823.414	1907.28
823.596	1959.01
823.778	1913.29
823.96	1981.68
824.141	1981.29
824.323	1990.79
824.505	2107.23
824.687	2142.1
824.868	2167.29
825.05	2280.82
825.232	2310.86
825.413	2442.8
825.595	2326.36
825.777	2282.37
825.958	2311.82
826.14	2313.57
826.321	2356.97
826.503	2321.12
826.685	2363.17
826.866	2381.57
827.048	2340.69
827.229	2309.11
827.411	2262.61
827.592	2215.34
827.773	2186.28
827.955	2135.32
828.136	2154.5
828.318	2116.72
828.499	2163.22
828.68	2126.02
828.862	2121.18
829.043	2177.17
829.224	2112.65
829.406	2086.5
829.587	2054.92
829.768	2099.48
829.949	2113.62
830.131	2124.08
830.312	2166.51
830.493	2089.98
830.674	2135.71
830.855	2111.1
831.036	2112.65
831.218	2166.13
831.399	2222.51
831.58	2128.93
831.761	2144.23
831.942	2137.06
832.123	2102.77
832.304	2032.05
832.485	2054.72
832.666	2057.24
832.847	2113.81
833.028	2112.85
833.209	2074.29
833.389	2079.33
833.57	2007.25
833.751	2052.78
833.932	2102.77
834.113	2077.78
834.294	2028.76
834.475	2101.61
834.655	2136.48
834.836	2147.72
835.017	2112.26
835.198	2020.43
835.378	2102.96
835.559	2157.41
835.74	2086.69
835.92	2110.33
836.101	2077.78
836.281	2149.85
836.462	2106.45
836.643	2141.33
836.823	2175.23
837.004	2133.77
837.184	2210.11
837.365	2165.16
837.545	2181.24
837.726	2121.95
837.906	2229.68
838.087	2133.38
838.267	2129.51
838.448	2121.37
838.628	2139.78
838.808	2119.43
838.989	2190.54
839.169	2073.52
839.349	2141.71
839.53	2169.61
839.71	2166.71
839.89	2095.8
840.07	2182.4
840.251	2123.31
840.431	2137.26
840.611	2126.8
840.791	2099.86
840.971	2115.36
841.151	2066.93
841.332	2092.31
841.512	2164.19
841.692	2080.1
841.872	2097.54
842.052	2124.66
842.232	2112.26
842.412	2051.43
842.592	2082.81
842.772	2091.15
842.952	2105.68
843.132	2059.37
843.312	2021.2
843.492	2031.47
843.672	2101.41
843.851	2008.8
844.031	2077.2
844.211	2058.98
844.391	2029.15
844.571	2047.55
844.751	2064.99
844.93	2057.63
845.11	1971.99
845.29	2054.14
845.47	2062.08
845.649	2038.06
845.829	2071.19
846.009	1991.56
846.188	2063.25
846.368	2011.71
846.547	1999.7
846.727	2063.83
846.907	1984.97
847.086	2037.87
847.266	2035.15
847.445	1990.2
847.625	1976.64
847.804	1973.74
847.984	1990.4
848.163	1924.72
848.343	1964.24
848.522	1973.93
848.701	1997.57
848.881	1943.32
849.06	1970.25
849.239	1985.75
849.419	1959.98
849.598	1875.51
849.777	1865.24
849.957	1857.49
850.136	1810.99
850.315	1768.56
850.494	1787.35
850.674	1792.19
850.853	1876.86
851.032	1856.13
851.211	1921.81
851.39	1827.84
851.569	1786.96
851.748	1829.01
851.927	1893.33
852.107	1835.01
852.286	1798.78
852.465	1794.13
852.644	1859.42
852.823	1842.37
853.002	1857.68
853.181	1830.94
853.359	1835.4
853.538	1770.49
853.717	1845.47
853.896	1737.56
854.075	1648.82
854.254	1613.56
854.433	1535.48
854.611	1574.03
854.79	1505.45
854.969	1584.5
855.148	1614.72
855.327	1581.78
855.505	1629.45
855.684	1634.1
855.863	1650.95
856.041	1647.46
856.22	1691.25
856.399	1644.37
856.577	1795.88
856.756	1747.63
856.934	1882.29
857.113	1833.27
857.291	1744.34
857.47	1731.94
857.648	1747.24
857.827	1750.73
858.005	1797.43
858.184	1715.47
858.362	1828.23
858.541	1708.3
858.719	1717.6
858.898	1714.7
859.076	1690.48
859.254	1793.94
859.433	1713.73
859.611	1714.5
859.789	1662.38
859.967	1760.42
860.146	1795.68
860.324	1650.56
860.502	1712.18
860.68	1626.73
860.859	1643.2
861.037	1684.47
861.215	1708.11
861.393	1681.56
861.571	1664.9
861.749	1641.07
861.927	1669.16
862.105	1671.88
862.283	1650.95
862.461	1624.99
862.639	1640.3
862.817	1626.54
862.995	1646.3
863.173	1621.12
863.351	1652.7
863.529	1640.1
863.707	1688.35
863.885	1648.82
864.063	1562.02
864.241	1598.06
864.418	1650.37
864.596	1555.63
864.774	1588.57
864.952	1612.4
865.129	1631.19
865.307	1570.35
865.485	1509.71
865.663	1604.07
865.84	1494.79
866.018	1540.52
866.196	1374.86
866.373	1396.37
866.551	1360.53
866.728	1322.74
866.906	1379.32
867.084	1377.58
867.261	1408.57
867.439	1393.66
867.616	1459.34
867.794	1441.32
867.971	1445.77
868.149	1451.78
868.326	1499.44
868.503	1502.35
868.681	1497.31
868.858	1500.22
869.035	1435.12
869.213	1507.58
869.39	1464.18
869.567	1570.74
869.745	1437.44
869.922	1472.9
870.099	1477.55
870.276	1501.77
870.454	1495.76
870.631	1498.47
870.808	1490.92
870.985	1493.24
871.162	1546.91
871.339	1502.93
871.517	1430.08
871.694	1430.27
871.871	1448.49
872.048	1474.06
872.225	1440.16
872.402	1442.87
872.579	1389.2
872.756	1444.81
872.933	1377.19
873.11	1443.45
873.287	1432.41
873.463	1405.28
873.64	1409.93
873.817	1449.26
873.994	1398.5
874.171	1377.77
874.348	1361.88
874.524	1343.67
874.701	1408.77
874.878	1293.1
875.055	1391.72
875.231	1360.72
875.408	1416.91
875.585	1289.03
875.762	1382.23
875.938	1338.05
876.115	1370.6
876.291	1351.23
876.468	1315.38
876.645	1321.58
876.821	1297.36
876.998	1339.79
877.174	1338.24
877.351	1329.91
877.527	1295.81
877.704	1353.16
877.88	1325.26
878.057	1309.57
878.233	1352.78
878.409	1295.81
878.586	1333.98
878.762	1306.28
878.938	1311.89
879.115	1221.61
879.291	1268.69
879.467	1246.02
879.644	1227.61
879.82	1314.8
879.996	1232.65
880.172	1213.86
880.349	1267.53
880.525	1280.31
880.701	1211.92
880.877	1215.8
881.053	1239.43
881.229	1226.26
881.405	1270.63
881.581	1234.59
881.757	1230.91
881.933	1257.45
882.109	1269.27
882.285	1252.61
882.461	1205.33
882.637	1243.31
882.813	1215.21
882.989	1236.72
883.165	1288.65
883.341	1206.11
883.517	1290
883.693	1270.05
883.869	1297.36
884.044	1246.99
884.22	1254.16
884.396	1285.55
884.572	1271.98
884.747	1278.76
884.923	1232.65
885.099	1270.43
885.275	1271.79
885.45	1223.74
885.626	1256.48
885.801	1199.91
885.977	1234.59
886.153	1160.77
886.328	1259
886.504	1229.75
886.679	1257.84
886.855	1202.23
887.03	1234.4
887.206	1262.1
887.381	1250.09
887.557	1238.27
887.732	1220.64
887.908	1244.08
888.083	1276.63
888.258	1240.79
888.434	1215.6
888.609	1239.63
888.784	1276.44
888.96	1230.13
889.135	1197.2
889.31	1199.52
889.485	1225.1
889.661	1229.16
889.836	1282.45
890.011	1268.88
890.186	1224.13
890.361	1203.98
890.537	1237.3
890.712	1225.29
890.887	1257.65
891.062	1223.93
891.237	1268.3
891.412	1206.11
891.587	1231.68
891.762	1234.98
891.937	1287.48
892.112	1188.67
892.287	1202.82
892.462	1198.55
892.637	1173.95
892.812	1171.82
892.987	1134.23
893.161	1151.67
893.336	1166.58
893.511	1156.32
893.686	1173.95
893.861	1167.36
894.035	1125.12
894.21	1159.42
894.385	1093.15
894.56	1132.48
894.734	1051.3
894.909	1071.84
895.084	1071.65
895.258	1062.35
895.433	1079.79
895.608	1046.85
895.782	992.6
895.957	1001.12
896.131	1025.15
896.306	946.29
896.48	955.4
896.655	964.31
896.829	879.06
897.004	890.88
897.178	900.18
897.353	860.85
897.527	928.86
897.701	906.19
897.876	834.7
898.05	950.17
898.224	901.34
898.399	920.53
898.573	907.35
898.747	768.63
898.921	846.51
899.096	730.46
899.27	745.57
899.444	709.34
899.618	757
899.792	795.75
899.967	788.78
900.141	810.28
900.315	762.04
900.489	771.34
900.663	788.2
900.837	774.25
901.011	723.87
901.185	863.95
901.359	781.8
901.533	814.93
901.707	802.53
901.881	788.39
902.055	724.65
902.229	789.75
902.403	841.28
902.576	777.35
902.75	786.45
902.924	905.61
903.098	847.1
903.272	898.44
903.446	931.96
903.619	887.39
903.793	943.39
903.967	892.04
904.14	959.27
904.314	974.39
904.488	960.82
904.661	984.66
904.835	940.09
905.009	981.56
905.182	1021.86
905.356	974.39
905.529	981.94
905.703	932.93
905.876	903.86
906.05	906.58
906.223	855.23
906.397	824.81
906.57	793.62
906.744	789.94
906.917	779.86
907.09	820.94
907.264	794.98
907.437	758.17
907.61	694.62
907.784	751.97
907.957	755.26
908.13	724.45
908.304	764.95
908.477	702.17
908.65	732.78
908.823	670.79
908.996	776.76
909.17	699.07
909.343	689.97
909.516	685.12
909.689	701.2
909.862	672.34
910.035	711.86
910.208	665.94
910.381	667.3
910.554	762.62
910.727	682.22
910.9	678.92
911.073	664
911.246	736.47
911.419	744.6
911.592	714.38
911.765	674.27
911.938	667.49
912.11	693.26
912.283	710.89
912.456	727.36
912.629	682.6
912.802	652.19
912.974	667.49
913.147	594.06
913.32	545.62
913.493	556.47
913.665	624.67
913.838	618.28
914.01	604.72
914.183	609.75
914.356	635.33
914.528	714.77
914.701	723.29
914.873	652.19
915.046	610.14
915.218	565.39
915.391	529.54
915.563	530.51
915.736	616.34
915.908	620.8
916.081	569.65
916.253	567.32
916.425	620.41
916.598	637.07
916.77	617.31
916.942	545.62
917.115	530.32
917.287	608.79
917.459	563.26
917.632	504.16
917.804	483.63
917.976	588.25
918.148	573.33
918.32	568.68
918.493	612.85
918.665	651.41
918.837	608.2
919.009	652.57
919.181	667.3
919.353	597.16
919.525	600.65
919.697	588.64
919.869	606.27
920.041	681.25
920.213	718.64
920.385	639.59
920.557	621.77
920.729	653.93
920.901	609.56
921.073	598.9
921.244	615.76
921.416	669.62
921.588	613.63
921.76	601.81
921.932	647.92
922.103	595.22
922.275	611.11
922.447	617.31
922.619	550.08
922.79	558.41
922.962	569.46
923.134	622.74
923.305	558.22
923.477	534.97
923.648	523.54
923.82	543.11
923.991	464.64
924.163	478.78
924.335	517.72
924.506	531.87
924.677	575.07
924.849	529.54
925.02	541.36
925.192	577.98
925.363	550.47
925.535	525.28
925.706	507.07
925.877	573.52
926.049	531.09
926.22	517.14
926.391	537.87
926.562	555.12
926.734	493.31
926.905	552.99
927.076	471.23
927.247	488.08
927.419	446.23
927.59	443.52
927.761	473.55
927.932	438.29
928.103	445.26
928.274	394.89
928.445	402.25
928.616	430.93
928.787	424.34
928.958	435.19
929.129	427.63
929.3	362.34
929.471	360.98
929.642	288.72
929.813	252.1
929.984	378.03
930.155	244.35
930.326	333.86
930.496	291.82
930.667	216.45
930.838	273.6
931.009	222.07
931.18	244.15
931.35	238.73
931.521	263.92
931.692	174.79
931.863	121.71
932.033	177.31
932.204	197.85
932.374	209.09
932.545	138.56
932.716	191.65
932.886	205.4
933.057	106.01
933.227	158.13
933.398	214.32
933.568	104.27
933.739	74.62
933.909	96.52
934.08	152.12
934.25	61.26
934.421	70.36
934.591	111.24
934.761	87.02
934.932	45.76
935.102	126.55
935.272	92.06
935.443	95.94
935.613	97.49
935.783	106.21
935.953	42.27
936.123	226.33
936.294	37.81
936.464	87.02
936.634	87.99
936.804	61.06
936.974	29.87
937.144	114.54
937.314	81.41
937.484	75.98
937.655	79.66
937.825	127.52
937.995	46.14
938.165	138.37
938.334	94.19
938.504	134.88
938.674	93.42
938.844	122.09
939.014	162.97
939.184	167.43
939.354	199.01
939.524	216.64
939.694	136.04
939.863	125.58
940.033	221.68
940.203	213.93
940.373	176.54
940.542	194.75
940.712	168.2
940.882	180.6
941.051	203.85
941.221	195.91
941.391	180.02
941.56	137.4
941.73	132.75
941.899	283.29
942.069	147.47
942.238	173.44
942.408	112.99
942.577	179.64
942.747	144.18
942.916	71.53
943.086	107.76
943.255	186.8
943.425	150.96
943.594	124.42
943.763	57.19
943.933	71.91
944.102	46.53
944.271	117.83
944.441	135.85
944.61	93.42
944.779	123.26
944.948	218.19
945.117	81.02
945.287	84.12
945.456	74.62
945.625	84.89
945.794	138.17
945.963	93.22
946.132	119.38
946.301	110.66
946.47	162.39
946.639	62.61
946.808	91.09
946.977	124.22
947.146	173.82
947.315	110.66
947.484	144.96
947.653	99.04
947.822	77.34
947.991	77.92
948.16	196.3
948.329	151.35
948.498	100.59
948.666	126.36
948.835	155.22
949.004	79.27
949.173	72.49
949.341	118.41
949.51	129.46
949.679	165.3
949.847	125
950.016	204.05
950.185	201.14
950.353	81.02
950.522	108.92
950.69	182.54
950.859	112.21
951.028	170.14
951.196	143.02
951.365	110.27
951.533	113.37
951.701	150.57
951.87	141.27
952.038	64.16
952.207	114.34
952.375	210.44
952.543	98.65
952.712	108.72
952.88	101.75
953.048	215.67
953.217	128.68
953.385	124.81
953.553	145.92
953.721	70.17
953.89	123.26
954.058	77.53
954.226	92.64
954.394	109.5
954.562	56.99
954.73	98.65
954.898	88.57
955.067	152.51
955.235	73.27
955.403	137.21
955.571	192.81
955.739	117.25
955.907	82.57
956.075	97.29
956.243	76.95
956.41	131.01
956.578	47.31
956.746	76.56
956.914	101.56
957.082	137.59
957.25	150.19
957.418	89.35
957.585	119.96
957.753	168.59
957.921	85.09
958.089	86.83
958.256	144.76
958.424	127.13
958.592	142.05
958.759	112.02
958.927	136.43
959.095	67.46
959.262	135.07
959.43	113.18
959.597	94.77
959.765	106.21
959.932	58.35
960.1	155.22
960.267	121.12
960.435	128.1
960.602	158.32
960.77	103.69
960.937	77.34
961.104	99.62
961.272	51.18
961.439	101.56
961.606	139.72
961.774	145.73
961.941	92.64
962.108	118.99
962.275	138.37
962.443	160.07
962.61	136.62
962.777	198.82
962.944	177.89
963.111	150.19
963.278	153.09
963.446	146.51
963.613	128.29
963.78	158.71
963.947	152.71
964.114	124.22
964.281	228.07
964.448	140.5
964.615	111.05
964.782	144.18
964.949	163.55
965.116	135.66
965.282	149.99
965.449	119.57
965.616	102.91
965.783	147.67
965.95	146.31
966.117	86.64
966.283	130.23
966.45	148.64
966.617	138.56
966.784	183.51
966.95	189.71
967.117	153.67
967.284	125.19
967.45	120.93
967.617	195.91
967.784	148.44
967.95	192.04
968.117	136.04
968.283	174.99
968.45	232.53
968.616	156.19
968.783	161.23
968.949	157.16
969.116	187.97
969.282	147.67
969.449	161.42
969.615	140.5
969.781	87.02
969.948	127.32
970.114	94.77
970.28	197.07
970.447	128.29
970.613	186.22
970.779	147.09
970.945	182.93
971.112	149.99
971.278	162.97
971.444	152.51
971.61	179.05
971.776	131.39
971.942	172.08
972.108	169.37
972.275	135.85
972.441	143.02
972.607	213.54
972.773	126.94
972.939	159.87
973.105	175.76
973.271	89.16
973.437	128.68
973.602	98.65
973.768	186.61
973.934	130.81
974.1	143.02
974.266	61.84
974.432	159.49
974.598	107.95
974.763	160.07
974.929	91.29
975.095	176.73
975.261	119.19
975.426	98.07
975.592	149.61
975.758	182.74
975.923	56.99
976.089	111.82
976.255	158.71
976.42	160.65
976.586	139.92
976.751	131.01
976.917	222.07
977.082	163.17
977.248	97.49
977.413	74.82
977.579	115.89
977.744	124.03
977.91	71.14
978.075	88.57
978.24	149.22
978.406	129.46
978.571	99.81
978.736	84.89
978.902	147.67
979.067	82.18
979.232	58.74
979.397	145.92
979.563	181.96
979.728	106.21
979.893	84.31
980.058	99.62
980.223	162
980.388	126.36
980.554	120.16
980.719	92.45
980.884	116.28
981.049	127.71
981.214	111.05
981.379	120.93
981.544	71.72
981.709	116.28
981.874	79.27
982.039	117.06
982.204	154.45
982.368	95.55
982.533	119.96
982.698	139.92
982.863	147.28
983.028	94.58
983.193	118.99
983.357	137.98
983.522	113.37
983.687	113.96
983.852	112.6
984.016	93.81
984.181	142.05
984.346	152.32
984.51	144.76
984.675	113.57
984.839	143.6
985.004	130.42
985.168	162.39
985.333	113.57
985.498	108.53
985.662	144.37
985.827	112.79
985.991	95.94
986.155	111.24
986.32	123.64
986.484	180.22
986.649	127.91
986.813	35.88
986.977	120.35
987.142	161.23
987.306	75.4
987.47	107.37
987.634	106.21
987.799	100.01
987.963	117.06
988.127	147.67
988.291	176.34
988.455	120.93
988.62	114.92
988.784	140.5
988.948	132.56
989.112	81.41
989.276	119.38
989.44	113.37
989.604	91.09
989.768	81.79
989.932	186.22
990.096	91.09
990.26	77.34
990.424	69.39
990.588	87.99
990.752	160.65
990.915	147.09
991.079	93.81
991.243	88.57
991.407	128.68
991.571	90.9
991.734	125
991.898	119.57
992.062	202.11
992.226	99.23
992.389	82.96
992.553	78.5
992.717	63.58
992.88	94.19
993.044	103.11
993.207	95.94
993.371	104.07
993.535	119.96
993.698	111.05
993.862	124.81
994.025	130.23
994.189	111.05
994.352	100.59
994.515	127.91
994.679	152.9
994.842	85.47
995.006	116.67
995.169	79.47
995.332	81.21
995.496	136.04
995.659	45.56
995.822	70.17
995.985	73.66
996.149	135.85
996.312	87.41
996.475	162.59
996.638	79.47
996.801	141.86
996.964	186.42
997.128	90.71
997.291	91.29
997.454	104.66
997.617	64.74
997.78	124.22
997.943	62.03
998.106	106.4
998.269	76.17
998.432	70.75
998.595	80.05
998.758	17.08
998.92	65.71
999.083	46.73
999.246	58.54
999.409	67.84
999.572	14.95
999.735	52.15
999.897	84.12
1000.06	32.19
1000.223	83.73
1000.386	91.87
1000.548	123.26
1000.711	102.14
1000.874	78.69
1001.036	30.84
1001.199	109.89
1001.361	55.25
1001.524	78.89
1001.687	126.36
1001.849	39.75
1002.012	86.06
1002.174	83.92
1002.337	100.39
1002.499	51.38
1002.661	100.2
1002.824	11.85
1002.986	48.08
1003.149	90.9
1003.311	34.91
1003.473	129.26
1003.636	35.68
1003.798	89.16
1003.96	74.24
1004.123	77.72
1004.285	45.37
1004.447	30.84
1004.609	68.23
1004.771	145.92
1004.933	-3.84
1005.096	48.66
1005.258	4.68
1005.42	40.53
1005.582	108.14
1005.744	88.38
1005.906	13.59
1006.068	50.41
1006.23	2.55
1006.392	15.92
1006.554	32.58
1006.716	105.24
1006.878	72.11
1007.04	-0.74
1007.202	43.04
1007.363	70.36
1007.525	64.94
1007.687	60.09
1007.849	134.69
1008.011	4.1
1008.172	42.66
1008.334	67.46
1008.496	58.54
1008.658	35.29
1008.819	45.37
1008.981	-3.46
1009.143	22.89
1009.304	62.23
1009.466	56.99
1009.627	103.3
1009.789	167.04
1009.95	52.54
1010.112	18.05
1010.273	61.06
1010.435	16.89
1010.596	30.45
1010.758	53.51
1010.919	35.68
1011.081	18.63
1011.242	30.84
1011.403	71.91
1011.565	48.28
1011.726	63
1011.887	25.99
1012.049	36.46
1012.21	75.4
1012.371	121.12
1012.532	-14.11
1012.693	45.18
1012.855	32.58
1013.016	39.75
1013.177	89.93
1013.338	44.98
1013.499	88.38
1013.66	87.8
1013.821	85.28
1013.982	43.63
1014.143	47.89
1014.304	22.12
1014.465	74.04
1014.626	71.33
1014.787	36.07
1014.948	132.56
1015.109	-39.49
1015.27	73.07
1015.431	19.41
1015.592	-6.94
1015.752	88.57
1015.913	46.53
1016.074	46.53
1016.235	42.85
1016.395	43.82
1016.556	33.94
1016.717	51.96
1016.877	81.99
1017.038	5.46
1017.199	76.37
1017.359	46.34
1017.52	47.31
1017.681	13.79
1017.841	30.06
1018.002	15.92
1018.162	19.79
1018.323	90.51
1018.483	52.93
1018.644	31.61
1018.804	-3.46
1018.964	-5.2
1019.125	-3.26
1019.285	58.35
1019.446	11.08
1019.606	-13.34
1019.766	-9.46
1019.926	53.31
1020.087	53.89
1020.247	-23.6
1020.407	55.06
1020.567	69.78
1020.728	29.29
1020.888	19.21
1021.048	4.49
1021.208	18.63
1021.368	33.55
1021.528	73.46
1021.688	29.09
1021.848	49.05
1022.008	31.03
1022.168	-14.31
1022.328	51.57
1022.488	55.64
1022.648	0.61
1022.808	44.98
1022.968	11.85
1023.128	0.23
1023.288	4.1
1023.448	22.31
1023.608	46.14
1023.767	37.62
1023.927	23.67
1024.087	11.46
1024.247	-13.92
1024.406	-3.07
1024.566	5.46
1024.726	-6.17
1024.885	64.16
1025.045	58.74
1025.205	6.43
1025.364	30.84
1025.524	29.09
1025.683	12.63
1025.843	20.96
1026.003	21.34
1026.162	101.94
1026.321	42.85
1026.481	39.75
1026.64	19.99
1026.8	8.56
1026.959	18.83
1027.119	34.52
1027.278	18.24
1027.437	-1.13
1027.597	28.71
1027.756	23.09
1027.915	23.86
1028.074	34.13
1028.234	6.04
1028.393	25.22
1028.552	7.01
1028.711	-63.9
1028.87	45.95
1029.03	-24.38
1029.189	-1.71
1029.348	-73.98
1029.507	20.76
1029.666	27.93
1029.825	4.68
1029.984	-18.18
1030.143	16.31
1030.302	1.58
1030.461	-33.87
1030.62	25.99
1030.779	29.29
1030.938	-5.78
1031.097	-35.42
1031.255	34.91
1031.414	88.38
1031.573	46.73
1031.732	-53.64
1031.891	18.63
1032.049	64.94
1032.208	27.16
1032.367	-30.19
1032.525	23.86
1032.684	13.98
1032.843	40.72
1033.001	-34.45
1033.16	162.39
1033.319	67.26
1033.477	43.82
1033.636	-5.2
1033.794	-21.09
1033.953	54.28
1034.111	26.19
1034.27	1.58
1034.428	13.98
1034.587	-5.39
1034.745	20.57
1034.903	14.95
1035.062	68.81
1035.22	-53.05
1035.378	51.76
1035.537	-12.56
1035.695	49.63
1035.853	15.34
1036.011	37.04
1036.17	18.44
1036.328	-58.29
1036.486	7.01
1036.644	32
1036.802	-69.72
1036.96	11.08
1037.119	-20.12
1037.277	14.18
1037.435	-24.96
1037.593	-3.65
1037.751	14.76
1037.909	20.38
1038.067	20.38
