Data from gum_old_FLMT105791__84__15-44-12-256.txt Node

Date: Mon Mar 20 15:44:12 GMT 2023
User: antho
Spectrometer: FLMT10579
Trigger mode: 0
Integration Time (sec): 1.000000E-1
Scans to average: 10
Electric dark correction enabled: true
Nonlinearity correction enabled: false
Boxcar width: 0
XAxis mode: Wavelengths
Number of Pixels in Spectrum: 3648
>>>>>Begin Spectral Data<<<<<
345.248	-174.1
345.464	-174.1
345.681	-174.1
345.898	-167.9
346.114	-161.5
346.331	-34.21
346.548	7.25
346.764	-0.5
346.981	8.61
347.197	4.54
347.414	19.84
347.631	-18.71
347.847	52
348.064	-10.96
348.28	27.01
348.497	-47.97
348.713	-6.89
348.93	38.83
349.146	29.92
349.363	8.41
349.579	41.16
349.796	-29.56
350.012	-15.23
350.229	16.94
350.445	27.01
350.661	-0.31
350.878	7.44
351.094	21.78
351.311	-5.73
351.527	44.45
351.743	-13.29
351.96	57.43
352.176	52.59
352.392	34.76
352.609	28.17
352.825	17.32
353.041	27.21
353.257	24.49
353.474	19.26
353.69	20.04
353.906	45.81
354.122	9.19
354.339	74.48
354.555	22.36
354.771	0.86
354.987	62.66
355.203	77.97
355.42	27.4
355.636	28.56
355.852	-6.31
356.068	37.67
356.284	-40.8
356.5	84.75
356.716	28.37
356.932	22.17
357.148	48.52
357.364	21.59
357.58	55.88
357.796	66.15
358.012	42.51
358.228	27.21
358.444	-38.09
358.66	40.77
358.876	48.91
359.092	-8.64
359.308	20.42
359.524	43.29
359.74	56.85
359.956	2.99
360.172	40.57
360.388	67.12
360.604	14.22
360.819	108.39
361.035	56.27
361.251	52.39
361.467	0.47
361.683	80.87
361.898	58.01
362.114	72.35
362.33	40.38
362.546	50.65
362.762	41.93
362.977	46.58
363.193	14.03
363.409	88.62
363.624	17.52
363.84	-1.86
364.056	43.29
364.271	48.71
364.487	57.43
364.703	44.64
364.918	15.97
365.134	37.86
365.35	32.63
365.565	132.22
365.781	46.97
365.996	70.8
366.212	97.92
366.427	61.5
366.643	38.25
366.858	47.94
367.074	25.85
367.289	97.34
367.505	137.84
367.72	-7.28
367.936	29.72
368.151	81.26
368.367	116.72
368.582	60.92
368.798	42.32
369.013	105.29
369.228	75.25
369.444	73.51
369.659	111.87
369.874	65.37
370.09	110.9
370.305	-0.31
370.52	49.1
370.736	104.51
370.951	45.22
371.166	126.99
371.381	142.29
371.597	85.72
371.812	17.13
372.027	32.82
372.242	67.89
372.458	138.61
372.673	45.61
372.888	55.1
373.103	93.47
373.318	152.17
373.533	97.92
373.749	59.56
373.964	21.01
374.179	106.06
374.394	27.98
374.609	85.52
374.824	23.52
375.039	87.07
375.254	42.32
375.469	92.11
375.684	47.94
375.899	98.5
376.114	61.5
376.329	91.34
376.544	113.42
376.759	111.49
376.974	32.24
377.189	73.51
377.404	33.41
377.619	93.47
377.834	27.01
378.049	46.19
378.264	47.94
378.478	79.71
378.693	101.41
378.908	110.13
379.123	78.55
379.338	132.8
379.553	97.34
379.767	78.16
379.982	97.92
380.197	80.68
380.412	78.74
380.626	101.99
380.841	146.55
381.056	107.42
381.271	151.4
381.485	62.85
381.7	35.92
381.915	94.63
382.129	51.81
382.344	69.83
382.559	61.3
382.773	116.72
382.988	27.4
383.202	76.42
383.417	78.16
383.632	175.03
383.846	81.84
384.061	93.85
384.275	56.27
384.49	75.64
384.704	106.64
384.919	101.99
385.133	99.09
385.348	109.94
385.562	64.02
385.777	116.72
385.991	90.56
386.206	103.93
386.42	89.01
386.634	143.65
386.849	117.3
387.063	119.62
387.277	103.54
387.492	75.06
387.706	59.95
387.92	90.75
388.135	132.41
388.349	129.5
388.563	113.23
388.778	120.01
388.992	126.99
389.206	125.24
389.42	179.49
389.635	106.64
389.849	115.75
390.063	159.53
390.277	139.58
390.491	195.57
390.706	146.17
390.92	152.75
391.134	124.27
391.348	140.74
391.562	89.4
391.776	123.69
391.99	130.09
392.205	176
392.419	124.47
392.633	139.58
392.847	180.27
393.061	101.41
393.275	158.57
393.489	72.54
393.703	93.27
393.917	136.48
394.131	49.1
394.345	107.61
394.559	139
394.773	98.7
394.986	169.8
395.2	119.82
395.414	175.03
395.628	101.99
395.842	156.24
396.056	136.48
396.27	107.22
396.484	149.07
396.697	138.22
396.911	176.58
397.125	110.13
397.339	120.4
397.553	119.43
397.766	175.03
397.98	151.2
398.194	197.32
398.408	153.14
398.621	211.65
398.835	215.72
399.049	200.8
399.262	254.86
399.476	245.36
399.69	264.93
399.903	280.05
400.117	229.86
400.331	233.74
400.544	224.05
400.758	360.64
400.971	254.08
401.185	279.27
401.398	218.43
401.612	270.16
401.826	261.06
402.039	292.25
402.253	215.72
402.466	286.25
402.68	259.12
402.893	241.88
403.106	270.36
403.32	250.4
403.533	280.43
403.747	246.14
403.96	249.43
404.174	297.87
404.387	207.2
404.6	240.33
404.814	312.79
405.027	246.72
405.24	271.91
405.454	254.86
405.667	287.41
405.88	220.76
406.094	290.31
406.307	315.69
406.52	281.4
406.733	240.52
406.947	234.71
407.16	326.74
407.373	321.12
407.586	276.56
407.799	258.54
408.012	301.75
408.226	290.51
408.439	325.77
408.652	278.88
408.865	299.61
409.078	332.36
409.291	310.66
409.504	284.7
409.717	325.58
409.93	331.58
410.143	324.99
410.357	239.94
410.57	214.75
410.783	281.6
410.996	270.16
411.209	313.76
411.421	335.46
411.634	334.49
411.847	313.95
412.06	318.21
412.273	332.94
412.486	336.43
412.699	410.82
412.912	346.89
413.125	383.89
413.338	344.56
413.55	362.97
413.763	339.14
413.976	365.88
414.189	294
414.402	328.48
414.615	399.59
414.827	322.86
415.04	360.45
415.253	337.39
415.466	402.69
415.678	420.9
415.891	356.77
416.104	336.43
416.316	351.93
416.529	327.71
416.742	385.83
416.954	412.76
417.167	376.73
417.38	344.18
417.592	424
417.805	359.48
418.017	298.84
418.23	383.51
418.442	319.96
418.655	329.45
418.868	374.01
419.08	384.28
419.293	408.89
419.505	372.66
419.718	378.86
419.93	399.78
420.142	337.98
420.355	398.04
420.567	418.57
420.78	400.75
420.992	392.23
421.205	457.32
421.417	335.84
421.629	378.66
421.842	373.43
422.054	353.28
422.266	405.4
422.479	463.72
422.691	362.39
422.903	386.22
423.115	352.31
423.328	363.16
423.54	396.68
423.752	380.99
423.964	352.7
424.177	379.24
424.389	392.23
424.601	486.58
424.813	421.87
425.025	435.04
425.238	442.79
425.45	378.28
425.662	402.3
425.874	726.63
426.086	379.24
426.298	459.26
426.51	420.32
426.722	416.64
426.934	374.01
427.146	443.37
427.358	363.36
427.57	422.64
427.782	386.99
427.994	390.29
428.206	386.8
428.418	363.94
428.63	445.7
428.842	454.22
429.054	432.14
429.266	429.62
429.478	360.84
429.69	429.62
429.902	347.66
430.114	419.93
430.325	417.61
430.537	372.66
430.749	345.53
430.961	298.45
431.173	319.96
431.384	369.56
431.596	291.09
431.808	371.88
432.02	435.82
432.231	477.28
432.443	542.77
432.655	479.22
432.867	424.97
433.078	462.56
433.29	517.39
433.502	509.25
433.713	510.41
433.925	509.83
434.136	529.4
434.348	439.31
434.56	387.77
434.771	541.22
434.983	391.45
435.194	422.26
435.406	461.2
435.617	530.75
435.829	595.66
436.04	536.76
436.252	532.5
436.463	577.06
436.675	579
436.886	543.93
437.098	585.58
437.309	598.76
437.521	532.89
437.732	535.21
437.943	516.03
438.155	540.44
438.366	476.51
438.578	572.99
438.789	517
439	543.93
439.211	510.41
439.423	509.44
439.634	550.52
439.845	544.9
440.057	531.14
440.268	595.85
440.479	543.15
440.69	584.03
440.902	548.19
441.113	536.76
441.324	530.95
441.535	585.39
441.746	633.63
441.957	556.52
442.168	583.45
442.38	616.2
442.591	649.33
442.802	580.35
443.013	583.84
443.224	652.23
443.435	602.83
443.646	599.92
443.857	585.39
444.068	603.6
444.279	574.35
444.49	705.32
444.701	592.56
444.912	770.42
445.123	646.62
445.334	644.29
445.545	632.86
445.756	609.03
445.967	603.02
446.178	628.6
446.388	670.83
446.599	645.65
446.81	657.27
447.021	622.78
447.232	664.44
447.443	709.2
447.653	614.84
447.864	710.55
448.075	690.21
448.286	714.04
448.496	668.31
448.707	704.16
448.918	628.98
449.129	784.18
449.339	664.05
449.55	683.23
449.761	676.84
449.971	717.14
450.182	702.22
450.393	724.31
450.603	679.94
450.814	769.26
451.024	720.63
451.235	738.26
451.446	775.07
451.656	794.06
451.867	720.24
452.077	753.37
452.288	791.15
452.498	781.66
452.709	716.17
452.919	719.27
453.13	683.62
453.34	742.52
453.55	630.73
453.761	739.03
453.971	705.9
454.182	749.5
454.392	712.68
454.602	811.88
454.813	773.91
455.023	757.44
455.233	672.77
455.444	718.88
455.654	648.55
455.864	737.68
456.075	709.97
456.285	680.71
456.495	722.95
456.705	754.92
456.916	770.61
457.126	810.91
457.336	751.82
457.546	684.2
457.756	701.83
457.967	793.28
458.177	734.58
458.387	758.79
458.597	696.21
458.807	748.14
459.017	718.11
459.227	746.98
459.437	713.46
459.647	763.64
459.857	801.03
460.068	709.58
460.278	800.26
460.488	795.8
460.698	807.62
460.908	756.47
461.117	721.6
461.327	766.16
461.537	770.03
461.747	806.84
461.957	804.13
462.167	883.57
462.377	834.94
462.587	802.97
462.797	830.48
463.007	812.27
463.216	839.59
463.426	875.04
463.636	836.29
463.846	775.07
464.056	781.46
464.265	821.76
464.475	744.26
464.685	811.49
464.895	854.31
465.104	812.08
465.314	855.28
465.524	789.02
465.733	764.41
465.943	840.94
466.153	889.38
466.362	852.57
466.572	838.62
466.782	866.52
466.991	839.2
467.201	897.91
467.41	762.28
467.62	850.44
467.829	823.7
468.039	845.98
468.249	847.14
468.458	850.82
468.668	875.62
468.877	884.15
469.086	904.69
469.296	869.81
469.505	888.22
469.715	969.59
469.924	895.97
470.134	931.04
470.343	946.34
470.552	871.94
470.762	869.62
470.971	853.54
471.18	883.57
471.39	910.69
471.599	835.71
471.808	911.47
472.018	878.53
472.227	964.55
472.436	989.94
472.645	963.39
472.855	952.35
473.064	1040.89
473.273	987.61
473.482	983.74
473.691	1037.4
473.901	1000.98
474.11	955.84
474.319	1091.85
474.528	978.7
474.737	1062.78
474.946	1066.47
475.155	1032.75
475.364	1112
475.573	1053.1
475.783	1061.43
475.992	1096.3
476.201	1128.85
476.41	1057.94
476.619	1011.05
476.828	1055.81
477.037	989.55
477.245	1038.18
477.454	1087.58
477.663	1099.98
477.872	1096.11
478.081	1193.56
478.29	1087.78
478.499	1229.79
478.708	1164.89
478.917	1249.56
479.125	1155.78
479.334	1174.58
479.543	1166.63
479.752	1190.27
479.961	1212.55
480.169	1239.48
480.378	1207.9
480.587	1335.58
480.796	1247.62
481.004	1205.58
481.213	1218.75
481.422	1263.89
481.63	1266.22
481.839	1254.4
482.048	1341.2
482.256	1271.84
482.465	1311.56
482.674	1294.51
482.882	1318.14
483.091	1385.37
483.299	1318.34
483.508	1325.51
483.716	1329.19
483.925	1332.29
484.134	1268.35
484.342	1350.5
484.551	1368.71
484.759	1364.45
484.967	1354.18
485.176	1397.58
485.384	1386.54
485.593	1413.27
485.801	1344.11
486.01	1328.8
486.218	1285.98
486.426	1157.53
486.635	1217.78
486.843	1151.91
487.051	1210.03
487.26	1240.26
487.468	1266.99
487.676	1295.67
487.885	1273.19
488.093	1330.74
488.301	1355.54
488.509	1359.41
488.717	1424.7
488.926	1383.44
489.134	1396.22
489.342	1382.66
489.55	1351.86
489.758	1405.72
489.967	1396.22
490.175	1525.07
490.383	1469.07
490.591	1557.03
490.799	1475.47
491.007	1526.62
491.215	1517.32
491.423	1458.61
491.631	1481.28
491.839	1481.08
492.047	1493.1
492.255	1442.34
492.463	1437.3
492.671	1434
492.879	1501.04
493.087	1479.73
493.295	1463.07
493.503	1545.8
493.711	1553.93
493.919	1600.63
494.127	1564.59
494.334	1579.7
494.542	1518.67
494.75	1574.08
494.958	1560.71
495.166	1623.68
495.374	1613.61
495.581	1612.64
495.789	1606.44
495.997	1659.14
496.205	1566.33
496.412	1576.21
496.62	1589.58
496.828	1618.06
497.035	1602.76
497.243	1642.86
497.451	1617.68
497.658	1635.11
497.866	1632.59
498.074	1709.13
498.281	1593.65
498.489	1735.67
498.696	1601.01
498.904	1576.6
499.112	1574.28
499.319	1675.03
499.527	1642.67
499.734	1674.83
499.942	1587.65
500.149	1614.38
500.357	1658.36
500.564	1606.05
500.771	1656.04
500.979	1603.53
501.186	1584.74
501.394	1621.55
501.601	1580.86
501.808	1615.35
502.016	1555.48
502.223	1605.28
502.43	1601.4
502.638	1618.26
502.845	1621.36
503.052	1731.41
503.26	1641.51
503.467	1719.78
503.674	1707.96
503.881	1710.48
504.089	1726.17
504.296	1726.17
504.503	1624.65
504.71	1625.23
504.917	1619.23
505.125	1670.76
505.332	1695.95
505.539	1708.74
505.746	1787.21
505.953	1760.47
506.16	1759.5
506.367	1777.13
506.574	1838.16
506.781	1855.4
506.988	1796.89
507.195	1792.63
507.402	1768.41
507.609	1792.44
507.816	1750.01
508.023	1713.97
508.23	1735.86
508.437	1662.43
508.644	1724.62
508.851	1786.43
509.058	1795.54
509.265	1787.79
509.472	1810.45
509.679	1888.73
509.885	1761.82
510.092	1798.44
510.299	1802.51
510.506	1751.75
510.713	1795.34
510.92	1807.74
511.126	1806.77
511.333	1855.99
511.54	1870.13
511.746	1874.97
511.953	1905.97
512.16	1938.13
512.367	1847.65
512.573	1819.95
512.78	1838.74
512.987	1846.1
513.193	1793.99
513.4	1715.71
513.606	1807.94
513.813	1822.08
514.02	1816.65
514.226	1862.96
514.433	1853.08
514.639	1768.22
514.846	1819.56
515.052	1772.87
515.259	1839.52
515.465	1842.42
515.672	1833.7
515.878	1872.65
516.085	1830.22
516.291	1904.62
516.497	1844.17
516.704	1852.5
516.91	1804.45
517.117	1708.93
517.323	1623.88
517.529	1670.18
517.736	1656.62
517.942	1623.88
518.148	1688.98
518.354	1724.62
518.561	1732.37
518.767	1717.46
518.973	1792.24
519.179	1789.14
519.386	1775.97
519.592	1768.22
519.798	1762.02
520.004	1948.79
520.21	1867.03
520.417	1900.16
520.623	1931.16
520.829	1939.88
521.035	1976.88
521.241	1966.42
521.447	1949.37
521.653	2097.2
521.859	1967
522.065	1998.2
522.271	2075.89
522.477	2052.25
522.683	2071.04
522.889	2010.6
523.095	2026.29
523.301	2023
523.507	1971.85
523.713	2023.38
523.919	1965.07
524.125	2049.93
524.331	2061.55
524.537	2123.94
524.742	2142.93
524.948	2152.81
525.154	2121.03
525.36	2221.59
525.566	2108.83
525.772	2205.31
525.977	2106.31
526.183	2126.07
526.389	2208.61
526.595	2104.18
526.8	2041.4
527.006	1944.14
527.212	1915.47
527.417	1877.69
527.623	1925.93
527.829	1973.59
528.034	2060
528.24	2049.73
528.446	2054.38
528.651	2183.81
528.857	2161.33
529.062	2217.71
529.268	2208.8
529.473	2236.12
529.679	2226.43
529.884	2319.24
530.09	2262.08
530.295	2295.79
530.501	2249.68
530.706	2260.92
530.912	2210.16
531.117	2260.14
531.323	2303.54
531.528	2312.84
531.733	2366.9
531.939	2278.35
532.144	2352.56
532.35	2291.34
532.555	2335.7
532.76	2311.29
532.966	2307.8
533.171	2285.33
533.376	2198.34
533.581	2173.73
533.787	2233.79
533.992	2276.61
534.197	2312.07
534.402	2264.99
534.607	2309.55
534.813	2424.63
535.018	2299.28
535.223	2293.27
535.428	2334.35
535.633	2364.57
535.838	2381.23
536.043	2349.46
536.249	2478.3
536.454	2380.85
536.659	2441.1
536.864	2353.33
537.069	2346.75
537.274	2372.13
537.479	2351.2
537.684	2407.2
537.889	2322.53
538.094	2467.26
538.299	2369.22
538.504	2407.2
538.708	2363.8
538.913	2448.85
539.118	2442.46
539.323	2444.59
539.528	2344.62
539.733	2368.06
539.938	2376.97
540.142	2411.65
540.347	2339.77
540.552	2341.71
540.757	2332.99
540.962	2342.1
541.166	2244.25
541.371	2236.5
541.576	2295.21
541.781	2249.87
541.985	2405.84
542.19	2371.55
542.395	2462.61
542.599	2494.96
542.804	2421.53
543.008	2471.71
543.213	2391.7
543.418	2360.5
543.622	2430.83
543.827	2346.55
544.031	2464.55
544.236	2425.02
544.44	2486.44
544.645	2509.11
544.849	2411.85
545.054	2492.06
545.258	2549.41
545.463	2505.23
545.667	2427.93
545.872	2486.63
546.076	2475.01
546.281	2443.81
546.485	2447.88
546.689	2472.3
546.894	2511.82
547.098	2485.86
547.302	2465.32
547.507	2471.33
547.711	2471.71
547.915	2520.54
548.119	2391.89
548.324	2432.58
548.528	2536.43
548.732	2433.55
548.936	2512.21
549.141	2522.67
549.345	2490.12
549.549	2473.65
549.753	2503.68
549.957	2538.94
550.161	2579.05
550.366	2520.34
550.57	2490.9
550.774	2525.38
550.978	2526.93
551.182	2533.52
551.386	2474.04
551.59	2482.76
551.794	2478.11
551.998	2498.45
552.202	2503.88
552.406	2470.55
552.61	2509.11
552.814	2493.61
553.018	2546.31
553.222	2507.75
553.426	2475.59
553.63	2558.51
553.833	2473.46
554.037	2458.93
554.241	2510.66
554.445	2499.03
554.649	2535.46
554.853	2481.98
555.056	2527.71
555.26	2580.99
555.464	2511.43
555.668	2540.49
555.871	2536.81
556.075	2566.84
556.279	2469.2
556.483	2456.02
556.686	2470.55
556.89	2494.19
557.094	2479.08
557.297	2408.94
557.501	2505.43
557.704	2381.82
557.908	2489.15
558.112	2390.73
558.315	2522.48
558.519	2418.82
558.722	2437.61
558.926	2388.21
559.129	2297.34
559.333	2331.63
559.536	2313.81
559.74	2311.29
559.943	2294.05
560.147	2296.37
560.35	2323.88
560.553	2298.31
560.757	2307.22
560.96	2386.08
561.164	2356.63
561.367	2407.78
561.57	2348.1
561.774	2367.67
561.977	2354.88
562.18	2326.98
562.384	2425.8
562.587	2319.62
562.79	2327.76
562.993	2349.27
563.197	2355.66
563.4	2416.69
563.603	2421.73
563.806	2447.69
564.009	2360.7
564.212	2357.98
564.416	2268.47
564.619	2305.67
564.822	2254.72
565.025	2346.36
565.228	2329.31
565.431	2297.34
565.634	2233.79
565.837	2282.62
566.04	2236.31
566.243	2237.28
566.446	2161.33
566.649	2244.64
566.852	2166.56
567.055	2212.67
567.258	2259.95
567.461	2281.45
567.664	2264.6
567.867	2177.22
568.07	2223.14
568.273	2236.12
568.475	2303.54
568.678	2199.69
568.881	2227.21
569.084	2172.37
569.287	2073.76
569.489	2123.94
569.692	2170.44
569.895	2183.61
570.098	2139.24
570.3	2144.28
570.503	2059.42
570.706	2106.11
570.909	2073.18
571.111	2009.43
571.314	2030.36
571.516	2051.67
571.719	2073.37
571.922	1986.96
572.124	2059.61
572.327	2070.66
572.529	2006.72
572.732	1973.4
572.935	2077.05
573.137	2129.94
573.34	2039.46
573.542	2097.39
573.745	2095.26
573.947	2048.96
574.15	2030.55
574.352	2049.35
574.554	2112.89
574.757	2016.8
574.959	1971.07
575.162	2014.08
575.364	1998.97
575.566	2104.56
575.769	1970.3
575.971	1983.86
576.173	1896.09
576.376	1982.5
576.578	2021.83
576.78	2056.51
576.982	1959.64
577.185	1994.71
577.387	1917.21
577.589	1938.72
577.791	1978.43
577.993	1988.12
578.196	1955.18
578.398	1954.41
578.6	1979.21
578.802	1892.02
579.004	1892.22
579.206	1939.68
579.408	1920.12
579.61	1877.49
579.812	1966.62
580.014	1869.94
580.216	1847.27
580.418	1910.43
580.62	1881.75
580.822	1874.97
581.024	1938.33
581.226	1962.74
581.428	1926.32
581.63	2025.9
581.832	1902.87
582.034	1988.31
582.236	1923.99
582.438	1957.7
582.64	1942.4
582.841	1965.84
583.043	2031.71
583.245	1959.64
583.447	1945.88
583.649	1885.24
583.85	1934.65
584.052	1948.02
584.254	1873.04
584.456	1979.21
584.657	1871.29
584.859	1937.17
585.061	1884.66
585.262	1868.77
585.464	1857.34
585.666	1910.43
585.867	1864.12
586.069	1965.07
586.27	1893.57
586.472	1862.38
586.674	1849.98
586.875	1849.01
587.077	1838.16
587.278	1881.75
587.48	1874
587.681	1967.58
587.883	1906.75
588.084	1804.25
588.285	1835.06
588.487	1828.86
588.688	1857.54
588.89	1719.78
589.091	1713.19
589.292	1771.51
589.494	1695.76
589.695	1649.06
589.896	1575.63
590.098	1579.7
590.299	1623.68
590.5	1632.98
590.702	1655.65
590.903	1666.5
591.104	1767.44
591.305	1744.58
591.507	1751.75
591.708	1728.31
591.909	1713.39
592.11	1798.06
592.311	1763.76
592.512	1694.98
592.714	1673.67
592.915	1693.43
593.116	1673.86
593.317	1745.94
593.518	1705.64
593.719	1720.56
593.92	1773.64
594.121	1748.65
594.322	1736.25
594.523	1744
594.724	1689.75
594.925	1696.92
595.126	1710.48
595.327	1757.95
595.528	1725.98
595.729	1694.4
595.929	1708.93
596.13	1745.36
596.331	1726.95
596.532	1757.95
596.733	1794.76
596.934	1772.67
597.135	1775.19
597.335	1789.34
597.536	1721.52
597.737	1710.68
597.938	1694.4
598.138	1749.81
598.339	1750.59
598.54	1748.46
598.74	1688.2
598.941	1662.63
599.142	1755.04
599.342	1738.19
599.543	1663.4
599.744	1726.37
599.944	1676.77
600.145	1690.14
600.345	1697.89
600.546	1793.02
600.746	1764.73
600.947	1787.79
601.147	1678.51
601.348	1760.08
601.548	1682.78
601.749	1700.02
601.949	1654.68
602.15	1643.25
602.35	1681.42
602.551	1719.01
602.751	1644.61
602.951	1676.19
603.152	1603.15
603.352	1698.08
603.552	1678.32
603.753	1726.37
603.953	1756.59
604.153	1700.41
604.354	1671.54
604.554	1717.46
604.754	1702.93
604.954	1651.97
605.155	1723.85
605.355	1675.61
605.555	1718.42
605.755	1748.84
605.955	1687.62
606.155	1714.16
606.356	1682.97
606.556	1730.24
606.756	1683.36
606.956	1638.02
607.156	1724.24
607.356	1643.25
607.556	1670.96
607.756	1655.07
607.956	1752.14
608.156	1706.22
608.356	1624.46
608.556	1705.83
608.756	1639.38
608.956	1614
609.156	1638.99
609.356	1613.03
609.556	1630.08
609.755	1636.66
609.955	1571.56
610.155	1637.83
610.355	1645.38
610.555	1582.22
610.755	1598.11
610.954	1489.22
611.154	1582.8
611.354	1611.67
611.554	1580.09
611.753	1560.33
611.953	1538.43
612.153	1591.33
612.352	1588.81
612.552	1525.26
612.752	1477.6
612.951	1564.2
613.151	1567.69
613.351	1524.48
613.55	1549.48
613.75	1537.27
613.949	1525.45
614.149	1543.47
614.348	1525.26
614.548	1475.27
614.747	1497.17
614.947	1496
615.146	1445.24
615.346	1545.02
615.545	1517.32
615.745	1526.81
615.944	1549.09
616.144	1521
616.343	1560.91
616.542	1505.88
616.742	1495.23
616.941	1515.18
617.14	1428.19
617.34	1524.68
617.539	1473.14
617.738	1423.35
617.938	1568.27
618.137	1487.09
618.336	1452.99
618.535	1532.43
618.734	1507.43
618.934	1511.89
619.133	1485.93
619.332	1488.64
619.531	1464.62
619.73	1478.95
619.929	1514.8
620.128	1521.58
620.328	1559.55
620.527	1473.92
620.726	1461.71
620.925	1504.14
621.124	1473.53
621.323	1487.28
621.522	1435.55
621.721	1464.81
621.92	1422.38
622.119	1503.37
622.318	1472.37
622.517	1425.29
622.715	1435.17
622.914	1404.17
623.113	1435.17
623.312	1380.34
623.511	1438.46
623.71	1438.27
623.909	1374.91
624.107	1504.72
624.306	1384.02
624.505	1410.56
624.704	1391.96
624.902	1403
625.101	1454.93
625.3	1441.17
625.499	1387.7
625.697	1380.34
625.896	1364.84
626.095	1414.24
626.293	1350.31
626.492	1395.45
626.69	1427.42
626.889	1382.85
627.088	1398.94
627.286	1362.12
627.485	1360.38
627.683	1382.08
627.882	1396.03
628.08	1326.09
628.279	1371.04
628.477	1420.25
628.676	1334.61
628.874	1380.72
629.073	1302.06
629.271	1303.61
629.469	1362.7
629.668	1348.17
629.866	1317.76
630.065	1332.09
630.263	1379.56
630.461	1308.07
630.66	1322.41
630.858	1326.86
631.056	1370.26
631.254	1367.94
631.453	1318.34
631.651	1342.56
631.849	1324.54
632.047	1318.14
632.245	1289.08
632.444	1328.99
632.642	1339.84
632.84	1358.44
633.038	1290.82
633.236	1276.1
633.434	1294.31
633.632	1294.31
633.83	1279.01
634.028	1343.91
634.227	1308.07
634.425	1393.12
634.623	1308.65
634.821	1319.11
635.019	1289.66
635.216	1290.82
635.414	1357.28
635.612	1306.91
635.81	1299.35
636.008	1367.74
636.206	1283.46
636.404	1305.36
636.602	1268.35
636.8	1292.57
636.997	1293.15
637.195	1334.61
637.393	1292.96
637.591	1366.58
637.789	1292.18
637.986	1278.81
638.184	1294.89
638.382	1348.95
638.58	1316.98
638.777	1371.23
638.975	1297.02
639.173	1270.48
639.37	1295.09
639.568	1284.62
639.765	1320.08
639.963	1260.02
640.161	1334.61
640.358	1304.39
640.556	1201.51
640.753	1248.01
640.951	1210.03
641.148	1268.54
641.346	1248.01
641.543	1227.28
641.741	1275.71
641.938	1166.63
642.136	1235.61
642.333	1201.89
642.531	1290.44
642.728	1298.38
642.925	1266.99
643.123	1198.6
643.32	1241.61
643.517	1209.84
643.715	1242.19
643.912	1192.4
644.109	1231.15
644.306	1237.54
644.504	1208.68
644.701	1221.27
644.898	1252.08
645.095	1181.75
645.293	1195.31
645.49	1250.53
645.687	1240.06
645.884	1241.42
646.081	1167.02
646.278	1195.11
646.475	1189.88
646.672	1203.83
646.87	1212.36
647.067	1195.11
647.264	1215.26
647.461	1118.39
647.658	1108.12
647.855	1188.72
648.052	1155.01
648.249	1071.12
648.446	1134.28
648.642	1155.59
648.839	1119.94
649.036	1115.87
649.233	1106.18
649.43	1107.35
649.627	1093.2
649.824	1074.6
650.021	1067.05
650.217	1085.84
650.414	1094.56
650.611	1131.18
650.808	1143.96
651.004	1132.34
651.201	1114.32
651.398	1196.86
651.595	1119.75
651.791	1105.41
651.988	1143
652.185	1112.38
652.381	1161.21
652.578	1061.62
652.775	1098.43
652.971	1118.58
653.168	1089.72
653.364	1176.71
653.561	1062.78
653.757	1126.33
653.954	1135.25
654.15	1092.23
654.347	1164.89
654.543	1089.33
654.74	1045.73
654.936	1053.48
655.133	1052.52
655.329	1124.01
655.525	1062.01
655.722	1104.25
655.918	1062.78
656.115	1047.87
656.311	962.62
656.507	946.73
656.704	895.97
656.9	935.88
657.096	938.59
657.292	938.98
657.489	987.61
657.685	1009.12
657.881	977.34
658.077	1011.64
658.273	1030.04
658.47	1102.89
658.666	1028.68
658.862	1084.48
659.058	1031.2
659.254	1074.41
659.45	1038.18
659.646	1061.82
659.842	1047.87
660.038	1134.47
660.234	1055.62
660.43	1062.01
660.626	1146.87
660.822	1084.48
661.018	1132.73
661.214	1100.95
661.41	1049.8
661.606	1126.53
661.802	1150.36
661.998	1059.88
662.194	1045.54
662.39	1099.02
662.586	1102.11
662.781	1114.13
662.977	1087
663.173	1110.83
663.369	1071.89
663.564	1057.94
663.76	1096.5
663.956	1038.18
664.152	1098.05
664.347	976.76
664.543	1043.99
664.739	1017.45
664.934	1021.13
665.13	1005.05
665.326	1081.38
665.521	1081.38
665.717	1009.31
665.912	1025
666.108	975.6
666.304	1041.67
666.499	1030.82
666.695	963.59
666.89	1056.78
667.086	1083.52
667.281	1064.14
667.477	1105.02
667.672	1056.39
667.867	1034.69
668.063	1066.08
668.258	980.83
668.454	999.24
668.649	1109.48
668.844	1015.32
669.04	1062.2
669.235	998.07
669.43	1014.73
669.626	994
669.821	999.24
670.016	970.37
670.211	1019
670.407	975.02
670.602	1014.73
670.797	1015.32
670.992	1051.74
671.187	978.5
671.382	1061.43
671.578	965.91
671.773	1025.2
671.968	960.29
672.163	1001.75
672.358	1007.76
672.553	969.2
672.748	1002.34
672.943	1043.22
673.138	1000.98
673.333	1017.83
673.528	965.91
673.723	1002.72
673.918	990.9
674.113	933.94
674.308	1089.13
674.503	1013.18
674.698	1033.33
674.892	1022.1
675.087	1032.95
675.282	989.74
675.477	981.02
675.672	1004.08
675.867	983.35
676.061	945.37
676.256	940.53
676.451	992.65
676.646	983.54
676.84	964.94
677.035	933.36
677.23	926.39
677.424	1008.73
677.619	991.68
677.814	1025.2
678.008	1010.86
678.203	917.86
678.397	965.91
678.592	980.05
678.787	1044.57
678.981	929.1
679.176	986.64
679.37	958.74
679.565	926
679.759	949.83
679.954	995.75
680.148	1022.48
680.342	999.43
680.537	961.07
680.731	958.74
680.926	983.35
681.12	999.04
681.314	991.29
681.509	950.41
681.703	973.85
681.897	973.66
682.092	933.94
682.286	942.27
682.48	1039.92
682.674	971.53
682.869	951.19
683.063	979.28
683.257	1028.49
683.451	964.17
683.645	962.04
683.839	944.4
684.034	951.77
684.228	953.12
684.422	897.91
684.616	886.28
684.81	958.94
685.004	941.5
685.198	968.24
685.392	975.02
685.586	922.32
685.78	942.47
685.974	954.87
686.168	952.74
686.362	985.67
686.556	888.8
686.75	851.41
686.944	852.57
687.138	868.07
687.331	765.58
687.525	785.92
687.719	733.41
687.913	788.83
688.107	791.34
688.301	757.63
688.494	800.64
688.688	761.12
688.882	769.26
689.076	720.82
689.269	782.63
689.463	858.96
689.657	786.5
689.85	796.19
690.044	812.85
690.238	803.74
690.431	796.58
690.625	811.69
690.818	837.65
691.012	853.15
691.205	895.39
691.399	794.25
691.593	845.01
691.786	880.08
691.98	891.51
692.173	914.18
692.366	912.24
692.56	898.1
692.753	955.84
692.947	868.84
693.14	956.42
693.333	935.1
693.527	864
693.72	913.6
693.914	894.22
694.107	908.37
694.3	914.18
694.493	879.89
694.687	946.73
694.88	862.64
695.073	985.67
695.266	940.14
695.46	908.37
695.653	972.3
695.846	966.49
696.039	855.09
696.232	916.51
696.425	956.22
696.618	978.5
696.812	976.57
697.005	1021.71
697.198	1096.69
697.391	1026.75
697.584	1067.43
697.777	1081.77
697.97	1068.21
698.163	1056.2
698.356	1068.6
698.549	1152.68
698.742	1098.24
698.935	1078.09
699.127	1086.62
699.32	1045.15
699.513	1055.62
699.706	1074.99
699.899	1107.35
700.092	1088.55
700.285	1085.26
700.477	1033.14
700.67	1126.33
700.863	1162.37
701.056	1232.7
701.248	1196.28
701.441	1210.61
701.634	1175.16
701.826	1312.91
702.019	1151.52
702.212	1250.91
702.404	1205.19
702.597	1202.86
702.79	1175.74
702.982	1230.57
703.175	1260.41
703.367	1311.56
703.56	1309.42
703.752	1408.62
703.945	1309.42
704.137	1317.37
704.33	1363.29
704.522	1377.04
704.715	1392.54
704.907	1410.37
705.1	1457.83
705.292	1418.31
705.484	1409.59
705.677	1524.68
705.869	1454.93
706.061	1508.21
706.254	1540.18
706.446	1532.43
706.638	1505.11
706.831	1589.78
707.023	1534.95
707.215	1618.84
707.407	1616.51
707.599	1610.31
707.792	1673.09
707.984	1652.16
708.176	1714.55
708.368	1660.3
708.56	1719.78
708.752	1737.8
708.944	1674.83
709.136	1773.84
709.329	1727.72
709.521	1813.75
709.713	1798.06
709.905	1815.3
710.097	1880.4
710.289	1816.46
710.481	1830.22
710.672	1867.8
710.864	1873.23
711.056	1914.3
711.248	1932.71
711.44	1928.45
711.632	1941.82
711.824	1929.22
712.016	2016.99
712.207	2016.21
712.399	2032.1
712.591	2124.33
712.783	2073.76
712.975	2065.43
713.166	2072.21
713.358	2055.16
713.55	2153.77
713.741	2143.89
713.933	2153.97
714.125	2122.39
714.316	2120.84
714.508	2203.96
714.7	2248.13
714.891	2201.63
715.083	2247.35
715.274	2231.27
715.466	2246.58
715.657	2303.15
715.849	2193.3
716.04	2276.22
716.232	2232.24
716.423	2292.89
716.615	2238.44
716.806	2194.85
716.998	2181.87
717.189	2128.59
717.381	2056.32
717.572	2012.34
717.763	2064.65
717.955	2029
718.146	2027.45
718.337	1985.21
718.528	1964.87
718.72	1860.83
718.911	1938.13
719.102	1903.26
719.293	1981.34
719.485	1990.45
719.676	1975.14
719.867	1903.07
720.058	1942.59
720.249	1930.38
720.44	1967.39
720.632	1980.56
720.823	2040.82
721.014	2156.68
721.205	2164.43
721.396	2241.15
721.587	2343.84
721.778	2389.18
721.969	2432.77
722.16	2505.81
722.351	2480.82
722.542	2616.06
722.733	2633.69
722.924	2550.96
723.115	2628.26
723.305	2609.08
723.496	2607.14
723.687	2498.26
723.878	2534.1
724.069	2542.04
724.26	2551.93
724.45	2456.99
724.641	2466.87
724.832	2551.73
725.023	2480.82
725.213	2503.1
725.404	2487.21
725.595	2523.83
725.785	2466.1
725.976	2567.62
726.167	2530.61
726.357	2544.76
726.548	2690.65
726.739	2551.34
726.929	2709.83
727.12	2702.08
727.31	2706.54
727.501	2624.77
727.691	2668.37
727.882	2702.27
728.072	2728.24
728.263	2747.8
728.453	2774.73
728.644	2828.02
728.834	2791.2
729.024	2792.95
729.215	2781.32
729.405	2785.2
729.596	2856.11
729.786	2885.75
729.976	2923.15
730.167	2872.77
730.357	2888.66
730.547	2872.58
730.737	2956.47
730.928	3013.82
731.118	3025.64
731.308	2956.08
731.498	2960.73
731.688	3089.77
731.879	3085.7
732.069	3134.52
732.259	3120.96
732.449	3168.62
732.639	3255.03
732.829	3277.32
733.019	3333.7
733.209	3387.17
733.399	3365.66
733.589	3468.35
733.779	3459.24
733.969	3471.06
734.159	3555.73
734.349	3578.2
734.539	3620.64
734.729	3607.07
734.919	3652.99
735.109	3683.6
735.299	3608.82
735.488	3671.98
735.678	3659.97
735.868	3672.56
736.058	3706.66
736.248	3664.42
736.437	3598.94
736.627	3591.77
736.817	3776.99
737.007	3674.88
737.196	3761.49
737.386	3744.83
737.576	3692.52
737.765	3836.08
737.955	3785.9
738.144	3902.54
738.334	3803.92
738.524	3809.54
738.713	3813.41
738.903	3783
739.092	3850.61
739.282	3866.69
739.471	3909.71
739.661	3851
739.85	3900.6
740.04	3887.23
740.229	3927.53
740.419	3959.69
740.608	3979.65
740.797	3920.56
740.987	4013.94
741.176	3934.31
741.365	3897.89
741.555	3891.69
741.744	3986.43
741.933	3944.58
742.123	3952.14
742.312	4009.49
742.501	4022.27
742.69	4068.77
742.88	3949.04
743.069	4084.66
743.258	4037
743.447	4113.92
743.636	4086.98
743.825	4054.44
744.014	4105.78
744.204	4164.1
744.393	4094.54
744.582	4173.98
744.771	4158.09
744.96	4114.11
745.149	4148.6
745.338	4125.73
745.527	4157.32
745.716	4119.73
745.905	4118.95
746.094	4235.59
746.283	4185.02
746.471	4166.23
746.66	4252.25
746.849	4203.62
747.038	4249.34
747.227	4177.27
747.416	4219.51
747.604	4137.94
747.793	4209.43
747.982	4229.97
748.171	4252.83
748.359	4241.98
748.548	4211.56
748.737	4191.22
748.926	4201.88
749.114	4056.57
749.303	4166.23
749.491	4163.51
749.68	4106.55
749.869	4191.03
750.057	4143.37
750.246	4123.8
750.434	4156.54
750.623	4156.73
750.811	4100.93
751	4149.37
751.188	4135.62
751.377	4161.58
751.565	4123.8
751.754	4120.12
751.942	4060.64
752.131	4164.1
752.319	4074
752.507	4068
752.696	4111.98
752.884	4144.72
753.072	4066.25
753.261	4111.01
753.449	4091.05
753.637	4090.08
753.825	4165.65
754.014	4121.08
754.202	4068
754.39	4127.48
754.578	4094.35
754.766	4085.63
754.955	4055.6
755.143	4171.26
755.331	4093.77
755.519	4052.69
755.707	4070.32
755.895	4111.4
756.083	4041.45
756.271	4028.09
756.459	4023.05
756.647	4033.12
756.835	4031.77
757.023	4003.87
757.211	4029.44
757.399	4001.15
757.587	3998.83
757.775	3962.79
757.963	3975.39
758.151	4010.84
758.339	3916.49
758.526	3958.92
758.714	3977.71
758.902	3927.14
759.09	3788.81
759.278	3650.47
759.465	3425.53
759.653	3083.57
759.841	2844.1
760.028	2489.93
760.216	2184
760.404	2102.24
760.591	1736.44
760.779	1553.74
760.967	1386.34
761.154	1228.63
761.342	1279.78
761.529	1283.46
761.717	1342.36
761.905	1353.99
762.092	1492.52
762.28	1429.94
762.467	1488.64
762.655	1396.8
762.842	1485.93
763.029	1480.12
763.217	1512.86
763.404	1517.32
763.592	1579.7
763.779	1527.58
763.966	1576.41
764.154	1632.4
764.341	1660.3
764.528	1699.83
764.716	1745.94
764.903	1843.59
765.09	1875.75
765.277	1931.16
765.465	2107.28
765.652	2117.16
765.839	2215.19
766.026	2296.95
766.213	2363.6
766.4	2500.97
766.588	2613.15
766.775	2640.86
766.962	2754.59
767.149	2812.52
767.336	2986.31
767.523	2925.66
767.71	3035.32
767.897	3148.47
768.084	3230.43
768.271	3260.07
768.458	3304.83
768.645	3396.66
768.832	3341.06
769.019	3325.95
769.206	3374.38
769.392	3465.06
769.579	3559.41
769.766	3502.64
769.953	3492.57
770.14	3526.86
770.327	3509.23
770.513	3599.32
770.7	3642.92
770.887	3568.71
771.073	3548.56
771.26	3564.06
771.447	3523.76
771.634	3522.6
771.82	3637.49
772.007	3523.37
772.193	3583.05
772.38	3617.73
772.567	3583.82
772.753	3528.61
772.94	3626.25
773.126	3607.07
773.313	3616.76
773.499	3573.17
773.686	3570.65
773.872	3526.67
774.059	3576.65
774.245	3489.08
774.432	3534.42
774.618	3426.89
774.804	3520.27
774.991	3452.46
775.177	3549.14
775.363	3490.44
775.55	3558.44
775.736	3477.46
775.922	3472.22
776.109	3499.54
776.295	3465.44
776.481	3449.17
776.667	3511.17
776.853	3485.79
777.04	3485.98
777.226	3437.54
777.412	3512.91
777.598	3436.38
777.784	3450.72
777.97	3393.56
778.156	3433.67
778.342	3417.2
778.528	3338.73
778.715	3318.39
778.901	3393.18
779.087	3406.35
779.272	3316.06
779.458	3314.32
779.644	3349
779.83	3347.65
780.016	3450.33
780.202	3357.72
780.388	3350.75
780.574	3264.14
780.76	3280.61
780.946	3375.74
781.131	3325.95
781.317	3259.68
781.503	3239.53
781.689	3280.61
781.874	3397.24
782.06	3254.65
782.246	3264.33
782.432	3259.88
782.617	3299.01
782.803	3336.6
782.989	3131.81
783.174	3198.65
783.36	3177.54
783.545	3171.53
783.731	3184.51
783.916	3117.28
784.102	3229.46
784.288	3198.65
784.473	3154.29
784.659	3121.15
784.844	3185.67
785.029	3111.08
785.215	3112.63
785.4	3103.52
785.586	3187.03
785.771	3072.52
785.956	3170.17
786.142	3106.24
786.327	3110.89
786.512	3131.23
786.698	3120.77
786.883	3020.41
787.068	3061.87
787.254	3114.76
787.439	3055.67
787.624	3041.72
787.809	3019.63
787.994	2999.87
788.18	3067.29
788.365	2975.84
788.55	3013.04
788.735	2952.98
788.92	2978.94
789.105	2999.09
789.29	2999.68
789.475	2911.33
789.66	2948.91
789.845	2905.32
790.03	2890.4
790.215	2994.44
790.4	2969.45
790.585	3016.92
790.77	2915.78
790.955	2847.97
791.14	2891.56
791.325	2968.48
791.51	2802.83
791.695	2904.74
791.879	2928.96
792.064	2834.6
792.249	2916.75
792.434	2896.21
792.618	2854.75
792.803	2925.28
792.988	2860.56
793.173	2855.91
793.357	2920.43
793.542	2816.58
793.727	2855.72
793.911	2894.08
794.096	2819.88
794.281	2894.08
794.465	2993.28
794.65	2865.8
794.834	2940.39
795.019	2937.09
795.203	2956.08
795.388	2939.61
795.572	2967.71
795.757	2931.09
795.941	2954.34
796.126	2938.84
796.31	2902.8
796.494	2919.27
796.679	2892.34
796.863	2889.24
797.048	2999.29
797.232	2965.19
797.416	2934
797.601	2960.73
797.785	2974.29
797.969	2981.46
798.153	2932.06
798.338	2974.88
798.522	2970.61
798.706	2965.38
798.89	2974.68
799.074	3072.52
799.258	3023.31
799.443	2981.85
799.627	2990.38
799.811	3014.21
799.995	2926.44
800.179	2948.33
800.363	2917.14
800.547	2958.02
800.731	2994.64
800.915	2890.01
801.099	2888.27
801.283	2930.31
801.467	2927.41
801.651	2914.62
801.835	2991.73
802.019	2925.47
802.202	2967.13
802.386	2915.01
802.57	2907.45
802.754	2905.51
802.938	2886.33
803.121	2876.45
803.305	2942.52
803.489	2921.98
803.673	2928.76
803.856	2971.58
804.04	2949.69
804.224	2930.12
804.407	2938.64
804.591	2917.72
804.775	2894.86
804.958	2943.49
805.142	3010.14
805.326	2944.65
805.509	2906.87
805.693	2939.61
805.876	2909.97
806.06	2915.59
806.243	2957.24
806.427	2980.69
806.61	3021.18
806.794	2933.8
806.977	2953.56
807.16	2947.75
807.344	2936.32
807.527	2945.43
807.71	2900.86
807.894	2909.39
808.077	2945.62
808.26	2872.38
808.444	2872.58
808.627	2982.43
808.81	2888.08
808.993	2786.36
809.177	2808.83
809.36	2807.67
809.543	2842.55
809.726	2736.18
809.909	2777.06
810.092	2774.35
810.276	2754.2
810.459	2809.22
810.642	2734.82
810.825	2708.86
811.008	2739.67
811.191	2621.29
811.374	2658.87
811.557	2714.48
811.74	2751.29
811.923	2613.54
812.106	2630.97
812.289	2612.37
812.472	2578.08
812.654	2627.68
812.837	2575.56
813.02	2528.29
813.203	2500.19
813.386	2426.38
813.569	2410.68
813.751	2331.05
813.934	2375.03
814.117	2344.42
814.3	2303.93
814.482	2262.66
814.665	2233.21
814.848	2177.02
815.03	2115.22
815.213	2134.01
815.396	2132.08
815.578	2066.98
815.761	2064.46
815.943	2130.14
816.126	2005.56
816.309	2008.27
816.491	1936.97
816.674	1891.25
816.856	1942.59
817.039	1900.16
817.221	2014.28
817.403	1922.05
817.586	1908.3
817.768	1963.32
817.951	1872.26
818.133	1875.17
818.315	1902.29
818.498	1929.42
818.68	2002.26
818.862	1980.37
819.045	2003.62
819.227	1988.7
819.409	1963.9
819.591	2004.78
819.774	1942.4
819.956	1923.22
820.138	1987.35
820.32	1981.34
820.502	2008.27
820.684	2076.66
820.866	2086.16
821.048	2117.35
821.231	2120.64
821.413	2145.25
821.595	2097.98
821.777	2127.23
821.959	2136.53
822.141	2152.03
822.323	2093.13
822.505	1988.9
822.686	1965.07
822.868	1922.63
823.05	1749.81
823.232	1729.86
823.414	1678.51
823.596	1747.68
823.778	1724.24
823.96	1753.88
824.141	1758.53
824.323	1768.41
824.505	1824.21
824.687	1900.16
824.868	1943.56
825.05	2007.88
825.232	2044.7
825.413	2123.74
825.595	2071.24
825.777	1999.16
825.958	2067.17
826.14	2051.28
826.321	2062.71
826.503	2039.08
826.685	2081.89
826.866	2107.28
827.048	2074.73
827.229	2054.19
827.411	2014.28
827.592	1944.72
827.773	1949.76
827.955	1902.87
828.136	1927.87
828.318	1846.49
828.499	1916.43
828.68	1872.26
828.862	1921.28
829.043	1911.59
829.224	1883.3
829.406	1822.47
829.587	1869.94
829.768	1837.77
829.949	1857.73
830.131	1855.6
830.312	1930.58
830.493	1845.52
830.674	1897.64
830.855	1828.67
831.036	1873.23
831.218	1917.98
831.399	1945.69
831.58	1858.7
831.761	1881.56
831.942	1882.34
832.123	1858.7
832.304	1801.74
832.485	1818.59
832.666	1820.34
832.847	1871.29
833.028	1842.42
833.209	1868.39
833.389	1818.2
833.57	1792.44
833.751	1818.01
833.932	1863.54
834.113	1825.95
834.294	1801.35
834.475	1832.74
834.655	1880.79
834.836	1913.53
835.017	1882.34
835.198	1799.41
835.378	1891.44
835.559	1928.83
835.74	1849.2
835.92	1854.44
836.101	1842.62
836.281	1920.89
836.462	1878.85
836.643	1867.03
836.823	1942.78
837.004	1905.58
837.184	1966.23
837.365	1921.67
837.545	1901.9
837.726	1867.42
837.906	1945.69
838.087	1885.82
838.267	1889.12
838.448	1855.21
838.628	1909.07
838.808	1881.95
838.989	1983.66
839.169	1839.13
839.349	1923.22
839.53	1929.42
839.71	1918.76
839.89	1881.56
840.07	1975.33
840.251	1861.22
840.431	1932.13
840.611	1870.52
840.791	1862.57
840.971	1841.07
841.151	1858.89
841.332	1831.19
841.512	1905.2
841.692	1830.22
841.872	1861.99
842.052	1867.22
842.232	1902.29
842.412	1777.71
842.592	1825.57
842.772	1842.04
842.952	1858.31
843.132	1828.47
843.312	1814.14
843.492	1786.43
843.672	1808.32
843.851	1735.47
844.031	1794.37
844.211	1779.65
844.391	1760.66
844.571	1787.79
844.751	1821.5
844.93	1831.77
845.11	1759.69
845.29	1789.92
845.47	1835.06
845.649	1777.91
845.829	1827.31
846.009	1753.11
846.188	1820.14
846.368	1783.14
846.547	1778.49
846.727	1831.19
846.907	1737.99
847.086	1792.44
847.266	1832.15
847.445	1748.26
847.625	1773.64
847.804	1741.09
847.984	1740.51
848.163	1754.27
848.343	1748.46
848.522	1737.99
848.701	1759.31
848.881	1702.15
849.06	1712.22
849.239	1716.87
849.419	1739.35
849.598	1663.98
849.777	1642.09
849.957	1635.11
850.136	1589.58
850.315	1563.23
850.494	1569.24
850.674	1591.33
850.853	1608.38
851.032	1617.48
851.211	1661.85
851.39	1621.55
851.569	1574.66
851.748	1592.68
851.927	1636.47
852.107	1610.51
852.286	1575.25
852.465	1556.45
852.644	1650.03
852.823	1633.56
853.002	1618.06
853.181	1640.93
853.359	1610.12
853.538	1575.83
853.717	1641.12
853.896	1528.75
854.075	1466.75
854.254	1443.69
854.433	1376.85
854.611	1432.07
854.79	1314.27
854.969	1415.02
855.148	1439.62
855.327	1378.4
855.505	1423.15
855.684	1422.77
855.863	1448.73
856.041	1398.35
856.22	1469.46
856.399	1449.89
856.577	1604.7
856.756	1524.68
856.934	1634.14
857.113	1630.85
857.291	1552.58
857.47	1504.72
857.648	1536.69
857.827	1536.88
858.005	1569.24
858.184	1501.04
858.362	1608.96
858.541	1523.52
858.719	1527.97
858.898	1515.77
859.076	1522.74
859.254	1571.95
859.433	1487.28
859.611	1482.44
859.789	1454.15
859.967	1554.32
860.146	1541.73
860.324	1472.17
860.502	1482.44
860.68	1444.08
860.859	1440.2
861.037	1482.83
861.215	1493.48
861.393	1453.18
861.571	1474.5
861.749	1446.79
861.927	1492.9
862.105	1512.86
862.283	1447.37
862.461	1417.92
862.639	1416.95
862.817	1469.27
862.995	1450.86
863.173	1421.6
863.351	1434.39
863.529	1421.8
863.707	1467.52
863.885	1483.02
864.063	1376.46
864.241	1420.05
864.418	1440.98
864.596	1420.25
864.774	1372
864.952	1382.27
865.129	1437.88
865.307	1363.87
865.485	1341.39
865.663	1399.52
865.84	1305.74
866.018	1352.05
866.196	1206.54
866.373	1251.11
866.551	1207.32
866.728	1136.8
866.906	1201.31
867.084	1207.13
867.261	1259.44
867.439	1314.07
867.616	1308.46
867.794	1278.23
867.971	1292.76
868.149	1305.74
868.326	1353.02
868.503	1309.04
868.681	1312.14
868.858	1307.29
869.035	1235.61
869.213	1328.02
869.39	1251.49
869.567	1359.41
869.745	1256.73
869.922	1291.02
870.099	1300.9
870.276	1359.02
870.454	1314.66
870.631	1317.56
870.808	1296.83
870.985	1341.39
871.162	1373.55
871.339	1297.41
871.517	1271.64
871.694	1242.97
871.871	1271.45
872.048	1284.62
872.225	1260.6
872.402	1287.34
872.579	1215.07
872.756	1297.41
872.933	1230.18
873.11	1238.51
873.287	1271.06
873.463	1215.07
873.64	1212.94
873.817	1260.99
873.994	1235.8
874.171	1183.88
874.348	1224.95
874.524	1195.11
874.701	1228.63
874.878	1155.98
875.055	1243.74
875.231	1217.39
875.408	1251.69
875.585	1182.33
875.762	1206.35
875.938	1172.06
876.115	1179.42
876.291	1191.63
876.468	1183.68
876.645	1154.04
876.821	1151.52
876.998	1173.61
877.174	1177.29
877.351	1171.48
877.527	1154.81
877.704	1176.51
877.88	1169.73
878.057	1167.21
878.233	1204.41
878.409	1128.85
878.586	1180.2
878.762	1111.41
878.938	1137.96
879.115	1075.38
879.291	1122.65
879.467	1075.18
879.644	1090.68
879.82	1151.52
879.996	1113.55
880.172	1063.37
880.349	1140.86
880.525	1120.52
880.701	1074.41
880.877	1049.03
881.053	1121.49
881.229	1074.02
881.405	1127.5
881.581	1046.32
881.757	1119.36
881.933	1099.02
882.109	1130.79
882.285	1108.9
882.461	1056.97
882.637	1078.09
882.813	1027.91
882.989	1076.35
883.165	1136.21
883.341	1052.13
883.517	1125.95
883.693	1101.15
883.869	1106.76
884.044	1072.08
884.22	1113.93
884.396	1175.35
884.572	1099.21
884.747	1141.64
884.923	1092.62
885.099	1112.19
885.275	1135.25
885.45	1063.37
885.626	1070.73
885.801	1038.76
885.977	1099.79
886.153	1039.34
886.328	1087.2
886.504	1078.48
886.679	1130.79
886.855	1028.1
887.03	1130.01
887.206	1108.51
887.381	1062.98
887.557	1106.57
887.732	1108.31
887.908	1133.5
888.083	1102.5
888.258	1099.79
888.434	1057.94
888.609	1074.41
888.784	1134.86
888.96	1087.2
889.135	1063.17
889.31	1054.65
889.485	1073.83
889.661	1054.45
889.836	1145.51
890.011	1108.31
890.186	1056.39
890.361	1070.34
890.537	1084.68
890.712	1072.47
890.887	1100.95
891.062	1070.92
891.237	1150.94
891.412	1043.8
891.587	1109.28
891.762	1129.24
891.937	1125.95
892.112	1041.67
892.287	1076.54
892.462	1056.2
892.637	1006.6
892.812	999.24
892.987	1005.63
893.161	1003.3
893.336	1045.35
893.511	1064.33
893.686	1003.11
893.861	1007.57
894.035	1035.47
894.21	1003.3
894.385	974.24
894.56	989.55
894.734	930.84
894.909	942.66
895.084	955.45
895.258	909.34
895.433	973.85
895.608	932.39
895.782	880.08
895.957	920.57
896.131	892.09
896.306	851.02
896.48	846.56
896.655	819.83
896.829	744.26
897.004	760.93
897.178	800.64
897.353	765.19
897.527	826.8
897.701	802.39
897.876	750.85
898.05	854.31
898.224	804.13
898.399	852.76
898.573	783.98
898.747	691.18
898.921	724.7
899.096	646.62
899.27	670.64
899.444	665.6
899.618	674.9
899.792	690.79
899.967	690.21
900.141	748.33
900.315	660.76
900.489	677.23
900.663	688.08
900.837	673.93
901.011	650.49
901.185	715.01
901.359	687.5
901.533	718.69
901.707	699.12
901.881	728.18
902.055	656.3
902.229	678.97
902.403	721.79
902.576	676.06
902.75	695.44
902.924	790.76
903.098	766.93
903.272	812.08
903.446	822.34
903.619	781.27
903.793	832.23
903.967	790.38
904.14	855.47
904.314	853.15
904.488	843.46
904.661	859.54
904.835	807.62
905.009	885.31
905.182	889.38
905.356	853.34
905.529	838.23
905.703	795.99
905.876	823.89
906.05	797.54
906.223	800.45
906.397	704.16
906.57	693.89
906.744	677.81
906.917	669.48
907.09	688.66
907.264	698.15
907.437	645.26
907.61	640.61
907.784	634.22
907.957	671.41
908.13	641.38
908.304	698.35
908.477	613.29
908.65	629.18
908.823	603.8
908.996	683.62
909.17	655.33
909.343	595.08
909.516	620.46
909.689	610
909.862	597.21
910.035	593.92
910.208	568.15
910.381	598.18
910.554	681.1
910.727	576.09
910.9	558.65
911.073	573.77
911.246	684.59
911.419	662.31
911.592	659.21
911.765	603.99
911.938	596.82
912.11	580.74
912.283	625.88
912.456	641.97
912.629	612.32
912.802	581.9
912.974	538.5
913.147	509.83
913.32	455.77
913.493	525.91
913.665	531.14
913.838	538.12
914.01	536.76
914.183	549.74
914.356	537.54
914.528	600.89
914.701	613.1
914.873	605.73
915.046	552.65
915.218	502.47
915.391	454.81
915.563	454.22
915.736	503.82
915.908	539.67
916.081	521.45
916.253	506.34
916.425	544.32
916.598	543.93
916.77	554.2
916.942	476.89
917.115	443.57
917.287	529.2
917.459	508.86
917.632	485.81
917.804	409.66
917.976	514.29
918.148	493.17
918.32	495.1
918.493	566.79
918.665	564.27
918.837	533.08
919.009	580.35
919.181	578.03
919.353	546.45
919.525	546.25
919.697	510.02
919.869	515.25
920.041	588.49
920.213	655.72
920.385	583.26
920.557	545.48
920.729	565.44
920.901	548.77
921.073	540.05
921.244	523.78
921.416	579.77
921.588	545.48
921.76	519.32
921.932	607.28
922.103	510.99
922.275	519.9
922.447	558.65
922.619	490.26
922.79	545.29
922.962	519.52
923.134	548.97
923.305	494.14
923.477	487.36
923.648	479.61
923.82	502.66
923.991	431.36
924.163	434.66
924.335	486.77
924.506	439.5
924.677	522.81
924.849	449.57
925.02	474.96
925.192	493.75
925.363	484.45
925.535	501.3
925.706	462.36
925.877	509.64
926.049	446.67
926.22	469.53
926.391	473.02
926.562	512.54
926.734	432.91
926.905	516.03
927.076	432.91
927.247	419.35
927.419	426.32
927.59	405.4
927.761	399.01
927.932	400.75
928.103	396.1
928.274	357.35
928.445	336.23
928.616	379.44
928.787	330.42
928.958	390.29
929.129	338.36
929.3	359.29
929.471	301.55
929.642	263.19
929.813	232.58
929.984	306.01
930.155	232
930.326	268.61
930.496	262.61
930.667	185.69
930.838	230.45
931.009	188.4
931.18	192.08
931.35	227.15
931.521	226.96
931.692	185.3
931.863	122.92
932.033	203.32
932.204	175.81
932.374	198.87
932.545	115.75
932.716	153.72
932.886	182.59
933.057	85.14
933.227	93.47
933.398	187.24
933.568	71.38
933.739	74.67
933.909	60.72
934.08	130.28
934.25	46.97
934.421	73.9
934.591	120.79
934.761	63.05
934.932	35.15
935.102	124.66
935.272	64.6
935.443	56.85
935.613	79.13
935.783	81.07
935.953	44.06
936.123	248.08
936.294	58.59
936.464	83.78
936.634	81.07
936.804	48.52
936.974	2.21
937.144	100.05
937.314	68.86
937.484	76.61
937.655	46.77
937.825	124.47
937.995	53.75
938.165	121.75
938.334	77
938.504	98.31
938.674	77.97
938.844	83
939.014	152.75
939.184	129.12
939.354	180.46
939.524	202.55
939.694	134.54
939.863	140.35
940.033	222.5
940.203	193.63
940.373	135.32
940.542	198.09
940.712	138.61
940.882	169.42
941.051	180.07
941.221	162.05
941.391	170.38
941.56	125.82
941.73	124.08
941.899	221.92
942.069	123.5
942.238	169.42
942.408	107.8
942.577	165.35
942.747	95.6
942.916	55.49
943.086	119.24
943.255	165.35
943.425	130.28
943.594	72.74
943.763	34.76
943.933	52.59
944.102	38.44
944.271	85.72
944.441	107.03
944.61	99.67
944.779	131.25
944.948	196.73
945.117	88.24
945.287	95.79
945.456	51.62
945.625	64.02
945.794	109.74
945.963	87.65
946.132	101.02
946.301	95.4
946.47	130.47
946.639	57.43
946.808	71.38
946.977	93.47
947.146	154.69
947.315	84.17
947.484	119.43
947.653	78.55
947.822	83.2
947.991	60.34
948.16	169.22
948.329	151.59
948.498	106.84
948.666	109.55
948.835	133.19
949.004	67.31
949.173	57.62
949.341	103.74
949.51	109.35
949.679	126.02
949.847	109.94
950.016	181.04
950.185	179.68
950.353	87.07
950.522	97.34
950.69	131.25
950.859	67.89
951.028	167.09
951.196	137.64
951.365	85.14
951.533	108
951.701	136.67
951.87	138.42
952.038	63.82
952.207	88.04
952.375	154.69
952.543	86.69
952.712	85.33
952.88	41.16
953.048	149.27
953.217	108.77
953.385	94.05
953.553	156.63
953.721	64.4
953.89	97.54
954.058	34.57
954.226	60.14
954.394	113.23
954.562	33.21
954.73	108.97
954.898	78.16
955.067	134.35
955.235	57.24
955.403	132.41
955.571	164.57
955.739	103.93
955.907	83.59
956.075	84.55
956.243	64.79
956.41	111.29
956.578	62.47
956.746	67.7
956.914	80.49
957.082	114.2
957.25	104.32
957.418	56.85
957.585	123.69
957.753	159.73
957.921	72.93
958.089	101.02
958.256	118.46
958.424	117.49
958.592	125.82
958.759	68.67
958.927	114.97
959.095	73.32
959.262	108.97
959.43	70.41
959.597	53.17
959.765	84.36
959.932	90.37
960.1	136.67
960.267	75.64
960.435	89.4
960.602	137.45
960.77	87.85
960.937	90.95
961.104	98.89
961.272	38.25
961.439	88.43
961.606	127.37
961.774	129.31
961.941	96.76
962.108	135.32
962.275	115.94
962.443	136.29
962.61	127.76
962.777	175.42
962.944	132.6
963.111	120.59
963.278	144.23
963.446	102.57
963.613	109.94
963.78	120.79
963.947	109.55
964.114	115.36
964.281	186.47
964.448	118.07
964.615	90.37
964.782	109.55
964.949	164.77
965.116	135.51
965.282	165.35
965.449	114.39
965.616	71.57
965.783	149.07
965.95	136.67
966.117	77.97
966.283	76.61
966.45	139.77
966.617	124.66
966.784	151.4
966.95	145.97
967.117	143.26
967.284	102.57
967.45	84.75
967.617	167.87
967.784	144.23
967.95	178.13
968.117	95.02
968.283	178.13
968.45	213.78
968.616	135.12
968.783	158.37
968.949	113.23
969.116	177.94
969.282	108.19
969.449	147.72
969.615	136.67
969.781	81.65
969.948	98.5
970.114	91.92
970.28	206.42
970.447	107.8
970.613	194.6
970.779	91.53
970.945	161.67
971.112	122.53
971.278	124.27
971.444	139
971.61	167.09
971.776	117.88
971.942	143.26
972.108	157.79
972.275	95.21
972.441	126.4
972.607	183.17
972.773	114.97
972.939	144.42
973.105	118.65
973.271	102.57
973.437	101.41
973.602	96.18
973.768	123.89
973.934	110.13
974.1	131.83
974.266	49.29
974.432	114.59
974.598	106.64
974.763	138.42
974.929	97.15
975.095	171.93
975.261	64.02
975.426	70.41
975.592	132.99
975.758	160.89
975.923	57.24
976.089	63.44
976.255	143.65
976.42	124.08
976.586	125.44
976.751	119.24
976.917	184.14
977.082	124.85
977.248	52.39
977.413	16.74
977.579	92.5
977.744	107.8
977.91	60.34
978.075	77.39
978.24	135.7
978.406	58.2
978.571	88.82
978.736	72.74
978.902	123.3
979.067	39.22
979.232	27.4
979.397	91.92
979.563	145.78
979.728	97.92
979.893	112.26
980.058	64.6
980.223	135.32
980.388	98.12
980.554	105.48
980.719	75.84
980.884	113.81
981.049	126.02
981.214	66.92
981.379	127.18
981.544	87.85
981.709	91.92
981.874	94.63
982.039	85.52
982.204	123.11
982.368	109.55
982.533	108.97
982.698	112.45
982.863	128.34
983.028	81.45
983.193	119.43
983.357	121.75
983.522	111.87
983.687	107.61
983.852	104.12
984.016	79.32
984.181	106.45
984.346	140.93
984.51	123.5
984.675	75.25
984.839	118.27
985.004	101.02
985.168	143.26
985.333	120.01
985.498	82.23
985.662	110.9
985.827	121.95
985.991	106.06
986.155	88.24
986.32	129.31
986.484	171.93
986.649	128.34
986.813	61.69
986.977	113.62
987.142	123.89
987.306	64.99
987.47	28.95
987.634	95.4
987.799	118.27
987.963	105.09
988.127	111.29
988.291	180.85
988.455	109.55
988.62	79.9
988.784	119.24
988.948	133.19
989.112	78.55
989.276	86.3
989.44	98.12
989.604	65.76
989.768	87.07
989.932	157.4
990.096	58.2
990.26	56.46
990.424	78.55
990.588	82.42
990.752	165.73
990.915	109.55
991.079	76.22
991.243	63.44
991.407	94.82
991.571	75.45
991.734	114
991.898	95.99
992.062	171.16
992.226	60.14
992.389	55.1
992.553	22.17
992.717	73.12
992.88	50.07
993.044	68.09
993.207	84.55
993.371	123.69
993.535	123.69
993.698	64.21
993.862	115.17
994.025	106.06
994.189	71.57
994.352	104.7
994.515	88.82
994.679	126.02
994.842	74.87
995.006	103.54
995.169	52.78
995.332	42.9
995.496	103.54
995.659	28.37
995.822	77.58
995.985	89.79
996.149	125.05
996.312	81.26
996.475	132.99
996.638	94.82
996.801	118.46
996.964	158.57
997.128	60.34
997.291	63.44
997.454	51.62
997.617	27.01
997.78	105.87
997.943	67.5
998.106	109.55
998.269	45.61
998.432	65.95
998.595	89.2
998.758	15.58
998.92	30.5
999.083	2.41
999.246	73.32
999.409	20.42
999.572	15
999.735	42.9
999.897	84.75
1000.06	58.79
1000.223	70.99
1000.386	88.04
1000.548	98.5
1000.711	91.14
1000.874	76.8
1001.036	2.79
1001.199	108.97
1001.361	63.05
1001.524	35.73
1001.687	88.82
1001.849	32.82
1002.012	64.4
1002.174	77.39
1002.337	90.95
1002.499	36.31
1002.661	103.54
1002.824	38.83
1002.986	49.68
1003.149	59.17
1003.311	29.34
1003.473	110.9
1003.636	37.67
1003.798	80.87
1003.96	72.74
1004.123	48.71
1004.285	47.74
1004.447	55.88
1004.609	58.59
1004.771	108.97
1004.933	1.44
1005.096	26.04
1005.258	-0.69
1005.42	20.23
1005.582	102.77
1005.744	35.15
1005.906	-0.31
1006.068	51.42
1006.23	15
1006.392	-8.64
1006.554	46.77
1006.716	110.32
1006.878	90.95
1007.04	2.79
1007.202	24.3
1007.363	56.27
1007.525	61.89
1007.687	66.92
1007.849	96.76
1008.011	-6.31
1008.172	-4.38
1008.334	31.47
1008.496	62.66
1008.658	-10.77
1008.819	19.46
1008.981	20.42
1009.143	10.16
1009.304	19.65
1009.466	65.95
1009.627	101.02
1009.789	156.24
1009.95	43.67
1010.112	41.93
1010.273	50.84
1010.435	31.47
1010.596	48.71
1010.758	55.1
1010.919	37.09
1011.081	-9.03
1011.242	40.38
1011.403	58.79
1011.565	46.58
1011.726	61.3
1011.887	4.92
1012.049	45.42
1012.21	59.95
1012.371	105.87
1012.532	-44.87
1012.693	38.44
1012.855	4.54
1013.016	37.86
1013.177	68.47
1013.338	40.96
1013.499	101.8
1013.66	63.44
1013.821	55.1
1013.982	75.45
1014.143	46.39
1014.304	25.27
1014.465	49.49
1014.626	48.13
1014.787	2.41
1014.948	132.6
1015.109	-42.74
1015.27	85.33
1015.431	28.76
1015.592	14.42
1015.752	81.26
1015.913	41.74
1016.074	57.04
1016.235	42.12
1016.395	43.29
1016.556	25.07
1016.717	23.14
1016.877	95.4
1017.038	-15.03
1017.199	57.43
1017.359	46
1017.52	54.33
1017.681	9.77
1017.841	-2.24
1018.002	33.02
1018.162	2.99
1018.323	101.22
1018.483	27.4
1018.644	-7.86
1018.804	-1.47
1018.964	-8.44
1019.125	2.6
1019.285	6.86
1019.446	-10.96
1019.606	-20.46
1019.766	-33.63
1019.926	61.69
1020.087	51.81
1020.247	-30.92
1020.407	60.34
1020.567	90.17
1020.728	19.65
1020.888	-28.01
1021.048	-5.34
1021.208	2.02
1021.368	11.9
1021.528	69.44
1021.688	66.92
1021.848	67.89
1022.008	21.97
1022.168	-8.06
1022.328	29.14
1022.488	44.06
1022.648	-1.47
1022.808	11.9
1022.968	46.77
1023.128	-1.28
1023.288	8.41
1023.448	30.11
1023.608	68.86
1023.767	23.33
1023.927	18.49
1024.087	1.63
1024.247	-38.09
1024.406	13.26
1024.566	-12.13
1024.726	4.15
1024.885	52.39
1025.045	31.08
1025.205	15.39
1025.364	7.64
1025.524	22.36
1025.683	35.92
1025.843	36.12
1026.003	22.17
1026.162	84.55
1026.321	66.15
1026.481	18.68
1026.64	-0.5
1026.8	5.89
1026.959	12.48
1027.119	33.02
1027.278	19.26
1027.437	17.13
1027.597	17.32
1027.756	26.62
1027.915	21.59
1028.074	23.14
1028.234	-14.64
1028.393	29.92
1028.552	6.86
1028.711	-78.97
1028.87	95.6
1029.03	-37.7
1029.189	5.51
1029.348	-21.04
1029.507	16.16
1029.666	-3.6
1029.825	-7.86
1029.984	-8.83
1030.143	30.89
1030.302	-1.66
1030.461	-39.44
1030.62	38.64
1030.779	40.57
1030.938	-29.76
1031.097	-25.3
1031.255	48.52
1031.414	71.19
1031.573	33.79
1031.732	-48.55
1031.891	15
1032.049	74.48
1032.208	22.94
1032.367	-10.19
1032.525	-10.77
1032.684	-2.63
1032.843	16.74
1033.001	-23.94
1033.16	136.67
1033.319	53.17
1033.477	33.6
1033.636	4.73
1033.794	-37.12
1033.953	36.12
1034.111	46.19
1034.27	-3.02
1034.428	55.88
1034.587	-6.89
1034.745	16.94
1034.903	2.21
1035.062	20.04
1035.22	-21.04
1035.378	16.74
1035.537	-7.28
1035.695	41.35
1035.853	8.99
1036.011	43.48
1036.17	7.44
1036.328	-57.07
1036.486	20.23
1036.644	-4.38
1036.802	-77.42
1036.96	-22.2
1037.119	13.84
1037.277	-12.32
1037.435	-25.3
1037.593	-30.53
1037.751	17.13
1037.909	48.52
1038.067	48.52
