Data from gum_old_FLMT105791__16__15-42-38-249.txt Node

Date: Mon Mar 20 15:42:38 GMT 2023
User: antho
Spectrometer: FLMT10579
Trigger mode: 0
Integration Time (sec): 1.000000E-1
Scans to average: 10
Electric dark correction enabled: true
Nonlinearity correction enabled: false
Boxcar width: 0
XAxis mode: Wavelengths
Number of Pixels in Spectrum: 3648
>>>>>Begin Spectral Data<<<<<
345.248	-174.53
345.464	-174.53
345.681	-174.53
345.898	-172.02
346.114	-170.08
346.331	-41.24
346.548	19.79
346.764	-0.55
346.981	-7.72
347.197	-12.76
347.414	13.59
347.631	-10.62
347.847	48.28
348.064	-4.42
348.28	33.16
348.497	-44.92
348.713	7.39
348.93	33.16
349.146	30.64
349.363	8.75
349.579	41.88
349.796	21.93
350.012	-16.82
350.229	40.72
350.445	41.49
350.661	1.97
350.878	25.41
351.094	22.12
351.311	33.36
351.527	25.03
351.743	13.79
351.96	67.46
352.176	59.9
352.392	56.41
352.609	48.28
352.825	20.38
353.041	25.99
353.257	11.08
353.474	44.79
353.69	44.98
353.906	46.53
354.122	25.41
354.339	84.31
354.555	32.78
354.771	10.88
354.987	92.26
355.203	83.92
355.42	24.25
355.636	33.94
355.852	10.11
356.068	32.97
356.284	5.46
356.5	92.84
356.716	74.43
356.932	6.62
357.148	66.29
357.364	53.7
357.58	82.18
357.796	82.37
358.012	55.44
358.228	58.54
358.444	-39.1
358.66	86.25
358.876	62.42
359.092	31.61
359.308	44.4
359.524	38.2
359.74	20.76
359.956	41.11
360.172	28.51
360.388	87.02
360.604	26.58
360.819	128.87
361.035	72.69
361.251	65.71
361.467	-4.23
361.683	82.57
361.898	72.69
362.114	72.69
362.33	70.17
362.546	101.36
362.762	73.07
362.977	69.78
363.193	41.69
363.409	107.17
363.624	22.12
363.84	27.74
364.056	43.43
364.271	69.59
364.487	61.26
364.703	45.95
364.918	30.26
365.134	64.36
365.35	70.75
365.565	175.95
365.781	70.17
365.996	136.43
366.212	105.62
366.427	118.41
366.643	58.16
366.858	50.6
367.074	41.11
367.289	129.07
367.505	183.7
367.72	52.73
367.936	93.81
368.151	113.96
368.367	88.77
368.582	92.64
368.798	59.9
369.013	131.59
369.228	99.42
369.444	71.53
369.659	111.44
369.874	96.91
370.09	145.73
370.305	30.26
370.52	98.07
370.736	121.51
370.951	74.24
371.166	133.14
371.381	184.48
371.597	103.11
371.812	70.75
372.027	51.96
372.242	95.55
372.458	160.07
372.673	93.42
372.888	76.76
373.103	102.33
373.318	163.17
373.533	109.89
373.749	104.85
373.964	30.45
374.179	115.51
374.394	51.57
374.609	123.45
374.824	36.26
375.039	148.64
375.254	68.62
375.469	144.37
375.684	90.9
375.899	140.89
376.114	102.14
376.329	99.42
376.544	131.78
376.759	128.68
376.974	80.82
377.189	96.32
377.404	87.22
377.619	148.25
377.834	61.26
378.049	93.03
378.264	76.17
378.478	125.77
378.693	90.51
378.908	136.24
379.123	113.37
379.338	182.54
379.553	134.69
379.767	91.67
379.982	107.56
380.197	128.29
380.412	106.21
380.626	137.79
380.841	214.7
381.056	145.73
381.271	211.02
381.485	84.7
381.7	64.36
381.915	114.15
382.129	123.64
382.344	108.14
382.559	71.91
382.773	132.17
382.988	81.41
383.202	116.47
383.417	80.05
383.632	192.23
383.846	83.73
384.061	93.61
384.275	79.86
384.49	144.18
384.704	120.74
384.919	137.01
385.133	142.82
385.348	142.63
385.562	96.52
385.777	167.04
385.991	127.91
386.206	129.65
386.42	120.16
386.634	151.16
386.849	137.4
387.063	160.07
387.277	110.47
387.492	119.77
387.706	99.23
387.92	110.86
388.135	162.2
388.349	174.4
388.563	166.46
388.778	159.68
388.992	159.29
389.206	144.18
389.42	211.22
389.635	144.37
389.849	175.76
390.063	229.62
390.277	178.86
390.491	231.95
390.706	208.89
390.92	210.25
391.134	170.92
391.348	229.04
391.562	151.16
391.776	210.05
391.99	181.77
392.205	213.35
392.419	151.54
392.633	196.49
392.847	230.79
393.061	131.01
393.275	217.22
393.489	127.32
393.703	159.68
393.917	145.54
394.131	101.17
394.345	140.11
394.559	200.56
394.773	135.85
394.986	196.49
395.2	207.34
395.414	225.75
395.628	160.84
395.842	244.74
396.056	213.93
396.27	148.25
396.484	224
396.697	195.33
396.911	227.3
397.125	156.97
397.339	209.28
397.553	144.57
397.766	222.45
397.98	214.51
398.194	251.9
398.408	217.8
398.621	255.78
398.835	307.51
399.049	282.71
399.262	357.3
399.476	339.67
399.69	293.17
399.903	386.17
400.117	322.43
400.331	328.63
400.544	290.85
400.758	448.17
400.971	332.7
401.185	356.72
401.398	303.44
401.612	377.84
401.826	392.95
402.039	376.29
402.253	332.31
402.466	389.46
402.68	356.72
402.893	390.24
403.106	366.99
403.32	367.57
403.533	379.58
403.747	332.31
403.96	359.63
404.174	387.14
404.387	326.3
404.6	371.45
404.814	397.41
405.027	388.88
405.24	384.81
405.454	352.07
405.667	417.17
405.88	325.92
406.094	372.22
406.307	390.43
406.52	395.47
406.733	352.26
406.947	299.37
407.16	431.31
407.373	402.83
407.586	379.2
407.799	351.88
408.012	435.58
408.226	415.62
408.439	442.36
408.652	373.77
408.865	412.13
409.078	448.17
409.291	453.21
409.504	378.42
409.717	457.47
409.93	462.89
410.143	416.98
410.357	345.68
410.57	356.14
410.783	372.8
410.996	401.86
411.209	398.57
411.421	470.26
411.634	404.19
411.847	419.11
412.06	465.99
412.273	472.39
412.486	461.93
412.699	556.28
412.912	474.33
413.125	483.82
413.338	471.42
413.55	491.76
413.763	428.21
413.976	444.88
414.189	452.63
414.402	458.44
414.615	513.46
414.827	452.43
415.04	507.07
415.253	493.89
415.466	509.2
415.678	553.76
415.891	483.04
416.104	476.46
416.316	477.81
416.529	458.05
416.742	539.81
416.954	545.24
417.167	507.07
417.38	540.97
417.592	518.11
417.805	485.37
418.017	433.25
418.23	509.97
418.442	465.22
418.655	496.22
418.868	509.59
419.08	573.91
419.293	569.26
419.505	538.07
419.718	526.44
419.93	532.64
420.142	494.28
420.355	557.44
420.567	544.07
420.78	537.68
420.992	520.44
421.205	577.98
421.417	495.06
421.629	544.07
421.842	507.07
422.054	532.84
422.266	604.91
422.479	596
422.691	502.23
422.903	554.54
423.115	509.2
423.328	525.67
423.54	536.32
423.752	533.03
423.964	500.87
424.177	580.69
424.389	505.91
424.601	660.9
424.813	534.39
425.025	625.45
425.238	587.67
425.45	551.82
425.662	534.58
425.874	836.44
426.086	564.61
426.298	576.62
426.51	575.07
426.722	585.34
426.934	561.51
427.146	584.57
427.358	527.8
427.57	596.39
427.782	544.07
427.994	534.19
428.206	552.21
428.418	536.13
428.63	612.27
428.842	639.98
429.054	578.56
429.266	586.7
429.478	543.49
429.69	546.98
429.902	503.39
430.114	561.51
430.325	503.19
430.537	485.18
430.749	484.4
430.961	389.27
431.173	434.22
431.384	478.01
431.596	418.53
431.808	518.31
432.02	588.06
432.231	649.47
432.443	708.18
432.655	653.54
432.867	612.27
433.078	631.84
433.29	699.65
433.502	664.39
433.713	709.73
433.925	669.62
434.136	713.8
434.348	571.39
434.56	563.84
434.771	708.95
434.983	581.27
435.194	644.05
435.406	659.16
435.617	704.88
435.829	760.88
436.04	727.94
436.252	703.92
436.463	759.91
436.675	764.17
436.886	779.28
437.098	790.91
437.309	798.27
437.521	780.06
437.732	734.72
437.943	736.66
438.155	732.2
438.366	663.42
438.578	750.8
438.789	716.32
439	704.5
439.211	677.76
439.423	699.27
439.634	705.85
439.845	781.61
440.057	762.04
440.268	818.03
440.479	739.95
440.69	786.84
440.902	729.49
441.113	754.68
441.324	742.28
441.535	794.2
441.746	868.79
441.957	757.58
442.168	792.85
442.38	832.37
442.591	883.52
442.802	793.81
443.013	852.91
443.224	868.21
443.435	804.08
443.646	817.65
443.857	837.21
444.068	818.81
444.279	806.6
444.49	917.23
444.701	864.14
444.912	970.9
445.123	936.41
445.334	882.74
445.545	883.33
445.756	873.83
445.967	835.47
446.178	871.89
446.388	871.31
446.599	882.94
446.81	908.13
447.021	843.61
447.232	909.09
447.443	929.44
447.653	876.16
447.864	951.91
448.075	907.35
448.286	977.29
448.496	929.63
448.707	969.54
448.918	893.79
449.129	971.29
449.339	918.78
449.55	955.98
449.761	912.39
449.971	974.58
450.182	935.83
450.393	958.89
450.603	911.03
450.814	1016.62
451.024	994.54
451.235	1029.41
451.446	1072.81
451.656	1029.41
451.867	997.64
452.077	970.71
452.288	1063.7
452.498	1012.75
452.709	960.63
452.919	967.99
453.13	937.19
453.34	981.75
453.55	913.55
453.761	970.12
453.971	988.92
454.182	989.5
454.392	1007.52
454.602	1065.25
454.813	1012.56
455.023	980.78
455.233	939.32
455.444	992.21
455.654	887.39
455.864	983.3
456.075	982.72
456.285	958.31
456.495	985.82
456.705	1013.52
456.916	1091.41
457.126	1090.83
457.336	1034.25
457.546	936.22
457.756	1028.44
457.967	1065.84
458.177	1020.11
458.387	1036.19
458.597	990.66
458.807	1005.97
459.017	987.56
459.227	1049.37
459.437	1024.37
459.647	1050.92
459.857	1052.85
460.068	1007.71
460.278	1062.93
460.488	1044.14
460.698	1088.7
460.908	1055.18
461.117	994.92
461.327	1043.36
461.537	1084.05
461.747	1082.69
461.957	1090.64
462.167	1196.42
462.377	1127.25
462.587	1098.39
462.797	1134.81
463.007	1117.95
463.216	1141.2
463.426	1176.27
463.636	1151.47
463.846	1056.92
464.056	1076.69
464.265	1130.93
464.475	1053.24
464.685	1104.39
464.895	1141.2
465.104	1108.46
465.314	1171.04
465.524	1070.68
465.733	1035.42
465.943	1191.19
466.153	1187.12
466.362	1170.46
466.572	1170.27
466.782	1100.13
466.991	1149.34
467.201	1171.43
467.41	1042.39
467.62	1157.87
467.829	1147.21
468.039	1169.1
468.249	1130.93
468.458	1161.16
468.668	1205.53
468.877	1190.8
469.086	1224.71
469.296	1232.85
469.505	1186.73
469.715	1201.07
469.924	1217.54
470.134	1239.24
470.343	1263.07
470.552	1228.78
470.762	1175.88
470.971	1170.07
471.18	1207.47
471.39	1236.72
471.599	1184.8
471.808	1230.33
472.018	1267.91
472.227	1285.74
472.436	1340.96
472.645	1311.31
472.855	1293.3
473.064	1368.28
473.273	1365.56
473.482	1330.49
473.691	1372.15
473.901	1350.26
474.11	1323.13
474.319	1431.82
474.528	1344.83
474.737	1433.57
474.946	1438.02
475.155	1404.7
475.364	1468.06
475.573	1449.26
475.783	1460.5
475.992	1448.87
476.201	1471.35
476.41	1469.8
476.619	1400.63
476.828	1434.34
477.037	1422.72
477.245	1425.24
477.454	1518.82
477.663	1456.04
477.872	1499.25
478.081	1587.21
478.29	1489.95
478.499	1619.95
478.708	1571.32
478.917	1601.55
479.125	1517.07
479.334	1541.1
479.543	1598.83
479.752	1598.25
479.961	1630.22
480.169	1631.77
480.378	1642.23
480.587	1766.43
480.796	1699.2
481.004	1675.17
481.213	1725.74
481.422	1717.6
481.63	1747.05
481.839	1720.31
482.048	1798.78
482.256	1731.36
482.465	1831.33
482.674	1790.06
482.882	1798.59
483.091	1836.95
483.299	1794.13
483.508	1836.76
483.716	1852.45
483.925	1826.29
484.134	1749.18
484.342	1796.65
484.551	1860.78
484.759	1820.48
484.967	1897.4
485.176	1887.32
485.384	1874.73
485.593	1908.05
485.801	1897.59
486.01	1761
486.218	1747.44
486.426	1616.27
486.635	1617.63
486.843	1597.87
487.051	1647.85
487.26	1623.83
487.468	1746.28
487.676	1803.24
487.885	1768.75
488.093	1850.9
488.301	1911.54
488.509	1908.83
488.717	1964.63
488.926	1963.08
489.134	1888.29
489.342	1908.05
489.55	1867.76
489.758	1902.82
489.967	1956.88
490.175	2071.38
490.383	2029.15
490.591	2141.91
490.799	2040.38
491.007	2094.05
491.215	2114.2
491.423	2059.57
491.631	2050.85
491.839	2085.91
492.047	2067.7
492.255	1971.6
492.463	1977.03
492.671	1945.25
492.879	2048.52
493.087	2029.15
493.295	2013.26
493.503	2077
493.711	2169.61
493.919	2136.29
494.127	2174.65
494.334	2184.53
494.542	2034.38
494.75	2140.36
494.958	2157.99
495.166	2244.98
495.374	2242.08
495.581	2260.87
495.789	2247.31
495.997	2270.17
496.205	2179.88
496.412	2195.19
496.62	2188.6
496.828	2216.69
497.035	2233.16
497.243	2276.56
497.451	2248.86
497.658	2284.12
497.866	2266.29
498.074	2317.44
498.281	2261.64
498.489	2352.7
498.696	2255.64
498.904	2206.23
499.112	2205.26
499.319	2289.16
499.527	2215.92
499.734	2353.48
499.942	2253.51
500.149	2231.81
500.357	2296.71
500.564	2205.84
500.771	2243.24
500.979	2214.37
501.186	2165.16
501.394	2246.73
501.601	2164.96
501.808	2228.13
502.016	2152.56
502.223	2210.49
502.43	2194.99
502.638	2191.31
502.845	2190.15
503.052	2330.04
503.26	2262.81
503.467	2308.72
503.674	2317.06
503.881	2301.17
504.089	2340.11
504.296	2317.83
504.503	2214.95
504.71	2282.37
504.917	2214.76
505.125	2267.26
505.332	2330.23
505.539	2305.43
505.746	2409.09
505.953	2405.6
506.16	2404.24
506.367	2483.29
506.574	2469.92
506.781	2460.82
506.988	2337.21
507.195	2403.27
507.402	2397.65
507.609	2448.42
507.816	2322.87
508.023	2349.02
508.23	2339.92
508.437	2316.86
508.644	2334.69
508.851	2407.92
509.058	2436.02
509.265	2390.49
509.472	2446.28
509.679	2490.85
509.885	2427.88
510.092	2456.75
510.299	2438.53
510.506	2415.09
510.713	2411.02
510.92	2400.37
511.126	2445.51
511.333	2474.18
511.54	2513.32
511.746	2509.06
511.953	2528.05
512.16	2553.62
512.367	2469.73
512.573	2470.5
512.78	2493.95
512.987	2448.8
513.193	2442.41
513.4	2327.52
513.606	2409.28
513.813	2462.56
514.02	2408.7
514.226	2480.97
514.433	2451.13
514.639	2372.27
514.846	2417.61
515.052	2362.97
515.259	2433.11
515.465	2437.18
515.672	2445.7
515.878	2506.35
516.085	2468.18
516.291	2516.81
516.497	2450.93
516.704	2424.59
516.91	2356.19
517.117	2274.04
517.323	2151.4
517.529	2171.94
517.736	2144.23
517.942	2170.97
518.148	2241.3
518.354	2282.76
518.561	2333.72
518.767	2273.46
518.973	2317.44
519.179	2340.89
519.386	2300.39
519.592	2311.63
519.798	2317.25
520.004	2486.39
520.21	2461.98
520.417	2496.27
520.623	2540.06
520.829	2558.08
521.035	2508.28
521.241	2538.7
521.447	2550.33
521.653	2672.39
521.859	2526.11
522.065	2643.33
522.271	2750.08
522.477	2615.43
522.683	2748.92
522.889	2653.01
523.095	2621.43
523.301	2586.56
523.507	2537.15
523.713	2592.95
523.919	2567.76
524.125	2688.86
524.331	2671.42
524.537	2781.47
524.742	2796.58
524.948	2766.74
525.154	2826.22
525.36	2872.53
525.566	2776.43
525.772	2822.74
525.977	2762.48
526.183	2810.72
526.389	2838.62
526.595	2678.01
526.8	2692.15
527.006	2585.59
527.212	2515.84
527.417	2542.96
527.623	2517.78
527.829	2616.39
528.034	2628.02
528.24	2677.43
528.446	2681.69
528.651	2816.92
528.857	2823.9
529.062	2885.12
529.268	2883.77
529.473	2926.78
529.679	2875.05
529.884	3006.99
530.09	2959.33
530.295	2911.67
530.501	2933.37
530.706	2924.65
530.912	2950.03
531.117	2993.04
531.323	2934.92
531.528	3013.96
531.733	3031.21
531.939	2972.11
532.144	3039.54
532.35	2990.52
532.555	3027.72
532.76	2963.98
532.966	2949.45
533.171	2892.87
533.376	2888.42
533.581	2852.38
533.787	2925.42
533.992	2971.15
534.197	2972.89
534.402	2951.58
534.607	2977.15
534.813	3052.91
535.018	2985.68
535.223	3004.86
535.428	3034.89
535.633	3063.18
535.838	3082.74
536.043	3097.66
536.249	3218.75
536.454	3058.53
536.659	3182.91
536.864	3129.83
537.069	3061.82
537.274	3045.74
537.479	3035.28
537.684	3002.73
537.889	2986.45
538.094	3131.96
538.299	3051.94
538.504	3079.64
538.708	3088.75
538.913	3157.92
539.118	3085.84
539.323	3080.81
539.528	3049.23
539.733	3059.88
539.938	3047.87
540.142	3075.19
540.347	2979.48
540.552	2941.12
540.757	2960.3
540.962	3020.75
541.166	2942.28
541.371	2905.66
541.576	2974.63
541.781	2867.49
541.985	3052.33
542.19	3000.21
542.395	3124.79
542.599	3116.46
542.804	3060.85
543.008	3105.22
543.213	3030.05
543.418	3002.15
543.622	3053.1
543.827	2964.17
544.031	3077.71
544.236	3077.51
544.44	3101.93
544.645	3189.11
544.849	3068.41
545.054	3107.16
545.258	3154.82
545.463	3170.71
545.667	3028.3
545.872	3101.15
546.076	3144.94
546.281	3143.39
546.485	3069.18
546.689	3142.22
546.894	3153.07
547.098	3146.68
547.302	3062.21
547.507	3129.24
547.711	3128.66
547.915	3134.67
548.119	3013.77
548.324	3036.83
548.528	3133.31
548.732	3029.85
548.936	3083.13
549.141	3071.12
549.345	3076.93
549.549	3159.47
549.753	3126.14
549.957	3232.51
550.161	3166.83
550.366	3169.16
550.57	3100.96
550.774	3128.28
550.978	3142.03
551.182	3115.88
551.386	3108.51
551.59	3110.84
551.794	3101.73
551.998	3109.09
552.202	3136.22
552.406	3064.73
552.61	3156.56
552.814	3130.6
553.018	3183.49
553.222	3137.77
553.426	3095.14
553.63	3198.22
553.833	3136.22
554.037	3072.86
554.241	3141.06
554.445	3107.93
554.649	3157.72
554.853	3096.11
555.056	3195.89
555.26	3190.47
555.464	3141.84
555.668	3176.52
555.871	3193.37
556.075	3218.75
556.279	3130.02
556.483	3090.88
556.686	3123.43
556.89	3154.43
557.094	3073.06
557.297	3013.77
557.501	3112.97
557.704	2980.83
557.908	3079.26
558.112	3025.2
558.315	3073.64
558.519	3074.61
558.722	3025.01
558.926	2999.24
559.129	2931.43
559.333	2919.42
559.536	2957.39
559.74	2895.2
559.943	2898.49
560.147	2919.8
560.35	2912.25
560.553	2966.88
560.757	2918.25
560.96	3001.37
561.164	2924.45
561.367	3064.34
561.57	3015.51
561.774	2950.8
561.977	3003.5
562.18	2898.1
562.384	3029.85
562.587	2938.6
562.79	2955.26
562.993	2928.33
563.197	2972.7
563.4	2999.24
563.603	3027.33
563.806	3055.23
564.009	2968.63
564.212	3026.17
564.416	2874.47
564.619	2924.84
564.822	2836.1
565.025	2990.13
565.228	2881.05
565.431	2933.75
565.634	2821.19
565.837	2855.09
566.04	2828.94
566.243	2802.78
566.446	2755.12
566.649	2835.72
566.852	2779.92
567.055	2820.02
567.258	2766.94
567.461	2878.73
567.664	2849.67
567.867	2796.39
568.07	2842.11
568.273	2847.73
568.475	2924.84
568.678	2805.1
568.881	2768.49
569.084	2768.68
569.287	2640.23
569.489	2713.07
569.692	2753.96
569.895	2777.21
570.098	2709.78
570.3	2671.81
570.503	2607.68
570.706	2666.58
570.909	2660.57
571.111	2570.09
571.314	2614.07
571.516	2594.5
571.719	2608.45
571.922	2566.8
572.124	2541.8
572.327	2593.53
572.529	2566.21
572.732	2624.14
572.935	2646.81
573.137	2734.39
573.34	2605.35
573.542	2672.58
573.745	2637.13
573.947	2659.79
574.15	2629.18
574.352	2647.2
574.554	2685.95
574.757	2602.45
574.959	2583.26
575.162	2618.91
575.364	2573.38
575.566	2663.67
575.769	2517.78
575.971	2550.71
576.173	2456.36
576.376	2522.62
576.578	2564.08
576.78	2610.78
576.982	2461.59
577.185	2514.29
577.387	2476.32
577.589	2516.03
577.791	2534.44
577.993	2536.38
578.196	2484.26
578.398	2513.52
578.6	2502.47
578.802	2407.54
579.004	2435.63
579.206	2468.37
579.408	2476.9
579.61	2431.56
579.812	2544.71
580.014	2442.22
580.216	2420.32
580.418	2508.87
580.62	2443.57
580.822	2396.88
581.024	2464.69
581.226	2477.09
581.428	2434.47
581.63	2571.25
581.832	2468.37
582.034	2511.58
582.236	2502.47
582.438	2524.95
582.64	2547.03
582.841	2547.81
583.043	2587.91
583.245	2513.71
583.447	2537.35
583.649	2482.32
583.85	2498.21
584.052	2560.79
584.254	2464.11
584.456	2578.61
584.657	2454.42
584.859	2501.5
585.061	2453.07
585.262	2506.93
585.464	2451.32
585.666	2492.98
585.867	2420.71
586.069	2500.15
586.27	2465.47
586.472	2421.1
586.674	2399.98
586.875	2438.53
587.077	2380.99
587.278	2424.59
587.48	2411.22
587.681	2507.9
587.883	2408.31
588.084	2344.18
588.285	2374.99
588.487	2352.32
588.688	2411.8
588.89	2286.83
589.091	2257.77
589.292	2243.43
589.494	2188.99
589.695	2143.85
589.896	2073.71
590.098	2072.35
590.299	2100.83
590.5	2099.86
590.702	2125.83
590.903	2162.64
591.104	2216.31
591.305	2243.04
591.507	2267.84
591.708	2288.77
591.909	2239.17
592.11	2318.61
592.311	2260.29
592.512	2217.66
592.714	2177.75
592.915	2193.06
593.116	2200.03
593.317	2244.59
593.518	2217.28
593.719	2260.09
593.92	2268.62
594.121	2271.52
594.322	2241.3
594.523	2240.14
594.724	2192.48
594.925	2248.86
595.126	2214.56
595.327	2182.98
595.528	2215.14
595.729	2193.06
595.929	2220.18
596.13	2219.99
596.331	2250.99
596.532	2230.45
596.733	2315.51
596.934	2275.98
597.135	2268.23
597.335	2281.02
597.536	2220.57
597.737	2244.98
597.938	2202.36
598.138	2223.86
598.339	2264.16
598.54	2254.48
598.74	2238.01
598.941	2226.38
599.142	2250.6
599.342	2227.16
599.543	2178.53
599.744	2216.69
599.944	2182.79
600.145	2216.69
600.345	2228.13
600.546	2262.03
600.746	2266.68
600.947	2300.39
601.147	2210.49
601.348	2237.62
601.548	2180.27
601.749	2206.43
601.949	2099.09
602.15	2196.35
602.35	2180.08
602.551	2213.98
602.751	2151.98
602.951	2151.98
603.152	2108.58
603.352	2230.26
603.552	2168.84
603.753	2238.98
603.953	2206.23
604.153	2187.63
604.354	2201.19
604.554	2188.79
604.754	2178.33
604.954	2160.9
605.155	2173.1
605.355	2181.82
605.555	2230.45
605.755	2261.06
605.955	2173.1
606.155	2233.36
606.356	2176.39
606.556	2235.29
606.756	2182.01
606.956	2101.22
607.156	2242.66
607.356	2136.48
607.556	2180.85
607.756	2182.4
607.956	2220.96
608.156	2191.89
608.356	2104.51
608.556	2176.01
608.756	2131.83
608.956	2121.56
609.156	2145.59
609.356	2083.59
609.556	2081.07
609.755	2122.34
609.955	2089.98
610.155	2142.49
610.355	2102
610.555	2055.11
610.755	2068.28
610.954	2017.13
611.154	2105.48
611.354	2082.43
611.554	2052.98
611.753	2077.2
611.953	2032.25
612.153	2116.33
612.352	2064.99
612.552	2046.58
612.752	1998.73
612.951	2016.94
613.151	2069.64
613.351	2021.98
613.55	2040.77
613.75	2035.73
613.949	2007.06
614.149	2046.78
614.348	2008.22
614.548	1969.09
614.747	1965.99
614.947	2004.54
615.146	1914.84
615.346	2010.35
615.545	2036.7
615.745	2017.52
615.944	2052.01
616.144	1991.37
616.343	1996.98
616.542	1943.9
616.742	1970.25
616.941	1954.55
617.14	1859.81
617.34	1924.33
617.539	1901.66
617.738	1901.08
617.938	2028.76
618.137	1945.06
618.336	1905.15
618.535	1988.07
618.734	1950.68
618.934	1960.75
619.133	1985.75
619.332	1984.59
619.531	1927.43
619.73	1942.35
619.929	1994.47
620.128	1957.65
620.328	2005.9
620.527	1935.57
620.726	1965.79
620.925	1946.42
621.124	1949.32
621.323	1924.91
621.522	1886.74
621.721	1928.79
621.92	1912.9
622.119	1916.77
622.318	1876.47
622.517	1916.58
622.715	1925.69
622.914	1861.94
623.113	1899.34
623.312	1850.9
623.511	1917.35
623.71	1884.22
623.909	1866.21
624.107	1935.18
624.306	1836.56
624.505	1833.27
624.704	1866.59
624.902	1866.59
625.101	1867.76
625.3	1845.86
625.499	1779.99
625.697	1829.59
625.896	1809.63
626.095	1858.46
626.293	1784.83
626.492	1808.66
626.69	1897.59
626.889	1803.63
627.088	1859.62
627.286	1807.89
627.485	1802.85
627.683	1829.39
627.882	1819.71
628.08	1722.06
628.279	1797.81
628.477	1833.27
628.676	1725.16
628.874	1780.96
629.073	1752.28
629.271	1740.85
629.469	1822.03
629.668	1761.39
629.866	1766.04
630.065	1745.11
630.263	1825.32
630.461	1738.91
630.66	1738.91
630.858	1772.24
631.056	1800.33
631.254	1787.35
631.453	1717.21
631.651	1758.68
631.849	1715.86
632.047	1711.6
632.245	1701.71
632.444	1767.2
632.642	1776.89
632.84	1813.89
633.038	1718.57
633.236	1715.28
633.434	1714.7
633.632	1723.8
633.83	1740.66
634.028	1842.37
634.227	1729.81
634.425	1817.19
634.623	1770.49
634.821	1779.79
635.019	1755.77
635.216	1773.21
635.414	1806.73
635.612	1756.16
635.81	1768.94
636.008	1787.74
636.206	1742.4
636.404	1767.98
636.602	1727.87
636.8	1750.54
636.997	1782.31
637.195	1772.24
637.393	1760.23
637.591	1806.92
637.789	1782.51
637.986	1712.95
638.184	1763.71
638.382	1808.28
638.58	1779.6
638.777	1812.93
638.975	1755.96
639.173	1772.04
639.37	1743.56
639.568	1768.56
639.765	1759.45
639.963	1714.31
640.161	1741.04
640.358	1733.29
640.556	1683.5
640.753	1661.41
640.951	1671.49
641.148	1727.1
641.346	1686.41
641.543	1666.06
641.741	1705.4
641.938	1635.84
642.136	1669.55
642.333	1634.87
642.531	1688.15
642.728	1724.58
642.925	1678.27
643.123	1643.01
643.32	1715.86
643.517	1674.98
643.715	1667.81
643.912	1617.63
644.109	1677.69
644.306	1670.71
644.504	1644.56
644.701	1687.76
644.898	1623.44
645.095	1603.29
645.293	1655.99
645.49	1663.35
645.687	1638.94
645.884	1682.53
646.081	1561.63
646.278	1590.5
646.475	1613.95
646.672	1620.92
646.87	1620.92
647.067	1630.61
647.264	1597.28
647.461	1553.3
647.658	1530.05
647.855	1609.88
648.052	1561.25
648.249	1489.75
648.446	1567.83
648.642	1548.65
648.839	1498.28
649.036	1511.26
649.233	1488.01
649.43	1514.17
649.627	1480.65
649.824	1543.04
650.021	1512.04
650.217	1516.88
650.414	1478.9
650.611	1520.17
650.808	1519.79
651.004	1538
651.201	1549.04
651.398	1637.2
651.595	1524.82
651.791	1522.69
651.988	1564.93
652.185	1503.7
652.381	1586.63
652.578	1499.64
652.775	1549.43
652.971	1518.43
653.168	1505.84
653.364	1587.98
653.561	1478.52
653.757	1552.34
653.954	1513.2
654.15	1480.26
654.347	1606
654.543	1495.57
654.74	1466.89
654.936	1493.44
655.133	1531.22
655.329	1500.22
655.525	1463.02
655.722	1501.57
655.918	1414.39
656.115	1436.86
656.311	1358.39
656.507	1305.31
656.704	1252.8
656.9	1297.17
657.096	1297.75
657.292	1273.73
657.489	1377.19
657.685	1374.67
657.881	1353.16
658.077	1384.16
658.273	1419.04
658.47	1504.09
658.666	1464.57
658.862	1473.09
659.058	1446.74
659.254	1499.05
659.45	1453.52
659.646	1501.19
659.842	1421.17
660.038	1531.99
660.234	1436.67
660.43	1488.59
660.626	1531.6
660.822	1520.75
661.018	1535.29
661.214	1488.4
661.41	1449.84
661.606	1552.34
661.802	1533.93
661.998	1522.3
662.194	1482.59
662.39	1498.47
662.586	1514.94
662.781	1541.29
662.977	1529.28
663.173	1531.6
663.369	1519.79
663.564	1532.96
663.76	1535.87
663.956	1471.15
664.152	1491.11
664.347	1413.42
664.543	1487.43
664.739	1453.52
664.934	1413.22
665.13	1424.85
665.326	1471.54
665.521	1514.94
665.717	1461.27
665.912	1458.56
666.108	1380.09
666.304	1489.17
666.499	1455.85
666.695	1353.36
666.89	1436.47
667.086	1468.44
667.281	1438.61
667.477	1510.49
667.672	1466.51
667.867	1446.36
668.063	1471.74
668.258	1384.36
668.454	1452.36
668.649	1512.04
668.844	1457.79
669.04	1461.27
669.235	1419.62
669.43	1440.16
669.626	1353.36
669.821	1400.24
670.016	1374.09
670.211	1411.48
670.407	1360.14
670.602	1455.46
670.797	1383.77
670.992	1459.34
671.187	1346.19
671.382	1438.22
671.578	1402.37
671.773	1423.3
671.968	1324.49
672.163	1365.18
672.358	1395.79
672.553	1326.04
672.748	1376.61
672.943	1460.5
673.138	1407.22
673.333	1431.82
673.528	1358.78
673.723	1401.41
673.918	1375.83
674.113	1335.73
674.308	1448.29
674.503	1410.9
674.698	1395.59
674.892	1415.16
675.087	1365.37
675.282	1374.09
675.477	1373.7
675.672	1397.14
675.867	1364.01
676.061	1353.94
676.256	1328.94
676.451	1355.1
676.646	1367.89
676.84	1355.88
677.035	1332.82
677.23	1335.73
677.424	1358.01
677.619	1384.36
677.814	1414.58
678.008	1404.7
678.203	1295.62
678.397	1314.99
678.592	1347.35
678.787	1441.71
678.981	1327.78
679.176	1347.93
679.37	1347.54
679.565	1323.91
679.759	1333.01
679.954	1356.65
680.148	1388.04
680.342	1381.45
680.537	1353.94
680.731	1326.04
680.926	1353.55
681.12	1368.47
681.314	1327.01
681.509	1316.35
681.703	1322.36
681.897	1329.91
682.092	1315.38
682.286	1330.49
682.48	1385.71
682.674	1334.18
682.869	1310.15
683.063	1357.04
683.257	1402.37
683.451	1322.74
683.645	1345.03
683.839	1312.48
684.034	1304.92
684.228	1355.68
684.422	1277.8
684.616	1259.39
684.81	1304.73
685.004	1281.48
685.198	1285.74
685.392	1320.03
685.586	1273.53
685.78	1336.5
685.974	1319.84
686.168	1330.88
686.362	1356.84
686.556	1228
686.75	1193.52
686.944	1193.32
687.138	1173.56
687.331	1067.97
687.525	1103.23
687.719	997.64
687.913	1078.43
688.107	1088.12
688.301	1082.69
688.494	1099.55
688.688	1049.17
688.882	1070.1
689.076	1022.82
689.269	1054.99
689.463	1168.33
689.657	1090.25
689.85	1059.25
690.044	1096.64
690.238	1103.81
690.431	1120.67
690.625	1108.85
690.818	1135.78
691.012	1141.78
691.205	1186.93
691.399	1089.09
691.593	1111.75
691.786	1184.41
691.98	1213.28
692.173	1206.69
692.366	1194.68
692.56	1216.18
692.753	1214.25
692.947	1168.91
693.14	1225.1
693.333	1222.58
693.527	1162.13
693.72	1217.35
693.914	1200.49
694.107	1180.34
694.3	1188.09
694.493	1171.43
694.687	1239.05
694.88	1177.82
695.073	1252.61
695.266	1244.08
695.46	1191.77
695.653	1258.03
695.846	1239.05
696.039	1184.41
696.232	1189.83
696.425	1248.15
696.618	1292.13
696.812	1274.31
697.005	1348.71
697.198	1400.24
697.391	1334.18
697.584	1362.27
697.777	1404.51
697.97	1362.08
698.163	1385.71
698.356	1360.53
698.549	1425.04
698.742	1438.8
698.935	1359.94
699.127	1387.07
699.32	1362.27
699.513	1389.2
699.706	1393.46
699.899	1429.89
700.092	1372.93
700.285	1431.05
700.477	1383
700.67	1453.72
700.863	1421.36
701.056	1512.04
701.248	1458.76
701.441	1494.6
701.634	1475.42
701.826	1553.11
702.019	1463.21
702.212	1518.24
702.404	1452.56
702.597	1475.8
702.79	1484.33
702.982	1539.16
703.175	1568.42
703.367	1565.9
703.56	1578.88
703.752	1697.84
703.945	1630.42
704.137	1639.72
704.33	1674.4
704.522	1682.15
704.715	1725.55
704.907	1704.81
705.1	1742.98
705.292	1768.94
705.484	1733.68
705.677	1759.64
705.869	1794.71
706.061	1802.08
706.254	1869.69
706.446	1847.41
706.638	1825.71
706.831	1935.76
707.023	1826.1
707.215	1950.87
707.407	1931.69
707.599	1952.04
707.792	2020.62
707.984	1944.48
708.176	1989.24
708.368	2040.58
708.56	2045.42
708.752	2034.18
708.944	2004.73
709.136	2088.82
709.329	2059.57
709.521	2220.38
709.713	2149.66
709.905	2183.56
710.097	2194.99
710.289	2158.18
710.481	2228.9
710.672	2202.94
710.864	2204.1
711.056	2295.74
711.248	2255.25
711.44	2287.8
711.632	2294.19
711.824	2314.15
712.016	2385.45
712.207	2361.04
712.399	2344.37
712.591	2430.2
712.783	2405.02
712.975	2429.62
713.166	2430.2
713.358	2443.96
713.55	2528.63
713.741	2518.17
713.933	2516.42
714.125	2484.65
714.316	2497.24
714.508	2623.37
714.7	2612.52
714.891	2586.75
715.083	2654.18
715.274	2596.05
715.466	2636.54
715.657	2677.23
715.849	2566.41
716.04	2628.02
716.232	2574.16
716.423	2616.59
716.615	2594.31
716.806	2592.18
716.998	2547.61
717.189	2454.81
717.381	2442.02
717.572	2375.95
717.763	2405.4
717.955	2392.42
718.146	2364.52
718.337	2320.93
718.528	2304.07
718.72	2206.81
718.911	2255.64
719.102	2199.06
719.293	2275.98
719.485	2301.17
719.676	2241.49
719.867	2234.52
720.058	2220.96
720.249	2310.27
720.44	2233.94
720.632	2335.66
720.823	2362.2
721.014	2518.94
721.205	2569.9
721.396	2623.76
721.587	2715.4
721.778	2750.86
721.969	2769.65
722.16	2851.6
722.351	2906.43
722.542	3004.66
722.733	3027.14
722.924	2943.44
723.115	3017.65
723.305	2971.34
723.496	3026.95
723.687	2861.87
723.878	2897.13
724.069	2873.3
724.26	2943.83
724.45	2826.22
724.641	2874.66
724.832	2910.12
725.023	2886.87
725.213	2885.51
725.404	2880.47
725.595	2854.32
725.785	2841.92
725.976	2976.38
726.167	2947.12
726.357	2989.75
726.548	3056.78
726.739	2983.16
726.929	3079.06
727.12	3090.49
727.31	3121.11
727.501	3069.38
727.691	3088.56
727.882	3089.53
728.072	3198.22
728.263	3119.94
728.453	3236.58
728.644	3222.82
728.834	3210.62
729.024	3171.67
729.215	3205.97
729.405	3232.9
729.596	3305.17
729.786	3315.05
729.976	3350.89
730.167	3347.79
730.357	3340.82
730.547	3381.89
730.737	3385.38
730.928	3401.46
731.118	3495.43
731.308	3417.73
731.498	3478.18
731.688	3576.99
731.879	3566.92
732.069	3621.36
732.259	3630.66
732.449	3700.6
732.639	3785.27
732.829	3785.27
733.019	3826.93
733.209	3893.77
733.399	3923.99
733.589	3975.53
733.779	4006.14
733.969	4020.87
734.159	4125.49
734.349	4126.46
734.539	4177.42
734.729	4161.34
734.919	4246.58
735.109	4316.14
735.299	4238.83
735.488	4268.48
735.678	4268.28
735.868	4264.99
736.058	4245.03
736.248	4238.64
736.437	4217.72
736.627	4188.07
736.817	4340.75
737.007	4295.8
737.196	4360.89
737.386	4370.58
737.576	4332.61
737.765	4401.78
737.955	4348.88
738.144	4497.29
738.334	4413.98
738.524	4388.99
738.713	4445.37
738.903	4419.21
739.092	4453.12
739.282	4455.44
739.471	4487.22
739.661	4469.2
739.85	4513.76
740.04	4486.64
740.229	4523.45
740.419	4583.9
740.608	4589.9
740.797	4524.81
740.987	4624.97
741.176	4600.56
741.365	4588.35
741.555	4501.94
741.744	4599.2
741.933	4608.31
742.123	4611.6
742.312	4638.73
742.501	4704.41
742.69	4698.21
742.88	4569.37
743.069	4759.43
743.258	4682.71
743.447	4759.24
743.636	4731.15
743.825	4673.02
744.014	4779.2
744.204	4760.21
744.393	4684.07
744.582	4820.46
744.771	4812.13
744.96	4769.12
745.149	4810.39
745.338	4787.33
745.527	4865.8
745.716	4809.03
745.905	4741.22
746.094	4864.44
746.283	4874.33
746.471	4833.25
746.66	4932.06
746.849	4894.28
747.038	4901.06
747.227	4878.97
747.416	4882.85
747.604	4819.69
747.793	4833.25
747.982	4829.38
748.171	4922.96
748.359	4909.97
748.548	4914.82
748.737	4865.22
748.926	4857.28
749.114	4716.81
749.303	4868.9
749.491	4851.08
749.68	4770.28
749.869	4873.36
750.057	4804.96
750.246	4781.91
750.434	4780.75
750.623	4808.64
750.811	4753.23
751	4877.62
751.188	4809.61
751.377	4828.6
751.565	4789.66
751.754	4787.91
751.942	4732.11
752.131	4852.24
752.319	4757.11
752.507	4722.43
752.696	4823.76
752.884	4837.13
753.072	4758.46
753.261	4770.09
753.449	4787.33
753.637	4722.04
753.825	4830.54
754.014	4779.2
754.202	4785.98
754.39	4805.35
754.578	4808.84
754.766	4704.02
754.955	4665.85
755.143	4786.36
755.331	4730.37
755.519	4731.92
755.707	4734.44
755.895	4755.36
756.083	4690.65
756.271	4683.48
756.459	4705.18
756.647	4709.64
756.835	4672.63
757.023	4666.82
757.211	4679.42
757.399	4628.46
757.587	4661.78
757.775	4598.82
757.963	4619.35
758.151	4630.2
758.339	4580.6
758.526	4606.18
758.714	4596.69
758.902	4533.52
759.09	4373.68
759.278	4248.13
759.465	3959.84
759.653	3558.2
759.841	3329.38
760.028	2909.92
760.216	2537.93
760.404	2351.54
760.591	2061.31
760.779	1839.86
760.967	1641.85
761.154	1429.5
761.342	1486.07
761.529	1501.19
761.717	1565.9
761.905	1625.96
762.092	1733.88
762.28	1708.3
762.467	1710.43
762.655	1658.9
762.842	1702.49
763.029	1746.28
763.217	1785.61
763.404	1763.71
763.592	1821.06
763.779	1743.95
763.966	1844.89
764.154	1878.02
764.341	1931.3
764.528	1941.57
764.716	2018.1
764.903	2114.4
765.09	2191.12
765.277	2258.54
765.465	2428.46
765.652	2485.03
765.839	2531.53
766.026	2706.68
766.213	2768.49
766.4	2895.58
766.588	3058.91
766.775	3090.49
766.962	3208.1
767.149	3281.14
767.336	3472.76
767.523	3442.15
767.71	3487.87
767.897	3671.74
768.084	3747.3
768.271	3768.42
768.458	3844.56
768.645	3942.21
768.832	3893.38
769.019	3878.27
769.206	3925.35
769.392	3979.02
769.579	4119.68
769.766	4043.34
769.953	4027.07
770.14	4110.57
770.327	4100.3
770.513	4146.03
770.7	4183.81
770.887	4101.66
771.073	4169.28
771.26	4133.63
771.447	4103.4
771.634	4078.02
771.82	4199.5
772.007	4095.65
772.193	4131.3
772.38	4167.92
772.567	4124.91
772.753	4129.56
772.94	4207.25
773.126	4142.35
773.313	4119.68
773.499	4148.16
773.686	4134.21
773.872	4086.74
774.059	4114.45
774.245	4082.09
774.432	4109.02
774.618	4003.24
774.804	4015.25
774.991	3993.36
775.177	4042.76
775.363	3992.58
775.55	4065.82
775.736	3988.32
775.922	4024.55
776.109	4021.06
776.295	4030.56
776.481	4068.14
776.667	4027.46
776.853	3998.39
777.04	3977.08
777.226	3953.25
777.412	4072.41
777.598	3961.19
777.784	3946.28
777.97	3909.85
778.156	3943.95
778.342	3913.92
778.528	3941.82
778.715	3907.14
778.901	3906.17
779.087	3959.64
779.272	3873.81
779.458	3839.91
779.644	3899.78
779.83	3804.26
780.016	3998.78
780.202	3846.88
780.388	3858.7
780.574	3739.94
780.76	3759.7
780.946	3824.6
781.131	3831.96
781.317	3815.88
781.503	3773.84
781.689	3828.09
781.874	3917.21
782.06	3782.17
782.246	3790.7
782.432	3714.75
782.617	3763.18
782.803	3828.48
782.989	3714.17
783.174	3720.37
783.36	3662.63
783.545	3723.85
783.731	3723.66
783.916	3622.14
784.102	3701.77
784.288	3676.77
784.473	3703.9
784.659	3623.49
784.844	3675.8
785.029	3600.63
785.215	3604.31
785.4	3578.93
785.586	3695.18
785.771	3550.64
785.956	3645
786.142	3579.12
786.327	3608.19
786.512	3575.25
786.698	3551.03
786.883	3502.79
787.068	3530.69
787.254	3546.19
787.439	3499.11
787.624	3524.29
787.809	3473.34
787.994	3482.64
788.18	3592.88
788.365	3426.26
788.55	3426.65
788.735	3507.63
788.92	3470.63
789.105	3396.61
789.29	3457.06
789.475	3351.08
789.66	3421.61
789.845	3352.83
790.03	3367.94
790.215	3406.69
790.4	3448.93
790.585	3396.81
790.77	3369.1
790.955	3308.07
791.14	3350.31
791.325	3416.38
791.51	3280.37
791.695	3332.29
791.879	3339.85
792.064	3276.1
792.249	3367.36
792.434	3324.54
792.618	3303.62
792.803	3333.65
792.988	3310.59
793.173	3328.8
793.357	3351.28
793.542	3255.95
793.727	3286.57
793.911	3356.12
794.096	3285.79
794.281	3357.09
794.465	3380.92
794.65	3330.35
794.834	3370.85
795.019	3381.89
795.203	3432.46
795.388	3368.91
795.572	3422.19
795.757	3371.82
795.941	3381.12
796.126	3365.03
796.31	3358.64
796.494	3371.43
796.679	3392.16
796.863	3314.66
797.048	3416.18
797.232	3369.68
797.416	3378.79
797.601	3366.97
797.785	3425.1
797.969	3409.79
798.153	3350.31
798.338	3413.08
798.522	3390.22
798.706	3464.62
798.89	3465.2
799.074	3525.65
799.258	3468.69
799.443	3408.82
799.627	3385.57
799.811	3454.35
799.995	3381.12
800.179	3338.1
800.363	3370.85
800.547	3429.75
800.731	3438.27
800.915	3306.72
801.099	3338.49
801.283	3377.43
801.467	3379.18
801.651	3392.55
801.835	3435.95
802.019	3430.13
802.202	3436.72
802.386	3333.65
802.57	3329.58
802.754	3360.38
802.938	3365.23
803.121	3341.98
803.305	3425.68
803.489	3331.9
803.673	3393.51
803.856	3367.36
804.04	3357.48
804.224	3371.04
804.407	3371.43
804.591	3324.15
804.775	3347.02
804.958	3350.5
805.142	3449.31
805.326	3327.45
805.509	3395.65
805.693	3405.53
805.876	3415.41
806.06	3378.02
806.243	3411.92
806.427	3379.76
806.61	3455.9
806.794	3363.48
806.977	3426.45
807.16	3363.87
807.344	3409.4
807.527	3373.95
807.71	3361.55
807.894	3363.29
808.077	3397.2
808.26	3296.45
808.444	3297.8
808.627	3369.68
808.81	3313.5
808.993	3223.21
809.177	3266.22
809.36	3298.19
809.543	3269.13
809.726	3144.94
809.909	3171.67
810.092	3188.14
810.276	3189.69
810.459	3173.22
810.642	3161.99
810.825	3132.54
811.008	3187.76
811.191	3056.01
811.374	3132.34
811.557	3030.82
811.74	3137.57
811.923	3034.89
812.106	3053.1
812.289	2969.4
812.472	3017.45
812.654	2994.98
812.837	2964.36
813.02	2879.31
813.203	2898.49
813.386	2788.25
813.569	2781.27
813.751	2720.24
813.934	2770.42
814.117	2695.83
814.3	2648.36
814.482	2595.08
814.665	2539.86
814.848	2521.65
815.03	2483.68
815.213	2449.58
815.396	2432.92
815.578	2405.6
815.761	2364.33
815.943	2422.84
816.126	2321.32
816.309	2280.05
816.491	2239.36
816.674	2148.69
816.856	2221.15
817.039	2211.66
817.221	2239.75
817.403	2269.01
817.586	2217.66
817.768	2274.62
817.951	2205.26
818.133	2159.35
818.315	2164.38
818.498	2224.44
818.68	2265.91
818.862	2276.95
819.045	2309.69
819.227	2258.35
819.409	2228.9
819.591	2262.03
819.774	2226.19
819.956	2211.08
820.138	2293.42
820.32	2270.94
820.502	2332.56
820.684	2373.63
820.866	2404.44
821.048	2421.68
821.231	2481.93
821.413	2463.92
821.595	2456.17
821.777	2436.6
821.959	2430.59
822.141	2482.52
822.323	2397.27
822.505	2295.74
822.686	2274.62
822.868	2168.65
823.05	2028.95
823.232	2044.26
823.414	1914.25
823.596	1984
823.778	1992.92
823.96	2041.74
824.141	2007.25
824.323	2029.53
824.505	2126.02
824.687	2156.83
824.868	2247.69
825.05	2290.9
825.232	2348.05
825.413	2451.52
825.595	2376.92
825.777	2316.09
825.958	2366.85
826.14	2323.06
826.321	2399.59
826.503	2347.47
826.685	2377.89
826.866	2422.65
827.048	2394.17
827.229	2351.15
827.411	2293.81
827.592	2245.56
827.773	2253.51
827.955	2207.59
828.136	2156.05
828.318	2157.02
828.499	2188.02
828.68	2144.81
828.862	2151.4
829.043	2208.56
829.224	2132.22
829.406	2125.44
829.587	2087.85
829.768	2108.97
829.949	2146.95
830.131	2097.54
830.312	2205.46
830.493	2107.61
830.674	2170.58
830.855	2157.8
831.036	2142.3
831.218	2185.89
831.399	2215.14
831.58	2165.16
831.761	2190.54
831.942	2177.56
832.123	2144.04
832.304	2076.62
832.485	2097.73
832.666	2113.43
832.847	2095.8
833.028	2125.05
833.209	2167.1
833.389	2137.45
833.57	2064.02
833.751	2086.3
833.932	2186.08
834.113	2145.2
834.294	2065.38
834.475	2140.75
834.655	2133.77
834.836	2132.8
835.017	2169.03
835.198	2086.5
835.378	2188.99
835.559	2207.59
835.74	2108
835.92	2145.2
836.101	2128.35
836.281	2217.28
836.462	2154.5
836.643	2178.91
836.823	2193.83
837.004	2178.33
837.184	2220.96
837.365	2202.74
837.545	2236.07
837.726	2196.54
837.906	2262.03
838.087	2180.66
838.267	2189.76
838.448	2173.88
838.628	2188.79
838.808	2159.93
838.989	2247.11
839.169	2137.06
839.349	2202.94
839.53	2217.47
839.71	2165.16
839.89	2172.33
840.07	2224.83
840.251	2131.25
840.431	2228.9
840.611	2136.1
840.791	2143.46
840.971	2167.48
841.151	2158.57
841.332	2167.68
841.512	2190.15
841.692	2078.55
841.872	2180.46
842.052	2133.19
842.232	2183.76
842.412	2049.68
842.592	2126.6
842.772	2133.58
842.952	2184.34
843.132	2118.27
843.312	2097.54
843.492	2087.66
843.672	2136.87
843.851	1996.79
844.031	2074.29
844.211	2070.61
844.391	2090.18
844.571	2118.46
844.751	2095.02
844.93	2094.63
845.11	2034.38
845.29	2096.96
845.47	2105.1
845.649	2086.11
845.829	2090.95
846.009	2087.85
846.188	2111.68
846.368	2088.05
846.547	2053.37
846.727	2079.13
846.907	2005.9
847.086	2082.62
847.266	2075.07
847.445	2043.1
847.625	2058.4
847.804	1990.59
847.984	2017.91
848.163	1994.47
848.343	2034.77
848.522	2028.18
848.701	2035.93
848.881	1986.14
849.06	1991.37
849.239	1988.27
849.419	1985.55
849.598	1922.97
849.777	1907.09
849.957	1900.11
850.136	1866.98
850.315	1841.6
850.494	1837.92
850.674	1839.08
850.853	1866.59
851.032	1878.41
851.211	1905.92
851.39	1897.59
851.569	1816.03
851.748	1818.16
851.927	1869.69
852.107	1868.53
852.286	1800.33
852.465	1827.65
852.644	1928.2
852.823	1859.42
853.002	1876.28
853.181	1877.83
853.359	1864.85
853.538	1804.79
853.717	1857.1
853.896	1771.85
854.075	1699.78
854.254	1654.25
854.433	1577.33
854.611	1606.97
854.79	1545.94
854.969	1624.6
855.148	1623.05
855.327	1537.61
855.505	1703.85
855.684	1659.48
855.863	1703.46
856.041	1698.61
856.22	1745.31
856.399	1681.95
856.577	1804.59
856.756	1763.71
856.934	1887.32
857.113	1884.81
857.291	1778.63
857.47	1751.31
857.648	1788.9
857.827	1798.01
858.005	1807.31
858.184	1764.88
858.362	1853.42
858.541	1765.26
858.719	1751.7
858.898	1740.66
859.076	1730.78
859.254	1831.91
859.433	1746.66
859.611	1731.36
859.789	1696.1
859.967	1781.93
860.146	1783.09
860.324	1699.39
860.502	1754.03
860.68	1664.51
860.859	1711.98
861.037	1729.81
861.215	1729.23
861.393	1706.95
861.571	1708.3
861.749	1677.5
861.927	1728.06
862.105	1705.4
862.283	1683.31
862.461	1671.1
862.639	1632.55
862.817	1640.3
862.995	1657.35
863.173	1658.9
863.351	1662.19
863.529	1684.28
863.707	1698.61
863.885	1696.1
864.063	1584.69
864.241	1608.33
864.418	1713.15
864.596	1631.38
864.774	1583.92
864.952	1610.27
865.129	1612.01
865.307	1569
865.485	1560.67
865.663	1626.93
865.84	1537.42
866.018	1559.5
866.196	1389.97
866.373	1422.14
866.551	1409.74
866.728	1316.35
866.906	1382.03
867.084	1396.95
867.261	1442.09
867.439	1451.01
867.616	1487.82
867.794	1469.61
867.971	1494.21
868.149	1493.82
868.326	1599.22
868.503	1526.18
868.681	1495.37
868.858	1494.02
869.035	1488.4
869.213	1542.07
869.39	1499.64
869.567	1554.08
869.745	1487.04
869.922	1520.95
870.099	1507.58
870.276	1527.73
870.454	1525.4
870.631	1526.76
870.808	1500.99
870.985	1515.91
871.162	1554.47
871.339	1509.32
871.517	1475.8
871.694	1429.5
871.871	1465.34
872.048	1466.89
872.225	1484.33
872.402	1471.15
872.579	1411.67
872.756	1456.43
872.933	1444.81
873.11	1428.92
873.287	1471.54
873.463	1424.27
873.64	1400.82
873.817	1466.7
873.994	1436.86
874.171	1377.19
874.348	1437.83
874.524	1345.22
874.701	1429.89
874.878	1337.86
875.055	1417.29
875.231	1399.86
875.408	1389.39
875.585	1348.71
875.762	1398.69
875.938	1384.55
876.115	1347.16
876.291	1346.19
876.468	1339.79
876.645	1342.7
876.821	1361.69
876.998	1343.67
877.174	1398.5
877.351	1335.73
877.527	1293.3
877.704	1330.88
877.88	1321.97
878.057	1313.25
878.233	1380.87
878.409	1305.31
878.586	1349.29
878.762	1317.51
878.938	1329.14
879.115	1235.17
879.291	1311.7
879.467	1269.85
879.644	1253.58
879.82	1308.41
879.996	1287.29
880.172	1240.6
880.349	1293.68
880.525	1305.31
880.701	1231.1
880.877	1239.24
881.053	1259
881.229	1252.41
881.405	1311.7
881.581	1235.17
881.757	1271.98
881.933	1291.75
882.109	1299.3
882.285	1325.26
882.461	1206.69
882.637	1265.78
882.813	1209.6
882.989	1297.56
883.165	1310.15
883.341	1229.94
883.517	1312.67
883.693	1271.98
883.869	1291.94
884.044	1228.2
884.22	1250.48
884.396	1280.51
884.572	1289.81
884.747	1334.76
884.923	1284
885.099	1273.34
885.275	1334.95
885.45	1227.42
885.626	1250.28
885.801	1232.46
885.977	1226.65
886.153	1188.28
886.328	1310.73
886.504	1222.38
886.679	1232.85
886.855	1196.42
887.03	1251.06
887.206	1279.73
887.381	1273.34
887.557	1276.25
887.732	1276.44
887.908	1265.98
888.083	1294.85
888.258	1249.51
888.434	1228.39
888.609	1263.07
888.784	1294.26
888.96	1238.66
889.135	1225.1
889.31	1233.04
889.485	1269.66
889.661	1236.33
889.836	1292.71
890.011	1283.41
890.186	1236.91
890.361	1240.4
890.537	1245.44
890.712	1270.63
890.887	1246.6
891.062	1227.23
891.237	1288.65
891.412	1205.14
891.587	1239.43
891.762	1277.21
891.937	1319.06
892.112	1203.78
892.287	1237.69
892.462	1175.3
892.637	1163.87
892.812	1142.95
892.987	1160.97
893.161	1111.37
893.336	1171.04
893.511	1143.53
893.686	1153.6
893.861	1150.31
894.035	1174.72
894.21	1152.05
894.385	1086.95
894.56	1153.99
894.734	1075.33
894.909	1084.24
895.084	1078.62
895.258	1077.65
895.433	1057.31
895.608	1070.1
895.782	1009.84
895.957	1020.31
896.131	1031.93
896.306	934.67
896.48	935.06
896.655	959.27
896.829	882.36
897.004	930.21
897.178	904.64
897.353	880.81
897.527	968.38
897.701	902.31
897.876	869.38
898.05	933.12
898.224	918.98
898.399	955.01
898.573	913.36
898.747	785.48
898.921	835.28
899.096	747.9
899.27	736.47
899.444	755.65
899.618	767.66
899.792	804.66
899.967	794.98
900.141	875.38
900.315	766.5
900.489	786.45
900.663	826.17
900.837	771.73
901.011	741.31
901.185	848.26
901.359	805.83
901.533	811.45
901.707	788.39
901.881	781.61
902.055	761.07
902.229	782.77
902.403	843.61
902.576	803.89
902.75	804.08
902.924	907.93
903.098	866.28
903.272	881
903.446	943.58
903.619	911.42
903.793	976.71
903.967	919.56
904.14	975.55
904.314	966.44
904.488	933.51
904.661	962.37
904.835	960.44
905.009	970.71
905.182	1034.64
905.356	998.61
905.529	961.99
905.703	955.01
905.876	872.28
906.05	911.61
906.223	877.32
906.397	835.28
906.57	807.57
906.744	774.63
906.917	778.9
907.09	803.11
907.264	766.88
907.437	743.83
907.61	710.31
907.784	771.92
907.957	755.84
908.13	679.5
908.304	776.57
908.477	694.81
908.65	730.65
908.823	666.52
908.996	773.28
909.17	693.45
909.343	698.49
909.516	692.29
909.689	701.78
909.862	658
910.035	702.37
910.208	629.9
910.381	650.05
910.554	774.25
910.727	701.98
910.9	682.6
911.073	672.72
911.246	751.19
911.419	749.25
911.592	747.9
911.765	695.58
911.938	674.85
912.11	705.27
912.283	677.18
912.456	733.17
912.629	733.56
912.802	662.84
912.974	652.96
913.147	594.26
913.32	552.21
913.493	561.71
913.665	648.12
913.838	618.09
914.01	586.51
914.183	645.02
914.356	611.3
914.528	671.95
914.701	707.6
914.873	671.56
915.046	627.39
915.218	575.46
915.391	525.86
915.563	562.09
915.736	584.37
915.908	611.5
916.081	620.22
916.253	600.07
916.425	615.76
916.598	607.24
916.77	615.37
916.942	589.99
917.115	524.89
917.287	607.82
917.459	581.66
917.632	517.34
917.804	484.79
917.976	567.71
918.148	567.52
918.32	591.16
918.493	631.84
918.665	638.82
918.837	627.77
919.009	656.84
919.181	643.66
919.353	638.82
919.525	625.06
919.697	607.62
919.869	612.66
920.041	663.62
920.213	711.86
920.385	680.28
920.557	617.5
920.729	646.95
920.901	644.24
921.073	619.05
921.244	615.95
921.416	639.98
921.588	582.63
921.76	618.86
921.932	697.33
922.103	624.09
922.275	598.13
922.447	625.84
922.619	530.71
922.79	633.39
922.962	596.19
923.134	598.9
923.305	519.27
923.477	541.75
923.648	564.81
923.82	581.08
923.991	538.26
924.163	496.61
924.335	526.25
924.506	545.82
924.677	592.9
924.849	540.97
925.02	560.35
925.192	576.62
925.363	527.02
925.535	545.43
925.706	544.46
925.877	606.46
926.049	516.37
926.22	537.68
926.391	574.3
926.562	544.07
926.734	497.38
926.905	599.1
927.076	495.44
927.247	512.49
927.419	454.95
927.59	462.12
927.761	480.91
927.932	449.14
928.103	471.42
928.274	390.82
928.445	410.2
928.616	428.99
928.787	428.79
928.958	437.51
929.129	422.4
929.3	393.53
929.471	341.41
929.642	334.44
929.813	287.55
929.984	380.75
930.155	270.89
930.326	315.65
930.496	274.77
930.667	230.98
930.838	283.1
931.009	240.28
931.18	241.05
931.35	269.73
931.521	236.99
931.692	202.69
931.863	152.32
932.033	210.25
932.204	208.7
932.374	213.35
932.545	158.91
932.716	200.95
932.886	196.1
933.057	96.91
933.227	137.98
933.398	180.99
933.568	80.82
933.739	67.26
933.909	110.86
934.08	153.29
934.25	81.6
934.421	88.77
934.591	108.53
934.761	87.99
934.932	46.53
935.102	125
935.272	81.21
935.443	116.28
935.613	107.37
935.783	114.34
935.953	41.3
936.123	242.8
936.294	85.09
936.464	74.43
936.634	89.35
936.804	52.34
936.974	33.16
937.144	116.67
937.314	107.95
937.484	87.02
937.655	57.38
937.825	129.07
937.995	65.91
938.165	122.87
938.334	78.11
938.504	127.32
938.674	89.54
938.844	137.01
939.014	173.82
939.184	183.32
939.354	216.06
939.524	204.44
939.694	120.35
939.863	157.94
940.033	218
940.203	208.31
940.373	215.87
940.542	209.86
940.712	170.34
940.882	199.01
941.051	228.07
941.221	213.54
941.391	205.4
941.56	188.94
941.73	161.81
941.899	248.03
942.069	160.65
942.238	174.6
942.408	136.82
942.577	185.25
942.747	129.07
942.916	100.39
943.086	108.14
943.255	178.67
943.425	165.3
943.594	134.88
943.763	82.18
943.933	81.02
944.102	39.36
944.271	122.87
944.441	141.08
944.61	119.19
944.779	136.43
944.948	207.15
945.117	85.09
945.287	127.91
945.456	57.96
945.625	113.96
945.794	117.44
945.963	83.73
946.132	146.12
946.301	127.32
946.47	130.81
946.639	75.98
946.808	101.17
946.977	146.51
947.146	179.64
947.315	99.62
947.484	158.52
947.653	111.05
947.822	111.05
947.991	94.97
948.16	182.93
948.329	167.04
948.498	121.32
948.666	144.37
948.835	163.55
949.004	93.03
949.173	101.56
949.341	106.79
949.51	127.91
949.679	153.67
949.847	143.79
950.016	187.39
950.185	171.11
950.353	97.68
950.522	106.01
950.69	171.89
950.859	128.49
951.028	162.39
951.196	132.56
951.365	80.63
951.533	99.81
951.701	163.94
951.87	145.54
952.038	98.26
952.207	105.43
952.375	177.7
952.543	115.51
952.712	96.13
952.88	88.96
953.048	148.25
953.217	147.67
953.385	128.49
953.553	159.49
953.721	92.45
953.89	135.27
954.058	44.98
954.226	89.16
954.394	118.22
954.562	68.43
954.73	126.55
954.898	91.29
955.067	153.67
955.235	86.25
955.403	146.51
955.571	180.41
955.739	151.93
955.907	86.06
956.075	108.53
956.243	82.76
956.41	132.56
956.578	52.73
956.746	59.51
956.914	94.19
957.082	141.86
957.25	136.82
957.418	91.67
957.585	115.7
957.753	188.55
957.921	104.07
958.089	101.56
958.256	142.05
958.424	123.45
958.592	143.21
958.759	89.93
958.927	137.59
959.095	93.22
959.262	106.59
959.43	111.05
959.597	93.81
959.765	90.9
959.932	68.81
960.1	139.92
960.267	104.66
960.435	113.18
960.602	125.58
960.77	105.43
960.937	87.02
961.104	112.6
961.272	65.71
961.439	111.82
961.606	119.77
961.774	152.51
961.941	88.77
962.108	105.82
962.275	119.19
962.443	146.7
962.61	126.94
962.777	196.49
962.944	149.99
963.111	115.31
963.278	156
963.446	143.6
963.613	114.73
963.78	139.53
963.947	137.79
964.114	133.14
964.281	215.87
964.448	156.19
964.615	116.47
964.782	131.2
964.949	176.92
965.116	153.48
965.282	178.47
965.449	128.68
965.616	124.61
965.783	148.83
965.95	125.58
966.117	120.74
966.283	143.21
966.45	157.94
966.617	150.19
966.784	160.45
966.95	150.96
967.117	181.19
967.284	90.12
967.45	90.51
967.617	210.05
967.784	161.81
967.95	206.18
968.117	146.7
968.283	207.73
968.45	224.2
968.616	166.85
968.783	196.3
968.949	185.64
969.116	195.91
969.282	130.81
969.449	167.62
969.615	158.91
969.781	85.67
969.948	106.01
970.114	99.81
970.28	217.03
970.447	155.61
970.613	232.14
970.779	128.29
970.945	160.26
971.112	170.53
971.278	155.22
971.444	138.76
971.61	204.82
971.776	147.09
971.942	181.57
972.108	163.75
972.275	156.19
972.441	165.69
972.607	224.2
972.773	137.21
972.939	171.3
973.105	143.6
973.271	113.37
973.437	131.2
973.602	117.06
973.768	157.55
973.934	155.03
974.1	175.95
974.266	69.2
974.432	174.02
974.598	139.53
974.763	150.38
974.929	116.86
975.095	171.11
975.261	120.35
975.426	102.33
975.592	143.21
975.758	186.42
975.923	78.11
976.089	106.21
976.255	155.81
976.42	131.78
976.586	129.65
976.751	132.94
976.917	214.9
977.082	129.26
977.248	71.14
977.413	81.79
977.579	109.89
977.744	146.51
977.91	98.07
978.075	117.06
978.24	147.28
978.406	132.75
978.571	129.26
978.736	114.15
978.902	113.37
979.067	75.01
979.232	66.29
979.397	128.87
979.563	178.09
979.728	83.54
979.893	137.59
980.058	123.45
980.223	159.49
980.388	112.79
980.554	136.24
980.719	122.09
980.884	135.07
981.049	154.06
981.214	106.21
981.379	130.81
981.544	98.07
981.709	112.6
981.874	117.06
982.039	122.67
982.204	169.17
982.368	136.24
982.533	110.08
982.698	140.69
982.863	162.2
983.028	88.77
983.193	128.29
983.357	100.2
983.522	129.65
983.687	118.61
983.852	111.63
984.016	121.71
984.181	135.27
984.346	138.95
984.51	149.41
984.675	130.23
984.839	145.34
985.004	125.58
985.168	139.72
985.333	130.42
985.498	108.34
985.662	145.92
985.827	137.98
985.991	106.79
986.155	78.11
986.32	138.56
986.484	172.85
986.649	143.79
986.813	46.14
986.977	133.72
987.142	119.57
987.306	81.02
987.47	86.64
987.634	116.86
987.799	132.17
987.963	136.24
988.127	147.09
988.291	161.62
988.455	135.46
988.62	113.76
988.784	130.42
988.948	147.09
989.112	102.14
989.276	104.66
989.44	98.26
989.604	87.99
989.768	105.04
989.932	190.49
990.096	88.57
990.26	64.16
990.424	87.41
990.588	120.54
990.752	178.47
990.915	131.39
991.079	92.45
991.243	72.11
991.407	152.71
991.571	85.28
991.734	117.83
991.898	122.48
992.062	194.17
992.226	111.24
992.389	90.9
992.553	66.29
992.717	69.78
992.88	91.29
993.044	75.59
993.207	92.84
993.371	124.03
993.535	122.87
993.698	134.69
993.862	123.84
994.025	141.86
994.189	102.52
994.352	108.53
994.515	88.57
994.679	166.85
994.842	80.82
995.006	140.31
995.169	74.24
995.332	57.38
995.496	138.76
995.659	23.28
995.822	87.99
995.985	76.95
996.149	130.23
996.312	113.96
996.475	147.67
996.638	66.68
996.801	149.41
996.964	170.34
997.128	62.03
997.291	96.52
997.454	108.34
997.617	51.57
997.78	113.18
997.943	57.19
998.106	119.57
998.269	67.46
998.432	93.61
998.595	78.5
998.758	65.91
998.92	54.48
999.083	36.07
999.246	88.57
999.409	59.32
999.572	25.03
999.735	69.78
999.897	84.51
1000.06	54.09
1000.223	87.22
1000.386	119.19
1000.548	95.16
1000.711	104.66
1000.874	83.54
1001.036	32.97
1001.199	120.54
1001.361	45.76
1001.524	92.26
1001.687	111.05
1001.849	56.61
1002.012	94.19
1002.174	78.31
1002.337	98.46
1002.499	74.82
1002.661	126.16
1002.824	4.88
1002.986	48.28
1003.149	72.69
1003.311	18.05
1003.473	156.97
1003.636	60.87
1003.798	93.03
1003.96	82.37
1004.123	60.48
1004.285	49.63
1004.447	84.51
1004.609	50.99
1004.771	132.56
1004.933	25.03
1005.096	34.52
1005.258	6.04
1005.42	40.72
1005.582	86.83
1005.744	71.14
1005.906	4.29
1006.068	51.96
1006.23	16.89
1006.392	1.39
1006.554	55.64
1006.716	108.92
1006.878	82.96
1007.04	14.56
1007.202	54.48
1007.363	81.6
1007.525	64.55
1007.687	87.61
1007.849	101.94
1008.011	12.63
1008.172	33.55
1008.334	48.86
1008.496	83.15
1008.658	0.61
1008.819	42.85
1008.981	31.61
1009.143	24.44
1009.304	32.58
1009.466	58.54
1009.627	120.16
1009.789	126.36
1009.95	69.59
1010.112	52.15
1010.273	66.49
1010.435	48.28
1010.596	46.14
1010.758	41.69
1010.919	47.89
1011.081	19.41
1011.242	53.31
1011.403	90.12
1011.565	34.52
1011.726	94.39
1011.887	15.53
1012.049	49.24
1012.21	80.24
1012.371	112.99
1012.532	-29.03
1012.693	60.68
1012.855	31.61
1013.016	48.28
1013.177	86.44
1013.338	49.24
1013.499	128.1
1013.66	49.44
1013.821	69.2
1013.982	36.46
1014.143	68.81
1014.304	32.58
1014.465	79.08
1014.626	86.44
1014.787	40.33
1014.948	125.58
1015.109	-20.12
1015.27	110.08
1015.431	27.35
1015.592	16.31
1015.752	104.07
1015.913	34.33
1016.074	38.78
1016.235	44.01
1016.395	61.64
1016.556	37.43
1016.717	54.86
1016.877	67.65
1017.038	21.34
1017.199	52.93
1017.359	44.01
1017.52	60.68
1017.681	13.59
1017.841	30.06
1018.002	36.46
1018.162	19.6
1018.323	49.63
1018.483	52.73
1018.644	30.26
1018.804	-15.47
1018.964	1
1019.125	41.88
1019.285	35.1
1019.446	17.08
1019.606	7.01
1019.766	-6.17
1019.926	80.82
1020.087	75.79
1020.247	-14.69
1020.407	31.61
1020.567	97.1
1020.728	31.81
1020.888	4.29
1021.048	17.66
1021.208	18.83
1021.368	12.82
1021.528	69.2
1021.688	68.81
1021.848	44.79
1022.008	38.01
1022.168	19.99
1022.328	8.56
1022.488	49.44
1022.648	30.26
1022.808	28.51
1022.968	31.61
1023.128	-4.62
1023.288	42.46
1023.448	19.6
1023.608	49.83
1023.767	56.99
1023.927	10.49
1024.087	-1.52
1024.247	1.19
1024.406	0.61
1024.566	3.52
1024.726	7.98
1024.885	21.34
1025.045	50.41
1025.205	12.43
1025.364	0.61
1025.524	26.58
1025.683	27.93
1025.843	39.36
1026.003	17.66
1026.162	98.65
1026.321	80.44
1026.481	23.67
1026.64	4.29
1026.8	26.77
1026.959	27.54
1027.119	25.03
1027.278	6.43
1027.437	1.78
1027.597	38.2
1027.756	56.22
1027.915	32.39
1028.074	53.51
1028.234	7.2
1028.393	42.08
1028.552	19.41
1028.711	-63.71
1028.87	47.89
1029.03	8.36
1029.189	9.33
1029.348	-22.83
1029.507	2.36
1029.666	5.26
1029.825	-4.23
1029.984	17.66
1030.143	26.58
1030.302	-2.1
1030.461	-42.59
1030.62	30.45
1030.779	35.88
1030.938	-14.5
1031.097	-23.22
1031.255	49.05
1031.414	63.19
1031.573	47.5
1031.732	-17.21
1031.891	3.91
1032.049	71.33
1032.208	50.41
1032.367	-32.13
1032.525	8.75
1032.684	24.25
1032.843	12.24
1033.001	-36.2
1033.16	157.16
1033.319	89.16
1033.477	42.08
1033.636	9.33
1033.794	-36.97
1033.953	55.25
1034.111	42.27
1034.27	-6.94
1034.428	18.44
1034.587	-5.97
1034.745	10.11
1034.903	-2.1
1035.062	31.61
1035.22	-53.83
1035.378	51.96
1035.537	-9.46
1035.695	9.53
1035.853	-6.94
1036.011	75.79
1036.17	39.36
1036.328	-31.94
1036.486	46.53
1036.644	36.46
1036.802	-86.19
1036.96	-26.32
1037.119	23.86
1037.277	-12.56
1037.435	-13.53
1037.593	-23.6
1037.751	-1.71
1037.909	25.61
1038.067	25.61
