Data from gum_old_FLMT105791__196__15-48-23-249.txt Node

Date: Mon Mar 20 15:48:23 GMT 2023
User: antho
Spectrometer: FLMT10579
Trigger mode: 0
Integration Time (sec): 1.000000E-1
Scans to average: 10
Electric dark correction enabled: true
Nonlinearity correction enabled: false
Boxcar width: 0
XAxis mode: Wavelengths
Number of Pixels in Spectrum: 3648
>>>>>Begin Spectral Data<<<<<
345.248	-167.04
345.464	-167.04
345.681	-167.04
345.898	-199.79
346.114	-202.89
346.331	-56.41
346.548	4.04
346.764	1.52
346.981	-14.37
347.197	-5.26
347.414	30.58
347.631	-19.79
347.847	71.85
348.064	6.94
348.28	30.77
348.497	-52.93
348.713	3.07
348.93	15.47
349.146	27.29
349.363	6.56
349.579	25.35
349.796	16.24
350.012	9.66
350.229	32.13
350.445	26.9
350.661	16.82
350.878	4.81
351.094	36.78
351.311	16.82
351.527	31.74
351.743	11.98
351.96	63.32
352.176	71.46
352.392	42.4
352.609	55.96
352.825	1.71
353.041	4.23
353.257	18.76
353.474	28.84
353.69	32.13
353.906	36.2
354.122	-12.24
354.339	78.24
354.555	23.6
354.771	12.95
354.987	92.97
355.203	101.49
355.42	5.39
355.636	20.89
355.852	13.92
356.068	36.59
356.284	-22.12
356.5	83.86
356.716	25.35
356.932	34.84
357.148	77.47
357.364	21.86
357.58	78.05
357.796	89.48
358.012	58.67
358.228	48.21
358.444	-57.96
358.66	89.29
358.876	25.35
359.092	14.11
359.308	61.97
359.524	70.69
359.74	19.92
359.956	27.29
360.172	13.14
360.388	62.94
360.604	11.79
360.819	104.59
361.035	42.79
361.251	83.67
361.467	19.54
361.683	76.89
361.898	57.7
362.114	88.51
362.33	44.92
362.546	67.59
362.762	36.59
362.977	71.85
363.193	-5.46
363.409	67.2
363.624	31.94
363.84	14.5
364.056	18.57
364.271	53.64
364.487	49.76
364.703	37.17
364.918	22.44
365.134	35.04
365.35	33.87
365.565	143.53
365.781	70.69
365.996	53.05
366.212	129
366.427	71.85
366.643	25.35
366.858	53.64
367.074	15.08
367.289	92.97
367.505	154
367.72	3.07
367.936	37.94
368.151	98.97
368.367	54.8
368.582	53.44
368.798	47.24
369.013	74.56
369.228	47.82
369.444	43.56
369.659	98.39
369.874	76.89
370.09	103.04
370.305	4.62
370.52	36.2
370.736	95.68
370.951	53.44
371.166	88.9
371.381	113.12
371.597	77.08
371.812	53.44
372.027	62.35
372.242	52.86
372.458	138.11
372.673	48.99
372.888	75.34
373.103	80.18
373.318	152.83
373.533	73.2
373.749	74.95
373.964	8.49
374.179	92.58
374.394	6.94
374.609	103.23
374.824	37.55
375.039	75.72
375.254	45.11
375.469	123.38
375.684	95.87
375.899	73.79
376.114	54.8
376.329	71.85
376.544	104.2
376.759	114.47
376.974	45.3
377.189	51.12
377.404	34.07
377.619	107.88
377.834	16.24
378.049	19.54
378.264	36.39
378.478	89.87
378.693	56.54
378.908	125.32
379.123	74.75
379.338	110.02
379.553	86.57
379.767	67
379.982	83.09
380.197	94.52
380.412	64.87
380.626	107.5
380.841	179.96
381.056	101.3
381.271	155.35
381.485	61.39
381.7	57.32
381.915	79.21
382.129	56.54
382.344	104.98
382.559	81.54
382.773	96.07
382.988	28.64
383.202	63.71
383.417	37.94
383.632	151.48
383.846	47.44
384.061	76.89
384.275	47.44
384.49	98.59
384.704	76.69
384.919	91.03
385.133	85.22
385.348	110.98
385.562	42.59
385.777	139.27
385.991	87.54
386.206	83.09
386.42	57.7
386.634	130.94
386.849	99.94
387.063	90.84
387.277	69.14
387.492	60.22
387.706	47.82
387.92	62.16
388.135	128.03
388.349	97.04
388.563	91.22
388.778	122.03
388.992	109.63
389.206	112.92
389.42	166.59
389.635	105.75
389.849	147.22
390.063	148.77
390.277	127.26
390.491	187.52
390.706	151.48
390.92	159.23
391.134	134.04
391.348	143.15
391.562	73.98
391.776	130.17
391.99	91.42
392.205	149.15
392.419	93.16
392.633	113.31
392.847	155.55
393.061	83.09
393.275	184.22
393.489	78.24
393.703	94.52
393.917	109.82
394.131	59.06
394.345	103.62
394.559	127.07
394.773	123.38
394.986	136.75
395.2	138.11
395.414	164.07
395.628	106.14
395.842	147.41
396.056	141.02
396.27	90.45
396.484	135.78
396.697	133.65
396.911	178.41
397.125	120.87
397.339	149.93
397.553	112.73
397.766	174.15
397.98	168.72
398.194	153.8
398.408	147.99
398.621	189.65
398.835	194.1
399.049	180.15
399.262	265.79
399.476	232.27
399.69	228.98
399.903	265.79
400.117	181.12
400.331	239.63
400.544	186.55
400.758	308.03
400.971	229.36
401.185	239.63
401.398	183.06
401.612	249.32
401.826	223.55
402.039	264.82
402.253	181.32
402.466	240.99
402.68	207.28
402.893	245.83
403.106	237.5
403.32	220.65
403.533	262.11
403.747	235.76
403.96	228.98
404.174	272.38
404.387	185.38
404.6	234.98
404.814	273.73
405.027	245.64
405.24	227.81
405.454	226.26
405.667	310.35
405.88	191.97
406.094	262.3
406.307	311.9
406.52	254.94
406.733	201.27
406.947	181.32
407.16	301.24
407.373	285.94
407.586	220.45
407.799	221.42
408.012	289.04
408.226	267.53
408.439	318.88
408.652	229.75
408.865	295.24
409.078	300.47
409.291	292.14
409.504	235.56
409.717	282.06
409.93	310.74
410.143	254.94
410.357	223.36
410.57	203.01
410.783	236.92
410.996	271.02
411.209	278.58
411.421	332.83
411.634	276.45
411.847	243.31
412.06	283.61
412.273	286.13
412.486	297.76
412.699	409.74
412.912	312.68
413.125	318.49
413.338	311.71
413.55	316.16
413.763	302.6
413.976	318.68
414.189	284.97
414.402	299.89
414.615	356.66
414.827	289.62
415.04	346
415.253	325.27
415.466	349.88
415.678	366.73
415.891	337.67
416.104	315.39
416.316	316.36
416.529	294.27
416.742	336.89
416.954	375.64
417.167	340.58
417.38	325.85
417.592	365.37
417.805	261.53
418.017	276.06
418.23	345.81
418.442	312.09
418.655	324.49
418.868	315
419.08	370.99
419.293	375.26
419.505	347.36
419.718	355.49
419.93	384.56
420.142	306.86
420.355	394.44
420.567	388.43
420.78	364.41
420.992	338.44
421.205	400.83
421.417	306.86
421.629	380.29
421.842	341.74
422.054	308.03
422.266	361.11
422.479	404.71
422.691	343.68
422.903	409.16
423.115	354.53
423.328	361.31
423.54	352.59
423.752	358.98
423.964	367.51
424.177	377.39
424.389	335.34
424.601	505.84
424.813	402.96
425.025	401.41
425.238	428.34
425.45	359.95
425.662	355.3
425.874	706.95
426.086	361.11
426.298	383.39
426.51	373.12
426.722	374.48
426.934	396.37
427.146	416.52
427.358	364.41
427.57	408.97
427.782	363.05
427.994	367.7
428.206	316.36
428.418	355.69
428.63	436.48
428.842	441.91
429.054	417.49
429.266	427.18
429.478	378.36
429.69	395.21
429.902	307.44
430.114	405.09
430.325	369.44
430.537	330.31
430.749	340.77
430.961	259.2
431.173	309.96
431.384	362.28
431.596	260.75
431.808	348.52
432.02	419.82
432.231	444.42
432.443	482.98
432.655	446.75
432.867	407.03
433.078	463.99
433.29	509.91
433.502	496.54
433.713	527.74
433.925	492.67
434.136	527.54
434.348	402.57
434.56	359.76
434.771	529.09
434.983	390.17
435.194	408.19
435.406	470.97
435.617	513.4
435.829	564.55
436.04	530.45
436.252	506.23
436.463	566.1
436.675	548.66
436.886	544.98
437.098	555.83
437.309	611.05
437.521	529.29
437.732	527.15
437.943	536.07
438.155	522.5
438.366	464.57
438.578	568.81
438.789	517.08
439	504.29
439.211	463.99
439.423	535.29
439.634	514.37
439.845	584.89
440.057	520.18
440.268	565.52
440.479	516.89
440.69	545.95
440.902	536.65
441.113	556.6
441.324	524.05
441.535	584.89
441.746	629.26
441.957	554.28
442.168	570.36
442.38	631.78
442.591	637.4
442.802	565.32
443.013	585.47
443.224	615.31
443.435	581.02
443.646	580.82
443.857	591.67
444.068	577.92
444.279	580.24
444.49	670.91
444.701	619.77
444.912	746.48
445.123	659.87
445.334	638.95
445.545	649.02
445.756	635.46
445.967	585.08
446.178	602.52
446.388	649.02
446.599	625.97
446.81	630.03
447.021	589.73
447.232	662.97
447.443	674.01
447.653	626.16
447.864	682.15
448.075	623.45
448.286	691.06
448.496	689.13
448.707	686.8
448.918	650.96
449.129	769.14
449.339	641.08
449.55	698.43
449.761	659.1
449.971	753.64
450.182	676.92
450.393	715.09
450.603	672.46
450.814	759.26
451.024	759.26
451.235	762.94
451.446	780.96
451.656	794.91
451.867	691.26
452.077	685.83
452.288	804.6
452.498	768.37
452.709	705.6
452.919	737.76
453.13	681.38
453.34	751.71
453.55	666.07
453.761	703.66
453.971	717.41
454.182	748.22
454.392	720.13
454.602	791.62
454.813	757.91
455.023	767.98
455.233	697.85
455.444	762.56
455.654	637.98
455.864	712.18
456.075	715.09
456.285	711.21
456.495	720.13
456.705	750.54
456.916	821.65
457.126	809.64
457.336	780.58
457.546	699.01
457.756	719.54
457.967	804.21
458.177	753.45
458.387	762.17
458.597	691.65
458.807	744.93
459.017	738.53
459.227	712.18
459.437	735.24
459.647	776.89
459.857	775.15
460.068	711.21
460.278	798.59
460.488	777.48
460.698	838.89
460.908	774.76
461.117	722.26
461.327	760.23
461.537	804.21
461.747	787.55
461.957	827.66
462.167	961.34
462.377	862.92
462.587	808.09
462.797	855.17
463.007	805.37
463.216	890.04
463.426	869.7
463.636	871.25
463.846	745.7
464.056	766.63
464.265	837.92
464.475	772.24
464.685	824.36
464.895	835.6
465.104	819.71
465.314	838.89
465.524	796.66
465.733	783.09
465.943	897.99
466.153	924.72
466.362	885.01
466.572	864.27
466.782	821.07
466.991	874.16
467.201	895.08
467.41	801.11
467.62	874.16
467.829	833.08
468.039	867.57
468.249	834.05
468.458	857.49
468.668	885.97
468.877	867.76
469.086	925.3
469.296	918.14
469.505	873.57
469.715	968.7
469.924	885.39
470.134	942.74
470.343	952.04
470.552	893.53
470.762	900.89
470.971	876.67
471.18	927.44
471.39	918.72
471.599	873.57
471.808	914.45
472.018	952.82
472.227	1001.45
472.436	1003
472.645	966.38
472.855	929.95
473.064	1039.81
473.273	1001.25
473.482	1012.68
473.691	1034
473.901	1038.26
474.11	983.62
474.319	1108.4
474.528	1031.48
474.737	1095.03
474.946	1046.01
475.155	1056.08
475.364	1108.4
475.573	1053.18
475.783	1077.2
475.992	1101.03
476.201	1121.18
476.41	1077.59
476.619	1040.97
476.828	1075.07
477.037	1079.53
477.245	1082.82
477.454	1123.7
477.663	1104.52
477.872	1126.22
478.081	1194.61
478.29	1087.47
478.499	1220.58
478.708	1198.68
478.917	1268.43
479.125	1197.71
479.334	1203.53
479.543	1155.67
479.752	1211.66
479.961	1218.64
480.169	1258.94
480.378	1208.56
480.587	1378.09
480.796	1256.61
481.004	1260.29
481.213	1244.02
481.422	1260.68
481.63	1281.22
481.839	1294.01
482.048	1388.75
482.256	1317.06
482.465	1347.87
482.674	1338.18
482.882	1330.43
483.091	1395.34
483.299	1356.59
483.508	1364.14
483.716	1371.89
483.925	1347.67
484.134	1368.79
484.342	1357.55
484.551	1423.04
484.759	1396.5
484.967	1433.5
485.176	1402.7
485.384	1444.35
485.593	1434.08
485.801	1412.97
486.01	1354.26
486.218	1306.02
486.426	1196.36
486.635	1198.49
486.843	1214.76
487.051	1261.07
487.26	1269.4
487.468	1329.07
487.676	1346.51
487.885	1317.84
488.093	1376.15
488.301	1434.08
488.509	1447.07
488.717	1495.12
488.926	1484.27
489.134	1420.13
489.342	1457.33
489.55	1438.15
489.758	1470.9
489.967	1442.22
490.175	1558.86
490.383	1491.82
490.591	1633.64
490.799	1511.2
491.007	1592.38
491.215	1587.73
491.423	1537.16
491.631	1540.84
491.839	1584.24
492.047	1591.6
492.255	1468.57
492.463	1453.27
492.671	1478.65
492.879	1562.15
493.087	1540.26
493.295	1571.06
493.503	1577.85
493.711	1635.58
493.919	1630.93
494.127	1656.7
494.334	1660.19
494.542	1598.96
494.75	1640.62
494.958	1611.36
495.166	1707.46
495.374	1701.26
495.581	1743.69
495.789	1695.26
495.997	1732.26
496.205	1639.65
496.412	1631.9
496.62	1666.19
496.828	1703.78
497.035	1633.84
497.243	1749.51
497.451	1674.72
497.658	1695.64
497.866	1706.88
498.074	1776.24
498.281	1679.17
498.489	1769.65
498.696	1696.42
498.904	1679.76
499.112	1689.83
499.319	1749.51
499.527	1704.75
499.734	1794.26
499.942	1670.46
500.149	1709.98
500.357	1744.47
500.564	1650.11
500.771	1728.97
500.979	1645.66
501.186	1664.64
501.394	1718.12
501.601	1676.46
501.808	1717.92
502.016	1729.94
502.223	1676.27
502.43	1683.05
502.638	1672.2
502.845	1677.04
503.052	1788.84
503.26	1693.9
503.467	1789.8
503.674	1723.35
503.881	1807.05
504.089	1846.77
504.296	1789.8
504.503	1689.64
504.71	1762.68
504.917	1685.57
505.125	1778.95
505.332	1748.54
505.539	1783.8
505.746	1876.99
505.953	1845.02
506.16	1855.29
506.367	1942.09
506.574	1973.48
506.781	1916.13
506.988	1884.16
507.195	1852
507.402	1878.73
507.609	1905.08
507.816	1855.1
508.023	1848.12
508.23	1773.34
508.437	1807.05
508.644	1844.64
508.851	1898.3
509.058	1884.16
509.265	1902.76
509.472	1928.33
509.679	2001.38
509.885	1925.82
510.092	1935.5
510.299	1905.86
510.506	1890.75
510.713	1932.02
510.92	1923.68
511.126	1944.41
511.333	1993.05
511.54	1988.98
511.746	2025.01
511.953	2032.38
512.16	2045.36
512.367	1991.11
512.573	1993.05
512.78	1970.18
512.987	1976.77
513.193	1941.9
513.4	1836.3
513.606	1943.83
513.813	1986.07
514.02	1920.39
514.226	2009.9
514.433	2030.05
514.639	1899.47
514.846	1954.49
515.052	1949.06
515.259	1958.95
515.465	2006.22
515.672	1994.4
515.878	2099.41
516.085	2041.68
516.291	2079.07
516.497	2020.75
516.704	1995.56
516.91	1880.09
517.117	1816.93
517.323	1802.4
517.529	1789.61
517.736	1814.41
517.942	1823.52
518.148	1828.75
518.354	1889.97
518.561	1888.42
518.767	1882.8
518.973	1919.23
519.179	1932.21
519.386	1919.03
519.592	1963.98
519.798	1946.74
520.004	2112.97
520.21	2021.33
520.417	2103.29
520.623	2163.35
520.829	2123.44
521.035	2126.34
521.241	2153.86
521.447	2173.81
521.653	2253.05
521.859	2139.71
522.065	2232.71
522.271	2272.62
522.477	2250.15
522.683	2274.37
522.889	2220.89
523.095	2227.67
523.301	2198.61
523.507	2205.2
523.713	2234.84
523.919	2154.82
524.125	2263.32
524.331	2256.74
524.537	2389.65
524.742	2370.47
524.948	2382.48
525.154	2324.74
525.36	2474.89
525.566	2352.83
525.772	2408.63
525.977	2301.49
526.183	2369.69
526.389	2404.37
526.595	2336.75
526.8	2312.92
527.006	2191.06
527.212	2163.74
527.417	2180.4
527.623	2141.07
527.829	2205.2
528.034	2270.3
528.24	2293.55
528.446	2288.32
528.651	2442.15
528.857	2416.38
529.062	2522.75
529.268	2502.79
529.473	2544.64
529.679	2523.72
529.884	2601.61
530.09	2516.74
530.295	2531.47
530.501	2553.56
530.706	2519.84
530.912	2478.19
531.117	2539.03
531.323	2546.58
531.528	2609.36
531.733	2594.63
531.939	2572.35
532.144	2635.51
532.35	2568.86
532.555	2615.36
532.76	2574.09
532.966	2590.37
533.171	2537.28
533.376	2492.91
533.581	2401.46
533.787	2525.27
533.992	2583.97
534.197	2583.01
534.402	2548.33
534.607	2596.76
534.813	2680.46
535.018	2576.22
535.223	2588.24
535.428	2611.68
535.633	2646.55
535.838	2682.01
536.043	2683.75
536.249	2762.03
536.454	2658.57
536.659	2715.14
536.864	2672.9
537.069	2625.82
537.274	2676.78
537.479	2649.65
537.684	2654.69
537.889	2609.74
538.094	2793.8
538.299	2651.79
538.504	2679.3
538.708	2713.59
538.913	2763.97
539.118	2748.66
539.323	2699.25
539.528	2652.95
539.733	2657.6
539.938	2712.82
540.142	2703.13
540.347	2655.27
540.552	2597.54
540.757	2608
540.962	2629.51
541.166	2560.72
541.371	2587.85
541.576	2583.39
541.781	2500.66
541.985	2699.84
542.19	2646.94
542.395	2749.05
542.599	2795.55
542.804	2700.03
543.008	2749.63
543.213	2668.45
543.418	2665.93
543.622	2740.13
543.827	2656.05
544.031	2708.94
544.236	2712.62
544.44	2771.13
544.645	2804.65
544.849	2679.69
545.054	2827.9
545.258	2825.96
545.463	2800.78
545.667	2699.06
545.872	2794
546.076	2785.08
546.281	2797.48
546.485	2729.28
546.689	2807.95
546.894	2773.46
547.098	2795.93
547.302	2752.15
547.507	2757.38
547.711	2819.96
547.915	2824.22
548.119	2716.3
548.324	2767.26
548.528	2830.81
548.732	2765.32
548.936	2800.2
549.141	2825.38
549.345	2770.36
549.549	2780.24
549.753	2856
549.957	2871.3
550.161	2869.36
550.366	2822.09
550.57	2798.45
550.774	2821.9
550.978	2819.18
551.182	2850.96
551.386	2788.96
551.59	2778.88
551.794	2756.8
551.998	2838.75
552.202	2800.97
552.406	2769.97
552.61	2818.02
552.814	2826.55
553.018	2840.5
553.222	2775.98
553.426	2756.8
553.63	2884.28
553.833	2805.62
554.037	2737.23
554.241	2828.48
554.445	2856.96
554.649	2773.85
554.853	2797.29
555.056	2876.53
555.26	2868.2
555.464	2815.89
555.668	2849.21
555.871	2878.86
556.075	2868.01
556.279	2751.37
556.483	2747.69
556.686	2791.67
556.89	2755.63
557.094	2797.29
557.297	2699.45
557.501	2802.91
557.704	2706.23
557.908	2774.62
558.112	2680.46
558.315	2799.62
558.519	2766.29
558.722	2668.06
558.926	2689.95
559.129	2648.88
559.333	2676.39
559.536	2612.46
559.74	2605.09
559.943	2572.35
560.147	2626.41
560.35	2633.38
560.553	2636.09
560.757	2561.69
560.96	2680.27
561.164	2649.07
561.367	2741.3
561.57	2703.71
561.774	2702.16
561.977	2633.57
562.18	2633.57
562.384	2771.52
562.587	2644.81
562.79	2639
562.993	2596.96
563.197	2657.6
563.4	2690.15
563.603	2690.54
563.806	2749.63
564.009	2627.37
564.212	2657.21
564.416	2565.57
564.619	2605.29
564.822	2570.8
565.025	2667.09
565.228	2611.1
565.431	2620.4
565.634	2533.79
565.837	2562.86
566.04	2537.67
566.243	2526.63
566.446	2419.29
566.649	2548.71
566.852	2443.7
567.055	2518.88
567.258	2501.83
567.461	2587.27
567.664	2590.95
567.867	2486.71
568.07	2555.49
568.273	2553.56
568.475	2586.69
568.678	2494.85
568.881	2486.71
569.084	2485.55
569.287	2369.3
569.489	2387.13
569.692	2494.85
569.895	2515.39
570.098	2395.26
570.3	2417.16
570.503	2355.55
570.706	2392.75
570.909	2329.58
571.111	2285.41
571.314	2259.64
571.516	2313.89
571.719	2358.45
571.922	2293.16
572.124	2329.39
572.327	2361.55
572.529	2309.24
572.732	2320.67
572.935	2377.44
573.137	2432.66
573.34	2337.33
573.542	2372.02
573.745	2404.95
573.947	2385.96
574.15	2379.76
574.352	2281.73
574.554	2416.19
574.757	2304.01
574.959	2273.4
575.162	2298.2
575.364	2272.82
575.566	2392.16
575.769	2283.47
575.971	2285.41
576.173	2128.86
576.376	2261.77
576.578	2268.17
576.78	2329.78
576.982	2184.66
577.185	2274.95
577.387	2192.99
577.589	2211.01
577.791	2291.03
577.993	2282.12
578.196	2228.84
578.398	2242.4
578.6	2271.65
578.802	2174.39
579.004	2132.93
579.206	2179.62
579.408	2203.65
579.61	2149.01
579.812	2269.52
580.014	2195.12
580.216	2137.19
580.418	2174.97
580.62	2157.54
580.822	2179.43
581.024	2174.59
581.226	2224.96
581.428	2190.67
581.63	2278.05
581.832	2181.76
582.034	2273.98
582.236	2189.31
582.438	2242.59
582.64	2275.92
582.841	2318.73
583.043	2308.85
583.245	2236.59
583.447	2219.92
583.649	2209.07
583.85	2215.27
584.052	2204.04
584.254	2134.87
584.456	2237.17
584.657	2161.02
584.859	2193.77
585.061	2140.29
585.262	2132.54
585.464	2132.93
585.666	2227.87
585.867	2152.31
586.069	2209.27
586.27	2124.6
586.472	2125.57
586.674	2110.84
586.875	2108.91
587.077	2078.29
587.278	2132.54
587.48	2123.63
587.681	2256.35
587.883	2139.91
588.084	2045.16
588.285	2078.68
588.487	2056.59
588.688	2081.2
588.89	2003.7
589.091	2002.73
589.292	2008.55
589.494	1922.52
589.695	1862.65
589.896	1826.04
590.098	1820.61
590.299	1900.82
590.5	1833.01
590.702	1880.87
590.903	1929.5
591.104	2024.05
591.305	1995.18
591.507	2022.11
591.708	2009.71
591.909	1994.6
592.11	2069.19
592.311	2037.61
592.512	1980.45
592.714	1933.18
592.915	1922.52
593.116	1974.06
593.317	1997.11
593.518	1973.28
593.719	1989.36
593.92	2040.13
594.121	2062.21
594.322	2010.1
594.523	2016.3
594.724	1946.74
594.925	1962.82
595.126	1991.3
595.327	2020.17
595.528	2016.3
595.729	1976.38
595.929	1931.43
596.13	1960.88
596.331	1997.5
596.532	2009.13
596.733	2065.89
596.934	2059.89
597.135	2047.68
597.335	2033.34
597.536	2016.49
597.737	2019.01
597.938	1957.01
598.138	2021.91
598.339	1996.15
598.54	1988.98
598.74	1966.11
598.941	1963.4
599.142	2037.61
599.342	2004.28
599.543	1975.03
599.744	1978.9
599.944	1962.05
600.145	1975.41
600.345	1995.76
600.546	2065.51
600.746	2031.6
600.947	2066.48
601.147	1982.58
601.348	2017.85
601.548	1949.06
601.749	1975.22
601.949	1888.03
602.15	1921.75
602.35	1941.51
602.551	1974.06
602.751	1910.9
602.951	1921.55
603.152	1895.01
603.352	1981.61
603.552	1926.98
603.753	1954.88
603.953	1957.01
604.153	1932.02
604.354	1940.73
604.554	1929.5
604.754	1942.86
604.954	1922.13
605.155	2003.51
605.355	1928.92
605.555	1963.6
605.755	2020.75
605.955	1962.82
606.155	1950.03
606.356	1939.18
606.556	1949.84
606.756	1964.37
606.956	1895.4
607.156	1970.57
607.356	1912.64
607.556	1934.92
607.756	1913.42
607.956	1974.83
608.156	1912.25
608.356	1877.77
608.556	1926.4
608.756	1874.67
608.956	1876.8
609.156	1920.2
609.356	1884.55
609.556	1845.8
609.755	1863.62
609.955	1806.66
610.155	1871.95
610.355	1850.25
610.555	1841.54
610.755	1835.14
610.954	1775.85
611.154	1866.33
611.354	1902.76
611.554	1815.38
611.753	1792.52
611.953	1792.71
612.153	1832.04
612.352	1868.85
612.552	1771.2
612.752	1738.07
612.951	1819.84
613.151	1822.94
613.351	1756.48
613.55	1779.92
613.75	1813.44
613.949	1751.25
614.149	1795.81
614.348	1743.11
614.548	1742.92
614.747	1703.01
614.947	1745.05
615.146	1678.4
615.346	1782.64
615.545	1775.66
615.745	1775.85
615.944	1809.76
616.144	1751.83
616.343	1736.91
616.542	1705.91
616.742	1727.22
616.941	1708.82
617.14	1655.34
617.34	1707.66
617.539	1683.63
617.738	1658.83
617.938	1781.47
618.137	1684.79
618.336	1659.22
618.535	1740.79
618.734	1722.38
618.934	1732.07
619.133	1725.48
619.332	1757.84
619.531	1673.17
619.73	1701.07
619.929	1740.79
620.128	1720.44
620.328	1791.94
620.527	1671.62
620.726	1740.59
620.925	1746.21
621.124	1721.61
621.323	1716.18
621.522	1630.16
621.721	1661.54
621.92	1627.25
622.119	1725.67
622.318	1646.43
622.517	1646.24
622.715	1647.79
622.914	1616.4
623.113	1643.14
623.312	1586.56
623.511	1671.62
623.71	1594.51
623.909	1585.01
624.107	1681.89
624.306	1586.56
624.505	1595.09
624.704	1597.22
624.902	1565.83
625.101	1674.53
625.3	1607.88
625.499	1555.95
625.697	1566.03
625.896	1535.61
626.095	1559.44
626.293	1512.36
626.492	1563.9
626.69	1595.09
626.889	1544.71
627.088	1637.33
627.286	1540.26
627.485	1560.99
627.683	1577.26
627.882	1599.16
628.08	1465.47
628.279	1536.58
628.477	1601.48
628.676	1487.56
628.874	1529.21
629.073	1487.17
629.271	1482.13
629.469	1511.39
629.668	1507.71
629.866	1487.17
630.065	1500.54
630.263	1527.08
630.461	1468.77
630.66	1493.76
630.858	1531.54
631.056	1523.01
631.254	1543.75
631.453	1473.61
631.651	1550.72
631.849	1521.46
632.047	1520.69
632.245	1503.64
632.444	1503.83
632.642	1527.66
632.84	1530.38
633.038	1482.33
633.236	1433.5
633.434	1486.59
633.632	1447.84
633.83	1454.82
634.028	1531.15
634.227	1485.43
634.425	1550.14
634.623	1472.64
634.821	1520.5
635.019	1461.21
635.216	1486.01
635.414	1531.93
635.612	1512.94
635.81	1496.08
636.008	1550.33
636.206	1498.02
636.404	1518.95
636.602	1453.07
636.8	1487.95
636.997	1504.41
637.195	1519.53
637.393	1515.07
637.591	1523.4
637.789	1517.2
637.986	1449.78
638.184	1480
638.382	1538.9
638.58	1522.63
638.777	1550.91
638.975	1460.24
639.173	1480.97
639.37	1508.1
639.568	1481.36
639.765	1502.28
639.963	1469.35
640.161	1518.75
640.358	1480.58
640.556	1430.98
640.753	1432.34
640.951	1381.58
641.148	1435.44
641.346	1405.41
641.543	1423.62
641.741	1432.73
641.938	1379.25
642.136	1389.72
642.333	1386.81
642.531	1471.48
642.728	1467.6
642.925	1441.64
643.123	1390.1
643.32	1429.24
643.517	1394.17
643.715	1418.58
643.912	1424.4
644.109	1401.34
644.306	1399.02
644.504	1348.84
644.701	1394.37
644.898	1459.08
645.095	1331.59
645.293	1400.37
645.49	1381.77
645.687	1386.42
645.884	1424.01
646.081	1300.98
646.278	1362.4
646.475	1313.96
646.672	1347.29
646.87	1369.18
647.067	1363.37
647.264	1377.9
647.461	1277.73
647.658	1292.46
647.855	1387.2
648.052	1291.1
648.249	1219.8
648.446	1314.35
648.642	1291.1
648.839	1277.73
649.036	1279.28
649.233	1218.06
649.43	1219.03
649.627	1205.46
649.824	1251.19
650.021	1243.44
650.217	1214.96
650.414	1235.3
650.611	1242.47
650.808	1281.99
651.004	1289.94
651.201	1289.94
651.398	1317.84
651.595	1273.47
651.791	1241.69
651.988	1315.32
652.185	1221.93
652.381	1294.97
652.578	1200.43
652.775	1241.31
652.971	1261.46
653.168	1278.31
653.364	1293.04
653.561	1184.93
653.757	1267.46
653.954	1249.64
654.15	1237.24
654.347	1322.29
654.543	1257
654.74	1180.47
654.936	1195.78
655.133	1219.22
655.329	1236.27
655.525	1225.23
655.722	1238.01
655.918	1132.61
656.115	1214.38
656.311	1074.88
656.507	1059.18
656.704	989.63
656.9	1028.77
657.096	1044.07
657.292	1028.38
657.489	1102.58
657.685	1105.88
657.881	1115.56
658.077	1123.9
658.273	1102.58
658.47	1230.07
658.666	1150.05
658.862	1181.63
659.058	1149.66
659.254	1210.5
659.45	1145.01
659.646	1168.46
659.842	1144.05
660.038	1220.58
660.234	1100.06
660.43	1139.78
660.626	1225.81
660.822	1158.58
661.018	1191.71
661.214	1168.84
661.41	1113.82
661.606	1209.53
661.802	1184.93
661.998	1126.8
662.194	1132.03
662.39	1170.78
662.586	1196.55
662.781	1156.25
662.977	1189.96
663.173	1167.68
663.369	1160.9
663.564	1179.31
663.76	1180.28
663.956	1115.95
664.152	1216.7
664.347	1094.83
664.543	1163.23
664.739	1145.6
664.934	1065.19
665.13	1101.03
665.326	1152.57
665.521	1156.06
665.717	1097.74
665.912	1077.01
666.108	1036.52
666.304	1119.83
666.499	1125.45
666.695	1037.29
666.89	1123.12
667.086	1144.24
667.281	1152.38
667.477	1186.09
667.672	1106.85
667.867	1095.41
668.063	1131.06
668.258	1079.33
668.454	1109.75
668.649	1191.51
668.844	1088.63
669.04	1148.5
669.235	1110.53
669.43	1053.57
669.626	1018.11
669.821	1098.51
670.016	1068.29
670.211	1114.98
670.407	1056.67
670.602	1107.23
670.797	1093.28
670.992	1079.33
671.187	1040
671.382	1084.95
671.578	1036.71
671.773	1044.27
671.968	1004.35
672.163	1039.81
672.358	1052.6
672.553	1024.7
672.748	1050.27
672.943	1135.13
673.138	1064.22
673.333	1091.73
673.528	1025.47
673.723	1064.41
673.918	1043.1
674.113	1015.01
674.308	1141.72
674.503	1068.48
674.698	1070.03
674.892	1065.96
675.087	1094.83
675.282	1078.75
675.477	1023.73
675.672	1077.59
675.867	1059.18
676.061	993.7
676.256	993.31
676.451	1003
676.646	1034.58
676.84	999.32
677.035	974.71
677.23	988.27
677.424	1037.48
677.619	1066.16
677.814	1078.95
678.008	1049.69
678.203	961.73
678.397	998.73
678.592	1017.53
678.787	1086.5
678.981	997.18
679.176	1019.08
679.37	992.92
679.565	979.55
679.759	999.51
679.954	1071.39
680.148	1072.16
680.342	1082.63
680.537	1068.29
680.731	1013.46
680.926	1052.02
681.12	1028.77
681.314	973.55
681.509	1008.62
681.703	1018.3
681.897	1052.6
682.092	1012.68
682.286	984.98
682.48	1080.69
682.674	1016.17
682.869	1022.37
683.063	1034
683.257	1106.85
683.451	998.73
683.645	1023.34
683.839	982.65
684.034	1009.78
684.228	1069.84
684.422	951.07
684.616	998.15
684.81	1047.95
685.004	1014.82
685.198	1008.81
685.392	1061.51
685.586	984.4
685.78	1019.66
685.974	1003.38
686.168	1025.86
686.362	1049.3
686.556	953.4
686.75	915.23
686.944	899.15
687.138	916.39
687.331	829.98
687.525	858.46
687.719	760.81
687.913	848.97
688.107	860.98
688.301	822.23
688.494	860.79
688.688	818.74
688.882	811.19
689.076	800.92
689.269	878.42
689.463	972.58
689.657	871.64
689.85	862.14
690.044	872.8
690.238	859.24
690.431	885.59
690.625	844.71
690.818	929.76
691.012	927.24
691.205	978.39
691.399	909.42
691.593	931.31
691.786	997.18
691.98	1014.82
692.173	1007.65
692.366	983.82
692.56	1009.78
692.753	1052.4
692.947	976.26
693.14	1061.7
693.333	1075.65
693.527	980.91
693.72	1036.52
693.914	991.95
694.107	1022.37
694.3	1001.64
694.493	989.82
694.687	1066.74
694.88	985.37
695.073	1095.61
695.266	1081.08
695.46	1051.05
695.653	1104.33
695.846	1075.65
696.039	1008.23
696.232	1048.33
696.425	1116.53
696.618	1114.4
696.812	1116.15
697.005	1151.21
697.198	1264.36
697.391	1152.18
697.584	1205.66
697.777	1231.23
697.97	1187.83
698.163	1219.99
698.356	1178.92
698.549	1288.97
698.742	1268.24
698.935	1162.84
699.127	1254.09
699.32	1192.09
699.513	1192.48
699.706	1248.47
699.899	1284.9
700.092	1221.93
700.285	1265.14
700.477	1196.16
700.67	1286.06
700.863	1292.84
701.056	1387
701.248	1353.1
701.441	1326.17
701.634	1306.02
701.826	1421.68
702.019	1296.52
702.212	1370.73
702.404	1328.1
702.597	1342.05
702.79	1330.82
702.982	1377.12
703.175	1424.01
703.367	1469.15
703.56	1467.02
703.752	1525.92
703.945	1467.02
704.137	1498.41
704.33	1513.33
704.522	1547.04
704.715	1560.99
704.907	1584.43
705.1	1610.78
705.292	1620.08
705.484	1585.01
705.677	1652.44
705.869	1618.34
706.061	1681.11
706.254	1709.21
706.446	1678.4
706.638	1680.14
706.831	1746.02
707.023	1660.96
707.215	1818.48
707.407	1835.53
707.599	1799.69
707.792	1850.45
707.984	1817.12
708.176	1870.79
708.368	1841.92
708.56	1870.79
708.752	1861.88
708.944	1862.27
709.136	1934.34
709.329	1901.4
709.521	2035.48
709.713	1957.59
709.905	1988.98
710.097	2045.55
710.289	1989.17
710.481	2063.76
710.672	2044.97
710.864	2086.63
711.056	2107.74
711.248	2111.62
711.44	2086.82
711.632	2119.76
711.824	2153.47
712.016	2225.74
712.207	2227.29
712.399	2194.74
712.591	2303.82
712.783	2274.56
712.975	2353.8
713.166	2268.75
713.358	2304.98
713.55	2365.04
713.741	2368.92
713.933	2378.21
714.125	2342.95
714.316	2329.78
714.508	2500.47
714.7	2453
714.891	2454.75
715.083	2510.54
715.274	2456.68
715.466	2463.08
715.657	2505.12
715.849	2414.64
716.04	2476.25
716.232	2436.92
716.423	2481.48
716.615	2417.55
716.806	2395.46
716.998	2354.58
717.189	2314.86
717.381	2230.77
717.572	2223.02
717.763	2262.74
717.955	2258.67
718.146	2200.74
718.337	2170.91
718.528	2151.14
718.72	2049.81
718.911	2145.72
719.102	2067.25
719.293	2116.66
719.485	2142.04
719.676	2121.5
719.867	2098.06
720.058	2102.13
720.249	2143.01
720.44	2141.84
720.632	2146.69
720.823	2248.6
721.014	2377.44
721.205	2353.61
721.396	2507.25
721.587	2576.61
721.778	2583.78
721.969	2665.93
722.16	2712.24
722.351	2718.24
722.542	2821.12
722.733	2837.2
722.924	2750.79
723.115	2839.33
723.305	2815.11
723.496	2863.55
723.687	2710.88
723.878	2727.73
724.069	2737.42
724.26	2748.66
724.45	2676.78
724.641	2669.61
724.832	2770.75
725.023	2726.77
725.213	2723.09
725.404	2695.57
725.595	2699.25
725.785	2702.55
725.976	2813.37
726.167	2781.02
726.357	2790.9
726.548	2921.48
726.739	2779.08
726.929	2899.59
727.12	2929.23
727.31	2978.06
727.501	2908.69
727.691	2939.31
727.882	2931.75
728.072	2984.06
728.263	2994.52
728.453	3058.07
728.644	3026.69
728.834	3057.49
729.024	3016.42
729.215	2979.22
729.405	3020.68
729.596	3141.58
729.786	3116.78
729.976	3149.72
730.167	3196.6
730.357	3173.74
730.547	3188.08
730.737	3199.32
730.928	3241.94
731.118	3288.63
731.308	3218.69
731.498	3218.88
731.688	3349.08
731.879	3362.06
732.069	3395.97
732.259	3456.03
732.449	3463.01
732.639	3534.11
732.829	3579.84
733.019	3605.6
733.209	3668.38
733.399	3665.67
733.589	3732.51
733.779	3778.23
733.969	3777.07
734.159	3835.19
734.349	3904.17
734.539	3933.62
734.729	3904.94
734.919	3965.39
735.109	4039.02
735.299	3948.15
735.488	3994.07
735.678	4008.21
735.868	4016.54
736.058	3974.3
736.248	3991.74
736.437	3969.65
736.627	3930.32
736.817	4076.8
737.007	4041.15
737.196	4070.79
737.386	4040.37
737.576	4074.08
737.765	4113.22
737.955	4048.51
738.144	4229.47
738.334	4152.94
738.524	4128.53
738.713	4182.78
738.903	4130.08
739.092	4219.2
739.282	4181.61
739.471	4181.81
739.661	4180.45
739.85	4206.61
740.04	4217.84
740.229	4235.86
740.419	4315.49
740.608	4302.12
740.797	4327.89
740.987	4379.82
741.176	4307.36
741.365	4337.58
741.555	4250.59
741.744	4369.16
741.933	4269.38
742.123	4326.92
742.312	4366.06
742.501	4401.13
742.69	4379.43
742.88	4294.18
743.069	4408.69
743.258	4364.9
743.447	4452.47
743.636	4420.89
743.825	4384.27
744.014	4412.75
744.204	4467.59
744.393	4414.11
744.582	4526.87
744.771	4547.22
744.96	4459.25
745.149	4467.2
745.338	4431.35
745.527	4488.9
745.716	4476.69
745.905	4463.13
746.094	4582.28
746.283	4574.15
746.471	4516.02
746.66	4608.63
746.849	4538.3
747.038	4630.14
747.227	4514.67
747.416	4573.18
747.604	4493.74
747.793	4478.24
747.982	4533.85
748.171	4610.76
748.359	4544.5
748.548	4547.02
748.737	4518.54
748.926	4511.18
749.114	4399.58
749.303	4526.87
749.491	4483.47
749.68	4430.19
749.869	4546.05
750.057	4524.93
750.246	4478.82
750.434	4534.82
750.623	4461.97
750.811	4481.92
751	4539.47
751.188	4435.23
751.377	4470.88
751.565	4408.69
751.754	4422.25
751.942	4404.04
752.131	4527.84
752.319	4477.27
752.507	4413.72
752.696	4469.52
752.884	4499.36
753.072	4414.11
753.261	4480.57
753.449	4492.58
753.637	4426.7
753.825	4539.66
754.014	4475.92
754.202	4440.85
754.39	4521.25
754.578	4488.9
754.766	4398.03
754.955	4398.22
755.143	4519.9
755.331	4463.71
755.519	4465.45
755.707	4390.67
755.895	4389.5
756.083	4428.25
756.271	4377.49
756.459	4388.54
756.647	4381.17
756.835	4359.28
757.023	4318.79
757.211	4354.44
757.399	4356.18
757.587	4361.99
757.775	4273.64
757.963	4308.52
758.151	4385.05
758.339	4306.97
758.526	4234.12
758.714	4328.28
758.902	4234.89
759.09	4146.16
759.278	3954.93
759.465	3723.4
759.653	3281.27
759.841	3075.12
760.028	2691.5
760.216	2360.39
760.404	2246.08
760.591	1894.04
760.779	1656.89
760.967	1505.96
761.154	1319.58
761.342	1342.05
761.529	1373.44
761.717	1492.21
761.905	1455.01
762.092	1597.8
762.28	1548.4
762.467	1590.05
762.655	1527.66
762.842	1573.58
763.029	1601.68
763.217	1601.68
763.404	1639.46
763.592	1654.38
763.779	1630.35
763.966	1714.63
764.154	1746.99
764.341	1811.5
764.528	1832.43
764.716	1906.63
764.903	1907.22
765.09	2020.17
765.277	2095.15
765.465	2245.11
765.652	2293.74
765.839	2376.47
766.026	2503.18
766.213	2562.66
766.4	2656.05
766.588	2858.13
766.775	2862.97
766.962	2982.32
767.149	3055.94
767.336	3209
767.523	3185.37
767.71	3266.35
767.897	3457.39
768.084	3480.25
768.271	3504.27
768.458	3562.59
768.645	3630.98
768.832	3614.32
769.019	3666.63
769.206	3672.25
769.392	3739.68
769.579	3818.92
769.766	3754.6
769.953	3809.62
770.14	3835.97
770.327	3801.87
770.513	3879.95
770.7	3954.15
770.887	3811.17
771.073	3835.58
771.26	3831.13
771.447	3847.98
771.634	3805.74
771.82	3929.36
772.007	3791.02
772.193	3869.68
772.38	3870.84
772.567	3819.5
772.753	3860.77
772.94	3865.81
773.126	3876.07
773.313	3908.24
773.499	3878.79
773.686	3886.34
773.872	3767.96
774.059	3824.93
774.245	3792.96
774.432	3833.64
774.618	3725.34
774.804	3807.29
774.991	3761.57
775.177	3851.66
775.363	3770.68
775.55	3828.61
775.736	3712.75
775.922	3781.91
776.109	3737.55
776.295	3768.16
776.481	3798.77
776.667	3819.89
776.853	3760.41
777.04	3717.01
777.226	3729.41
777.412	3783.46
777.598	3702.86
777.784	3697.83
777.97	3665.47
778.156	3722.05
778.342	3704.22
778.528	3663.73
778.715	3593.79
778.901	3632.15
779.087	3660.82
779.272	3618.58
779.458	3611.03
779.644	3638.73
779.83	3633.5
780.016	3683.68
780.202	3603.08
780.388	3590.3
780.574	3520.74
780.76	3589.33
780.946	3606.96
781.131	3593.79
781.317	3581.19
781.503	3527.72
781.689	3530.82
781.874	3661.4
782.06	3535.08
782.246	3562.98
782.432	3535.08
782.617	3524.23
782.803	3649.58
782.989	3445.37
783.174	3472.31
783.36	3443.82
783.545	3472.31
783.731	3470.56
783.916	3336.68
784.102	3477.73
784.288	3432.59
784.473	3427.74
784.659	3407.21
784.844	3444.41
785.029	3414.38
785.215	3399.07
785.4	3348.5
785.586	3506.41
785.771	3337.84
785.956	3397.71
786.142	3386.86
786.327	3358.96
786.512	3351.6
786.698	3306.65
786.883	3246.78
787.068	3302.2
787.254	3349.66
787.439	3303.94
787.624	3292.51
787.809	3263.45
787.994	3234.38
788.18	3326.03
788.365	3224.5
788.55	3225.67
788.735	3222.95
788.92	3218.88
789.105	3230.9
789.29	3254.34
789.475	3215.01
789.66	3171.22
789.845	3159.4
790.03	3138.09
790.215	3214.23
790.4	3258.41
790.585	3214.04
790.77	3166.77
790.955	3083.26
791.14	3181.68
791.325	3196.6
791.51	3070.09
791.695	3135.38
791.879	3110
792.064	3078.61
792.249	3130.54
792.434	3084.04
792.618	3147.2
792.803	3174.52
792.988	3123.95
793.173	3136.74
793.357	3140.8
793.542	3090.04
793.727	3107.09
793.911	3133.05
794.096	3081.32
794.281	3163.67
794.465	3235.93
794.65	3118.33
794.834	3182.46
795.019	3178
795.203	3210.75
795.388	3150.49
795.572	3232.64
795.757	3153.4
795.941	3151.07
796.126	3145.84
796.31	3110.77
796.494	3188.08
796.679	3106.7
796.863	3107.29
797.048	3267.13
797.232	3152.04
797.416	3159.79
797.601	3145.26
797.785	3251.82
797.969	3214.43
798.153	3157.66
798.338	3200.09
798.522	3256.47
798.706	3224.7
798.89	3226.25
799.074	3362.64
799.258	3261.51
799.443	3225.47
799.627	3202.8
799.811	3252.01
799.995	3177.42
800.179	3193.89
800.363	3165.22
800.547	3228.18
800.731	3282.63
800.915	3133.44
801.099	3172.58
801.283	3181.88
801.467	3181.3
801.651	3144.1
801.835	3220.43
802.019	3209.78
802.202	3232.64
802.386	3165.41
802.57	3122.4
802.754	3151.27
802.938	3122.79
803.121	3164.83
803.305	3211.33
803.489	3140.8
803.673	3173.55
803.856	3163.47
804.04	3196.99
804.224	3182.65
804.407	3143.52
804.591	3162.12
804.775	3138.87
804.958	3194.28
805.142	3269.26
805.326	3187.69
805.509	3211.52
805.693	3234
805.876	3205.32
806.06	3150.69
806.243	3192.53
806.427	3227.99
806.61	3258.8
806.794	3144.29
806.977	3219.85
807.16	3154.17
807.344	3185.37
807.527	3147.59
807.71	3154.17
807.894	3213.46
808.077	3230.7
808.26	3154.95
808.444	3101.86
808.627	3179.55
808.81	3161.73
808.993	3072.22
809.177	3045.67
809.36	3103.6
809.543	3104.19
809.726	2994.33
809.909	3034.82
810.092	3005.18
810.276	2968.37
810.459	2990.26
810.642	2983.09
810.825	2949.58
811.008	3021.46
811.191	2881.57
811.374	2923.81
811.557	2920.9
811.74	2986.19
811.923	2834.88
812.106	2833.71
812.289	2848.25
812.472	2839.72
812.654	2872.27
812.837	2785.67
813.02	2746.92
813.203	2707.39
813.386	2615.75
813.569	2618.66
813.751	2553.56
813.934	2620.59
814.117	2551.62
814.3	2497.18
814.482	2447.96
814.665	2428.98
814.848	2380.73
815.03	2351.28
815.213	2322.8
815.396	2283.47
815.578	2273.4
815.761	2243.37
815.943	2305.17
816.126	2209.65
816.309	2160.83
816.491	2100.58
816.674	2029.66
816.856	2082.75
817.039	2112.2
817.221	2178.07
817.403	2139.71
817.586	2054.66
817.768	2167.03
817.951	2029.66
818.133	2048.46
818.315	2064.54
818.498	2146.3
818.68	2159.86
818.862	2145.14
819.045	2156.76
819.227	2142.62
819.409	2129.44
819.591	2170.91
819.774	2106.19
819.956	2089.14
820.138	2152.5
820.32	2146.11
820.502	2187.57
820.684	2276.5
820.866	2273.01
821.048	2327.45
821.231	2330.94
821.413	2340.63
821.595	2292.38
821.777	2346.25
821.959	2285.22
822.141	2395.26
822.323	2238.52
822.505	2156.96
822.686	2119.95
822.868	2064.34
823.05	1922.52
823.232	1892.1
823.414	1776.24
823.596	1894.04
823.778	1873.31
823.96	1915.16
824.141	1927.37
824.323	1925.23
824.505	2011.65
824.687	2071.32
824.868	2137.39
825.05	2224.38
825.232	2210.62
825.413	2290.83
825.595	2224.96
825.777	2181.56
825.958	2227.48
826.14	2186.21
826.321	2267.39
826.503	2225.54
826.685	2210.24
826.866	2285.8
827.048	2280.57
827.229	2216.24
827.411	2188.54
827.592	2129.64
827.773	2135.84
827.955	2099.03
828.136	2068.61
828.318	2032.96
828.499	2059.31
828.68	1987.43
828.862	2053.3
829.043	2079.46
829.224	2039.35
829.406	1977.16
829.587	2010.68
829.768	2015.52
829.949	2031.21
830.131	2018.23
830.312	2095.54
830.493	2022.11
830.674	2042.26
830.855	2007.19
831.036	1984.13
831.218	2074.61
831.399	2127.12
831.58	2080.04
831.761	2023.08
831.942	2033.34
832.123	2027.34
832.304	1977.35
832.485	2004.09
832.666	1994.4
832.847	2018.43
833.028	2001.96
833.209	2012.81
833.389	2007.19
833.57	1921.17
833.751	1951.39
833.932	2032.76
834.113	2018.81
834.294	1937.83
834.475	2030.05
834.655	2058.92
834.836	2041.48
835.017	2031.79
835.198	2000.21
835.378	2025.4
835.559	2070.74
835.74	2002.73
835.92	2050.01
836.101	1984.13
836.281	2055.82
836.462	2041.68
836.643	2077.52
836.823	2092.63
837.004	2097.48
837.184	2158.7
837.365	2075.97
837.545	2077.33
837.726	2068.03
837.906	2109.29
838.087	2071.32
838.267	2062.02
838.448	2015.91
838.628	2081.59
838.808	2068.8
838.989	2128.86
839.169	2049.43
839.349	2072.68
839.53	2100.58
839.71	2083.91
839.89	2012.61
840.07	2122.66
840.251	2033.34
840.431	2087.79
840.611	2033.34
840.791	2015.91
840.971	2048.84
841.151	1998.28
841.332	2004.28
841.512	2079.46
841.692	1948.87
841.872	2048.07
842.052	2033.93
842.232	2049.04
842.412	1984.13
842.592	1990.91
842.772	2010.68
842.952	2017.65
843.132	1961.27
843.312	1960.88
843.492	1977.93
843.672	2007.77
843.851	1975.61
844.031	1960.11
844.211	1971.54
844.391	1935.7
844.571	1980.45
844.751	1967.08
844.93	1983.94
845.11	1928.14
845.29	1950.81
845.47	1989.56
845.649	1992.46
845.829	2009.71
846.009	1920.78
846.188	1976.58
846.368	1965.15
846.547	1942.28
846.727	1981.03
846.907	1892.1
847.086	1923.49
847.266	1967.66
847.445	1959.14
847.625	1900.43
847.804	1891.13
847.984	1896.17
848.163	1878.54
848.343	1891.91
848.522	1905.28
848.701	1930.08
848.881	1851.42
849.06	1925.23
849.239	1922.13
849.419	1875.05
849.598	1838.44
849.777	1821.39
849.957	1823.13
850.136	1716.37
850.315	1709.01
850.494	1722.77
850.674	1716.96
850.853	1796.78
851.032	1775.85
851.211	1806.08
851.39	1801.24
851.569	1716.57
851.748	1732.46
851.927	1819.64
852.107	1792.9
852.286	1764.04
852.465	1712.31
852.644	1795.42
852.823	1787.09
853.002	1737.49
853.181	1769.27
853.359	1765.2
853.538	1701.65
853.717	1772.95
853.896	1682.27
854.075	1595.86
854.254	1576.88
854.433	1488.53
854.611	1531.73
854.79	1450.75
854.969	1566.03
855.148	1529.6
855.327	1515.07
855.505	1597.41
855.684	1610.59
855.863	1603.81
856.041	1562.93
856.22	1600.71
856.399	1595.09
856.577	1687.89
856.756	1670.07
856.934	1774.89
857.113	1840.95
857.291	1690.22
857.47	1633.64
857.648	1725.48
857.827	1693.9
858.005	1759.39
858.184	1664.45
858.362	1798.91
858.541	1673.56
858.719	1679.37
858.898	1646.63
859.076	1654.96
859.254	1754.35
859.433	1636.16
859.611	1625.7
859.789	1616.4
859.967	1726.45
860.146	1713.86
860.324	1592.57
860.502	1635.58
860.68	1553.24
860.859	1609.81
861.037	1626.86
861.215	1626.86
861.393	1641.78
861.571	1577.65
861.749	1599.16
861.927	1604.58
862.105	1617.37
862.283	1578.04
862.461	1590.24
862.639	1566.22
862.817	1582.69
862.995	1613.69
863.173	1584.82
863.351	1606.71
863.529	1591.02
863.707	1630.74
863.885	1592.76
864.063	1516.62
864.241	1549.17
864.418	1601.09
864.596	1550.33
864.774	1510.81
864.952	1539.87
865.129	1560.6
865.307	1523.21
865.485	1477.68
865.663	1568.16
865.84	1460.63
866.018	1453.07
866.196	1313.96
866.373	1354.45
866.551	1295.17
866.728	1275.79
866.906	1307.76
867.084	1325.39
867.261	1381.58
867.439	1383.71
867.616	1421.68
867.794	1396.69
867.971	1413.35
868.149	1428.66
868.326	1483.68
868.503	1461.79
868.681	1474.58
868.858	1418.78
869.035	1394.95
869.213	1456.75
869.39	1425.56
869.567	1506.93
869.745	1425.56
869.922	1466.63
870.099	1427.69
870.276	1453.27
870.454	1418.97
870.631	1442.61
870.808	1408.9
870.985	1478.84
871.162	1492.4
871.339	1439.7
871.517	1391.85
871.694	1348.64
871.871	1402.31
872.048	1399.02
872.225	1365.5
872.402	1390.88
872.579	1360.46
872.756	1385.26
872.933	1340.31
873.11	1338.57
873.287	1390.69
873.463	1363.37
873.64	1352.32
873.817	1388.94
873.994	1343.41
874.171	1317.84
874.348	1363.75
874.524	1271.72
874.701	1380.22
874.878	1269.79
875.055	1358.52
875.231	1339.15
875.408	1349.22
875.585	1281.99
875.762	1350.77
875.938	1320.55
876.115	1274.44
876.291	1299.62
876.468	1312.8
876.645	1269.98
876.821	1264.75
876.998	1282.19
877.174	1301.76
877.351	1258.55
877.527	1241.11
877.704	1288.77
877.88	1276.76
878.057	1285.87
878.233	1314.54
878.409	1246.73
878.586	1237.43
878.762	1270.95
878.938	1242.86
879.115	1207.59
879.291	1246.34
879.467	1188.41
879.644	1225.03
879.82	1266.88
879.996	1205.85
880.172	1190.93
880.349	1207.21
880.525	1243.44
880.701	1192.09
880.877	1187.44
881.053	1207.98
881.229	1189.38
881.405	1251.38
881.581	1173.69
881.757	1209.14
881.933	1197.71
882.109	1241.5
882.285	1226
882.461	1164.97
882.637	1203.14
882.813	1180.08
882.989	1199.07
883.165	1264.75
883.341	1150.05
883.517	1270.76
883.693	1215.34
883.869	1232.78
884.044	1176.59
884.22	1234.33
884.396	1231.62
884.572	1230.46
884.747	1246.34
884.923	1224.06
885.099	1218.06
885.275	1247.12
885.45	1167.88
885.626	1210.31
885.801	1165.55
885.977	1187.06
886.153	1151.6
886.328	1221.74
886.504	1151.41
886.679	1201.98
886.855	1201.78
887.03	1213.41
887.206	1213.21
887.381	1210.69
887.557	1234.91
887.732	1206.24
887.908	1225.42
888.083	1234.72
888.258	1188.99
888.434	1152.57
888.609	1192.09
888.784	1222.51
888.96	1195.97
889.135	1181.24
889.31	1173.11
889.485	1200.62
889.661	1195.78
889.836	1270.56
890.011	1215.15
890.186	1219.22
890.361	1184.73
890.537	1225.42
890.712	1215.93
890.887	1189.38
891.062	1197.52
891.237	1266.49
891.412	1178.73
891.587	1192.09
891.762	1197.13
891.937	1281.8
892.112	1155.86
892.287	1180.86
892.462	1147.15
892.637	1108.59
892.812	1117.31
892.987	1100.65
893.161	1114.01
893.336	1106.46
893.511	1120.21
893.686	1150.44
893.861	1108.98
894.035	1109.75
894.21	1119.83
894.385	1061.32
894.56	1131.84
894.734	1058.41
894.909	1014.62
895.084	1101.23
895.258	996.99
895.433	1040.2
895.608	1009.58
895.782	959.21
895.957	1000.87
896.131	980.91
896.306	899.34
896.48	879.77
896.655	910.77
896.829	882.87
897.004	873.19
897.178	873.57
897.353	878.03
897.527	892.17
897.701	849.36
897.876	811.19
898.05	922.4
898.224	873.96
898.399	899.54
898.573	831.92
898.747	743.57
898.921	797.63
899.096	702.88
899.27	694.55
899.444	704.82
899.618	746.28
899.792	774.96
899.967	771.28
900.141	795.88
900.315	740.08
900.489	767.79
900.663	747.83
900.837	777.48
901.011	711.21
901.185	835.02
901.359	776.7
901.533	774.96
901.707	750.54
901.881	761.2
902.055	755.19
902.229	767.79
902.403	840.44
902.576	762.17
902.75	796.85
902.924	889.07
903.098	832.31
903.272	859.04
903.446	877.06
903.619	870.28
903.793	915.23
903.967	913.1
904.14	942.16
904.314	950.3
904.488	900.31
904.661	981.1
904.835	891.4
905.009	941.39
905.182	983.23
905.356	931.5
905.529	944.87
905.703	906.9
905.876	872.02
906.05	872.22
906.223	843.93
906.397	810.41
906.57	783.29
906.744	733.49
906.917	755
907.09	770.31
907.264	748.03
907.437	739.89
907.61	702.3
907.784	720.9
907.957	761.01
908.13	672.27
908.304	730.59
908.477	698.23
908.65	680.6
908.823	649.99
908.996	743.57
909.17	676.92
909.343	673.24
909.516	699.59
909.689	710.63
909.862	667.23
910.035	685.83
910.208	650.76
910.381	650.57
910.554	726.71
910.727	656.58
910.9	638.95
911.073	673.43
911.246	733.69
911.419	720.32
911.592	727.88
911.765	654.83
911.938	647.08
912.11	671.69
912.283	655.03
912.456	725.74
912.629	681.76
912.802	665.1
912.974	635.85
913.147	574.43
913.32	519.21
913.493	571.33
913.665	595.55
913.838	615.7
914.01	600.97
914.183	609.3
914.356	605.62
914.528	644.56
914.701	682.15
914.873	661.81
915.046	596.52
915.218	543.43
915.391	501.39
915.563	523.86
915.736	578.69
915.908	609.69
916.081	594
916.253	602.72
916.425	604.65
916.598	620.15
916.77	612.4
916.942	520.95
917.115	489.76
917.287	609.88
917.459	552.15
917.632	521.34
917.804	469.61
917.976	561.45
918.148	566.29
918.32	535.1
918.493	591.09
918.665	659.29
918.837	565.9
919.009	636.04
919.181	643.4
919.353	592.45
919.525	604.27
919.697	590.51
919.869	612.4
920.041	639.91
920.213	737.18
920.385	664.13
920.557	584.5
920.729	620.54
920.901	635.85
921.073	589.73
921.244	582.37
921.416	620.35
921.588	594.97
921.76	564.35
921.932	684.48
922.103	583.34
922.275	598.26
922.447	600.39
922.619	510.69
922.79	575.98
922.962	570.55
923.134	593.61
923.305	506.62
923.477	516.5
923.648	535.87
923.82	543.43
923.991	512.24
924.163	486.66
924.335	520.95
924.506	479.88
924.677	592.64
924.849	494.8
925.02	518.82
925.192	534.52
925.363	530.84
925.535	519.99
925.706	506.81
925.877	569.39
926.049	488.21
926.22	538.78
926.391	523.47
926.562	560.67
926.734	494.99
926.905	539.94
927.076	464.77
927.247	490.54
927.419	462.44
927.59	427.96
927.761	443.07
927.932	431.06
928.103	406.26
928.274	382.42
928.445	406.45
928.616	420.79
928.787	380.49
928.958	434.54
929.129	395.02
929.3	372.93
929.471	341.74
929.642	282.84
929.813	254.36
929.984	354.14
930.155	256.1
930.326	322.56
930.496	268.31
930.667	235.18
930.838	269.28
931.009	212.31
931.18	243.12
931.35	251.65
931.521	263.46
931.692	198.95
931.863	137.33
932.033	180.54
932.204	201.46
932.374	194.1
932.545	140.05
932.716	224.71
932.886	194.49
933.057	100.72
933.227	127.45
933.398	204.18
933.568	114.08
933.739	64.49
933.909	67.59
934.08	140.82
934.25	36.78
934.421	87.74
934.591	121.64
934.761	96.84
934.932	69.72
935.102	112.73
935.272	73.01
935.443	103.23
935.613	97.42
935.783	100.52
935.953	43.37
936.123	255.71
936.294	68.17
936.464	89.29
936.634	101.69
936.804	46.47
936.974	54.41
937.144	100.91
937.314	83.28
937.484	67.39
937.655	38.72
937.825	133.46
937.995	94.13
938.165	107.11
938.334	102.27
938.504	103.62
938.674	113.12
938.844	138.11
939.014	163.49
939.184	153.42
939.354	226.26
939.524	198.95
939.694	153.42
939.863	146.83
940.033	215.41
940.203	204.95
940.373	173.57
940.542	164.46
940.712	144.7
940.882	162.13
941.051	202.43
941.221	201.46
941.391	203.01
941.56	161.55
941.73	127.65
941.899	253
942.069	153.03
942.238	184.8
942.408	125.9
942.577	184.8
942.747	143.73
942.916	66.42
943.086	113.12
943.255	201.85
943.425	167.17
943.594	112.15
943.763	57.32
943.933	68.75
944.102	48.21
944.271	100.72
944.441	141.79
944.61	94.9
944.779	116.02
944.948	203.4
945.117	89.48
945.287	120.48
945.456	24.77
945.625	82.7
945.794	121.06
945.963	81.73
946.132	135.4
946.301	91.22
946.47	146.63
946.639	68.17
946.808	93.94
946.977	134.62
947.146	190.03
947.315	91.03
947.484	137.72
947.653	60.61
947.822	104.4
947.991	92.39
948.16	215.03
948.329	166.98
948.498	101.49
948.666	120.67
948.835	152.83
949.004	95.68
949.173	84.64
949.341	108.85
949.51	155.35
949.679	159.42
949.847	138.88
950.016	196.62
950.185	189.84
950.353	103.82
950.522	108.66
950.69	154.38
950.859	107.69
951.028	125.13
951.196	131.91
951.365	123.77
951.533	98.78
951.701	142.37
951.87	123.97
952.038	68.55
952.207	117.77
952.375	198.36
952.543	76.69
952.712	77.66
952.88	81.15
953.048	175.89
953.217	131.52
953.385	121.06
953.553	179.77
953.721	76.3
953.89	98
954.058	46.08
954.226	93.55
954.394	143.34
954.562	71.46
954.73	96.84
954.898	93.16
955.067	134.82
955.235	78.05
955.403	169.11
955.571	186.74
955.739	150.9
955.907	94.13
956.075	99.75
956.243	73.79
956.41	130.94
956.578	72.82
956.746	66.42
956.914	93.55
957.082	143.15
957.25	159.42
957.418	76.69
957.585	150.7
957.753	148.96
957.921	94.52
958.089	138.11
958.256	144.5
958.424	130.94
958.592	120.87
958.759	105.37
958.927	147.99
959.095	68.75
959.262	103.23
959.43	113.7
959.597	95.68
959.765	103.04
959.932	73.79
960.1	163.3
960.267	93.74
960.435	102.07
960.602	146.05
960.77	98
960.937	44.34
961.104	107.69
961.272	51.89
961.439	114.08
961.606	138.5
961.774	165.82
961.941	117.38
962.108	126.87
962.275	125.9
962.443	157.48
962.61	114.47
962.777	199.14
962.944	148.77
963.111	140.24
963.278	124.74
963.446	129.39
963.613	112.92
963.78	154.97
963.947	155.55
964.114	130.36
964.281	225.49
964.448	127.26
964.615	117.57
964.782	146.25
964.949	170.66
965.116	136.95
965.282	194.49
965.449	126.87
965.616	89.87
965.783	166.78
965.95	125.32
966.117	98
966.283	133.46
966.45	172.21
966.617	127.84
966.784	206.5
966.95	176.47
967.117	161.75
967.284	106.53
967.45	121.45
967.617	183.25
967.784	147.41
967.95	202.43
968.117	127.26
968.283	188.87
968.45	242.15
968.616	122.61
968.783	190.42
968.949	165.82
969.116	188.1
969.282	141.79
969.449	157.29
969.615	165.62
969.781	92
969.948	112.92
970.114	101.3
970.28	222.97
970.447	142.18
970.613	194.68
970.779	156.13
970.945	149.35
971.112	161.75
971.278	145.67
971.444	129.78
971.61	174.92
971.776	105.37
971.942	161.36
972.108	182.09
972.275	120.67
972.441	151.67
972.607	212.12
972.773	105.95
972.939	173.57
973.105	148.96
973.271	98.2
973.437	129.39
973.602	122.8
973.768	149.35
973.934	139.27
974.1	156.9
974.266	55.57
974.432	115.83
974.598	99.17
974.763	205.92
974.929	108.66
975.095	190.23
975.261	106.72
975.426	56.35
975.592	133.65
975.758	192.55
975.923	99.55
976.089	93.55
976.255	135.98
976.42	133.07
976.586	120.48
976.751	130.36
976.917	205.53
977.082	144.7
977.248	76.3
977.413	69.91
977.579	103.43
977.744	111.37
977.91	105.56
978.075	111.57
978.24	150.12
978.406	121.06
978.571	89.87
978.736	76.11
978.902	128.42
979.067	74.56
979.232	74.56
979.397	108.85
979.563	172.79
979.728	60.42
979.893	111.37
980.058	94.9
980.223	159.62
980.388	123.97
980.554	97.04
980.719	93.74
980.884	125.9
981.049	146.25
981.214	118.15
981.379	138.69
981.544	87.74
981.709	121.45
981.874	123.38
982.039	127.26
982.204	128.42
982.368	115.63
982.533	108.27
982.698	163.49
982.863	159.03
983.028	94.9
983.193	133.27
983.357	118.93
983.522	142.57
983.687	110.21
983.852	88.9
984.016	89.09
984.181	119.7
984.346	158.26
984.51	150.12
984.675	131.91
984.839	151.28
985.004	131.13
985.168	140.05
985.333	127.45
985.498	108.47
985.662	145.86
985.827	134.62
985.991	125.71
986.155	123.77
986.32	137.14
986.484	176.47
986.649	135.98
986.813	56.74
986.977	148.38
987.142	131.52
987.306	62.35
987.47	94.52
987.634	118.35
987.799	115.83
987.963	129.97
988.127	123.19
988.291	187.13
988.455	114.08
988.62	88.51
988.784	147.02
988.948	135.59
989.112	65.84
989.276	142.76
989.44	86.38
989.604	91.03
989.768	93.94
989.932	194.49
990.096	102.85
990.26	69.33
990.424	29.42
990.588	99.17
990.752	158.07
990.915	124.35
991.079	107.88
991.243	73.79
991.407	135.4
991.571	108.47
991.734	148.38
991.898	97.42
992.062	197.78
992.226	98.39
992.389	83.67
992.553	41.43
992.717	65.45
992.88	114.47
993.044	88.51
993.207	83.47
993.371	136.56
993.535	110.21
993.698	84.05
993.862	125.13
994.025	139.66
994.189	111.95
994.352	86.19
994.515	129.97
994.679	125.9
994.842	89.48
995.006	129.39
995.169	81.73
995.332	85.99
995.496	131.52
995.659	57.32
995.822	100.14
995.985	77.85
996.149	158.84
996.312	69.52
996.475	173.18
996.638	87.54
996.801	151.48
996.964	166.78
997.128	80.37
997.291	82.89
997.454	107.69
997.617	49.37
997.78	130.75
997.943	29.03
998.106	117.18
998.269	73.79
998.432	99.17
998.595	80.57
998.758	27.29
998.92	43.95
999.083	33.29
999.246	79.6
999.409	52.67
999.572	34.07
999.735	62.55
999.897	107.88
1000.06	56.74
1000.223	78.44
1000.386	79.79
1000.548	107.3
1000.711	94.9
1000.874	84.25
1001.036	37.94
1001.199	129.97
1001.361	65.45
1001.524	72.24
1001.687	90.45
1001.849	50.92
1002.012	101.3
1002.174	85.99
1002.337	93.94
1002.499	83.28
1002.661	112.92
1002.824	49.37
1002.986	35.62
1003.149	87.35
1003.311	28.45
1003.473	120.48
1003.636	49.18
1003.798	96.65
1003.96	76.3
1004.123	63.13
1004.285	60.03
1004.447	70.49
1004.609	66.42
1004.771	126.68
1004.933	20.12
1005.096	22.83
1005.258	13.72
1005.42	41.43
1005.582	89.29
1005.744	85.99
1005.906	23.8
1006.068	84.44
1006.23	4.23
1006.392	4.04
1006.554	31.16
1006.716	88.51
1006.878	66.81
1007.04	18.37
1007.202	36.78
1007.363	55.19
1007.525	70.3
1007.687	97.81
1007.849	104.2
1008.011	-1.39
1008.172	7.33
1008.334	37.36
1008.496	87.35
1008.658	1.13
1008.819	48.02
1008.981	26.9
1009.143	45.69
1009.304	42.59
1009.466	92.19
1009.627	113.5
1009.789	160.58
1009.95	63.32
1010.112	32.9
1010.273	53.83
1010.435	28.45
1010.596	64.1
1010.758	39.88
1010.919	32.32
1011.081	23.8
1011.242	47.63
1011.403	92.58
1011.565	40.46
1011.726	82.89
1011.887	10.82
1012.049	71.85
1012.21	101.3
1012.371	111.57
1012.532	-32
1012.693	52.09
1012.855	26.9
1013.016	38.33
1013.177	75.72
1013.338	49.18
1013.499	109.24
1013.66	72.24
1013.821	70.49
1013.982	56.35
1014.143	30.58
1014.304	31.16
1014.465	78.82
1014.626	55.19
1014.787	54.8
1014.948	119.32
1015.109	-9.53
1015.27	78.44
1015.431	13.34
1015.592	19.15
1015.752	92.58
1015.913	30.77
1016.074	67.59
1016.235	62.16
1016.395	30.97
1016.556	45.69
1016.717	30
1016.877	81.73
1017.038	9.46
1017.199	63.32
1017.359	33.49
1017.52	53.05
1017.681	29.03
1017.841	58.09
1018.002	28.45
1018.162	7.72
1018.323	98.2
1018.483	4.62
1018.644	36.59
1018.804	-17.28
1018.964	-14.76
1019.125	37.75
1019.285	42.98
1019.446	11.79
1019.606	2.87
1019.766	-39.94
1019.926	59.25
1020.087	55.38
1020.247	8.3
1020.407	50.54
1020.567	72.82
1020.728	5.59
1020.888	-24.44
1021.048	5.78
1021.208	13.53
1021.368	6.94
1021.528	84.83
1021.688	64.1
1021.848	63.52
1022.008	56.54
1022.168	23.22
1022.328	43.95
1022.488	48.6
1022.648	20.31
1022.808	64.68
1022.968	48.02
1023.128	-11.08
1023.288	8.3
1023.448	37.55
1023.608	77.08
1023.767	41.82
1023.927	1.91
1024.087	4.04
1024.247	-21.15
1024.406	25.15
1024.566	-10.69
1024.726	-17.08
1024.885	30.77
1025.045	51.31
1025.205	17.4
1025.364	27.67
1025.524	17.6
1025.683	2.29
1025.843	45.3
1026.003	32.9
1026.162	83.28
1026.321	77.85
1026.481	22.44
1026.64	19.54
1026.8	29.8
1026.959	41.24
1027.119	41.43
1027.278	35.62
1027.437	-3.71
1027.597	30.58
1027.756	32.52
1027.915	37.36
1028.074	33.87
1028.234	8.88
1028.393	56.93
1028.552	21.09
1028.711	-62.61
1028.87	70.3
1029.03	-11.08
1029.189	36.97
1029.348	-52.34
1029.507	3.46
1029.666	-3.33
1029.825	-0.23
1029.984	-1
1030.143	40.65
1030.302	-4.88
1030.461	-35.29
1030.62	18.57
1030.779	47.44
1030.938	16.05
1031.097	-4.49
1031.255	66.42
1031.414	95.87
1031.573	73.98
1031.732	-33.94
1031.891	22.44
1032.049	70.3
1032.208	17.02
1032.367	-5.46
1032.525	2.1
1032.684	-0.23
1032.843	12.37
1033.001	-27.93
1033.16	179.18
1033.319	61.97
1033.477	34.84
1033.636	-10.88
1033.794	-25.41
1033.953	67.39
1034.111	51.7
1034.27	-3.33
1034.428	41.04
1034.587	-25.61
1034.745	16.44
1034.903	27.29
1035.062	13.14
1035.22	-28.51
1035.378	53.05
1035.537	-14.37
1035.695	47.24
1035.853	9.07
1036.011	43.17
1036.17	44.92
1036.328	-70.36
1036.486	36.78
1036.644	13.72
1036.802	-78.89
1036.96	-5.65
1037.119	-3.91
1037.277	-1.19
1037.435	-26.96
1037.593	-22.12
1037.751	24.19
1037.909	38.52
1038.067	38.52
