Data from gum_old_FLMT105791__144__15-46-33-252.txt Node

Date: Mon Mar 20 15:46:33 GMT 2023
User: antho
Spectrometer: FLMT10579
Trigger mode: 0
Integration Time (sec): 1.000000E-1
Scans to average: 10
Electric dark correction enabled: true
Nonlinearity correction enabled: false
Boxcar width: 0
XAxis mode: Wavelengths
Number of Pixels in Spectrum: 3648
>>>>>Begin Spectral Data<<<<<
345.248	-195.33
345.464	-195.33
345.681	-195.33
345.898	-191.45
346.114	-174.02
346.331	-53.51
346.548	53.64
346.764	-17.47
346.981	-35.49
347.197	-12.63
347.414	37.55
347.631	-13.98
347.847	48.6
348.064	6.56
348.28	37.17
348.497	-50.21
348.713	-0.23
348.93	38.91
349.146	34.65
349.363	3.46
349.579	8.88
349.796	2.49
350.012	-13.79
350.229	47.44
350.445	30.58
350.661	-20.38
350.878	17.6
351.094	6.36
351.311	18.57
351.527	32.71
351.743	-17.08
351.96	54.02
352.176	62.16
352.392	40.27
352.609	47.05
352.825	-0.61
353.041	-3.33
353.257	-25.8
353.474	1.91
353.69	28.25
353.906	28.06
354.122	-29.09
354.339	77.08
354.555	6.75
354.771	-27.93
354.987	66.23
355.203	63.9
355.42	-13.01
355.636	-22.31
355.852	1.52
356.068	17.4
356.284	-10.3
356.5	99.55
356.716	22.05
356.932	16.82
357.148	57.12
357.364	1.32
357.58	63.32
357.796	77.85
358.012	62.94
358.228	36
358.444	-50.79
358.66	57.9
358.876	25.74
359.092	-22.31
359.308	40.46
359.524	9.46
359.74	31.94
359.956	11.21
360.172	49.18
360.388	60.42
360.604	17.21
360.819	60.42
361.035	31.55
361.251	65.65
361.467	-13.4
361.683	62.94
361.898	36.78
362.114	70.1
362.33	47.44
362.546	56.15
362.762	43.17
362.977	36.78
363.193	-25.8
363.409	85.41
363.624	-10.49
363.84	-10.88
364.056	14.5
364.271	55.19
364.487	53.64
364.703	1.52
364.918	5.78
365.134	27.09
365.35	27.09
365.565	116.02
365.781	27.87
365.996	42.01
366.212	94.13
366.427	46.27
366.643	13.92
366.858	8.88
367.074	-14.56
367.289	81.15
367.505	141.02
367.72	2.68
367.936	37.17
368.151	65.26
368.367	37.36
368.582	50.34
368.798	18.76
369.013	84.05
369.228	62.74
369.444	37.94
369.659	94.52
369.874	81.73
370.09	98.2
370.305	-34.13
370.52	30
370.736	94.52
370.951	42.2
371.166	94.9
371.381	101.1
371.597	62.94
371.812	-30.06
372.027	7.33
372.242	43.56
372.458	127.07
372.673	15.47
372.888	27.09
373.103	54.99
373.318	128.42
373.533	61.39
373.749	65.07
373.964	-33.55
374.179	73.59
374.394	20.7
374.609	77.66
374.824	-8.94
375.039	71.07
375.254	-15.53
375.469	107.69
375.684	36.97
375.899	85.22
376.114	50.92
376.329	49.95
376.544	101.1
376.759	83.09
376.974	2.87
377.189	63.13
377.404	48.99
377.619	76.69
377.834	5.97
378.049	10.04
378.264	23.22
378.478	47.82
378.693	21.47
378.908	97.23
379.123	55.38
379.338	93.55
379.553	62.16
379.767	62.94
379.982	66.62
380.197	61
380.412	44.72
380.626	83.47
380.841	127.07
381.056	70.1
381.271	135.78
381.485	26.12
381.7	15.47
381.915	82.31
382.129	38.91
382.344	59.64
382.559	23.99
382.773	90.25
382.988	5.2
383.202	73.79
383.417	-4.29
383.632	156.71
383.846	50.34
384.061	51.7
384.275	33.29
384.49	60.03
384.704	67.78
384.919	67.97
385.133	86.96
385.348	84.05
385.562	22.44
385.777	108.08
385.991	47.44
386.206	39.1
386.42	53.25
386.634	110.21
386.849	79.6
387.063	53.64
387.277	37.17
387.492	42.98
387.706	23.6
387.92	12.76
388.135	88.9
388.349	81.92
388.563	75.92
388.778	78.24
388.992	80.95
389.206	67.2
389.42	122.8
389.635	81.34
389.849	103.04
390.063	112.92
390.277	76.3
390.491	152.64
390.706	98
390.92	116.41
391.134	82.12
391.348	124.55
391.562	36.39
391.776	57.12
391.99	66.62
392.205	108.47
392.419	58.48
392.633	90.45
392.847	135.98
393.061	55.38
393.275	147.41
393.489	70.88
393.703	92.19
393.917	82.5
394.131	30.39
394.345	83.09
394.559	118.54
394.773	58.48
394.986	102.07
395.2	79.99
395.414	105.75
395.628	32.9
395.842	86.57
396.056	85.22
396.27	40.65
396.484	98.78
396.697	109.24
396.911	117.18
397.125	117.38
397.339	96.45
397.553	82.31
397.766	140.05
397.98	110.6
398.194	135.01
398.408	93.16
398.621	138.3
398.835	142.95
399.049	112.34
399.262	179.18
399.476	186.35
399.69	167.56
399.903	211.15
400.117	149.73
400.331	176.67
400.544	106.33
400.758	262.11
400.971	135.4
401.185	191
401.398	106.72
401.612	218.13
401.826	171.43
402.039	172.98
402.253	119.9
402.466	177.83
402.68	152.25
402.893	180.73
403.106	143.53
403.32	155.74
403.533	184.8
403.747	171.63
403.96	186.35
404.174	188.87
404.387	137.53
404.6	162.33
404.814	197.98
405.027	170.08
405.24	176.67
405.454	157.1
405.667	219.29
405.88	92.58
406.094	183.06
406.307	211.93
406.52	161.17
406.733	171.43
406.947	113.5
407.16	235.56
407.373	226.26
407.586	148.96
407.799	151.48
408.012	212.9
408.226	169.69
408.439	249.9
408.652	135.4
408.865	197.2
409.078	221.81
409.291	198.56
409.504	136.37
409.717	241.18
409.93	244.67
410.143	173.95
410.357	155.55
410.57	130.36
410.783	154
410.996	220.26
411.209	183.45
411.421	277.99
411.634	215.22
411.847	185.77
412.06	214.64
412.273	195.65
412.486	209.02
412.699	293.3
412.912	209.6
413.125	214.45
413.338	214.45
413.55	236.53
413.763	231.69
413.976	221.81
414.189	199.72
414.402	218.71
414.615	315.19
414.827	188.87
415.04	253.58
415.253	241.18
415.466	260.75
415.678	311.32
415.891	241.57
416.104	209.8
416.316	222.58
416.529	199.72
416.742	256.1
416.954	277.03
417.167	234.98
417.38	245.06
417.592	264.82
417.805	186.16
418.017	168.53
418.23	242.93
418.442	209.99
418.655	229.56
418.868	213.67
419.08	270.44
419.293	272.57
419.505	250.87
419.718	261.33
419.93	271.8
420.142	223.55
420.355	298.14
420.567	288.07
420.78	269.66
420.992	215.61
421.205	284.97
421.417	180.15
421.629	241.38
421.842	203.6
422.054	196.43
422.266	289.43
422.479	321.39
422.691	238.66
422.903	271.21
423.115	239.44
423.328	239.05
423.54	262.3
423.752	264.43
423.964	217.55
424.177	261.72
424.389	242.93
424.601	372.93
424.813	288.26
425.025	285.74
425.238	310.54
425.45	252.03
425.662	260.95
425.874	584.89
426.086	269.08
426.298	246.41
426.51	283.81
426.722	264.05
426.934	227.23
427.146	286.91
427.358	210.57
427.57	326.43
427.782	227.04
427.994	284.97
428.206	241.96
428.418	215.8
428.63	269.28
428.842	312.68
429.054	277.03
429.266	293.11
429.478	239.44
429.69	262.3
429.902	191.58
430.114	279.35
430.325	262.11
430.537	236.92
430.749	224.91
430.961	148.38
431.173	218.71
431.384	239.63
431.596	139.08
431.808	203.21
432.02	264.82
432.231	292.72
432.443	342.51
432.655	298.92
432.867	256.3
433.078	312.48
433.29	386.69
433.502	297.95
433.713	348.13
433.925	328.95
434.136	341.54
434.348	271.8
434.56	238.47
434.771	402.77
434.983	224.33
435.194	263.27
435.406	304.15
435.617	354.14
435.829	403.16
436.04	341.93
436.252	328.76
436.463	380.29
436.675	378.74
436.886	352.2
437.098	386.69
437.309	398.89
437.521	369.06
437.732	356.85
437.943	328.95
438.155	358.79
438.366	253.58
438.578	386.49
438.789	335.93
439	355.88
439.211	312.68
439.423	333.79
439.634	361.89
439.845	367.51
440.057	383.2
440.268	424.08
440.479	300.86
440.69	336.7
440.902	309.96
441.113	335.34
441.324	331.86
441.535	371.96
441.746	398.31
441.957	315.97
442.168	330.5
442.38	357.04
442.591	397.54
442.802	346.39
443.013	361.11
443.224	411.49
443.435	370.99
443.646	395.79
443.857	395.99
444.068	370.02
444.279	337.48
444.49	469.61
444.701	392.11
444.912	480.07
445.123	425.63
445.334	391.92
445.545	404.9
445.756	395.79
445.967	339.41
446.178	409.74
446.388	426.6
446.599	411.29
446.81	388.43
447.021	371.96
447.232	435.12
447.443	457.79
447.653	373.9
447.864	465.15
448.075	408.39
448.286	446.75
448.496	435.32
448.707	448.69
448.918	382.42
449.129	519.02
449.339	389.59
449.55	458.95
449.761	431.64
449.971	444.81
450.182	363.24
450.393	467.09
450.603	397.54
450.814	469.22
451.024	457.21
451.235	463.02
451.446	519.4
451.656	528.7
451.867	443.65
452.077	455.08
452.288	497.32
452.498	502.55
452.709	481.24
452.919	457.02
453.13	441.13
453.34	478.72
453.55	439.97
453.761	452.37
453.971	457.99
454.182	464.96
454.392	467.67
454.602	539.36
454.813	492.28
455.023	476.59
455.233	412.84
455.444	457.6
455.654	391.34
455.864	462.44
456.075	474.26
456.285	410.32
456.495	436.87
456.705	455.85
456.916	513.59
457.126	513.98
457.336	453.72
457.546	422.92
457.756	435.12
457.967	490.92
458.177	460.12
458.387	461.67
458.597	442.49
458.807	463.41
459.017	467.67
459.227	453.53
459.437	439
459.647	505.84
459.857	489.37
460.068	423.11
460.278	532.19
460.488	476
460.698	541.88
460.908	483.37
461.117	417.49
461.327	452.56
461.537	464.19
461.747	489.18
461.957	489.37
462.167	611.63
462.377	530.45
462.587	504.29
462.797	547.3
463.007	522.31
463.216	547.3
463.426	549.05
463.636	551.37
463.846	455.27
464.056	488.79
464.265	531.22
464.475	480.85
464.685	519.4
464.895	518.63
465.104	483.56
465.314	531.22
465.524	531.8
465.733	489.57
465.943	567.26
466.153	580.05
466.362	558.93
466.572	529.48
466.782	502.16
466.991	541.68
467.201	600.58
467.41	455.08
467.62	537.62
467.829	513.98
468.039	545.95
468.249	530.25
468.458	541.68
468.668	553.7
468.877	566.68
469.086	590.7
469.296	578.69
469.505	503.71
469.715	624.42
469.924	608.33
470.134	620.93
470.343	625.77
470.552	573.65
470.762	564.16
470.971	525.6
471.18	559.12
471.39	592.64
471.599	543.62
471.808	562.61
472.018	558.35
472.227	630.03
472.436	615.7
472.645	602.91
472.855	577.14
473.064	655.61
473.273	641.85
473.482	629.06
473.691	656.38
473.901	623.06
474.11	611.05
474.319	706.95
474.528	632.36
474.737	700.56
474.946	641.27
475.155	656.77
475.364	695.52
475.573	652.9
475.783	652.12
475.992	701.33
476.201	693.2
476.41	663.55
476.619	637.4
476.828	664.71
477.037	655.8
477.245	699.59
477.454	715.28
477.663	672.08
477.872	692.03
478.081	738.34
478.29	668.59
478.499	780.38
478.708	732.33
478.917	771.08
479.125	709.28
479.334	714.31
479.543	716.44
479.752	741.05
479.961	729.43
480.169	774.38
480.378	725.16
480.587	899.54
480.796	820.1
481.004	762.94
481.213	775.15
481.422	776.51
481.63	785.61
481.839	816.42
482.048	828.82
482.256	798.4
482.465	836.96
482.674	838.89
482.882	835.6
483.091	892.95
483.299	809.44
483.508	855.17
483.716	798.59
483.925	826.11
484.134	814.29
484.342	819.32
484.551	850.32
484.759	857.88
484.967	853.04
485.176	863.5
485.384	872.8
485.593	906.32
485.801	871.64
486.01	837.34
486.218	795.88
486.426	743.18
486.635	744.15
486.843	746.86
487.051	780.96
487.26	791.43
487.468	800.73
487.676	839.28
487.885	789.1
488.093	838.12
488.301	867.18
488.509	870.47
488.717	929.57
488.926	872.22
489.134	881.52
489.342	886.56
489.55	860.4
489.758	890.62
489.967	861.37
490.175	1002.03
490.383	911.16
490.591	997.38
490.799	904.96
491.007	981.88
491.215	960.57
491.423	917.94
491.631	938.48
491.839	956.11
492.047	985.95
492.255	926.08
492.463	874.35
492.671	916
492.879	977.81
493.087	934.41
493.295	965.8
493.503	972.39
493.711	1003.19
493.919	1027.02
494.127	1033.03
494.334	1017.14
494.542	911.94
494.75	998.15
494.958	975.1
495.166	1057.25
495.374	1015.59
495.581	1053.95
495.789	1006.1
495.997	1068.68
496.205	1000.67
496.412	1004.35
496.62	995.44
496.828	1028.57
497.035	1039.81
497.243	1056.28
497.451	1041.94
497.658	1039.03
497.866	1015.59
498.074	1079.33
498.281	1026.05
498.489	1114.21
498.696	1036.52
498.904	996.8
499.112	994.47
499.319	1114.21
499.527	1029.93
499.734	1079.33
499.942	1018.5
500.149	1026.83
500.357	1076.62
500.564	1007.26
500.771	1034.58
500.979	983.04
501.186	1000.67
501.394	1017.33
501.601	993.5
501.808	1042.13
502.016	1018.69
502.223	1004.55
502.43	1044.85
502.638	1021.79
502.845	1024.5
503.052	1084.95
503.26	1026.44
503.467	1118.28
503.674	1068.48
503.881	1088.44
504.089	1144.63
504.296	1096
504.503	1019.27
504.71	1038.26
504.917	1023.15
505.125	1074.68
505.332	1046.78
505.539	1086.11
505.746	1161.48
505.953	1124.09
506.16	1132.81
506.367	1160.32
506.574	1201.2
506.781	1173.69
506.988	1109.17
507.195	1148.7
507.402	1089.6
507.609	1126.03
507.816	1094.83
508.023	1089.41
508.23	1098.51
508.437	1046.78
508.644	1134.36
508.851	1171.94
509.058	1147.73
509.265	1144.63
509.472	1176.98
509.679	1240.92
509.885	1168.07
510.092	1162.84
510.299	1129.32
510.506	1150.44
510.713	1171.75
510.92	1159.16
511.126	1177.76
511.333	1238.79
511.54	1168.84
511.746	1249.25
511.953	1225.03
512.16	1249.25
512.367	1194.42
512.573	1170.2
512.78	1195.19
512.987	1176.21
513.193	1180.47
513.4	1089.99
513.606	1139.2
513.813	1200.81
514.02	1188.61
514.226	1226
514.433	1241.5
514.639	1134.55
514.846	1192.87
515.052	1171.36
515.259	1195.19
515.465	1201.39
515.672	1161.68
515.878	1297.11
516.085	1217.28
516.291	1275.21
516.497	1174.46
516.704	1197.33
516.91	1142.3
517.117	1127.19
517.323	1079.91
517.529	1097.55
517.736	1096.96
517.942	1106.65
518.148	1108.2
518.354	1172.14
518.561	1169.04
518.767	1149.47
518.973	1220.38
519.179	1231.43
519.386	1147.34
519.592	1180.08
519.798	1171.36
520.004	1295.94
520.21	1246.73
520.417	1302.92
520.623	1333.92
520.829	1341.28
521.035	1336.82
521.241	1307.37
521.447	1340.5
521.653	1448.62
521.859	1354.07
522.065	1366.66
522.271	1466.83
522.477	1408.32
522.683	1444.93
522.889	1390.49
523.095	1358.33
523.301	1365.89
523.507	1360.07
523.713	1385.45
523.919	1342.64
524.125	1435.05
524.331	1443.58
524.537	1498.02
524.742	1473.03
524.948	1531.73
525.154	1470.32
525.36	1600.51
525.566	1481.75
525.772	1532.9
525.977	1462.57
526.183	1514.3
526.389	1535.22
526.595	1480.58
526.8	1474.58
527.006	1414.52
527.212	1374.99
527.417	1357.17
527.623	1363.37
527.829	1423.43
528.034	1465.47
528.24	1459.85
528.446	1474.19
528.651	1560.02
528.857	1566.8
529.062	1607.88
529.268	1569.9
529.473	1565.06
529.679	1564.28
529.884	1644.3
530.09	1661.35
530.295	1673.94
530.501	1685.76
530.706	1647.01
530.912	1631.13
531.117	1668.13
531.323	1637.13
531.528	1723.16
531.733	1711.92
531.939	1669.49
532.144	1683.82
532.35	1657.48
532.555	1721.99
532.76	1694.29
532.966	1697
533.171	1669.88
533.376	1584.24
533.581	1578.43
533.787	1635.19
533.992	1664.26
534.197	1684.41
534.402	1665.23
534.607	1689.06
534.813	1808.6
535.018	1697.39
535.223	1706.69
535.428	1732.84
535.633	1758.42
535.838	1743.69
536.043	1777.02
536.249	1845.02
536.454	1744.08
536.659	1779.73
536.864	1729.74
537.069	1758.81
537.274	1762.49
537.479	1767.52
537.684	1758.03
537.889	1731.1
538.094	1832.24
538.299	1776.63
538.504	1787.09
538.708	1796.39
538.913	1813.44
539.118	1779.15
539.323	1790.97
539.528	1728
539.733	1795.23
539.938	1799.88
540.142	1785.54
540.347	1757.64
540.552	1706.69
540.757	1752.99
540.962	1774.89
541.166	1733.42
541.371	1681.69
541.576	1714.82
541.781	1637.91
541.985	1795.62
542.19	1753.96
542.395	1842.7
542.599	1871.37
542.804	1799.3
543.008	1849.48
543.213	1763.84
543.418	1752.02
543.622	1827.78
543.827	1762.1
544.031	1887.45
544.236	1872.73
544.44	1816.74
544.645	1918.45
544.849	1817.9
545.054	1837.47
545.258	1929.88
545.463	1907.6
545.667	1802.01
545.872	1864.01
546.076	1862.46
546.281	1862.27
546.485	1837.66
546.689	1838.05
546.894	1877.77
547.098	1861.1
547.302	1817.12
547.507	1819.25
547.711	1873.89
547.915	1919.42
548.119	1794.26
548.324	1854.13
548.528	1890.55
548.732	1831.46
548.936	1877.96
549.141	1885.71
549.345	1847.15
549.549	1850.64
549.753	1844.05
549.957	1944.41
550.161	1943.25
550.366	1863.62
550.57	1827.78
550.774	1889.78
550.978	1858.2
551.182	1877.18
551.386	1862.07
551.59	1824.68
551.794	1820.22
551.998	1901.21
552.202	1853.16
552.406	1817.12
552.61	1900.63
552.814	1864.01
553.018	1925.82
553.222	1863.62
553.426	1853.74
553.63	1951
553.833	1862.27
554.037	1842.5
554.241	1914.58
554.445	1872.53
554.649	1853.55
554.853	1859.55
555.056	1883
555.26	1962.82
555.464	1874.08
555.668	1920.39
555.871	1914.58
556.075	1897.53
556.279	1862.46
556.483	1841.15
556.686	1865.75
556.89	1844.25
557.094	1899.08
557.297	1797.36
557.501	1867.3
557.704	1767.72
557.908	1876.6
558.112	1768.3
558.315	1885.13
558.519	1813.64
558.722	1849.29
558.926	1804.53
559.129	1725.48
559.333	1743.5
559.536	1742.72
559.74	1704.75
559.943	1727.81
560.147	1666.58
560.35	1734.78
560.553	1715.02
560.757	1677.82
560.96	1830.88
561.164	1755.9
561.367	1830.69
561.57	1778.57
561.774	1777.79
561.977	1726.26
562.18	1745.44
562.384	1827.39
562.587	1763.07
562.79	1741.56
562.993	1742.92
563.197	1762.1
563.4	1806.27
563.603	1792.9
563.806	1839.6
564.009	1695.64
564.212	1756.48
564.416	1636.36
564.619	1727.42
564.822	1685.96
565.025	1768.3
565.228	1643.53
565.431	1670.26
565.634	1581.33
565.837	1640.23
566.04	1614.46
566.243	1623.96
566.446	1548.4
566.649	1663.87
566.852	1558.66
567.055	1627.64
567.258	1632.68
567.461	1681.11
567.664	1692.93
567.867	1574.16
568.07	1602.84
568.273	1608.26
568.475	1667.36
568.678	1587.34
568.881	1597.22
569.084	1581.14
569.287	1453.65
569.489	1539.87
569.692	1598.38
569.895	1594.12
570.098	1467.41
570.3	1505.38
570.503	1447.07
570.706	1471.09
570.909	1488.53
571.111	1430.21
571.314	1446.1
571.516	1496.08
571.719	1453.85
571.922	1437.77
572.124	1445.71
572.327	1478.84
572.529	1423.04
572.732	1409.29
572.935	1473.61
573.137	1581.53
573.34	1437.18
573.542	1492.98
573.745	1515.26
573.947	1478.45
574.15	1435.63
574.352	1420.13
574.554	1483.49
574.757	1423.04
574.959	1417.81
575.162	1419.75
575.364	1381
575.566	1516.23
575.769	1378.29
575.971	1432.53
576.173	1287.03
576.376	1393.79
576.578	1422.65
576.78	1468.96
576.982	1314.16
577.185	1382.35
577.387	1320.94
577.589	1315.32
577.791	1411.42
577.993	1392.43
578.196	1365.3
578.398	1391.85
578.6	1411.8
578.802	1292.65
579.004	1295.56
579.206	1346.12
579.408	1333.92
579.61	1317.84
579.812	1358.52
580.014	1344.77
580.216	1294.39
580.418	1309.12
580.62	1296.52
580.822	1252.93
581.024	1309.31
581.226	1340.7
581.428	1306.6
581.63	1383.9
581.832	1286.64
582.034	1359.49
582.236	1361.82
582.438	1362.79
582.64	1338.57
582.841	1386.81
583.043	1423.82
583.245	1321.71
583.447	1352.32
583.649	1312.02
583.85	1329.85
584.052	1368.21
584.254	1302.53
584.456	1343.22
584.657	1274.44
584.859	1323.65
585.061	1269.4
585.262	1283.16
585.464	1238.01
585.666	1289.36
585.867	1259.32
586.069	1350.39
586.27	1303.5
586.472	1259.71
586.674	1256.42
586.875	1268.24
587.077	1234.33
587.278	1264.75
587.48	1253.51
587.681	1379.06
587.883	1279.67
588.084	1179.11
588.285	1247.89
588.487	1239.37
588.688	1259.32
588.89	1195
589.091	1174.66
589.292	1176.79
589.494	1139.59
589.695	1116.73
589.896	1067.32
590.098	1046.2
590.299	1111.3
590.5	1080.5
590.702	1091.15
590.903	1133.97
591.104	1204.3
591.305	1160.71
591.507	1196.55
591.708	1205.85
591.909	1178.92
592.11	1267.46
592.311	1201.59
592.512	1187.44
592.714	1118.66
592.915	1151.79
593.116	1155.67
593.317	1155.48
593.518	1130.48
593.719	1134.75
593.92	1195.19
594.121	1200.81
594.322	1158.58
594.523	1179.31
594.724	1144.82
594.925	1133.2
595.126	1151.02
595.327	1174.85
595.528	1174.08
595.729	1153.93
595.929	1126.8
596.13	1127
596.331	1180.86
596.532	1158.77
596.733	1196.36
596.934	1154.12
597.135	1209.92
597.335	1176.79
597.536	1100.26
597.737	1146.76
597.938	1119.25
598.138	1162.26
598.339	1166.71
598.54	1153.93
598.74	1114.79
598.941	1133.2
599.142	1200.81
599.342	1167.49
599.543	1114.6
599.744	1122.93
599.944	1092.7
600.145	1125.64
600.345	1127.77
600.546	1226.39
600.746	1170.2
600.947	1210.11
601.147	1171.17
601.348	1153.34
601.548	1080.88
601.749	1138.43
601.949	1094.06
602.15	1099.87
602.35	1098.9
602.551	1145.98
602.751	1085.34
602.951	1096.58
603.152	1006.29
603.352	1153.15
603.552	1084.76
603.753	1131.26
603.953	1128.16
604.153	1138.23
604.354	1087.47
604.554	1094.25
604.754	1126.8
604.954	1053.37
605.155	1130.87
605.355	1074.49
605.555	1136.1
605.755	1155.86
605.955	1130.29
606.155	1144.24
606.356	1126.22
606.556	1152.57
606.756	1130.1
606.956	1067.71
607.156	1150.05
607.356	1091.35
607.556	1109.36
607.756	1106.85
607.956	1122.93
608.156	1118.28
608.356	1071.78
608.556	1124.28
608.756	1071.58
608.956	1055.12
609.156	1097.74
609.356	1038.26
609.556	1043.88
609.755	1091.73
609.955	1057.44
610.155	1074.1
610.355	1057.25
610.555	1061.9
610.755	1052.79
610.954	985.75
611.154	1057.05
611.354	1079.72
611.554	1028.77
611.753	1046.78
611.953	986.14
612.153	1095.41
612.352	1053.95
612.552	1001.06
612.752	966.77
612.951	1012.1
613.151	1064.41
613.351	977.81
613.55	1023.34
613.75	1016.56
613.949	1027.41
614.149	1026.83
614.348	1036.13
614.548	975.1
614.747	933.64
614.947	987.69
615.146	944.1
615.346	1020.24
615.545	1022.18
615.745	1000.48
615.944	1036.71
616.144	990.79
616.343	1033.42
616.542	971.61
616.742	993.5
616.941	981.1
617.14	923.95
617.34	959.99
617.539	931.12
617.738	947
617.938	1028.18
618.137	948.55
618.336	948.75
618.535	964.25
618.734	937.7
618.934	997.18
619.133	964.44
619.332	982.07
619.531	899.54
619.73	971.42
619.929	1004.55
620.128	977.62
620.328	1031.87
620.527	948.75
620.726	973.94
620.925	969.67
621.124	949.52
621.323	963.86
621.522	911.16
621.721	936.15
621.92	921.62
622.119	990.02
622.318	922.79
622.517	925.11
622.715	919.88
622.914	885.97
623.113	935.96
623.312	841.8
623.511	922.2
623.71	919.49
623.909	912.32
624.107	964.64
624.306	873.57
624.505	868.34
624.704	877.45
624.902	936.35
625.101	937.32
625.3	893.53
625.499	886.75
625.697	880.55
625.896	871.64
626.095	917.55
626.293	868.92
626.492	861.76
626.69	898.18
626.889	850.32
627.088	918.14
627.286	873.96
627.485	861.95
627.683	881.52
627.882	942.35
628.08	827.66
628.279	882.49
628.477	934.22
628.676	835.02
628.874	866.79
629.073	827.85
629.271	838.31
629.469	881.71
629.668	858.66
629.866	852.65
630.065	839.67
630.263	908.64
630.461	828.82
630.66	832.11
630.858	880.74
631.056	906.51
631.254	895.27
631.453	856.72
631.651	888.88
631.849	860.79
632.047	837.34
632.245	839.28
632.444	849.36
632.642	873.38
632.84	871.25
633.038	825.14
633.236	800.92
633.434	802.47
633.632	791.62
633.83	812.16
634.028	878.81
634.227	821.26
634.425	922.2
634.623	817
634.821	843.54
635.019	824.56
635.216	830.17
635.414	851.68
635.612	843.74
635.81	840.64
636.008	913.29
636.206	828.24
636.404	876.67
636.602	789.88
636.8	824.56
636.997	836.76
637.195	865.24
637.393	847.03
637.591	894.11
637.789	841.99
637.986	824.17
638.184	835.6
638.382	895.27
638.58	874.54
638.777	917.36
638.975	828.04
639.173	821.07
639.37	823.2
639.568	858.46
639.765	838.7
639.963	812.93
640.161	860.79
640.358	877.84
640.556	784.84
640.753	739.89
640.951	782.32
641.148	770.31
641.346	823.2
641.543	806.34
641.741	801.11
641.938	753.84
642.136	790.65
642.333	735.24
642.531	824.75
642.728	857.11
642.925	801.5
643.123	790.26
643.32	816.03
643.517	778.64
643.715	769.73
643.912	773.02
644.109	811.38
644.306	746.28
644.504	747.64
644.701	769.34
644.898	784.64
645.095	740.28
645.293	773.41
645.49	807.12
645.687	790.65
645.884	812.35
646.081	717.99
646.278	754.61
646.475	747.06
646.672	758.1
646.87	776.7
647.067	764.88
647.264	779.41
647.461	729.04
647.658	705.79
647.855	763.53
648.052	738.34
648.249	652.31
648.446	726.52
648.642	708.31
648.839	717.61
649.036	703.66
649.233	656.96
649.43	721.29
649.627	667.23
649.824	660.84
650.021	682.54
650.217	680.8
650.414	700.36
650.611	693.78
650.808	727.68
651.004	704.05
651.201	747.64
651.398	762.75
651.595	695.33
651.791	699.2
651.988	726.52
652.185	673.63
652.381	740.28
652.578	652.7
652.775	676.15
652.971	701.33
653.168	689.32
653.364	741.44
653.561	612.6
653.757	678.86
653.954	717.03
654.15	678.28
654.347	780.96
654.543	684.09
654.74	647.66
654.936	651.54
655.133	672.46
655.329	698.62
655.525	677.89
655.722	731.17
655.918	634.68
656.115	680.99
656.311	595.93
656.507	584.89
656.704	545.75
656.9	589.35
657.096	560.67
657.292	559.12
657.489	669.95
657.685	630.42
657.881	605.43
658.077	620.15
658.273	606.98
658.47	721.48
658.666	657.93
658.862	657.74
659.058	626.35
659.254	698.43
659.45	611.24
659.646	675.37
659.842	649.21
660.038	711.8
660.234	635.65
660.43	663.94
660.626	753.06
660.822	700.56
661.018	709.66
661.214	666.65
661.41	635.07
661.606	676.53
661.802	686.41
661.998	663.16
662.194	629.26
662.39	707.15
662.586	691.65
662.781	671.5
662.977	664.52
663.173	681.38
663.369	659.87
663.564	694.75
663.76	688.74
663.956	647.47
664.152	727.1
664.347	602.52
664.543	669.17
664.739	642.24
664.934	611.43
665.13	611.43
665.326	705.79
665.521	640.69
665.717	593.8
665.912	610.27
666.108	585.67
666.304	612.6
666.499	635.65
666.695	571.91
666.89	643.98
667.086	679.83
667.281	649.6
667.477	688.16
667.672	639.53
667.867	639.53
668.063	649.6
668.258	607.37
668.454	626.55
668.649	730.78
668.844	680.6
669.04	677.5
669.235	636.81
669.43	601.94
669.626	581.4
669.821	628.87
670.016	573.46
670.211	652.12
670.407	596.13
670.602	666.07
670.797	632.75
670.992	676.15
671.187	584.5
671.382	663.94
671.578	604.07
671.773	676.73
671.968	587.22
672.163	622.48
672.358	662.2
672.553	638.75
672.748	596.71
672.943	702.5
673.138	620.15
673.333	637.78
673.528	588.18
673.723	636.04
673.918	603.49
674.113	552.53
674.308	688.93
674.503	652.9
674.698	652.51
674.892	656.58
675.087	653.09
675.282	628.48
675.477	603.68
675.672	651.35
675.867	607.75
676.061	579.08
676.256	577.14
676.451	593.22
676.646	634.3
676.84	586.44
677.035	561.45
677.23	603.1
677.424	624.8
677.619	644.18
677.814	629.84
678.008	651.93
678.203	565.32
678.397	576.37
678.592	625.77
678.787	648.25
678.981	583.73
679.176	601.36
679.37	588.57
679.565	566.29
679.759	561.06
679.954	656.77
680.148	669.95
680.342	669.95
680.537	641.66
680.731	593.22
680.926	609.88
681.12	649.99
681.314	597.29
681.509	591.67
681.703	624.8
681.897	641.27
682.092	596.13
682.286	569.39
682.48	699.78
682.674	627.51
682.869	605.23
683.063	615.89
683.257	676.73
683.451	562.03
683.645	625.19
683.839	617.44
684.034	615.89
684.228	625.19
684.422	535.87
684.616	583.34
684.81	634.1
685.004	582.18
685.198	605.43
685.392	635.07
685.586	589.73
685.78	605.04
685.974	633.33
686.168	630.42
686.362	664.13
686.556	572.88
686.75	536.45
686.944	572.88
687.138	586.63
687.331	500.61
687.525	543.04
687.719	465.35
687.913	550.4
688.107	507.78
688.301	482.2
688.494	560.87
688.688	512.62
688.882	459.34
689.076	478.33
689.269	507.59
689.463	611.63
689.657	506.04
689.85	518.44
690.044	512.04
690.238	512.24
690.431	517.85
690.625	506.42
690.818	542.27
691.012	540.52
691.205	561.45
691.399	491.31
691.593	542.46
691.786	606.2
691.98	599.62
692.173	628.48
692.366	608.53
692.56	607.95
692.753	671.3
692.947	524.25
693.14	622.87
693.333	631.78
693.527	568.23
693.72	618.22
693.914	592.45
694.107	560.48
694.3	624.42
694.493	596.52
694.687	639.33
694.88	608.72
695.073	662.58
695.266	651.35
695.46	612.79
695.653	681.57
695.846	666.65
696.039	578.5
696.232	631.97
696.425	694.16
696.618	660.45
696.812	666.85
697.005	750.54
697.198	819.13
697.391	751.71
697.584	771.28
697.777	795.88
697.97	775.15
698.163	787.36
698.356	763.14
698.549	882.49
698.742	801.69
698.935	768.37
699.127	839.28
699.32	767.98
699.513	791.43
699.706	848.19
699.899	826.3
700.092	839.67
700.285	861.37
700.477	793.36
700.67	862.34
700.863	868.34
701.056	963.09
701.248	949.72
701.441	922.98
701.634	898.37
701.826	1044.65
702.019	901.09
702.212	987.3
702.404	940.8
702.597	908.25
702.79	956.89
702.982	994.86
703.175	1030.32
703.367	1061.7
703.56	1077.01
703.752	1134.94
703.945	1097.93
704.137	1087.66
704.33	1119.44
704.522	1151.79
704.715	1174.66
704.907	1205.46
705.1	1193.64
705.292	1220.38
705.484	1178.73
705.677	1228.13
705.869	1257.58
706.061	1295.17
706.254	1314.35
706.446	1294.97
706.638	1279.67
706.831	1345.74
707.023	1329.07
707.215	1428.66
707.407	1423.43
707.599	1427.5
707.792	1436.99
707.984	1452.49
708.176	1490.66
708.368	1422.07
708.56	1469.15
708.752	1455.59
708.944	1476.32
709.136	1533.09
709.329	1525.34
709.521	1672.98
709.713	1629.19
709.905	1603.23
710.097	1644.3
710.289	1612.72
710.481	1603.81
710.672	1650.69
710.864	1657.09
711.056	1745.82
711.248	1750.47
711.44	1757.64
711.632	1690.61
711.824	1775.66
712.016	1840.18
712.207	1849.67
712.399	1837.66
712.591	1891.72
712.783	1873.31
712.975	1908.38
713.166	1858.2
713.358	1858.97
713.55	1965.92
713.741	1963.79
713.933	1977.55
714.125	1953.13
714.316	1957.01
714.508	2019.98
714.7	2061.83
714.891	2038.19
715.083	2096.7
715.274	2061.83
715.466	2099.41
715.657	2137.39
715.849	2011.84
716.04	2107.74
716.232	2017.46
716.423	2152.89
716.615	2080.23
716.806	2053.11
716.998	2053.11
717.189	1980.45
717.381	1896.75
717.572	1912.45
717.763	1927.37
717.955	1908.38
718.146	1883.38
718.337	1826.81
718.528	1835.92
718.72	1766.94
718.911	1813.83
719.102	1774.3
719.293	1827.2
719.485	1831.46
719.676	1828.36
719.867	1776.05
720.058	1846.19
720.249	1807.63
720.44	1847.54
720.632	1918.65
720.823	1929.88
721.014	2048.84
721.205	2092.83
721.396	2102.51
721.587	2208.3
721.778	2253.44
721.969	2289.09
722.16	2330.94
722.351	2352.64
722.542	2471.79
722.733	2506.86
722.924	2414.83
723.115	2510.16
723.305	2492.53
723.496	2498.14
723.687	2385
723.878	2385
724.069	2380.93
724.26	2425.1
724.45	2336.17
724.641	2367.95
724.832	2417.74
725.023	2364.46
725.213	2398.95
725.404	2368.33
725.595	2402.82
725.785	2355.55
725.976	2475.67
726.167	2446.61
726.357	2458.62
726.548	2569.64
726.739	2471.79
726.929	2597.54
727.12	2602.77
727.31	2625.44
727.501	2535.93
727.691	2568.47
727.882	2596.76
728.072	2603.16
728.263	2642.29
728.453	2674.45
728.644	2658.37
728.834	2723.67
729.024	2666.51
729.215	2664.96
729.405	2688.99
729.596	2802.33
729.786	2782.37
729.976	2849.8
730.167	2864.52
730.357	2775.78
730.547	2815.7
730.737	2846.11
730.928	2888.93
731.118	2947.64
731.308	2897.65
731.498	2898.81
731.688	3004.41
731.879	2996.46
732.069	3018.74
732.259	3034.44
732.449	3080.16
732.639	3196.02
732.829	3154.17
733.019	3173.35
733.209	3269.65
733.399	3288.83
733.589	3372.33
733.779	3367.29
733.969	3341.14
734.159	3440.72
734.349	3460.68
734.539	3553.87
734.729	3494.97
734.919	3579.25
735.109	3608.51
735.299	3572.28
735.488	3606.96
735.678	3586.62
735.868	3565.69
736.058	3586.42
736.248	3550.97
736.437	3503.69
736.627	3516.67
736.817	3693.95
737.007	3609.28
737.196	3659.47
737.386	3648.03
737.576	3616.45
737.765	3698.21
737.955	3691.43
738.144	3796.06
738.334	3760.6
738.524	3667.02
738.713	3742.97
738.903	3711.2
739.092	3727.86
739.282	3747.23
739.471	3805.16
739.661	3706.74
739.85	3803.23
740.04	3792.57
740.229	3860.38
740.419	3845.27
740.608	3870.07
740.797	3823.57
740.987	3932.46
741.176	3897.77
741.365	3845.85
741.555	3774.55
741.744	3910.56
741.933	3864.64
742.123	3862.32
742.312	3934.59
742.501	3997.94
742.69	4011.89
742.88	3909.21
743.069	4043.08
743.258	3957.64
743.447	4044.05
743.636	4018.29
743.825	3934.2
744.014	4028.36
744.204	4081.06
744.393	3973.72
744.582	4070.98
744.771	4073.89
744.96	4044.83
745.149	4033.98
745.338	4004.34
745.527	4130.27
745.716	4027.59
745.905	4026.62
746.094	4113.22
746.283	4082.61
746.471	4126.2
746.66	4137.44
746.849	4161.85
747.038	4136.47
747.227	4085.32
747.416	4110.32
747.604	4042.89
747.793	4081.64
747.982	4135.7
748.171	4106.63
748.359	4173.09
748.548	4106.44
748.737	4135.89
748.926	4096.56
749.114	3999.69
749.303	4083.38
749.491	4072.53
749.68	3995.81
749.869	4114.77
750.057	4082.22
750.246	4086.68
750.434	4071.95
750.623	4001.43
750.811	4014.8
751	4107.41
751.188	4060.91
751.377	4088.81
751.565	4009.18
751.754	4022.55
751.942	4043.86
752.131	4051.61
752.319	4029.52
752.507	3959.58
752.696	4055.1
752.884	4073.7
753.072	4007.05
753.261	4051.61
753.449	4043.08
753.637	3967.72
753.825	4125.81
754.014	3994.07
754.202	4036.3
754.39	4091.13
754.578	4067.88
754.766	3979.92
754.955	3989.22
755.143	4106.63
755.331	4025.26
755.519	4026.23
755.707	4009.37
755.895	4000.27
756.083	4033.2
756.271	3924.12
756.459	3996
756.647	4048.9
756.835	3994.07
757.023	4009.18
757.211	3995.81
757.399	3942.14
757.587	3925.48
757.775	3896.22
757.963	3938.85
758.151	3991.55
758.339	3868.91
758.526	3850.89
758.714	3913.27
758.902	3835.78
759.09	3764.67
759.278	3585.65
759.465	3398.49
759.653	3053.04
759.841	2812.6
760.028	2462.11
760.216	2175.56
760.404	2011.26
760.591	1751.64
760.779	1511.58
760.967	1385.26
761.154	1199.84
761.342	1273.47
761.529	1247.12
761.717	1330.04
761.905	1355.62
762.092	1458.88
762.28	1379.45
762.467	1484.85
762.655	1416.07
762.842	1457.14
763.029	1468.18
763.217	1489.11
763.404	1490.66
763.592	1536.77
763.779	1471.28
763.966	1545.1
764.154	1603.03
764.341	1642.56
764.528	1644.3
764.716	1716.57
764.903	1786.32
765.09	1832.82
765.277	1880.28
765.465	2031.21
765.652	2115.3
765.839	2151.14
766.026	2300.33
766.213	2339.27
766.4	2438.86
766.588	2601.99
766.775	2680.27
766.962	2734.13
767.149	2781.98
767.336	2931.75
767.523	2850.38
767.71	3012.93
767.897	3155.14
768.084	3192.15
768.271	3222.95
768.458	3252.4
768.645	3301.23
768.832	3280.3
769.019	3333.78
769.206	3363.81
769.392	3436.66
769.579	3478.31
769.766	3505.44
769.953	3422.13
770.14	3506.02
770.327	3475.99
770.513	3537.02
770.7	3588.17
770.887	3527.91
771.073	3537.21
771.26	3534.69
771.447	3528.69
771.634	3455.45
771.82	3548.45
772.007	3429.29
772.193	3534.5
772.38	3577.12
772.567	3540.31
772.753	3494.78
772.94	3582.55
773.126	3547.67
773.313	3537.79
773.499	3537.4
773.686	3570.92
773.872	3502.14
774.059	3529.27
774.245	3449.06
774.432	3486.45
774.618	3444.41
774.804	3469.01
774.991	3407.79
775.177	3504.08
775.363	3474.05
775.55	3451.57
775.736	3413.6
775.922	3461.84
776.109	3417.67
776.295	3444.6
776.481	3429.87
776.667	3481.99
776.853	3400.62
777.04	3372.14
777.226	3376.4
777.412	3465.14
777.598	3387.44
777.784	3341.14
777.97	3347.73
778.156	3393.06
778.342	3341.33
778.528	3375.43
778.715	3304.71
778.901	3342.49
779.087	3335.71
779.272	3293.48
779.458	3272.55
779.644	3339.98
779.83	3286.7
780.016	3339.39
780.202	3303.36
780.388	3291.15
780.574	3226.63
780.76	3260.93
780.946	3270.81
781.131	3276.81
781.317	3239.42
781.503	3230.12
781.689	3256.08
781.874	3358.19
782.06	3235.74
782.246	3190.98
782.432	3228.96
782.617	3199.12
782.803	3252.79
782.989	3179.17
783.174	3160.37
783.36	3107.48
783.545	3157.27
783.731	3166.77
783.916	3070.09
784.102	3185.17
784.288	3137.9
784.473	3118.14
784.659	3105.54
784.844	3128.99
785.029	3083.65
785.215	3060.4
785.4	3061.56
785.586	3180.33
785.771	3030.95
785.956	3125.5
786.142	3069.31
786.327	3076.87
786.512	3052.65
786.698	3076.29
786.883	2969.73
787.068	3035.99
787.254	3035.79
787.439	3000.14
787.624	3020.49
787.809	2992.59
787.994	2975.93
788.18	2992.39
788.365	2898.81
788.55	2977.28
788.735	2941.83
788.92	2938.53
789.105	2968.37
789.29	2989.49
789.475	2884.67
789.66	2887.58
789.845	2853.67
790.03	2902.11
790.215	2945.7
790.4	2973.21
790.585	2932.72
790.77	2897.85
790.955	2793.8
791.14	2852.51
791.325	2928.65
791.51	2760.48
791.695	2840.88
791.879	2848.83
792.064	2788.77
792.249	2930.98
792.434	2828.87
792.618	2792.25
792.803	2865.88
792.988	2834.49
793.173	2857.93
793.357	2882.73
793.542	2764.16
793.727	2832.55
793.911	2861.61
794.096	2842.82
794.281	2845.15
794.465	2924
794.65	2850.96
794.834	2895.33
795.019	2868.4
795.203	2904.04
795.388	2931.75
795.572	2929.62
795.757	2884.28
795.941	2883.51
796.126	2892.03
796.31	2829.84
796.494	2901.91
796.679	2852.51
796.863	2804.46
797.048	2948.41
797.232	2868.59
797.416	2891.45
797.601	2887.96
797.785	2962.75
797.969	2962.36
798.153	2805.62
798.338	2930.98
798.522	2976.89
798.706	2930.01
798.89	2978.25
799.074	3037.54
799.258	3002.86
799.443	2938.92
799.627	2949.38
799.811	2950.54
799.995	2904.63
800.179	2868.4
800.363	2905.01
800.547	2920.13
800.731	2954.03
800.915	2829.84
801.099	2897.07
801.283	2881.38
801.467	2894.16
801.651	2869.95
801.835	2954.03
802.019	2924.19
802.202	2934.08
802.386	2877.7
802.57	2843.79
802.754	2872.66
802.938	2841.27
803.121	2872.08
803.305	2921.87
803.489	2896.1
803.673	2905.4
803.856	2909.08
804.04	2883.31
804.224	2903.27
804.407	2876.73
804.591	2899.39
804.775	2853.28
804.958	2894.36
805.142	3009.25
805.326	2877.11
805.509	2907.14
805.693	2907.53
805.876	2945.31
806.06	2901.91
806.243	2934.08
806.427	2941.24
806.61	2961.98
806.794	2896.1
806.977	2958.68
807.16	2904.82
807.344	2901.33
807.527	2898.43
807.71	2857.16
807.894	2902.49
808.077	2952.87
808.26	2829.84
808.444	2806.98
808.627	2920.13
808.81	2829.26
808.993	2777.92
809.177	2770.94
809.36	2828.29
809.543	2841.66
809.726	2753.89
809.909	2783.53
810.092	2680.27
810.276	2701.19
810.459	2720.57
810.642	2716.11
810.825	2671.16
811.008	2725.8
811.191	2583.39
811.374	2631.06
811.557	2648.1
811.74	2748.66
811.923	2594.05
812.106	2602.77
812.289	2573.71
812.472	2604.71
812.654	2590.76
812.837	2549.29
813.02	2494.46
813.203	2449.13
813.386	2365.62
813.569	2372.21
813.751	2335.98
813.934	2346.63
814.117	2329.2
814.3	2259.64
814.482	2254.41
814.665	2238.91
814.848	2165.29
815.03	2116.46
815.213	2129.64
815.396	2095.15
815.578	2057.18
815.761	2042.45
815.943	2090.11
816.126	2006.61
816.309	1972.31
816.491	1905.67
816.674	1871.37
816.856	1904.31
817.039	1894.43
817.221	1971.54
817.403	1921.75
817.586	1932.4
817.768	1943.45
817.951	1878.73
818.133	1846.96
818.315	1867.5
818.498	1897.33
818.68	1976.77
818.862	1915.74
819.045	1982.58
819.227	1952.75
819.409	1937.63
819.591	1960.88
819.774	1922.91
819.956	1905.47
820.138	1982
820.32	1951.2
820.502	1969.41
820.684	2039.54
820.866	2064.54
821.048	2120.92
821.231	2124.21
821.413	2114.72
821.595	2086.43
821.777	2113.75
821.959	2092.63
822.141	2160.25
822.323	2002.35
822.505	1998.47
822.686	1930.27
822.868	1880.87
823.05	1731.87
823.232	1711.72
823.414	1615.43
823.596	1734.97
823.778	1683.44
823.96	1692.74
824.141	1741.37
824.323	1782.25
824.505	1816.35
824.687	1861.1
824.868	1918.84
825.05	2005.83
825.232	2056.01
825.413	2089.73
825.595	2070.93
825.777	1988.4
825.958	2026.37
826.14	1991.3
826.321	2030.05
826.503	2017.07
826.685	2020.75
826.866	2068.03
827.048	2044.97
827.229	2013.97
827.411	1977.55
827.592	1917.87
827.773	1938.02
827.955	1899.85
828.136	1885.13
828.318	1832.62
828.499	1886.48
828.68	1839.6
828.862	1884.35
829.043	1859.75
829.224	1868.66
829.406	1798.14
829.587	1829.52
829.768	1830.1
829.949	1835.14
830.131	1836.69
830.312	1935.12
830.493	1836.5
830.674	1913.61
830.855	1812.86
831.036	1822.16
831.218	1902.57
831.399	1891.72
831.58	1882.61
831.761	1849.29
831.942	1887.07
832.123	1830.88
832.304	1807.05
832.485	1806.85
832.666	1816.15
832.847	1858.39
833.028	1847.74
833.209	1835.72
833.389	1826.23
833.57	1762.49
833.751	1785.15
833.932	1882.03
834.113	1831.65
834.294	1788.45
834.475	1837.47
834.655	1894.43
834.836	1880.87
835.017	1870.6
835.198	1825.84
835.378	1832.43
835.559	1901.98
835.74	1816.15
835.92	1823.71
836.101	1828.55
836.281	1871.37
836.462	1868.27
836.643	1870.98
836.823	1875.44
837.004	1871.57
837.184	1925.82
837.365	1905.47
837.545	1901.98
837.726	1846.38
837.906	1903.92
838.087	1865.37
838.267	1866.14
838.448	1845.8
838.628	1853.55
838.808	1870.02
838.989	1921.55
839.169	1805.5
839.349	1894.23
839.53	1939.96
839.71	1891.52
839.89	1812.67
840.07	1910.7
840.251	1830.88
840.431	1890.75
840.611	1868.85
840.791	1825.07
840.971	1855.68
841.151	1833.98
841.332	1800.27
841.512	1843.67
841.692	1783.02
841.872	1860.52
842.052	1832.04
842.232	1860.52
842.412	1776.05
842.592	1823.13
842.772	1865.17
842.952	1813.44
843.132	1796.59
843.312	1786.7
843.492	1774.69
843.672	1837.66
843.851	1742.53
844.031	1789.42
844.211	1771.59
844.391	1767.33
844.571	1778.37
844.751	1792.71
844.93	1792.52
845.11	1763.65
845.29	1770.62
845.47	1808.21
845.649	1776.63
845.829	1821.97
846.009	1734.2
846.188	1814.8
846.368	1764.81
846.547	1779.54
846.727	1817.51
846.907	1718.12
847.086	1728.97
847.266	1832.04
847.445	1767.14
847.625	1730.32
847.804	1717.54
847.984	1737.3
848.163	1698.36
848.343	1677.24
848.522	1767.72
848.701	1743.31
848.881	1681.11
849.06	1724.12
849.239	1719.47
849.419	1736.72
849.598	1648.76
849.777	1638.68
849.957	1612.91
850.136	1573.2
850.315	1602.64
850.494	1574.16
850.674	1626.48
850.853	1616.21
851.032	1588.69
851.211	1673.17
851.39	1639.46
851.569	1560.8
851.748	1580.56
851.927	1612.91
852.107	1601.87
852.286	1548.59
852.465	1558.86
852.644	1634.23
852.823	1580.36
853.002	1584.05
853.181	1609.23
853.359	1620.08
853.538	1532.12
853.717	1597.99
853.896	1524.76
854.075	1475.74
854.254	1449
854.433	1337.4
854.611	1403.09
854.79	1322.29
854.969	1366.66
855.148	1401.15
855.327	1374.6
855.505	1400.57
855.684	1416.45
855.863	1480.58
856.041	1428.85
856.22	1486.01
856.399	1444.55
856.577	1551.88
856.756	1510.61
856.934	1643.53
857.113	1663.48
857.291	1552.27
857.47	1494.73
857.648	1524.56
857.827	1530.76
858.005	1576.3
858.184	1487.17
858.362	1611.56
858.541	1503.06
858.719	1513.71
858.898	1490.27
859.076	1475.35
859.254	1572.23
859.433	1497.63
859.611	1454.62
859.789	1453.07
859.967	1530.38
860.146	1577.46
860.324	1447.84
860.502	1468.96
860.68	1408.9
860.859	1442.22
861.037	1459.08
861.215	1479.81
861.393	1469.15
861.571	1498.41
861.749	1439.51
861.927	1486.01
862.105	1432.15
862.283	1459.66
862.461	1412.19
862.639	1416.65
862.817	1444.74
862.995	1442.61
863.173	1421.1
863.351	1421.49
863.529	1440.28
863.707	1479.81
863.885	1433.31
864.063	1330.43
864.241	1374.41
864.418	1460.05
864.596	1387
864.774	1363.17
864.952	1382.94
865.129	1393.59
865.307	1345.74
865.485	1338.37
865.663	1429.24
865.84	1313.19
866.018	1322.29
866.196	1190.54
866.373	1208.95
866.551	1227.36
866.728	1138.81
866.906	1168.26
867.084	1214.76
867.261	1246.73
867.439	1264.94
867.616	1278.31
867.794	1279.09
867.971	1274.82
868.149	1296.33
868.326	1331.98
868.503	1349.03
868.681	1277.73
868.858	1307.57
869.035	1266.11
869.213	1338.95
869.39	1299.04
869.567	1369.95
869.745	1276.18
869.922	1304.27
870.099	1325.39
870.276	1304.86
870.454	1290.52
870.631	1300.01
870.808	1282.77
870.985	1333.72
871.162	1367.05
871.339	1294.59
871.517	1250.22
871.694	1254.29
871.871	1279.09
872.048	1273.66
872.225	1245.76
872.402	1284.9
872.579	1195.58
872.756	1286.64
872.933	1192.09
873.11	1251.38
873.287	1271.14
873.463	1234.33
873.64	1207.59
873.817	1255.06
873.994	1219.99
874.171	1197.52
874.348	1250.8
874.524	1166.33
874.701	1206.82
874.878	1144.24
875.055	1208.37
875.231	1212.05
875.408	1236.08
875.585	1142.88
875.762	1173.11
875.938	1178.34
876.115	1156.06
876.291	1167.68
876.468	1152.38
876.645	1112.46
876.821	1125.64
876.998	1181.63
877.174	1165.74
877.351	1170.39
877.527	1114.21
877.704	1185.7
877.88	1178.92
878.057	1129.71
878.233	1188.61
878.409	1112.08
878.586	1153.73
878.762	1111.11
878.938	1096.19
879.115	1030.32
879.291	1106.07
879.467	1006.87
879.644	1083.01
879.82	1127.77
879.996	1062.28
880.172	1065
880.349	1135.52
880.525	1125.64
880.701	1052.02
880.877	1064.8
881.053	1093.86
881.229	1068.68
881.405	1087.47
881.581	1069.45
881.757	1061.12
881.933	1104.13
882.109	1122.54
882.285	1105.49
882.461	1044.85
882.637	1108.4
882.813	1048.72
882.989	1061.32
883.165	1140.56
883.341	1043.88
883.517	1149.47
883.693	1076.62
883.869	1104.91
884.044	1041.94
884.22	1091.35
884.396	1115.56
884.572	1083.4
884.747	1128.35
884.923	1124.67
885.099	1133.58
885.275	1157.03
885.45	1067.71
885.626	1049.69
885.801	1053.37
885.977	1092.51
886.153	1029.15
886.328	1082.82
886.504	1052.02
886.679	1060.54
886.855	1019.47
887.03	1074.3
887.206	1083.01
887.381	1084.56
887.557	1107.23
887.732	1102.78
887.908	1097.35
888.083	1128.16
888.258	1102.39
888.434	1063.06
888.609	1059.38
888.784	1089.21
888.96	1093.48
889.135	1085.53
889.31	1022.76
889.485	1099.68
889.661	1106.26
889.836	1115.37
890.011	1134.75
890.186	1052.98
890.361	1041.17
890.537	1082.82
890.712	1088.05
890.887	1072.55
891.062	1067.71
891.237	1140.56
891.412	1015.78
891.587	1081.66
891.762	1130.87
891.937	1116.53
892.112	1010.75
892.287	1061.32
892.462	1015.2
892.637	991.76
892.812	994.28
892.987	1034.19
893.161	995.44
893.336	999.12
893.511	1011.72
893.686	1032.45
893.861	986.53
894.035	993.5
894.21	1024.12
894.385	936.35
894.56	975.29
894.734	949.91
894.909	923.95
895.084	962.12
895.258	914.84
895.433	944.87
895.608	953.4
895.782	867.37
895.957	877.45
896.131	875.71
896.306	826.11
896.48	844.9
896.655	844.9
896.829	752.68
897.004	777.67
897.178	777.28
897.353	765.08
897.527	796.27
897.701	785.42
897.876	736.79
898.05	811.77
898.224	767.98
898.399	843.35
898.573	794.72
898.747	652.31
898.921	751.9
899.096	662.58
899.27	648.44
899.444	630.03
899.618	683.12
899.792	719.35
899.967	709.47
900.141	716.44
900.315	668.2
900.489	667.23
900.663	697.07
900.837	677.7
901.011	632.75
901.185	768.18
901.359	693.39
901.533	691.45
901.707	687.19
901.881	695.33
902.055	639.14
902.229	692.61
902.403	761.98
902.576	691.65
902.75	682.54
902.924	798.01
903.098	762.36
903.272	781.54
903.446	818.55
903.619	783.68
903.793	810.41
903.967	763.91
904.14	880.16
904.314	844.51
904.488	845.67
904.661	837.73
904.835	810.8
905.009	879.19
905.182	902.05
905.356	872.99
905.529	850.71
905.703	789.88
905.876	786.78
906.05	776.7
906.223	781.35
906.397	730.39
906.57	694.55
906.744	694.55
906.917	687
907.09	693.97
907.264	695.33
907.437	643.01
907.61	616.08
907.784	631.78
907.957	644.56
908.13	605.43
908.304	685.64
908.477	609.88
908.65	622.09
908.823	588.57
908.996	699.2
909.17	612.6
909.343	607.17
909.516	602.52
909.689	583.15
909.862	589.93
910.035	621.32
910.208	563.77
910.381	590.7
910.554	668.2
910.727	601.55
910.9	601.75
911.073	567.45
911.246	652.9
911.419	663.94
911.592	640.69
911.765	570.94
911.938	568.42
912.11	570.55
912.283	590.9
912.456	667.04
912.629	620.35
912.802	568.03
912.974	583.15
913.147	506.23
913.32	486.27
913.493	488.02
913.665	535.1
913.838	567.26
914.01	508.94
914.183	545.75
914.356	514.75
914.528	594
914.701	649.41
914.873	575.98
915.046	555.63
915.218	494.8
915.391	431.44
915.563	473.49
915.736	511.85
915.908	530.64
916.081	509.52
916.253	539.75
916.425	542.85
916.598	524.05
916.77	546.33
916.942	514.95
917.115	421.76
917.287	538.2
917.459	507.2
917.632	445.78
917.804	398.51
917.976	487.44
918.148	485.89
918.32	514.56
918.493	519.6
918.665	567.45
918.837	512.04
919.009	560.09
919.181	581.4
919.353	532.19
919.525	536.07
919.697	513.98
919.869	544.59
920.041	567.45
920.213	642.05
920.385	585.08
920.557	526.77
920.729	573.65
920.901	558.93
921.073	533.35
921.244	517.85
921.416	569.78
921.588	533.16
921.76	523.28
921.932	569.2
922.103	524.25
922.275	541.88
922.447	541.3
922.619	448.3
922.79	498.29
922.962	486.85
923.134	546.14
923.305	481.04
923.477	465.15
923.648	452.37
923.82	474.07
923.991	438.61
924.163	424.27
924.335	482.2
924.506	473.49
924.677	542.07
924.849	463.99
925.02	482.2
925.192	491.89
925.363	471.16
925.535	484.53
925.706	430.47
925.877	496.93
926.049	450.82
926.22	466.32
926.391	459.34
926.562	518.05
926.734	451.01
926.905	499.84
927.076	401.8
927.247	424.47
927.419	411.68
927.59	400.06
927.761	418.85
927.932	388.24
928.103	411.68
928.274	348.52
928.445	333.41
928.616	383.78
928.787	340.58
928.958	384.36
929.129	368.86
929.3	372.54
929.471	272.76
929.642	258.43
929.813	211.73
929.984	315.78
930.155	235.37
930.326	294.08
930.496	265.01
930.667	158.45
930.838	233.82
931.009	196.43
931.18	213.09
931.35	215.03
931.521	229.75
931.692	172.4
931.863	123
932.033	163.1
932.204	164.65
932.374	189.65
932.545	133.27
932.716	185.97
932.886	188.68
933.057	101.88
933.227	94.32
933.398	191.58
933.568	97.04
933.739	52.09
933.909	63.9
934.08	123.97
934.25	10.24
934.421	54.99
934.591	98.78
934.761	86.96
934.932	28.84
935.102	90.25
935.272	68.36
935.443	65.26
935.613	55.38
935.783	88.51
935.953	59.84
936.123	220.65
936.294	64.49
936.464	44.72
936.634	61.58
936.804	31.55
936.974	3.46
937.144	82.5
937.314	59.25
937.484	64.49
937.655	63.52
937.825	108.08
937.995	30.39
938.165	106.72
938.334	60.61
938.504	112.15
938.674	84.44
938.844	88.12
939.014	152.45
939.184	142.37
939.354	200.5
939.524	178.41
939.694	129.2
939.863	128.23
940.033	211.35
940.203	188.1
940.373	163.49
940.542	181.51
940.712	119.32
940.882	179.57
941.051	172.4
941.221	141.02
941.391	141.6
941.56	131.91
941.73	131.91
941.899	208.83
942.069	139.47
942.238	164.46
942.408	109.24
942.577	135.4
942.747	122.22
942.916	55.38
943.086	80.37
943.255	176.47
943.425	123
943.594	85.99
943.763	34.26
943.933	56.35
944.102	14.11
944.271	84.25
944.441	102.27
944.61	73.59
944.779	84.05
944.948	191.97
945.117	65.65
945.287	59.64
945.456	42.2
945.625	60.03
945.794	101.88
945.963	69.91
946.132	136.95
946.301	87.93
946.47	135.01
946.639	22.64
946.808	79.99
946.977	98.97
947.146	144.89
947.315	68.94
947.484	109.82
947.653	64.87
947.822	79.79
947.991	66.04
948.16	191
948.329	166.2
948.498	104.59
948.666	80.18
948.835	113.5
949.004	69.14
949.173	65.07
949.341	90.25
949.51	102.07
949.679	114.67
949.847	124.74
950.016	202.43
950.185	191.58
950.353	65.65
950.522	99.94
950.69	169.88
950.859	75.14
951.028	153.42
951.196	111.76
951.365	91.03
951.533	75.34
951.701	136.17
951.87	142.18
952.038	67.2
952.207	110.4
952.375	169.88
952.543	76.5
952.712	106.53
952.88	87.74
953.048	156.32
953.217	109.82
953.385	116.41
953.553	130.75
953.721	85.02
953.89	118.54
954.058	48.4
954.226	79.79
954.394	91.22
954.562	48.79
954.73	110.6
954.898	76.89
955.067	144.31
955.235	106.53
955.403	133.46
955.571	162.13
955.739	123
955.907	69.72
956.075	88.32
956.243	48.6
956.41	122.61
956.578	58.67
956.746	35.42
956.914	82.89
957.082	126.48
957.25	99.36
957.418	95.49
957.585	92.97
957.753	136.75
957.921	58.48
958.089	92.97
958.256	101.69
958.424	83.28
958.592	90.84
958.759	72.04
958.927	113.5
959.095	67.2
959.262	67.97
959.43	92.19
959.597	74.37
959.765	113.5
959.932	67.2
960.1	121.64
960.267	112.34
960.435	72.24
960.602	120.48
960.77	92.39
960.937	38.91
961.104	94.52
961.272	46.47
961.439	70.1
961.606	115.05
961.774	140.82
961.941	82.12
962.108	96.26
962.275	124.74
962.443	154.19
962.61	98.59
962.777	158.65
962.944	125.13
963.111	129.97
963.278	109.63
963.446	153.8
963.613	118.93
963.78	133.46
963.947	139.27
964.114	106.33
964.281	182.28
964.448	130.17
964.615	73.79
964.782	105.56
964.949	144.5
965.116	146.44
965.282	181.51
965.449	67.78
965.616	85.41
965.783	140.63
965.95	140.24
966.117	52.47
966.283	102.85
966.45	110.4
966.617	134.23
966.784	142.37
966.95	159.62
967.117	153.22
967.284	76.3
967.45	107.3
967.617	164.27
967.784	128.62
967.95	155.16
968.117	94.9
968.283	167.95
968.45	212.51
968.616	138.5
968.783	157.68
968.949	145.47
969.116	158.26
969.282	146.05
969.449	113.5
969.615	140.43
969.781	85.02
969.948	107.69
970.114	101.69
970.28	192.36
970.447	119.12
970.613	174.53
970.779	97.04
970.945	142.57
971.112	140.43
971.278	131.72
971.444	128.42
971.61	172.79
971.776	124.93
971.942	140.24
972.108	154
972.275	106.14
972.441	129.78
972.607	204.37
972.773	74.56
972.939	153.61
973.105	108.47
973.271	94.32
973.437	115.05
973.602	94.71
973.768	150.51
973.934	107.88
974.1	121.64
974.266	13.34
974.432	116.41
974.598	118.93
974.763	151.67
974.929	118.15
975.095	198.75
975.261	63.52
975.426	67.78
975.592	111.57
975.758	160
975.923	76.3
976.089	61.77
976.255	144.31
976.42	111.57
976.586	115.83
976.751	107.3
976.917	217.16
977.082	133.65
977.248	66.62
977.413	23.02
977.579	117.77
977.744	99.17
977.91	48.99
978.075	107.88
978.24	127.65
978.406	82.7
978.571	82.12
978.736	62.55
978.902	123.19
979.067	55.57
979.232	46.66
979.397	98.59
979.563	148.18
979.728	72.04
979.893	94.13
980.058	54.8
980.223	122.8
980.388	85.99
980.554	92.58
980.719	74.17
980.884	126.48
981.049	146.63
981.214	70.69
981.379	116.8
981.544	85.02
981.709	92.58
981.874	80.95
982.039	83.47
982.204	138.3
982.368	113.31
982.533	53.44
982.698	142.57
982.863	112.92
983.028	81.34
983.193	107.88
983.357	90.25
983.522	142.18
983.687	62.16
983.852	62.94
984.016	98.97
984.181	118.15
984.346	126.68
984.51	128.62
984.675	130.17
984.839	137.33
985.004	106.33
985.168	150.12
985.333	95.29
985.498	91.8
985.662	116.02
985.827	100.14
985.991	99.94
986.155	75.53
986.32	133.85
986.484	167.17
986.649	133.46
986.813	48.4
986.977	118.54
987.142	114.47
987.306	58.67
987.47	78.63
987.634	77.85
987.799	106.92
987.963	109.24
988.127	144.89
988.291	148.18
988.455	101.88
988.62	92.58
988.784	152.64
988.948	98
989.112	61.58
989.276	78.44
989.44	91.8
989.604	59.06
989.768	85.22
989.932	158.65
990.096	46.85
990.26	51.12
990.424	74.75
990.588	87.15
990.752	165.62
990.915	125.13
991.079	71.07
991.243	49.18
991.407	122.8
991.571	77.66
991.734	112.15
991.898	115.44
992.062	191.58
992.226	81.15
992.389	60.42
992.553	37.75
992.717	40.07
992.88	84.05
993.044	64.1
993.207	84.44
993.371	101.49
993.535	100.72
993.698	100.33
993.862	98.59
994.025	105.75
994.189	86.96
994.352	76.3
994.515	86.57
994.679	102.27
994.842	63.13
995.006	131.91
995.169	65.26
995.332	68.94
995.496	95.49
995.659	15.27
995.822	83.09
995.985	89.67
996.149	121.45
996.312	69.91
996.475	126.87
996.638	49.76
996.801	133.27
996.964	115.63
997.128	52.67
997.291	72.24
997.454	67
997.617	21.09
997.78	113.12
997.943	37.94
998.106	106.14
998.269	46.47
998.432	62.16
998.595	82.7
998.758	29.03
998.92	34.26
999.083	-5.26
999.246	50.92
999.409	26.7
999.572	5.2
999.735	34.65
999.897	79.6
1000.06	50.54
1000.223	61.77
1000.386	79.4
1000.548	79.99
1000.711	89.09
1000.874	77.85
1001.036	13.14
1001.199	91.8
1001.361	51.5
1001.524	62.94
1001.687	117.38
1001.849	45.5
1002.012	68.55
1002.174	64.68
1002.337	89.67
1002.499	39.69
1002.661	100.91
1002.824	30.58
1002.986	49.57
1003.149	49.37
1003.311	26.51
1003.473	92.19
1003.636	23.8
1003.798	93.16
1003.96	88.32
1004.123	55.19
1004.285	28.64
1004.447	43.56
1004.609	48.79
1004.771	97.81
1004.933	-3.71
1005.096	25.54
1005.258	-11.08
1005.42	42.2
1005.582	87.54
1005.744	64.87
1005.906	-13.79
1006.068	61.58
1006.23	17.4
1006.392	-20.57
1006.554	9.27
1006.716	92.39
1006.878	72.43
1007.04	7.14
1007.202	26.51
1007.363	30
1007.525	55.57
1007.687	61
1007.849	100.33
1008.011	18.57
1008.172	-7.01
1008.334	47.63
1008.496	79.6
1008.658	2.49
1008.819	7.14
1008.981	5.39
1009.143	5.59
1009.304	62.16
1009.466	54.22
1009.627	107.88
1009.789	161.17
1009.95	85.6
1010.112	20.31
1010.273	55.77
1010.435	28.06
1010.596	18.95
1010.758	46.27
1010.919	32.9
1011.081	11.01
1011.242	33.49
1011.403	62.35
1011.565	26.7
1011.726	73.59
1011.887	4.04
1012.049	2.68
1012.21	87.15
1012.371	90.64
1012.532	-38.01
1012.693	43.95
1012.855	28.84
1013.016	30.39
1013.177	91.22
1013.338	11.21
1013.499	115.63
1013.66	31.55
1013.821	57.9
1013.982	37.17
1014.143	31.74
1014.304	8.49
1014.465	35.23
1014.626	73.59
1014.787	38.91
1014.948	123.38
1015.109	-44.98
1015.27	60.03
1015.431	13.14
1015.592	5.2
1015.752	75.34
1015.913	49.18
1016.074	40.85
1016.235	52.28
1016.395	22.44
1016.556	20.5
1016.717	29.61
1016.877	71.27
1017.038	6.75
1017.199	52.86
1017.359	40.27
1017.52	48.02
1017.681	43.37
1017.841	19.73
1018.002	26.9
1018.162	1.32
1018.323	79.79
1018.483	26.7
1018.644	33.1
1018.804	-18.24
1018.964	-26.77
1019.125	-0.81
1019.285	44.14
1019.446	-5.26
1019.606	-14.56
1019.766	-25.61
1019.926	56.74
1020.087	70.88
1020.247	-10.88
1020.407	59.84
1020.567	73.2
1020.728	24.96
1020.888	-18.05
1021.048	-8.94
1021.208	-8.17
1021.368	-7.98
1021.528	65.84
1021.688	38.33
1021.848	38.91
1022.008	15.47
1022.168	22.64
1022.328	23.02
1022.488	54.8
1022.648	-1.19
1022.808	45.5
1022.968	34.84
1023.128	-6.62
1023.288	-12.24
1023.448	5.2
1023.608	42.98
1023.767	69.52
1023.927	-17.28
1024.087	6.36
1024.247	-10.88
1024.406	11.79
1024.566	-25.8
1024.726	10.82
1024.885	39.3
1025.045	46.66
1025.205	26.12
1025.364	28.84
1025.524	35.81
1025.683	18.57
1025.843	35.04
1026.003	8.88
1026.162	93.35
1026.321	67.97
1026.481	41.43
1026.64	2.87
1026.8	22.64
1026.959	22.05
1027.119	35.04
1027.278	11.01
1027.437	-28.13
1027.597	30.58
1027.756	30.58
1027.915	45.89
1028.074	33.49
1028.234	-26.19
1028.393	3.26
1028.552	11.79
1028.711	-70.94
1028.87	36.2
1029.03	-37.43
1029.189	4.62
1029.348	-50.21
1029.507	20.12
1029.666	2.49
1029.825	-40.91
1029.984	23.41
1030.143	15.85
1030.302	7.91
1030.461	-55.25
1030.62	41.24
1030.779	20.7
1030.938	-2.74
1031.097	-10.49
1031.255	18.95
1031.414	64.87
1031.573	46.85
1031.732	-26.77
1031.891	15.27
1032.049	78.82
1032.208	41.82
1032.367	15.66
1032.525	12.56
1032.684	8.3
1032.843	10.62
1033.001	-33.74
1033.16	153.8
1033.319	33.1
1033.477	59.64
1033.636	-11.27
1033.794	-41.3
1033.953	38.91
1034.111	44.92
1034.27	-2.94
1034.428	25.15
1034.587	-26.77
1034.745	29.03
1034.903	1.52
1035.062	24.96
1035.22	-41.69
1035.378	38.14
1035.537	-33.74
1035.695	40.85
1035.853	3.26
1036.011	59.06
1036.17	48.02
1036.328	-56.41
1036.486	-13.98
1036.644	13.14
1036.802	-79.27
1036.96	-1.78
1037.119	0.94
1037.277	5.2
1037.435	-46.53
1037.593	-50.6
1037.751	0.55
1037.909	30.97
1038.067	30.97
