Data from gum_old_FLMT105791__79__15-44-07-256.txt Node

Date: Mon Mar 20 15:44:07 GMT 2023
User: antho
Spectrometer: FLMT10579
Trigger mode: 0
Integration Time (sec): 1.000000E-1
Scans to average: 10
Electric dark correction enabled: true
Nonlinearity correction enabled: false
Boxcar width: 0
XAxis mode: Wavelengths
Number of Pixels in Spectrum: 3648
>>>>>Begin Spectral Data<<<<<
345.248	-190.07
345.464	-190.07
345.681	-190.07
345.898	-162.94
346.114	-185.03
346.331	-34.49
346.548	40.49
346.764	-17.24
346.981	-4.84
347.197	-8.33
347.414	30.81
347.631	-16.08
347.847	62.39
348.064	-3.49
348.28	10.27
348.497	-63.74
348.713	4.26
348.93	44.17
349.146	33.71
349.363	5.04
349.579	30.03
349.796	22.47
350.012	-5.62
350.229	36.23
350.445	35.84
350.661	-8.33
350.878	6.39
351.094	35.65
351.311	46.31
351.527	35.46
351.743	-3.87
351.96	52.51
352.176	59.09
352.392	25.77
352.609	41.07
352.825	6.59
353.041	0.19
353.257	-0.77
353.474	28.09
353.69	20.92
353.906	34.87
354.122	-17.24
354.339	86.02
354.555	33.91
354.771	9.69
354.987	73.43
355.203	67.81
355.42	6.01
355.636	13.37
355.852	-3.1
356.068	25.38
356.284	-10.66
356.5	71.49
356.716	35.84
356.932	5.23
357.148	57.35
357.364	9.69
357.58	95.32
357.796	74.21
358.012	71.11
358.228	46.11
358.444	-46.11
358.66	59.09
358.876	35.07
359.092	10.27
359.308	51.92
359.524	64.71
359.74	17.05
359.956	13.17
360.172	34.49
360.388	71.11
360.604	9.11
360.819	80.02
361.035	36.23
361.251	66.65
361.467	-12.59
361.683	61.03
361.898	38.36
362.114	50.37
362.33	38.75
362.546	72.85
362.762	31
362.977	40.49
363.193	5.81
363.409	89.7
363.624	1.16
363.84	7.36
364.056	28.67
364.271	61.22
364.487	51.15
364.703	55.22
364.918	6.78
365.134	13.17
365.35	21.7
365.565	153.84
365.781	36.62
365.996	74.4
366.212	107.53
366.427	70.72
366.643	16.08
366.858	43.79
367.074	36.42
367.289	124.19
367.505	159.84
367.72	-5.81
367.936	47.08
368.151	77.89
368.367	71.3
368.582	43.21
368.798	44.17
369.013	95.9
369.228	80.02
369.444	53.09
369.659	99.2
369.874	88.54
370.09	113.54
370.305	-5.04
370.52	59.29
370.736	129.23
370.951	63.55
371.166	72.66
371.381	127.87
371.597	120.9
371.812	19.76
372.027	22.28
372.242	55.41
372.458	128.45
372.673	58.71
372.888	55.02
373.103	55.22
373.318	142.02
373.533	78.08
373.749	75.17
373.964	-4.84
374.179	103.27
374.394	-4.26
374.609	85.44
374.824	18.79
375.039	95.13
375.254	54.64
375.469	87.57
375.684	85.83
375.899	108.5
376.114	58.12
376.329	83.12
376.544	109.66
376.759	77.89
376.974	40.49
377.189	78.27
377.404	50.57
377.619	102.1
377.834	16.08
378.049	35.07
378.264	67.81
378.478	91.84
378.693	63.74
378.908	80.02
379.123	82.34
379.338	96.68
379.553	86.99
379.767	72.85
379.982	77.11
380.197	105.79
380.412	59.09
380.626	76.53
380.841	161.78
381.056	89.32
381.271	147.83
381.485	37.78
381.7	30.81
381.915	90.87
382.129	52.31
382.344	80.79
382.559	74.4
382.773	114.12
382.988	1.16
383.202	60.06
383.417	50.18
383.632	138.72
383.846	39.91
384.061	74.59
384.275	59.48
384.49	91.84
384.704	91.06
384.919	87.19
385.133	81.37
385.348	87.57
385.562	63.55
385.777	128.45
385.991	79.63
386.206	104.04
386.42	56.77
386.634	121.48
386.849	109.27
387.063	101.33
387.277	85.64
387.492	99.59
387.706	52.7
387.92	97.45
388.135	123.03
388.349	121.09
388.563	121.09
388.778	103.65
388.992	122.45
389.206	107.53
389.42	173.99
389.635	95.32
389.849	140.47
390.063	169.53
390.277	128.84
390.491	175.92
390.706	155.39
390.92	167.01
391.134	140.85
391.348	171.47
391.562	78.27
391.776	128.84
391.99	103.85
392.205	171.47
392.419	117.02
392.633	111.21
392.847	146.86
393.061	87.19
393.275	166.82
393.489	94.74
393.703	86.02
393.917	92.03
394.131	84.86
394.345	105.2
394.559	107.14
394.773	109.66
394.986	162.36
395.2	146.09
395.414	201.11
395.628	129.42
395.842	191.81
396.056	128.65
396.27	85.44
396.484	140.08
396.697	165.85
396.911	175.15
397.125	160.42
397.339	135.43
397.553	103.07
397.766	187.35
397.98	181.73
398.194	189.48
398.408	155.19
398.621	222.23
398.835	250.71
399.049	178.63
399.262	261.37
399.476	270.66
399.69	232.11
399.903	330.53
400.117	205.57
400.331	234.63
400.544	215.64
400.758	338.48
400.971	250.71
401.185	284.81
401.398	216.8
401.612	303.41
401.826	261.95
402.039	271.25
402.253	240.83
402.466	273.96
402.68	246.83
402.893	279.19
403.106	271.05
403.32	250.32
403.533	291.2
403.747	280.16
403.96	289.65
404.174	280.93
404.387	230.37
404.6	266.21
404.814	302.05
405.027	268.53
405.24	258.85
405.454	271.44
405.667	306.9
405.88	198.78
406.094	264.85
406.307	322.59
406.52	282.29
406.733	237.92
406.947	205.76
407.16	340.41
407.373	306.7
407.586	242.77
407.799	265.05
408.012	319.1
408.226	308.25
408.439	353.01
408.652	237.92
408.865	326.66
409.078	358.04
409.291	325.88
409.504	284.81
409.717	341.77
409.93	336.54
410.143	299.73
410.357	219.13
410.57	244.7
410.783	282.29
410.996	299.53
411.209	315.03
411.421	339.06
411.634	314.26
411.847	309.03
412.06	327.82
412.273	337.51
412.486	325.11
412.699	420.63
412.912	340.8
413.125	389.24
413.338	354.17
413.55	391.37
413.763	351.65
413.976	362.89
414.189	318.71
414.402	319.88
414.615	404.16
414.827	315.42
415.04	401.44
415.253	386.91
415.466	391.18
415.678	434.77
415.891	345.65
416.104	348.36
416.316	360.56
416.529	349.52
416.742	372.96
416.954	417.91
417.167	389.43
417.38	360.37
417.592	396.02
417.805	334.8
418.017	328.6
418.23	359.21
418.442	305.93
418.655	366.57
418.868	380.91
419.08	387.69
419.293	392.92
419.505	382.84
419.718	383.62
419.93	412.68
420.142	369.67
420.355	420.63
420.567	434.38
420.78	384.01
420.992	412.68
421.205	458.99
421.417	375.87
421.629	375.29
421.842	365.99
422.054	370.83
422.266	404.54
422.479	454.34
422.691	378.78
422.903	427.21
423.115	354.56
423.328	381.49
423.54	401.25
423.752	391.95
423.964	367.54
424.177	400.86
424.389	404.54
424.601	522.15
424.813	425.28
425.025	443.68
425.238	429.15
425.45	424.11
425.662	402.99
425.874	699.04
426.086	397.76
426.298	417.33
426.51	454.72
426.722	414.04
426.934	411.52
427.146	446.59
427.358	383.62
427.57	443.68
427.782	409.19
427.994	393.11
428.206	382.26
428.418	367.34
428.63	467.51
428.842	451.24
429.054	464.61
429.266	430.7
429.478	410.16
429.69	385.75
429.902	384.59
430.114	444.26
430.325	402.03
430.537	372.38
430.749	377.23
430.961	296.63
431.173	325.11
431.384	375.68
431.596	291.2
431.808	392.34
432.02	460.34
432.231	478.36
432.443	536.68
432.655	511.49
432.867	457.63
433.078	487.66
433.29	539.97
433.502	514.01
433.713	538.42
433.925	538.81
434.136	536.87
434.348	437.48
434.56	418.69
434.771	574.85
434.983	397.38
435.194	445.62
435.406	509.36
435.617	569.81
435.829	600.04
436.04	531.84
436.252	548.89
436.463	597.9
436.675	588.22
436.886	562.06
437.098	568.84
437.309	629.87
437.521	555.28
437.732	552.57
437.943	563.03
438.155	563.42
438.366	491.54
438.578	603.14
438.789	533.39
439	539.78
439.211	491.92
439.423	554.31
439.634	552.57
439.845	589.77
440.057	560.12
440.268	600.04
440.479	537.45
440.69	588.8
440.902	544.24
441.113	569.62
441.324	571.55
441.535	609.34
441.746	639.17
441.957	570.78
442.168	601.78
442.38	649.25
442.591	660.29
442.802	610.5
443.013	568.84
443.224	642.08
443.435	615.73
443.646	632.78
443.857	588.41
444.068	628.32
444.279	592.67
444.49	702.53
444.701	638.4
444.912	729.26
445.123	682.96
445.334	667.07
445.545	670.17
445.756	625.22
445.967	605.65
446.178	646.92
446.388	656.8
446.599	658.93
446.81	676.57
447.021	626.38
447.232	713.96
447.443	702.91
447.653	645.95
447.864	719
448.075	683.93
448.286	705.43
448.496	699.43
448.707	728.88
448.918	658.35
449.129	735.85
449.339	660.48
449.55	710.66
449.761	671.14
449.971	736.43
450.182	686.25
450.393	730.23
450.603	683.93
450.814	760.07
451.024	724.23
451.235	791.26
451.446	796.69
451.656	822.26
451.867	714.35
452.077	733.72
452.288	840.48
452.498	780.22
452.709	722.1
452.919	723.84
453.13	697.49
453.34	719.38
453.55	672.69
453.761	698.85
453.971	682.38
454.182	718.61
454.392	726.75
454.602	795.33
454.813	748.06
455.023	748.25
455.233	688.19
455.444	727.71
455.654	678.12
455.864	736.43
456.075	724.61
456.285	719.77
456.495	753.68
456.705	752.9
456.916	797.66
457.126	814.71
457.336	771.31
457.546	707.76
457.756	749.03
457.967	818.97
458.177	741.86
458.387	762.59
458.597	717.64
458.807	750.19
459.017	746.12
459.227	743.21
459.437	706.21
459.647	798.63
459.857	806.76
460.068	745.54
460.278	838.73
460.488	788.16
460.698	842.61
460.908	780.03
461.117	771.11
461.327	800.37
461.537	820.13
461.747	815.29
461.957	792.81
462.167	881.74
462.377	835.83
462.587	811.61
462.797	868.18
463.007	797.66
463.216	871.09
463.426	887.36
463.636	874.96
463.846	777.12
464.056	803.28
464.265	871.86
464.475	756.58
464.685	814.51
464.895	842.41
465.104	837.18
465.314	881.16
465.524	809.86
465.733	794.94
465.943	876.32
466.153	902.47
466.362	904.99
466.572	873.41
466.782	835.24
466.991	865.08
467.201	901.7
467.41	791.46
467.62	867.99
467.829	826.53
468.039	899.37
468.249	838.54
468.458	860.24
468.668	915.07
468.877	910.42
469.086	928.24
469.296	923.21
469.505	850.74
469.715	976.68
469.924	921.27
470.134	953.43
470.343	919.33
470.552	921.85
470.762	913.13
470.971	877.87
471.18	916.42
471.39	892.4
471.599	850.36
471.808	965.44
472.018	884.46
472.227	973
472.436	1006.13
472.645	960.6
472.855	949.17
473.064	1039.45
473.273	973.77
473.482	1024.15
473.691	1056.7
473.901	1038.68
474.11	983.27
474.319	1094.48
474.528	1017.75
474.737	1098.74
474.946	1042.17
475.155	1084.21
475.364	1066.97
475.573	1063.09
475.783	1105.33
475.992	1105.52
476.201	1102.23
476.41	1102.03
476.619	1054.37
476.828	1085.37
477.037	1067.74
477.245	1088.47
477.454	1117.53
477.663	1115.4
477.872	1139.04
478.081	1192.32
478.29	1136.91
478.499	1260.52
478.708	1200.46
478.917	1249.28
479.125	1162.29
479.334	1242.11
479.543	1206.85
479.752	1216.35
479.961	1213.44
480.169	1270.4
480.378	1203.95
480.587	1376.38
480.796	1300.24
481.004	1270.59
481.213	1288.61
481.422	1272.53
481.63	1303.14
481.839	1305.66
482.048	1353.32
482.256	1330.85
482.465	1360.49
482.674	1363.01
482.882	1356.23
483.091	1410.09
483.299	1349.84
483.508	1387.04
483.716	1361.66
483.925	1387.62
484.134	1358.56
484.342	1335.31
484.551	1394.79
484.759	1353.32
484.967	1433.54
485.176	1422.49
485.384	1423.85
485.593	1415.71
485.801	1408.54
486.01	1324.84
486.218	1263.04
486.426	1206.46
486.635	1210.53
486.843	1208.21
487.051	1221.77
487.26	1252.58
487.468	1280.67
487.676	1345.57
487.885	1325.04
488.093	1355.84
488.301	1431.6
488.509	1425.2
488.717	1439.15
488.926	1436.25
489.134	1410.87
489.342	1462.79
489.55	1383.36
489.758	1460.08
489.967	1470.74
490.175	1585.82
490.383	1509.48
490.591	1602.68
490.799	1502.12
491.007	1544.94
491.215	1521.11
491.423	1522.08
491.631	1575.16
491.839	1547.27
492.047	1578.85
492.255	1518.98
492.463	1438.19
492.671	1471.9
492.879	1522.66
493.087	1519.75
493.295	1524.6
493.503	1549.4
493.711	1636.2
493.919	1597.45
494.127	1623.21
494.334	1628.45
494.542	1547.65
494.75	1609.26
494.958	1583.3
495.166	1666.23
495.374	1685.79
495.581	1704.59
495.789	1672.43
495.997	1725.51
496.205	1649.76
496.412	1636
496.62	1642.2
496.828	1659.45
497.035	1655.76
497.243	1674.17
497.451	1686.76
497.658	1706.91
497.866	1674.17
498.074	1766.01
498.281	1673.2
498.489	1786.16
498.696	1658.48
498.904	1619.15
499.112	1655.76
499.319	1727.26
499.527	1665.84
499.734	1756.32
499.942	1646.08
500.149	1683.86
500.357	1738.11
500.564	1640.65
500.771	1701.88
500.979	1672.23
501.186	1649.76
501.394	1665.26
501.601	1654.02
501.808	1691.41
502.016	1660.03
502.223	1653.63
502.43	1652.86
502.638	1653.05
502.845	1662.54
503.052	1745.86
503.26	1675.91
503.467	1809.6
503.674	1722.03
503.881	1689.86
504.089	1776.66
504.296	1758.84
504.503	1684.44
504.71	1704.98
504.917	1683.47
505.125	1713.31
505.332	1739.08
505.539	1741.59
505.746	1819.29
505.953	1783.25
506.16	1817.16
506.367	1807.66
506.574	1896.01
506.781	1853.19
506.988	1784.8
507.195	1793.52
507.402	1788.09
507.609	1841.57
507.816	1779.18
508.023	1780.92
508.23	1749.15
508.437	1699.36
508.644	1762.52
508.851	1826.84
509.058	1783.06
509.265	1812.51
509.472	1865.4
509.679	1926.23
509.885	1857.45
510.092	1860.55
510.299	1826.26
510.506	1840.79
510.713	1846.6
510.92	1844.67
511.126	1862.88
511.333	1902.79
511.54	1879.93
511.746	1947.55
511.953	1965.18
512.16	1968.47
512.367	1908.6
512.573	1900.27
512.78	1902.99
512.987	1872.18
513.193	1887.87
513.4	1812.7
513.606	1868.69
513.813	1883.42
514.02	1891.36
514.226	1924.68
514.433	1948.9
514.639	1805.34
514.846	1866.75
515.052	1832.66
515.259	1867.53
515.465	1863.85
515.672	1860.55
515.878	1958.59
516.085	1898.53
516.291	1983.97
516.497	1909.38
516.704	1856.1
516.91	1802.62
517.117	1770.46
517.323	1690.44
517.529	1675.72
517.736	1729.19
517.942	1712.14
518.148	1776.08
518.354	1786.35
518.561	1818.32
518.767	1780.15
518.973	1821.03
519.179	1810.96
519.386	1816.96
519.592	1822.19
519.798	1838.66
520.004	1972.73
520.21	1911.32
520.417	1969.44
520.623	1994.05
520.829	1994.82
521.035	1989.98
521.241	2010.32
521.447	2022.53
521.653	2102.54
521.859	1995.98
522.065	2044.42
522.271	2117.66
522.477	2103.9
522.683	2146.91
522.889	2066.9
523.095	2101.96
523.301	2043.65
523.507	2014.2
523.713	2075.23
523.919	2043.06
524.125	2113.2
524.331	2078.91
524.537	2220.15
524.742	2203.87
524.948	2228.48
525.154	2227.12
525.36	2275.37
525.566	2221.31
525.772	2257.74
525.977	2155.63
526.183	2228.48
526.389	2227.9
526.595	2145.17
526.8	2100.03
527.006	2037.06
527.212	2032.02
527.417	1995.79
527.623	1973.7
527.829	2083.17
528.034	2088.01
528.24	2150.01
528.446	2147.88
528.651	2242.04
528.857	2213.76
529.062	2259.29
529.268	2317.02
529.473	2274.4
529.679	2332.52
529.884	2364.1
530.09	2350.15
530.295	2375.92
530.501	2336.01
530.706	2314.12
530.912	2275.17
531.117	2346.86
531.323	2338.53
531.528	2375.34
531.733	2406.53
531.939	2379.41
532.144	2409.83
532.35	2393.36
532.555	2404.21
532.76	2376.31
532.966	2390.26
533.171	2332.72
533.376	2293.97
533.581	2254.06
533.787	2283.89
533.992	2365.65
534.197	2351.51
534.402	2348.22
534.607	2352.48
534.813	2486.36
535.018	2335.82
535.223	2373.6
535.428	2394.13
535.633	2411.96
535.838	2461.56
536.043	2459.81
536.249	2532.86
536.454	2434.63
536.659	2461.17
536.864	2453.81
537.069	2444.51
537.274	2443.93
537.479	2408.86
537.684	2391.23
537.889	2348.22
538.094	2531.89
538.299	2442.18
538.504	2460.78
538.708	2510.58
538.913	2486.36
539.118	2473.96
539.323	2496.43
539.528	2435.6
539.733	2445.09
539.938	2476.28
540.142	2440.83
540.347	2424.36
540.552	2416.42
540.757	2424.75
540.962	2404.02
541.166	2300.94
541.371	2328.65
541.576	2398.59
541.781	2316.05
541.985	2418.16
542.19	2403.63
542.395	2512.32
542.599	2508.25
542.804	2521.43
543.008	2539.64
543.213	2422.03
543.418	2416.61
543.622	2485.58
543.827	2443.15
544.031	2517.36
544.236	2542.35
544.44	2480.93
544.645	2563.28
544.849	2502.05
545.054	2548.94
545.258	2589.24
545.463	2557.46
545.667	2480.16
545.872	2546.81
546.076	2523.95
546.281	2509.61
546.485	2485.58
546.689	2514.26
546.894	2588.46
547.098	2506.31
547.302	2481.32
547.507	2516.39
547.711	2531.5
547.915	2579.16
548.119	2475.31
548.324	2504.76
548.528	2536.73
548.732	2502.44
548.936	2564.44
549.141	2558.24
549.345	2496.43
549.549	2517.94
549.753	2548.36
549.957	2636.71
550.161	2613.26
550.366	2558.24
550.57	2523.36
550.774	2552.62
550.978	2536.73
551.182	2568.12
551.386	2511.74
551.59	2496.24
551.794	2540.61
551.998	2559.21
552.202	2494.11
552.406	2507.86
552.61	2545.64
552.814	2569.67
553.018	2586.14
553.222	2554.56
553.426	2490.62
553.63	2618.3
553.833	2525.69
554.037	2470.86
554.241	2527.24
554.445	2551.46
554.649	2527.05
554.853	2491.98
555.056	2572.96
555.26	2570.64
555.464	2521.43
555.668	2535.76
555.871	2589.63
556.075	2553.2
556.279	2506.12
556.483	2474.15
556.686	2484.61
556.89	2523.75
557.094	2473.57
557.297	2442.57
557.501	2532.47
557.704	2392.97
557.908	2475.9
558.112	2461.56
558.315	2541.96
558.519	2449.16
558.722	2422.81
558.926	2440.44
559.129	2352.29
559.333	2348.8
559.536	2385.03
559.74	2347.83
559.943	2354.61
560.147	2340.66
560.35	2382.51
560.553	2379.02
560.757	2307.14
560.96	2431.72
561.164	2338.34
561.367	2446.64
561.57	2397.43
561.774	2397.82
561.977	2373.4
562.18	2328.26
562.384	2469.7
562.587	2365.85
562.79	2361.78
562.993	2339.5
563.197	2400.72
563.4	2435.98
563.603	2420.87
563.806	2448.77
564.009	2376.7
564.212	2393.94
564.416	2292.22
564.619	2331.55
564.822	2305.2
565.025	2374.37
565.228	2331.55
565.431	2362.36
565.634	2253.09
565.837	2294.16
566.04	2279.63
566.243	2258.71
566.446	2191.47
566.649	2303.27
566.852	2214.53
567.055	2295.9
567.258	2265.29
567.461	2317.02
567.664	2321.29
567.867	2227.71
568.07	2270.14
568.273	2224.02
568.475	2321.67
568.678	2242.43
568.881	2218.99
569.084	2207.56
569.287	2081.04
569.489	2163.96
569.692	2237.97
569.895	2197.87
570.098	2147.69
570.3	2141.68
570.503	2102.16
570.706	2118.43
570.909	2091.11
571.111	2043.06
571.314	2020.98
571.516	2066.51
571.719	2095.76
571.922	2028.92
572.124	2038.22
572.327	2097.31
572.529	2069.03
572.732	2042.29
572.935	2129.28
573.137	2223.44
573.34	2131.41
573.542	2130.83
573.745	2178.11
573.947	2148.85
574.15	2090.92
574.352	2064.18
574.554	2144.59
574.757	2056.82
574.959	2057.01
575.162	2071.93
575.364	2037.83
575.566	2134.32
575.769	1990.56
575.971	2056.05
576.173	1891.55
576.376	2023.88
576.578	2046.55
576.78	2100.03
576.982	1954.52
577.185	2021.95
577.387	1970.02
577.589	2028.92
577.791	2036.09
577.993	2038.41
578.196	2019.43
578.398	2020.2
578.6	2029.5
578.802	1933.02
579.004	1945.03
579.206	1912.09
579.408	2036.28
579.61	1936.31
579.812	2006.64
580.014	1955.3
580.216	1951.23
580.418	1962.08
580.62	1953.36
580.822	1892.72
581.024	1944.45
581.226	1980.29
581.428	1950.07
581.63	2042.48
581.832	1909.57
582.034	2003.15
582.236	1973.9
582.438	1965.37
582.64	2022.33
582.841	2066.7
583.043	2116.3
583.245	1997.34
583.447	1978.35
583.649	1994.63
583.85	1999.47
584.052	2017.3
584.254	1899.3
584.456	2008.58
584.657	1930.11
584.859	1967.5
585.061	1912.87
585.262	1938.44
585.464	1903.37
585.666	1973.12
585.867	1897.37
586.069	1968.67
586.27	1910.74
586.472	1918.29
586.674	1861.72
586.875	1886.52
587.077	1870.82
587.278	1903.76
587.48	1896.79
587.681	1971.57
587.883	1924.49
588.084	1843.5
588.285	1879.74
588.487	1881.67
588.688	1886.13
588.89	1771.62
589.091	1741.21
589.292	1766.78
589.494	1704.39
589.695	1661.58
589.896	1597.25
590.098	1603.45
590.299	1673.78
590.5	1658.86
590.702	1670.68
590.903	1725.32
591.104	1780.73
591.305	1787.12
591.507	1788.29
591.708	1768.14
591.909	1748.76
592.11	1850.87
592.311	1800.69
592.512	1723.19
592.714	1711.76
592.915	1715.05
593.116	1735.01
593.317	1755.16
593.518	1732.49
593.719	1777.24
593.92	1782.47
594.121	1789.06
594.322	1768.14
594.523	1785.57
594.724	1707.69
594.925	1745.86
595.126	1769.69
595.327	1797.78
595.528	1722.8
595.729	1751.09
595.929	1742.18
596.13	1749.92
596.331	1804.76
596.532	1785.57
596.733	1824.52
596.934	1777.24
597.135	1789.64
597.335	1755.16
597.536	1725.9
597.737	1789.64
597.938	1721.83
598.138	1758.26
598.339	1705.75
598.54	1745.08
598.74	1708.08
598.941	1733.46
599.142	1820.64
599.342	1729.78
599.543	1699.36
599.744	1730.16
599.944	1736.36
600.145	1726.87
600.345	1729
600.546	1783.06
600.746	1815.02
600.947	1830.72
601.147	1744.5
601.348	1785.77
601.548	1704.59
601.749	1758.64
601.949	1703.43
602.15	1714.86
602.35	1699.36
602.551	1799.14
602.751	1676.69
602.951	1673.78
603.152	1631.35
603.352	1724.35
603.552	1735.01
603.753	1774.53
603.953	1759.03
604.153	1697.23
604.354	1731.91
604.554	1716.02
604.754	1706.72
604.954	1687.93
605.155	1757.67
605.355	1692.19
605.555	1746.83
605.755	1761.94
605.955	1732.88
606.155	1742.56
606.356	1688.7
606.556	1703.81
606.756	1744.31
606.956	1655.18
607.156	1763.87
607.356	1674.56
607.556	1695.09
607.756	1687.34
607.956	1777.24
608.156	1713.11
608.356	1642.98
608.556	1698.78
608.756	1694.71
608.956	1669.52
609.156	1677.08
609.356	1632.13
609.556	1636.78
609.755	1656.54
609.955	1634.26
610.155	1619.92
610.355	1664.48
610.555	1620.31
610.755	1637.36
610.954	1568.77
611.154	1632.9
611.354	1665.45
611.554	1579.23
611.753	1609.07
611.953	1591.25
612.153	1647.24
612.352	1609.85
612.552	1554.63
612.752	1537.19
612.951	1586.01
613.151	1627.09
613.351	1542.62
613.55	1587.76
613.75	1615.46
613.949	1579.81
614.149	1574.58
614.348	1558.5
614.548	1520.92
614.747	1499.22
614.947	1547.85
615.146	1475.39
615.346	1588.15
615.545	1560.44
615.745	1547.65
615.944	1589.7
616.144	1544.94
616.343	1576.71
616.542	1511.23
616.742	1499.41
616.941	1524.79
617.14	1446.32
617.34	1496.89
617.539	1510.26
617.738	1500.96
617.938	1551.53
618.137	1508.71
618.336	1466.09
618.535	1556.37
618.734	1501.35
618.934	1531.18
619.133	1516.65
619.332	1506.97
619.531	1494.95
619.73	1531.77
619.929	1550.75
620.128	1550.37
620.328	1586.6
620.527	1481.97
620.726	1509.48
620.925	1544.17
621.124	1546.88
621.323	1509.87
621.522	1445.35
621.721	1436.83
621.92	1455.04
622.119	1517.62
622.318	1499.41
622.517	1482.75
622.715	1487.4
622.914	1431.02
623.113	1463.76
623.312	1404.09
623.511	1463.95
623.71	1466.28
623.909	1411.64
624.107	1527.31
624.306	1432.37
624.505	1410.67
624.704	1405.44
624.902	1439.15
625.101	1481.39
625.3	1429.08
625.499	1377.16
625.697	1454.85
625.896	1404.47
626.095	1448.65
626.293	1344.61
626.492	1361.27
626.69	1398.08
626.889	1348.87
627.088	1419.59
627.286	1394.59
627.485	1395.17
627.683	1366.5
627.882	1409.12
628.08	1315.93
628.279	1379.48
628.477	1429.08
628.676	1328.33
628.874	1384.91
629.073	1353.13
629.271	1336.47
629.469	1390.33
629.668	1363.79
629.866	1371.92
630.065	1329.11
630.263	1356.62
630.461	1308.18
630.66	1344.61
630.858	1356.23
631.056	1385.68
631.254	1382
631.453	1309.73
631.651	1374.25
631.849	1308.18
632.047	1319.61
632.245	1307.41
632.444	1336.08
632.642	1361.27
632.84	1351.19
633.038	1294.04
633.236	1259.55
633.434	1291.71
633.632	1274.28
633.83	1267.69
634.028	1378.32
634.227	1325.23
634.425	1392.85
634.623	1295.78
634.821	1314.77
635.019	1347.9
635.216	1324.65
635.414	1335.5
635.612	1293.46
635.81	1328.91
636.008	1373.67
636.206	1295.01
636.404	1363.59
636.602	1305.47
636.8	1254.13
636.997	1335.31
637.195	1352.55
637.393	1326.01
637.591	1369.02
637.789	1308.18
637.986	1313.02
638.184	1348.67
638.382	1354.29
638.58	1361.66
638.777	1392.85
638.975	1316.12
639.173	1328.52
639.37	1328.91
639.568	1325.23
639.765	1320.97
639.963	1275.63
640.161	1351.77
640.358	1302.76
640.556	1262.65
640.753	1228.74
640.951	1226.61
641.148	1320.19
641.346	1244.83
641.543	1260.91
641.741	1298.88
641.938	1206.46
642.136	1273.31
642.333	1257.03
642.531	1306.24
642.728	1313.8
642.925	1248.12
643.123	1258
643.32	1244.63
643.517	1262.07
643.715	1272.73
643.912	1246.18
644.109	1255.09
644.306	1251.99
644.504	1217.9
644.701	1270.79
644.898	1286.09
645.095	1219.83
645.293	1253.54
645.49	1289.58
645.687	1268.66
645.884	1286.09
646.081	1171.2
646.278	1222.35
646.475	1204.14
646.672	1202.2
646.87	1251.99
647.067	1230.29
647.264	1221.58
647.461	1156.67
647.658	1157.06
647.855	1231.65
648.052	1205.69
648.249	1108.04
648.446	1179.73
648.642	1165.58
648.839	1148.34
649.036	1173.33
649.233	1135.55
649.43	1125.87
649.627	1093.9
649.824	1141.75
650.021	1125.48
650.217	1123.15
650.414	1135.75
650.611	1163.65
650.808	1161.32
651.004	1160.74
651.201	1196.58
651.398	1256.64
651.595	1190.58
651.791	1156.09
651.988	1196.78
652.185	1090.6
652.381	1175.27
652.578	1125.67
652.775	1157.25
652.971	1159
653.168	1156.86
653.364	1185.73
653.561	1108.23
653.757	1115.79
653.954	1172.36
654.15	1110.37
654.347	1208.01
654.543	1157.06
654.74	1121.41
654.936	1076.85
655.133	1112.88
655.329	1154.35
655.525	1129.74
655.722	1144.08
655.918	1072.39
656.115	1114.05
656.311	986.56
656.507	989.85
656.704	937.35
656.9	972.61
657.096	948.78
657.292	961.57
657.489	1028.41
657.685	1046.24
657.881	1015.82
658.077	1006.52
658.273	1036.94
658.47	1101.65
658.666	1055.73
658.862	1134.58
659.058	1087.7
659.254	1124.9
659.45	1092.54
659.646	1093.7
659.842	1067.55
660.038	1159.77
660.234	1053.21
660.43	1079.17
660.626	1188.83
660.822	1150.28
661.018	1144.46
661.214	1107.27
661.41	1094.09
661.606	1109.01
661.802	1126.64
661.998	1078.78
662.194	1063.87
662.39	1113.66
662.586	1120.05
662.781	1137.68
662.977	1121.6
663.173	1118.89
663.369	1086.73
663.564	1084.21
663.76	1146.21
663.956	1093.51
664.152	1127.8
664.347	1051.27
664.543	1098.93
664.739	1084.02
664.934	1018.53
665.13	1015.62
665.326	1099.32
665.521	1107.85
665.717	1022.4
665.912	1041.97
666.108	973.19
666.304	1059.8
666.499	1074.52
666.695	966.8
666.89	1026.09
667.086	1078.01
667.281	1091.96
667.477	1134.78
667.672	1048.95
667.867	1048.56
668.063	1083.82
668.258	997.02
668.454	1065.61
668.649	1130.52
668.844	1059.99
669.04	1090.6
669.235	1066.38
669.43	1030.93
669.626	989.66
669.821	1033.06
670.016	993.54
670.211	1035.58
670.407	992.76
670.602	1035.77
670.797	999.93
670.992	1058.25
671.187	989.47
671.382	1051.08
671.578	982.1
671.773	1043.91
671.968	948.78
672.163	1014.65
672.358	1027.25
672.553	982.1
672.748	984.82
672.943	1081.5
673.138	1016.79
673.333	1022.6
673.528	977.26
673.723	1018.14
673.918	1005.55
674.113	962.73
674.308	1103.58
674.503	1025.7
674.698	1051.08
674.892	994.89
675.087	1049.53
675.282	1008.45
675.477	981.52
675.672	1013.88
675.867	962.15
676.061	973.39
676.256	907.71
676.451	970.09
676.646	1003.03
676.84	967.38
677.035	958.86
677.23	964.67
677.424	1000.9
677.619	1014.46
677.814	1037.13
678.008	1036.16
678.203	963.12
678.397	964.09
678.592	968.35
678.787	1049.53
678.981	988.3
679.176	975.32
679.37	967.19
679.565	951.88
679.759	978.42
679.954	969.7
680.148	1011.75
680.342	1045.27
680.537	981.33
680.731	959.82
680.926	980.75
681.12	998.38
681.314	936.77
681.509	949.94
681.703	980.75
681.897	1002.84
682.092	1002.64
682.286	967.77
682.48	1024.15
682.674	1005.94
682.869	942.58
683.063	973.19
683.257	1054.37
683.451	937.93
683.645	1008.26
683.839	996.05
684.034	961.18
684.228	989.27
684.422	916.81
684.616	907.9
684.81	962.34
685.004	942.58
685.198	957.89
685.392	991.4
685.586	929.6
685.78	958.27
685.974	1014.07
686.168	962.92
686.362	1011.55
686.556	906.74
686.75	913.52
686.944	880.77
687.138	901.89
687.331	811.41
687.525	801.92
687.719	744.18
687.913	824.59
688.107	797.46
688.301	802.31
688.494	837.96
688.688	787.78
688.882	737.79
689.076	763.75
689.269	784.29
689.463	868.18
689.657	816.64
689.85	798.24
690.044	833.69
690.238	789.33
690.431	834.08
690.625	790.1
690.818	846.09
691.012	857.14
691.205	874.19
691.399	814.51
691.593	869.15
691.786	890.46
691.98	920.11
692.173	951.88
692.366	891.62
692.56	895.31
692.753	960.6
692.947	860.04
693.14	935.02
693.333	959.44
693.527	874.77
693.72	897.44
693.914	882.71
694.107	896.47
694.3	897.24
694.493	902.09
694.687	928.82
694.88	883.49
695.073	957.89
695.266	953.24
695.46	917.78
695.653	945.1
695.846	961.57
696.039	853.46
696.232	932.31
696.425	955.17
696.618	981.33
696.812	995.67
697.005	1033.84
697.198	1116.76
697.391	1032.29
697.584	1069.29
697.777	1099.52
697.97	1080.14
698.163	1069.29
698.356	1060.38
698.549	1143.88
698.742	1103.78
698.935	1042.36
699.127	1063.28
699.32	1070.45
699.513	1070.45
699.706	1095.06
699.899	1108.43
700.092	1083.05
700.285	1111.92
700.477	1074.72
700.67	1165.2
700.863	1158.41
701.056	1242.69
701.248	1192.13
701.441	1210.15
701.634	1175.66
701.826	1262.46
702.019	1173.72
702.212	1249.67
702.404	1173.14
702.597	1178.95
702.79	1215.18
702.982	1251.8
703.175	1272.14
703.367	1275.44
703.56	1290.55
703.752	1390.33
703.945	1342.47
704.137	1338.6
704.33	1365.14
704.522	1363.21
704.715	1372.31
704.907	1391.3
705.1	1431.6
705.292	1432.57
705.484	1400.4
705.677	1441.48
705.869	1452.14
706.061	1489.53
706.254	1549.78
706.446	1495.15
706.638	1506.58
706.831	1572.45
707.023	1495.92
707.215	1660.61
707.407	1594.93
707.599	1600.35
707.792	1638.13
707.984	1643.56
708.176	1661.38
708.368	1663.71
708.56	1676.11
708.752	1682.11
708.944	1677.66
709.136	1710.4
709.329	1707.69
709.521	1829.75
709.713	1811.15
709.905	1784.8
710.097	1825.1
710.289	1806.31
710.481	1782.47
710.672	1858.23
710.864	1859
711.056	1909.57
711.248	1902.79
711.44	1941.73
711.632	1916.74
711.824	1949.48
712.016	1985.33
712.207	2014.97
712.399	1988.23
712.591	2051.2
712.783	2057.01
712.975	2075.03
713.166	2021.75
713.358	2049.46
713.55	2114.36
713.741	2093.63
713.933	2108.94
714.125	2114.75
714.316	2119.01
714.508	2209.11
714.7	2237.59
714.891	2192.06
715.083	2253.09
715.274	2220.54
715.466	2250.37
715.657	2296.29
715.849	2197.87
716.04	2261.81
716.232	2205.23
716.423	2288.93
716.615	2234.1
716.806	2217.82
716.998	2180.82
717.189	2113.59
717.381	2052.75
717.572	2027.76
717.763	2021.56
717.955	2033.96
718.146	2035.51
718.337	1969.83
718.528	1958.01
718.72	1883.22
718.911	1933.79
719.102	1913.06
719.293	1961.11
719.485	1950.07
719.676	1911.51
719.867	1918.1
720.058	1873.54
720.249	1959.56
720.44	1943.09
720.632	2011.29
720.823	2028.53
721.014	2171.13
721.205	2164.74
721.396	2240.69
721.587	2356.94
721.778	2366.62
721.969	2416.42
722.16	2464.08
722.351	2503.02
722.542	2608.61
722.733	2624.69
722.924	2534.02
723.115	2635.54
723.305	2601.44
723.496	2670.03
723.687	2500.7
723.878	2528.21
724.069	2504.57
724.26	2515.23
724.45	2451.48
724.641	2454.39
724.832	2506.31
725.023	2501.08
725.213	2509.8
725.404	2480.55
725.595	2496.63
725.785	2497.79
725.976	2548.36
726.167	2539.64
726.357	2574.9
726.548	2649.11
726.739	2568.51
726.929	2637.29
727.12	2682.04
727.31	2748.89
727.501	2631.28
727.691	2694.44
727.882	2725.05
728.072	2758.77
728.263	2722.34
728.453	2804.68
728.644	2789.38
728.834	2833.75
729.024	2765.35
729.215	2792.09
729.405	2756.05
729.596	2868.23
729.786	2871.72
729.976	2923.45
730.167	2926.55
730.357	2890.51
730.547	2862.23
730.737	2953.68
730.928	2958.91
731.118	3043.19
731.308	2959.1
731.498	2980.61
731.688	3066.63
731.879	3085.04
732.069	3131.34
732.259	3170.29
732.449	3172.22
732.639	3264.64
732.829	3257.08
733.019	3282.08
733.209	3377.01
733.399	3377.21
733.589	3473.11
733.779	3446.38
733.969	3452.58
734.159	3544.99
734.349	3587.42
734.539	3626.17
734.729	3629.47
734.919	3661.63
735.109	3690.11
735.299	3625.59
735.488	3674.8
735.678	3690.3
735.868	3677.32
736.058	3712.39
736.248	3647.68
736.437	3659.5
736.627	3629.85
736.817	3748.82
737.007	3686.04
737.196	3796.28
737.386	3765.48
737.576	3697.67
737.765	3766.64
737.955	3768.19
738.144	3878.04
738.334	3833.87
738.524	3762.38
738.713	3867.39
738.903	3805.39
739.092	3821.08
739.282	3872.81
739.471	3904.2
739.661	3873.59
739.85	3877.66
740.04	3958.64
740.229	3939.07
740.419	3944.89
740.608	3993.71
740.797	3942.56
740.987	4023.16
741.176	4009.41
741.365	3966.39
741.555	3867.39
741.744	4030.14
741.933	3988.87
742.123	4033.62
742.312	4057.84
742.501	4109.77
742.69	4087.87
742.88	4014.83
743.069	4157.43
743.258	4079.15
743.447	4174.28
743.636	4148.32
743.825	4070.24
744.014	4069.08
744.204	4197.73
744.393	4101.44
744.582	4222.14
744.771	4210.9
744.96	4168.47
745.149	4172.35
745.338	4174.87
745.527	4260.89
745.716	4177.38
745.905	4151.23
746.094	4230.86
746.283	4222.33
746.471	4226.79
746.66	4278.13
746.849	4234.35
747.038	4260.31
747.227	4236.67
747.416	4251.98
747.604	4227.18
747.793	4223.69
747.982	4237.06
748.171	4253.14
748.359	4251.98
748.548	4245.39
748.737	4251.4
748.926	4249.46
749.114	4152.97
749.303	4259.73
749.491	4234.73
749.68	4101.24
749.869	4268.06
750.057	4209.16
750.246	4213.61
750.434	4182.03
750.623	4173.51
750.811	4125.46
751	4238.61
751.188	4196.95
751.377	4184.36
751.565	4174.48
751.754	4137.28
751.942	4093.1
752.131	4216.71
752.319	4127.4
752.507	4090.2
752.696	4139.99
752.884	4184.55
753.072	4137.28
753.261	4168.67
753.449	4167.89
753.637	4111.12
753.825	4225.24
754.014	4146.58
754.202	4135.53
754.39	4195.6
754.578	4218.85
754.766	4159.56
754.955	4105.12
755.143	4234.73
755.331	4124.88
755.519	4172.35
755.707	4122.94
755.895	4091.75
756.083	4123.33
756.271	4033.62
756.459	4098.92
756.647	4131.47
756.835	4123.91
757.023	4114.42
757.211	4071.4
757.399	4059.97
757.587	4073.15
757.775	4041.18
757.963	4038.66
758.151	3994.87
758.339	3978.21
758.526	3983.06
758.714	3998.56
758.902	3937.52
759.09	3876.88
759.278	3722.08
759.465	3476.21
759.653	3105.77
759.841	2869.01
760.028	2529.18
760.216	2198.64
760.404	2066.12
760.591	1784.41
760.779	1533.51
760.967	1391.3
761.154	1225.06
761.342	1276.6
761.529	1290.16
761.717	1375.22
761.905	1371.54
762.092	1516.85
762.28	1459.11
762.467	1516.27
762.655	1435.28
762.842	1473.25
763.029	1533.9
763.217	1539.71
763.404	1528.28
763.592	1570.9
763.779	1535.83
763.966	1591.05
764.154	1636.58
764.341	1688.51
764.528	1705.56
764.716	1756.71
764.903	1838.27
765.09	1896.4
765.277	1914.61
765.465	2115.53
765.652	2151.95
765.839	2239.33
766.026	2366.62
766.213	2408.08
766.4	2516
766.588	2692.31
766.775	2686.5
766.962	2753.54
767.149	2860.1
767.336	3011.22
767.523	2962.98
767.71	3051.52
767.897	3201.29
768.084	3265.22
768.271	3243.72
768.458	3329.16
768.645	3378.95
768.832	3384.57
769.019	3375.08
769.206	3459.94
769.392	3445.6
769.579	3597.11
769.766	3535.11
769.953	3536.47
770.14	3589.94
770.327	3528.33
770.513	3620.17
770.7	3659.89
770.887	3564.17
771.073	3575.22
771.26	3625.2
771.447	3561.27
771.634	3557.2
771.82	3651.55
772.007	3565.72
772.193	3614.74
772.38	3593.04
772.567	3561.66
772.753	3590.52
772.94	3616.49
773.126	3656.79
773.313	3648.84
773.499	3640.12
773.686	3621.33
773.872	3530.66
774.059	3596.72
774.245	3513.8
774.432	3579.67
774.618	3470.21
774.804	3545.96
774.991	3473.5
775.177	3547.71
775.363	3533.56
775.55	3525.42
775.736	3441.34
775.922	3479.89
776.109	3516.12
776.295	3517.67
776.481	3528.72
776.667	3535.5
776.853	3478.54
777.04	3481.25
777.226	3457.61
777.412	3568.44
777.598	3434.56
777.784	3477.76
777.97	3434.94
778.156	3482.22
778.342	3428.55
778.528	3395.61
778.715	3339.04
778.901	3387.67
779.087	3421.77
779.272	3388.45
779.458	3349.31
779.644	3410.14
779.83	3343.3
780.016	3439.4
780.202	3415.57
780.388	3357.45
780.574	3293.9
780.76	3337.3
780.946	3390
781.131	3325.09
781.317	3295.83
781.503	3286.53
781.689	3284.02
781.874	3424.87
782.06	3290.22
782.246	3351.63
782.432	3271.03
782.617	3293.32
782.803	3378.56
782.989	3237.9
783.174	3247.2
783.36	3176.68
783.545	3210.2
783.731	3268.32
783.916	3140.64
784.102	3232.09
784.288	3195.47
784.473	3205.74
784.659	3168.93
784.844	3232.29
785.029	3167.19
785.215	3135.99
785.4	3086.59
785.586	3179.59
785.771	3108.67
785.956	3173.39
786.142	3168.93
786.327	3155.37
786.512	3144.32
786.698	3121.85
786.883	3051.52
787.068	3093.37
787.254	3125.34
787.439	3048.23
787.624	3062.76
787.809	3077.09
787.994	3032.34
788.18	3096.08
788.365	2977.31
788.55	2991.65
788.735	3059.46
788.92	3010.25
789.105	2969.76
789.29	3029.63
789.475	2972.66
789.66	2962.2
789.845	2926.36
790.03	2934.3
790.215	2987.19
790.4	2999.21
790.585	2992.81
790.77	2963.17
790.955	2899.81
791.14	2898.85
791.325	3015.68
791.51	2808.95
791.695	2930.43
791.879	2893.42
792.064	2863
792.249	2999.79
792.434	2889.55
792.618	2918.41
792.803	2948.06
792.988	2883.15
793.173	2896.52
793.357	2908.34
793.542	2818.05
793.727	2876.76
793.911	2929.85
794.096	2885.86
794.281	2928.3
794.465	3004.44
794.65	2944.38
794.834	2953.68
795.019	2965.11
795.203	2946.51
795.388	2982.54
795.572	3026.72
795.757	2965.88
795.941	2936.43
796.126	2954.26
796.31	2876.57
796.494	2909.11
796.679	2918.8
796.863	2853.51
797.048	3006.18
797.232	2985.64
797.416	2919.38
797.601	2920.74
797.785	3047.45
797.969	3037.57
798.153	2953.68
798.338	2961.04
798.522	2975.96
798.706	3002.5
798.89	2970.92
799.074	3117.78
799.258	3043.38
799.443	3029.04
799.627	3000.18
799.811	3049.78
799.995	2956.39
800.179	2951.35
800.363	2942.25
800.547	3004.63
800.731	2996.11
800.915	2886.45
801.099	2963.56
801.283	2966.66
801.467	2967.24
801.651	2937.98
801.835	2986.42
802.019	2974.6
802.202	3012.58
802.386	2897.1
802.57	2935.46
802.754	2937.79
802.938	2927.13
803.121	2924.23
803.305	3016.64
803.489	2929.65
803.673	2943.41
803.856	2981.77
804.04	2906.6
804.224	2997.46
804.407	2922.87
804.591	2922.87
804.775	2920.55
804.958	2949.8
805.142	3054.04
805.326	2950.96
805.509	2948.45
805.693	2977.31
805.876	2949.41
806.06	2983.13
806.243	3027.88
806.427	3024.78
806.61	2988.94
806.794	2956.78
806.977	2994.17
807.16	2962.2
807.344	2974.79
807.527	2954.26
807.71	2931.4
807.894	2940.5
808.077	2958.13
808.26	2924.81
808.444	2895.94
808.627	2938.56
808.81	2922.87
808.993	2833.36
809.177	2830.65
809.36	2834.52
809.543	2870.56
809.726	2776.2
809.909	2812.24
810.092	2791.51
810.276	2765.55
810.459	2805.85
810.642	2772.72
810.825	2725.64
811.008	2781.24
811.191	2687.08
811.374	2690.37
811.557	2680.88
811.74	2741.52
811.923	2613.26
812.106	2635.54
812.289	2629.73
812.472	2634.77
812.654	2627.6
812.837	2560.76
813.02	2558.24
813.203	2521.81
813.386	2413.12
813.569	2414.28
813.751	2320.7
813.934	2413.32
814.117	2379.02
814.3	2311.02
814.482	2299
814.665	2252.89
814.848	2196.12
815.03	2192.06
815.213	2154.66
815.396	2159.7
815.578	2110.1
815.761	2037.83
815.943	2126.76
816.126	2022.53
816.309	2052.95
816.491	1950.26
816.674	1888.26
816.856	1922.17
817.039	1918.49
817.221	1993.47
817.403	1944.25
817.586	1958.78
817.768	1994.24
817.951	1886.71
818.133	1886.52
818.315	1900.47
818.498	1930.69
818.68	2026.6
818.862	1949.48
819.045	2040.74
819.227	1952.58
819.409	1986.1
819.591	1999.08
819.774	1955.68
819.956	1935.34
820.138	2010.51
820.32	1988.82
820.502	2070.77
820.684	2091.31
820.866	2068.45
821.048	2129.48
821.231	2138.97
821.413	2148.08
821.595	2146.14
821.777	2161.64
821.959	2131.22
822.141	2223.83
822.323	2073.68
822.505	2027.37
822.686	1975.83
822.868	1910.74
823.05	1817.16
823.232	1747.79
823.414	1664.68
823.596	1721.64
823.778	1731.91
823.96	1772.59
824.141	1774.72
824.323	1783.25
824.505	1840.6
824.687	1880.12
824.868	1975.06
825.05	2034.35
825.232	2096.54
825.413	2114.17
825.595	2088.4
825.777	1989.4
825.958	2089.76
826.14	2007.61
826.321	2088.01
826.503	2050.81
826.685	2096.15
826.866	2117.27
827.048	2127.34
827.229	2047.91
827.411	2013.61
827.592	1980.48
827.773	1970.6
827.955	1911.12
828.136	1908.99
828.318	1875.09
828.499	1904.92
828.68	1849.32
828.862	1904.34
829.043	1914.42
829.224	1898.72
829.406	1854.74
829.587	1843.7
829.768	1888.65
829.949	1875.28
830.131	1877.41
830.312	1955.3
830.493	1864.62
830.674	1902.21
830.855	1862.3
831.036	1846.8
831.218	1938.63
831.399	1915
831.58	1905.12
831.761	1914.22
831.942	1898.72
832.123	1854.16
832.304	1822.77
832.485	1848.15
832.666	1854.74
832.847	1866.17
833.028	1847.57
833.209	1854.94
833.389	1850.48
833.57	1786.35
833.751	1812.89
833.932	1891.55
834.113	1862.88
834.294	1822.58
834.475	1857.26
834.655	1900.85
834.836	1915.58
835.017	1896.2
835.198	1818.32
835.378	1871.4
835.559	1918.1
835.74	1861.72
835.92	1869.85
836.101	1830.91
836.281	1883.8
836.462	1929.33
836.643	1918.1
836.823	1891.94
837.004	1919.65
837.184	1957.23
837.365	1929.33
837.545	1948.9
837.726	1871.6
837.906	1932.24
838.087	1901.82
838.267	1942.7
838.448	1879.74
838.628	1915.58
838.808	1894.65
838.989	1991.72
839.169	1870.24
839.349	1945.03
839.53	1918.49
839.71	1942.7
839.89	1881.48
840.07	1962.47
840.251	1899.3
840.431	1921.2
840.611	1899.69
840.791	1842.34
840.971	1922.55
841.151	1860.17
841.332	1839.82
841.512	1925.07
841.692	1823.36
841.872	1896.79
842.052	1852.61
842.232	1863.46
842.412	1825.1
842.592	1840.6
842.772	1861.33
842.952	1895.43
843.132	1809.41
843.312	1821.81
843.492	1781.51
843.672	1850.09
843.851	1772.21
844.031	1789.45
844.211	1827.23
844.391	1803.79
844.571	1822.58
844.751	1858.62
844.93	1834.4
845.11	1764.84
845.29	1812.31
845.47	1867.34
845.649	1803.98
845.829	1850.87
846.009	1769.11
846.188	1848.74
846.368	1781.51
846.547	1776.47
846.727	1855.71
846.907	1740.63
847.086	1785.57
847.266	1824.13
847.445	1776.08
847.625	1778.79
847.804	1749.34
847.984	1780.15
848.163	1754.38
848.343	1725.51
848.522	1783.25
848.701	1772.98
848.881	1735.39
849.06	1724.54
849.239	1763.49
849.419	1755.16
849.598	1695.48
849.777	1656.93
849.957	1662.74
850.136	1607.71
850.315	1570.32
850.494	1618.37
850.674	1582.33
850.853	1664.29
851.032	1600.74
851.211	1664.68
851.39	1651.5
851.569	1581.75
851.748	1616.43
851.927	1694.9
852.107	1652.08
852.286	1605.78
852.465	1575.75
852.644	1667.19
852.823	1639.1
853.002	1652.28
853.181	1630.96
853.359	1635.42
853.538	1571.48
853.717	1645.5
853.896	1557.73
854.075	1462.4
854.254	1443.42
854.433	1403.5
854.611	1443.8
854.79	1350.42
854.969	1453.49
855.148	1431.4
855.327	1378.51
855.505	1477.32
855.684	1443.03
855.863	1478.87
856.041	1476.74
856.22	1509.68
856.399	1482.17
856.577	1585.82
856.756	1576.52
856.934	1663.51
857.113	1675.53
857.291	1579.04
857.47	1546.88
857.648	1567.03
857.827	1546.88
858.005	1608.49
858.184	1522.47
858.362	1631.93
858.541	1557.53
858.719	1549.78
858.898	1531.18
859.076	1500.96
859.254	1567.8
859.433	1528.28
859.611	1519.95
859.789	1456.79
859.967	1572.45
860.146	1571.87
860.324	1489.53
860.502	1496.5
860.68	1427.92
860.859	1471.51
861.037	1479.45
861.215	1491.08
861.393	1481.2
861.571	1488.95
861.749	1434.7
861.927	1510.26
862.105	1505.22
862.283	1481.78
862.461	1451.94
862.639	1444.58
862.817	1428.89
862.995	1436.64
863.173	1424.43
863.351	1431.4
863.529	1480.42
863.707	1489.14
863.885	1479.26
864.063	1375.41
864.241	1405.83
864.418	1488.56
864.596	1438.38
864.774	1376.77
864.952	1402.15
865.129	1454.07
865.307	1396.34
865.485	1335.31
865.663	1386.07
865.84	1323.87
866.018	1371.15
866.196	1223.32
866.373	1217.9
866.551	1210.92
866.728	1153.96
866.906	1207.05
867.084	1233.98
867.261	1270.21
867.439	1297.14
867.616	1306.83
867.794	1289.97
867.971	1323.49
868.149	1299.46
868.326	1351.39
868.503	1334.92
868.681	1344.41
868.858	1282.41
869.035	1298.88
869.213	1328.72
869.39	1262.07
869.567	1380.26
869.745	1309.93
869.922	1333.37
870.099	1340.92
870.276	1346.54
870.454	1324.46
870.631	1342.09
870.808	1311.47
870.985	1317.48
871.162	1388.2
871.339	1346.54
871.517	1284.74
871.694	1261.49
871.871	1284.35
872.048	1261.49
872.225	1295.39
872.402	1287.26
872.579	1262.65
872.756	1321.16
872.933	1214.99
873.11	1260.91
873.287	1269.43
873.463	1270.4
873.64	1217.9
873.817	1273.5
873.994	1246.96
874.171	1207.43
874.348	1261.49
874.524	1187.09
874.701	1217.12
874.878	1163.06
875.055	1234.75
875.231	1217.12
875.408	1253.93
875.585	1160.35
875.762	1182.25
875.938	1176.63
876.115	1169.07
876.291	1167.91
876.468	1166.16
876.645	1179.92
876.821	1160.55
876.998	1192.71
877.174	1212.08
877.351	1191.35
877.527	1152.21
877.704	1183.02
877.88	1161.71
878.057	1146.4
878.233	1210.34
878.409	1150.47
878.586	1163.06
878.762	1142.53
878.938	1180.11
879.115	1069.68
879.291	1185.73
879.467	1123.54
879.644	1128.97
879.82	1148.15
879.996	1081.11
880.172	1074.33
880.349	1139.04
880.525	1135.94
880.701	1076.27
880.877	1095.45
881.053	1131.68
881.229	1098.55
881.405	1124.12
881.581	1092.93
881.757	1104.75
881.933	1118.12
882.109	1144.27
882.285	1123.93
882.461	1038.29
882.637	1132.07
882.813	1037.32
882.989	1148.73
883.165	1167.52
883.341	1072
883.517	1199.49
883.693	1126.64
883.869	1140.01
884.044	1075.49
884.22	1134.2
884.396	1145.05
884.572	1072.78
884.747	1158.61
884.923	1134
885.099	1135.75
885.275	1165.78
885.45	1081.3
885.626	1054.95
885.801	1078.4
885.977	1116.37
886.153	1052.05
886.328	1105.72
886.504	1102.81
886.679	1111.33
886.855	1054.18
887.03	1111.72
887.206	1106.3
887.381	1120.44
887.557	1140.4
887.732	1138.85
887.908	1148.34
888.083	1146.21
888.258	1095.64
888.434	1068.13
888.609	1069.68
888.784	1143.88
888.96	1083.05
889.135	1068.71
889.31	1082.08
889.485	1083.43
889.661	1109.78
889.836	1112.88
890.011	1112.11
890.186	1055.15
890.361	1044.1
890.537	1053.02
890.712	1090.6
890.887	1113.08
891.062	1094.09
891.237	1130.13
891.412	1063.48
891.587	1097.97
891.762	1122.77
891.937	1152.99
892.112	1041.59
892.287	1099.9
892.462	1072.2
892.637	1002.84
892.812	1009.42
892.987	1012.14
893.161	984.62
893.336	1019.3
893.511	1000.7
893.686	1030.74
893.861	1020.08
894.035	1007.68
894.21	1035.77
894.385	978.42
894.56	1011.75
894.734	949.17
894.909	970.48
895.084	961.57
895.258	936.77
895.433	950.33
895.608	896.08
895.782	867.41
895.957	881.16
896.131	904.22
896.306	824.98
896.48	830.59
896.655	833.89
896.829	777.9
897.004	774.02
897.178	799.79
897.353	780.41
897.527	813.54
897.701	800.76
897.876	766.66
898.05	825.94
898.224	816.84
898.399	835.83
898.573	771.11
898.747	695.17
898.921	747.48
899.096	644.6
899.27	639.95
899.444	657.38
899.618	667.46
899.792	699.81
899.967	687.22
900.141	759.88
900.315	670.75
900.489	691.29
900.663	707.95
900.837	684.12
901.011	623.28
901.185	782.35
901.359	706.21
901.533	699.04
901.707	698.27
901.881	720.16
902.055	663.39
902.229	705.63
902.403	738.56
902.576	681.8
902.75	693.81
902.924	818.39
903.098	762.59
903.272	782.74
903.446	836.79
903.619	810.64
903.793	835.63
903.967	839.7
904.14	867.41
904.314	859.85
904.488	866.63
904.661	869.93
904.835	818.39
905.009	901.51
905.182	934.06
905.356	847.84
905.529	837.57
905.703	830.21
905.876	810.06
906.05	787.19
906.223	785.06
906.397	710.28
906.57	726.94
906.744	694.2
906.917	678.89
907.09	698.27
907.264	681.6
907.437	651.57
907.61	621.93
907.784	652.54
907.957	663.39
908.13	603.33
908.304	675.4
908.477	598.29
908.65	622.51
908.823	599.26
908.996	677.73
909.17	612.43
909.343	626
909.516	621.35
909.689	617.67
909.862	598.1
910.035	639.75
910.208	578.14
910.381	582.4
910.554	673.85
910.727	596.94
910.9	610.89
911.073	576.98
911.246	674.63
911.419	661.65
911.592	642.27
911.765	578.14
911.938	581.44
912.11	616.7
912.283	599.65
912.456	659.13
912.629	611.85
912.802	589.19
912.974	563.61
913.147	527.57
913.32	481.66
913.493	508.39
913.665	538.42
913.838	574.65
914.01	518.27
914.183	512.27
914.356	559.35
914.528	556.44
914.701	612.24
914.873	615.92
915.046	551.79
915.218	488.05
915.391	454.53
915.563	448.14
915.736	531.84
915.908	544.62
916.081	541.72
916.253	526.6
916.425	520.41
916.598	602.75
916.77	545.59
916.942	508.39
917.115	439.81
917.287	557.99
917.459	490.37
917.632	453.95
917.804	425.08
917.976	494.44
918.148	479.33
918.32	517.69
918.493	560.9
918.665	573.3
918.837	541.52
919.009	607.59
919.181	579.3
919.353	563.8
919.525	545.4
919.697	532.03
919.869	532.42
920.041	582.4
920.213	642.85
920.385	590.15
920.557	569.42
920.729	562.06
920.901	579.3
921.073	555.86
921.244	539.78
921.416	544.43
921.588	547.72
921.76	548.69
921.932	578.53
922.103	545.01
922.275	547.92
922.447	546.37
922.619	470.81
922.79	531.25
922.962	507.62
923.134	547.14
923.305	494.83
923.477	476.04
923.648	473.32
923.82	454.53
923.991	418.69
924.163	432.64
924.335	459.96
924.506	442.52
924.677	523.31
924.849	420.24
925.02	468.09
925.192	525.25
925.363	495.8
925.535	471
925.706	448.14
925.877	540.75
926.049	457.05
926.22	488.05
926.391	491.73
926.562	513.24
926.734	446.59
926.905	487.66
927.076	434.96
927.247	435.93
927.419	404.54
927.59	412.88
927.761	416.75
927.932	412.88
928.103	397.76
928.274	363.47
928.445	346.23
928.616	335.57
928.787	383.04
928.958	389.24
929.129	373.35
929.3	338.28
929.471	322.2
929.642	263.69
929.813	232.69
929.984	320.65
930.155	217
930.326	319.49
930.496	227.65
930.667	199.17
930.838	246.25
931.009	213.9
931.18	230.95
931.35	212.54
931.521	197.23
931.692	137.95
931.863	116.05
932.033	162.75
932.204	179.99
932.374	184.06
932.545	107.72
932.716	173.02
932.886	196.85
933.057	94.16
933.227	118.38
933.398	190.84
933.568	95.71
933.739	37.78
933.909	55.02
934.08	103.65
934.25	44.37
934.421	35.07
934.591	93.58
934.761	68.97
934.932	33.52
935.102	85.83
935.272	82.34
935.443	76.92
935.613	83.12
935.783	74.98
935.953	41.85
936.123	218.16
936.294	66.07
936.464	68.78
936.634	100.94
936.804	39.72
936.974	15.31
937.144	59.29
937.314	86.22
937.484	46.69
937.655	50.37
937.825	93
937.995	54.83
938.165	119.35
938.334	59.09
938.504	125.55
938.674	78.08
938.844	106.75
939.014	162.36
939.184	150.93
939.354	216.03
939.524	195.1
939.694	153.45
939.863	141.44
940.033	196.65
940.203	174.37
940.373	159.65
940.542	183.48
940.712	128.07
940.882	150.35
941.051	182.7
941.221	169.14
941.391	187.35
941.56	142.6
941.73	104.04
941.899	245.87
942.069	129.04
942.238	132.14
942.408	99.59
942.577	159.07
942.747	128.07
942.916	72.27
943.086	125.74
943.255	178.63
943.425	137.17
943.594	108.5
943.763	23.06
943.933	78.47
944.102	24.61
944.271	78.08
944.441	124.39
944.61	71.88
944.779	96.68
944.948	192.78
945.117	43.01
945.287	72.07
945.456	16.08
945.625	67.62
945.794	126.9
945.963	83.7
946.132	113.15
946.301	80.99
946.47	148.02
946.639	59.29
946.808	77.69
946.977	121.29
947.146	141.82
947.315	66.26
947.484	120.12
947.653	76.72
947.822	89.12
947.991	78.47
948.16	178.63
948.329	136.98
948.498	109.47
948.666	103.46
948.835	155.77
949.004	65.1
949.173	76.92
949.341	118.19
949.51	109.27
949.679	117.41
949.847	109.27
950.016	191.42
950.185	165.65
950.353	100.55
950.522	106.56
950.69	149.77
950.859	77.69
951.028	133.69
951.196	109.08
951.365	73.82
951.533	109.85
951.701	127.87
951.87	111.79
952.038	66.65
952.207	113.73
952.375	152.87
952.543	67.81
952.712	90.67
952.88	90.29
953.048	162.17
953.217	102.88
953.385	93
953.553	148.6
953.721	53.67
953.89	97.65
954.058	54.64
954.226	76.14
954.394	88.93
954.562	38.17
954.73	97.07
954.898	92.8
955.067	122.64
955.235	92.61
955.403	145.7
955.571	163.33
955.739	118.57
955.907	65.87
956.075	73.04
956.243	66.46
956.41	99.97
956.578	56.19
956.746	25.57
956.914	93
957.082	124.58
957.25	115.67
957.418	66.46
957.585	105.2
957.753	148.8
957.921	61.81
958.089	86.41
958.256	117.41
958.424	121.48
958.592	123.8
958.759	85.44
958.927	106.17
959.095	103.85
959.262	116.05
959.43	92.03
959.597	52.51
959.765	90.09
959.932	41.07
960.1	119.93
960.267	123.22
960.435	93.39
960.602	129.23
960.77	95.71
960.937	52.7
961.104	116.25
961.272	68.39
961.439	70.52
961.606	114.5
961.774	145.31
961.941	86.61
962.108	103.65
962.275	137.56
962.443	140.66
962.61	118.19
962.777	175.53
962.944	129.62
963.111	128.26
963.278	145.31
963.446	113.73
963.613	98.04
963.78	110.63
963.947	133.69
964.114	113.73
964.281	201.69
964.448	121.87
964.615	73.04
964.782	128.26
964.949	133.3
965.116	143.57
965.282	158.1
965.449	110.82
965.616	89.51
965.783	142.02
965.95	104.43
966.117	53.86
966.283	124.39
966.45	112.95
966.617	106.95
966.784	127.29
966.95	139.3
967.117	163.33
967.284	73.04
967.45	57.35
967.617	205.37
967.784	155
967.95	169.53
968.117	129.04
968.283	145.12
968.45	220.1
968.616	138.34
968.783	164.1
968.949	142.4
969.116	154.42
969.282	70.14
969.449	130.2
969.615	137.17
969.781	93.19
969.948	98.81
970.114	80.41
970.28	211.38
970.447	128.65
970.613	171.47
970.779	95.32
970.945	152.09
971.112	130.2
971.278	120.9
971.444	143.76
971.61	179.41
971.776	114.12
971.942	133.69
972.108	161.59
972.275	108.3
972.441	138.53
972.607	198.4
972.773	105.01
972.939	159.26
973.105	96.1
973.271	101.14
973.437	96.87
973.602	97.45
973.768	135.62
973.934	107.14
974.1	159.84
974.266	66.84
974.432	139.11
974.598	87.57
974.763	156.55
974.929	82.73
975.095	190.65
975.261	72.66
975.426	91.45
975.592	83.51
975.758	160.62
975.923	46.69
976.089	89.51
976.255	145.12
976.42	122.06
976.586	130.2
976.751	116.83
976.917	200.92
977.082	144.34
977.248	60.84
977.413	46.69
977.579	98.42
977.744	114.12
977.91	79.82
978.075	66.65
978.24	137.95
978.406	107.34
978.571	70.14
978.736	80.02
978.902	133.69
979.067	68.97
979.232	43.79
979.397	95.52
979.563	171.66
979.728	85.64
979.893	107.53
980.058	88.35
980.223	131.17
980.388	99.39
980.554	108.89
980.719	100.36
980.884	81.76
981.049	148.22
981.214	95.32
981.379	118.57
981.544	59.29
981.709	85.44
981.874	92.61
982.039	121.87
982.204	127.68
982.368	121.67
982.533	111.4
982.698	104.43
982.863	149.57
983.028	111.6
983.193	100.55
983.357	100.55
983.522	116.44
983.687	77.31
983.852	78.66
984.016	68.39
984.181	106.75
984.346	122.45
984.51	98.04
984.675	96.87
984.839	116.83
985.004	109.47
985.168	134.07
985.333	110.44
985.498	91.64
985.662	121.67
985.827	119.15
985.991	103.27
986.155	80.79
986.32	112.57
986.484	148.99
986.649	113.15
986.813	72.66
986.977	92.22
987.142	127.49
987.306	40.88
987.47	76.34
987.634	107.14
987.799	117.22
987.963	97.07
988.127	123.61
988.291	161.59
988.455	113.15
988.62	92.61
988.784	106.37
988.948	115.09
989.112	50.57
989.276	95.52
989.44	108.11
989.604	68.39
989.768	96.49
989.932	185.8
990.096	55.61
990.26	71.69
990.424	39.72
990.588	87.96
990.752	147.44
990.915	99.39
991.079	73.82
991.243	60.84
991.407	131.55
991.571	101.91
991.734	96.87
991.898	94.55
992.062	181.73
992.226	98.23
992.389	52.31
992.553	42.82
992.717	55.8
992.88	91.25
993.044	85.06
993.207	70.33
993.371	124
993.535	113.92
993.698	106.75
993.862	105.59
994.025	130.39
994.189	118.57
994.352	83.31
994.515	96.68
994.679	136.79
994.842	54.64
995.006	119.15
995.169	20.54
995.332	72.27
995.496	106.56
995.659	31.97
995.822	70.91
995.985	66.84
996.149	130.2
996.312	66.65
996.475	168.95
996.638	58.32
996.801	146.86
996.964	125.16
997.128	63.94
997.291	78.08
997.454	88.35
997.617	31
997.78	122.06
997.943	48.44
998.106	109.47
998.269	47.86
998.432	79.24
998.595	65.29
998.758	38.94
998.92	29.84
999.083	19.76
999.246	62
999.409	20.54
999.572	30.22
999.735	40.3
999.897	92.03
1000.06	59.29
1000.223	55.8
1000.386	76.53
1000.548	82.34
1000.711	63.16
1000.874	70.91
1001.036	9.49
1001.199	89.7
1001.361	55.41
1001.524	73.82
1001.687	95.71
1001.849	48.44
1002.012	70.14
1002.174	53.67
1002.337	105.98
1002.499	50.76
1002.661	91.06
1002.824	38.75
1002.986	27.32
1003.149	59.48
1003.311	21.12
1003.473	118.19
1003.636	24.22
1003.798	95.9
1003.96	76.14
1004.123	27.9
1004.285	25.38
1004.447	65.49
1004.609	52.51
1004.771	113.92
1004.933	8.33
1005.096	26.93
1005.258	-3.87
1005.42	42.82
1005.582	83.7
1005.744	52.31
1005.906	26.35
1006.068	56.77
1006.23	-6.97
1006.392	-10.46
1006.554	-3.49
1006.716	99.59
1006.878	60.06
1007.04	2.71
1007.202	19.18
1007.363	52.89
1007.525	87.19
1007.687	55.8
1007.849	76.53
1008.011	-21.7
1008.172	15.5
1008.334	29.45
1008.496	78.66
1008.658	-8.33
1008.819	-6.39
1008.981	-3.29
1009.143	34.49
1009.304	8.33
1009.466	63.16
1009.627	94.55
1009.789	151.32
1009.95	44.76
1010.112	24.41
1010.273	46.69
1010.435	31.97
1010.596	26.93
1010.758	37.59
1010.919	23.64
1011.081	-4.46
1011.242	31.39
1011.403	72.27
1011.565	31.58
1011.726	69.56
1011.887	17.44
1012.049	40.88
1012.21	66.26
1012.371	67.42
1012.532	-39.52
1012.693	55.8
1012.855	7.56
1013.016	58.51
1013.177	62.97
1013.338	23.44
1013.499	111.99
1013.66	60.26
1013.821	78.86
1013.982	43.21
1014.143	40.69
1014.304	32.16
1014.465	77.11
1014.626	59.48
1014.787	26.93
1014.948	109.66
1015.109	-41.27
1015.27	73.24
1015.431	-5.81
1015.592	0.19
1015.752	90.67
1015.913	55.99
1016.074	39.14
1016.235	56.77
1016.395	24.02
1016.556	29.26
1016.717	20.15
1016.877	91.25
1017.038	0.97
1017.199	60.26
1017.359	66.46
1017.52	42.62
1017.681	6.59
1017.841	46.5
1018.002	48.05
1018.162	21.31
1018.323	83.7
1018.483	24.22
1018.644	21.89
1018.804	-27.12
1018.964	-11.43
1019.125	18.02
1019.285	25.38
1019.446	5.81
1019.606	0.77
1019.766	-34.87
1019.926	36.42
1020.087	14.72
1020.247	-5.42
1020.407	38.36
1020.567	45.53
1020.728	7.75
1020.888	-9.11
1021.048	2.32
1021.208	-24.8
1021.368	-3.1
1021.528	54.06
1021.688	67.23
1021.848	54.06
1022.008	39.91
1022.168	10.85
1022.328	27.32
1022.488	30.03
1022.648	-2.91
1022.808	18.6
1022.968	31
1023.128	-18.21
1023.288	15.89
1023.448	-4.07
1023.608	52.89
1023.767	35.84
1023.927	9.11
1024.087	-52.7
1024.247	-17.24
1024.406	24.8
1024.566	6.2
1024.726	-47.86
1024.885	29.84
1025.045	56.19
1025.205	21.31
1025.364	-13.17
1025.524	40.3
1025.683	22.09
1025.843	21.12
1026.003	-1.55
1026.162	94.16
1026.321	49.21
1026.481	27.9
1026.64	11.24
1026.8	39.72
1026.959	19.37
1027.119	31
1027.278	30.61
1027.437	7.94
1027.597	13.95
1027.756	30.03
1027.915	34.1
1028.074	57.54
1028.234	-18.79
1028.393	49.41
1028.552	12.59
1028.711	-46.5
1028.87	32.36
1029.03	-31.97
1029.189	12.98
1029.348	-47.27
1029.507	6.39
1029.666	-6.39
1029.825	-21.31
1029.984	-11.82
1030.143	34.29
1030.302	-4.65
1030.461	-51.73
1030.62	1.36
1030.779	25.57
1030.938	-5.42
1031.097	-14.53
1031.255	42.62
1031.414	78.66
1031.573	64.32
1031.732	-23.44
1031.891	13.17
1032.049	51.73
1032.208	69.36
1032.367	-4.46
1032.525	14.14
1032.684	-10.07
1032.843	20.92
1033.001	-47.47
1033.16	149.77
1033.319	50.57
1033.477	23.06
1033.636	-15.69
1033.794	-61.42
1033.953	47.47
1034.111	34.68
1034.27	7.94
1034.428	27.9
1034.587	-49.02
1034.745	27.32
1034.903	31.19
1035.062	28.29
1035.22	-31.77
1035.378	38.56
1035.537	-43.01
1035.695	31.39
1035.853	8.14
1036.011	18.02
1036.17	46.31
1036.328	-39.14
1036.486	5.23
1036.644	31.77
1036.802	-72.85
1036.96	-5.62
1037.119	10.66
1037.277	-13.37
1037.435	-43.21
1037.593	-28.09
1037.751	1.74
1037.909	21.31
1038.067	21.31
