Data from gum_old_FLMT105791__187__15-48-14-249.txt Node

Date: Mon Mar 20 15:48:14 GMT 2023
User: antho
Spectrometer: FLMT10579
Trigger mode: 0
Integration Time (sec): 1.000000E-1
Scans to average: 10
Electric dark correction enabled: true
Nonlinearity correction enabled: false
Boxcar width: 0
XAxis mode: Wavelengths
Number of Pixels in Spectrum: 3648
>>>>>Begin Spectral Data<<<<<
345.248	-163.1
345.464	-163.1
345.681	-163.1
345.898	-190.42
346.114	-193.91
346.331	-33.87
346.548	47.31
346.764	6.62
346.981	-14.31
347.197	-24.96
347.414	25.8
347.631	-8.49
347.847	33.36
348.064	-25.35
348.28	29.68
348.497	-41.24
348.713	5.46
348.93	26.58
349.146	11.66
349.363	2.74
349.579	25.41
349.796	19.79
350.012	13.01
350.229	52.93
350.445	31.42
350.661	2.94
350.878	20.18
351.094	28.51
351.311	38.2
351.527	35.1
351.743	0.23
351.96	40.14
352.176	37.04
352.392	34.13
352.609	64.55
352.825	23.28
353.041	13.79
353.257	16.11
353.474	3.71
353.69	20.96
353.906	46.73
354.122	-9.27
354.339	78.69
354.555	41.11
354.771	49.44
354.987	93.42
355.203	75.59
355.42	10.11
355.636	-2.49
355.852	-5.97
356.068	19.79
356.284	22.7
356.5	87.99
356.716	51.96
356.932	32.97
357.148	46.73
357.364	33.36
357.58	81.21
357.796	78.11
358.012	67.84
358.228	34.33
358.444	-34.26
358.66	63.97
358.876	51.76
359.092	1.97
359.308	32.78
359.524	47.11
359.74	21.34
359.956	22.12
360.172	57.19
360.388	77.72
360.604	19.99
360.819	119.77
361.035	41.88
361.251	54.86
361.467	1.19
361.683	79.27
361.898	57.96
362.114	68.62
362.33	29.68
362.546	91.48
362.762	47.69
362.977	39.56
363.193	35.29
363.409	44.21
363.624	22.51
363.84	12.24
364.056	26.19
364.271	63.97
364.487	57.38
364.703	46.73
364.918	14.37
365.134	28.9
365.35	26.58
365.565	129.65
365.781	43.63
365.996	63.19
366.212	106.21
366.427	61.45
366.643	32.19
366.858	47.69
367.074	-4.62
367.289	108.34
367.505	148.83
367.72	20.76
367.936	16.31
368.151	70.56
368.367	76.37
368.582	62.61
368.798	41.3
369.013	101.94
369.228	48.66
369.444	82.96
369.659	105.04
369.874	88.96
370.09	106.21
370.305	-7.52
370.52	48.08
370.736	111.05
370.951	46.34
371.166	117.83
371.381	93.42
371.597	90.32
371.812	48.66
372.027	37.04
372.242	78.69
372.458	148.64
372.673	77.72
372.888	56.22
373.103	75.01
373.318	143.6
373.533	92.45
373.749	74.04
373.964	-6.56
374.179	72.69
374.394	48.86
374.609	86.83
374.824	15.14
375.039	104.07
375.254	22.7
375.469	120.74
375.684	106.59
375.899	118.22
376.114	70.75
376.329	81.21
376.544	84.7
376.759	75.01
376.974	45.76
377.189	60.09
377.404	49.24
377.619	119.38
377.834	38.01
378.049	44.59
378.264	33.55
378.478	97.1
378.693	57.58
378.908	103.88
379.123	86.83
379.338	116.28
379.553	85.86
379.767	81.6
379.982	102.91
380.197	91.29
380.412	70.75
380.626	111.44
380.841	160.84
381.056	110.27
381.271	147.47
381.485	52.34
381.7	38.2
381.915	95.16
382.129	47.5
382.344	67.07
382.559	55.06
382.773	101.56
382.988	26.96
383.202	87.41
383.417	48.66
383.632	149.41
383.846	56.8
384.061	63.39
384.275	59.9
384.49	89.35
384.704	94
384.919	84.89
385.133	96.52
385.348	118.61
385.562	48.28
385.777	134.49
385.991	91.48
386.206	70.94
386.42	52.73
386.634	137.98
386.849	125
387.063	118.41
387.277	83.15
387.492	80.44
387.706	46.34
387.92	65.71
388.135	89.35
388.349	113.57
388.563	106.98
388.778	94.19
388.992	124.03
389.206	124.81
389.42	193.78
389.635	74.24
389.849	116.09
390.063	150.57
390.277	123.06
390.491	191.45
390.706	143.02
390.92	137.4
391.134	129.46
391.348	149.22
391.562	60.68
391.776	111.05
391.99	113.76
392.205	172.47
392.419	96.52
392.633	123.64
392.847	174.79
393.061	86.25
393.275	179.25
393.489	90.9
393.703	100.01
393.917	112.79
394.131	72.49
394.345	121.9
394.559	164.52
394.773	112.6
394.986	131.01
395.2	126.94
395.414	158.32
395.628	112.41
395.842	161.62
396.056	125.19
396.27	105.82
396.484	144.76
396.697	133.91
396.911	151.35
397.125	114.54
397.339	157.55
397.553	126.74
397.766	187
397.98	181.57
398.194	174.6
398.408	148.64
398.621	213.35
398.835	207.92
399.049	191.65
399.262	241.64
399.476	212.96
399.69	211.8
399.903	267.4
400.117	187.58
400.331	212.38
400.544	174.99
400.758	319.52
400.971	206.95
401.185	236.99
401.398	168.79
401.612	281.55
401.826	237.18
402.039	237.57
402.253	184.67
402.466	232.92
402.68	219.74
402.893	260.62
403.106	225.55
403.32	223.23
403.533	239.5
403.747	225.17
403.96	256.17
404.174	256.17
404.387	204.63
404.6	254.81
404.814	290.07
405.027	244.35
405.24	228.85
405.454	209.86
405.667	268.57
405.88	172.47
406.094	260.82
406.307	287.36
406.52	234.27
406.733	205.21
406.947	176.73
407.16	299.57
407.373	291.43
407.586	221.68
407.799	213.93
408.012	269.73
408.226	247.45
408.439	316.62
408.652	219.35
408.865	277.87
409.078	299.18
409.291	259.85
409.504	243.96
409.717	281.93
409.93	299.57
410.143	291.43
410.357	209.09
410.57	195.52
410.783	233.89
410.996	274.96
411.209	252.87
411.421	301.7
411.634	290.85
411.847	245.9
412.06	280
412.273	286
412.486	282.13
412.699	370.09
412.912	292.4
413.125	310.42
413.338	317
413.55	343.93
413.763	307.7
413.976	326.5
414.189	269.53
414.402	297.05
414.615	371.83
414.827	259.07
415.04	323.59
415.253	323.78
415.466	372.61
415.678	382.1
415.891	337.93
416.104	285.62
416.316	313.52
416.529	270.89
416.742	392.18
416.954	345.1
417.167	333.47
417.38	331.92
417.592	383.46
417.805	289.49
418.017	290.65
418.23	342.96
418.442	323.59
418.655	325.33
418.868	349.94
419.08	359.82
419.293	369.31
419.505	368.93
419.718	358.66
419.93	339.09
420.142	351.1
420.355	382.49
420.567	413.3
420.78	333.08
420.992	323.98
421.205	407.29
421.417	331.34
421.629	345.48
421.842	329.21
422.054	334.63
422.266	362.73
422.479	399.73
422.691	331.15
422.903	404.38
423.115	314.68
423.328	353.62
423.54	348.78
423.752	339.28
423.964	321.46
424.177	391.79
424.389	353.04
424.601	461.54
424.813	385.2
425.025	410.2
425.238	391.98
425.45	396.25
425.662	349.16
425.874	692.68
426.086	383.46
426.298	392.37
426.51	384.23
426.722	375.71
426.934	360.21
427.146	424.34
427.358	354.98
427.57	415.23
427.782	377.26
427.994	385.59
428.206	360.21
428.418	345.1
428.63	412.33
428.842	421.63
429.054	373.38
429.266	421.05
429.478	348.78
429.69	356.33
429.902	307.9
430.114	383.85
430.325	367.57
430.537	305.77
430.749	316.62
430.961	240.09
431.173	314.68
431.384	345.68
431.596	277.48
431.808	335.02
432.02	408.65
432.231	435.19
432.443	490.79
432.655	430.54
432.867	418.91
433.078	449.14
433.29	494.09
433.502	449.33
433.713	491.38
433.925	443.13
434.136	517.72
434.348	397.99
434.56	375.51
434.771	511.72
434.983	346.06
435.194	379.58
435.406	442.74
435.617	498.74
435.829	531.29
436.04	489.83
436.252	489.24
436.463	538.07
436.675	543.11
436.886	509.59
437.098	537.1
437.309	568.29
437.521	516.95
437.732	489.63
437.943	508.04
438.155	484.21
438.366	449.14
438.578	574.11
438.789	474.91
439	529.74
439.211	480.33
439.423	491.96
439.634	501.84
439.845	520.63
440.057	532.06
440.268	565.39
440.479	466.38
440.69	533.03
440.902	495.83
441.113	513.66
441.324	488.47
441.535	554.34
441.746	622.93
441.957	521.99
442.168	527.41
442.38	591.54
442.591	597.35
442.802	547.76
443.013	560.16
443.224	582.24
443.435	566.16
443.646	565
443.857	562.29
444.068	558.8
444.279	544.85
444.49	641.72
444.701	572.94
444.912	701.01
445.123	677.76
445.334	622.15
445.545	597.74
445.756	573.52
445.967	559.19
446.178	568.1
446.388	624.29
446.599	597.35
446.81	619.83
447.021	570.42
447.232	637.27
447.443	641.92
447.653	593.29
447.864	667.69
448.075	644.24
448.286	651.99
448.496	625.25
448.707	683.57
448.918	613.44
449.129	735.88
449.339	598.52
449.55	641.34
449.761	643.27
449.971	695.97
450.182	633.78
450.393	694.03
450.603	660.9
450.814	694.62
451.024	701.4
451.235	742.28
451.446	739.18
451.656	760.3
451.867	661.1
452.077	686.28
452.288	747.51
452.498	766.69
452.709	690.55
452.919	679.12
453.13	614.79
453.34	724.07
453.55	599.29
453.761	711.28
453.971	680.67
454.182	701.01
454.392	688.61
454.602	748.87
454.813	699.27
455.023	730.85
455.233	632.62
455.444	710.7
455.654	583.99
455.864	671.56
456.075	658.39
456.285	660.32
456.495	717.87
456.705	717.87
456.916	755.26
457.126	790.71
457.336	724.65
457.546	653.54
457.756	708.76
457.967	758.17
458.177	706.43
458.387	723.87
458.597	666.14
458.807	680.28
459.017	692.29
459.227	671.56
459.437	694.62
459.647	735.5
459.857	759.52
460.068	695
460.278	751.77
460.488	745.77
460.698	799.05
460.908	717.28
461.117	685.32
461.327	698.88
461.537	755.65
461.747	759.91
461.957	790.71
462.167	883.71
462.377	793.43
462.587	746.15
462.797	831.01
463.007	779.67
463.216	813.96
463.426	858.91
463.636	812.8
463.846	735.11
464.056	757.2
464.265	793.04
464.475	723.1
464.685	777.73
464.895	784.71
465.104	753.52
465.314	805.44
465.524	756.81
465.733	721.55
465.943	825.98
466.153	849.81
466.362	826.36
466.572	819.2
466.782	796.91
466.991	819.78
467.201	852.91
467.41	725.03
467.62	798.08
467.829	783.16
468.039	808.73
468.249	792.26
468.458	825.2
468.668	841.48
468.877	842.45
469.086	895.14
469.296	883.91
469.505	839.15
469.715	938.35
469.924	874.8
470.134	854.07
470.343	894.95
470.552	839.73
470.762	822.3
470.971	821.33
471.18	871.31
471.39	864.73
471.599	811.83
471.808	910.64
472.018	843.8
472.227	940.48
472.436	997.83
472.645	925.76
472.855	869.57
473.064	972.84
473.273	969.35
473.482	953.46
473.691	984.07
473.901	962.37
474.11	905.03
474.319	1012.36
474.528	950.75
474.737	1040.65
474.946	1015.66
475.155	1021.27
475.364	1062.15
475.573	978.46
475.783	1015.85
475.992	1036
476.201	1085.99
476.41	984.85
476.619	953.27
476.828	1036.19
477.037	988.53
477.245	1003.84
477.454	1048.98
477.663	1053.82
477.872	1058.47
478.081	1155.73
478.29	1051.69
478.499	1192.35
478.708	1114.85
478.917	1167.17
479.125	1097.42
479.334	1096.25
479.543	1121.63
479.752	1156.7
479.961	1162.71
480.169	1195.84
480.378	1157.48
480.587	1335.53
480.796	1213.08
481.004	1170.27
481.213	1219.67
481.422	1188.67
481.63	1219.67
481.839	1245.25
482.048	1302.4
482.256	1259.58
482.465	1256.68
482.674	1282.45
482.882	1292.52
483.091	1364.21
483.299	1259.2
483.508	1317.9
483.716	1285.35
483.925	1288.84
484.134	1257.26
484.342	1270.24
484.551	1332.43
484.759	1294.07
484.967	1345.03
485.176	1340.38
485.384	1354.13
485.593	1356.26
485.801	1335.73
486.01	1260.55
486.218	1219.67
486.426	1169.49
486.635	1157.28
486.843	1117.95
487.051	1172.4
487.26	1161.55
487.468	1225.29
487.676	1254.55
487.885	1278.38
488.093	1299.49
488.301	1316.16
488.509	1325.07
488.717	1394.82
488.926	1375.64
489.134	1358.39
489.342	1343.86
489.55	1305.11
489.758	1372.73
489.967	1372.93
490.175	1493.44
490.383	1388.42
490.591	1521.92
490.799	1420.78
491.007	1495.37
491.215	1477.35
491.423	1449.46
491.631	1457.98
491.839	1471.35
492.047	1485.3
492.255	1359.75
492.463	1391.72
492.671	1385.52
492.879	1447.32
493.087	1459.53
493.295	1466.7
493.503	1498.67
493.711	1550.79
493.919	1535.87
494.127	1550.79
494.334	1545.75
494.542	1484.14
494.75	1565.9
494.958	1510.29
495.166	1584.3
495.374	1571.52
495.581	1595.35
495.789	1555.44
495.997	1655.8
496.205	1535.48
496.412	1554.85
496.62	1548.27
496.828	1590.89
497.035	1566.09
497.243	1630.03
497.451	1618.21
497.658	1610.07
497.866	1590.5
498.074	1700.94
498.281	1599.03
498.489	1706.36
498.696	1602.52
498.904	1587.21
499.112	1557.95
499.319	1636.03
499.527	1630.42
499.734	1660.64
499.942	1573.84
500.149	1649.79
500.357	1660.64
500.564	1575.39
500.771	1625.77
500.979	1559.89
501.186	1569.19
501.394	1613.95
501.601	1605.42
501.808	1615.11
502.016	1585.08
502.223	1550.2
502.43	1582.17
502.638	1590.5
502.845	1612.2
503.052	1692.22
503.26	1597.67
503.467	1752.09
503.674	1686.02
503.881	1674.98
504.089	1709.46
504.296	1732.91
504.503	1590.5
504.71	1643.01
504.917	1586.82
505.125	1658.9
505.332	1686.41
505.539	1715.08
505.746	1770.11
505.953	1767.2
506.16	1770.3
506.367	1800.53
506.574	1818.74
506.781	1819.13
506.988	1758.87
507.195	1799.56
507.402	1789.87
507.609	1794.13
507.816	1735.43
508.023	1756.54
508.23	1713.92
508.437	1699.39
508.644	1765.07
508.851	1787.93
509.058	1788.32
509.265	1809.83
509.472	1853.03
509.679	1936.92
509.885	1838.31
510.092	1859.62
510.299	1807.31
510.506	1820.29
510.713	1810.6
510.92	1803.63
511.126	1851.48
511.333	1877.44
511.54	1870.27
511.746	1910.19
511.953	1924.52
512.16	1930.92
512.367	1850.51
512.573	1889.46
512.78	1889.84
512.987	1887.52
513.193	1843.73
513.4	1764.29
513.606	1862.91
513.813	1844.31
514.02	1868.53
514.226	1945.06
514.433	1915.22
514.639	1803.43
514.846	1874.54
515.052	1843.54
515.259	1895.07
515.465	1893.14
515.672	1897.4
515.878	2036.9
516.085	1920.84
516.291	1969.86
516.497	1900.89
516.704	1914.84
516.91	1816.99
517.117	1773.4
517.323	1672.85
517.529	1740.46
517.736	1710.43
517.942	1745.31
518.148	1767.98
518.354	1850.9
518.561	1821.64
518.767	1819.71
518.973	1874.34
519.179	1892.17
519.386	1850.32
519.592	1840.63
519.798	1874.92
520.004	2004.54
520.21	1984.78
520.417	1990.98
520.623	2092.31
520.829	2056.85
521.035	2054.53
521.241	2044.65
521.447	2113.62
521.653	2199.45
521.859	2068.67
522.065	2136.48
522.271	2208.17
522.477	2156.05
522.683	2247.11
522.889	2169.42
523.095	2155.28
523.301	2119.43
523.507	2111.3
523.713	2132.03
523.919	2099.48
524.125	2194.8
524.331	2188.79
524.537	2295.55
524.742	2262.22
524.948	2297.68
525.154	2295.74
525.36	2404.82
525.566	2263
525.772	2332.75
525.977	2239.94
526.183	2331.2
526.389	2380.8
526.595	2219.21
526.8	2220.18
527.006	2153.53
527.212	2113.62
527.417	2068.48
527.623	2090.95
527.829	2164
528.034	2180.08
528.24	2204.88
528.446	2237.23
528.651	2375.57
528.857	2371.69
529.062	2397.85
529.268	2399.79
529.473	2398.62
529.679	2434.85
529.884	2541.61
530.09	2445.7
530.295	2443.77
530.501	2484.84
530.706	2437.76
530.912	2418.77
531.117	2475.54
531.323	2446.87
531.528	2515.84
531.733	2554.2
531.939	2502.67
532.144	2538.7
532.35	2486.97
532.555	2566.8
532.76	2516.81
532.966	2504.8
533.171	2444.93
533.376	2397.27
533.581	2348.83
533.787	2410.44
533.992	2480.19
534.197	2491.82
534.402	2486.97
534.607	2501.12
534.813	2585.4
535.018	2494.92
535.223	2527.85
535.428	2518.17
535.633	2587.33
535.838	2589.08
536.043	2623.18
536.249	2676.84
536.454	2604.38
536.659	2658.24
536.864	2620.85
537.069	2568.93
537.274	2613.88
537.479	2578.42
537.684	2588.3
537.889	2506.15
538.094	2664.64
538.299	2601.28
538.504	2604.38
538.708	2597.41
538.913	2615.43
539.118	2630.34
539.323	2664.25
539.528	2589.85
539.733	2603.61
539.938	2606.13
540.142	2617.75
540.347	2566.8
540.552	2548.97
540.757	2555.95
540.962	2571.25
541.166	2495.69
541.371	2506.54
541.576	2536.76
541.781	2446.87
541.985	2606.9
542.19	2583.85
542.395	2717.53
542.599	2752.21
542.804	2655.34
543.008	2706.1
543.213	2627.44
543.418	2589.08
543.622	2693.51
543.827	2574.74
544.031	2722.57
544.236	2681.49
544.44	2679.56
544.645	2804.33
544.849	2682.27
545.054	2723.15
545.258	2803.75
545.463	2742.52
545.667	2621.24
545.872	2744.07
546.076	2690.02
546.281	2690.02
546.485	2705.13
546.689	2716.56
546.894	2707.26
547.098	2739.23
547.302	2678.59
547.507	2720.05
547.711	2748.92
547.915	2757.44
548.119	2630.93
548.324	2674.52
548.528	2727.41
548.732	2707.84
548.936	2745.62
549.141	2756.67
549.345	2674.91
549.549	2710.36
549.753	2735.55
549.957	2799.87
550.161	2805.1
550.366	2773.33
550.57	2720.44
550.774	2747.95
550.978	2744.46
551.182	2773.91
551.386	2702.61
551.59	2681.88
551.794	2699.32
551.998	2748.14
552.202	2710.56
552.406	2681.69
552.61	2783.4
552.814	2731.48
553.018	2799.49
553.222	2698.35
553.426	2667.35
553.63	2829.32
553.833	2710.94
554.037	2647.01
554.241	2730.12
554.445	2723.15
554.649	2747.17
554.853	2675.49
555.056	2748.92
555.26	2748.72
555.464	2728.57
555.668	2763.26
555.871	2805.49
556.075	2807.24
556.279	2724.31
556.483	2666.19
556.686	2695.06
556.89	2717.34
557.094	2719.86
557.297	2662.51
557.501	2685.37
557.704	2609.23
557.908	2700.67
558.112	2601.67
558.315	2736.71
558.519	2659.21
558.722	2628.41
558.926	2619.3
559.129	2517.39
559.333	2509.83
559.536	2528.24
559.74	2533.86
559.943	2500.53
560.147	2520.68
560.35	2557.3
560.553	2549.75
560.757	2499.18
560.96	2613.49
561.164	2547.61
561.367	2631.12
561.57	2567.76
561.774	2586.17
561.977	2544.51
562.18	2534.44
562.384	2674.33
562.587	2568.73
562.79	2524.56
562.993	2523.4
563.197	2539.67
563.4	2605.55
563.603	2609.03
563.806	2660.96
564.009	2535.41
564.212	2544.51
564.416	2481.16
564.619	2523.59
564.822	2422.07
565.025	2583.85
565.228	2501.5
565.431	2516.81
565.634	2381.38
565.837	2442.6
566.04	2421.49
566.243	2394.94
566.446	2331.78
566.649	2454.42
566.852	2376.73
567.055	2383.7
567.258	2422.84
567.461	2480.19
567.664	2499.76
567.867	2392.04
568.07	2392.81
568.273	2410.64
568.475	2490.46
568.678	2379.83
568.881	2398.62
569.084	2342.24
569.287	2266.1
569.489	2287.02
569.692	2348.25
569.895	2367.82
570.098	2275.59
570.3	2245.95
570.503	2219.99
570.706	2222.31
570.909	2265.32
571.111	2163.03
571.314	2213.79
571.516	2207.59
571.719	2220.57
571.922	2196.35
572.124	2200.81
572.327	2215.53
572.529	2213.21
572.732	2180.46
572.935	2230.06
573.137	2288.38
573.34	2213.79
573.542	2313.18
573.745	2248.47
573.947	2249.05
574.15	2253.12
574.352	2206.23
574.554	2268.62
574.757	2166.13
574.959	2150.05
575.162	2158.18
575.364	2145.2
575.566	2247.89
575.769	2113.81
575.971	2144.04
576.173	2012.87
576.376	2126.6
576.578	2131.83
576.78	2201.39
576.982	2074.87
577.185	2085.33
577.387	2071.38
577.589	2082.04
577.791	2149.85
577.993	2109.36
578.196	2077.39
578.398	2101.8
578.6	2108.39
578.802	2020.43
579.004	1989.62
579.206	2038.06
579.408	2066.15
579.61	2013.45
579.812	2096.38
580.014	1996.21
580.216	2036.12
580.418	2052.59
580.62	2038.45
580.822	1995.63
581.024	2057.05
581.226	2066.73
581.428	2021.01
581.63	2135.9
581.832	1974.9
582.034	2108.2
582.236	2026.82
582.438	2075.84
582.64	2091.73
582.841	2128.15
583.043	2138.42
583.245	2071.19
583.447	2082.62
583.649	2076.03
583.85	2031.67
584.052	2098.12
584.254	2018.68
584.456	2090.76
584.657	1996.6
584.859	2012.29
585.061	2018.88
585.262	1979.55
585.464	1977.22
585.666	2014.23
585.867	1938.47
586.069	2055.5
586.27	1963.47
586.472	1984.78
586.674	1953.2
586.875	1965.99
587.077	1941.96
587.278	1999.31
587.48	1965.21
587.681	2090.95
587.883	2023.72
588.084	1921.62
588.285	1905.73
588.487	1937.12
588.688	1958.43
588.89	1857.1
589.091	1835.98
589.292	1819.13
589.494	1768.36
589.695	1734.84
589.896	1662.19
590.098	1664.71
590.299	1748.02
590.5	1686.8
590.702	1703.46
590.903	1784.25
591.104	1867.37
591.305	1839.66
591.507	1881.12
591.708	1863.11
591.909	1819.32
592.11	1926.46
592.311	1883.64
592.512	1839.66
592.714	1801.88
592.915	1813.7
593.116	1808.47
593.317	1841.6
593.518	1815.06
593.719	1838.11
593.92	1837.53
594.121	1892.17
594.322	1830.56
594.523	1835.4
594.724	1775.14
594.925	1826.49
595.126	1835.59
595.327	1821.84
595.528	1813.89
595.729	1793.55
595.929	1798.39
596.13	1799.17
596.331	1843.54
596.532	1819.71
596.733	1884.42
596.934	1898.17
597.135	1843.92
597.335	1855.94
597.536	1785.03
597.737	1802.08
597.938	1788.51
598.138	1840.82
598.339	1797.81
598.54	1791.81
598.74	1799.36
598.941	1810.99
599.142	1858.07
599.342	1853.22
599.543	1787.74
599.744	1756.35
599.944	1738.53
600.145	1792.78
600.345	1794.33
600.546	1856.52
600.746	1832.88
600.947	1882.48
601.147	1785.22
601.348	1842.57
601.548	1755.58
601.749	1787.74
601.949	1721.67
602.15	1736.01
602.35	1744.53
602.551	1813.12
602.751	1702.3
602.951	1743.18
603.152	1703.85
603.352	1795.68
603.552	1731.36
603.753	1825.91
603.953	1837.14
604.153	1783.48
604.354	1794.52
604.554	1725.16
604.754	1772.04
604.954	1751.31
605.155	1788.13
605.355	1762.55
605.555	1795.68
605.755	1815.44
605.955	1738.14
606.155	1812.54
606.356	1765.07
606.556	1783.09
606.756	1788.13
606.956	1688.35
607.156	1853.81
607.356	1689.7
607.556	1741.04
607.756	1749.96
607.956	1796.65
608.156	1766.23
608.356	1691.83
608.556	1747.44
608.756	1706.56
608.956	1698.42
609.156	1724.58
609.356	1658.31
609.556	1662.96
609.755	1700.16
609.955	1654.05
610.155	1706.75
610.355	1701.91
610.555	1647.85
610.755	1654.25
610.954	1601.16
611.154	1678.27
611.354	1696.87
611.554	1630.42
611.753	1670.52
611.953	1584.5
612.153	1683.31
612.352	1692.22
612.552	1571.71
612.752	1601.93
612.951	1641.07
613.151	1660.45
613.351	1596.51
613.55	1636.03
613.75	1623.05
613.949	1576.55
614.149	1638.75
614.348	1580.62
614.548	1587.6
614.747	1521.14
614.947	1558.53
615.146	1514.17
615.346	1630.22
615.545	1612.2
615.745	1587.21
615.944	1621.89
616.144	1565.12
616.343	1607.75
616.542	1521.92
616.742	1575.2
616.941	1528.7
617.14	1483.75
617.34	1508.94
617.539	1525.21
617.738	1488.4
617.938	1577.91
618.137	1521.53
618.336	1499.83
618.535	1580.62
618.734	1540.9
618.934	1538.58
619.133	1548.27
619.332	1563.96
619.531	1503.7
619.73	1529.67
619.929	1590.12
620.128	1540.13
620.328	1596.7
620.527	1512.23
620.726	1518.24
620.925	1544.2
621.124	1520.95
621.323	1528.31
621.522	1500.6
621.721	1477.94
621.92	1516.3
622.119	1504.67
622.318	1472.12
622.517	1479.68
622.715	1492.47
622.914	1447.32
623.113	1463.21
623.312	1406.64
623.511	1506.03
623.71	1459.92
623.909	1448.49
624.107	1508.94
624.306	1418.84
624.505	1418.26
624.704	1453.52
624.902	1447.71
625.101	1476.97
625.3	1445.97
625.499	1413.03
625.697	1407.02
625.896	1415.36
626.095	1386.87
626.293	1355.49
626.492	1387.84
626.69	1433.76
626.889	1406.06
627.088	1482
627.286	1415.94
627.485	1389.78
627.683	1377.38
627.882	1423.88
628.08	1325.46
628.279	1384.55
628.477	1468.44
628.676	1375.64
628.874	1403.92
629.073	1336.89
629.271	1359.17
629.469	1392.49
629.668	1379.71
629.866	1346.38
630.065	1351.81
630.263	1382.61
630.461	1305.69
630.66	1374.86
630.858	1390.75
631.056	1426.01
631.254	1390.17
631.453	1343.48
631.651	1379.9
631.849	1364.01
632.047	1377.58
632.245	1334.37
632.444	1353.94
632.642	1361.49
632.84	1387.65
633.038	1317.32
633.236	1318.29
633.434	1349.09
633.632	1291.36
633.83	1310.34
634.028	1365.37
634.227	1346.58
634.425	1406.25
634.623	1381.26
634.821	1329.14
635.019	1389.78
635.216	1340.38
635.414	1354.91
635.612	1335.53
635.81	1348.13
636.008	1419.04
636.206	1345.99
636.404	1372.93
636.602	1292.52
636.8	1316.35
636.997	1392.49
637.195	1382.03
637.393	1370.02
637.591	1407.99
637.789	1344.44
637.986	1329.14
638.184	1352.58
638.382	1374.48
638.58	1354.13
638.777	1430.08
638.975	1350.45
639.173	1370.99
639.37	1345.22
639.568	1331.66
639.765	1363.43
639.963	1301.63
640.161	1321.78
640.358	1345.61
640.556	1264.04
640.753	1250.48
640.951	1288.65
641.148	1321.97
641.346	1268.5
641.543	1280.31
641.741	1294.85
641.938	1210.18
642.136	1312.48
642.333	1237.5
642.531	1333.4
642.728	1304.92
642.925	1307.24
643.123	1251.25
643.32	1290
643.517	1242.15
643.715	1275.28
643.912	1257.65
644.109	1286.71
644.306	1298.72
644.504	1236.72
644.701	1250.09
644.898	1297.36
645.095	1249.7
645.293	1255.13
645.49	1270.43
645.687	1240.98
645.884	1292.13
646.081	1182.28
646.278	1195.26
646.475	1177.63
646.672	1198.17
646.87	1231.1
647.067	1231.3
647.264	1217.15
647.461	1148.18
647.658	1149.15
647.855	1239.63
648.052	1181.89
648.249	1080.17
648.446	1179.95
648.642	1134.42
648.839	1139.65
649.036	1165.81
649.233	1140.23
649.43	1151.08
649.627	1086.57
649.824	1101.87
650.021	1103.81
650.217	1098.77
650.414	1124.35
650.611	1166
650.808	1151.08
651.004	1148.57
651.201	1160.38
651.398	1213.86
651.595	1161.35
651.791	1142.37
651.988	1167.55
652.185	1098.19
652.381	1135.39
652.578	1070.68
652.775	1139.27
652.971	1124.35
653.168	1106.91
653.364	1156.9
653.561	1053.63
653.757	1100.71
653.954	1131.32
654.15	1093.93
654.347	1184.22
654.543	1122.02
654.74	1078.04
654.936	1098
655.133	1052.85
655.329	1091.02
655.525	1072.81
655.722	1145.85
655.918	1046.27
656.115	1068.55
656.311	979.42
656.507	955.21
656.704	906.77
656.9	965.67
657.096	952.11
657.292	942.61
657.489	1003.84
657.685	1022.82
657.881	970.51
658.077	989.31
658.273	999.77
658.47	1102.45
658.666	1017.4
658.862	1057.5
659.058	1062.15
659.254	1076.69
659.45	1033.29
659.646	1050.34
659.842	1055.57
660.038	1131.52
660.234	1040.65
660.43	1022.24
660.626	1145.27
660.822	1062.93
661.018	1074.75
661.214	1051.5
661.41	1014.88
661.606	1085.6
661.802	1091.02
661.998	1038.71
662.194	1006.74
662.39	1078.24
662.586	1040.26
662.781	1077.07
662.977	1051.11
663.173	1081.53
663.369	1062.15
663.564	1069.13
663.76	1096.45
663.956	1030.19
664.152	1058.47
664.347	993.76
664.543	1037.35
664.739	999.38
664.934	975.94
665.13	986.4
665.326	1052.27
665.521	1016.04
665.717	989.69
665.912	1004.81
666.108	922.66
666.304	989.5
666.499	1020.89
666.695	927.69
666.89	990.08
667.086	1005
667.281	991.24
667.477	1046.46
667.672	984.85
667.867	999.96
668.063	1011.59
668.258	949.59
668.454	1013.91
668.649	1067.97
668.844	1001.12
669.04	1036
669.235	985.43
669.43	968.19
669.626	930.6
669.821	960.44
670.016	937.96
670.211	962.76
670.407	932.34
670.602	980.2
670.797	958.11
670.992	1009.07
671.187	932.93
671.382	1021.47
671.578	912.19
671.773	968.19
671.968	936.22
672.163	960.05
672.358	952.49
672.553	954.82
672.748	942.03
672.943	1008.87
673.138	955.21
673.333	966.44
673.528	879.64
673.723	957.14
673.918	936.99
674.113	903.86
674.308	993.57
674.503	921.11
674.698	972.45
674.892	945.52
675.087	985.82
675.282	969.93
675.477	940.48
675.672	960.82
675.867	905.99
676.061	880.42
676.256	881.19
676.451	881.39
676.646	972.84
676.84	879.26
677.035	893.79
677.23	880.23
677.424	919.94
677.619	942.42
677.814	978.26
678.008	943.58
678.203	866.08
678.397	906.96
678.592	900.18
678.787	977.68
678.981	916.84
679.176	936.99
679.37	924.59
679.565	913.55
679.759	890.88
679.954	929.83
680.148	999.77
680.342	1009.07
680.537	920.53
680.731	926.34
680.926	945.33
681.12	970.32
681.314	919.56
681.509	887.01
681.703	924.98
681.897	920.14
682.092	917.62
682.286	884.68
682.48	990.86
682.674	974.97
682.869	912.58
683.063	902.12
683.257	999.96
683.451	912.97
683.645	931.18
683.839	897.66
684.034	875.77
684.228	950.36
684.422	882.55
684.616	892.04
684.81	941.26
685.004	895.34
685.198	908.9
685.392	953.46
685.586	900.38
685.78	909.29
685.974	925.37
686.168	932.15
686.362	969.54
686.556	871.51
686.75	801.56
686.944	834.7
687.138	840.9
687.331	748.28
687.525	799.24
687.719	720
687.913	790.13
688.107	781.61
688.301	773.08
688.494	794.2
688.688	736.66
688.882	736.27
689.076	713.22
689.269	770.76
689.463	874.8
689.657	771.34
689.85	788.97
690.044	800.21
690.238	799.24
690.431	778.12
690.625	763.2
690.818	847.1
691.012	826.17
691.205	837.8
691.399	787.42
691.593	851.16
691.786	876.74
691.98	887.01
692.173	941.64
692.366	885.65
692.56	896.69
692.753	956.95
692.947	847.48
693.14	924.59
693.333	952.49
693.527	832.37
693.72	910.84
693.914	892.43
694.107	904.06
694.3	927.5
694.493	877.71
694.687	964.51
694.88	899.6
695.073	941.84
695.266	929.63
695.46	948.04
695.653	992.02
695.846	995.7
696.039	909.29
696.232	932.34
696.425	980.59
696.618	988.53
696.812	1015.66
697.005	1061.57
697.198	1129.38
697.391	1051.3
697.584	1051.89
697.777	1131.13
697.97	1106.14
698.163	1114.85
698.356	1092.77
698.549	1165.23
698.742	1155.54
698.935	1073.39
699.127	1142.75
699.32	1087.92
699.513	1107.1
699.706	1131.9
699.899	1166.97
700.092	1144.88
700.285	1156.7
700.477	1119.5
700.67	1150.12
700.863	1198.36
701.056	1276.83
701.248	1243.5
701.441	1262.68
701.634	1192.35
701.826	1343.86
702.019	1201.46
702.212	1317.71
702.404	1234.4
702.597	1285.35
702.79	1270.43
702.982	1293.1
703.175	1346.96
703.367	1341.15
703.56	1296.01
703.752	1443.84
703.945	1395.4
704.137	1409.35
704.33	1459.53
704.522	1439.96
704.715	1491.3
704.907	1505.25
705.1	1535.48
705.292	1544.59
705.484	1482.97
705.677	1553.5
705.869	1574.81
706.061	1622.47
706.254	1646.88
706.446	1612.2
706.638	1593.99
706.831	1721.86
707.023	1646.11
707.215	1757.9
707.407	1698.81
707.599	1704.04
707.792	1780.38
707.984	1776.69
708.176	1800.33
708.368	1773.4
708.56	1822.61
708.752	1808.86
708.944	1813.7
709.136	1881.32
709.329	1819.9
709.521	1982.65
709.713	1915.61
709.905	1915.22
710.097	2001.83
710.289	1949.13
710.481	1965.02
710.672	1981.87
710.864	2024.5
711.056	2090.37
711.248	2084.17
711.44	2069.64
711.632	2079.91
711.824	2124.47
712.016	2211.08
712.207	2142.1
712.399	2168.26
712.591	2248.28
712.783	2262.81
712.975	2271.14
713.166	2235.49
713.358	2235.68
713.55	2329.84
713.741	2348.25
713.933	2311.24
714.125	2333.14
714.316	2312.02
714.508	2432.53
714.7	2428.65
714.891	2416.25
715.083	2476.32
715.274	2436.02
715.466	2412.96
715.657	2497.24
715.849	2443.18
716.04	2482.32
716.232	2423.81
716.423	2539.48
716.615	2408.7
716.806	2373.82
716.998	2319.38
717.189	2303.11
717.381	2243.24
717.572	2223.48
717.763	2270.56
717.955	2224.25
718.146	2227.74
718.337	2169.81
718.528	2122.92
718.72	2083.98
718.911	2165.55
719.102	2053.75
719.293	2175.81
719.485	2166.13
719.676	2160.51
719.867	2063.83
720.058	2094.25
720.249	2105.29
720.44	2167.48
720.632	2235.68
720.823	2235.1
721.014	2396.69
721.205	2403.27
721.396	2490.65
721.587	2621.82
721.778	2628.6
721.969	2627.24
722.16	2753.96
722.351	2808.59
722.542	2894.62
722.733	2940.53
722.924	2834.17
723.115	2908.18
723.305	2901.4
723.496	2930.65
723.687	2766.55
723.878	2791.35
724.069	2803.17
724.26	2833.97
724.45	2728.19
724.641	2775.07
724.832	2849.67
725.023	2781.47
725.213	2789.02
725.404	2756.09
725.595	2767.71
725.785	2714.82
725.976	2842.11
726.167	2798.71
726.357	2887.64
726.548	2994.78
726.739	2877.57
726.929	2965.72
727.12	3024.81
727.31	3057.36
727.501	2993.04
727.691	3021.33
727.882	3041.67
728.072	3081.78
728.263	3056.98
728.453	3095.34
728.644	3122.85
728.834	3123.82
729.024	3088.17
729.215	3073.83
729.405	3134.47
729.596	3197.83
729.786	3234.25
729.976	3269.52
730.167	3315.43
730.357	3211.97
730.547	3236.39
730.737	3318.15
730.928	3320.67
731.118	3448.93
731.308	3338.88
731.498	3363.1
731.688	3422.96
731.879	3433.62
732.069	3561.3
732.259	3546.77
732.449	3604.12
732.639	3698.47
732.829	3715.33
733.019	3695.76
733.209	3774.42
733.399	3849.6
733.589	3887.96
733.779	3880.01
733.969	3865.68
734.159	3987.93
734.349	4023.58
734.539	4063.11
734.729	4078.22
734.919	4088.49
735.109	4161.14
735.299	4088.29
735.488	4181.68
735.678	4163.85
735.868	4146.22
736.058	4160.75
736.248	4154.94
736.437	4078.99
736.627	4059.04
736.817	4262.86
737.007	4184.2
737.196	4232.05
737.386	4261.31
737.576	4185.17
737.765	4286.88
737.955	4216.17
738.144	4370
738.334	4336.48
738.524	4263.05
738.713	4312.26
738.903	4291.92
739.092	4305.68
739.282	4320.98
739.471	4367.48
739.661	4353.34
739.85	4382.21
740.04	4381.63
740.229	4416.69
740.419	4425.99
740.608	4454.47
740.797	4451.37
740.987	4493.61
741.176	4469.97
741.365	4431.23
741.555	4403.52
741.744	4525.77
741.933	4485.09
742.123	4487.02
742.312	4531.78
742.501	4514.34
742.69	4581.38
742.88	4473.27
743.069	4655.78
743.258	4573.63
743.447	4642.41
743.636	4609.28
743.825	4557.35
744.014	4625.55
744.204	4652.1
744.393	4523.06
744.582	4711.96
744.771	4729.4
744.96	4587
745.149	4616.45
745.338	4587.58
745.527	4697.63
745.716	4690.07
745.905	4612.77
746.094	4655
746.283	4681.93
746.471	4717.58
746.66	4727.27
746.849	4723.01
747.038	4766.21
747.227	4652.29
747.416	4727.46
747.604	4660.62
747.793	4660.82
747.982	4718.94
748.171	4742
748.359	4742
748.548	4762.53
748.737	4725.91
748.926	4752.85
749.114	4611.99
749.303	4707.12
749.491	4672.83
749.68	4596.3
749.869	4722.04
750.057	4653.84
750.246	4662.37
750.434	4634.08
750.623	4660.62
750.811	4612.57
751	4690.65
751.188	4660.23
751.377	4671.47
751.565	4618.77
751.754	4580.02
751.942	4624.39
752.131	4696.08
752.319	4611.99
752.507	4542.05
752.696	4642.02
752.884	4631.17
753.072	4568.2
753.261	4673.8
753.449	4616.45
753.637	4536.62
753.825	4722.62
754.014	4581.19
754.202	4658.1
754.39	4602.5
754.578	4644.15
754.766	4559.1
754.955	4547.86
755.143	4665.08
755.331	4563.55
755.519	4560.84
755.707	4602.89
755.895	4542.24
756.083	4546.7
756.271	4524.61
756.459	4543.21
756.647	4547.47
756.835	4509.11
757.023	4521.12
757.211	4507.17
757.399	4522.09
757.587	4473.27
757.775	4436.65
757.963	4459.71
758.151	4503.49
758.339	4430.45
758.526	4453.12
758.714	4433.55
758.902	4315.36
759.09	4283.4
759.278	4095.46
759.465	3834.87
759.653	3424.51
759.841	3144.74
760.028	2782.63
760.216	2428.27
760.404	2310.27
760.591	1934.99
760.779	1757.32
760.967	1544.2
761.154	1329.53
761.342	1420.97
761.529	1423.11
761.717	1516.88
761.905	1518.24
762.092	1626.35
762.28	1631.38
762.467	1660.06
762.655	1596.9
762.842	1637.78
763.029	1639.13
763.217	1687.57
763.404	1671.1
763.592	1706.17
763.779	1678.08
763.966	1748.99
764.154	1800.14
764.341	1860.01
764.528	1874.15
764.716	1906.7
764.903	2037.28
765.09	2044.07
765.277	2142.3
765.465	2276.95
765.652	2396.49
765.839	2451.13
766.026	2617.56
766.213	2711.14
766.4	2745.24
766.588	2923.29
766.775	2963.59
766.962	3109.48
767.149	3110.45
767.336	3335.2
767.523	3260.41
767.71	3399.13
767.897	3556.26
768.084	3609.16
768.271	3645
768.458	3682.59
768.645	3798.25
768.832	3723.08
769.019	3737.61
769.206	3787.21
769.392	3861.8
769.579	3968.56
769.766	3928.64
769.953	3950.15
770.14	4010.6
770.327	3930
770.513	3987.35
770.7	4083.45
770.887	3968.17
771.073	3950.15
771.26	4030.36
771.447	3966.81
771.634	3927.87
771.82	4077.25
772.007	3970.88
772.193	3983.86
772.38	4034.43
772.567	3985.41
772.753	3936.59
772.94	4029.39
773.126	3998.98
773.313	4029.01
773.499	4012.54
773.686	4032.3
773.872	3942.4
774.059	4023
774.245	3923.61
774.432	3945.69
774.618	3858.31
774.804	3961.39
774.991	3864.71
775.177	3958.68
775.363	3899
775.55	3973.59
775.736	3834.87
775.922	3896.68
776.109	3878.27
776.295	3865.1
776.481	3907.33
776.667	3923.99
776.853	3855.21
777.04	3843.98
777.226	3826.93
777.412	3932.13
777.598	3809.68
777.784	3775
777.97	3818.6
778.156	3842.04
778.342	3832.93
778.528	3783.33
778.715	3743.23
778.901	3728.31
779.087	3811.82
779.272	3713.78
779.458	3729.67
779.644	3809.1
779.83	3668.64
780.016	3828.48
780.202	3723.47
780.388	3738.97
780.574	3654.3
780.76	3672.7
780.946	3724.82
781.131	3672.12
781.317	3690.72
781.503	3622.14
781.689	3660.11
781.874	3763.38
782.06	3647.13
782.246	3658.95
782.432	3643.06
782.617	3696.73
782.803	3709.9
782.989	3563.43
783.174	3598.5
783.36	3552.58
783.545	3567.11
783.731	3550.26
783.916	3469.85
784.102	3558.78
784.288	3558.01
784.473	3549.68
784.659	3511.31
784.844	3542.12
785.029	3475.66
785.215	3486.71
785.4	3431.49
785.586	3551.81
785.771	3455.71
785.956	3510.54
786.142	3443.89
786.327	3446.41
786.512	3422.19
786.698	3465.4
786.883	3355.15
787.068	3428.78
787.254	3452.03
787.439	3372.78
787.624	3387.32
787.809	3371.82
787.994	3386.93
788.18	3432.65
788.365	3337.52
788.55	3326.28
788.735	3375.69
788.92	3322.41
789.105	3306.52
789.29	3392.74
789.475	3297.03
789.66	3285.79
789.845	3261.57
790.03	3302.26
790.215	3278.43
790.4	3316.98
790.585	3310.4
790.77	3250.53
790.955	3152.49
791.14	3241.04
791.325	3318.73
791.51	3110.26
791.695	3215.85
791.879	3223.99
792.064	3171.87
792.249	3246.07
792.434	3163.34
792.618	3223.02
792.803	3269.71
792.988	3203.45
793.173	3244.52
793.357	3275.14
793.542	3156.37
793.727	3189.69
793.911	3207.52
794.096	3221.85
794.281	3212.36
794.465	3343.72
794.65	3213.14
794.834	3268.94
795.019	3271.84
795.203	3286.76
795.388	3297.22
795.572	3322.8
795.757	3277.46
795.941	3319.5
796.126	3254.99
796.31	3195.7
796.494	3242.39
796.679	3247.62
796.863	3143.39
797.048	3322.22
797.232	3251.3
797.416	3277.85
797.601	3243.94
797.785	3373.37
797.969	3341.2
798.153	3238.32
798.338	3277.65
798.522	3345.08
798.706	3313.3
798.89	3355.73
799.074	3435.36
799.258	3365.81
799.443	3304.2
799.627	3330.35
799.811	3351.08
799.995	3305.55
800.179	3261.96
800.363	3297.61
800.547	3311.95
800.731	3320.08
800.915	3206.16
801.099	3224.76
801.283	3287.34
801.467	3306.52
801.651	3274.75
801.835	3304.97
802.019	3293.54
802.202	3314.08
802.386	3249.95
802.57	3193.76
802.754	3233.48
802.938	3211.39
803.121	3233.29
803.305	3297.8
803.489	3291.41
803.673	3298.39
803.856	3354.96
804.04	3240.45
804.224	3300.9
804.407	3265.45
804.591	3233.87
804.775	3253.05
804.958	3259.64
805.142	3376.27
805.326	3236.97
805.509	3253.44
805.693	3289.47
805.876	3288.89
806.06	3282.3
806.243	3305.17
806.427	3379.76
806.61	3340.82
806.794	3262.35
806.977	3312.53
807.16	3286.76
807.344	3286.76
807.527	3234.25
807.71	3282.11
807.894	3263.7
808.077	3300.9
808.26	3225.34
808.444	3217.79
808.627	3327.06
808.81	3216.82
808.993	3148.42
809.177	3158.69
809.36	3195.12
809.543	3197.25
809.726	3074.41
809.909	3087.59
810.092	3101.34
810.276	3089.72
810.459	3071.89
810.642	3053.1
810.825	3031.21
811.008	3058.33
811.191	2972.7
811.374	2957.39
811.557	2999.24
811.74	3062.4
811.923	2958.36
812.106	2905.85
812.289	2885.51
812.472	2883.96
812.654	2905.66
812.837	2908.57
813.02	2836.49
813.203	2781.27
813.386	2706.68
813.569	2669.09
813.751	2635.96
813.934	2643.33
814.117	2638.68
814.3	2534.44
814.482	2512.35
814.665	2516.23
814.848	2460.62
815.03	2413.35
815.213	2348.44
815.396	2391.45
815.578	2328.68
815.761	2324.42
815.943	2382.15
816.126	2240.14
816.309	2236.84
816.491	2139.39
816.674	2126.8
816.856	2155.47
817.039	2110.13
817.221	2245.95
817.403	2165.35
817.586	2184.73
817.768	2187.05
817.951	2121.37
818.133	2126.02
818.315	2162.64
818.498	2145.59
818.68	2211.46
818.862	2179.11
819.045	2234.13
819.227	2207.98
819.409	2138.03
819.591	2182.59
819.774	2189.38
819.956	2110.71
820.138	2212.04
820.32	2217.66
820.502	2254.28
820.684	2344.95
820.866	2326.55
821.048	2407.73
821.231	2368.59
821.413	2371.3
821.595	2385.64
821.777	2362.97
821.959	2362.39
822.141	2464.3
822.323	2281.21
822.505	2253.89
822.686	2183.37
822.868	2089.6
823.05	1981.49
823.232	1922.78
823.414	1842.57
823.596	1946.42
823.778	1913.87
823.96	1978
824.141	1944.87
824.323	1983.62
824.505	2081.07
824.687	2121.18
824.868	2158.76
825.05	2244.4
825.232	2282.37
825.413	2364.33
825.595	2321.9
825.777	2229.87
825.958	2289.74
826.14	2310.66
826.321	2310.66
826.503	2271.52
826.685	2296.71
826.866	2371.3
827.048	2322.67
827.229	2274.43
827.411	2221.34
827.592	2185.31
827.773	2195.96
827.955	2137.65
828.136	2124.28
828.318	2086.3
828.499	2134.35
828.68	2069.25
828.862	2100.25
829.043	2153.53
829.224	2099.86
829.406	2058.21
829.587	2045.23
829.768	2096.96
829.949	2092.7
830.131	2094.05
830.312	2129.12
830.493	2067.32
830.674	2120.4
830.855	2057.05
831.036	2100.64
831.218	2135.32
831.399	2168.45
831.58	2117.5
831.761	2123.31
831.942	2115.75
832.123	2084.56
832.304	2023.92
832.485	2026.43
832.666	2059.95
832.847	2081.27
833.028	2067.12
833.209	2070.8
833.389	2062.08
833.57	1988.85
833.751	1983.04
833.932	2090.18
834.113	2073.9
834.294	2031.28
834.475	2070.61
834.655	2089.79
834.836	2146.75
835.017	2109.16
835.198	2011.32
835.378	2081.07
835.559	2134.93
835.74	2086.69
835.92	2097.15
836.101	2069.64
836.281	2083.01
836.462	2088.05
836.643	2159.35
836.823	2141.33
837.004	2121.95
837.184	2195.58
837.365	2136.48
837.545	2179.69
837.726	2119.05
837.906	2182.21
838.087	2117.88
838.267	2076.81
838.448	2049.3
838.628	2061.12
838.808	2089.4
838.989	2190.73
839.169	2032.25
839.349	2163.61
839.53	2161.28
839.71	2166.32
839.89	2093.47
840.07	2172.91
840.251	2095.8
840.431	2133
840.611	2110.91
840.791	2080.3
840.971	2091.53
841.151	2099.67
841.332	2052.78
841.512	2108.39
841.692	2014.81
841.872	2097.93
842.052	2103.93
842.232	2105.68
842.412	2011.52
842.592	2039.22
842.772	2069.06
842.952	2096.38
843.132	2024.88
843.312	2024.5
843.492	1985.17
843.672	2095.21
843.851	1930.92
844.031	2048.33
844.211	2029.73
844.391	1976.64
844.571	2012.29
844.751	2051.82
844.93	2057.63
845.11	1994.85
845.29	2027.79
845.47	2024.11
845.649	2046
845.829	2028.76
846.009	2011.32
846.188	1990.4
846.368	2012.68
846.547	2013.45
846.727	2041.55
846.907	1967.34
847.086	1976.25
847.266	2044.84
847.445	1986.33
847.625	1966.37
847.804	1937.31
847.984	1976.25
848.163	1952.62
848.343	1951.45
848.522	1968.89
848.701	1963.47
848.881	1953
849.06	1952.23
849.239	1952.23
849.419	1962.5
849.598	1875.12
849.777	1859.04
849.957	1820.09
850.136	1763.71
850.315	1742.01
850.494	1769.14
850.674	1781.73
850.853	1841.02
851.032	1829.78
851.211	1879.96
851.39	1850.71
851.569	1761
851.748	1761
851.927	1858.07
852.107	1829.2
852.286	1771.85
852.465	1769.72
852.644	1825.52
852.823	1816.61
853.002	1817.77
853.181	1820.48
853.359	1827.26
853.538	1750.73
853.717	1814.09
853.896	1720.31
854.075	1621.5
854.254	1602.71
854.433	1507.19
854.611	1602.13
854.79	1514.55
854.969	1595.93
855.148	1568.8
855.327	1569
855.505	1629.64
855.684	1600.77
855.863	1641.46
856.041	1633.32
856.22	1643.01
856.399	1647.66
856.577	1733.88
856.756	1741.63
856.934	1849.93
857.113	1848.77
857.291	1722.64
857.47	1694.93
857.648	1752.48
857.827	1728.26
858.005	1772.63
858.184	1684.28
858.362	1805.37
858.541	1711.6
858.719	1731.16
858.898	1727.87
859.076	1696.87
859.254	1779.21
859.433	1657.73
859.611	1670.33
859.789	1627.51
859.967	1745.11
860.146	1761.58
860.324	1643.78
860.502	1693.58
860.68	1606
860.859	1628.28
861.037	1627.32
861.215	1672.85
861.393	1662
861.571	1658.31
861.749	1638.17
861.927	1643.59
862.105	1662
862.283	1656.18
862.461	1612.59
862.639	1604.26
862.817	1624.8
862.995	1629.06
863.173	1639.91
863.351	1614.33
863.529	1606
863.707	1637.39
863.885	1642.43
864.063	1545.17
864.241	1575.97
864.418	1656.57
864.596	1586.63
864.774	1489.95
864.952	1605.03
865.129	1607.94
865.307	1538
865.485	1476.39
865.663	1612.59
865.84	1502.93
866.018	1506.42
866.196	1350.26
866.373	1385.32
866.551	1365.95
866.728	1296.59
866.906	1353.74
867.084	1384.55
867.261	1414.39
867.439	1430.47
867.616	1481.62
867.794	1445.19
867.971	1468.25
868.149	1442.09
868.326	1503.7
868.503	1480.26
868.681	1484.14
868.858	1461.66
869.035	1429.5
869.213	1511.26
869.39	1433.76
869.567	1532.19
869.745	1435.51
869.922	1492.85
870.099	1482.59
870.276	1481.62
870.454	1481.23
870.631	1497.5
870.808	1451.39
870.985	1498.09
871.162	1525.6
871.339	1492.66
871.517	1403.73
871.694	1426.59
871.871	1444.03
872.048	1445.77
872.225	1402.37
872.402	1440.35
872.579	1364.59
872.756	1440.54
872.933	1367.5
873.11	1409.74
873.287	1410.12
873.463	1384.94
873.64	1382.03
873.817	1433.18
873.994	1398.11
874.171	1331.46
874.348	1388.42
874.524	1335.14
874.701	1396.17
874.878	1295.62
875.055	1377.77
875.231	1318.87
875.408	1368.47
875.585	1292.52
875.762	1347.16
875.938	1325.84
876.115	1342.12
876.291	1331.66
876.468	1340.18
876.645	1289.81
876.821	1283.41
876.998	1329.33
877.174	1342.12
877.351	1314.8
877.527	1281.67
877.704	1317.71
877.88	1281.86
878.057	1273.15
878.233	1368.86
878.409	1287.87
878.586	1314.03
878.762	1294.07
878.938	1306.66
879.115	1208.43
879.291	1282.64
879.467	1177.63
879.644	1224.9
879.82	1297.36
879.996	1252.03
880.172	1212.89
880.349	1290
880.525	1272.56
880.701	1196.03
880.877	1191.97
881.053	1251.64
881.229	1237.69
881.405	1267.14
881.581	1231.88
881.757	1240.01
881.933	1239.24
882.109	1276.44
882.285	1250.67
882.461	1177.43
882.637	1212.11
882.813	1195.26
882.989	1220.45
883.165	1236.33
883.341	1201.27
883.517	1243.7
883.693	1234.59
883.869	1264.04
884.044	1198.17
884.22	1257.06
884.396	1282.64
884.572	1240.98
884.747	1289.23
884.923	1248.15
885.099	1258.42
885.275	1272.56
885.45	1210.18
885.626	1227.23
885.801	1193.13
885.977	1198.94
886.153	1187.51
886.328	1206.11
886.504	1184.22
886.679	1223.74
886.855	1155.93
887.03	1252.22
887.206	1250.28
887.381	1210.56
887.557	1222.77
887.732	1245.83
887.908	1279.73
888.083	1254.74
888.258	1224.9
888.434	1182.86
888.609	1227.23
888.784	1265.59
888.96	1206.69
889.135	1171.04
889.31	1202.04
889.485	1238.66
889.661	1210.95
889.836	1289.23
890.011	1229.36
890.186	1221.22
890.361	1195.84
890.537	1229.36
890.712	1247.18
890.887	1255.32
891.062	1209.98
891.237	1266.75
891.412	1195.45
891.587	1222
891.762	1257.65
891.937	1277.8
892.112	1173.37
892.287	1198.94
892.462	1174.53
892.637	1153.6
892.812	1116.21
892.987	1178.79
893.161	1149.73
893.336	1124.73
893.511	1164.84
893.686	1148.95
893.861	1120.28
894.035	1125.9
894.21	1161.74
894.385	1061.77
894.56	1136.17
894.734	1042.2
894.909	1072.62
895.084	1067.39
895.258	1056.54
895.433	1055.57
895.608	1024.37
895.782	955.4
895.957	1013.52
896.131	983.69
896.306	928.66
896.48	909.09
896.655	934.09
896.829	868.02
897.004	886.62
897.178	868.41
897.353	860.66
897.527	928.86
897.701	877.13
897.876	824.43
898.05	931.96
898.224	937.77
898.399	924.01
898.573	873.25
898.747	753.71
898.921	822.88
899.096	704.88
899.27	733.17
899.444	730.85
899.618	780.83
899.792	794.2
899.967	786.26
900.141	856.78
900.315	744.99
900.489	772.31
900.663	789.55
900.837	803.31
901.011	742.67
901.185	824.62
901.359	820.75
901.533	790.33
901.707	805.83
901.881	794.4
902.055	728.72
902.229	767.66
902.403	822.1
902.576	790.13
902.75	795.17
902.924	924.01
903.098	832.37
903.272	899.6
903.446	918.01
903.619	901.93
903.793	959.47
903.967	909.48
904.14	1003.26
904.314	966.06
904.488	963.54
904.661	947.65
904.835	956.56
905.009	972.84
905.182	1002.48
905.356	972.26
905.529	945.33
905.703	893.21
905.876	919.94
906.05	885.65
906.223	872.09
906.397	795.36
906.57	820.75
906.744	779.28
906.917	783.55
907.09	762.82
907.264	769.4
907.437	743.44
907.61	689.19
907.784	744.02
907.957	758.94
908.13	687.45
908.304	728.33
908.477	680.67
908.65	705.08
908.823	677.37
908.996	748.48
909.17	694.62
909.343	673.11
909.516	703.33
909.689	720
909.862	674.27
910.035	689.58
910.208	664.39
910.381	654.7
910.554	757.78
910.727	670.2
910.9	714.38
911.073	660.9
911.246	731.43
911.419	757.2
911.592	715.93
911.765	660.32
911.938	662.45
912.11	707.02
912.283	700.62
912.456	751.97
912.629	665.55
912.802	662.26
912.974	649.09
913.147	580.5
913.32	534.97
913.493	567.91
913.665	586.31
913.838	602
914.01	604.72
914.183	624.09
914.356	632.04
914.528	661.87
914.701	711.86
914.873	663.04
915.046	597.16
915.218	582.24
915.391	513.85
915.563	538.07
915.736	603.94
915.908	597.94
916.081	602.2
916.253	594.45
916.425	599.49
916.598	589.02
916.77	613.24
916.942	572.94
917.115	540.01
917.287	567.91
917.459	523.92
917.632	508.81
917.804	456.11
917.976	557.83
918.148	562.48
918.32	556.28
918.493	597.74
918.665	644.05
918.837	607.62
919.009	665.94
919.181	640.95
919.353	620.6
919.525	599.87
919.697	617.31
919.869	646.57
920.041	670.59
920.213	715.35
920.385	664.2
920.557	614.4
920.729	650.44
920.901	631.07
921.073	610.72
921.244	614.02
921.416	654.7
921.588	584.57
921.76	623.7
921.932	671.37
922.103	588.06
922.275	607.24
922.447	627.97
922.619	538.84
922.79	590.96
922.962	564.22
923.134	633.78
923.305	542.72
923.477	531.29
923.648	528.57
923.82	572.94
923.991	528.96
924.163	486.92
924.335	568.87
924.506	518.69
924.677	588.83
924.849	503.58
925.02	530.9
925.192	555.31
925.363	541.17
925.535	546.79
925.706	554.92
925.877	578.56
926.049	500.09
926.22	504.16
926.391	526.25
926.562	562.29
926.734	497.38
926.905	530.9
927.076	471.81
927.247	494.48
927.419	463.28
927.59	443.71
927.761	456.11
927.932	430.34
928.103	448.56
928.274	410.2
928.445	410.39
928.616	416.01
928.787	434.22
928.958	471.81
929.129	446.43
929.3	402.25
929.471	354.2
929.642	284.65
929.813	282.32
929.984	389.85
930.155	277.48
930.326	338.51
930.496	256.75
930.667	219.74
930.838	302.08
931.009	225.36
931.18	255.2
931.35	234.27
931.521	251.52
931.692	202.69
931.863	144.76
932.033	223.04
932.204	213.74
932.374	210.83
932.545	131.01
932.716	192.42
932.886	214.9
933.057	118.02
933.227	135.07
933.398	223.42
933.568	135.85
933.739	67.84
933.909	96.32
934.08	151.93
934.25	63.78
934.421	63.58
934.591	123.64
934.761	87.99
934.932	54.09
935.102	128.68
935.272	107.95
935.443	107.95
935.613	96.52
935.783	101.36
935.953	69.98
936.123	237.37
936.294	66.1
936.464	60.87
936.634	85.86
936.804	27.35
936.974	33.36
937.144	96.91
937.314	95.74
937.484	63.39
937.655	44.98
937.825	137.01
937.995	68.43
938.165	119.96
938.334	86.83
938.504	95.94
938.674	106.79
938.844	117.44
939.014	157.94
939.184	170.14
939.354	242.6
939.524	206.95
939.694	156.58
939.863	153.67
940.033	223.23
940.203	229.24
940.373	196.88
940.542	200.37
940.712	168.59
940.882	192.42
941.051	178.86
941.221	185.06
941.391	198.43
941.56	163.75
941.73	131.78
941.899	256.75
942.069	130.42
942.238	168.2
942.408	134.11
942.577	192.62
942.747	147.28
942.916	92.45
943.086	91.09
943.255	165.3
943.425	168.2
943.594	112.99
943.763	60.48
943.933	86.64
944.102	56.03
944.271	136.04
944.441	126.55
944.61	101.36
944.779	125.77
944.948	233.5
945.117	80.05
945.287	105.43
945.456	42.46
945.625	83.54
945.794	140.31
945.963	86.44
946.132	122.29
946.301	98.65
946.47	136.43
946.639	59.9
946.808	107.76
946.977	147.86
947.146	203.27
947.315	117.25
947.484	147.47
947.653	119.96
947.822	120.54
947.991	118.61
948.16	230.59
948.329	166.65
948.498	113.76
948.666	129.46
948.835	170.92
949.004	91.29
949.173	96.13
949.341	136.82
949.51	142.24
949.679	174.21
949.847	131.39
950.016	197.46
950.185	177.5
950.353	51.18
950.522	126.16
950.69	175.76
950.859	129.07
951.028	176.54
951.196	136.04
951.365	105.82
951.533	131.59
951.701	150.96
951.87	144.76
952.038	77.53
952.207	125.77
952.375	187.58
952.543	91.87
952.712	116.67
952.88	106.59
953.048	167.04
953.217	127.71
953.385	132.75
953.553	191.45
953.721	97.1
953.89	117.25
954.058	56.61
954.226	89.54
954.394	123.84
954.562	51.57
954.73	101.17
954.898	127.71
955.067	154.64
955.235	96.13
955.403	150.57
955.571	192.04
955.739	158.71
955.907	101.17
956.075	87.02
956.243	86.83
956.41	128.49
956.578	85.28
956.746	53.12
956.914	109.89
957.082	154.84
957.25	148.06
957.418	96.52
957.585	102.72
957.753	156.97
957.921	76.17
958.089	107.37
958.256	141.47
958.424	142.63
958.592	110.08
958.759	102.33
958.927	146.89
959.095	113.18
959.262	130.81
959.43	115.7
959.597	85.09
959.765	106.98
959.932	71.14
960.1	161.42
960.267	103.69
960.435	109.69
960.602	138.37
960.77	90.12
960.937	64.74
961.104	111.44
961.272	59.13
961.439	103.49
961.606	141.27
961.774	159.68
961.941	92.26
962.108	139.72
962.275	159.68
962.443	149.61
962.61	148.44
962.777	196.49
962.944	159.87
963.111	128.87
963.278	138.17
963.446	152.51
963.613	146.89
963.78	130.23
963.947	134.69
964.114	109.5
964.281	231.95
964.448	149.99
964.615	101.17
964.782	143.6
964.949	155.81
965.116	175.95
965.282	155.03
965.449	116.47
965.616	113.57
965.783	165.1
965.95	141.08
966.117	87.61
966.283	120.35
966.45	127.13
966.617	163.36
966.784	198.24
966.95	152.51
967.117	160.84
967.284	121.9
967.45	101.36
967.617	209.28
967.784	168.79
967.95	193.97
968.117	123.45
968.283	177.31
968.45	256.55
968.616	158.91
968.783	185.64
968.949	170.34
969.116	194.36
969.282	127.13
969.449	177.12
969.615	173.05
969.781	105.43
969.948	126.55
970.114	102.72
970.28	219.94
970.447	144.96
970.613	195.14
970.779	164.14
970.945	170.14
971.112	175.95
971.278	117.06
971.444	136.82
971.61	173.63
971.776	139.34
971.942	161.62
972.108	156
972.275	139.72
972.441	155.61
972.607	241.25
972.773	133.52
972.939	149.99
973.105	179.64
973.271	109.69
973.437	143.41
973.602	94.39
973.768	158.71
973.934	158.32
974.1	136.24
974.266	50.99
974.432	149.61
974.598	127.91
974.763	163.36
974.929	132.75
975.095	192.23
975.261	95.36
975.426	78.5
975.592	141.08
975.758	197.85
975.923	80.24
976.089	101.75
976.255	171.3
976.42	153.09
976.586	154.06
976.751	151.93
976.917	224.59
977.082	144.18
977.248	94.58
977.413	50.21
977.579	116.47
977.744	133.72
977.91	88.77
978.075	87.41
978.24	146.31
978.406	114.73
978.571	98.26
978.736	114.73
978.902	174.6
979.067	91.87
979.232	55.06
979.397	116.47
979.563	202.89
979.728	85.09
979.893	132.36
980.058	96.52
980.223	122.48
980.388	115.89
980.554	112.99
980.719	109.11
980.884	117.06
981.049	150.38
981.214	111.44
981.379	131.39
981.544	113.76
981.709	123.64
981.874	125.77
982.039	116.28
982.204	126.74
982.368	130.04
982.533	128.87
982.698	150.96
982.863	152.71
983.028	95.36
983.193	136.62
983.357	106.4
983.522	134.88
983.687	111.44
983.852	81.21
984.016	82.37
984.181	116.86
984.346	172.66
984.51	137.59
984.675	105.24
984.839	148.44
985.004	140.31
985.168	155.22
985.333	103.3
985.498	87.41
985.662	157.16
985.827	147.28
985.991	106.98
986.155	117.25
986.32	135.85
986.484	200.56
986.649	134.3
986.813	31.81
986.977	125.77
987.142	120.93
987.306	73.27
987.47	82.57
987.634	119.57
987.799	133.72
987.963	132.94
988.127	133.91
988.291	180.99
988.455	126.55
988.62	118.61
988.784	116.67
988.948	140.11
989.112	63
989.276	137.21
989.44	125.77
989.604	75.79
989.768	75.21
989.932	202.11
990.096	61.06
990.26	68.62
990.424	51.38
990.588	91.87
990.752	160.65
990.915	144.96
991.079	73.85
991.243	56.41
991.407	148.06
991.571	105.43
991.734	114.73
991.898	124.03
992.062	209.86
992.226	95.16
992.389	74.43
992.553	60.87
992.717	89.35
992.88	86.44
993.044	90.32
993.207	100.01
993.371	121.32
993.535	165.1
993.698	116.28
993.862	139.92
994.025	147.28
994.189	124.61
994.352	123.45
994.515	87.8
994.679	152.12
994.842	96.52
995.006	128.68
995.169	68.04
995.332	85.86
995.496	120.54
995.659	43.63
995.822	81.6
995.985	89.54
996.149	157.55
996.312	68.23
996.475	171.69
996.638	68.62
996.801	148.25
996.964	151.16
997.128	72.11
997.291	72.11
997.454	106.21
997.617	45.37
997.78	137.01
997.943	38.98
998.106	123.06
998.269	93.81
998.432	95.55
998.595	102.52
998.758	38.01
998.92	88.19
999.083	42.27
999.246	86.06
999.409	52.34
999.572	23.28
999.735	65.13
999.897	100.59
1000.06	81.79
1000.223	82.37
1000.386	106.4
1000.548	113.96
1000.711	88.38
1000.874	87.41
1001.036	45.76
1001.199	114.73
1001.361	73.07
1001.524	94.77
1001.687	97.87
1001.849	52.93
1002.012	93.03
1002.174	101.56
1002.337	89.93
1002.499	50.41
1002.661	103.3
1002.824	43.04
1002.986	37.04
1003.149	79.08
1003.311	33.74
1003.473	136.62
1003.636	67.46
1003.798	87.02
1003.96	104.66
1004.123	46.14
1004.285	45.56
1004.447	79.86
1004.609	83.34
1004.771	146.12
1004.933	6.62
1005.096	30.06
1005.258	1.78
1005.42	41.49
1005.582	106.79
1005.744	71.14
1005.906	31.23
1006.068	65.91
1006.23	-10.62
1006.392	-8.88
1006.554	26.96
1006.716	107.95
1006.878	94.19
1007.04	16.69
1007.202	43.82
1007.363	76.95
1007.525	88.19
1007.687	100.01
1007.849	113.96
1008.011	19.02
1008.172	32.97
1008.334	35.49
1008.496	70.94
1008.658	-11.01
1008.819	14.95
1008.981	7.01
1009.143	33.74
1009.304	26.38
1009.466	70.75
1009.627	114.54
1009.789	149.61
1009.95	80.44
1010.112	32
1010.273	62.81
1010.435	48.47
1010.596	58.35
1010.758	54.09
1010.919	19.6
1011.081	16.5
1011.242	50.41
1011.403	56.03
1011.565	40.91
1011.726	62.81
1011.887	32
1012.049	47.69
1012.21	79.27
1012.371	113.18
1012.532	-15.85
1012.693	54.48
1012.855	47.5
1013.016	48.28
1013.177	78.5
1013.338	46.53
1013.499	112.02
1013.66	76.37
1013.821	100.01
1013.982	49.44
1014.143	28.71
1014.304	24.64
1014.465	85.86
1014.626	76.76
1014.787	51.38
1014.948	149.61
1015.109	-44.53
1015.27	107.76
1015.431	33.74
1015.592	10.69
1015.752	92.06
1015.913	47.5
1016.074	59.32
1016.235	59.32
1016.395	35.88
1016.556	48.28
1016.717	64.74
1016.877	65.33
1017.038	7.59
1017.199	77.72
1017.359	36.46
1017.52	46.73
1017.681	29.87
1017.841	37.81
1018.002	51.57
1018.162	15.14
1018.323	58.16
1018.483	27.74
1018.644	31.42
1018.804	-20.31
1018.964	12.82
1019.125	-2.1
1019.285	35.49
1019.446	-0.94
1019.606	-19.92
1019.766	-37.75
1019.926	61.26
1020.087	46.34
1020.247	-42.98
1020.407	20.57
1020.567	74.43
1020.728	27.74
1020.888	-4.04
1021.048	21.34
1021.208	6.04
1021.368	19.6
1021.528	85.09
1021.688	72.11
1021.848	81.6
1022.008	42.85
1022.168	57.38
1022.328	50.99
1022.488	38.2
1022.648	23.86
1022.808	42.66
1022.968	49.05
1023.128	-11.21
1023.288	-2.29
1023.448	47.11
1023.608	70.56
1023.767	57.96
1023.927	13.21
1024.087	-0.55
1024.247	-37.36
1024.406	8.36
1024.566	-20.12
1024.726	5.46
1024.885	23.67
1025.045	50.99
1025.205	24.25
1025.364	25.22
1025.524	32.58
1025.683	19.79
1025.843	38.01
1026.003	33.36
1026.162	98.26
1026.321	92.45
1026.481	22.51
1026.64	27.74
1026.8	33.74
1026.959	37.23
1027.119	29.09
1027.278	4.88
1027.437	22.31
1027.597	23.48
1027.756	27.16
1027.915	43.63
1028.074	98.26
1028.234	-16.82
1028.393	23.86
1028.552	-3.26
1028.711	-38.14
1028.87	91.87
1029.03	18.83
1029.189	17.28
1029.348	-34.45
1029.507	21.73
1029.666	-5.2
1029.825	-31.16
1029.984	14.76
1030.143	37.62
1030.302	21.15
1030.461	-17.4
1030.62	32.39
1030.779	49.05
1030.938	-6.75
1031.097	-40.85
1031.255	55.25
1031.414	82.57
1031.573	77.92
1031.732	-47.82
1031.891	4.29
1032.049	69.39
1032.208	30.26
1032.367	-14.11
1032.525	18.24
1032.684	6.23
1032.843	38.39
1033.001	-31.55
1033.16	166.27
1033.319	48.28
1033.477	32.19
1033.636	-2.49
1033.794	-17.4
1033.953	44.98
1034.111	71.53
1034.27	-6.17
1034.428	27.35
1034.587	1.58
1034.745	24.44
1034.903	29.29
1035.062	61.06
1035.22	-26.32
1035.378	33.36
1035.537	-9.27
1035.695	42.85
1035.853	3.71
1036.011	55.06
1036.17	39.94
1036.328	-66.81
1036.486	3.33
1036.644	12.82
1036.802	-62.55
1036.96	1
1037.119	4.49
1037.277	-22.25
1037.435	-36.39
1037.593	-29.03
1037.751	-10.04
1037.909	16.11
1038.067	16.11
