Data from gum_old_FLMT105791__72__15-44-00-257.txt Node

Date: Mon Mar 20 15:44:00 GMT 2023
User: antho
Spectrometer: FLMT10579
Trigger mode: 0
Integration Time (sec): 1.000000E-1
Scans to average: 10
Electric dark correction enabled: true
Nonlinearity correction enabled: false
Boxcar width: 0
XAxis mode: Wavelengths
Number of Pixels in Spectrum: 3648
>>>>>Begin Spectral Data<<<<<
345.248	-182.28
345.464	-182.28
345.681	-182.28
345.898	-166.4
346.114	-179.57
346.331	-55.38
346.548	21.73
346.764	-13.34
346.981	-17.99
347.197	-9.27
347.414	26.58
347.631	-14.89
347.847	52.93
348.064	30.84
348.28	27.35
348.497	-54.8
348.713	6.23
348.93	7.39
349.146	-5.01
349.363	11.46
349.579	27.16
349.796	-0.74
350.012	21.34
350.229	66.68
350.445	39.75
350.661	-22.05
350.878	8.94
351.094	46.53
351.311	25.22
351.527	35.88
351.743	5.46
351.96	33.55
352.176	26.58
352.392	56.03
352.609	29.48
352.825	6.43
353.041	22.31
353.257	12.63
353.474	23.67
353.69	16.69
353.906	27.54
354.122	4.68
354.339	78.89
354.555	8.36
354.771	11.66
354.987	79.66
355.203	69.78
355.42	18.05
355.636	-4.04
355.852	12.82
356.068	37.04
356.284	-22.44
356.5	88.19
356.716	54.28
356.932	13.4
357.148	58.54
357.364	38.78
357.58	54.48
357.796	91.67
358.012	62.81
358.228	44.59
358.444	-22.44
358.66	82.18
358.876	54.48
359.092	10.49
359.308	29.48
359.524	49.83
359.74	16.11
359.956	10.11
360.172	27.93
360.388	40.14
360.604	13.79
360.819	122.29
361.035	40.72
361.251	54.67
361.467	20.57
361.683	65.52
361.898	68.23
362.114	83.15
362.33	63.39
362.546	54.67
362.762	48.66
362.977	63.19
363.193	-4.62
363.409	76.95
363.624	-6.56
363.84	19.6
364.056	18.44
364.271	61.84
364.487	76.76
364.703	27.74
364.918	11.27
365.134	16.89
365.35	38.01
365.565	153.09
365.781	52.73
365.996	93.81
366.212	117.06
366.427	64.94
366.643	41.3
366.858	52.73
367.074	19.02
367.289	104.85
367.505	169.17
367.72	-0.36
367.936	65.33
368.151	100.2
368.367	83.54
368.582	63.19
368.798	32.78
369.013	103.88
369.228	57.77
369.444	58.35
369.659	108.92
369.874	69.39
370.09	112.79
370.305	4.49
370.52	51.96
370.736	121.12
370.951	52.54
371.166	119.77
371.381	125.58
371.597	85.47
371.812	26.38
372.027	26.58
372.242	55.06
372.458	126.94
372.673	56.8
372.888	80.82
373.103	81.02
373.318	177.89
373.533	82.76
373.749	87.22
373.964	8.36
374.179	103.3
374.394	37.81
374.609	117.25
374.824	19.79
375.039	107.76
375.254	14.95
375.469	123.26
375.684	61.84
375.899	77.34
376.114	74.82
376.329	52.54
376.544	109.89
376.759	110.08
376.974	41.11
377.189	53.51
377.404	36.65
377.619	121.71
377.834	31.42
378.049	49.63
378.264	66.49
378.478	92.45
378.693	55.06
378.908	104.07
379.123	28.32
379.338	140.5
379.553	81.41
379.767	90.32
379.982	88.19
380.197	78.5
380.412	63.58
380.626	119.57
380.841	174.21
381.056	104.07
381.271	170.34
381.485	49.83
381.7	40.72
381.915	127.91
382.129	71.33
382.344	84.31
382.559	73.85
382.773	137.59
382.988	31.03
383.202	81.41
383.417	78.11
383.632	151.74
383.846	50.41
384.061	69.39
384.275	65.52
384.49	109.11
384.704	119.96
384.919	105.43
385.133	91.67
385.348	138.56
385.562	40.14
385.777	146.51
385.991	124.22
386.206	90.51
386.42	92.26
386.634	134.11
386.849	103.49
387.063	105.04
387.277	72.49
387.492	81.6
387.706	47.69
387.92	70.56
388.135	124.81
388.349	134.88
388.563	97.1
388.778	120.16
388.992	134.49
389.206	135.66
389.42	187.97
389.635	98.26
389.849	138.17
390.063	153.29
390.277	138.37
390.491	182.54
390.706	122.29
390.92	162.97
391.134	110.66
391.348	164.33
391.562	105.82
391.776	141.66
391.99	136.24
392.205	203.08
392.419	142.82
392.633	123.06
392.847	172.08
393.061	113.37
393.275	178.28
393.489	104.07
393.703	90.12
393.917	103.49
394.131	68.04
394.345	94.97
394.559	102.72
394.773	102.72
394.986	168.98
395.2	132.56
395.414	174.21
395.628	110.86
395.842	167.43
396.056	167.82
396.27	105.43
396.484	172.27
396.697	155.42
396.911	184.29
397.125	94.39
397.339	149.8
397.553	126.16
397.766	193.59
397.98	151.54
398.194	165.49
398.408	188.94
398.621	189.71
398.835	212.19
399.049	222.84
399.262	257.52
399.476	246.87
399.69	234.27
399.903	305.57
400.117	215.09
400.331	263.72
400.544	204.44
400.758	342.96
400.971	249
401.185	279.8
401.398	186.61
401.612	301.5
401.826	273.8
402.039	272.44
402.253	248.22
402.466	269.53
402.68	249.19
402.893	271.28
403.106	274.57
403.32	253.07
403.533	305.77
403.747	265.47
403.96	259.85
404.174	295.69
404.387	217.42
404.6	247.06
404.814	305.96
405.027	247.06
405.24	242.02
405.454	259.07
405.667	334.25
405.88	203.08
406.094	293.75
406.307	319.72
406.52	268.57
406.733	245.7
406.947	213.54
407.16	330.76
407.373	335.41
407.586	258.88
407.799	232.34
408.012	317.58
408.226	289.3
408.439	368.54
408.652	253.07
408.865	309.45
409.078	371.45
409.291	316.81
409.504	292.98
409.717	320.88
409.93	343.16
410.143	307.51
410.357	257.52
410.57	248.8
410.783	275.54
410.996	277.48
411.209	315.26
411.421	367.96
411.634	323.4
411.847	312.74
412.06	342.19
412.273	343.93
412.486	330.37
412.699	418.33
412.912	329.02
413.125	373.58
413.338	322.04
413.55	372.61
413.763	301.5
413.976	360.01
414.189	326.3
414.402	320.1
414.615	406.32
414.827	316.23
415.04	389.85
415.253	381.33
415.466	365.83
415.678	424.73
415.891	351.49
416.104	330.18
416.316	378.61
416.529	320.88
416.742	408.06
416.954	422.98
417.167	357.3
417.38	359.24
417.592	378.23
417.805	330.95
418.017	321.27
418.23	391.4
418.442	320.3
418.655	330.37
418.868	361.18
419.08	405.16
419.293	370.86
419.505	382.68
419.718	394.7
419.93	403.41
420.142	362.15
420.355	404.38
420.567	433.83
420.78	369.51
420.992	378.03
421.205	422.98
421.417	355.17
421.629	375.51
421.842	345.48
422.054	335.41
422.266	427.83
422.479	474.13
422.691	357.5
422.903	430.73
423.115	352.65
423.328	372.41
423.54	393.92
423.752	379.97
423.964	363.5
424.177	399.93
424.389	375.32
424.601	517.14
424.813	425.69
425.025	432.67
425.238	451.85
425.45	401.67
425.662	389.27
425.874	724.07
426.086	431.89
426.298	409.61
426.51	436.93
426.722	386.56
426.934	420.66
427.146	413.3
427.358	393.92
427.57	430.54
427.782	390.24
427.994	368.54
428.206	373.38
428.418	377.06
428.63	452.43
428.842	482.08
429.054	394.7
429.266	429.76
429.478	407.68
429.69	396.63
429.902	363.11
430.114	414.46
430.325	388.11
430.537	348.39
430.749	352.07
430.961	275.54
431.173	347.03
431.384	369.51
431.596	268.95
431.808	336.57
432.02	404
432.231	451.85
432.443	505.71
432.655	474.71
432.867	460.38
433.078	490.41
433.29	516.95
433.502	494.09
433.713	518.89
433.925	532.45
434.136	515.98
434.348	400.12
434.56	409.81
434.771	537.1
434.983	383.46
435.194	457.86
435.406	484.59
435.617	506.49
435.829	562.29
436.04	535.36
436.252	516.76
436.463	572.17
436.675	578.76
436.886	568.68
437.098	563.84
437.309	602.2
437.521	568.68
437.732	579.34
437.943	533.81
438.155	545.43
438.366	485.56
438.578	592.32
438.789	550.66
439	540.2
439.211	509.97
439.423	495.25
439.634	531.48
439.845	550.08
440.057	535.16
440.268	584.76
440.479	555.31
440.69	560.93
440.902	547.95
441.113	555.7
441.324	542.33
441.535	595.81
441.746	646.37
441.957	538.26
442.168	569.07
442.38	581.47
442.591	627.39
442.802	558.61
443.013	615.95
443.224	641.53
443.435	603.75
443.646	583.79
443.857	608.01
444.068	597.35
444.279	600.26
444.49	699.07
444.701	626.42
444.912	729.3
445.123	655.67
445.334	648.31
445.545	658.97
445.756	630.68
445.967	606.65
446.178	627
446.388	607.04
446.599	630.1
446.81	636.88
447.021	596.39
447.232	677.57
447.443	688.42
447.653	631.84
447.864	697.52
448.075	665.36
448.286	689.97
448.496	690.16
448.707	693.26
448.918	618.09
449.129	731.43
449.339	649.28
449.55	653.93
449.761	663.62
449.971	697.91
450.182	668.46
450.393	704.88
450.603	649.86
450.814	732.4
451.024	710.5
451.235	742.08
451.446	780.06
451.656	788.97
451.867	680.09
452.077	746.15
452.288	787.42
452.498	771.53
452.709	687.83
452.919	722.52
453.13	692.68
453.34	713.6
453.55	649.47
453.761	699.85
453.971	693.26
454.182	699.46
454.392	688.42
454.602	755.65
454.813	745.57
455.023	709.92
455.233	681.05
455.444	710.5
455.654	635.52
455.864	734.92
456.075	690.74
456.285	701.01
456.495	723.68
456.705	747.51
456.916	758.17
457.126	797.3
457.336	739.76
457.546	680.09
457.756	718.83
457.967	815.32
458.177	713.8
458.387	744.41
458.597	689
458.807	726.78
459.017	682.8
459.227	702.37
459.437	717.09
459.647	762.23
459.857	757.58
460.068	729.3
460.278	794.59
460.488	744.99
460.698	806.6
460.908	759.72
461.117	713.99
461.327	734.72
461.537	753.32
461.747	771.73
461.957	776.76
462.167	918.39
462.377	837.02
462.587	791.49
462.797	827.91
463.007	811.64
463.216	823.65
463.426	825.01
463.636	861.24
463.846	750.22
464.056	778.31
464.265	831.4
464.475	780.83
464.685	780.45
464.895	833.92
465.104	770.76
465.314	847.1
465.524	781.41
465.733	768.24
465.943	864.14
466.153	869.57
466.362	840.7
466.572	831.6
466.782	820.55
466.991	828.5
467.201	906.19
467.41	763.01
467.62	820.36
467.829	800.01
468.039	829.27
468.249	824.81
468.458	827.33
468.668	886.23
468.877	849.23
469.086	933.31
469.296	933.12
469.505	859.11
469.715	959.66
469.924	883.33
470.134	932.73
470.343	925.37
470.552	860.46
470.762	869.57
470.971	856.2
471.18	882.55
471.39	892.82
471.599	845.16
471.808	912.58
472.018	892.43
472.227	975.94
472.436	996.47
472.645	962.76
472.855	911.03
473.064	1009.84
473.273	957.72
473.482	1001.9
473.691	1000.54
473.901	1016.62
474.11	967.22
474.319	1051.11
474.528	988.14
474.737	1043.75
474.946	1012.94
475.155	1015.85
475.364	1086.76
475.573	1022.24
475.783	1063.51
475.992	1067.39
476.201	1090.05
476.41	1030.38
476.619	996.09
476.828	1037.74
477.037	1059.44
477.245	1044.33
477.454	1074.94
477.663	1064.09
477.872	1066.61
478.081	1153.22
478.29	1034.06
478.499	1227.03
478.708	1164.07
478.917	1186.54
479.125	1103.23
479.334	1145.08
479.543	1128.42
479.752	1181.89
479.961	1174.33
480.169	1209.6
480.378	1210.76
480.587	1306.08
480.796	1219.28
481.004	1203.59
481.213	1281.67
481.422	1254.16
481.63	1256.87
481.839	1236.91
482.048	1326.23
482.256	1250.28
482.465	1343.48
482.674	1310.73
482.882	1325.26
483.091	1377.38
483.299	1302.59
483.508	1348.13
483.716	1339.6
483.925	1351.81
484.134	1266.95
484.342	1320.03
484.551	1371.38
484.759	1339.6
484.967	1356.26
485.176	1387.46
485.384	1377.77
485.593	1402.37
485.801	1367.69
486.01	1323.52
486.218	1258.61
486.426	1166.39
486.635	1155.35
486.843	1158.06
487.051	1198.75
487.26	1187.9
487.468	1279.15
487.676	1303.95
487.885	1279.35
488.093	1345.99
488.301	1406.25
488.509	1382.42
488.717	1467.09
488.926	1400.44
489.134	1384.55
489.342	1391.14
489.55	1365.18
489.758	1440.74
489.967	1398.89
490.175	1536.25
490.383	1463.79
490.591	1588.57
490.799	1480.07
491.007	1544.59
491.215	1531.6
491.423	1512.81
491.631	1529.09
491.839	1493.24
492.047	1524.05
492.255	1458.95
492.463	1440.54
492.671	1449.65
492.879	1516.49
493.087	1489.37
493.295	1493.82
493.503	1546.72
493.711	1584.11
493.919	1583.14
494.127	1569.58
494.334	1609.49
494.542	1540.52
494.75	1563.96
494.958	1565.12
495.166	1672.46
495.374	1633.13
495.581	1655.8
495.789	1653.66
495.997	1681.76
496.205	1575.39
496.412	1585.47
496.62	1605.62
496.828	1619.18
497.035	1623.44
497.243	1643.98
497.451	1620.15
497.658	1621.89
497.866	1645.91
498.074	1705.59
498.281	1620.15
498.489	1703.46
498.696	1626.93
498.904	1620.92
499.112	1573.45
499.319	1712.76
499.527	1646.88
499.734	1668.97
499.942	1626.73
500.149	1614.14
500.357	1652.7
500.564	1603.48
500.771	1593.8
500.979	1584.69
501.186	1581.01
501.394	1612.98
501.601	1588.18
501.808	1636.62
502.016	1604.65
502.223	1602.52
502.43	1588.57
502.638	1575.2
502.845	1621.31
503.052	1702.68
503.26	1628.87
503.467	1703.65
503.674	1680.6
503.881	1669.36
504.089	1738.53
504.296	1710.43
504.503	1603.29
504.71	1639.52
504.917	1614.53
505.125	1682.73
505.332	1683.31
505.539	1697.65
505.746	1767.98
505.953	1767.78
506.16	1726.51
506.367	1813.89
506.574	1796.46
506.781	1770.3
506.988	1742.01
507.195	1759.45
507.402	1748.41
507.609	1775.14
507.816	1725.55
508.023	1725.16
508.23	1702.1
508.437	1679.82
508.644	1745.5
508.851	1795.1
509.058	1756.16
509.265	1754.99
509.472	1779.41
509.679	1890.42
509.885	1807.11
510.092	1803.04
510.299	1812.93
510.506	1793.94
510.713	1785.22
510.92	1763.52
511.126	1813.7
511.333	1813.7
511.54	1844.12
511.746	1878.99
511.953	1876.28
512.16	1890.23
512.367	1830.17
512.573	1821.45
512.78	1866.59
512.987	1833.85
513.193	1796.07
513.4	1745.5
513.606	1778.44
513.813	1837.92
514.02	1772.04
514.226	1868.53
514.433	1874.73
514.639	1743.95
514.846	1800.53
515.052	1785.41
515.259	1812.93
515.465	1817.38
515.672	1852.84
515.878	1904.96
516.085	1864.85
516.291	1916.58
516.497	1863.49
516.704	1860.2
516.91	1776.11
517.117	1736.39
517.323	1656.76
517.529	1670.91
517.736	1710.05
517.942	1674.78
518.148	1682.73
518.354	1758.29
518.561	1699.2
518.767	1734.46
518.973	1814.86
519.179	1795.29
519.386	1766.62
519.592	1772.04
519.798	1771.85
520.004	1914.64
520.21	1872.21
520.417	1926.65
520.623	1942.93
520.829	1960.75
521.035	1992.34
521.241	1950.87
521.447	1987.88
521.653	2114.4
521.859	1948.55
522.065	1968.5
522.271	2115.95
522.477	2033.6
522.683	2104.13
522.889	2031.67
523.095	2029.15
523.301	2039.03
523.507	1983.42
523.713	2019.85
523.919	1952.42
524.125	2093.66
524.331	2063.44
524.537	2110.13
524.742	2137.45
524.948	2189.76
525.154	2158.57
525.36	2260.67
525.566	2125.83
525.772	2198.68
525.977	2103.55
526.183	2160.9
526.389	2210.49
526.595	2122.53
526.8	2128.35
527.006	2045.23
527.212	1969.86
527.417	1923.94
527.623	1954.55
527.829	2040
528.034	2063.44
528.24	2060.92
528.446	2061.89
528.651	2195.19
528.857	2136.29
529.062	2231.81
529.268	2193.06
529.473	2244.21
529.679	2225.22
529.884	2322.48
530.09	2294.58
530.295	2289.35
530.501	2279.66
530.706	2304.46
530.912	2249.83
531.117	2272.11
531.323	2300.78
531.528	2323.84
531.733	2313.96
531.939	2300.2
532.144	2326.74
532.35	2335.66
532.555	2340.31
532.76	2329.26
532.966	2290.9
533.171	2262.03
533.376	2198.29
533.581	2170.78
533.787	2250.21
533.992	2283.54
534.197	2311.24
534.402	2282.57
534.607	2287.99
534.813	2398.62
535.018	2316.47
535.223	2331.2
535.428	2327.91
535.633	2403.66
535.838	2403.66
536.043	2388.35
536.249	2510.03
536.454	2369.56
536.659	2445.9
536.864	2411.6
537.069	2377.31
537.274	2390.1
537.479	2362.97
537.684	2329.07
537.889	2313.96
538.094	2482.52
538.299	2379.64
538.504	2395.72
538.708	2400.95
538.913	2479.22
539.118	2407.54
539.323	2414.51
539.528	2373.05
539.733	2406.37
539.938	2395.91
540.142	2402.3
540.347	2415.09
540.552	2325.58
540.757	2327.71
540.962	2338.76
541.166	2298.65
541.371	2287.22
541.576	2331.78
541.781	2228.71
541.985	2378.09
542.19	2372.27
542.395	2464.5
542.599	2473.8
542.804	2429.62
543.008	2492.59
543.213	2385.06
543.418	2382.93
543.622	2444.73
543.827	2355.8
544.031	2462.75
544.236	2462.37
544.44	2446.48
544.645	2524.56
544.849	2438.15
545.054	2433.5
545.258	2527.66
545.463	2496.08
545.667	2437.37
545.872	2492.01
546.076	2466.24
546.281	2453.26
546.485	2445.9
546.689	2483.87
546.894	2458.68
547.098	2508.09
547.302	2424.78
547.507	2463.33
547.711	2469.73
547.915	2534.63
548.119	2446.28
548.324	2416.84
548.528	2496.47
548.732	2449.77
548.936	2492.2
549.141	2540.83
549.345	2484.65
549.549	2463.72
549.753	2503.05
549.957	2613.29
550.161	2563.5
550.366	2520.88
550.57	2477.48
550.774	2519.71
550.978	2468.95
551.182	2516.42
551.386	2462.75
551.59	2440.86
551.794	2517.2
551.998	2523.59
552.202	2464.69
552.406	2498.6
552.61	2524.75
552.814	2499.76
553.018	2550.13
553.222	2487.94
553.426	2471.86
553.63	2581.13
553.833	2478.64
554.037	2397.46
554.241	2481.93
554.445	2505.38
554.649	2505.57
554.853	2484.84
555.056	2541.61
555.26	2560.4
555.464	2522.81
555.668	2524.17
555.871	2511.97
556.075	2531.53
556.279	2479.03
556.483	2466.63
556.686	2456.75
556.89	2467.79
557.094	2460.04
557.297	2386.61
557.501	2463.53
557.704	2377.5
557.908	2442.99
558.112	2360.84
558.315	2486.39
558.519	2390.68
558.722	2434.08
558.926	2392.62
559.129	2311.24
559.333	2314.54
559.536	2354.45
559.74	2326.16
559.943	2293.42
560.147	2287.99
560.35	2294.97
560.553	2324.22
560.757	2247.89
560.96	2430.2
561.164	2339.14
561.367	2422.84
561.57	2380.99
561.774	2342.63
561.977	2355.42
562.18	2312.41
562.384	2414.51
562.587	2374.79
562.79	2325.58
562.993	2332.17
563.197	2373.63
563.4	2389.13
563.603	2334.88
563.806	2425.36
564.009	2319.96
564.212	2373.05
564.416	2286.64
564.619	2341.66
564.822	2261.45
565.025	2347.09
565.228	2286.25
565.431	2329.84
565.634	2199.45
565.837	2253.7
566.04	2263.58
566.243	2247.31
566.446	2131.06
566.649	2255.44
566.852	2164.96
567.055	2232.97
567.258	2225.22
567.461	2295.16
567.664	2312.41
567.867	2192.28
568.07	2256.99
568.273	2235.49
568.475	2309.89
568.678	2206.04
568.881	2198.48
569.084	2177.56
569.287	2104.32
569.489	2134.16
569.692	2195.38
569.895	2185.5
570.098	2123.31
570.3	2104.32
570.503	2081.46
570.706	2071.97
570.909	2066.93
571.111	2009.77
571.314	2011.9
571.516	2063.63
571.719	2042.32
571.922	2018.68
572.124	2027.98
572.327	2079.52
572.529	2010.35
572.732	2045.62
572.935	2091.73
573.137	2147.14
573.34	2072.74
573.542	2105.68
573.745	2105.68
573.947	2060.53
574.15	2020.62
574.352	2000.28
574.554	2152.76
574.757	2003.96
574.959	1971.6
575.162	1977.8
575.364	1989.04
575.566	2095.41
575.769	1956.3
575.971	2014.62
576.173	1917.55
576.376	1997.57
576.578	2013.65
576.78	2043.1
576.982	1890.23
577.185	1942.93
577.387	1932.08
577.589	1901.66
577.791	1978
577.993	1981.87
578.196	1959.79
578.398	1963.47
578.6	1959.98
578.802	1881.51
579.004	1864.85
579.206	1876.86
579.408	1933.44
579.61	1864.66
579.812	1942.93
580.014	1878.22
580.216	1904.96
580.418	1900.89
580.62	1887.71
580.822	1877.06
581.024	1921.23
581.226	1949.71
581.428	1909.8
581.63	1962.3
581.832	1919.29
582.034	1956.1
582.236	1923.17
582.438	1966.18
582.64	1955.91
582.841	1994.47
583.043	2018.1
583.245	1926.07
583.447	1973.54
583.649	1947.58
583.85	1959.4
584.052	1956.88
584.254	1901.47
584.456	1954.55
584.657	1885.39
584.859	1954.94
585.061	1873.96
585.262	1874.92
585.464	1839.08
585.666	1916
585.867	1861.17
586.069	1945.84
586.27	1891.78
586.472	1895.66
586.674	1835.01
586.875	1837.72
587.077	1824.36
587.278	1864.07
587.48	1851.29
587.681	1964.05
587.883	1864.85
588.084	1806.34
588.285	1828.42
588.487	1841.21
588.688	1847.02
588.89	1761.19
589.091	1726.71
589.292	1759.84
589.494	1694.35
589.695	1640.1
589.896	1588.95
590.098	1574.42
590.299	1663.55
590.5	1607.75
590.702	1677.5
590.903	1694.74
591.104	1751.31
591.305	1713.92
591.507	1769.14
591.708	1745.5
591.909	1748.21
592.11	1821.26
592.311	1738.91
592.512	1740.46
592.714	1677.3
592.915	1721.86
593.116	1713.34
593.317	1732.13
593.518	1762.36
593.719	1742.01
593.92	1746.86
594.121	1819.71
594.322	1713.73
594.523	1739.88
594.724	1723.22
594.925	1732.52
595.126	1740.46
595.327	1779.02
595.528	1732.13
595.729	1760.61
595.929	1723.8
596.13	1715.28
596.331	1756.54
596.532	1732.52
596.733	1814.48
596.934	1792.39
597.135	1772.82
597.335	1784.64
597.536	1723.8
597.737	1747.63
597.938	1692.22
598.138	1766.81
598.339	1717.6
598.54	1731.55
598.74	1703.26
598.941	1736.2
599.142	1778.44
599.342	1711.98
599.543	1663.16
599.744	1687.38
599.944	1717.6
600.145	1693.19
600.345	1713.92
600.546	1770.49
600.746	1746.47
600.947	1777.08
601.147	1704.43
601.348	1725.93
601.548	1683.89
601.749	1733.1
601.949	1630.42
602.15	1711.79
602.35	1688.35
602.551	1712.18
602.751	1629.83
602.951	1681.37
603.152	1620.34
603.352	1713.34
603.552	1668.39
603.753	1741.82
603.953	1711.6
604.153	1684.66
604.354	1677.88
604.554	1669.75
604.754	1727.87
604.954	1651.53
605.155	1713.92
605.355	1673.43
605.555	1698.81
605.755	1740.46
605.955	1675.56
606.155	1703.65
606.356	1683.31
606.556	1699
606.756	1683.31
606.956	1609.49
607.156	1746.08
607.356	1626.15
607.556	1679.63
607.756	1677.11
607.956	1697.65
608.156	1652.7
608.356	1623.25
608.556	1673.04
608.756	1665.68
608.956	1609.88
609.156	1638.75
609.356	1606.78
609.556	1584.69
609.755	1637.58
609.955	1598.25
610.155	1608.13
610.355	1653.08
610.555	1587.21
610.755	1608.91
610.954	1535.29
611.154	1620.15
611.354	1639.91
611.554	1566.28
611.753	1611.23
611.953	1536.64
612.153	1615.69
612.352	1569.77
612.552	1544.2
612.752	1530.05
612.951	1534.12
613.151	1558.53
613.351	1517.85
613.55	1556.21
613.75	1578.49
613.949	1543.23
614.149	1549.04
614.348	1549.82
614.548	1510.87
614.747	1425.04
614.947	1493.05
615.146	1439.77
615.346	1558.34
615.545	1534.7
615.745	1523.47
615.944	1537.8
616.144	1500.99
616.343	1545.75
616.542	1472.9
616.742	1482.78
616.941	1465.54
617.14	1430.86
617.34	1470.38
617.539	1467.28
617.738	1415.55
617.938	1552.92
618.137	1450.42
618.336	1453.91
618.535	1531.02
618.734	1476.58
618.934	1501.19
619.133	1503.7
619.332	1495.37
619.531	1439.57
619.73	1490.53
619.929	1538
620.128	1506.42
620.328	1580.04
620.527	1479.68
620.726	1524.82
620.925	1515.14
621.124	1496.73
621.323	1531.22
621.522	1466.31
621.721	1446.36
621.92	1458.17
622.119	1491.89
622.318	1437.83
622.517	1472.12
622.715	1433.96
622.914	1423.69
623.113	1462.44
623.312	1407.22
623.511	1491.89
623.71	1424.07
623.909	1402.96
624.107	1496.34
624.306	1399.86
624.505	1404.7
624.704	1431.24
624.902	1400.82
625.101	1466.31
625.3	1424.85
625.499	1369.24
625.697	1359.75
625.896	1382.42
626.095	1413.42
626.293	1337.66
626.492	1372.34
626.69	1423.49
626.889	1380.48
627.088	1416.32
627.286	1344.64
627.485	1373.89
627.683	1352.97
627.882	1395.98
628.08	1332.04
628.279	1334.76
628.477	1407.02
628.676	1308.6
628.874	1368.66
629.073	1291.75
629.271	1346.96
629.469	1360.72
629.668	1323.33
629.866	1308.21
630.065	1310.34
630.263	1379.13
630.461	1282.45
630.66	1335.14
630.858	1317.71
631.056	1340.57
631.254	1365.95
631.453	1311.7
631.651	1360.14
631.849	1357.23
632.047	1329.14
632.245	1351.23
632.444	1334.37
632.642	1347.54
632.84	1377.19
633.038	1306.66
633.236	1283.03
633.434	1339.99
633.632	1294.07
633.83	1320.61
634.028	1343.86
634.227	1318.48
634.425	1374.67
634.623	1335.53
634.821	1331.85
635.019	1302.21
635.216	1320.23
635.414	1366.14
635.612	1370.6
635.81	1340.76
636.008	1383.77
636.206	1332.63
636.404	1333.21
636.602	1262.68
636.8	1302.59
636.997	1326.04
637.195	1330.88
637.393	1288.06
637.591	1384.55
637.789	1336.31
637.986	1310.15
638.184	1335.53
638.382	1318.87
638.58	1330.49
638.777	1382.23
638.975	1322.16
639.173	1314.41
639.37	1317.32
639.568	1305.11
639.765	1310.54
639.963	1289.61
640.161	1341.73
640.358	1328.75
640.556	1249.12
640.753	1240.79
640.951	1260.16
641.148	1284.58
641.346	1309.38
641.543	1251.45
641.741	1300.08
641.938	1204.56
642.136	1277.8
642.333	1213.47
642.531	1295.04
642.728	1302.21
642.925	1269.85
643.123	1234.98
643.32	1246.99
643.517	1235.75
643.715	1250.86
643.912	1239.43
644.109	1254.55
644.306	1257.06
644.504	1202.82
644.701	1283.22
644.898	1265.98
645.095	1222.58
645.293	1235.56
645.49	1270.24
645.687	1241.76
645.884	1267.91
646.081	1157.28
646.278	1200.49
646.475	1165.81
646.672	1169.49
646.87	1224.9
647.067	1230.91
647.264	1204.37
647.461	1140.62
647.658	1157.09
647.855	1201.46
648.052	1160
648.249	1079.59
648.446	1175.3
648.642	1161.93
648.839	1149.73
649.036	1161.55
649.233	1103.42
649.43	1142.56
649.627	1125.9
649.824	1111.56
650.021	1105.17
650.217	1114.08
650.414	1092.77
650.611	1141.59
650.808	1144.69
651.004	1158.64
651.201	1172.01
651.398	1222.38
651.595	1160
651.791	1118.73
651.988	1197.78
652.185	1139.27
652.381	1156.12
652.578	1102.26
652.775	1139.65
652.971	1136.75
653.168	1149.15
653.364	1198.94
653.561	1101.87
653.757	1131.9
653.954	1153.02
654.15	1109.24
654.347	1199.33
654.543	1142.75
654.74	1074.94
654.936	1091.8
655.133	1136.36
655.329	1097.61
655.525	1133.84
655.722	1128.42
655.918	1104.78
656.115	1079.59
656.311	994.73
656.507	978.84
656.704	909.87
656.9	974.58
657.096	968.57
657.292	939.9
657.489	1037.94
657.685	1027.86
657.881	1036
658.077	1034.64
658.273	1018.76
658.47	1127.06
658.666	1091.02
658.862	1073.39
659.058	1050.14
659.254	1145.85
659.45	1046.65
659.646	1107.49
659.842	1078.82
660.038	1134.23
660.234	1073
660.43	1062.35
660.626	1142.95
660.822	1091.8
661.018	1092.57
661.214	1073.2
661.41	1050.14
661.606	1095.87
661.802	1141.59
661.998	1103.42
662.194	1045.69
662.39	1126.48
662.586	1133.84
662.781	1137.52
662.977	1121.83
663.173	1126.28
663.369	1141.2
663.564	1098.19
663.76	1106.91
663.956	1083.27
664.152	1125.51
664.347	1000.35
664.543	1079.01
664.739	1065.25
664.934	1042.78
665.13	1024.57
665.326	1111.95
665.521	1077.46
665.717	1017.59
665.912	1044.72
666.108	969.93
666.304	1068.35
666.499	1059.83
666.695	958.11
666.89	1029.99
667.086	1087.54
667.281	1074.36
667.477	1096.25
667.672	1044.33
667.867	1051.11
668.063	1054.6
668.258	992.41
668.454	1088.12
668.649	1125.51
668.844	1066.61
669.04	1083.08
669.235	1025.73
669.43	1016.43
669.626	942.81
669.821	995.12
670.016	1000.35
670.211	1015.66
670.407	1006.74
670.602	1040.26
670.797	1006.94
670.992	1063.32
671.187	984.46
671.382	1064.87
671.578	997.64
671.773	987.17
671.968	928.08
672.163	1020.11
672.358	1031.16
672.553	991.05
672.748	998.61
672.943	1045.69
673.138	1021.47
673.333	1003.06
673.528	976.13
673.723	1028.06
673.918	985.24
674.113	978.65
674.308	1087.34
674.503	1022.05
674.698	1032.9
674.892	998.02
675.087	1049.75
675.282	1042.59
675.477	984.46
675.672	1022.24
675.867	1011.39
676.061	976.71
676.256	951.14
676.451	963.15
676.646	990.47
676.84	981.17
677.035	949.78
677.23	935.83
677.424	1009.46
677.619	1029.61
677.814	1051.3
678.008	1036.77
678.203	940.29
678.397	916.46
678.592	977.1
678.787	1016.62
678.981	976.32
679.176	961.02
679.37	954.43
679.565	922.08
679.759	941.06
679.954	968.57
680.148	1025.34
680.342	1015.85
680.537	961.41
680.731	955.59
680.926	1015.66
681.12	961.79
681.314	927.69
681.509	968.57
681.703	969.74
681.897	992.21
682.092	934.09
682.286	940.87
682.48	1033.48
682.674	1004.61
682.869	953.07
683.063	972.06
683.257	1026.89
683.451	959.86
683.645	997.44
683.839	965.09
684.034	942.03
684.228	955.98
684.422	916.07
684.616	925.56
684.81	964.12
685.004	946.87
685.198	955.59
685.392	974.39
685.586	938.74
685.78	966.44
685.974	979.23
686.168	985.82
686.362	1026.31
686.556	899.41
686.75	875.77
686.944	872.09
687.138	866.47
687.331	780.45
687.525	775.8
687.719	741.31
687.913	802.15
688.107	760.68
688.301	764.37
688.494	821.71
688.688	781.22
688.882	738.98
689.076	724.45
689.269	787.81
689.463	892.82
689.657	824.62
689.85	793.43
690.044	794.2
690.238	818.81
690.431	818.81
690.625	780.06
690.818	823.65
691.012	828.3
691.205	870.93
691.399	822.88
691.593	880.23
691.786	903.67
691.98	893.79
692.173	933.31
692.366	887.59
692.56	909.87
692.753	930.79
692.947	856.59
693.14	922.27
693.333	920.14
693.527	859.69
693.72	901.54
693.914	909.48
694.107	880.81
694.3	894.76
694.493	872.48
694.687	959.47
694.88	900.96
695.073	978.46
695.266	975.74
695.46	930.79
695.653	1000.35
695.846	983.69
696.039	904.44
696.232	957.34
696.425	968.57
696.618	975.36
696.812	980.39
697.005	1045.88
697.198	1139.07
697.391	1042.2
697.584	1056.34
697.777	1104.97
697.97	1055.57
698.163	1093.93
698.356	1075.33
698.549	1191.58
698.742	1138.88
698.935	1049.56
699.127	1144.5
699.32	1094.7
699.513	1107.3
699.706	1137.13
699.899	1147.79
700.092	1128.42
700.285	1167.36
700.477	1110.01
700.67	1178.6
700.863	1166.97
701.056	1249.31
701.248	1268.69
701.441	1248.54
701.634	1170.27
701.826	1288.65
702.019	1222
702.212	1259
702.404	1207.27
702.597	1215.6
702.79	1261.13
702.982	1284.38
703.175	1322.94
703.367	1345.41
703.56	1317.71
703.752	1436.67
703.945	1361.11
704.137	1383.19
704.33	1422.14
704.522	1417.29
704.715	1416.71
704.907	1438.02
705.1	1469.99
705.292	1471.74
705.484	1465.54
705.677	1524.05
705.869	1507.58
706.061	1573.26
706.254	1591.47
706.446	1535.48
706.638	1545.94
706.831	1606.58
707.023	1559.31
707.215	1688.54
707.407	1664.51
707.599	1656.57
707.792	1717.99
707.984	1682.92
708.176	1753.83
708.368	1684.66
708.56	1696.87
708.752	1720.7
708.944	1722.06
709.136	1785.8
709.329	1733.49
709.521	1859.42
709.713	1869.11
709.905	1871.63
710.097	1934.79
710.289	1819.9
710.481	1879.19
710.672	1860.59
710.864	1909.22
711.056	1948.94
711.248	1928.2
711.44	1938.86
711.632	1917.74
711.824	1995.05
712.016	2048.91
712.207	2023.92
712.399	2024.11
712.591	2088.82
712.783	2073.32
712.975	2086.69
713.166	2043.29
713.358	2100.64
713.55	2139.2
713.741	2171.16
713.933	2138.03
714.125	2154.89
714.316	2146.36
714.508	2223.67
714.7	2216.11
714.891	2244.4
715.083	2263
715.274	2224.44
715.466	2258.74
715.657	2314.15
715.849	2202.55
716.04	2261.06
716.232	2205.07
716.423	2319.77
716.615	2199.64
716.806	2191.51
716.998	2204.1
717.189	2132.8
717.381	2058.79
717.572	2016.17
717.763	2104.9
717.955	2059.37
718.146	2007.25
718.337	1977.42
718.528	1928.79
718.72	1910.57
718.911	1940.8
719.102	1910.57
719.293	1951.84
719.485	1937.89
719.676	1946.61
719.867	1924.52
720.058	1907.67
720.249	1938.09
720.44	1968.5
720.632	1965.02
720.823	2014.62
721.014	2152.37
721.205	2158.76
721.396	2259.12
721.587	2350.57
721.778	2380.99
721.969	2361.62
722.16	2490.85
722.351	2488.72
722.542	2645.26
722.733	2624.73
722.924	2499.76
723.115	2597.8
723.305	2575.51
723.496	2670.64
723.687	2462.17
723.878	2505.38
724.069	2504.41
724.26	2544.9
724.45	2457.72
724.641	2459.07
724.832	2489.49
725.023	2490.07
725.213	2466.43
725.404	2500.34
725.595	2496.85
725.785	2466.82
725.976	2542
726.167	2528.82
726.357	2553.81
726.548	2670.84
726.739	2546.84
726.929	2629.18
727.12	2721.41
727.31	2725.28
727.501	2656.5
727.691	2674.71
727.882	2687.11
728.072	2696.41
728.263	2746.4
728.453	2799.68
728.644	2764.61
728.834	2798.32
729.024	2773.91
729.215	2694.28
729.405	2796.39
729.596	2872.33
729.786	2873.69
729.976	2928.52
730.167	2934.92
730.357	2880.67
730.547	2892.29
730.737	2906.24
730.928	2965.91
731.118	3024.04
731.308	2935.69
731.498	2975.99
731.688	3059.69
731.879	3058.91
732.069	3106.58
732.259	3107.93
732.449	3179.62
732.639	3265.84
732.829	3252.85
733.019	3287.34
733.209	3339.46
733.399	3331.32
733.589	3414.44
733.779	3461.71
733.969	3404.36
734.159	3512.09
734.349	3544.06
734.539	3609.74
734.729	3561.11
734.919	3612.06
735.109	3705.45
735.299	3556.65
735.488	3684.14
735.678	3627.56
735.868	3669.41
736.058	3641.51
736.248	3652.75
736.437	3613.03
736.627	3607.99
736.817	3707.77
737.007	3662.05
737.196	3701.19
737.386	3724.44
737.576	3666.89
737.765	3745.75
737.955	3681.62
738.144	3855.6
738.334	3825.96
738.524	3723.85
738.713	3818.6
738.903	3785.47
739.092	3814.53
739.282	3807.75
739.471	3802.9
739.661	3799.22
739.85	3881.37
740.04	3831.77
740.229	3874.01
740.419	3893.38
740.608	3901.33
740.797	3884.28
740.987	3930.58
741.176	3928.45
741.365	3852.5
741.555	3834.87
741.744	4028.42
741.933	3964.29
742.123	3951.7
742.312	3991.81
742.501	4050.71
742.69	3983.28
742.88	3923.03
743.069	4045.86
743.258	4002.66
743.447	4078.22
743.636	4048.77
743.825	4056.32
744.014	4059.23
744.204	4120.26
744.393	4013.51
744.582	4082.48
744.771	4121.81
744.96	4085.39
745.149	4082.48
745.338	4079.77
745.527	4147.19
745.716	4113.09
745.905	4075.89
746.094	4165.6
746.283	4123.75
746.471	4078.8
746.66	4172.38
746.849	4180.32
747.038	4220.62
747.227	4138.09
747.416	4143.7
747.604	4130.72
747.793	4117.55
747.982	4131.89
748.171	4158.82
748.359	4204.73
748.548	4210.16
748.737	4155.72
748.926	4159.98
749.114	4050.12
749.303	4140.22
749.491	4176.45
749.68	4033.46
749.869	4177.8
750.057	4126.65
750.246	4111.74
750.434	4128.79
750.623	4091.2
750.811	4099.34
751	4093.72
751.188	4123.94
751.377	4141.96
751.565	4076.86
751.754	4059.23
751.942	4041.41
752.131	4116.77
752.319	4088.1
752.507	4006.14
752.696	4124.33
752.884	4106.12
753.072	4071.82
753.261	4140.22
753.449	4073.96
753.637	3995.88
753.825	4142.54
754.014	4061.17
754.202	4121.81
754.39	4116.19
754.578	4105.15
754.766	4057.1
754.955	4023.19
755.143	4113.67
755.331	4061.75
755.519	4070.47
755.707	3996.26
755.895	4068.14
756.083	4054.39
756.271	3967.01
756.459	3992.39
756.647	4022.42
756.835	3998.98
757.023	4009.44
757.211	3993.94
757.399	3986.77
757.587	3954.99
757.775	3919.34
757.963	3976.31
758.151	3984.06
758.339	3904.23
758.526	3867.81
758.714	3962.16
758.902	3827.9
759.09	3841.85
759.278	3616.71
759.465	3461.71
759.653	3088.94
759.841	2813.05
760.028	2463.33
760.216	2175.43
760.404	2096.38
760.591	1770.49
760.779	1565.51
760.967	1409.74
761.154	1237.11
761.342	1259
761.529	1274.89
761.717	1345.8
761.905	1347.74
762.092	1453.72
762.28	1411.09
762.467	1498.28
762.655	1406.83
762.842	1461.66
763.029	1452.17
763.217	1487.04
763.404	1478.71
763.592	1563.77
763.779	1497.89
763.966	1547.1
764.154	1623.63
764.341	1667.42
764.528	1640.3
764.716	1726.51
764.903	1792.39
765.09	1850.12
765.277	1937.12
765.465	2063.25
765.652	2143.85
765.839	2207.98
766.026	2345.73
766.213	2366.07
766.4	2451.32
766.588	2656.69
766.775	2649.53
766.962	2747.37
767.149	2800.26
767.336	2971.53
767.523	2921.93
767.71	3010.28
767.897	3161.41
768.084	3189.11
768.271	3238.71
768.458	3311.17
768.645	3378.98
768.832	3329.38
769.019	3347.98
769.206	3380.15
769.392	3434.01
769.579	3539.21
769.766	3512.86
769.953	3454.74
770.14	3531.08
770.327	3495.23
770.513	3564.01
770.7	3640.16
770.887	3499.11
771.073	3565.18
771.26	3505.69
771.447	3526.81
771.634	3571.96
771.82	3643.84
772.007	3504.34
772.193	3516.93
772.38	3576.61
772.567	3520.81
772.753	3535.34
772.94	3585.71
773.126	3510.54
773.313	3564.01
773.499	3533.79
773.686	3622.72
773.872	3520.03
774.059	3542.12
774.245	3488.84
774.432	3516.93
774.618	3417.15
774.804	3476.63
774.991	3417.54
775.177	3498.14
775.363	3484.58
775.55	3474.31
775.736	3420.83
775.922	3458.03
776.109	3458.23
776.295	3487.29
776.481	3466.17
776.667	3488.64
776.853	3430.91
777.04	3420.45
777.226	3473.53
777.412	3503.18
777.598	3349.34
777.784	3391.77
777.97	3339.46
778.156	3435.95
778.342	3399.91
778.528	3371.43
778.715	3317.76
778.901	3377.05
779.087	3357.67
779.272	3285.4
779.458	3267
779.644	3358.83
779.83	3365.03
780.016	3385.57
780.202	3288.7
780.388	3305.36
780.574	3232.7
780.76	3279.4
780.946	3314.66
781.131	3262.54
781.317	3299.35
781.503	3230.96
781.689	3207.71
781.874	3368.72
782.06	3222.05
782.246	3259.64
782.432	3207.13
782.617	3269.71
782.803	3247.82
782.989	3175.36
783.174	3174.77
783.36	3126.73
783.545	3214.49
783.731	3173.81
783.916	3099.99
784.102	3235.8
784.288	3116.46
784.473	3185.04
784.659	3100.76
784.844	3157.53
785.029	3145.13
785.215	3100.96
785.4	3070.93
785.586	3164.89
785.771	3070.93
785.956	3133.51
786.142	3095.53
786.327	3068.79
786.512	3095.53
786.698	3037.8
786.883	2995.75
787.068	3032.76
787.254	3074.99
787.439	2988.78
787.624	3020.36
787.809	3006.99
787.994	2937.43
788.18	3078.48
788.365	2920.77
788.55	2958.55
788.735	2945.77
788.92	2948.67
789.105	2986.26
789.29	2975.99
789.475	2946.54
789.66	2950.22
789.845	2928.33
790.03	2885.32
790.215	2928.52
790.4	2944.99
790.585	2991.68
790.77	2933.17
790.955	2840.37
791.14	2873.88
791.325	2959.13
791.51	2797.94
791.695	2880.47
791.879	2875.24
792.064	2815.95
792.249	2883.18
792.434	2846.18
792.618	2853.93
792.803	2887.25
792.988	2845.21
793.173	2815.95
793.357	2876.6
793.542	2818.67
793.727	2847.15
793.911	2896.75
794.096	2841.34
794.281	2860.71
794.465	2946.73
794.65	2860.13
794.834	2871.17
795.019	2901.78
795.203	2917.28
795.388	2908.76
795.572	2944.99
795.757	2929.68
795.941	2941.89
796.126	2884.15
796.31	2866.91
796.494	2888.61
796.679	2883.57
796.863	2840.37
797.048	2957.78
797.232	2919.61
797.416	2903.92
797.601	2899.65
797.785	2979.48
797.969	2966.5
798.153	2855.48
798.338	2938.6
798.522	2966.11
798.706	2968.24
798.89	2933.56
799.074	3080.03
799.258	2960.88
799.443	2945.96
799.627	2926
799.811	2984.71
799.995	2924.07
800.179	2888.22
800.363	2937.43
800.547	2942.28
800.731	2960.88
800.915	2896.17
801.099	2915.54
801.283	2924.26
801.467	2913.41
801.651	2899.46
801.835	2962.04
802.019	2913.22
802.202	2951
802.386	2867.1
802.57	2876.6
802.754	2846.37
802.938	2883.18
803.121	2875.05
803.305	2949.83
803.489	2889.38
803.673	2903.53
803.856	2909.34
804.04	2920.58
804.224	2925.62
804.407	2858.39
804.591	2864.97
804.775	2902.75
804.958	2889.19
805.142	3036.25
805.326	2910.89
805.509	2867.88
805.693	2897.33
805.876	2951.97
806.06	2926.39
806.243	2953.71
806.427	2950.22
806.61	3006.99
806.794	2923.1
806.977	2984.13
807.16	2925.42
807.344	2902.17
807.527	2913.02
807.71	2878.73
807.894	2923.68
808.077	2943.83
808.26	2898.3
808.444	2866.72
808.627	2934.14
808.81	2854.9
808.993	2841.92
809.177	2787.86
809.36	2863.42
809.543	2831.65
809.726	2740.78
809.909	2730.51
810.092	2738.26
810.276	2752.02
810.459	2782.24
810.642	2762.67
810.825	2701.06
811.008	2716.37
811.191	2643.52
811.374	2627.44
811.557	2701.26
811.74	2731.09
811.923	2597.8
812.106	2633.06
812.289	2582.68
812.472	2614.26
812.654	2588.3
812.837	2571.64
813.02	2511.97
813.203	2456.75
813.386	2398.04
813.569	2377.7
813.751	2290.12
813.934	2353.87
814.117	2356.97
814.3	2292.64
814.482	2247.89
814.665	2224.06
814.848	2172.33
815.03	2129.12
815.213	2127.76
815.396	2093.47
815.578	2042.32
815.761	2060.92
815.943	2095.6
816.126	2014.03
816.309	1971.41
816.491	1958.43
816.674	1896.82
816.856	1928.59
817.039	1912.9
817.221	2001.05
817.403	1916.39
817.586	1916.58
817.768	1978.77
817.951	1893.52
818.133	1878.22
818.315	1866.59
818.498	1909.99
818.68	1993.89
818.862	1916.19
819.045	1997.57
819.227	1957.27
819.409	1928.98
819.591	1955.52
819.774	1920.45
819.956	1875.51
820.138	1978.39
820.32	1971.8
820.502	2026.82
820.684	2063.83
820.866	2058.79
821.048	2142.49
821.231	2160.51
821.413	2102.96
821.595	2123.5
821.777	2147.91
821.959	2093.08
822.141	2213.98
822.323	2046.78
822.505	1998.73
822.686	1972.77
822.868	1895.85
823.05	1781.93
823.232	1722.06
823.414	1666.45
823.596	1722.06
823.778	1729.61
823.96	1752.48
824.141	1747.05
824.323	1732.91
824.505	1803.43
824.687	1868.53
824.868	1946.8
825.05	2001.83
825.232	2002.6
825.413	2102.38
825.595	2040.38
825.777	1986.72
825.958	1992.92
826.14	2049.88
826.321	2047.36
826.503	1997.57
826.685	2063.83
826.866	2075.84
827.048	2078.94
827.229	2018.68
827.411	2016.75
827.592	1935.95
827.773	1972.38
827.955	1908.64
828.136	1910.77
828.318	1852.26
828.499	1894.11
828.68	1817.77
828.862	1877.64
829.043	1900.5
829.224	1844.7
829.406	1772.82
829.587	1838.69
829.768	1839.27
829.949	1859.23
830.131	1818.16
830.312	1898.76
830.493	1859.81
830.674	1869.5
830.855	1823.97
831.036	1829.97
831.218	1892.94
831.399	1925.49
831.58	1889.65
831.761	1818.93
831.942	1842.76
832.123	1848.96
832.304	1823
832.485	1793.36
832.666	1826.87
832.847	1869.69
833.028	1810.79
833.209	1816.22
833.389	1793.74
833.57	1752.67
833.751	1786.58
833.932	1854
834.113	1849.74
834.294	1794.91
834.475	1861.94
834.655	1887.91
834.836	1876.47
835.017	1851.29
835.198	1775.92
835.378	1834.62
835.559	1883.84
835.74	1817.96
835.92	1861.56
836.101	1851.29
836.281	1878.61
836.462	1862.72
836.643	1860.59
836.823	1870.86
837.004	1898.95
837.184	1927.82
837.365	1934.99
837.545	1887.71
837.726	1855.36
837.906	1920.45
838.087	1888.29
838.267	1891.39
838.448	1827.84
838.628	1896.04
838.808	1889.84
838.989	1906.89
839.169	1807.11
839.349	1899.34
839.53	1921.81
839.71	1898.76
839.89	1858.07
840.07	1925.69
840.251	1861.17
840.431	1912.51
840.611	1838.11
840.791	1812.93
840.971	1882.09
841.151	1848.38
841.332	1834.82
841.512	1899.72
841.692	1803.24
841.872	1856.91
842.052	1833.66
842.232	1880.74
842.412	1775.73
842.592	1825.71
842.772	1851.29
842.952	1869.11
843.132	1832.11
843.312	1796.07
843.492	1786.38
843.672	1850.32
843.851	1751.89
844.031	1805.95
844.211	1787.74
844.391	1761.58
844.571	1795.1
844.751	1775.53
844.93	1792.97
845.11	1763.91
845.29	1737.17
845.47	1785.61
845.649	1776.69
845.829	1807.89
846.009	1722.06
846.188	1805.95
846.368	1793.36
846.547	1770.11
846.727	1832.3
846.907	1716.44
847.086	1772.43
847.266	1768.94
847.445	1748.41
847.625	1723.41
847.804	1717.99
847.984	1761.58
848.163	1703.85
848.343	1724.58
848.522	1721.09
848.701	1750.73
848.881	1716.83
849.06	1710.82
849.239	1715.28
849.419	1737.36
849.598	1649.4
849.777	1656.96
849.957	1652.89
850.136	1585.66
850.315	1564.73
850.494	1575.39
850.674	1584.69
850.853	1651.53
851.032	1608.72
851.211	1658.12
851.39	1597.67
851.569	1573.65
851.748	1592.25
851.927	1668.78
852.107	1638.75
852.286	1563.77
852.465	1549.24
852.644	1628.87
852.823	1657.15
853.002	1579.07
853.181	1605.81
853.359	1625.38
853.538	1514.36
853.717	1624.8
853.896	1527.34
854.075	1465.54
854.254	1428.92
854.433	1361.88
854.611	1379.9
854.79	1354.91
854.969	1404.51
855.148	1403.92
855.327	1402.18
855.505	1426.4
855.684	1427.76
855.863	1452.36
856.041	1427.37
856.22	1506.22
856.399	1445.39
856.577	1544.59
856.756	1549.43
856.934	1623.44
857.113	1616.66
857.291	1519.59
857.47	1499.44
857.648	1525.4
857.827	1539.74
858.005	1562.6
858.184	1497.31
858.362	1605.62
858.541	1524.63
858.719	1538.97
858.898	1499.83
859.076	1526.18
859.254	1546.72
859.433	1491.11
859.611	1485.3
859.789	1440.74
859.967	1552.34
860.146	1540.32
860.324	1451.78
860.502	1487.24
860.68	1468.25
860.859	1469.8
861.037	1471.93
861.215	1475.03
861.393	1480.45
861.571	1468.64
861.749	1471.54
861.927	1476.19
862.105	1472.9
862.283	1439.38
862.461	1419.62
862.639	1388.04
862.817	1437.06
862.995	1452.94
863.173	1435.12
863.351	1402.76
863.529	1447.32
863.707	1480.65
863.885	1456.43
864.063	1344.06
864.241	1406.64
864.418	1460.31
864.596	1408.38
864.774	1353.16
864.952	1399.66
865.129	1407.41
865.307	1363.24
865.485	1316.35
865.663	1385.52
865.84	1316.16
866.018	1356.46
866.196	1193.32
866.373	1271.6
866.551	1188.28
866.728	1145.66
866.906	1194.87
867.084	1250.09
867.261	1248.15
867.439	1261.71
867.616	1293.88
867.794	1271.4
867.971	1292.71
868.149	1271.21
868.326	1345.99
868.503	1337.08
868.681	1338.63
868.858	1282.64
869.035	1267.53
869.213	1327.78
869.39	1303.37
869.567	1385.71
869.745	1292.71
869.922	1291.94
870.099	1326.23
870.276	1330.49
870.454	1309.96
870.631	1301.43
870.808	1297.94
870.985	1317.9
871.162	1344.64
871.339	1312.09
871.517	1223.55
871.694	1227.81
871.871	1278.18
872.048	1252.03
872.225	1254.35
872.402	1289.23
872.579	1215.02
872.756	1259.39
872.933	1197.78
873.11	1217.35
873.287	1249.7
873.463	1256.1
873.64	1210.95
873.817	1262.1
873.994	1241.18
874.171	1195.84
874.348	1255.13
874.524	1158.06
874.701	1219.67
874.878	1145.85
875.055	1227.61
875.231	1194.29
875.408	1236.91
875.585	1149.34
875.762	1204.75
875.938	1174.92
876.115	1181.12
876.291	1160.97
876.468	1175.69
876.645	1131.71
876.821	1150.7
876.998	1156.51
877.174	1168.13
877.351	1136.55
877.527	1116.79
877.704	1162.71
877.88	1157.48
878.057	1158.45
878.233	1177.43
878.409	1152.83
878.586	1144.69
878.762	1135.97
878.938	1126.48
879.115	1079.2
879.291	1145.27
879.467	1067
879.644	1101.49
879.82	1135.58
879.996	1079.79
880.172	1051.89
880.349	1102.26
880.525	1121.83
880.701	1079.2
880.877	1061.77
881.053	1115.05
881.229	1090.05
881.405	1177.63
881.581	1061.57
881.757	1076.69
881.933	1092.38
882.109	1118.15
882.285	1079.4
882.461	1050.53
882.637	1091.02
882.813	1039.49
882.989	1073.2
883.165	1138.3
883.341	1065.64
883.517	1139.27
883.693	1086.37
883.869	1111.95
884.044	1062.74
884.22	1106.14
884.396	1155.15
884.572	1083.08
884.747	1143.53
884.923	1113.69
885.099	1102.26
885.275	1133.65
885.45	1085.21
885.626	1077.27
885.801	1058.09
885.977	1061.96
886.153	1022.82
886.328	1096.84
886.504	1045.69
886.679	1087.15
886.855	1066.8
887.03	1091.41
887.206	1101.68
887.381	1102.84
887.557	1127.83
887.732	1095.87
887.908	1071.07
888.083	1084.44
888.258	1067.19
888.434	1060.6
888.609	1096.25
888.784	1140.62
888.96	1058.67
889.135	1062.15
889.31	1048.98
889.485	1063.7
889.661	1085.99
889.836	1131.32
890.011	1109.04
890.186	1038.71
890.361	1060.02
890.537	1070.1
890.712	1056.73
890.887	1096.84
891.062	1062.54
891.237	1125.9
891.412	1053.82
891.587	1076.3
891.762	1116.6
891.937	1132.87
892.112	1050.34
892.287	1080.56
892.462	1013.33
892.637	1009.84
892.812	997.64
892.987	1013.14
893.161	987.76
893.336	1006.94
893.511	988.92
893.686	1019.14
893.861	1020.11
894.035	975.16
894.21	1005.39
894.385	952.88
894.56	995.12
894.734	942.23
894.909	943.58
895.084	949.39
895.258	945.71
895.433	950.17
895.608	926.34
895.782	892.24
895.957	884.1
896.131	879.06
896.306	849.03
896.48	828.88
896.655	799.24
896.829	759.91
897.004	748.48
897.178	752.74
897.353	733.95
897.527	818.61
897.701	783.35
897.876	740.92
898.05	808.73
898.224	779.28
898.399	844.38
898.573	768.24
898.747	660.52
898.921	743.05
899.096	660.13
899.27	640.37
899.444	646.37
899.618	662.45
899.792	690.55
899.967	697.33
900.141	733.95
900.315	658.39
900.489	675.63
900.663	707.79
900.837	683.96
901.011	655.87
901.185	783.35
901.359	673.69
901.533	717.87
901.707	705.08
901.881	678.54
902.055	642.89
902.229	654.32
902.403	740.92
902.576	711.86
902.75	675.05
902.924	812.8
903.098	738.79
903.272	775.8
903.446	789.16
903.619	780.45
903.793	819.97
903.967	774.25
904.14	858.14
904.314	834.11
904.488	821.91
904.661	839.93
904.835	833.34
905.009	833.34
905.182	906.38
905.356	864.34
905.529	824.43
905.703	800.98
905.876	816.87
906.05	784.13
906.223	783.74
906.397	703.14
906.57	697.13
906.744	676.21
906.917	673.89
907.09	700.43
907.264	672.14
907.437	649.86
907.61	644.24
907.784	671.95
907.957	654.12
908.13	583.6
908.304	691.9
908.477	585.73
908.65	619.44
908.823	608.01
908.996	721.16
909.17	611.3
909.343	608.2
909.516	638.82
909.689	590.19
909.862	601.62
910.035	606.07
910.208	584.76
910.381	566.55
910.554	654.9
910.727	592.9
910.9	584.76
911.073	567.32
911.246	649.28
911.419	650.44
911.592	637.07
911.765	584.18
911.938	558.8
912.11	621.96
912.283	611.89
912.456	671.56
912.629	604.91
912.802	575.46
912.974	557.83
913.147	518.5
913.32	463.09
913.493	495.64
913.665	531.09
913.838	539.04
914.01	511.33
914.183	565
914.356	541.94
914.528	603.55
914.701	612.08
914.873	615.57
915.046	525.47
915.218	490.99
915.391	429.57
915.563	457.86
915.736	516.95
915.908	520.63
916.081	521.99
916.253	507.07
916.425	541.17
916.598	515.21
916.77	535.55
916.942	514.82
917.115	448.56
917.287	508.04
917.459	492.15
917.632	462.89
917.804	447.2
917.976	492.15
918.148	465.03
918.32	507.46
918.493	551.05
918.665	593.48
918.837	502.23
919.009	591.74
919.181	551.24
919.353	541.36
919.525	528.77
919.697	521.79
919.869	519.27
920.041	566.94
920.213	643.08
920.385	559.57
920.557	535.16
920.729	581.47
920.901	550.08
921.073	550.86
921.244	511.52
921.416	570.62
921.588	551.24
921.76	507.84
921.932	597.16
922.103	525.09
922.275	533.42
922.447	548.72
922.619	465.8
922.79	515.59
922.962	508.23
923.134	548.53
923.305	487.5
923.477	476.84
923.648	459.02
923.82	512.3
923.991	401.28
924.163	425.69
924.335	490.79
924.506	439.64
924.677	516.95
924.849	480.14
925.02	446.81
925.192	504.36
925.363	476.84
925.535	472.39
925.706	470.45
925.877	502.23
926.049	433.83
926.22	440.81
926.391	481.49
926.562	500.09
926.734	428.21
926.905	498.74
927.076	406.9
927.247	453.21
927.419	419.5
927.59	395.08
927.761	403.61
927.932	407.48
928.103	396.83
928.274	347.81
928.445	352.65
928.616	361.56
928.787	334.44
928.958	379
929.129	358.46
929.3	371.45
929.471	313.13
929.642	270.12
929.813	220.52
929.984	310.42
930.155	241.83
930.326	282.32
930.496	261.59
930.667	210.83
930.838	242.99
931.009	213.15
931.18	213.93
931.35	204.63
931.521	207.15
931.692	150.96
931.863	117.44
932.033	192.04
932.204	182.93
932.374	171.5
932.545	132.94
932.716	195.91
932.886	156.77
933.057	72.88
933.227	120.74
933.398	190.1
933.568	81.79
933.739	59.13
933.909	72.3
934.08	143.79
934.25	37.81
934.421	78.89
934.591	110.08
934.761	78.89
934.932	25.03
935.102	100.59
935.272	84.51
935.443	77.53
935.613	50.99
935.783	87.8
935.953	60.09
936.123	208.5
936.294	60.48
936.464	63.58
936.634	94.39
936.804	56.8
936.974	45.56
937.144	66.1
937.314	95.55
937.484	61.84
937.655	54.09
937.825	114.15
937.995	50.99
938.165	119.96
938.334	59.9
938.504	69.98
938.674	80.05
938.844	100.78
939.014	155.03
939.184	141.47
939.354	180.41
939.524	193
939.694	115.31
939.863	132.56
940.033	199.2
940.203	166.07
940.373	174.79
940.542	183.7
940.712	122.09
940.882	149.8
941.051	164.14
941.221	168.4
941.391	155.61
941.56	125.39
941.73	109.11
941.899	249.77
942.069	123.84
942.238	130.81
942.408	102.91
942.577	166.27
942.747	106.59
942.916	67.07
943.086	94.97
943.255	152.9
943.425	130.62
943.594	104.27
943.763	52.15
943.933	68.43
944.102	48.66
944.271	80.82
944.441	92.26
944.61	90.71
944.779	115.51
944.948	186.03
945.117	91.29
945.287	71.14
945.456	59.9
945.625	72.69
945.794	128.49
945.963	64.55
946.132	107.95
946.301	91.48
946.47	125.97
946.639	45.76
946.808	63.78
946.977	132.17
947.146	133.52
947.315	90.51
947.484	121.9
947.653	87.22
947.822	69.78
947.991	73.07
948.16	192.23
948.329	137.59
948.498	93.81
948.666	106.01
948.835	129.07
949.004	87.61
949.173	50.79
949.341	100.59
949.51	120.35
949.679	154.45
949.847	133.52
950.016	155.81
950.185	162.39
950.353	106.98
950.522	81.79
950.69	149.8
950.859	100.01
951.028	146.7
951.196	117.44
951.365	98.07
951.533	100.78
951.701	112.99
951.87	142.82
952.038	61.06
952.207	93.81
952.375	166.27
952.543	65.71
952.712	114.54
952.88	91.48
953.048	170.53
953.217	92.64
953.385	104.27
953.553	150.19
953.721	54.28
953.89	107.76
954.058	38.39
954.226	35.1
954.394	110.86
954.562	38.2
954.73	89.16
954.898	87.99
955.067	145.54
955.235	87.99
955.403	131.01
955.571	169.75
955.739	95.74
955.907	68.62
956.075	71.72
956.243	78.5
956.41	140.31
956.578	62.61
956.746	59.71
956.914	61.26
957.082	135.07
957.25	101.94
957.418	56.41
957.585	102.52
957.753	162.78
957.921	89.93
958.089	98.26
958.256	111.24
958.424	104.66
958.592	103.69
958.759	80.82
958.927	143.21
959.095	52.15
959.262	108.14
959.43	115.31
959.597	56.03
959.765	87.41
959.932	40.33
960.1	138.17
960.267	103.49
960.435	103.11
960.602	140.5
960.77	85.09
960.937	28.51
961.104	98.84
961.272	35.49
961.439	85.86
961.606	125.19
961.774	140.89
961.941	73.46
962.108	122.29
962.275	113.37
962.443	140.31
962.61	125.58
962.777	167.62
962.944	117.83
963.111	119.96
963.278	131.97
963.446	120.93
963.613	85.28
963.78	125.77
963.947	127.91
964.114	112.21
964.281	202.5
964.448	100.78
964.615	106.21
964.782	128.29
964.949	142.82
965.116	121.12
965.282	164.52
965.449	107.17
965.616	95.16
965.783	122.87
965.95	102.14
966.117	79.08
966.283	123.64
966.45	122.67
966.617	121.12
966.784	136.04
966.95	152.9
967.117	154.45
967.284	80.24
967.45	97.87
967.617	173.82
967.784	125.97
967.95	180.8
968.117	105.24
968.283	160.84
968.45	205.02
968.616	142.63
968.783	165.88
968.949	137.21
969.116	164.91
969.282	130.04
969.449	120.93
969.615	147.09
969.781	68.62
969.948	142.44
970.114	67.26
970.28	202.3
970.447	147.47
970.613	164.14
970.779	110.27
970.945	173.44
971.112	119.19
971.278	124.61
971.444	116.47
971.61	176.92
971.776	129.26
971.942	147.86
972.108	143.79
972.275	118.99
972.441	151.74
972.607	207.92
972.773	73.27
972.939	143.79
973.105	110.66
973.271	117.25
973.437	124.03
973.602	87.22
973.768	137.79
973.934	125.77
974.1	147.47
974.266	34.33
974.432	131.39
974.598	99.42
974.763	140.11
974.929	98.65
975.095	190.1
975.261	88.57
975.426	66.88
975.592	78.11
975.758	171.3
975.923	48.47
976.089	76.95
976.255	144.18
976.42	132.75
976.586	143.79
976.751	125
976.917	215.09
977.082	118.41
977.248	55.44
977.413	48.66
977.579	94.97
977.744	131.01
977.91	54.09
978.075	83.73
978.24	129.26
978.406	98.26
978.571	86.06
978.736	86.64
978.902	121.12
979.067	77.34
979.232	47.11
979.397	115.12
979.563	148.06
979.728	74.24
979.893	92.45
980.058	73.66
980.223	136.82
980.388	103.88
980.554	107.37
980.719	86.06
980.884	123.64
981.049	177.12
981.214	79.08
981.379	111.44
981.544	82.37
981.709	56.8
981.874	91.87
982.039	87.8
982.204	143.6
982.368	92.84
982.533	78.5
982.698	125.58
982.863	163.36
983.028	90.32
983.193	111.63
983.357	124.22
983.522	92.26
983.687	78.5
983.852	90.32
984.016	91.48
984.181	94.77
984.346	128.1
984.51	123.84
984.675	100.97
984.839	122.29
985.004	115.51
985.168	139.92
985.333	117.83
985.498	97.29
985.662	121.51
985.827	128.1
985.991	79.86
986.155	99.42
986.32	142.24
986.484	177.31
986.649	127.13
986.813	45.18
986.977	92.84
987.142	101.75
987.306	64.74
987.47	65.13
987.634	79.66
987.799	111.44
987.963	115.12
988.127	104.66
988.291	159.49
988.455	102.14
988.62	68.62
988.784	106.98
988.948	127.13
989.112	81.99
989.276	117.44
989.44	99.62
989.604	73.07
989.768	65.71
989.932	128.68
990.096	55.44
990.26	76.37
990.424	39.56
990.588	87.02
990.752	167.04
990.915	122.48
991.079	87.22
991.243	78.89
991.407	113.96
991.571	85.09
991.734	98.84
991.898	101.36
992.062	165.1
992.226	80.82
992.389	63.97
992.553	30.64
992.717	78.69
992.88	106.79
993.044	82.76
993.207	80.82
993.371	116.67
993.535	98.65
993.698	98.84
993.862	117.06
994.025	139.72
994.189	101.94
994.352	106.01
994.515	92.45
994.679	109.69
994.842	64.36
995.006	121.9
995.169	55.83
995.332	34.52
995.496	135.27
995.659	13.59
995.822	60.09
995.985	90.71
996.149	127.32
996.312	63.19
996.475	150.77
996.638	68.62
996.801	127.13
996.964	143.02
997.128	51.76
997.291	89.16
997.454	93.61
997.617	14.18
997.78	103.3
997.943	63.97
998.106	93.22
998.269	62.23
998.432	54.67
998.595	88.57
998.758	53.31
998.92	49.44
999.083	27.16
999.246	69.2
999.409	25.03
999.572	13.79
999.735	40.33
999.897	77.72
1000.06	32.78
1000.223	89.16
1000.386	91.29
1000.548	61.45
1000.711	78.69
1000.874	117.25
1001.036	50.02
1001.199	102.14
1001.361	60.87
1001.524	81.02
1001.687	116.47
1001.849	25.41
1002.012	63
1002.174	76.95
1002.337	89.35
1002.499	53.89
1002.661	81.41
1002.824	19.21
1002.986	20.38
1003.149	84.51
1003.311	22.12
1003.473	105.62
1003.636	42.08
1003.798	83.92
1003.96	75.4
1004.123	42.85
1004.285	23.09
1004.447	45.18
1004.609	67.07
1004.771	121.71
1004.933	3.13
1005.096	22.7
1005.258	5.26
1005.42	36.07
1005.582	94.19
1005.744	86.25
1005.906	-7.14
1006.068	88.38
1006.23	14.37
1006.392	22.7
1006.554	30.26
1006.716	77.34
1006.878	52.34
1007.04	17.66
1007.202	36.46
1007.363	86.83
1007.525	99.81
1007.687	76.17
1007.849	111.44
1008.011	6.04
1008.172	0.03
1008.334	19.41
1008.496	87.22
1008.658	3.91
1008.819	28.71
1008.981	9.53
1009.143	12.82
1009.304	56.03
1009.466	74.43
1009.627	91.67
1009.789	129.07
1009.95	52.93
1010.112	4.88
1010.273	68.62
1010.435	22.89
1010.596	23.28
1010.758	40.33
1010.919	24.25
1011.081	16.89
1011.242	38.78
1011.403	38.01
1011.565	30.45
1011.726	62.81
1011.887	13.21
1012.049	26.38
1012.21	90.51
1012.371	100.2
1012.532	-34.84
1012.693	40.14
1012.855	17.47
1013.016	47.69
1013.177	87.99
1013.338	36.84
1013.499	106.59
1013.66	61.45
1013.821	50.21
1013.982	62.03
1014.143	59.32
1014.304	30.45
1014.465	48.08
1014.626	84.51
1014.787	17.28
1014.948	142.63
1015.109	-31.16
1015.27	99.04
1015.431	19.6
1015.592	37.62
1015.752	96.52
1015.913	54.28
1016.074	45.18
1016.235	67.26
1016.395	53.89
1016.556	30.45
1016.717	20.57
1016.877	83.92
1017.038	14.18
1017.199	54.67
1017.359	37.23
1017.52	46.34
1017.681	25.22
1017.841	54.09
1018.002	18.83
1018.162	7.98
1018.323	55.25
1018.483	32.39
1018.644	14.76
1018.804	-21.47
1018.964	0.42
1019.125	22.12
1019.285	27.16
1019.446	-4.23
1019.606	-17.4
1019.766	-36.78
1019.926	54.86
1020.087	37.81
1020.247	-27.09
1020.407	37.62
1020.567	75.4
1020.728	28.9
1020.888	9.72
1021.048	13.4
1021.208	19.6
1021.368	10.49
1021.528	78.5
1021.688	58.16
1021.848	57.58
1022.008	45.95
1022.168	19.79
1022.328	29.68
1022.488	53.51
1022.648	24.25
1022.808	32.19
1022.968	47.5
1023.128	21.15
1023.288	-7.91
1023.448	39.56
1023.608	36.07
1023.767	23.86
1023.927	20.96
1024.087	-8.69
1024.247	-21.67
1024.406	14.95
1024.566	19.6
1024.726	-5.59
1024.885	41.3
1025.045	34.71
1025.205	22.51
1025.364	39.94
1025.524	8.36
1025.683	31.61
1025.843	41.69
1026.003	23.28
1026.162	81.79
1026.321	43.04
1026.481	41.49
1026.64	0.61
1026.8	22.89
1026.959	18.24
1027.119	36.46
1027.278	-1.71
1027.437	-4.81
1027.597	12.82
1027.756	30.26
1027.915	48.86
1028.074	78.89
1028.234	-10.82
1028.393	23.09
1028.552	-11.01
1028.711	-56.15
1028.87	63.58
1029.03	-2.49
1029.189	47.31
1029.348	-70.49
1029.507	-6.94
1029.666	-0.36
1029.825	-20.89
1029.984	-7.52
1030.143	29.09
1030.302	7.98
1030.461	-40.85
1030.62	24.83
1030.779	50.41
1030.938	-12.37
1031.097	-23.02
1031.255	41.88
1031.414	65.52
1031.573	56.99
1031.732	-30
1031.891	-11.59
1032.049	71.14
1032.208	40.14
1032.367	-1.52
1032.525	-17.21
1032.684	11.85
1032.843	16.5
1033.001	-32.13
1033.16	155.22
1033.319	78.5
1033.477	31.42
1033.636	3.33
1033.794	-27.48
1033.953	47.89
1034.111	16.89
1034.27	0.42
1034.428	20.57
1034.587	-6.56
1034.745	25.41
1034.903	33.94
1035.062	31.03
1035.22	-26.7
1035.378	45.18
1035.537	-49.57
1035.695	59.13
1035.853	5.26
1036.011	38.59
1036.17	35.1
1036.328	-61.58
1036.486	8.17
1036.644	14.18
1036.802	-57.51
1036.96	-14.5
1037.119	3.33
1037.277	17.08
1037.435	-29.42
1037.593	-26.9
1037.751	-1.71
1037.909	32.97
1038.067	32.97
