Data from gum_old_FLMT105791__22__15-42-44-259.txt Node

Date: Mon Mar 20 15:42:44 GMT 2023
User: antho
Spectrometer: FLMT10579
Trigger mode: 0
Integration Time (sec): 1.000000E-1
Scans to average: 10
Electric dark correction enabled: true
Nonlinearity correction enabled: false
Boxcar width: 0
XAxis mode: Wavelengths
Number of Pixels in Spectrum: 3648
>>>>>Begin Spectral Data<<<<<
345.248	-177.5
345.464	-177.5
345.681	-177.5
345.898	-148.06
346.114	-163.17
346.331	-13.21
346.548	31.35
346.764	-27.54
346.981	5.97
347.197	-25.22
347.414	13.53
347.631	-28.32
347.847	65.84
348.064	-3.33
348.28	54.41
348.497	-50.41
348.713	-23.09
348.93	18.18
349.146	54.22
349.363	22.05
349.579	37.94
349.796	21.47
350.012	23.41
350.229	43.37
350.445	15.47
350.661	10.24
350.878	45.69
351.094	65.07
351.311	50.73
351.527	60.42
351.743	30
351.96	48.4
352.176	51.5
352.392	65.26
352.609	41.04
352.825	37.36
353.041	43.56
353.257	10.82
353.474	29.03
353.69	29.22
353.906	41.82
354.122	-6.43
354.339	96.45
354.555	34.65
354.771	19.92
354.987	130.17
355.203	105.56
355.42	41.43
355.636	22.44
355.852	29.8
356.068	70.69
356.284	26.32
356.5	71.46
356.716	44.53
356.932	27.09
357.148	69.72
357.364	45.3
357.58	70.3
357.796	79.02
358.012	98.39
358.228	64.87
358.444	-22.89
358.66	91.42
358.876	55.19
359.092	18.37
359.308	60.22
359.524	62.35
359.74	42.59
359.956	30.58
360.172	52.47
360.388	104.59
360.604	35.04
360.819	125.32
361.035	67.78
361.251	72.62
361.467	32.32
361.683	98.39
361.898	63.32
362.114	92.19
362.33	76.89
362.546	68.94
362.762	72.04
362.977	67.39
363.193	41.04
363.409	88.32
363.624	41.04
363.84	59.45
364.056	24.96
364.271	64.1
364.487	57.9
364.703	59.45
364.918	21.09
365.134	39.1
365.35	79.21
365.565	164.65
365.781	68.17
365.996	120.09
366.212	141.4
366.427	107.69
366.643	57.32
366.858	75.72
367.074	51.31
367.289	126.1
367.505	188.68
367.72	37.36
367.936	69.72
368.151	127.84
368.367	129
368.582	83.47
368.798	35.42
369.013	114.08
369.228	84.05
369.444	103.04
369.659	132.49
369.874	116.41
370.09	138.3
370.305	39.3
370.52	84.05
370.736	142.76
370.951	68.94
371.166	136.75
371.381	147.6
371.597	101.3
371.812	91.22
372.027	60.22
372.242	104.01
372.458	160.78
372.673	62.16
372.888	84.05
373.103	105.17
373.318	197.4
373.533	101.69
373.749	90.45
373.964	31.94
374.179	110.98
374.394	48.6
374.609	130.75
374.824	56.54
375.039	150.9
375.254	50.15
375.469	144.31
375.684	93.16
375.899	135.98
376.114	109.43
376.329	106.72
376.544	143.92
376.759	130.75
376.974	83.28
377.189	76.11
377.404	94.9
377.619	136.56
377.834	61
378.049	67.78
378.264	79.99
378.478	124.74
378.693	94.13
378.908	154.19
379.123	123.58
379.338	154.97
379.553	141.21
379.767	133.27
379.982	120.09
380.197	122.22
380.412	104.59
380.626	138.88
380.841	195.26
381.056	156.13
381.271	199.72
381.485	96.84
381.7	95.49
381.915	108.85
382.129	104.4
382.344	105.56
382.559	101.88
382.773	163.88
382.988	64.68
383.202	105.17
383.417	77.47
383.632	197.4
383.846	93.74
384.061	99.55
384.275	103.23
384.49	146.05
384.704	142.57
384.919	120.48
385.133	138.3
385.348	159.42
385.562	90.84
385.777	185.97
385.991	158.45
386.206	107.3
386.42	99.36
386.634	154.77
386.849	146.63
387.063	156.13
387.277	132.1
387.492	76.89
387.706	131.52
387.92	102.85
388.135	168.53
388.349	155.55
388.563	173.76
388.778	156.13
388.992	187.52
389.206	151.48
389.42	208.05
389.635	178.8
389.849	182.87
390.063	207.86
390.277	187.71
390.491	253.39
390.706	203.6
390.92	186.16
391.134	166.78
391.348	220.26
391.562	139.66
391.776	188.48
391.99	185
392.205	227.81
392.419	173.37
392.633	171.43
392.847	244.28
393.061	160
393.275	220.45
393.489	135.59
393.703	117.18
393.917	139.27
394.131	108.08
394.345	160.2
394.559	174.73
394.773	149.73
394.986	177.83
395.2	213.86
395.414	235.18
395.628	185.58
395.842	242.35
396.056	206.11
396.27	163.49
396.484	221.23
396.697	213.09
396.911	231.5
397.125	184.03
397.339	192.94
397.553	184.22
397.766	223.36
397.98	223.75
398.194	271.8
398.408	225.68
398.621	274.9
398.835	287.88
399.049	301.05
399.262	321.01
399.476	328.76
399.69	331.08
399.903	383.2
400.117	307.44
400.331	347.55
400.544	294.27
400.758	430.47
400.971	344.84
401.185	379.13
401.398	299.11
401.612	371.77
401.826	349.88
402.039	369.64
402.253	351.81
402.466	390.76
402.68	343.87
402.893	384.36
403.106	376.61
403.32	367.7
403.533	353.94
403.747	359.37
403.96	365.37
404.174	386.11
404.387	352.01
404.6	362.47
404.814	414.2
405.027	370.22
405.24	388.43
405.454	360.53
405.667	459.15
405.88	339.03
406.094	388.24
406.307	439.19
406.52	363.63
406.733	336.31
406.947	324.88
407.16	420.59
407.373	423.31
407.586	371.96
407.799	349.68
408.012	429.89
408.226	408.58
408.439	425.24
408.652	387.46
408.865	466.51
409.078	465.35
409.291	427.18
409.504	394.24
409.717	453.72
409.93	421.95
410.143	426.41
410.357	381.46
410.57	337.28
410.783	396.57
410.996	403.16
411.209	433.77
411.421	485.89
411.634	437.06
411.847	430.09
412.06	452.37
412.273	441.91
412.486	474.65
412.699	551.37
412.912	463.6
413.125	499.06
413.338	472.52
413.55	486.85
413.763	484.92
413.976	494.99
414.189	458.57
414.402	463.41
414.615	539.94
414.827	461.09
415.04	522.12
415.253	480.27
415.466	494.8
415.678	545.56
415.891	482.79
416.104	495.77
416.316	473.68
416.529	497.32
416.742	534.52
416.954	548.47
417.167	502.55
417.38	499.25
417.592	502.94
417.805	460.7
418.017	451.59
418.23	514.95
418.442	474.45
418.655	473.87
418.868	498.29
419.08	515.14
419.293	538.97
419.505	535.68
419.718	521.73
419.93	545.95
420.142	512.62
420.355	532.58
420.567	552.73
420.78	509.33
420.992	509.72
421.205	562.42
421.417	499.06
421.629	511.85
421.842	535.68
422.054	517.27
422.266	583.34
422.479	566.48
422.691	514.17
422.903	553.7
423.115	460.5
423.328	493.05
423.54	549.82
423.752	512.24
423.964	488.21
424.177	559.32
424.389	537.42
424.601	628.87
424.813	538.78
425.025	589.35
425.238	588.38
425.45	541.88
425.662	517.66
425.874	834.24
426.086	538
426.298	569.39
426.51	581.21
426.722	563.77
426.934	561.25
427.146	613.95
427.358	528.9
427.57	608.92
427.782	538.39
427.994	558.15
428.206	521.54
428.418	521.34
428.63	597.68
428.842	614.34
429.054	593.22
429.266	592.83
429.478	537.42
429.69	550.21
429.902	510.88
430.114	540.91
430.325	517.27
430.537	460.12
430.749	478.14
430.961	412.07
431.173	459.15
431.384	475.62
431.596	396.76
431.808	534.9
432.02	565.32
432.231	644.37
432.443	696.68
432.655	669.75
432.867	586.05
433.078	658.71
433.29	664.13
433.502	677.11
433.713	707.73
433.925	698.04
434.136	708.89
434.348	600.97
434.56	580.24
434.771	710.63
434.983	560.67
435.194	643.98
435.406	662.97
435.617	724
435.829	775.54
436.04	741.44
436.252	705.4
436.463	796.08
436.675	774.38
436.886	732.72
437.098	761.59
437.309	809.25
437.521	753.06
437.732	754.42
437.943	724.78
438.155	743.18
438.366	690.68
438.578	759.26
438.789	716.06
439	705.79
439.211	703.66
439.423	698.04
439.634	733.11
439.845	761.2
440.057	746.28
440.268	786
440.479	766.63
440.69	766.24
440.902	778.06
441.113	744.34
441.324	762.94
441.535	802.66
441.746	838.12
441.957	773.02
442.168	793.75
442.38	822.42
442.591	867.57
442.802	812.35
443.013	870.09
443.224	866.41
443.435	826.88
443.646	823.01
443.857	805.76
444.068	860.01
444.279	807.31
444.49	959.21
444.701	866.21
444.912	966.57
445.123	913.29
445.334	865.05
445.545	891.01
445.756	862.34
445.967	845.67
446.178	872.02
446.388	864.47
446.599	874.93
446.81	869.89
447.021	817.77
447.232	931.89
447.443	942.35
447.653	873.77
447.864	966.38
448.075	900.31
448.286	933.25
448.496	892.17
448.707	960.37
448.918	890.24
449.129	1023.34
449.339	907.48
449.55	918.33
449.761	914.65
449.971	972.58
450.182	931.5
450.393	1003
450.603	962.12
450.814	1006.68
451.024	984.4
451.235	1024.7
451.446	1082.82
451.656	1063.06
451.867	981.49
452.077	999.32
452.288	1020.82
452.498	1015.98
452.709	997.96
452.919	991.76
453.13	952.62
453.34	975.29
453.55	882.68
453.761	968.51
453.971	973.16
454.182	994.86
454.392	977.42
454.602	1080.69
454.813	994.28
455.023	1020.24
455.233	936.54
455.444	1009.78
455.654	934.6
455.864	958.44
456.075	977.42
456.285	960.18
456.495	1002.61
456.705	1022.37
456.916	1066.35
457.126	1051.63
457.336	1042.13
457.546	956.69
457.756	1018.11
457.967	1092.9
458.177	1019.66
458.387	1056.28
458.597	989.43
458.807	1016.95
459.017	997.77
459.227	995.63
459.437	1034.77
459.647	1066.93
459.857	1034.97
460.068	1024.89
460.278	1061.7
460.488	1054.53
460.698	1106.46
460.908	1030.32
461.117	1023.34
461.327	1056.67
461.537	1090.38
461.747	1111.88
461.957	1103.55
462.167	1209.34
462.377	1144.82
462.587	1088.44
462.797	1156.44
463.007	1114.98
463.216	1140.75
463.426	1184.93
463.636	1130.29
463.846	1045.43
464.056	1107.04
464.265	1125.06
464.475	1111.11
464.685	1111.88
464.895	1140.56
465.104	1070.42
465.314	1127.38
465.524	1107.81
465.733	1099.48
465.943	1180.47
466.153	1155.86
466.362	1157.22
466.572	1157.8
466.782	1119.05
466.991	1138.81
467.201	1174.08
467.41	1062.67
467.62	1138.04
467.829	1176.4
468.039	1136.68
468.249	1144.43
468.458	1160.9
468.668	1192.68
468.877	1195.58
469.086	1232.78
469.296	1218.83
469.505	1189.58
469.715	1276.37
469.924	1206.63
470.134	1247.51
470.343	1248.86
470.552	1193.45
470.762	1205.46
470.971	1201.59
471.18	1226.97
471.39	1213.21
471.599	1181.24
471.808	1251.57
472.018	1257.97
472.227	1316.67
472.436	1341.09
472.645	1289.55
472.855	1292.46
473.064	1417.81
473.273	1362.2
473.482	1373.25
473.691	1378.48
473.901	1378.87
474.11	1333.92
474.319	1438.93
474.528	1387.39
474.737	1463.34
474.946	1411.22
475.155	1447.65
475.364	1459.85
475.573	1458.11
475.783	1466.05
475.992	1479.03
476.201	1502.86
476.41	1472.25
476.619	1399.02
476.828	1462.57
477.037	1437.96
477.245	1425.75
477.454	1475.35
477.663	1512.75
477.872	1517.59
478.081	1602.06
478.29	1529.99
478.499	1667.74
478.708	1604
478.917	1627.06
479.125	1552.27
479.334	1599.93
479.543	1577.26
479.752	1664.84
479.961	1637.52
480.169	1691.38
480.378	1641.98
480.587	1795.42
480.796	1672.98
481.004	1684.79
481.213	1704.75
481.422	1696.03
481.63	1712.11
481.839	1759.58
482.048	1800.65
482.256	1765
482.465	1801.82
482.674	1817.32
482.882	1804.34
483.091	1849.67
483.299	1788.25
483.508	1845.02
483.716	1818.09
483.925	1865.56
484.134	1793.49
484.342	1772.17
484.551	1841.73
484.759	1808.6
484.967	1868.47
485.176	1861.68
485.384	1880.28
485.593	1905.86
485.801	1857.23
486.01	1789.22
486.218	1747.76
486.426	1603.61
486.635	1596.83
486.843	1593.54
487.051	1641.39
487.26	1664.64
487.468	1703.97
487.676	1807.82
487.885	1794.84
488.093	1839.79
488.301	1888.03
488.509	1894.23
488.717	1950.61
488.926	1945
489.134	1913.22
489.342	1937.44
489.55	1909.35
489.758	1950.81
489.967	1957.59
490.175	2084.88
490.383	2018.62
490.591	2112.2
490.799	2041.68
491.007	2067.83
491.215	2111.23
491.423	2032.76
491.631	2044.19
491.839	2035.48
492.047	2089.34
492.255	2013.97
492.463	1936.67
492.671	1943.83
492.879	2051.36
493.087	2013.97
493.295	2040.9
493.503	2062.21
493.711	2149.01
493.919	2124.99
494.127	2135.45
494.334	2128.09
494.542	2106.78
494.75	2140.1
494.958	2139.71
495.166	2249.37
495.374	2226.32
495.581	2245.89
495.789	2227.48
495.997	2269.52
496.205	2155.21
496.412	2150.76
496.62	2192.8
496.828	2219.15
497.035	2244.72
497.243	2257.32
497.451	2249.57
497.658	2248.02
497.866	2228.64
498.074	2316.8
498.281	2213.14
498.489	2310.21
498.696	2223.8
498.904	2143.59
499.112	2152.89
499.319	2280.37
499.527	2267.2
499.734	2293.93
499.942	2168.58
500.149	2222.64
500.357	2307.69
500.564	2191.44
500.771	2193.19
500.979	2172.26
501.186	2189.31
501.394	2239.69
501.601	2185.24
501.808	2222.44
502.016	2213.14
502.223	2183.69
502.43	2192.8
502.638	2181.37
502.845	2200.55
503.052	2317.38
503.26	2249.37
503.467	2289.09
503.674	2281.54
503.881	2310.21
504.089	2355.16
504.296	2273.4
504.503	2211.2
504.71	2265.26
504.917	2230.19
505.125	2298.58
505.332	2320.67
505.539	2324.74
505.746	2382.86
505.953	2379.18
506.16	2394.88
506.367	2424.33
506.574	2462.69
506.781	2486.13
506.988	2341.02
507.195	2368.72
507.402	2404.18
507.609	2407.28
507.816	2322.8
508.023	2387.51
508.23	2353.03
508.437	2286.96
508.644	2312.73
508.851	2390.03
509.058	2410.76
509.265	2379.18
509.472	2470.44
509.679	2488.65
509.885	2429.17
510.092	2433.82
510.299	2444.48
510.506	2391.58
510.713	2461.72
510.92	2407.86
511.126	2456.1
511.333	2505.7
511.54	2455.13
511.746	2504.54
511.953	2506.48
512.16	2539.99
512.367	2502.6
512.573	2498.14
512.78	2462.11
512.987	2468.5
513.193	2462.49
513.4	2315.44
513.606	2427.04
513.813	2462.3
514.02	2448.35
514.226	2467.14
514.433	2503.96
514.639	2414.64
514.846	2440.41
515.052	2420.65
515.259	2460.56
515.465	2450.29
515.672	2477.41
515.878	2550.26
516.085	2512.09
516.291	2543.87
516.497	2481.87
516.704	2416.77
516.91	2376.86
517.117	2258.09
517.323	2181.95
517.529	2228.84
517.736	2201.71
517.942	2199.58
518.148	2235.04
518.354	2295.29
518.561	2339.66
518.767	2302.65
518.973	2336.37
519.179	2366.78
519.386	2354.38
519.592	2379.18
519.798	2381.7
520.004	2496.4
520.21	2487.49
520.417	2541.35
520.623	2585.52
520.829	2575.06
521.035	2577
521.241	2565.18
521.447	2579.52
521.653	2706.04
521.859	2611.29
522.065	2638.8
522.271	2741.3
522.477	2673.1
522.683	2741.1
522.889	2716.5
523.095	2675.04
523.301	2621.17
523.507	2539.22
523.713	2645.78
523.919	2585.91
524.125	2717.27
524.331	2682.4
524.537	2790.51
524.742	2795.55
524.948	2816.28
525.154	2770.55
525.36	2907.34
525.566	2773.65
525.772	2876.15
525.977	2761.06
526.183	2775.59
526.389	2875.18
526.595	2725.22
526.8	2728.32
527.006	2604.12
527.212	2566.34
527.417	2538.83
527.623	2531.08
527.829	2623.89
528.034	2671.94
528.24	2683.17
528.446	2698.09
528.651	2818.41
528.857	2870.72
529.062	2933.69
529.268	2913.15
529.473	2957.13
529.679	2953.26
529.884	3043.54
530.09	2982.13
530.295	2979.61
530.501	2963.33
530.706	2990.65
530.912	2984.64
531.117	2993.56
531.323	2980.96
531.528	3075.32
531.733	3045.29
531.939	2980.19
532.144	3052.07
532.35	3025.33
532.555	3025.72
532.76	3017.58
532.966	3025.72
533.171	2885.25
533.376	2897.65
533.581	2851.15
533.787	2939.31
533.992	3002.66
534.197	3015.26
534.402	2962.17
534.607	2979.61
534.813	3047.61
535.018	3013.51
535.223	3016.61
535.428	3022.81
535.633	3090.62
535.838	3092.56
536.043	3065.05
536.249	3223.34
536.454	3136.35
536.659	3134.02
536.864	3141.58
537.069	3087.33
537.274	3050.32
537.479	3061.17
537.684	3028.82
537.889	2993.94
538.094	3140.42
538.299	3070.28
538.504	3054.2
538.708	3104.38
538.913	3130.92
539.118	3081.52
539.323	3101.67
539.528	3050.13
539.733	3076.09
539.938	3088.3
540.142	3070.86
540.347	3045.67
540.552	3028.62
540.757	2957.91
540.962	3022.04
541.166	2941.83
541.371	2934.08
541.576	3009.83
541.781	2892.23
541.985	3071.83
542.19	3026.3
542.395	3124.92
542.599	3210.55
542.804	3086.75
543.008	3224.12
543.213	3073.96
543.418	3060.59
543.622	3148.55
543.827	3009.64
544.031	3174.13
544.236	3159.99
544.44	3153.98
544.645	3223.34
544.849	3129.18
545.054	3147.59
545.258	3301.23
545.463	3214.23
545.667	3103.41
545.872	3205.9
546.076	3154.75
546.281	3156.5
546.485	3108.25
546.689	3197.77
546.894	3186.14
547.098	3183.62
547.302	3116.97
547.507	3152.24
547.711	3180.72
547.915	3175.68
548.119	3060.79
548.324	3134.02
548.528	3194.86
548.732	3114.45
548.936	3174.9
549.141	3175.48
549.345	3193.89
549.549	3178.39
549.753	3230.12
549.957	3279.14
550.161	3269.26
550.366	3238.26
550.57	3162.89
550.774	3192.92
550.978	3186.33
551.182	3216.17
551.386	3178.78
551.59	3164.83
551.794	3181.1
551.998	3157.85
552.202	3209.39
552.406	3153.98
552.61	3247.95
552.814	3188.47
553.018	3209.78
553.222	3135.38
553.426	3140.42
553.63	3209.2
553.833	3219.66
554.037	3098.76
554.241	3203.77
554.445	3181.3
554.649	3176.45
554.853	3169.67
555.056	3220.05
555.26	3223.53
555.464	3200.67
555.668	3234.97
555.871	3176.07
556.075	3215.2
556.279	3127.63
556.483	3109.22
556.686	3119.3
556.89	3127.05
557.094	3148.17
557.297	3065.82
557.501	3121.24
557.704	3019.13
557.908	3130.54
558.112	3019.91
558.315	3112.9
558.519	3071.44
558.722	3072.41
558.926	3026.3
559.129	2941.63
559.333	2965.08
559.536	2989.49
559.74	2954.81
559.943	2925.16
560.147	2916.06
560.35	2956.36
560.553	2986.58
560.757	2889.51
560.96	3039.28
561.164	2986.58
561.367	3076.87
561.57	3017.97
561.774	3046.45
561.977	2979.8
562.18	2981.35
562.384	3073.96
562.587	3000.92
562.79	2996.85
562.993	2931.56
563.197	2981.93
563.4	3054.01
563.603	3041.02
563.806	3108.45
564.009	2986.77
564.212	3005.37
564.416	2948.41
564.619	2934.66
564.822	2879.83
565.025	2991.23
565.228	2948.99
565.431	2972.05
565.634	2842.63
565.837	2871.11
566.04	2844.56
566.243	2884.67
566.446	2753.31
566.649	2852.12
566.852	2793.8
567.055	2823.83
567.258	2871.3
567.461	2914.12
567.664	2912.76
567.867	2824.22
568.07	2831.58
568.273	2833.52
568.475	2938.14
568.678	2820.15
568.881	2851.54
569.084	2800.58
569.287	2725.99
569.489	2747.88
569.692	2788.77
569.895	2814.34
570.098	2699.45
570.3	2708.55
570.503	2671.74
570.706	2670.77
570.909	2663.22
571.111	2583.97
571.314	2621.17
571.516	2624.08
571.719	2627.76
571.922	2597.54
572.124	2644.42
572.327	2681.62
572.529	2604.71
572.732	2629.7
572.935	2672.9
573.137	2764.93
573.34	2654.11
573.542	2690.34
573.745	2707.78
573.947	2668.06
574.15	2665.74
574.352	2624.47
574.554	2713.59
574.757	2676.39
574.959	2638.42
575.162	2605.87
575.364	2587.27
575.566	2657.6
575.769	2559.76
575.971	2603.16
576.173	2441.57
576.376	2567.12
576.578	2601.8
576.78	2671.35
576.982	2504.54
577.185	2523.72
577.387	2535.93
577.589	2552.59
577.791	2579.13
577.993	2560.92
578.196	2521.59
578.398	2569.83
578.6	2524.3
578.802	2442.35
579.004	2474.7
579.206	2443.31
579.408	2501.63
579.61	2441.96
579.812	2492.33
580.014	2439.05
580.216	2469.47
580.418	2483.42
580.62	2454.94
580.822	2407.08
581.024	2487.49
581.226	2554.33
581.428	2475.48
581.63	2563.44
581.832	2447.96
582.034	2515.19
582.236	2494.66
582.438	2542.9
582.64	2521.78
582.841	2557.82
583.043	2607.22
583.245	2474.31
583.447	2524.69
583.649	2498.92
583.85	2493.11
584.052	2554.91
584.254	2457.26
584.456	2552.59
584.657	2452.03
584.859	2490.01
585.061	2473.73
585.262	2418.32
585.464	2425.88
585.666	2504.93
585.867	2441.38
586.069	2490.39
586.27	2426.65
586.472	2416.58
586.674	2422.39
586.875	2418.32
587.077	2416.77
587.278	2449.32
587.48	2402.82
587.681	2516.94
587.883	2432.46
588.084	2374.73
588.285	2357.29
588.487	2310.21
588.688	2373.95
588.89	2279.4
589.091	2270.1
589.292	2219.73
589.494	2196.48
589.695	2144.36
589.896	2067.83
590.098	2120.92
590.299	2148.43
590.5	2131.38
590.702	2139.71
590.903	2195.9
591.104	2287.15
591.305	2256.93
591.507	2294.52
591.708	2291.8
591.909	2276.89
592.11	2327.07
592.311	2342.18
592.512	2268.55
592.714	2214.5
592.915	2240.65
593.116	2205.2
593.317	2255.96
593.518	2259.25
593.719	2278.05
593.92	2278.44
594.121	2305.37
594.322	2295.87
594.523	2252.86
594.724	2230.19
594.925	2253.25
595.126	2261.97
595.327	2298.39
595.528	2257.12
595.729	2234.07
595.929	2256.54
596.13	2305.17
596.331	2257.32
596.532	2271.07
596.733	2341.98
596.934	2302.27
597.135	2298
597.335	2307.11
597.536	2261.58
597.737	2292.77
597.938	2251.7
598.138	2317.57
598.339	2274.95
598.54	2344.7
598.74	2252.86
598.941	2271.85
599.142	2285.41
599.342	2289.67
599.543	2239.1
599.744	2243.17
599.944	2207.52
600.145	2212.56
600.345	2249.37
600.546	2349.73
600.746	2310.6
600.947	2325.13
601.147	2257.9
601.348	2337.33
601.548	2217.4
601.749	2206.36
601.949	2186.21
602.15	2182.53
602.35	2146.69
602.551	2256.93
602.751	2179.24
602.951	2179.62
603.152	2128.86
603.352	2228.45
603.552	2226.12
603.753	2265.65
603.953	2265.45
604.153	2250.15
604.354	2246.27
604.554	2229.42
604.754	2225.74
604.954	2193.19
605.155	2256.35
605.355	2197.26
605.555	2278.44
605.755	2267.97
605.955	2250.15
606.155	2255.57
606.356	2222.64
606.556	2252.86
606.756	2237.36
606.956	2193.38
607.156	2296.45
607.356	2193.19
607.556	2237.55
607.756	2208.69
607.956	2256.74
608.156	2243.95
608.356	2190.28
608.556	2259.06
608.756	2186.99
608.956	2143.2
609.156	2181.56
609.356	2140.1
609.556	2120.14
609.755	2192.99
609.955	2096.31
610.155	2142.04
610.355	2180.21
610.555	2083.14
610.755	2112.59
610.954	2048.26
611.154	2130.02
611.354	2167.03
611.554	2054.27
611.753	2117.24
611.953	2065.7
612.153	2144.17
612.352	2104.45
612.552	2060.86
612.752	2039.16
612.951	2076.94
613.151	2084.3
613.351	2040.71
613.55	2096.7
613.75	2085.85
613.949	2047.68
614.149	2041.09
614.348	2039.74
614.548	2054.27
614.747	1982.78
614.947	2046.71
615.146	1959.14
615.346	2099.61
615.545	2026.95
615.745	2070.93
615.944	2068.99
616.144	2033.93
616.343	2010.1
616.542	2006.03
616.742	2023.46
616.941	1998.47
617.14	1925.04
617.34	1991.69
617.539	1944.22
617.738	1954.1
617.938	2038.19
618.137	1973.86
618.336	1919.62
618.535	2029.86
618.734	2024.24
618.934	2004.86
619.133	2051.17
619.332	2060.28
619.531	2003.9
619.73	2013.97
619.929	2040.51
620.128	2033.34
620.328	2062.99
620.527	2000.99
620.726	2008.35
620.925	2037.99
621.124	1995.56
621.323	2028.11
621.522	1949.45
621.721	1984.71
621.92	1934.34
622.119	1999.83
622.318	1927.37
622.517	1969.8
622.715	1929.69
622.914	1905.08
623.113	1953.71
623.312	1871.18
623.511	1961.08
623.71	1921.17
623.909	1895.4
624.107	1967.28
624.306	1904.12
624.505	1888.62
624.704	1876.02
624.902	1866.14
625.101	1950.42
625.3	1890.75
625.499	1875.44
625.697	1884.74
625.896	1872.15
626.095	1885.9
626.293	1837.08
626.492	1880.87
626.69	1866.14
626.889	1897.33
627.088	1890.94
627.286	1862.85
627.485	1852.38
627.683	1851.8
627.882	1856.65
628.08	1757.26
628.279	1835.34
628.477	1863.43
628.676	1801.82
628.874	1870.6
629.073	1791.16
629.271	1780.89
629.469	1853.93
629.668	1817.7
629.866	1794.45
630.065	1772.56
630.263	1818.09
630.461	1744.86
630.66	1764.62
630.858	1811.31
631.056	1815.38
631.254	1848.12
631.453	1776.24
631.651	1808.99
631.849	1782.44
632.047	1790.58
632.245	1764.23
632.444	1782.64
632.642	1791.16
632.84	1799.69
633.038	1781.67
633.236	1757.64
633.434	1742.34
633.632	1749.89
633.83	1743.31
634.028	1811.7
634.227	1794.45
634.425	1808.4
634.623	1745.24
634.821	1800.65
635.019	1782.64
635.216	1771.79
635.414	1808.4
635.612	1786.51
635.81	1735.36
636.008	1836.89
636.206	1799.3
636.404	1806.47
636.602	1760.16
636.8	1774.11
636.997	1763.65
637.195	1773.72
637.393	1752.02
637.591	1814.8
637.789	1786.32
637.986	1735.17
638.184	1798.33
638.382	1837.47
638.58	1823.52
638.777	1833.2
638.975	1761.32
639.173	1818.48
639.37	1809.76
639.568	1769.46
639.765	1786.7
639.963	1733.23
640.161	1779.34
640.358	1767.52
640.556	1715.79
640.753	1668.33
640.951	1672.01
641.148	1706.49
641.346	1684.99
641.543	1710.37
641.741	1698.36
641.938	1666.58
642.136	1681.5
642.333	1635
642.531	1743.5
642.728	1722.77
642.925	1725.09
643.123	1655.34
643.32	1724.12
643.517	1648.37
643.715	1691.19
643.912	1672.01
644.109	1686.34
644.306	1698.94
644.504	1664.06
644.701	1712.11
644.898	1697.97
645.095	1643.91
645.293	1664.45
645.49	1697.19
645.687	1675.88
645.884	1675.11
646.081	1578.23
646.278	1640.81
646.475	1591.99
646.672	1597.41
646.87	1674.14
647.067	1642.36
647.264	1646.24
647.461	1606.33
647.658	1557.5
647.855	1604.19
648.052	1558.66
648.249	1495.89
648.446	1550.72
648.642	1601.09
648.839	1548.2
649.036	1559.83
649.233	1519.91
649.43	1544.13
649.627	1509.65
649.824	1513.91
650.021	1483.49
650.217	1485.04
650.414	1508.48
650.611	1557.5
650.808	1583.08
651.004	1549.75
651.201	1571.26
651.398	1630.54
651.595	1548.01
651.791	1507.32
651.988	1613.88
652.185	1525.73
652.381	1565.45
652.578	1518.17
652.775	1580.17
652.971	1557.89
653.168	1524.37
653.364	1592.38
653.561	1512.16
653.757	1524.18
653.954	1576.1
654.15	1527.28
654.347	1625.31
654.543	1540.45
654.74	1495.7
654.936	1478.65
655.133	1528.63
655.329	1516.43
655.525	1487.37
655.722	1506.35
655.918	1414.52
656.115	1466.63
656.311	1367.44
656.507	1331.98
656.704	1254.29
656.9	1332.95
657.096	1323.46
657.292	1306.79
657.489	1394.17
657.685	1385.45
657.881	1368.6
658.077	1406.77
658.273	1422.07
658.47	1506.16
658.666	1402.31
658.862	1507.71
659.058	1446.68
659.254	1500.15
659.45	1483.49
659.646	1475.35
659.842	1480
660.038	1507.9
660.234	1505
660.43	1469.15
660.626	1547.04
660.822	1498.02
661.018	1547.23
661.214	1529.8
661.41	1455.01
661.606	1538.51
661.802	1574.36
661.998	1527.08
662.194	1480.39
662.39	1521.85
662.586	1534.25
662.781	1534.45
662.977	1532.31
663.173	1556.15
663.369	1503.25
663.564	1526.11
663.76	1497.05
663.956	1478.26
664.152	1498.02
664.347	1428.66
664.543	1449
664.739	1462.37
664.934	1379.84
665.13	1424.01
665.326	1497.44
665.521	1461.4
665.717	1435.25
665.912	1447.84
666.108	1379.45
666.304	1433.7
666.499	1443.38
666.695	1360.27
666.89	1478.84
667.086	1457.92
667.281	1455.4
667.477	1509.06
667.672	1469.54
667.867	1471.28
668.063	1445.13
668.258	1416.45
668.454	1448.62
668.649	1518.75
668.844	1470.7
669.04	1474.38
669.235	1439.51
669.43	1435.83
669.626	1407.93
669.821	1417.62
670.016	1415.48
670.211	1405.8
670.407	1371.5
670.602	1445.71
670.797	1398.24
670.992	1445.13
671.187	1382.74
671.382	1465.28
671.578	1373.44
671.773	1417.81
671.968	1332.17
672.163	1422.07
672.358	1438.35
672.553	1377.51
672.748	1383.13
672.943	1458.11
673.138	1407.35
673.333	1412.97
673.528	1361.43
673.723	1452.68
673.918	1360.65
674.113	1361.04
674.308	1461.02
674.503	1397.47
674.698	1443.77
674.892	1393.4
675.087	1406.38
675.282	1434.08
675.477	1365.69
675.672	1397.27
675.867	1364.72
676.061	1348.25
676.256	1294.78
676.451	1358.72
676.646	1409.29
676.84	1332.17
677.035	1351.35
677.23	1331.79
677.424	1409.67
677.619	1415.1
677.814	1400.18
678.008	1401.15
678.203	1350
678.397	1336.44
678.592	1371.12
678.787	1440.28
678.981	1333.92
679.176	1380.03
679.37	1373.64
679.565	1343.41
679.759	1370.34
679.954	1358.72
680.148	1404.25
680.342	1452.3
680.537	1399.79
680.731	1362.98
680.926	1376.54
681.12	1347.09
681.314	1346.51
681.509	1368.99
681.703	1337.6
681.897	1355.62
682.092	1350.97
682.286	1334.5
682.48	1411.22
682.674	1387.39
682.869	1326.94
683.063	1338.76
683.257	1412.19
683.451	1289.16
683.645	1368.99
683.839	1334.69
684.034	1350.77
684.228	1318.42
684.422	1282.57
684.616	1316.87
684.81	1352.32
685.004	1304.08
685.198	1324.23
685.392	1329.46
685.586	1323.84
685.78	1321.91
685.974	1360.65
686.168	1330.82
686.362	1353.29
686.556	1249.25
686.75	1216.89
686.944	1195.78
687.138	1190.54
687.331	1100.84
687.525	1093.48
687.719	1028.18
687.913	1077.59
688.107	1087.66
688.301	1063.25
688.494	1108.01
688.688	1035.93
688.882	1037.87
689.076	1006.87
689.269	1067.32
689.463	1125.64
689.657	1064.41
689.85	1061.7
690.044	1094.64
690.238	1102.58
690.431	1079.91
690.625	1064.8
690.818	1148.31
691.012	1133.78
691.205	1180.86
691.399	1118.08
691.593	1131.26
691.786	1211.66
691.98	1189.58
692.173	1241.89
692.366	1184.54
692.56	1187.83
692.753	1246.73
692.947	1142.88
693.14	1226.97
693.333	1248.09
693.527	1170.2
693.72	1231.23
693.914	1196.74
694.107	1177.37
694.3	1186.09
694.493	1164.19
694.687	1268.24
694.88	1166.71
695.073	1246.92
695.266	1228.33
695.46	1213.79
695.653	1265.52
695.846	1259.13
696.039	1173.49
696.232	1237.04
696.425	1282.38
696.618	1276.37
696.812	1257.58
697.005	1326.17
697.198	1380.8
697.391	1315.12
697.584	1347.48
697.777	1403.67
697.97	1375.57
698.163	1406.77
698.356	1381.97
698.549	1438.93
698.742	1437.57
698.935	1338.95
699.127	1405.02
699.32	1368.4
699.513	1366.66
699.706	1397.85
699.899	1444.16
700.092	1405.22
700.285	1410.06
700.477	1349.03
700.67	1417.03
700.863	1456.75
701.056	1525.15
701.248	1530.57
701.441	1501.31
701.634	1452.49
701.826	1538.71
702.019	1458.11
702.212	1536.38
702.404	1503.83
702.597	1477.87
702.79	1495.12
702.982	1538.51
703.175	1555.37
703.367	1570.68
703.56	1600.13
703.752	1650.11
703.945	1623.38
704.137	1652.44
704.33	1691.57
704.522	1692.35
704.715	1714.05
704.907	1725.67
705.1	1758.22
705.292	1759
705.484	1771.98
705.677	1789.8
705.869	1822.94
706.061	1816.54
706.254	1841.92
706.446	1807.82
706.638	1830.49
706.831	1917.68
707.023	1858.97
707.215	1960.5
707.407	1984.33
707.599	1946.35
707.792	2000.21
707.984	1948.1
708.176	2047.49
708.368	1999.83
708.56	2026.56
708.752	2033.15
708.944	2036.25
709.136	2081.59
709.329	2035.48
709.521	2162.96
709.713	2166.64
709.905	2162.77
710.097	2229.61
710.289	2179.24
710.481	2178.66
710.672	2221.47
710.864	2194.35
711.056	2303.04
711.248	2261.39
711.44	2265.07
711.632	2243.95
711.824	2330.55
712.016	2388.68
712.207	2353.8
712.399	2361.36
712.591	2443.12
712.783	2414.25
712.975	2464.04
713.166	2422.58
713.358	2452.42
713.55	2495.82
713.741	2496.21
713.933	2544.06
714.125	2512.68
714.316	2477.22
714.508	2603.74
714.7	2587.66
714.891	2581.07
715.083	2670.58
715.274	2605.87
715.466	2629.51
715.657	2679.69
715.849	2582.42
716.04	2634.74
716.232	2612.46
716.423	2649.46
716.615	2570.8
716.806	2581.26
716.998	2550.84
717.189	2477.99
717.381	2398.95
717.572	2413.09
717.763	2385.77
717.955	2388.87
718.146	2355.74
718.337	2279.02
718.528	2254.8
718.72	2186.21
718.911	2268.17
719.102	2199.39
719.293	2276.69
719.485	2241.24
719.676	2258.67
719.867	2234.07
720.058	2258.48
720.249	2230.97
720.44	2244.53
720.632	2289.28
720.823	2369.88
721.014	2471.6
721.205	2532.05
721.396	2625.05
721.587	2709.52
721.778	2709.52
721.969	2777.92
722.16	2881.76
722.351	2910.44
722.542	3025.33
722.733	3058.46
722.924	2939.31
723.115	3027.07
723.305	2992.59
723.496	3029.98
723.687	2849.02
723.878	2888.35
724.069	2862.78
724.26	2882.35
724.45	2807.95
724.641	2836.81
724.832	2885.83
725.023	2845.53
725.213	2885.25
725.404	2822.67
725.595	2885.83
725.785	2876.73
725.976	2939.89
726.167	2965.66
726.357	2953.64
726.548	3093.53
726.739	2985.03
726.929	3059.62
727.12	3099.73
727.31	3111.74
727.501	3084.04
727.691	3084.04
727.882	3098.95
728.072	3156.5
728.263	3131.12
728.453	3180.91
728.644	3245.82
728.834	3232.45
729.024	3144.49
729.215	3141.39
729.405	3213.07
729.596	3288.63
729.786	3304.91
729.976	3330.1
730.167	3335.71
730.357	3311.5
730.547	3355.48
730.737	3365.94
730.928	3389.77
731.118	3460.49
731.308	3406.04
731.498	3431.62
731.688	3532.37
731.879	3531.79
732.069	3591.27
732.259	3658.3
732.449	3667.02
732.639	3738.71
732.829	3759.63
733.019	3799.16
733.209	3856.31
733.399	3883.24
733.589	3949.7
733.779	3971.01
733.969	3960.55
734.159	4082.22
734.349	4117.68
734.539	4162.05
734.729	4135.5
734.919	4186.46
735.109	4247.29
735.299	4175.61
735.488	4223.46
735.678	4209.71
735.868	4230.05
736.058	4221.14
736.248	4219.01
736.437	4196.92
736.627	4167.08
736.817	4292.83
737.007	4275.39
737.196	4295.73
737.386	4288.95
737.576	4250.01
737.765	4363.74
737.955	4267.44
738.144	4442.79
738.334	4351.92
738.524	4379.62
738.713	4385.63
738.903	4363.74
739.092	4374.2
739.282	4422.83
739.471	4436.59
739.661	4457.12
739.85	4505.75
740.04	4461.77
740.229	4487.15
740.419	4511.18
740.608	4584.61
740.797	4491.61
740.987	4581.9
741.176	4582.67
741.365	4526.29
741.555	4487.15
741.744	4524.93
741.933	4533.07
742.123	4611.73
742.312	4600.11
742.501	4669.08
742.69	4662.11
742.88	4575.31
743.069	4684.19
743.258	4669.28
743.447	4737.47
743.636	4696.01
743.825	4644.86
744.014	4731.66
744.204	4749.87
744.393	4628.78
744.582	4799.86
744.771	4804.51
744.96	4756.27
745.149	4712.09
745.338	4702.99
745.527	4865.54
745.716	4750.07
745.905	4658.81
746.094	4817.88
746.283	4782.23
746.471	4776.22
746.66	4853.72
746.849	4878.91
747.038	4813.04
747.227	4796.76
747.416	4827.95
747.604	4804.32
747.793	4801.22
747.982	4797.15
748.171	4854.11
748.359	4838.22
748.548	4813.23
748.737	4816.91
748.926	4838.61
749.114	4707.64
749.303	4813.23
749.491	4787.85
749.68	4708.8
749.869	4793.66
750.057	4796.37
750.246	4796.76
750.434	4759.95
750.623	4752.97
750.811	4743.87
751	4783.39
751.188	4748.71
751.377	4741.74
751.565	4710.54
751.754	4672.96
751.942	4688.07
752.131	4798.51
752.319	4765.18
752.507	4725.66
752.696	4727.59
752.884	4757.62
753.072	4698.34
753.261	4760.14
753.449	4741.16
753.637	4663.85
753.825	4765.76
754.014	4685.74
754.202	4701.83
754.39	4784.75
754.578	4813.81
754.766	4651.45
754.955	4644.67
755.143	4746.19
755.331	4658.43
755.519	4719.46
755.707	4704.93
755.895	4707.83
756.083	4680.71
756.271	4616.19
756.459	4688.65
756.647	4704.15
756.835	4654.94
757.023	4627.62
757.211	4619.1
757.399	4593.33
757.587	4594.68
757.775	4474.75
757.963	4595.07
758.151	4589.06
758.339	4526.68
758.526	4537.14
758.714	4582.28
758.902	4446.85
759.09	4371.49
759.278	4179.68
759.465	3934.2
759.653	3550.58
759.841	3253.18
760.028	2873.43
760.216	2533.79
760.404	2376.47
760.591	2047.68
760.779	1778.37
760.967	1618.92
761.154	1434.28
761.342	1490.47
761.529	1472.83
761.717	1524.37
761.905	1583.46
762.092	1723.74
762.28	1678.79
762.467	1728.58
762.655	1628.03
762.842	1694.29
763.029	1704.56
763.217	1752.8
763.404	1714.24
763.592	1809.18
763.779	1786.9
763.966	1830.1
764.154	1867.11
764.341	1941.31
764.528	1915.93
764.716	2048.65
764.903	2090.31
765.09	2202.87
765.277	2242.79
765.465	2396.23
765.652	2463.66
765.839	2512.29
766.026	2670.58
766.213	2749.43
766.4	2835.07
766.588	3039.67
766.775	3064.66
766.962	3214.23
767.149	3252.6
767.336	3369.62
767.523	3381.05
767.71	3501.37
767.897	3692.79
768.084	3726.5
768.271	3749.17
768.458	3800.71
768.645	3866.19
768.832	3784.43
769.019	3864.64
769.206	3891.77
769.392	3988.06
769.579	4084.74
769.766	3987.67
769.953	4034.75
770.14	4087.65
770.327	4035.14
770.513	4083.77
770.7	4160.69
770.887	4044.44
771.073	4083.19
771.26	4114.58
771.447	4019.06
771.634	4013.83
771.82	4169.02
772.007	4034.95
772.193	4099.85
772.38	4137.44
772.567	4081.25
772.753	4051.8
772.94	4111.67
773.126	4109.73
773.313	4146.16
773.499	4105.28
773.686	4101.98
773.872	4049.09
774.059	4123.88
774.245	4007.24
774.432	4051.42
774.618	3996.78
774.804	4036.69
774.991	3965.59
775.177	4014.22
775.363	3971.4
775.55	4045.99
775.736	3936.91
775.922	3998.72
776.109	3959.39
776.295	4002.79
776.481	3982.44
776.667	4014.22
776.853	3957.45
777.04	3931.29
777.226	3957.25
777.412	4024.68
777.598	3927.81
777.784	3914.44
777.97	3903.78
778.156	3929.55
778.342	3894.09
778.528	3899.32
778.715	3811.75
778.901	3844.69
779.087	3908.43
779.272	3816.79
779.458	3837.52
779.644	3868.13
779.83	3865.03
780.016	3909.59
780.202	3782.88
780.388	3839.26
780.574	3718.36
780.76	3789.47
780.946	3845.85
781.131	3784.24
781.317	3740.84
781.503	3752.27
781.689	3748.59
781.874	3857.67
782.06	3764.86
782.246	3778.23
782.432	3770.87
782.617	3732.9
782.803	3803.61
782.989	3728.63
783.174	3670.9
783.36	3624.59
783.545	3664.7
783.731	3714.49
783.916	3573.25
784.102	3699.76
784.288	3629.63
784.473	3637.57
784.659	3596.5
784.844	3675.74
785.029	3583.13
785.215	3581.19
785.4	3595.72
785.586	3671.67
785.771	3560.27
785.956	3573.64
786.142	3545.74
786.327	3519.77
786.512	3555.23
786.698	3557.75
786.883	3461.26
787.068	3503.69
787.254	3517.64
787.439	3459.13
787.624	3483.16
787.809	3465.52
787.994	3444.99
788.18	3569.76
788.365	3413.79
788.55	3416.89
788.735	3418.64
788.92	3399.07
789.105	3423.29
789.29	3433.36
789.475	3400.04
789.66	3388.8
789.845	3327.38
790.03	3339.78
790.215	3360.71
790.4	3381.83
790.585	3386.86
790.77	3369.62
790.955	3249.11
791.14	3345.21
791.325	3384.93
791.51	3229.15
791.695	3353.73
791.879	3258.21
792.064	3242.33
792.249	3344.63
792.434	3275.65
792.618	3274.88
792.803	3300.26
792.988	3330.87
793.173	3311.69
793.357	3352.57
793.542	3255.89
793.727	3293.67
793.911	3305.1
794.096	3272.55
794.281	3303.55
794.465	3381.44
794.65	3294.64
794.834	3381.63
795.019	3346.95
795.203	3372.53
795.388	3314.01
795.572	3374.46
795.757	3353.73
795.941	3376.98
796.126	3355.67
796.31	3343.85
796.494	3370.78
796.679	3273.91
796.863	3248.91
797.048	3397.71
797.232	3357.22
797.416	3328.55
797.601	3344.24
797.785	3427.55
797.969	3384.15
798.153	3328.16
798.338	3343.85
798.522	3422.32
798.706	3459.13
798.89	3398.49
799.074	3507.18
799.258	3425.42
799.443	3433.75
799.627	3341.33
799.811	3427.94
799.995	3371.36
800.179	3339.59
800.363	3350.44
800.547	3387.44
800.731	3433.94
800.915	3280.5
801.099	3339.98
801.283	3369.62
801.467	3407.4
801.651	3334.75
801.835	3393.06
802.019	3365.55
802.202	3401.98
802.386	3339.39
802.57	3335.33
802.754	3335.52
802.938	3298.32
803.121	3333.97
803.305	3385.51
803.489	3340.17
803.673	3338.62
803.856	3363.61
804.04	3332.81
804.224	3395.78
804.407	3297.93
804.591	3312.85
804.775	3354.31
804.958	3369.43
805.142	3417.48
805.326	3346.37
805.509	3347.34
805.693	3371.36
805.876	3350.44
806.06	3327
806.243	3363.23
806.427	3409.73
806.61	3407.98
806.794	3325.25
806.977	3385.51
807.16	3382.21
807.344	3340.56
807.527	3336.68
807.71	3309.56
807.894	3355.09
808.077	3373.11
808.26	3279.14
808.444	3304.71
808.627	3374.85
808.81	3248.72
808.993	3200.87
809.177	3225.86
809.36	3231.09
809.543	3272.75
809.726	3183.23
809.909	3124.92
810.092	3135.38
810.276	3174.71
810.459	3197.57
810.642	3136.35
810.825	3104.19
811.008	3101.28
811.191	3014.48
811.374	3047.03
811.557	3047.61
811.74	3100.12
811.923	2979.99
812.106	2973.6
812.289	2985.42
812.472	2946.86
812.654	2973.02
812.837	2947.44
813.02	2920.51
813.203	2857.16
813.386	2724.63
813.569	2730.83
813.751	2653.14
813.934	2730.25
814.117	2626.21
814.3	2601.99
814.482	2587.46
814.665	2554.91
814.848	2518.29
815.03	2446.8
815.213	2442.15
815.396	2415.8
815.578	2370.08
815.761	2354.38
815.943	2409.8
816.126	2292
816.309	2278.82
816.491	2232.13
816.674	2147.66
816.856	2180.01
817.039	2209.46
817.221	2266.04
817.403	2235.04
817.586	2229.03
817.768	2255.38
817.951	2149.21
818.133	2141.26
818.315	2192.02
818.498	2222.83
818.68	2271.85
818.862	2261.39
819.045	2267.97
819.227	2227.67
819.409	2175.17
819.591	2235.42
819.774	2216.63
819.956	2177.11
820.138	2281.34
820.32	2255.96
820.502	2316.22
820.684	2395.65
820.866	2381.51
821.048	2448.35
821.231	2446.03
821.413	2483.81
821.595	2421.61
821.777	2444.48
821.959	2408.05
822.141	2492.14
822.323	2357.29
822.505	2293.16
822.686	2224.96
822.868	2154.82
823.05	2048.46
823.232	1981.23
823.414	1916.32
823.596	1979.68
823.778	1952.36
823.96	2015.33
824.141	1995.76
824.323	2019.01
824.505	2102.51
824.687	2152.5
824.868	2237.36
825.05	2304.01
825.232	2353.22
825.413	2395.07
825.595	2386.93
825.777	2310.6
825.958	2358.07
826.14	2345.86
826.321	2391.58
826.503	2342.57
826.685	2386.35
826.866	2396.43
827.048	2365.82
827.229	2297.81
827.411	2279.79
827.592	2205.39
827.773	2240.65
827.955	2168.58
828.136	2180.59
828.318	2145.91
828.499	2203.26
828.68	2133.71
828.862	2180.98
829.043	2172.26
829.224	2115.69
829.406	2097.48
829.587	2085.85
829.768	2144.75
829.949	2142.23
830.131	2109.1
830.312	2189.31
830.493	2139.32
830.674	2113.17
830.855	2130.99
831.036	2130.8
831.218	2186.02
831.399	2215.27
831.58	2131.96
831.761	2151.53
831.942	2151.34
832.123	2097.48
832.304	2041.87
832.485	2083.33
832.666	2118.79
832.847	2147.66
833.028	2097.09
833.209	2125.18
833.389	2097.67
833.57	2061.05
833.751	2079.26
833.932	2154.63
834.113	2080.04
834.294	2076.55
834.475	2113.56
834.655	2147.66
834.836	2152.31
835.017	2164.12
835.198	2122.66
835.378	2121.31
835.559	2171.49
835.74	2092.05
835.92	2156.37
836.101	2105.61
836.281	2181.95
836.462	2142.62
836.643	2197.84
836.823	2169.55
837.004	2182.14
837.184	2217.02
837.365	2188.15
837.545	2147.07
837.726	2122.47
837.906	2240.85
838.087	2179.62
838.267	2157.54
838.448	2124.99
838.628	2137.97
838.808	2141.07
838.989	2194.16
839.169	2150.37
839.349	2169.16
839.53	2168.77
839.71	2176.91
839.89	2120.92
840.07	2209.46
840.251	2135.84
840.431	2163.54
840.611	2132.74
840.791	2123.05
840.971	2164.12
841.151	2094.96
841.332	2117.62
841.512	2185.24
841.692	2104.06
841.872	2141.65
842.052	2123.44
842.232	2113.94
842.412	2071.9
842.592	2128.67
842.772	2114.72
842.952	2107.74
843.132	2068.03
843.312	2049.23
843.492	2088.76
843.672	2095.34
843.851	2012.81
844.031	2050.59
844.211	2050.98
844.391	1997.89
844.571	2094.76
844.751	2075
844.93	2046.13
845.11	2055.04
845.29	2071.51
845.47	2045.74
845.649	2050.78
845.829	2066.86
846.009	2020.17
846.188	2086.82
846.368	2046.71
846.547	2074.81
846.727	2092.44
846.907	1997.31
847.086	2039.16
847.266	2062.6
847.445	2031.99
847.625	2042.26
847.804	1973.86
847.984	2028.69
848.163	1978.71
848.343	1996.92
848.522	1977.35
848.701	1985.88
848.881	1943.83
849.06	1975.22
849.239	1985.88
849.419	1973.86
849.598	1918.84
849.777	1896.75
849.957	1877.77
850.136	1825.84
850.315	1771.98
850.494	1825.84
850.674	1821.77
850.853	1900.05
851.032	1846.38
851.211	1875.44
851.39	1855.48
851.569	1790.19
851.748	1796.39
851.927	1878.35
852.107	1836.3
852.286	1827.59
852.465	1783.41
852.644	1888.42
852.823	1861.49
853.002	1847.35
853.181	1852.58
853.359	1857.42
853.538	1795.42
853.717	1841.73
853.896	1741.37
854.075	1685.18
854.254	1614.66
854.433	1555.37
854.611	1588.5
854.79	1538.9
854.969	1611.56
855.148	1631.9
855.327	1588.69
855.505	1658.06
855.684	1616.21
855.863	1664.64
856.041	1625.12
856.22	1695.84
856.399	1677.43
856.577	1765.2
856.756	1770.62
856.934	1844.44
857.113	1847.74
857.291	1786.51
857.47	1732.07
857.648	1720.44
857.827	1767.14
858.005	1821
858.184	1735.94
858.362	1827.78
858.541	1739.24
858.719	1739.24
858.898	1730.91
859.076	1723.16
859.254	1789.22
859.433	1706.88
859.611	1672.2
859.789	1683.24
859.967	1794.07
860.146	1790
860.324	1702.62
860.502	1706.3
860.68	1661.16
860.859	1674.33
861.037	1694.87
861.215	1704.94
861.393	1722.77
861.571	1688.09
861.749	1641.78
861.927	1707.46
862.105	1670.84
862.283	1647.01
862.461	1646.82
862.639	1625.31
862.817	1620.47
862.995	1660.19
863.173	1634.81
863.351	1634.81
863.529	1643.91
863.707	1690.41
863.885	1657.67
864.063	1597.99
864.241	1567.77
864.418	1669.49
864.596	1594.7
864.774	1588.31
864.952	1627.64
865.129	1606.91
865.307	1565.45
865.485	1541.23
865.663	1585.98
865.84	1473.8
866.018	1511.78
866.196	1416.07
866.373	1410.64
866.551	1382.35
866.728	1319.58
866.906	1365.3
867.084	1411.03
867.261	1420.91
867.439	1462.37
867.616	1491.24
867.794	1476.71
867.971	1532.7
868.149	1491.24
868.326	1557.5
868.503	1516.81
868.681	1498.8
868.858	1444.93
869.035	1450.94
869.213	1510.81
869.39	1480.97
869.567	1548.4
869.745	1436.22
869.922	1496.08
870.099	1490.47
870.276	1501.12
870.454	1508.1
870.631	1503.45
870.808	1458.5
870.985	1530.57
871.162	1528.44
871.339	1518.75
871.517	1449.2
871.694	1444.16
871.871	1469.15
872.048	1457.33
872.225	1454.82
872.402	1471.67
872.579	1415.68
872.756	1457.53
872.933	1418.2
873.11	1446.48
873.287	1449.2
873.463	1424.98
873.64	1388.17
873.817	1427.88
873.994	1409.09
874.171	1361.04
874.348	1375.57
874.524	1358.33
874.701	1384.1
874.878	1320.94
875.055	1424.2
875.231	1390.49
875.408	1396.5
875.585	1297.11
875.762	1392.24
875.938	1346.9
876.115	1368.02
876.291	1327.72
876.468	1352.52
876.645	1307.37
876.821	1315.51
876.998	1339.73
877.174	1370.34
877.351	1306.41
877.527	1304.47
877.704	1330.24
877.88	1325.2
878.057	1275.6
878.233	1361.62
878.409	1295.36
878.586	1329.27
878.762	1334.89
878.938	1280.25
879.115	1247.12
879.291	1284.51
879.467	1210.89
879.644	1250.61
879.82	1339.92
879.996	1257.77
880.172	1213.02
880.349	1295.94
880.525	1300.59
880.701	1241.69
880.877	1211.66
881.053	1246.73
881.229	1249.83
881.405	1317.45
881.581	1223.09
881.757	1244.79
881.933	1261.84
882.109	1306.6
882.285	1269.01
882.461	1198.29
882.637	1256.61
882.813	1208.95
882.989	1233.75
883.165	1276.76
883.341	1214.38
883.517	1294.59
883.693	1263.2
883.869	1274.44
884.044	1225.61
884.22	1275.02
884.396	1319.97
884.572	1252.74
884.747	1303.31
884.923	1267.85
885.099	1283.74
885.275	1298.85
885.45	1222.51
885.626	1230.26
885.801	1210.69
885.977	1249.83
886.153	1185.12
886.328	1241.11
886.504	1210.11
886.679	1227.94
886.855	1221.16
887.03	1241.89
887.206	1265.52
887.381	1227.94
887.557	1238.01
887.732	1276.37
887.908	1245.76
888.083	1244.02
888.258	1235.49
888.434	1222.51
888.609	1246.92
888.784	1265.72
888.96	1227.94
889.135	1227.74
889.31	1228.71
889.485	1257
889.661	1195.58
889.836	1275.79
890.011	1274.24
890.186	1224.64
890.361	1220.38
890.537	1229.29
890.712	1235.49
890.887	1246.92
891.062	1218.25
891.237	1277.34
891.412	1209.34
891.587	1224.84
891.762	1250.8
891.937	1264.17
892.112	1162.64
892.287	1222.13
892.462	1187.83
892.637	1174.85
892.812	1158.19
892.987	1162.64
893.161	1127.77
893.336	1154.31
893.511	1154.7
893.686	1156.44
893.861	1171.94
894.035	1155.48
894.21	1150.44
894.385	1108.59
894.56	1137.65
894.734	1074.3
894.909	1054.53
895.084	1088.83
895.258	1052.79
895.433	1064.03
895.608	1059.18
895.782	1014.62
895.957	997.57
896.131	1011.72
896.306	908.64
896.48	932.47
896.655	931.89
896.829	872.99
897.004	892.56
897.178	900.12
897.353	861.17
897.527	959.02
897.701	882.49
897.876	845.87
898.05	943.71
898.224	928.21
898.399	932.28
898.573	882.87
898.747	775.15
898.921	828.43
899.096	745.7
899.27	735.63
899.444	749.19
899.618	779.41
899.792	796.85
899.967	776.7
900.141	827.07
900.315	726.52
900.489	792.39
900.663	788.91
900.837	779.22
901.011	719.16
901.185	828.62
901.359	767.01
901.533	800.73
901.707	792.2
901.881	775.93
902.055	733.11
902.229	761.01
902.403	846.26
902.576	788.52
902.75	794.72
902.924	891.59
903.098	865.24
903.272	883.26
903.446	947.78
903.619	917.55
903.793	924.92
903.967	878.03
904.14	988.66
904.314	945.65
904.488	961.15
904.661	992.34
904.835	961.34
905.009	996.41
905.182	1013.85
905.356	942.16
905.529	958.63
905.703	894.3
905.876	920.07
906.05	884.04
906.223	867.76
906.397	820.29
906.57	821.07
906.744	754.03
906.917	797.82
907.09	786
907.264	779.22
907.437	742.41
907.61	750.35
907.784	749.77
907.957	743.38
908.13	711.99
908.304	751.51
908.477	703.08
908.65	708.11
908.823	669.56
908.996	776.31
909.17	668.2
909.343	676.34
909.516	736.01
909.689	685.83
909.862	673.24
910.035	735.63
910.208	664.33
910.381	684.09
910.554	752.68
910.727	681.96
910.9	706.18
911.073	673.43
911.246	746.28
911.419	733.11
911.592	708.7
911.765	656.96
911.938	656
912.11	714.31
912.283	713.35
912.456	760.62
912.629	706.95
912.802	682.35
912.974	631.58
913.147	579.85
913.32	537.42
913.493	593.03
913.665	612.6
913.838	611.05
914.01	577.92
914.183	625.77
914.356	614.15
914.528	668.2
914.701	690.87
914.873	661.61
915.046	609.88
915.218	589.54
915.391	504.87
915.563	520.57
915.736	601.36
915.908	619.77
916.081	599.23
916.253	605.62
916.425	622.67
916.598	626.93
916.77	618.8
916.942	562.61
917.115	500.61
917.287	596.52
917.459	563.97
917.632	511.46
917.804	482.01
917.976	569.2
918.148	580.43
918.32	567.65
918.493	616.08
918.665	673.24
918.837	598.84
919.009	642.63
919.181	651.15
919.353	628.29
919.525	618.6
919.697	601.17
919.869	616.86
920.041	668.78
920.213	717.03
920.385	667.43
920.557	642.82
920.729	672.66
920.901	635.85
921.073	611.24
921.244	593.42
921.416	691.65
921.588	625.97
921.76	615.12
921.932	667.62
922.103	595.55
922.275	635.07
922.447	641.85
922.619	553.5
922.79	623.25
922.962	577.33
923.134	618.41
923.305	563
923.477	533.16
923.648	554.28
923.82	591.87
923.991	497.51
924.163	511.27
924.335	533.16
924.506	490.34
924.677	575.59
924.849	496.93
925.02	515.14
925.192	589.35
925.363	538.97
925.535	552.53
925.706	510.3
925.877	586.83
926.049	517.85
926.22	542.27
926.391	551.18
926.562	563.97
926.734	522.5
926.905	554.28
927.076	484.92
927.247	547.11
927.419	497.32
927.59	478.72
927.761	459.54
927.932	453.34
928.103	481.82
928.274	399.28
928.445	389.4
928.616	422.14
928.787	416.14
928.958	442.29
929.129	437.26
929.3	410.13
929.471	368.47
929.642	300.47
929.813	243.51
929.984	370.99
930.155	309.96
930.326	305.7
930.496	291.75
930.667	231.69
930.838	292.14
931.009	250.87
931.18	266.95
931.35	242.15
931.521	245.64
931.692	205.15
931.863	145.28
932.033	219.1
932.204	190.61
932.374	208.05
932.545	169.11
932.716	214.06
932.886	189.45
933.057	107.88
933.227	129.58
933.398	213.48
933.568	120.09
933.739	88.12
933.909	114.86
934.08	146.25
934.25	55.96
934.421	89.09
934.591	130.17
934.761	116.41
934.932	54.99
935.102	124.35
935.272	83.09
935.443	97.42
935.613	83.67
935.783	131.52
935.953	68.36
936.123	225.88
936.294	57.32
936.464	67.97
936.634	99.17
936.804	41.82
936.974	23.99
937.144	84.83
937.314	98.97
937.484	91.42
937.655	54.8
937.825	141.98
937.995	78.63
938.165	143.53
938.334	107.11
938.504	131.33
938.674	115.44
938.844	133.27
939.014	191
939.184	155.16
939.354	214.25
939.524	205.73
939.694	132.88
939.863	153.42
940.033	212.12
940.203	228.59
940.373	177.44
940.542	228.98
940.712	158.26
940.882	172.79
941.051	219.1
941.221	178.6
941.391	212.51
941.56	131.33
941.73	146.44
941.899	283.61
942.069	147.6
942.238	169.3
942.408	142.37
942.577	183.06
942.747	131.72
942.916	94.71
943.086	129.78
943.255	182.87
943.425	148.57
943.594	121.25
943.763	52.86
943.933	76.69
944.102	50.73
944.271	128.81
944.441	147.02
944.61	108.08
944.779	94.32
944.948	234.6
945.117	92.39
945.287	126.48
945.456	75.92
945.625	83.09
945.794	128.62
945.963	118.15
946.132	123
946.301	116.8
946.47	145.67
946.639	61.58
946.808	108.66
946.977	166.98
947.146	174.34
947.315	133.65
947.484	132.68
947.653	134.62
947.822	127.84
947.991	86.77
948.16	226.85
948.329	153.03
948.498	131.33
948.666	103.43
948.835	136.17
949.004	99.55
949.173	79.21
949.341	136.75
949.51	126.1
949.679	170.47
949.847	143.73
950.016	188.48
950.185	178.22
950.353	95.1
950.522	99.55
950.69	173.18
950.859	84.44
951.028	181.51
951.196	138.88
951.365	112.15
951.533	113.5
951.701	135.01
951.87	158.84
952.038	70.1
952.207	114.67
952.375	159.03
952.543	112.15
952.712	123.19
952.88	117.18
953.048	182.67
953.217	142.37
953.385	134.23
953.553	179.38
953.721	86.38
953.89	136.37
954.058	51.31
954.226	81.54
954.394	123.97
954.562	40.07
954.73	119.51
954.898	118.73
955.067	145.86
955.235	123.77
955.403	133.27
955.571	148.96
955.739	129
955.907	86.19
956.075	89.29
956.243	85.8
956.41	154.58
956.578	84.44
956.746	70.88
956.914	106.72
957.082	139.08
957.25	144.31
957.418	97.04
957.585	147.8
957.753	150.9
957.921	85.8
958.089	126.68
958.256	153.03
958.424	121.25
958.592	128.81
958.759	110.79
958.927	156.52
959.095	93.16
959.262	141.79
959.43	116.8
959.597	78.44
959.765	103.04
959.932	90.84
960.1	164.46
960.267	136.95
960.435	106.72
960.602	145.86
960.77	114.28
960.937	88.51
961.104	138.3
961.272	47.44
961.439	117.38
961.606	147.6
961.774	136.95
961.941	100.14
962.108	129.2
962.275	123.38
962.443	172.79
962.61	134.04
962.777	207.28
962.944	178.6
963.111	145.86
963.278	144.12
963.446	115.83
963.613	150.32
963.78	111.18
963.947	172.6
964.114	137.14
964.281	216.96
964.448	150.12
964.615	94.9
964.782	133.07
964.949	159.81
965.116	144.7
965.282	180.54
965.449	144.5
965.616	77.27
965.783	164.85
965.95	110.79
966.117	90.45
966.283	148.57
966.45	131.52
966.617	172.02
966.784	172.6
966.95	165.82
967.117	189.07
967.284	115.63
967.45	118.15
967.617	190.81
967.784	160.39
967.95	201.08
968.117	146.05
968.283	187.9
968.45	239.63
968.616	168.92
968.783	202.43
968.949	169.5
969.116	199.33
969.282	144.5
969.449	142.76
969.615	151.87
969.781	114.67
969.948	153.8
970.114	81.54
970.28	216.38
970.447	166.2
970.613	190.81
970.779	176.67
970.945	168.92
971.112	170.85
971.278	151.28
971.444	170.27
971.61	181.7
971.776	134.23
971.942	163.1
972.108	176.47
972.275	143.73
972.441	164.07
972.607	216.19
972.773	130.75
972.939	136.95
973.105	161.17
973.271	98.2
973.437	143.73
973.602	116.41
973.768	169.5
973.934	143.15
974.1	134.82
974.266	77.47
974.432	157.87
974.598	137.53
974.763	162.13
974.929	112.92
975.095	192.36
975.261	110.02
975.426	106.92
975.592	131.91
975.758	187.71
975.923	79.99
976.089	102.85
976.255	162.91
976.42	143.92
976.586	129
976.751	147.99
976.917	235.56
977.082	148.96
977.248	74.95
977.413	96.45
977.579	103.62
977.744	136.95
977.91	116.02
978.075	135.59
978.24	182.87
978.406	133.07
978.571	107.69
978.736	104.01
978.902	136.17
979.067	86.19
979.232	87.54
979.397	142.76
979.563	193.91
979.728	95.68
979.893	120.48
980.058	103.43
980.223	174.92
980.388	146.25
980.554	117.18
980.719	102.07
980.884	131.91
981.049	150.32
981.214	103.43
981.379	125.9
981.544	101.69
981.709	98.2
981.874	142.76
982.039	125.13
982.204	142.57
982.368	124.16
982.533	103.82
982.698	147.02
982.863	143.92
983.028	128.62
983.193	121.25
983.357	104.98
983.522	125.32
983.687	107.11
983.852	112.15
984.016	116.8
984.181	128.81
984.346	144.89
984.51	150.7
984.675	112.53
984.839	148.57
985.004	117.18
985.168	162.13
985.333	131.52
985.498	103.62
985.662	139.66
985.827	123.38
985.991	95.29
986.155	96.07
986.32	155.16
986.484	157.29
986.649	137.53
986.813	73.01
986.977	124.16
987.142	111.76
987.306	68.36
987.47	85.02
987.634	117.38
987.799	125.52
987.963	131.52
988.127	132.3
988.291	190.61
988.455	109.82
988.62	88.12
988.784	114.28
988.948	139.85
989.112	96.45
989.276	111.95
989.44	115.83
989.604	110.6
989.768	103.62
989.932	196.04
990.096	99.94
990.26	68.55
990.424	85.22
990.588	100.14
990.752	198.17
990.915	158.84
991.079	106.14
991.243	95.1
991.407	134.23
991.571	116.22
991.734	109.43
991.898	124.74
992.062	167.75
992.226	104.59
992.389	100.72
992.553	66.04
992.717	74.95
992.88	80.95
993.044	111.95
993.207	106.33
993.371	130.36
993.535	112.34
993.698	112.53
993.862	144.7
994.025	130.55
994.189	97.81
994.352	98.2
994.515	104.2
994.679	132.68
994.842	83.67
995.006	133.07
995.169	89.09
995.332	86.38
995.496	136.17
995.659	97.62
995.822	79.21
995.985	81.34
996.149	102.46
996.312	103.62
996.475	173.57
996.638	91.61
996.801	142.95
996.964	166.01
997.128	86.77
997.291	85.6
997.454	92.58
997.617	75.92
997.78	131.72
997.943	57.32
998.106	160
998.269	76.3
998.432	82.31
998.595	88.12
998.758	51.7
998.92	56.54
999.083	18.57
999.246	96.84
999.409	57.9
999.572	23.8
999.735	69.52
999.897	113.12
1000.06	54.22
1000.223	111.18
1000.386	105.56
1000.548	114.08
1000.711	86.96
1000.874	73.2
1001.036	28.06
1001.199	91.03
1001.361	87.15
1001.524	83.28
1001.687	86.77
1001.849	50.73
1002.012	83.86
1002.174	86.19
1002.337	102.46
1002.499	71.85
1002.661	114.08
1002.824	40.85
1002.986	35.81
1003.149	100.14
1003.311	63.71
1003.473	129.2
1003.636	76.89
1003.798	98.97
1003.96	84.25
1004.123	74.56
1004.285	46.27
1004.447	74.56
1004.609	70.88
1004.771	106.33
1004.933	30.97
1005.096	41.62
1005.258	12.76
1005.42	48.02
1005.582	128.42
1005.744	85.8
1005.906	20.31
1006.068	76.69
1006.23	18.95
1006.392	5.78
1006.554	22.83
1006.716	90.64
1006.878	79.79
1007.04	13.92
1007.202	45.3
1007.363	75.14
1007.525	64.68
1007.687	49.95
1007.849	101.49
1008.011	18.18
1008.172	31.55
1008.334	38.33
1008.496	83.47
1008.658	12.56
1008.819	33.87
1008.981	17.79
1009.143	41.43
1009.304	23.8
1009.466	98.2
1009.627	92.39
1009.789	135.4
1009.95	65.26
1010.112	56.54
1010.273	68.94
1010.435	30.58
1010.596	56.54
1010.758	35.62
1010.919	40.65
1011.081	15.47
1011.242	21.67
1011.403	79.4
1011.565	18.18
1011.726	56.35
1011.887	22.83
1012.049	55.19
1012.21	92.58
1012.371	104.4
1012.532	-20.38
1012.693	61.39
1012.855	44.92
1013.016	50.15
1013.177	83.09
1013.338	44.53
1013.499	113.5
1013.66	81.15
1013.821	92.39
1013.982	79.6
1014.143	39.49
1014.304	19.34
1014.465	66.62
1014.626	67
1014.787	31.74
1014.948	114.28
1015.109	-22.89
1015.27	88.9
1015.431	15.47
1015.592	17.99
1015.752	82.7
1015.913	50.54
1016.074	42.59
1016.235	65.65
1016.395	36.59
1016.556	19.34
1016.717	39.49
1016.877	103.04
1017.038	19.15
1017.199	41.82
1017.359	39.69
1017.52	42.4
1017.681	24.96
1017.841	51.31
1018.002	49.37
1018.162	34.07
1018.323	95.68
1018.483	56.54
1018.644	21.28
1018.804	-14.18
1018.964	28.25
1019.125	40.46
1019.285	46.08
1019.446	16.44
1019.606	19.92
1019.766	-31.03
1019.926	73.2
1020.087	33.68
1020.247	10.24
1020.407	48.99
1020.567	82.31
1020.728	41.82
1020.888	-2.55
1021.048	29.8
1021.208	10.62
1021.368	12.37
1021.528	75.53
1021.688	82.31
1021.848	81.54
1022.008	54.8
1022.168	54.99
1022.328	48.6
1022.488	69.72
1022.648	14.89
1022.808	33.1
1022.968	76.89
1023.128	-5.84
1023.288	5.39
1023.448	30.39
1023.608	32.71
1023.767	47.44
1023.927	11.79
1024.087	-4.1
1024.247	-10.69
1024.406	-9.33
1024.566	8.69
1024.726	13.72
1024.885	21.86
1025.045	53.44
1025.205	18.95
1025.364	35.81
1025.524	47.05
1025.683	21.86
1025.843	39.1
1026.003	38.52
1026.162	70.69
1026.321	55.38
1026.481	35.04
1026.64	8.3
1026.8	37.75
1026.959	19.73
1027.119	36.59
1027.278	22.64
1027.437	11.59
1027.597	41.04
1027.756	23.6
1027.915	37.75
1028.074	32.9
1028.234	-10.88
1028.393	28.45
1028.552	16.05
1028.711	-50.99
1028.87	72.82
1029.03	-15.34
1029.189	33.1
1029.348	-26.19
1029.507	-1.97
1029.666	24.77
1029.825	-10.88
1029.984	22.05
1030.143	54.6
1030.302	-8.36
1030.461	-49.83
1030.62	13.92
1030.779	42.59
1030.938	-5.84
1031.097	-7.59
1031.255	60.61
1031.414	62.16
1031.573	66.62
1031.732	-30.26
1031.891	10.43
1032.049	65.65
1032.208	62.55
1032.367	7.14
1032.525	4.62
1032.684	11.21
1032.843	40.07
1033.001	-43.24
1033.16	154.77
1033.319	81.15
1033.477	14.69
1033.636	-3.13
1033.794	-17.66
1033.953	19.92
1034.111	67.78
1034.27	-5.65
1034.428	33.1
1034.587	-12.24
1034.745	29.61
1034.903	28.84
1035.062	45.11
1035.22	-26.96
1035.378	45.89
1035.537	-21.15
1035.695	52.47
1035.853	17.6
1036.011	50.54
1036.17	35.81
1036.328	-56.99
1036.486	25.35
1036.644	17.6
1036.802	-58.54
1036.96	-4.49
1037.119	1.32
1037.277	-8.56
1037.435	-18.83
1037.593	-3.91
1037.751	23.6
1037.909	41.04
1038.067	41.04
