Data from gum_old_FLMT105791__12__15-42-34-259.txt Node

Date: Mon Mar 20 15:42:34 GMT 2023
User: antho
Spectrometer: FLMT10579
Trigger mode: 0
Integration Time (sec): 1.000000E-1
Scans to average: 10
Electric dark correction enabled: true
Nonlinearity correction enabled: false
Boxcar width: 0
XAxis mode: Wavelengths
Number of Pixels in Spectrum: 3648
>>>>>Begin Spectral Data<<<<<
345.248	-149.83
345.464	-149.83
345.681	-149.83
345.898	-153.12
346.114	-181.02
346.331	-29.32
346.548	21.64
346.764	15.63
346.981	-34.94
347.197	6.14
347.414	10.01
347.631	-34.75
347.847	68.91
348.064	5.94
348.28	25.12
348.497	-64.78
348.713	10.4
348.93	22.8
349.146	30.74
349.363	22.22
349.579	49.15
349.796	37.52
350.012	12.72
350.229	41.01
350.445	40.82
350.661	6.14
350.878	29.58
351.094	29.38
351.311	39.46
351.527	25.32
351.743	-6.85
351.96	58.83
352.176	56.7
352.392	44.3
352.609	51.08
352.825	23.38
353.041	48.57
353.257	18.54
353.474	10.98
353.69	48.37
353.906	25.7
354.122	21.83
354.339	94.87
354.555	51.28
354.771	5.17
354.987	99.52
355.203	76.47
355.42	10.79
355.636	25.7
355.852	26.87
356.068	57.67
356.284	3.04
356.5	100.88
356.716	47.21
356.932	37.52
357.148	81.7
357.364	33.26
357.58	97.97
357.796	80.53
358.012	83.63
358.228	57.28
358.444	-26.22
358.66	96.23
358.876	35.97
359.092	3.81
359.308	41.4
359.524	47.6
359.74	31.32
359.956	36.36
360.172	48.57
360.388	52.05
360.604	31.32
360.819	126.65
361.035	51.28
361.251	71.62
361.467	63.87
361.683	68.52
361.898	50.89
362.114	88.28
362.33	67.36
362.546	82.86
362.762	58.45
362.977	60.77
363.193	52.44
363.409	82.28
363.624	37.52
363.84	48.95
364.056	41.98
364.271	57.67
364.487	82.08
364.703	44.88
364.918	27.64
365.134	64.84
365.35	44.5
365.565	172.95
365.781	73.56
365.996	80.53
366.212	143.7
366.427	106.69
366.643	68.33
366.858	96.03
367.074	51.47
367.289	150.09
367.505	201.82
367.72	24.74
367.936	78.79
368.151	88.87
368.367	83.25
368.582	83.25
368.798	60
369.013	128.97
369.228	86.93
369.444	91.58
369.659	124.51
369.874	92.35
370.09	156.48
370.305	29
370.52	60.58
370.736	140.98
370.951	107.47
371.166	118.7
371.381	130.71
371.597	132.07
371.812	52.05
372.027	71.62
372.242	106.88
372.458	164.62
372.673	82.08
372.888	93.13
373.103	95.26
373.318	193.88
373.533	111.34
373.749	101.07
373.964	26.48
374.179	129.16
374.394	41.59
374.609	131.68
374.824	53.6
375.039	124.13
375.254	53.8
375.469	136.33
375.684	95.07
375.899	123.16
376.114	98.17
376.329	146.6
376.544	132.85
376.759	119.86
376.974	81.31
377.189	83.44
377.404	80.15
377.619	148.54
377.834	77.82
378.049	81.89
378.264	63.1
378.478	146.02
378.693	116.96
378.908	173.15
379.123	122.58
379.338	159.39
379.553	140.98
379.767	145.63
379.982	146.41
380.197	150.09
380.412	89.45
380.626	132.46
380.841	196.59
381.056	127.42
381.271	201.05
381.485	109.21
381.7	92.35
381.915	137.3
382.129	109.02
382.344	129.55
382.559	100.49
382.773	136.53
382.988	52.05
383.202	104.56
383.417	89.64
383.632	166.95
383.846	89.25
384.061	103.59
384.275	109.6
384.49	111.73
384.704	127.61
384.919	156.29
385.133	135.56
385.348	173.92
385.562	92.16
385.777	180.51
385.991	132.07
386.206	104.75
386.42	109.4
386.634	177.99
386.849	159.39
387.063	174.7
387.277	135.17
387.492	134.4
387.706	97.58
387.92	120.64
388.135	179.35
388.349	175.66
388.563	182.64
388.778	135.95
388.992	179.73
389.206	167.72
389.42	235.53
389.635	158.23
389.849	178.38
390.063	222.55
390.277	194.65
390.491	231.66
390.706	226.62
390.92	215.58
391.134	187.68
391.348	238.44
391.562	146.8
391.776	221.78
391.99	198.53
392.205	235.34
392.419	171.6
392.633	173.34
392.847	234.37
393.061	133.81
393.275	209.57
393.489	123.55
393.703	134.98
393.917	166.36
394.131	83.25
394.345	162.49
394.559	210.54
394.773	158.23
394.986	185.16
395.2	208.6
395.414	251.23
395.628	205.31
395.842	254.33
396.056	253.16
396.27	190.39
396.484	245.99
396.697	187.87
396.911	224.49
397.125	171.01
397.339	213.83
397.553	175.66
397.766	235.34
397.98	235.73
398.194	279.32
398.408	250.64
398.621	321.36
398.835	321.94
399.049	288.62
399.262	352.17
399.476	367.86
399.69	363.21
399.903	419.59
400.117	317.68
400.331	375.42
400.544	358.37
400.758	466.09
400.971	375.61
401.185	392.27
401.398	305.86
401.612	405.25
401.826	377.16
402.039	416.1
402.253	360.31
402.466	396.73
402.68	371.35
402.893	400.8
403.106	390.72
403.32	376.19
403.533	432.38
403.747	382.39
403.96	401.96
404.174	422.5
404.387	364.76
404.6	421.53
404.814	439.16
405.027	398.09
405.24	421.14
405.454	389.75
405.667	465.9
405.88	386.07
406.094	422.89
406.307	448.07
406.52	423.08
406.733	377.55
406.947	330.86
407.16	446.52
407.373	429.09
407.586	397.7
407.799	371.74
408.012	464.35
408.226	407
408.439	506.2
408.652	408.55
408.865	454.27
409.078	515.5
409.291	480.23
409.504	443.23
409.717	471.52
409.93	514.53
410.143	434.12
410.357	399.44
410.57	376
410.783	413.2
410.996	452.92
411.209	433.74
411.421	500.19
411.634	474.03
411.847	426.76
412.06	511.82
412.273	481.78
412.486	505.23
412.699	580.01
412.912	492.05
413.125	525.38
413.338	506.39
413.55	536.62
413.763	494.38
413.976	505.23
414.189	481.78
414.402	491.08
414.615	584.86
414.827	492.63
415.04	552.12
415.253	536.42
415.466	579.24
415.678	595.51
415.891	527.7
416.104	502.71
416.316	524.41
416.529	527.32
416.742	572.26
416.954	571.1
417.167	555.41
417.38	562.19
417.592	575.56
417.805	523.05
418.017	488.57
418.23	568.78
418.442	501.35
418.655	529.25
418.868	527.12
419.08	563.55
419.293	606.17
419.505	562.96
419.718	559.28
419.93	611.4
420.142	559.67
420.355	596.29
420.567	582.15
420.78	596.87
420.992	548.43
421.205	615.28
421.417	570.91
421.629	583.31
421.842	576.72
422.054	574.98
422.266	621.28
422.479	615.86
422.691	570.71
422.903	612.76
423.115	546.69
423.328	561.8
423.54	565.48
423.752	563.93
423.964	553.86
424.177	585.63
424.389	581.95
424.601	703.04
424.813	625.55
425.025	640.66
425.238	652.28
425.45	593.19
425.662	563.55
425.874	908.42
426.086	600.16
426.298	639.3
426.51	618.96
426.722	611.6
426.934	593.58
427.146	665.26
427.358	590.86
427.57	669.14
427.782	577.88
427.994	613.73
428.206	561.8
428.418	589.51
428.63	651.89
428.842	693.55
429.054	648.02
429.266	655.58
429.478	556.38
429.69	593
429.902	549.79
430.114	605.78
430.325	597.84
430.537	532.35
430.749	512.59
430.961	450.01
431.173	503.68
431.384	516.27
431.596	453.69
431.808	592.61
432.02	653.06
432.231	688.13
432.443	754.19
432.655	721.84
432.867	659.06
433.078	721.45
433.29	734.82
433.502	747.02
433.713	764.85
433.925	765.04
434.136	737.72
434.348	634.26
434.56	607.14
434.771	763.11
434.983	627.87
435.194	680.38
435.406	747.61
435.617	800.31
435.829	834.21
436.04	807.28
436.252	813.87
436.463	833.63
436.675	836.92
436.886	841.19
437.098	848.94
437.309	903.77
437.521	817.94
437.732	844.48
437.943	776.67
438.155	809.41
438.366	742.76
438.578	830.34
438.789	759.81
439	754.39
439.211	756.52
439.423	742.96
439.634	806.51
439.845	817.55
440.057	816
440.268	898.15
440.479	838.47
440.69	850.49
440.902	837.7
441.113	819.68
441.324	789.07
441.535	889.43
441.746	941.74
441.957	880.9
442.168	899.31
442.38	945.62
442.591	917.91
442.802	874.12
443.013	907.64
443.224	943.29
443.435	914.81
443.646	949.68
443.857	909.97
444.068	907.64
444.279	899.89
444.49	1044.43
444.701	946
444.912	1057.99
445.123	997.73
445.334	981.85
445.545	952.01
445.756	944.07
445.967	890.98
446.178	927.79
446.388	938.45
446.599	956.66
446.81	951.04
447.021	907.06
447.232	984.75
447.443	1029.51
447.653	965.96
447.864	1057.99
448.075	1022.15
448.286	1061.48
448.496	1033.77
448.707	1093.64
448.918	1009.94
449.129	1062.83
449.339	1002
449.55	1052.37
449.761	1010.71
449.971	1067.68
450.182	1025.05
450.393	1086.28
450.603	1032.8
450.814	1111.46
451.024	1086.66
451.235	1138.59
451.446	1144.21
451.656	1125.61
451.867	1072.33
452.077	1085.11
452.288	1141.49
452.498	1133.74
452.709	1042.3
452.919	1068.06
453.13	1006.45
453.34	1061.48
453.55	968.67
453.761	1061.28
453.971	1018.85
454.182	1079.69
454.392	1047.91
454.602	1170.75
454.813	1083.56
455.023	1121.34
455.233	1036.48
455.444	1068.65
455.654	975.26
455.864	1029.9
456.075	1047.14
456.285	1053.73
456.495	1074.46
456.705	1079.3
456.916	1188.38
457.126	1194.39
457.336	1123.48
457.546	1061.48
457.756	1084.73
457.967	1168.42
458.177	1108.75
458.387	1118.83
458.597	1064
458.807	1135.49
459.017	1064.96
459.227	1110.49
459.437	1075.23
459.647	1140.91
459.857	1145.95
460.068	1096.74
460.278	1203.88
460.488	1143.04
460.698	1186.25
460.908	1158.35
461.117	1102.36
461.327	1169.78
461.537	1190.9
461.747	1169.97
461.957	1171.72
462.167	1295.91
462.377	1251.54
462.587	1150.79
462.797	1274.02
463.007	1211.63
463.216	1242.82
463.426	1261.23
463.636	1276.34
463.846	1154.67
464.056	1236.24
464.265	1224.81
464.475	1174.62
464.685	1236.24
464.895	1240.11
465.104	1178.5
465.314	1217.44
465.524	1181.99
465.733	1161.26
465.943	1288.55
466.153	1295.33
466.362	1281.57
466.572	1262.39
466.782	1229.84
466.991	1240.5
467.201	1278.28
467.41	1168.81
467.62	1250.77
467.829	1250.96
468.039	1258.9
468.249	1258.52
468.458	1294.75
468.668	1307.15
468.877	1335.24
469.086	1368.37
469.296	1329.82
469.505	1349
469.715	1403.44
469.924	1321.1
470.134	1360.04
470.343	1367.98
470.552	1323.42
470.762	1319.16
470.971	1292.42
471.18	1319.16
471.39	1334.85
471.599	1309.28
471.808	1390.27
472.018	1375.35
472.227	1464.47
472.436	1445.1
472.645	1454.01
472.855	1406.54
473.064	1551.46
473.273	1472.61
473.482	1459.24
473.691	1509.23
473.901	1508.65
474.11	1467.57
474.319	1588.86
474.528	1496.25
474.737	1598.16
474.946	1537.71
475.155	1594.48
475.364	1611.72
475.573	1584.79
475.783	1602.22
475.992	1614.04
476.201	1631.48
476.41	1598.16
476.619	1554.76
476.828	1593.89
477.037	1534.99
477.245	1584.79
477.454	1637.29
477.663	1637.68
477.872	1655.31
478.081	1782.02
478.29	1676.24
478.499	1815.35
478.708	1798.1
478.917	1806.24
479.125	1704.52
479.334	1732.42
479.543	1756.45
479.752	1778.73
479.961	1792.48
480.169	1846.54
480.378	1831.62
480.587	1923.46
480.796	1880.25
481.004	1857
481.213	1857.97
481.422	1878.9
481.63	1868.82
481.839	1929.85
482.048	1982.74
482.256	1930.82
482.465	1994.37
482.674	1940.31
482.882	1981
483.091	2049.01
483.299	1929.46
483.508	2009.29
483.716	1990.88
483.925	1987.2
484.134	1963.56
484.342	2009.68
484.551	2072.26
484.759	1995.34
484.967	2055.01
485.176	2072.26
485.384	2073.81
485.593	2097.64
485.801	2052.88
486.01	1957.75
486.218	1908.93
486.426	1793.84
486.635	1741.72
486.843	1772.34
487.051	1772.92
487.26	1818.64
487.468	1895.36
487.676	1926.17
487.885	1973.06
488.093	2030.79
488.301	2062.96
488.509	2085.43
488.717	2184.63
488.926	2149.17
489.134	2118.56
489.342	2080.01
489.55	2092.02
489.758	2137.35
489.967	2191.41
490.175	2284.99
490.383	2250.12
490.591	2324.32
490.799	2271.82
491.007	2311.92
491.215	2290.22
491.423	2256.51
491.631	2266
491.839	2276.27
492.047	2299.52
492.255	2184.82
492.463	2203.81
492.671	2144.52
492.879	2240.04
493.087	2203.62
493.295	2304.75
493.503	2340.98
493.711	2393.29
493.919	2362.49
494.127	2365.01
494.334	2335.95
494.542	2302.62
494.75	2354.74
494.958	2364.43
495.166	2481.06
495.374	2465.18
495.581	2473.51
495.789	2447.74
495.997	2512.64
496.205	2359.97
496.412	2419.45
496.62	2431.08
496.828	2443.67
497.035	2453.55
497.243	2495.01
497.451	2483.58
497.658	2491.72
497.866	2497.53
498.074	2566.12
498.281	2421.97
498.489	2541.9
498.696	2423.33
498.904	2371.4
499.112	2401.82
499.319	2486.68
499.527	2430.88
499.734	2526.21
499.942	2446.58
500.149	2458.39
500.357	2491.14
500.564	2430.11
500.771	2454.33
500.979	2415.19
501.186	2381.28
501.394	2426.43
501.601	2347.76
501.808	2423.71
502.016	2378.38
502.223	2398.33
502.43	2417.71
502.638	2415.19
502.845	2428.75
503.052	2546.36
503.26	2469.63
503.467	2555.27
503.674	2466.14
503.881	2512.26
504.089	2566.5
504.296	2516.32
504.503	2439.79
504.71	2466.73
504.917	2442.12
505.125	2457.23
505.332	2516.13
505.539	2509.74
505.746	2584.14
505.953	2622.5
506.16	2605.06
506.367	2677.33
506.574	2741.46
506.781	2705.62
506.988	2638.19
507.195	2670.93
507.402	2596.34
507.609	2646.91
507.816	2527.37
508.023	2603.7
508.23	2569.8
508.437	2509.35
508.644	2571.35
508.851	2597.12
509.058	2655.43
509.265	2598.28
509.472	2674.62
509.679	2757.35
509.885	2688.18
510.092	2706.78
510.299	2690.89
510.506	2625.02
510.713	2633.74
510.92	2640.9
511.126	2673.26
511.333	2716.08
511.54	2724.02
511.746	2797.65
511.953	2789.12
512.16	2796.68
512.367	2755.6
512.573	2707.36
512.78	2712.78
512.987	2695.15
513.193	2683.14
513.4	2606.8
513.606	2667.06
513.813	2735.84
514.02	2654.66
514.226	2748.43
514.433	2751.53
514.639	2650.01
514.846	2685.47
515.052	2613.59
515.259	2738.94
515.465	2683.33
515.672	2713.75
515.878	2813.34
516.085	2753.66
516.291	2783.31
516.497	2697.48
516.704	2693.6
516.91	2587.04
517.117	2481.06
517.323	2387.48
517.529	2425.65
517.736	2410.73
517.942	2442.89
518.148	2498.31
518.354	2546.16
518.561	2520.78
518.767	2534.92
518.973	2563.4
519.179	2603.9
519.386	2578.13
519.592	2570.96
519.798	2591.69
520.004	2740.49
520.21	2737.39
520.417	2767.42
520.623	2797.45
520.829	2828.45
521.035	2837.56
521.241	2823.22
521.447	2840.85
521.653	2955.16
521.859	2802.68
522.065	2900.53
522.271	2924.55
522.477	2916.99
522.683	2989.65
522.889	2935.01
523.095	2884.06
523.301	2869.14
523.507	2827.68
523.713	2880.76
523.919	2835.81
524.125	2974.15
524.331	2961.75
524.537	3071.6
524.742	3020.65
524.948	3057.07
525.154	3013.87
525.36	3139.42
525.566	2997.21
525.772	3083.81
525.977	3012.32
526.183	3068.31
526.389	3085.55
526.595	2973.18
526.8	2940.63
527.006	2818.96
527.212	2782.15
527.417	2739.13
527.623	2739.13
527.829	2853.83
528.034	2921.26
528.24	2911.76
528.446	2996.43
528.651	3047.58
528.857	3069.67
529.062	3143.48
529.268	3150.27
529.473	3175.84
529.679	3180.49
529.884	3263.99
530.09	3196.57
530.295	3145.42
530.501	3202.19
530.706	3174.87
530.912	3196.57
531.117	3208
531.323	3214.01
531.528	3295.19
531.733	3289.38
531.939	3224.28
532.144	3302.55
532.35	3244.04
532.555	3251.4
532.76	3183.4
532.966	3208
533.171	3170.8
533.376	3086.14
533.581	3088.46
533.787	3139.8
533.992	3222.34
534.197	3205.48
534.402	3179.52
534.607	3237.65
534.813	3277.17
535.018	3248.88
535.223	3237.45
535.428	3287.44
535.633	3328.51
535.838	3339.36
536.043	3350.41
536.249	3444.37
536.454	3322.51
536.659	3381.21
536.864	3345.18
537.069	3278.91
537.274	3308.94
537.479	3309.91
537.684	3275.04
537.889	3270.39
538.094	3350.41
538.299	3284.73
538.504	3296.54
538.708	3326.58
538.913	3389.93
539.118	3353.89
539.323	3353.31
539.528	3325.03
539.733	3310.11
539.938	3311.66
540.142	3317.08
540.347	3267.29
540.552	3268.26
540.757	3220.4
540.962	3259.35
541.166	3206.65
541.371	3128.57
541.576	3200.83
541.781	3144.65
541.985	3306.04
542.19	3352.92
542.395	3396.13
542.599	3391.09
542.804	3327.35
543.008	3413.96
543.213	3312.04
543.418	3233
543.622	3336.26
543.827	3264.58
544.031	3400.39
544.236	3366.1
544.44	3464.33
544.645	3438.75
544.849	3378.31
545.054	3433.14
545.258	3467.43
545.463	3490.29
545.667	3360.29
545.872	3461.04
546.076	3463.36
546.281	3388.96
546.485	3375.01
546.689	3410.86
546.894	3442.82
547.098	3455.03
547.302	3367.65
547.507	3452.12
547.711	3419.19
547.915	3402.72
548.119	3374.43
548.324	3392.26
548.528	3425.39
548.732	3319.21
548.936	3436.43
549.141	3447.09
549.345	3417.06
549.549	3432.94
549.753	3450.57
549.957	3516.84
550.161	3510.25
550.366	3451.54
550.57	3405.43
550.774	3450.19
550.978	3442.44
551.182	3417.44
551.386	3399.04
551.59	3398.07
551.794	3374.82
551.998	3463.75
552.202	3397.29
552.406	3399.23
552.61	3481.77
552.814	3478.28
553.018	3480.6
553.222	3372.88
553.426	3397.49
553.63	3491.65
553.833	3414.34
554.037	3360.29
554.241	3410.27
554.445	3424.03
554.649	3421.32
554.853	3367.46
555.056	3477.12
555.26	3470.34
555.464	3456.97
555.668	3476.92
555.871	3478.86
556.075	3495.72
556.279	3400.97
556.483	3319.21
556.686	3371.14
556.89	3348.28
557.094	3388.77
557.297	3301.78
557.501	3392.06
557.704	3226.99
557.908	3367.46
558.112	3322.89
558.315	3349.44
558.519	3313.4
558.722	3291.31
558.926	3259.15
559.129	3202.38
559.333	3177.58
559.536	3172.74
559.74	3146.58
559.943	3132.83
560.147	3181.46
560.35	3173.9
560.553	3210.33
560.757	3128.95
560.96	3272.33
561.164	3204.71
561.367	3308.36
561.57	3251.6
561.774	3257.6
561.977	3219.63
562.18	3176.42
562.384	3257.8
562.587	3204.71
562.79	3204.51
562.993	3180.3
563.197	3204.71
563.4	3254.89
563.603	3242.3
563.806	3305.07
564.009	3172.74
564.212	3223.11
564.416	3109
564.619	3179.13
564.822	3062.89
565.025	3197.15
565.228	3128.76
565.431	3170.03
565.634	3051.65
565.837	3102.99
566.04	3050.49
566.243	3075.67
566.446	2958.84
566.649	3076.25
566.852	2979.96
567.055	3034.21
567.258	3031.5
567.461	3138.25
567.664	3142.13
567.867	2983.26
568.07	3003.79
568.273	3047.19
568.475	3121.98
568.678	3025.69
568.881	3011.15
569.084	2995.85
569.287	2858.29
569.489	2922.61
569.692	2981.32
569.895	3017.16
570.098	2895.1
570.3	2911.76
570.503	2866.04
570.706	2896.46
570.909	2887.54
571.111	2758.7
571.314	2806.56
571.516	2841.63
571.719	2855.19
571.922	2797.84
572.124	2825.35
572.327	2879.21
572.529	2769.75
572.732	2848.41
572.935	2873.59
573.137	2958.65
573.34	2854.99
573.542	2932.3
573.745	2883.28
573.947	2887.74
574.15	2833.88
574.352	2836.39
574.554	2913.12
574.757	2845.5
574.959	2804.23
575.162	2796.29
575.364	2796.29
575.566	2874.37
575.769	2753.86
575.971	2827.29
576.173	2670.93
576.376	2760.64
576.578	2781.76
576.78	2846.86
576.982	2684.3
577.185	2736.62
577.387	2742.04
577.589	2731.19
577.791	2760.83
577.993	2746.69
578.196	2774.98
578.398	2727.32
578.6	2694.18
578.802	2655.82
579.004	2674.62
579.206	2669.38
579.408	2724.8
579.61	2659.12
579.812	2751.53
580.014	2684.88
580.216	2680.43
580.418	2665.9
580.62	2682.56
580.822	2652.92
581.024	2717.63
581.226	2734.1
581.428	2677.52
581.63	2806.75
581.832	2652.14
582.034	2757.35
582.236	2738.55
582.438	2729.06
582.64	2809.27
582.841	2795.13
583.043	2817.6
583.245	2757.93
583.447	2762
583.649	2714.33
583.85	2720.15
584.052	2783.7
584.254	2675.58
584.456	2785.63
584.657	2655.05
584.859	2741.07
585.061	2688.37
585.262	2692.25
585.464	2627.73
585.666	2688.76
585.867	2633.54
586.069	2709.3
586.27	2632.38
586.472	2618.24
586.674	2609.32
586.875	2635.87
587.077	2561.27
587.278	2653.88
587.48	2621.53
587.681	2705.62
587.883	2611.07
588.084	2599.83
588.285	2578.13
588.487	2578.32
588.688	2577.94
588.89	2505.09
589.091	2441.15
589.292	2438.44
589.494	2349.31
589.695	2310.18
589.896	2246.82
590.098	2252.44
590.299	2313.08
590.5	2272.01
590.702	2354.93
590.903	2415.38
591.104	2438.44
591.305	2471.76
591.507	2486.49
591.708	2481.45
591.909	2456.26
592.11	2519.23
592.311	2502.57
592.512	2423.71
592.714	2403.56
592.915	2406.08
593.116	2483.19
593.317	2477.77
593.518	2483.39
593.719	2433.4
593.92	2505.47
594.121	2510.12
594.322	2479.32
594.523	2460.91
594.724	2408.02
594.925	2463.24
595.126	2419.26
595.327	2496.56
595.528	2464.21
595.729	2468.08
595.929	2411.12
596.13	2443.86
596.331	2456.26
596.532	2506.44
596.733	2497.53
596.934	2498.11
597.135	2503.73
597.335	2525.24
597.536	2448.71
597.737	2463.43
597.938	2440.96
598.138	2441.73
598.339	2452.97
598.54	2454.71
598.74	2400.27
598.941	2466.34
599.142	2495.59
599.342	2444.06
599.543	2429.72
599.744	2414.22
599.944	2422.36
600.145	2385.35
600.345	2451.81
600.546	2466.92
600.746	2458.01
600.947	2502.76
601.147	2425.84
601.348	2478.74
601.548	2402.01
601.749	2402.21
601.949	2375.86
602.15	2356.68
602.35	2363.85
602.551	2398.14
602.751	2351.64
602.951	2390.19
603.152	2334.2
603.352	2457.23
603.552	2386.32
603.753	2471.38
603.953	2420.81
604.153	2446.58
604.354	2379.54
604.554	2439.79
604.754	2447.74
604.954	2366.36
605.155	2451.03
605.355	2390.97
605.555	2438.83
605.755	2505.67
605.955	2404.73
606.155	2447.35
606.356	2454.91
606.556	2438.05
606.756	2446.58
606.956	2356.1
607.156	2465.56
607.356	2364.81
607.556	2401.24
607.756	2391.36
607.956	2442.7
608.156	2409.76
608.356	2355.9
608.556	2404.14
608.756	2344.28
608.956	2346.99
609.156	2351.25
609.356	2310.56
609.556	2326.45
609.755	2361.91
609.955	2288.09
610.155	2351.25
610.355	2329.36
610.555	2298.94
610.755	2321.41
610.954	2271.82
611.154	2345.44
611.354	2330.71
611.554	2253.99
611.753	2313.66
611.953	2265.81
612.153	2306.11
612.352	2307.85
612.552	2253.6
612.752	2203.04
612.951	2262.71
613.151	2264.45
613.351	2240.04
613.55	2251.47
613.75	2269.88
613.949	2253.6
614.149	2247.6
614.348	2229.58
614.548	2206.33
614.747	2164.09
614.947	2198.19
615.146	2168.35
615.346	2248.76
615.545	2228.42
615.745	2216.02
615.944	2214.85
616.144	2200.9
616.343	2219.7
616.542	2170.87
616.742	2124.18
616.941	2156.92
617.14	2091.24
617.34	2172.81
617.539	2145.88
617.738	2132.51
617.938	2233.84
618.137	2129.6
618.336	2133.09
618.535	2194.32
618.734	2158.28
618.934	2162.93
619.133	2194.12
619.332	2201.68
619.531	2151.3
619.73	2175.14
619.929	2219.12
620.128	2210.59
620.328	2201.49
620.527	2183.47
620.726	2185.6
620.925	2208.85
621.124	2184.24
621.323	2164.09
621.522	2127.86
621.721	2134.84
621.92	2134.06
622.119	2155.37
622.318	2114.3
622.517	2128.05
622.715	2130.57
622.914	2056.37
623.113	2104.81
623.312	2047.07
623.511	2117.79
623.71	2091.63
623.909	2100.54
624.107	2208.27
624.306	2076.91
624.505	2059.86
624.704	2050.94
624.902	2054.43
625.101	2119.34
625.3	2086.59
625.499	2037.77
625.697	2035.25
625.896	1999.02
626.095	2048.81
626.293	2008.9
626.492	2012.97
626.69	2035.06
626.889	2065.86
627.088	2056.37
627.286	2051.52
627.485	1988.94
627.683	2031.76
627.882	2016.26
628.08	1921.13
628.279	1977.32
628.477	2032.54
628.676	1941.67
628.874	1967.24
629.073	1943.61
629.271	1912.22
629.469	1993.4
629.668	1943.22
629.866	1958.33
630.065	1917.26
630.263	1991.27
630.461	1910.86
630.66	1967.63
630.858	1944.77
631.056	1967.05
631.254	1997.08
631.453	1916.48
631.651	1948.06
631.849	1945.35
632.047	1954.65
632.245	1931.6
632.444	1952.52
632.642	1975.19
632.84	1970.34
633.038	1933.15
633.236	1895.17
633.434	1906.99
633.632	1911.83
633.83	1911.64
634.028	2014.13
634.227	1918.03
634.425	2032.54
634.623	1906.8
634.821	1974.41
635.019	1952.13
635.216	1940.9
635.414	1962.21
635.612	1922.68
635.81	1927.33
636.008	2024.59
636.206	1929.85
636.404	1952.33
636.602	1904.66
636.8	1915.13
636.997	1945.93
637.195	1938.18
637.393	1907.57
637.591	2003.86
637.789	1953.1
637.986	1941.67
638.184	1929.08
638.382	2009.29
638.58	1934.7
638.777	1991.66
638.975	1935.47
639.173	1963.56
639.37	1938.38
639.568	1917.65
639.765	1956.2
639.963	1916.1
640.161	1929.66
640.358	1912.22
640.556	1849.64
640.753	1850.42
640.951	1822.52
641.148	1886.26
641.346	1851.58
641.543	1842.28
641.741	1894.59
641.938	1843.05
642.136	1850.03
642.333	1803.33
642.531	1894.4
642.728	1892.46
642.925	1926.95
643.123	1838.02
643.32	1852.35
643.517	1796.17
643.715	1820.58
643.912	1844.8
644.109	1838.6
644.306	1826.78
644.504	1792.1
644.701	1861.65
644.898	1862.04
645.095	1819.8
645.293	1832.59
645.49	1855.07
645.687	1833.95
645.884	1872.31
646.081	1752.38
646.278	1787.83
646.475	1802.17
646.672	1783.77
646.87	1752.77
647.067	1788.03
647.264	1774.66
647.461	1728.35
647.658	1663.64
647.855	1773.69
648.052	1759.55
648.249	1668.68
648.446	1712.47
648.642	1723.9
648.839	1698.32
649.036	1705.49
649.233	1680.5
649.43	1651.24
649.627	1622.76
649.824	1630.9
650.021	1615.21
650.217	1621.02
650.414	1708.01
650.611	1685.92
650.808	1725.84
651.004	1738.24
651.201	1693.48
651.398	1779.12
651.595	1721.77
651.791	1642.52
651.988	1735.14
652.185	1683.79
652.381	1685.73
652.578	1630.9
652.775	1715.37
652.971	1677.4
653.168	1663.26
653.364	1737.46
653.561	1669.65
653.757	1678.37
653.954	1695.8
654.15	1661.9
654.347	1721.96
654.543	1673.72
654.74	1625.47
654.936	1629.54
655.133	1624.89
655.329	1675.07
655.525	1607.07
655.722	1652.79
655.918	1559.02
656.115	1570.64
656.311	1466.02
656.507	1439.09
656.704	1392.4
656.9	1434.83
657.096	1401.7
657.292	1447.42
657.489	1497.8
657.685	1502.64
657.881	1524.73
658.077	1525.11
658.273	1507.87
658.47	1612.69
658.666	1569.87
658.862	1586.34
659.058	1630.12
659.254	1626.06
659.45	1583.63
659.646	1636.32
659.842	1590.6
660.038	1656.86
660.234	1603.97
660.43	1597.58
660.626	1727
660.822	1646.59
661.018	1653.76
661.214	1661.32
661.41	1571.42
661.606	1689.8
661.802	1703.55
661.998	1646.21
662.194	1583.82
662.39	1669.46
662.586	1681.86
662.781	1698.32
662.977	1687.28
663.173	1653.18
663.369	1602.61
663.564	1642.14
663.76	1585.95
663.956	1665
664.152	1677.21
664.347	1584.01
664.543	1625.28
664.739	1611.52
664.934	1577.04
665.13	1570.84
665.326	1633.22
665.521	1617.14
665.717	1560.38
665.912	1584.4
666.108	1520.85
666.304	1613.85
666.499	1594.28
666.695	1485.59
666.89	1576.26
667.086	1611.33
667.281	1607.65
667.477	1651.44
667.672	1614.24
667.867	1588.47
668.063	1581.88
668.258	1534.41
668.454	1594.28
668.649	1643.3
668.844	1581.88
669.04	1610.17
669.235	1573.16
669.43	1529.57
669.626	1504.19
669.821	1566.38
670.016	1521.24
670.211	1536.74
670.407	1544.29
670.602	1593.31
670.797	1514.46
670.992	1619.27
671.187	1516.98
671.382	1568.13
671.578	1528.6
671.773	1584.4
671.968	1480.75
672.163	1575.68
672.358	1519.49
672.553	1480.55
672.748	1515.81
672.943	1571.03
673.138	1518.72
673.333	1552.24
673.528	1496.83
673.723	1556.11
673.918	1548.56
674.113	1478.03
674.308	1607.84
674.503	1547.2
674.698	1547.98
674.892	1544.88
675.087	1551.27
675.282	1519.88
675.477	1477.45
675.672	1532.28
675.867	1485.2
676.061	1470.48
676.256	1456.72
676.451	1514.07
676.646	1541.58
676.84	1462.53
677.035	1441.22
677.23	1444.13
677.424	1497.8
677.619	1519.69
677.814	1531.12
678.008	1551.27
678.203	1439.28
678.397	1458.66
678.592	1498.96
678.787	1581.88
678.981	1489.66
679.176	1479.2
679.37	1497.41
679.565	1489.27
679.759	1506.51
679.954	1499.15
680.148	1529.96
680.342	1536.35
680.537	1514.26
680.731	1466.02
680.926	1493.53
681.12	1505.35
681.314	1488.3
681.509	1488.5
681.703	1470.86
681.897	1476.87
682.092	1440.06
682.286	1447.23
682.48	1503.22
682.674	1488.3
682.869	1456.53
683.063	1472.41
683.257	1541
683.451	1404.22
683.645	1476.68
683.839	1434.44
684.034	1429.98
684.228	1463.31
684.422	1396.85
684.616	1401.89
684.81	1465.83
685.004	1452.65
685.198	1416.81
685.392	1434.05
685.586	1389.68
685.78	1423.2
685.974	1418.17
686.168	1401.7
686.362	1504.58
686.556	1357.33
686.75	1306.18
686.944	1290.1
687.138	1266.27
687.331	1161.84
687.525	1179.86
687.719	1112.04
687.913	1182.96
688.107	1184.12
688.301	1150.21
688.494	1221.51
688.688	1151.18
688.882	1138.59
689.076	1169.59
689.269	1148.86
689.463	1276.15
689.657	1181.02
689.85	1164.94
690.044	1237.01
690.238	1205.43
690.431	1186.44
690.625	1205.04
690.818	1243.41
691.012	1248.25
691.205	1244.76
691.399	1228.68
691.593	1270.34
691.786	1300.17
691.98	1311.22
692.173	1325.36
692.366	1328.65
692.56	1340.47
692.753	1335.05
692.947	1276.34
693.14	1355.39
693.333	1307.73
693.527	1277.5
693.72	1316.25
693.914	1287.39
694.107	1283.9
694.3	1311.6
694.493	1270.92
694.687	1358.3
694.88	1278.86
695.073	1371.67
695.266	1356.36
695.46	1307.92
695.653	1378.64
695.846	1362.75
696.039	1299.98
696.232	1340.28
696.425	1370.12
696.618	1404.41
696.812	1386.58
697.005	1452.26
697.198	1522.01
697.391	1427.27
697.584	1456.72
697.777	1522.4
697.97	1460.01
698.163	1501.28
698.356	1473.38
698.549	1549.53
698.742	1532.28
698.935	1501.48
699.127	1531.89
699.32	1475.13
699.513	1489.08
699.706	1506.9
699.899	1559.99
700.092	1512.13
700.285	1553.98
700.477	1479
700.67	1540.23
700.863	1575.29
701.056	1643.11
701.248	1589.83
701.441	1607.07
701.634	1556.89
701.826	1672.56
702.019	1555.34
702.212	1617.14
702.404	1639.42
702.597	1602.81
702.79	1617.34
702.982	1665.77
703.175	1698.13
703.367	1688.06
703.56	1739.59
703.752	1770.4
703.945	1722.93
704.137	1790.93
704.33	1797.33
704.522	1829.1
704.715	1821.16
704.907	1839.18
705.1	1869.6
705.292	1865.91
705.484	1853.32
705.677	1919.2
705.869	1878.7
706.061	1958.53
706.254	2022.08
706.446	1958.91
706.638	1963.95
706.831	2047.65
707.023	1967.44
707.215	2100.54
707.407	2096.67
707.599	2084.46
707.792	2153.82
707.984	2148.01
708.176	2148.2
708.368	2105.39
708.56	2150.72
708.752	2139.68
708.944	2142.78
709.136	2206.33
709.329	2190.25
709.521	2345.25
709.713	2254.96
709.905	2295.07
710.097	2358.61
710.289	2299.52
710.481	2336.33
710.672	2358.23
710.864	2365.2
711.056	2426.43
711.248	2402.01
711.44	2402.59
711.632	2425.46
711.824	2415.58
712.016	2488.23
712.207	2504.89
712.399	2497.53
712.591	2573.67
712.783	2563.6
712.975	2583.75
713.166	2547.52
713.358	2579.68
713.55	2613.78
713.741	2641.29
713.933	2658.34
714.125	2630.44
714.316	2645.94
714.508	2739.13
714.7	2707.94
714.891	2732.93
715.083	2767.23
715.274	2756.38
715.466	2767.81
715.657	2802.49
715.849	2722.28
716.04	2779.82
716.232	2742.62
716.423	2797.26
716.615	2710.65
716.806	2693.6
716.998	2676.94
717.189	2569.99
717.381	2507.22
717.572	2493.66
717.763	2511.09
717.955	2502.37
718.146	2479.12
718.337	2403.56
718.528	2428.75
718.72	2282.47
718.911	2387.29
719.102	2277.43
719.293	2393.68
719.485	2371.4
719.676	2366.36
719.867	2317.54
720.058	2345.44
720.249	2369.08
720.44	2341.37
720.632	2430.88
720.823	2456.07
721.014	2595.18
721.205	2631.22
721.396	2716.66
721.587	2861.19
721.778	2903.43
721.969	2932.88
722.16	2973.37
722.351	2981.51
722.542	3149.3
722.733	3133.6
722.924	3086.91
723.115	3115.78
723.305	3080.71
723.496	3181.65
723.687	2989.07
723.878	3020.26
724.069	3019.1
724.26	3026.27
724.45	2954.97
724.641	2986.94
724.832	3035.76
725.023	3021.04
725.213	3010.38
725.404	3006.12
725.595	2988.87
725.785	2997.4
725.976	3062.11
726.167	3064.24
726.357	3034.21
726.548	3206.65
726.739	3103.57
726.929	3174.87
727.12	3241.71
727.31	3279.11
727.501	3209.36
727.691	3220.98
727.882	3210.71
728.072	3294.41
728.263	3301.19
728.453	3348.28
728.644	3424.81
728.834	3349.82
729.024	3348.08
729.215	3308.94
729.405	3329.48
729.596	3420.93
729.786	3439.34
729.976	3471.3
730.167	3463.17
730.357	3448.05
730.547	3501.72
730.737	3490.1
730.928	3529.82
731.118	3619.13
731.308	3564.69
731.498	3582.71
731.688	3663.31
731.879	3703.8
732.069	3706.13
732.259	3754.18
732.449	3800.09
732.639	3881.47
732.829	3906.07
733.019	3972.72
733.209	4047.12
733.399	4048.09
733.589	4117.65
733.779	4153.1
733.969	4138.18
734.159	4247.26
734.349	4265.86
734.539	4360.99
734.729	4314.1
734.919	4333.87
735.109	4437.91
735.299	4338.71
735.488	4363.32
735.678	4371.84
735.868	4403.81
736.058	4337.16
736.248	4314.88
736.437	4312.94
736.627	4328.44
736.817	4443.14
737.007	4413.11
737.196	4448.57
737.386	4451.28
737.576	4450.89
737.765	4524.71
737.955	4476.47
738.144	4608.99
738.334	4586.9
738.524	4544.47
738.713	4554.93
738.903	4572.56
739.092	4546.6
739.282	4595.04
739.471	4576.44
739.661	4588.64
739.85	4597.36
740.04	4628.17
740.229	4648.51
740.419	4700.24
740.608	4711.67
740.797	4691.52
740.987	4727.76
741.176	4743.45
741.365	4749.07
741.555	4654.91
741.744	4791.11
741.933	4681.45
742.123	4745.19
742.312	4771.93
742.501	4831.41
742.69	4810.49
742.88	4753.14
743.069	4857.95
743.258	4776
743.447	4929.45
743.636	4858.34
743.825	4841.48
744.014	4843.62
744.204	4903.87
744.393	4812.04
744.582	4932.93
744.771	4897.67
744.96	4857.95
745.149	4933.51
745.338	4832.77
745.527	4956.18
745.716	4930.03
745.905	4890.5
746.094	5010.04
746.283	4977.3
746.471	4924.8
746.66	5012.18
746.849	4992.61
747.038	5011.98
747.227	4971.68
747.416	5039.3
747.604	4949.01
747.793	4954.05
747.982	4974.98
748.171	5013.53
748.359	5034.46
748.548	5000.94
748.737	4987.96
748.926	4971.49
749.114	4927.51
749.303	4968.58
749.491	4942.62
749.68	4878.68
749.869	4977.3
750.057	4914.92
750.246	4939.71
750.434	4937.78
750.623	4949.21
750.811	4941.07
751	4966.65
751.188	4911.43
751.377	4906.2
751.565	4898.45
751.754	4887.98
751.942	4840.32
752.131	4889.34
752.319	4846.13
752.507	4845.36
752.696	4892.44
752.884	4938.16
753.072	4860.08
753.261	4933.32
753.449	4914.14
753.637	4809.32
753.825	4941.26
754.014	4851.17
754.202	4850.4
754.39	4895.73
754.578	4927.7
754.766	4827.54
754.955	4813.97
755.143	4882.17
755.331	4844.97
755.519	4857.18
755.707	4794.4
755.895	4791.5
756.083	4849.82
756.271	4760.5
756.459	4759.14
756.647	4850.2
756.835	4787.82
757.023	4805.45
757.211	4778.13
757.399	4749.26
757.587	4804.09
757.775	4683.19
757.963	4748.87
758.151	4743.45
758.339	4683.97
758.526	4682.22
758.714	4750.81
758.902	4587.09
759.09	4484.02
759.278	4320.3
759.465	4069.4
759.653	3651.49
759.841	3306.23
760.028	2913.89
760.216	2581.81
760.404	2449.87
760.591	2111.97
760.779	1849.06
760.967	1668.29
761.154	1475.32
761.342	1516.2
761.529	1498.57
761.717	1640.78
761.905	1641.36
762.092	1768.07
762.28	1755.87
762.467	1772.72
762.655	1674.3
762.842	1771.56
763.029	1798.3
763.217	1796.55
763.404	1781.63
763.592	1854.1
763.779	1816.7
763.966	1859.91
764.154	1929.66
764.341	1975.96
764.528	2016.46
764.716	2085.24
764.903	2142.39
765.09	2267.55
765.277	2288.09
765.465	2474.86
765.652	2540.35
765.839	2614.75
766.026	2754.63
766.213	2841.24
766.4	2918.16
766.588	3114.62
766.775	3151.43
766.962	3280.66
767.149	3372.3
767.336	3526.72
767.523	3483.51
767.71	3608.67
767.897	3755.14
768.084	3815.98
768.271	3874.49
768.458	3941.53
768.645	3992.68
768.832	3941.34
769.019	4015.35
769.206	4003.53
769.392	4097.5
769.579	4183.71
769.766	4137.21
769.953	4131.4
770.14	4174.41
770.327	4170.73
770.513	4211.61
770.7	4278.26
770.887	4217.23
771.073	4196.31
771.26	4213.94
771.447	4187.78
771.634	4141.28
771.82	4261.99
772.007	4173.06
772.193	4258.11
772.38	4236.8
772.567	4186.43
772.753	4137.21
772.94	4270.32
773.126	4252.11
773.313	4239.9
773.499	4219.75
773.686	4244.36
773.872	4134.89
774.059	4206.77
774.245	4178.68
774.432	4205.99
774.618	4083.74
774.804	4148.84
774.991	4093.81
775.177	4159.49
775.363	4133.34
775.55	4151.16
775.736	4083.35
775.922	4116.29
776.109	4119.78
776.295	4107.18
776.481	4159.3
776.667	4075.02
776.853	4089.94
777.04	4071.15
777.226	4092.07
777.412	4161.24
777.598	4044.8
777.784	4029.88
777.97	4022.13
778.156	4045.57
778.342	4038.21
778.528	3989
778.715	3953.74
778.901	3944.24
779.087	4029.68
779.272	3954.12
779.458	3931.07
779.644	3995
779.83	3918.86
780.016	4017.48
780.202	3929.9
780.388	3936.69
780.574	3823.73
780.76	3872.75
780.946	3968.85
781.131	3907.24
781.317	3862.87
781.503	3867.52
781.689	3853.18
781.874	3975.82
782.06	3835.36
782.246	3887.28
782.432	3806.49
782.617	3884.76
782.803	3888.05
782.989	3809.59
783.174	3796.61
783.36	3750.49
783.545	3826.06
783.731	3773.55
783.916	3666.8
784.102	3740.81
784.288	3753.21
784.473	3754.76
784.659	3730.34
784.844	3741.39
785.029	3708.26
785.215	3699.15
785.4	3636.38
785.586	3756.11
785.771	3638.31
785.956	3729.38
786.142	3683.07
786.327	3634.25
786.512	3634.25
786.698	3641.41
786.883	3555.58
787.068	3606.73
787.254	3661.95
787.439	3556.36
787.624	3552.68
787.809	3588.72
787.994	3573.41
788.18	3617.2
788.365	3450.77
788.55	3530.4
788.735	3527.68
788.92	3498.82
789.105	3513.74
789.29	3554.23
789.475	3443.6
789.66	3451.15
789.845	3447.86
790.03	3433.91
790.215	3482.54
790.4	3501.92
790.585	3523.23
790.77	3482.54
790.955	3379.27
791.14	3410.66
791.325	3474.6
791.51	3343.24
791.695	3402.72
791.879	3424.22
792.064	3332.78
792.249	3462
792.434	3378.5
792.618	3380.44
792.803	3440.5
792.988	3423.84
793.173	3374.62
793.357	3472.47
793.542	3314.76
793.727	3386.83
793.911	3376.76
794.096	3322.7
794.281	3421.12
794.465	3469.37
794.65	3360.48
794.834	3459.49
795.019	3422.09
795.203	3440.3
795.388	3439.92
795.572	3481.57
795.757	3476.34
795.941	3432.75
796.126	3411.44
796.31	3382.76
796.494	3451.35
796.679	3397.87
796.863	3369.01
797.048	3453.67
797.232	3437.4
797.416	3483.32
797.601	3420.54
797.785	3482.15
797.969	3497.07
798.153	3429.84
798.338	3515.09
798.522	3516.84
798.706	3484.87
798.89	3532.72
799.074	3598.21
799.258	3524.97
799.443	3482.93
799.627	3519.74
799.811	3536.6
799.995	3461.23
800.179	3449.8
800.363	3408.14
800.547	3470.34
800.731	3542.8
800.915	3406.21
801.099	3471.11
801.283	3411.82
801.467	3492.81
801.651	3441.08
801.835	3476.34
802.019	3490.68
802.202	3430.81
802.386	3397.1
802.57	3398.65
802.754	3443.21
802.938	3396.13
803.121	3394.39
803.305	3483.32
803.489	3384.89
803.673	3505.02
803.856	3481.96
804.04	3456.39
804.224	3446.12
804.407	3399.23
804.591	3416.28
804.775	3443.99
804.958	3435.85
805.142	3504.82
805.326	3426.94
805.509	3423.26
805.693	3456.58
805.876	3466.65
806.06	3449.6
806.243	3514.7
806.427	3496.49
806.61	3506.95
806.794	3445.92
806.977	3475.18
807.16	3460.26
807.344	3474.02
807.527	3411.44
807.71	3404.27
807.894	3443.79
808.077	3453.09
808.26	3420.74
808.444	3363.58
808.627	3427.13
808.81	3344.98
808.993	3318.24
809.177	3301.19
809.36	3323.09
809.543	3346.14
809.726	3265.93
809.909	3231.06
810.092	3259.15
810.276	3234.35
810.459	3257.21
810.642	3199.86
810.825	3180.3
811.008	3183.59
811.191	3114.42
811.374	3160.92
811.557	3096.6
811.74	3220.98
811.923	3055.33
812.106	3071.8
812.289	3024.91
812.472	3087.49
812.654	3041.77
812.837	3038.86
813.02	2978.22
813.203	2934.04
813.386	2857.13
813.569	2830.97
813.751	2735.65
813.934	2815.28
814.117	2752.11
814.3	2705.23
814.482	2637.03
814.665	2593.82
814.848	2568.05
815.03	2525.62
815.213	2514.97
815.396	2460.14
815.578	2430.11
815.761	2382.64
815.943	2466.92
816.126	2334.98
816.309	2362.1
816.491	2298.55
816.674	2187.92
816.856	2237.72
817.039	2232.68
817.221	2322.96
817.403	2291.58
817.586	2251.67
817.768	2319.48
817.951	2226.87
818.133	2217.37
818.315	2235.58
818.498	2286.93
818.68	2325.87
818.862	2296.62
819.045	2353.38
819.227	2307.66
819.409	2265.42
819.591	2309.98
819.774	2274.72
819.956	2258.45
820.138	2332.07
820.32	2291.19
820.502	2371.98
820.684	2473.12
820.866	2440.76
821.048	2493.07
821.231	2515.36
821.413	2512.45
821.595	2448.13
821.777	2505.47
821.959	2508.57
822.141	2613
822.323	2431.66
822.505	2328.39
822.686	2278.79
822.868	2200.32
823.05	2095.31
823.232	2057.92
823.414	1962.01
823.596	2047.84
823.778	2005.99
823.96	2063.34
824.141	2059.08
824.323	2091.82
824.505	2191.6
824.687	2221.05
824.868	2300.1
825.05	2371.6
825.232	2370.63
825.413	2463.24
825.595	2455.49
825.777	2385.55
825.958	2432.63
826.14	2425.46
826.321	2461.88
826.503	2418.29
826.685	2426.62
826.866	2445.8
827.048	2461.49
827.229	2374.5
827.411	2343.11
827.592	2313.86
827.773	2268.72
827.955	2200.32
828.136	2213.69
828.318	2213.11
828.499	2248.18
828.68	2175.72
828.862	2161.19
829.043	2234.81
829.224	2173
829.406	2154.79
829.587	2171.65
829.768	2168.94
829.949	2193.54
830.131	2189.47
830.312	2231.9
830.493	2218.73
830.674	2222.99
830.855	2193.35
831.036	2153.44
831.218	2234.42
831.399	2243.14
831.58	2218.73
831.761	2213.3
831.942	2215.05
832.123	2179.4
832.304	2111.97
832.485	2142.2
832.666	2165.25
832.847	2160.99
833.028	2173.97
833.209	2172.23
833.389	2187.15
833.57	2052.49
833.751	2101.9
833.932	2173
834.113	2148.2
834.294	2156.54
834.475	2197.42
834.655	2222.02
834.836	2210.01
835.017	2210.4
835.198	2142.59
835.378	2183.27
835.559	2225.12
835.74	2164.29
835.92	2146.85
836.101	2150.34
836.281	2185.6
836.462	2200.52
836.643	2272.78
836.823	2207.3
837.004	2270.65
837.184	2276.47
837.365	2227.06
837.545	2249.53
837.726	2232.1
837.906	2287.51
838.087	2218.73
838.267	2231.13
838.448	2172.62
838.628	2181.72
838.808	2202.84
838.989	2253.41
839.169	2173
839.349	2211.75
839.53	2259.42
839.71	2279.18
839.89	2218.73
840.07	2262.9
840.251	2202.45
840.431	2230.16
840.611	2227.64
840.791	2176.1
840.971	2200.13
841.151	2178.62
841.332	2151.3
841.512	2218.92
841.692	2146.46
841.872	2184.24
842.052	2176.69
842.232	2196.06
842.412	2135.61
842.592	2126.31
842.772	2209.43
842.952	2163.12
843.132	2177.85
843.312	2139.29
843.492	2133.67
843.672	2166.42
843.851	2053.27
844.031	2083.49
844.211	2105.19
844.391	2118.17
844.571	2137.35
844.751	2132.7
844.93	2124.76
845.11	2132.9
845.29	2125.34
845.47	2117.4
845.649	2110.23
845.829	2132.7
846.009	2093.96
846.188	2118.37
846.368	2117.01
846.547	2085.04
846.727	2117.4
846.907	2041.64
847.086	2071.87
847.266	2104.42
847.445	2078.07
847.625	2032.15
847.804	2047.84
847.984	2087.95
848.163	2076.91
848.343	2061.21
848.522	2049.39
848.701	2077.68
848.881	2025.37
849.06	2037.58
849.239	2065.67
849.419	2029.24
849.598	1981.39
849.777	1959.88
849.957	1942.64
850.136	1899.05
850.315	1859.33
850.494	1861.46
850.674	1891.49
850.853	1919.78
851.032	1911.45
851.211	1946.9
851.39	1920.36
851.569	1862.43
851.748	1868.05
851.927	1934.89
852.107	1911.64
852.286	1857.78
852.465	1842.28
852.644	1909.12
852.823	1894.98
853.002	1875.99
853.181	1883.93
853.359	1877.35
853.538	1832.01
853.717	1902.92
853.896	1790.35
854.075	1721.77
854.254	1695.8
854.433	1601.64
854.611	1624.89
854.79	1570.45
854.969	1653.37
855.148	1665.77
855.327	1634.58
855.505	1702.78
855.684	1685.34
855.863	1709.75
856.041	1693.29
856.22	1760.9
856.399	1725.84
856.577	1813.22
856.756	1803.33
856.934	1921.52
857.113	1862.23
857.291	1795
857.47	1779.5
857.648	1826.58
857.827	1807.4
858.005	1869.79
858.184	1801.59
858.362	1883.55
858.541	1807.6
858.719	1785.7
858.898	1790.74
859.076	1809.34
859.254	1843.83
859.433	1765.17
859.611	1788.8
859.789	1721.96
859.967	1812.83
860.146	1871.15
860.324	1712.47
860.502	1751.6
860.68	1694.25
860.859	1714.99
861.037	1730.68
861.215	1742.69
861.393	1743.85
861.571	1749.09
861.749	1717.7
861.927	1753.35
862.105	1759.74
862.283	1693.48
862.461	1667.13
862.639	1655.7
862.817	1697.74
862.995	1694.64
863.173	1691.74
863.351	1667.71
863.529	1722.35
863.707	1755.09
863.885	1708.01
864.063	1611.72
864.241	1650.08
864.418	1726.22
864.596	1648.92
864.774	1626.44
864.952	1606.1
865.129	1687.47
865.307	1620.63
865.485	1591.96
865.663	1634.58
865.84	1574.52
866.018	1574.13
866.196	1453.62
866.373	1435.41
866.551	1406.35
866.728	1359.65
866.906	1392.98
867.084	1450.33
867.261	1458.66
867.439	1483.07
867.616	1527.24
867.794	1516.59
867.971	1514.46
868.149	1516.59
868.326	1572
868.503	1577.81
868.681	1537.9
868.858	1520.08
869.035	1485.01
869.213	1553.79
869.39	1501.67
869.567	1607.07
869.745	1497.21
869.922	1523.95
870.099	1550.69
870.276	1532.09
870.454	1526.66
870.631	1543.13
870.808	1519.11
870.985	1584.21
871.162	1610.94
871.339	1547.01
871.517	1486.17
871.694	1438.51
871.871	1508.84
872.048	1473.77
872.225	1486.36
872.402	1524.92
872.579	1435.99
872.756	1507.68
872.933	1426.11
873.11	1480.94
873.287	1479.97
873.463	1411.97
873.64	1437.54
873.817	1482.68
873.994	1452.46
874.171	1418.94
874.348	1463.5
874.524	1387.36
874.701	1417.58
874.878	1396.66
875.055	1441.03
875.231	1422.43
875.408	1453.43
875.585	1374.77
875.762	1397.43
875.938	1408.09
876.115	1385.81
876.291	1390.85
876.468	1367.98
876.645	1338.34
876.821	1371.67
876.998	1381.74
877.174	1372.25
877.351	1407.9
877.527	1358.49
877.704	1399.57
877.88	1350.93
878.057	1337.57
878.233	1385.03
878.409	1331.37
878.586	1420.3
878.762	1349.38
878.938	1328.07
879.115	1318
879.291	1326.91
879.467	1317.8
879.644	1299.4
879.82	1339.89
879.996	1309.86
880.172	1224.42
880.349	1318
880.525	1312.96
880.701	1276.92
880.877	1287
881.053	1286.61
881.229	1282.35
881.405	1321.68
881.581	1273.82
881.757	1286.8
881.933	1299.59
882.109	1316.06
882.285	1342.41
882.461	1241.27
882.637	1318.19
882.813	1297.85
882.989	1253.48
883.165	1335.24
883.341	1281.19
883.517	1335.24
883.693	1285.06
883.869	1326.14
884.044	1273.82
884.22	1288.94
884.396	1332.53
884.572	1300.95
884.747	1361.98
884.923	1300.75
885.099	1256.19
885.275	1350.16
885.45	1280.6
885.626	1274.99
885.801	1224.42
885.977	1290.68
886.153	1230.42
886.328	1269.56
886.504	1253.29
886.679	1283.32
886.855	1231.59
887.03	1282.15
887.206	1319.35
887.381	1273.24
887.557	1309.86
887.732	1315.87
887.908	1295.91
888.083	1299.2
888.258	1258.71
888.434	1211.24
888.609	1284.67
888.784	1313.54
888.96	1270.72
889.135	1251.35
889.31	1250.77
889.485	1292.42
889.661	1255.22
889.836	1314.7
890.011	1319.35
890.186	1281.96
890.361	1230.04
890.537	1287.39
890.712	1269.37
890.887	1307.15
891.062	1282.93
891.237	1338.54
891.412	1272.66
891.587	1267.43
891.762	1298.24
891.937	1340.86
892.112	1222.67
892.287	1282.35
892.462	1220.74
892.637	1202.91
892.812	1190.12
892.987	1207.76
893.161	1185.67
893.336	1189.16
893.511	1180.63
893.686	1231.39
893.861	1169.59
894.035	1188.38
894.21	1151.76
894.385	1129.29
894.56	1186.25
894.734	1087.63
894.909	1077.36
895.084	1091.7
895.258	1105.07
895.433	1122.51
895.608	1082.21
895.782	1026.41
895.957	1050.24
896.131	1038.42
896.306	1002.77
896.48	997.73
896.655	973.32
896.829	916.55
897.004	931.28
897.178	917.33
897.353	901.25
897.527	930.31
897.701	929.34
897.876	845.84
898.05	961.89
898.224	945.42
898.399	983.2
898.573	916.55
898.747	791.2
898.921	834.6
899.096	757.1
899.27	759.23
899.444	782.87
899.618	788.49
899.792	833.63
899.967	844.67
900.141	871.41
900.315	791.78
900.489	820.65
900.663	806.89
900.837	803.41
901.011	769.69
901.185	841.77
901.359	832.85
901.533	810.96
901.707	805.15
901.881	825.1
902.055	768.53
902.229	804.57
902.403	852.42
902.576	813.29
902.75	820.07
902.924	922.37
903.098	849.13
903.272	944.07
903.446	935.35
903.619	940.77
903.793	954.53
903.967	950.85
904.14	992.7
904.314	1002
904.488	1017.69
904.661	957.43
904.835	972.74
905.009	1032.61
905.182	1046.56
905.356	1009.55
905.529	966.93
905.703	968.67
905.876	955.69
906.05	931.67
906.223	956.08
906.397	819.29
906.57	825.3
906.744	795.27
906.917	816.97
907.09	824.91
907.264	823.94
907.437	782.09
907.61	717.96
907.784	757.1
907.957	805.92
908.13	754.19
908.304	777.06
908.477	698.2
908.65	737.14
908.823	714.28
908.996	787.71
909.17	698.98
909.343	702.66
909.516	729.59
909.689	684.64
909.862	712.93
910.035	696.46
910.208	704.4
910.381	662.74
910.554	767.56
910.727	686.96
910.9	684.25
911.073	703.63
911.246	760.97
911.419	772.99
911.592	749.16
911.765	696.46
911.938	692.19
912.11	729.39
912.283	720.29
912.456	760.97
912.629	734.62
912.802	697.43
912.974	627.87
913.147	609.85
913.32	566.06
913.493	592.03
913.665	636.01
913.838	617.8
914.01	603.65
914.183	649.57
914.356	646.08
914.528	664.88
914.701	747.99
914.873	682.31
915.046	614.11
915.218	610.24
915.391	549.98
915.563	556.57
915.736	615.47
915.908	642.4
916.081	613.15
916.253	601.52
916.425	617.41
916.598	665.65
916.77	633.3
916.942	578.46
917.115	552.12
917.287	600.36
917.459	599.97
917.632	516.27
917.804	499.03
917.976	607.91
918.148	576.53
918.32	573.43
918.493	633.49
918.665	677.47
918.837	620.31
919.009	687.93
919.181	670.11
919.353	625.16
919.525	659.64
919.697	598.03
919.869	636.59
920.041	707.11
920.213	743.73
920.385	670.88
920.557	673.4
920.729	676.31
920.901	650.93
921.073	635.43
921.244	625.16
921.416	696.07
921.588	611.21
921.76	605.78
921.932	672.43
922.103	615.66
922.275	612.95
922.447	650.73
922.619	577.69
922.79	629.42
922.962	555.21
923.134	624.77
923.305	568.39
923.477	558.7
923.648	556.96
923.82	599.2
923.991	521.5
924.163	515.88
924.335	531.19
924.506	533.9
924.677	584.86
924.849	507.55
925.02	578.46
925.192	589.9
925.363	575.95
925.535	555.21
925.706	541.27
925.877	602.68
926.049	534.87
926.22	543.59
926.391	607.91
926.562	560.83
926.734	531.38
926.905	588.73
927.076	482.56
927.247	509.1
927.419	462.22
927.59	484.11
927.761	467.64
927.932	450.98
928.103	450.01
928.274	418.04
928.445	414.55
928.616	438.58
928.787	414.17
928.958	450.59
929.129	382.59
929.3	413
929.471	379.1
929.642	316.91
929.813	255.49
929.984	366.12
930.155	282.23
930.326	313.42
930.496	287.26
930.667	246.19
930.838	263.43
931.009	239.21
931.18	264.01
931.35	250.64
931.521	236.31
931.692	182.06
931.863	145.25
932.033	195.62
932.204	197.95
932.374	194.26
932.545	154.55
932.716	197.95
932.886	200.46
933.057	111.15
933.227	125.68
933.398	226.43
933.568	112.89
933.739	66.78
933.909	84.6
934.08	131.1
934.25	52.05
934.421	93.71
934.591	132.46
934.761	85.96
934.932	69.68
935.102	137.88
935.272	100.49
935.443	101.27
935.613	90.61
935.783	82.08
935.953	58.45
936.123	261.3
936.294	90.61
936.464	67.36
936.634	76.27
936.804	47.98
936.974	35.39
937.144	79.37
937.314	86.15
937.484	97.2
937.655	53.02
937.825	134.01
937.995	85.96
938.165	134.59
938.334	92.74
938.504	140.4
938.674	111.53
938.844	116.18
939.014	196.59
939.184	167.14
939.354	222.74
939.524	215.58
939.694	156.29
939.863	148.93
940.033	224.29
940.203	232.04
940.373	197.75
940.542	201.82
940.712	160.16
940.882	197.95
941.051	214.03
941.221	198.53
941.391	218.87
941.56	151.64
941.73	140.6
941.899	276.03
942.069	170.24
942.238	176.83
942.408	150.09
942.577	187.29
942.747	136.72
942.916	100.88
943.086	124.71
943.255	182.45
943.425	149.51
943.594	108.24
943.763	69.88
943.933	96.62
944.102	61.55
944.271	120.45
944.441	127.61
944.61	94.29
944.779	125.29
944.948	229.33
945.117	85.18
945.287	102.23
945.456	62.52
945.625	101.65
945.794	145.63
945.963	100.1
946.132	143.7
946.301	135.17
946.47	168.3
946.639	68.52
946.808	106.69
946.977	165.4
947.146	172.95
947.315	93.13
947.484	148.54
947.653	119.48
947.822	122.58
947.991	89.64
948.16	222.74
948.329	162.49
948.498	122.19
948.666	133.81
948.835	153.58
949.004	89.64
949.173	76.08
949.341	108.63
949.51	139.05
949.679	170.43
949.847	136.91
950.016	212.28
950.185	183.22
950.353	96.42
950.522	134.98
950.69	158.23
950.859	129.16
951.028	166.56
951.196	145.44
951.365	117.35
951.533	134.01
951.701	142.15
951.87	128.39
952.038	75.88
952.207	107.66
952.375	168.69
952.543	83.63
952.712	123.93
952.88	97.2
953.048	163.85
953.217	141.95
953.385	133.81
953.553	185.93
953.721	72.78
953.89	134.01
954.058	70.65
954.226	81.89
954.394	115.22
954.562	64.07
954.73	112.12
954.898	112.31
955.067	160.55
955.235	106.5
955.403	144.66
955.571	205.11
955.739	134.01
955.907	98.75
956.075	116.96
956.243	96.03
956.41	129.36
956.578	48.18
956.746	56.12
956.914	96.23
957.082	149.31
957.25	120.06
957.418	87.32
957.585	146.21
957.753	180.31
957.921	79.18
958.089	107.85
958.256	151.06
958.424	133.62
958.592	119.09
958.759	114.63
958.927	137.3
959.095	98.94
959.262	121.22
959.43	121.22
959.597	79.18
959.765	121.8
959.932	104.17
960.1	135.17
960.267	113.67
960.435	105.33
960.602	145.83
960.77	119.28
960.937	82.08
961.104	153.38
961.272	81.7
961.439	115.99
961.606	156.1
961.774	161.52
961.941	99.72
962.108	114.83
962.275	142.15
962.443	151.83
962.61	161.71
962.777	196.4
962.944	163.07
963.111	163.65
963.278	139.43
963.446	137.69
963.613	148.35
963.78	153.19
963.947	149.9
964.114	153.38
964.281	198.53
964.448	143.89
964.615	97.58
964.782	150.48
964.949	144.86
965.116	167.14
965.282	170.82
965.449	139.82
965.616	109.6
965.783	151.25
965.95	136.72
966.117	113.28
966.283	126.65
966.45	117.35
966.617	161.52
966.784	195.62
966.95	180.12
967.117	175.28
967.284	117.15
967.45	110.57
967.617	182.64
967.784	161.13
967.95	218.87
968.117	128.39
968.283	175.86
968.45	275.06
968.616	147.76
968.783	188.06
968.949	155.9
969.116	188.65
969.282	163.65
969.449	138.85
969.615	156.48
969.781	116.76
969.948	141.18
970.114	111.15
970.28	212.48
970.447	166.95
970.613	198.33
970.779	148.93
970.945	186.9
971.112	154.74
971.278	146.02
971.444	165.98
971.61	204.34
971.776	143.7
971.942	179.35
972.108	184.38
972.275	147.18
972.441	153.19
972.607	195.04
972.773	152.41
972.939	163.85
973.105	146.02
973.271	110.76
973.437	126.26
973.602	133.62
973.768	159.97
973.934	135.17
974.1	170.63
974.266	68.91
974.432	157.26
974.598	128.78
974.763	177.99
974.929	121.41
975.095	179.35
975.261	109.21
975.426	97.58
975.592	144.28
975.758	210.93
975.923	74.72
976.089	115.99
976.255	175.28
976.42	133.04
976.586	138.08
976.751	146.21
976.917	195.81
977.082	157.26
977.248	82.47
977.413	63.87
977.579	105.33
977.744	135.36
977.91	90.61
978.075	108.82
978.24	153.38
978.406	121.03
978.571	114.83
978.736	108.63
978.902	162.1
979.067	101.27
979.232	81.12
979.397	125.29
979.563	198.33
979.728	100.68
979.893	105.33
980.058	99.33
980.223	130.91
980.388	136.72
980.554	119.28
980.719	122.58
980.884	123.35
981.049	158.23
981.214	128.2
981.379	150.48
981.544	75.88
981.709	125.1
981.874	126.45
982.039	120.64
982.204	153.58
982.368	121.8
982.533	115.41
982.698	158.03
982.863	155.71
983.028	140.98
983.193	143.11
983.357	153.58
983.522	131.49
983.687	111.73
983.852	108.05
984.016	123.55
984.181	110.18
984.346	132.26
984.51	160.55
984.675	100.1
984.839	128
985.004	114.63
985.168	156.68
985.333	149.9
985.498	126.65
985.662	145.44
985.827	126.84
985.991	136.72
986.155	112.5
986.32	176.83
986.484	192.33
986.649	122.38
986.813	59.03
986.977	134.2
987.142	143.5
987.306	89.06
987.47	66.78
987.634	100.1
987.799	140.6
987.963	117.93
988.127	140.4
988.291	194.46
988.455	131.68
988.62	125.68
988.784	124.32
988.948	133.81
989.112	78.21
989.276	121.61
989.44	144.66
989.604	98.36
989.768	92.16
989.932	185.16
990.096	79.95
990.26	70.27
990.424	86.35
990.588	105.33
990.752	165.2
990.915	151.25
991.079	98.75
991.243	96.42
991.407	149.12
991.571	113.08
991.734	140.21
991.898	119.28
992.062	196.98
992.226	90.61
992.389	82.86
992.553	53.99
992.717	64.84
992.88	92.55
993.044	131.3
993.207	91.77
993.371	123.16
993.535	95.07
993.698	112.12
993.862	129.55
994.025	136.72
994.189	138.08
994.352	127.03
994.515	132.26
994.679	135.56
994.842	90.42
995.006	128
995.169	75.5
995.332	72.01
995.496	94.1
995.659	33.07
995.822	101.07
995.985	102.23
996.149	159.2
996.312	108.63
996.475	157.26
996.638	81.5
996.801	131.1
996.964	143.31
997.128	93.13
997.291	78.79
997.454	91.58
997.617	75.69
997.78	142.92
997.943	53.22
998.106	133.81
998.269	57.09
998.432	78.02
998.595	102.62
998.758	25.9
998.92	62.52
999.083	49.73
999.246	99.33
999.409	37.13
999.572	49.92
999.735	48.95
999.897	88.48
1000.06	77.43
1000.223	101.65
1000.386	111.15
1000.548	116.18
1000.711	99.91
1000.874	115.41
1001.036	43.14
1001.199	100.3
1001.361	59.8
1001.524	95.26
1001.687	96.42
1001.849	26.48
1002.012	85.96
1002.174	102.43
1002.337	109.79
1002.499	50.7
1002.661	95.84
1002.824	45.85
1002.986	59.42
1003.149	84.22
1003.311	50.7
1003.473	127.23
1003.636	63.48
1003.798	102.62
1003.96	105.53
1004.123	68.91
1004.285	51.28
1004.447	47.21
1004.609	78.4
1004.771	135.17
1004.933	25.32
1005.096	42.75
1005.258	49.53
1005.42	56.51
1005.582	106.88
1005.744	86.93
1005.906	38.68
1006.068	81.7
1006.23	32.48
1006.392	15.05
1006.554	34.62
1006.716	111.53
1006.878	90.42
1007.04	20.47
1007.202	36.55
1007.363	78.98
1007.525	58.45
1007.687	90.61
1007.849	107.85
1008.011	23.77
1008.172	28.8
1008.334	57.48
1008.496	84.6
1008.658	6.52
1008.819	46.05
1008.981	-5.68
1009.143	32.29
1009.304	43.53
1009.466	88.28
1009.627	92.93
1009.789	148.15
1009.95	74.33
1010.112	45.47
1010.273	77.05
1010.435	9.82
1010.596	35.78
1010.758	51.28
1010.919	39.65
1011.081	27.45
1011.242	29.19
1011.403	80.73
1011.565	39.65
1011.726	72.59
1011.887	22.02
1012.049	50.31
1012.21	103.2
1012.371	101.65
1012.532	-12.85
1012.693	47.02
1012.855	50.12
1013.016	55.93
1013.177	97
1013.338	38.68
1013.499	130.13
1013.66	86.93
1013.821	52.83
1013.982	72.59
1014.143	63.87
1014.304	40.82
1014.465	74.33
1014.626	50.89
1014.787	27.84
1014.948	117.73
1015.109	-20.02
1015.27	62.71
1015.431	27.64
1015.592	26.09
1015.752	82.86
1015.913	26.48
1016.074	56.9
1016.235	33.65
1016.395	53.02
1016.556	11.37
1016.717	59.22
1016.877	92.74
1017.038	25.7
1017.199	67.75
1017.359	34.23
1017.52	46.63
1017.681	-5.3
1017.841	44.5
1018.002	23.38
1018.162	33.45
1018.323	96.23
1018.483	27.45
1018.644	42.56
1018.804	-1.61
1018.964	-3.75
1019.125	-14.4
1019.285	58.45
1019.446	15.82
1019.606	19.12
1019.766	-12.85
1019.926	61.35
1020.087	59.42
1020.247	-17.5
1020.407	88.09
1020.567	65.81
1020.728	18.92
1020.888	13.11
1021.048	-0.06
1021.208	5.94
1021.368	32.68
1021.528	87.9
1021.688	62.32
1021.848	57.87
1022.008	23.77
1022.168	12.53
1022.328	33.84
1022.488	50.5
1022.648	26.67
1022.808	42.95
1022.968	53.99
1023.128	-6.07
1023.288	19.31
1023.448	18.34
1023.608	46.05
1023.767	38.68
1023.927	34.81
1024.087	-1.42
1024.247	-31.45
1024.406	36.17
1024.566	-8.98
1024.726	-21.18
1024.885	30.74
1025.045	47.21
1025.205	53.22
1025.364	18.54
1025.524	45.47
1025.683	17.18
1025.843	56.12
1026.003	27.45
1026.162	69.1
1026.321	92.74
1026.481	31.32
1026.64	13.69
1026.8	19.31
1026.959	8.07
1027.119	33.45
1027.278	24.74
1027.437	21.44
1027.597	12.92
1027.756	48.37
1027.915	20.28
1028.074	41.98
1028.234	9.04
1028.393	39.46
1028.552	22.02
1028.711	-33.39
1028.87	69.49
1029.03	-25.45
1029.189	24.74
1029.348	-55.48
1029.507	13.3
1029.666	11.56
1029.825	-5.68
1029.984	-12.46
1030.143	44.11
1030.302	21.44
1030.461	-23.7
1030.62	34.81
1030.779	26.29
1030.938	-6.85
1031.097	-3.55
1031.255	38.3
1031.414	86.73
1031.573	70.07
1031.732	-14.6
1031.891	11.37
1032.049	66
1032.208	-0.26
1032.367	5.17
1032.525	2.07
1032.684	-0.84
1032.843	-0.26
1033.001	-46.56
1033.16	164.62
1033.319	44.69
1033.477	48.18
1033.636	11.17
1033.794	-29.51
1033.953	50.31
1034.111	45.66
1034.27	-14.21
1034.428	41.98
1034.587	-5.1
1034.745	14.27
1034.903	11.37
1035.062	51.86
1035.22	-25.83
1035.378	29.58
1035.537	-4.91
1035.695	77.05
1035.853	8.85
1036.011	23.57
1036.17	54.38
1036.328	-21.38
1036.486	27.64
1036.644	32.48
1036.802	-38.81
1036.96	-5.3
1037.119	9.24
1037.277	-9.56
1037.435	-27
1037.593	-18.28
1037.751	18.34
1037.909	30.74
1038.067	30.74
