Data from gum_old_FLMT105791__191__15-48-18-249.txt Node

Date: Mon Mar 20 15:48:18 GMT 2023
User: antho
Spectrometer: FLMT10579
Trigger mode: 0
Integration Time (sec): 1.000000E-1
Scans to average: 10
Electric dark correction enabled: true
Nonlinearity correction enabled: false
Boxcar width: 0
XAxis mode: Wavelengths
Number of Pixels in Spectrum: 3648
>>>>>Begin Spectral Data<<<<<
345.248	-182.49
345.464	-182.49
345.681	-182.49
345.898	-189.47
346.114	-186.56
346.331	-53.26
346.548	36.63
346.764	-5.99
346.981	1.37
347.197	-16.65
347.414	17.07
347.631	-14.71
347.847	62.21
348.064	2.34
348.28	16.1
348.497	-25.75
348.713	-19.36
348.93	41.87
349.146	37.02
349.363	8.35
349.579	46.13
349.796	-9.48
350.012	10.09
350.229	64.92
350.445	29.27
350.661	3.5
350.878	16.1
351.094	47.48
351.311	51.75
351.527	29.47
351.743	0.4
351.96	56.78
352.176	66.47
352.392	53.68
352.609	17.26
352.825	-34.08
353.041	32.76
353.257	11.64
353.474	48.07
353.69	25.78
353.906	68.22
354.122	-17.23
354.339	100.38
354.555	27.92
354.771	31.6
354.987	109.1
355.203	94.18
355.42	7.77
355.636	12.8
355.852	8.93
356.068	47.48
356.284	-28.46
356.5	92.05
356.716	44.58
356.932	33.53
357.148	60.66
357.364	16.29
357.58	68.02
357.796	79.84
358.012	75.38
358.228	44.58
358.444	-39.9
358.66	99.21
358.876	33.53
359.092	1.76
359.308	38.38
359.524	57.75
359.74	19.2
359.956	31.02
360.172	44
360.388	77.71
360.604	1.95
360.819	116.46
361.035	40.51
361.251	67.25
361.467	13.77
361.683	73.64
361.898	63.18
362.114	72.87
362.33	68.6
362.546	74.61
362.762	61.82
362.977	36.63
363.193	32.18
363.409	47.1
363.624	6.02
363.84	28.11
364.056	31.79
364.271	57.95
364.487	94.56
364.703	44.97
364.918	7.96
365.134	16.68
365.35	21.33
365.565	163.54
365.781	55.04
365.996	80.03
366.212	134.86
366.427	46.71
366.643	29.27
366.858	30.82
367.074	28.69
367.289	101.35
367.505	143.97
367.72	31.98
367.936	39.35
368.151	96.5
368.367	84.1
368.582	58.72
368.798	34.7
369.013	120.53
369.228	64.15
369.444	65.89
369.659	122.46
369.874	78.29
370.09	119.36
370.305	14.16
370.52	44.19
370.736	114.52
370.951	66.28
371.166	103.67
371.381	126.73
371.597	112.97
371.812	42.06
372.027	39.93
372.242	68.99
372.458	138.16
372.673	48.45
372.888	59.88
373.103	88.95
373.318	139.13
373.533	103.67
373.749	85.26
373.964	24.04
374.179	109.87
374.394	15.9
374.609	106.77
374.824	23.65
375.039	99.8
375.254	36.05
375.469	98.25
375.684	88.17
375.899	102.12
376.114	82.75
376.329	82.36
376.544	101.93
376.759	108.51
376.974	21.91
377.189	67.44
377.404	35.28
377.619	96.31
377.834	1.95
378.049	24.82
378.264	25.98
378.478	108.32
378.693	65.12
378.908	113.16
379.123	88.75
379.338	142.42
379.553	108.71
379.767	93.21
379.982	104.45
380.197	118.4
380.412	77.13
380.626	112.58
380.841	170.13
381.056	101.15
381.271	166.45
381.485	61.05
381.7	53.49
381.915	101.93
382.129	68.99
382.344	76.74
382.559	98.83
382.773	111.61
382.988	-0.57
383.202	89.33
383.417	60.47
383.632	173.23
383.846	83.52
384.061	61.43
384.275	66.08
384.49	99.41
384.704	121.3
384.919	91.85
385.133	86.62
385.348	129.44
385.562	57.56
385.777	117.81
385.991	84.1
386.206	76.93
386.42	98.83
386.634	147.46
386.849	128.47
387.063	105.8
387.277	57.75
387.492	77.9
387.706	58.72
387.92	59.5
388.135	123.63
388.349	113.36
388.563	99.21
388.778	106
388.992	121.5
389.206	126.34
389.42	200.16
389.635	94.37
389.849	154.24
390.063	148.81
390.277	133.12
390.491	200.16
390.706	163.54
390.92	136.8
391.134	126.34
391.348	175.36
391.562	65.5
391.776	144.16
391.99	124.98
392.205	162.18
392.419	136.61
392.633	121.88
392.847	180.59
393.061	104.25
393.275	167.99
393.489	104.83
393.703	127.89
393.917	119.75
394.131	68.22
394.345	157.73
394.559	146.88
394.773	93.6
394.986	143.39
395.2	142.81
395.414	153.85
395.628	120.33
395.842	180.01
396.056	146.68
396.27	93.4
396.484	155.79
396.697	136.03
396.911	166.83
397.125	133.9
397.339	145.33
397.553	116.07
397.766	190.08
397.98	170.9
398.194	186.98
398.408	139.51
398.621	184.27
398.835	203.26
399.049	178.65
399.262	249.95
399.476	237.36
399.69	234.84
399.903	286.18
400.117	202.87
400.331	234.64
400.544	199.96
400.758	354.77
400.971	236.97
401.185	277.27
401.398	200.93
401.612	281.92
401.826	255.96
402.039	251.89
402.253	201.13
402.466	277.46
402.68	255.76
402.893	271.26
403.106	269.52
403.32	242.39
403.533	255.37
403.747	239.1
403.96	259.44
404.174	259.25
404.387	211.59
404.6	250.92
404.814	310.01
405.027	248.21
405.24	244.33
405.454	226.31
405.667	282.11
405.88	204.42
406.094	279.4
406.307	297.22
406.52	253.44
406.733	238.52
406.947	192.79
407.16	325.32
407.373	311.56
407.586	260.41
407.799	245.49
408.012	312.92
408.226	292.57
408.439	323.77
408.652	256.54
408.865	315.44
409.078	340.24
409.291	304.59
409.504	271.26
409.717	317.18
409.93	322.8
410.143	256.92
410.357	224.57
410.57	215.46
410.783	230.58
410.996	272.81
411.209	276.49
411.421	351.28
411.634	310.59
411.847	296.26
412.06	293.54
412.273	315.24
412.486	334.42
412.699	412.5
412.912	301.87
413.125	352.25
413.338	335.78
413.55	341.01
413.763	328.03
413.976	342.17
414.189	313.11
414.402	299.74
414.615	411.92
414.827	317.37
415.04	347.99
415.253	355.35
415.466	375.89
415.678	400.1
415.891	337.33
416.104	328.03
416.316	342.75
416.529	321.64
416.742	386.74
416.954	402.62
417.167	362.52
417.38	354.19
417.592	392.35
417.805	317.76
418.017	283.27
418.23	361.16
418.442	338.88
418.655	333.07
418.868	366.97
419.08	381.7
419.293	395.65
419.505	366.97
419.718	379.57
419.93	403.79
420.142	340.62
420.355	395.07
420.567	424.9
420.78	371.82
420.992	342.17
421.205	464.43
421.417	342.75
421.629	385.77
421.842	333.84
422.054	365.81
422.266	424.13
422.479	411.34
422.691	354.19
422.903	405.92
423.115	375.3
423.328	376.47
423.54	370.46
423.752	372.59
423.964	394.68
424.177	409.99
424.389	394.29
424.601	501.05
424.813	401.85
425.025	429.75
425.238	423.74
425.45	395.45
425.662	387.7
425.874	729.67
426.086	408.82
426.298	425.68
426.51	435.95
426.722	420.25
426.934	382.09
427.146	432.46
427.358	366.2
427.57	444.47
427.782	390.22
427.994	378.4
428.206	374.53
428.418	377.82
428.63	455.71
428.842	461.13
429.054	427.81
429.266	445.83
429.478	366.2
429.69	407.85
429.902	352.83
430.114	436.92
430.325	394.68
430.537	331.91
430.749	329.58
430.961	281.72
431.173	335.2
431.384	383.83
431.596	267.58
431.808	369.3
432.02	404.75
432.231	467.72
432.443	528.17
432.655	497.75
432.867	426.07
433.078	479.73
433.29	526.43
433.502	496.98
433.713	511.51
433.925	538.83
434.136	532.43
434.348	436.53
434.56	409.21
434.771	556.26
434.983	377.44
435.194	450.67
435.406	488.65
435.617	531.08
435.829	581.45
436.04	520.81
436.252	555.1
436.463	558.78
436.675	563.05
436.886	578.35
437.098	582.03
437.309	607.99
437.521	520.61
437.732	563.43
437.943	543.28
438.155	533.21
438.366	474.31
438.578	598.31
438.789	540.76
439	560.91
439.211	506.67
439.423	535.34
439.634	526.81
439.845	568.08
440.057	545.8
440.268	619.43
440.479	547.35
440.69	585.52
440.902	542.51
441.113	539.6
441.324	531.27
441.535	614.58
441.746	653.33
441.957	545.61
442.168	597.92
442.38	600.63
442.591	632.79
442.802	577.19
443.013	609.16
443.224	645.97
443.435	604.31
443.646	605.48
443.857	590.75
444.068	604.51
444.279	571.57
444.49	706.61
444.701	661.86
444.912	757.18
445.123	680.65
445.334	650.43
445.545	663.6
445.756	651.01
445.967	610.32
446.178	623.49
446.388	654.69
446.599	671.93
446.81	659.92
447.021	612.26
447.232	690.53
447.443	684.91
447.653	652.17
447.864	691.31
448.075	693.63
448.286	726.76
448.496	703.9
448.707	719.4
448.918	665.15
449.129	771.52
449.339	687.04
449.55	705.64
449.761	663.79
449.971	745.36
450.182	707.39
450.393	724.44
450.603	688.79
450.814	762.8
451.024	758.92
451.235	788.95
451.446	815.3
451.656	803.49
451.867	712.62
452.077	738
452.288	814.14
452.498	790.5
452.709	725.6
452.919	751.56
453.13	694.99
453.34	739.94
453.55	661.86
453.761	725.99
453.971	729.86
454.182	743.04
454.392	756.41
454.602	809.3
454.813	773.65
455.023	790.31
455.233	707.97
455.444	747.49
455.654	672.32
455.864	708.55
456.075	760.47
456.285	709.91
456.495	736.64
456.705	769
456.916	812.4
457.126	851.73
457.336	769.58
457.546	722.5
457.756	747.69
457.967	839.33
458.177	750.79
458.387	790.89
458.597	727.73
458.807	755.44
459.017	755.44
459.227	733.16
459.437	714.94
459.647	824.41
459.857	762.02
460.068	766.67
460.278	854.64
460.488	810.46
460.698	854.25
460.908	784.69
461.117	754.66
461.327	756.79
461.537	836.42
461.747	806.78
461.957	810.46
462.167	955.96
462.377	854.25
462.587	818.02
462.797	845.53
463.007	798.06
463.216	860.25
463.426	895.13
463.636	852.31
463.846	781.98
464.056	812.4
464.265	841.27
464.475	796.12
464.685	845.72
464.895	861.03
465.104	829.25
465.314	880.79
465.524	810.07
465.733	794.38
465.943	926.32
466.153	928.26
466.362	891.06
466.572	881.76
466.782	844.56
466.991	884.86
467.201	905.78
467.41	774.23
467.62	873.82
467.829	857.54
468.039	868
468.249	877.3
468.458	891.25
468.668	894.93
468.877	922.83
469.086	978.25
469.296	971.46
469.505	921.09
469.715	999.17
469.924	927.48
470.134	950.73
470.343	970.3
470.552	930.97
470.762	886.22
470.971	904.62
471.18	921.09
471.39	944.34
471.599	887.77
471.808	957.51
472.018	947.63
472.227	999.17
472.436	1041.79
472.645	981.54
472.855	959.45
473.064	1060.2
473.273	1028.62
473.482	1039.47
473.691	1072.41
473.901	1039.08
474.11	1009.25
474.319	1100.5
474.528	1025.13
474.737	1097.59
474.946	1085.19
475.155	1088.88
475.364	1134.02
475.573	1064.66
475.783	1098.76
475.992	1143.9
476.201	1123.56
476.41	1096.63
476.619	1052.26
476.828	1094.49
477.037	1092.94
477.245	1108.83
477.454	1143.71
477.663	1102.24
477.872	1166.18
478.081	1218.49
478.29	1154.56
478.499	1279.91
478.708	1222.56
478.917	1284.37
479.125	1191.95
479.334	1170.64
479.543	1203.77
479.752	1185.94
479.961	1221.01
480.169	1274.87
480.378	1212.29
480.587	1373.49
480.796	1281.85
481.004	1291.73
481.213	1297.93
481.422	1295.02
481.63	1281.27
481.839	1339.2
482.048	1389.18
482.256	1330.28
482.465	1361.28
482.674	1386.47
482.882	1363.61
483.091	1432.39
483.299	1361.87
483.508	1435.68
483.716	1355.08
483.925	1410.88
484.134	1327.18
484.342	1416.89
484.551	1429.1
484.759	1401.39
484.967	1455.45
485.176	1444.4
485.384	1441.5
485.593	1430.26
485.801	1425.61
486.01	1361.28
486.218	1335.71
486.426	1209.19
486.635	1209.77
486.843	1216.55
487.051	1249.3
487.26	1253.95
487.468	1329.12
487.676	1342.88
487.885	1360.32
488.093	1403.13
488.301	1480.05
488.509	1470.36
488.717	1501.94
488.926	1448.66
489.134	1493.03
489.342	1473.85
489.55	1447.89
489.758	1472.3
489.967	1480.44
490.175	1628.66
490.383	1564.53
490.591	1620.91
490.799	1526.74
491.007	1630.4
491.215	1597.66
491.423	1569.17
491.631	1583.12
491.839	1521.32
492.047	1600.95
492.255	1530.04
492.463	1503.69
492.671	1523.64
492.879	1570.14
493.087	1534.11
493.295	1552.71
493.503	1614.32
493.711	1651.32
493.919	1626.52
494.127	1651.13
494.334	1658.3
494.542	1575.18
494.75	1652.1
494.958	1614.32
495.166	1722.62
495.374	1708.87
495.581	1698.79
495.789	1708.09
495.997	1743.55
496.205	1658.49
496.412	1653.84
496.62	1657.72
496.828	1690.65
497.035	1663.34
497.243	1739.29
497.451	1693.95
497.658	1751.3
497.866	1704.22
498.074	1780.55
498.281	1714.1
498.489	1774.93
498.696	1702.67
498.904	1696.85
499.112	1664.11
499.319	1762.15
499.527	1716.04
499.734	1762.53
499.942	1729.21
500.149	1715.45
500.357	1763.7
500.564	1692.01
500.771	1770.09
500.979	1673.22
501.186	1662.56
501.394	1710.42
501.601	1708.67
501.808	1694.72
502.016	1680
502.223	1709.25
502.43	1734.25
502.638	1673.02
502.845	1693.37
503.052	1777.65
503.26	1725.92
503.467	1850.11
503.674	1793.73
503.881	1763.7
504.089	1851.66
504.296	1797.22
504.503	1714.29
504.71	1777.26
504.917	1711.19
505.125	1804.58
505.332	1800.32
505.539	1836.55
505.746	1901.06
505.953	1874.33
506.16	1856.31
506.367	1915.4
506.574	1966.36
506.781	1948.92
506.988	1844.49
507.195	1883.63
507.402	1869.29
507.609	1890.99
507.816	1874.52
508.023	1850.5
508.23	1879.95
508.437	1791.6
508.644	1886.34
508.851	1905.33
509.058	1867.55
509.265	1873.55
509.472	1917.34
509.679	2022.74
509.885	1885.76
510.092	1928.77
510.299	1882.46
510.506	1868.13
510.713	1945.63
510.92	1920.44
511.126	1956.67
511.333	2010.72
511.54	1988.25
511.746	2041.14
511.953	2006.27
512.16	2052.57
512.367	1967.13
512.573	1967.52
512.78	2004.72
512.987	1954.93
513.193	1977.21
513.4	1874.52
513.606	1966.94
513.813	1999.1
514.02	1976.63
514.226	2037.27
514.433	2020.99
514.639	1912.88
514.846	1948.73
515.052	1950.86
515.259	1939.62
515.465	1960.74
515.672	2007.82
515.878	2070.4
516.085	1963.84
516.291	2071.17
516.497	2007.82
516.704	1971.59
516.91	1940.59
517.117	1866.58
517.323	1799.35
517.529	1804.77
517.736	1779.78
517.942	1779.39
518.148	1850.69
518.354	1898.93
518.561	1915.21
518.767	1890.41
518.973	1907.85
519.179	1952.79
519.386	1933.42
519.592	1949.89
519.798	1966.55
520.004	2057.61
520.21	2023.12
520.417	2089.19
520.623	2120.39
520.829	2116.32
521.035	2106.63
521.241	2125.04
521.447	2138.99
521.653	2246.13
521.859	2135.69
522.065	2203.89
522.271	2298.63
522.477	2228.3
522.683	2285.26
522.889	2199.24
523.095	2209.32
523.301	2185.29
523.507	2138.21
523.713	2205.63
523.919	2150.22
524.125	2281.39
524.331	2284.88
524.537	2312.78
524.742	2345.52
524.948	2329.05
525.154	2344.75
525.36	2480.56
525.566	2343.2
525.772	2423.79
525.977	2324.01
526.183	2372.26
526.389	2412.36
526.595	2288.75
526.8	2321.3
527.006	2189.75
527.212	2134.72
527.417	2102.37
527.623	2103.34
527.829	2197.11
528.034	2248.84
528.24	2234.12
528.446	2281.78
528.651	2404.61
528.857	2399.58
529.062	2483.66
529.268	2430.96
529.473	2471.46
529.679	2483.66
529.884	2546.44
530.09	2499.55
530.295	2462.16
530.501	2496.26
530.706	2490.44
530.912	2448.01
531.117	2511.37
531.323	2499.94
531.528	2562.32
531.733	2560
531.939	2535.78
532.144	2584.22
532.35	2495.48
532.555	2593.9
532.76	2492.57
532.966	2523.19
533.171	2497.42
533.376	2450.92
533.581	2405.58
533.787	2474.56
533.992	2520.09
534.197	2568.33
534.402	2516.02
534.607	2525.51
534.813	2629.75
535.018	2551.09
535.223	2550.7
535.428	2577.44
535.633	2610.57
535.838	2636.33
536.043	2626.45
536.249	2715
536.454	2627.03
536.659	2656.1
536.864	2621.61
537.069	2622.58
537.274	2637.11
537.479	2590.61
537.684	2583.44
537.889	2519.31
538.094	2693.3
538.299	2618.7
538.504	2661.52
538.708	2651.25
538.913	2685.74
539.118	2618.32
539.323	2654.55
539.528	2616.18
539.733	2629.17
539.938	2639.63
540.142	2614.25
540.347	2605.53
540.552	2564.65
540.757	2566.59
540.962	2602.43
541.166	2516.6
541.371	2547.02
541.576	2554.96
541.781	2492.77
541.985	2600.1
542.19	2632.27
542.395	2733.01
542.599	2695.04
542.804	2691.94
543.008	2700.85
543.213	2651.83
543.418	2584.99
543.622	2704.92
543.827	2606.5
544.031	2718.1
544.236	2719.45
544.44	2684
544.645	2804.7
544.849	2672.95
545.054	2712.28
545.258	2807.8
545.463	2778.35
545.667	2669.85
545.872	2758.4
546.076	2739.41
546.281	2714.22
546.485	2700.47
546.689	2771.57
546.894	2757.81
547.098	2752.39
547.302	2664.82
547.507	2783
547.711	2737.08
547.915	2764.01
548.119	2694.85
548.324	2710.54
548.528	2722.75
548.732	2721.2
548.936	2769.05
549.141	2735.53
549.345	2748.13
549.549	2731.08
549.753	2772.54
549.957	2817.88
550.161	2823.88
550.366	2771.96
550.57	2734.37
550.774	2766.15
550.978	2726.62
551.182	2782.61
551.386	2754.91
551.59	2720.61
551.794	2729.33
551.998	2767.11
552.202	2746.38
552.406	2702.4
552.61	2763.43
552.814	2758.78
553.018	2844.03
553.222	2752
553.426	2708.99
553.63	2822.91
553.833	2751.03
554.037	2645.83
554.241	2768.86
554.445	2796.95
554.649	2768.08
554.853	2725.85
555.056	2778.55
555.26	2803.54
555.464	2781.84
555.668	2821.56
555.871	2781.84
556.075	2818.84
556.279	2762.66
556.483	2700.27
556.686	2742.9
556.89	2742.9
557.094	2730.5
557.297	2655.13
557.501	2742.9
557.704	2578.6
557.908	2718.1
558.112	2672.37
558.315	2751.42
558.519	2684.58
558.722	2642.53
558.926	2629.36
559.129	2571.62
559.333	2531.9
559.536	2586.35
559.74	2556.9
559.943	2528.22
560.147	2550.89
560.35	2571.43
560.553	2582.86
560.757	2541.59
560.96	2621.22
561.164	2598.55
561.367	2698.92
561.57	2626.45
561.774	2618.51
561.977	2633.04
562.18	2551.67
562.384	2713.45
562.587	2555.54
562.79	2541.59
562.993	2547.99
563.197	2578.02
563.4	2671.79
563.603	2623.16
563.806	2718.87
564.009	2535.39
564.212	2609.4
564.416	2516.6
564.619	2556.51
564.822	2501.87
565.025	2589.25
565.228	2540.82
565.431	2537.91
565.634	2449.17
565.837	2498.97
566.04	2481.72
566.243	2475.14
566.446	2358.69
566.649	2495.87
566.852	2409.07
567.055	2469.91
567.258	2493.54
567.461	2515.63
567.664	2506.33
567.867	2426.51
568.07	2463.71
568.273	2451.89
568.475	2550.89
568.678	2438.33
568.881	2423.41
569.084	2411.98
569.287	2293.01
569.489	2305.03
569.692	2416.24
569.895	2405.58
570.098	2341.84
570.3	2324.21
570.503	2283.91
570.706	2301.73
570.909	2307.16
571.111	2250.39
571.314	2253.88
571.516	2234.31
571.719	2274.61
571.922	2222.68
572.124	2251.75
572.327	2292.82
572.529	2240.9
572.732	2266.66
572.935	2271.12
573.137	2394.54
573.34	2301.15
573.542	2357.34
573.745	2341.65
573.947	2332.15
574.15	2292.82
574.352	2249.62
574.554	2324.6
574.757	2271.7
574.959	2223.07
575.162	2231.79
575.364	2226.17
575.566	2315.88
575.769	2176.77
575.971	2249.42
576.173	2109.34
576.376	2216.68
576.578	2234.7
576.78	2288.95
576.982	2140.92
577.185	2194.59
577.387	2165.34
577.589	2193.43
577.791	2204.47
577.993	2188.39
578.196	2189.94
578.398	2197.11
578.6	2172.12
578.802	2108.95
579.004	2125.62
579.206	2093.45
579.408	2157.78
579.61	2088.42
579.812	2213.97
580.014	2086.48
580.216	2124.26
580.418	2118.45
580.62	2130.85
580.822	2062.65
581.024	2148.67
581.226	2167.47
581.428	2112.44
581.63	2226.75
581.832	2066.52
582.034	2186.07
582.236	2138.79
582.438	2192.65
582.64	2204.47
582.841	2202.15
583.043	2254.07
583.245	2163.4
583.447	2173.67
583.649	2135.11
583.85	2147.12
584.052	2171.54
584.254	2104.5
584.456	2146.35
584.657	2064.39
584.859	2137.24
585.061	2110.5
585.262	2089
585.464	2076.6
585.666	2155.45
585.867	2069.04
586.069	2133.37
586.27	2081.06
586.472	2070.01
586.674	2056.45
586.875	2016.34
587.077	2013.63
587.278	2080.28
587.48	2052.77
587.681	2181.22
587.883	2062.46
588.084	1983.6
588.285	1997.94
588.487	2013.24
588.688	2050.64
588.89	1930.9
589.091	1898.16
589.292	1920.24
589.494	1881.88
589.695	1806.32
589.896	1746.65
590.098	1744.9
590.299	1809.81
590.5	1776.87
590.702	1868.9
590.903	1859.41
591.104	1954.34
591.305	1915.79
591.507	1984.18
591.708	1979.53
591.909	1896.8
592.11	1997.36
592.311	1980.11
592.512	1906.68
592.714	1881.3
592.915	1878.2
593.116	1892.93
593.317	1890.6
593.518	1908.04
593.719	1902.81
593.92	1918.31
594.121	1959.96
594.322	1916.95
594.523	1958.61
594.724	1875.1
594.925	1912.69
595.126	1961.9
595.327	1922.76
595.528	1882.85
595.729	1907.65
595.929	1930.13
596.13	1908.43
596.331	1903.78
596.532	1889.83
596.733	1983.79
596.934	1969.46
597.135	1940.78
597.335	1942.14
597.536	1871.42
597.737	1906.1
597.938	1868.13
598.138	1933.03
598.339	1929.54
598.54	1912.69
598.74	1859.41
598.941	1903.39
599.142	1973.91
599.342	1897.58
599.543	1861.73
599.744	1887.89
599.944	1836.74
600.145	1861.54
600.345	1875.88
600.546	1899.13
600.746	1951.44
600.947	1946.4
601.147	1920.63
601.348	1939.62
601.548	1862.51
601.749	1912.11
601.949	1801.09
602.15	1856.7
602.35	1838.68
602.551	1877.81
602.751	1798.18
602.951	1822.79
603.152	1775.13
603.352	1900.87
603.552	1826.28
603.753	1891.57
603.953	1903.97
604.153	1902.61
604.354	1869.68
604.554	1891.57
604.754	1882.08
604.954	1851.46
605.155	1912.69
605.355	1832.86
605.555	1849.72
605.755	1932.26
605.955	1869.1
606.155	1898.35
606.356	1841.2
606.556	1880.91
606.756	1869.87
606.956	1808.45
607.156	1928.19
607.356	1808.07
607.556	1873.94
607.756	1868.9
607.956	1897.58
608.156	1848.56
608.356	1775.9
608.556	1845.65
608.756	1817.56
608.956	1751.49
609.156	1815.82
609.356	1766.99
609.556	1786.95
609.755	1802.25
609.955	1727.27
610.155	1769.12
610.355	1812.91
610.555	1754.01
610.755	1777.07
610.954	1693.56
611.154	1794.31
611.354	1786.56
611.554	1706.93
611.753	1773.38
611.953	1713.52
612.153	1789.47
612.352	1777.07
612.552	1731.54
612.752	1639.12
612.951	1717.78
613.151	1736.77
613.351	1656.94
613.55	1712.74
613.75	1750.13
613.949	1725.72
614.149	1729.02
614.348	1658.69
614.548	1670.89
614.747	1655.97
614.947	1666.24
615.146	1612.19
615.346	1737.54
615.545	1708.09
615.745	1738.51
615.944	1697.44
616.144	1658.49
616.343	1693.17
616.542	1646.87
616.742	1627.3
616.941	1626.91
617.14	1554.64
617.34	1634.86
617.539	1638.54
617.738	1592.23
617.938	1695.3
618.137	1620.32
618.336	1591.65
618.535	1677.09
618.734	1629.43
618.934	1663.72
619.133	1648.22
619.332	1636.99
619.531	1635.05
619.73	1607.15
619.929	1667.79
620.128	1645.32
620.328	1693.56
620.527	1623.62
620.726	1632.14
620.925	1611.8
621.124	1622.65
621.323	1614.32
621.522	1573.24
621.721	1607.92
621.92	1591.46
622.119	1606.57
622.318	1583.71
622.517	1548.83
622.715	1566.46
622.914	1548.44
623.113	1571.5
623.312	1485.28
623.511	1592.42
623.71	1567.24
623.909	1519.77
624.107	1629.04
624.306	1518.41
624.505	1517.64
624.704	1519.77
624.902	1514.34
625.101	1560.46
625.3	1542.63
625.499	1507.56
625.697	1492.26
625.896	1500.98
626.095	1556.97
626.293	1474.82
626.492	1519.77
626.69	1546.31
626.889	1487.22
627.088	1550.58
627.286	1503.11
627.485	1476.56
627.683	1487.8
627.882	1545.15
628.08	1380.27
628.279	1464.36
628.477	1546.7
628.676	1429.87
628.874	1537.79
629.073	1457.38
629.271	1448.28
629.469	1452.93
629.668	1454.28
629.866	1433.94
630.065	1435.3
630.263	1491.29
630.461	1380.85
630.66	1457
630.858	1463.78
631.056	1496.33
631.254	1522.48
631.453	1430.84
631.651	1480.05
631.849	1468.04
632.047	1437.62
632.245	1408.36
632.444	1466.49
632.642	1467.26
632.84	1490.71
633.038	1439.95
633.236	1400.61
633.434	1441.69
633.632	1370.78
633.83	1391.9
634.028	1483.73
634.227	1436.07
634.425	1523.84
634.623	1454.48
634.821	1453.12
635.019	1475.21
635.216	1405.85
635.414	1482.57
635.612	1407.4
635.81	1455.83
636.008	1487.61
636.206	1437.04
636.404	1420.76
636.602	1412.05
636.8	1381.43
636.997	1457.19
637.195	1456.03
637.393	1442.46
637.591	1499.23
637.789	1466.88
637.986	1416.5
638.184	1441.69
638.382	1456.41
638.58	1476.95
638.777	1499.04
638.975	1433.55
639.173	1446.53
639.37	1437.81
639.568	1476.95
639.765	1454.28
639.963	1415.92
640.161	1477.15
640.358	1450.02
640.556	1385.89
640.753	1360.7
640.951	1363.22
641.148	1399.84
641.346	1370.97
641.543	1383.18
641.741	1406.04
641.938	1352.95
642.136	1386.47
642.333	1371.36
642.531	1435.1
642.728	1450.02
642.925	1358.18
643.123	1366.32
643.32	1400.81
643.517	1343.27
643.715	1385.7
643.912	1347.33
644.109	1355.08
644.306	1374.27
644.504	1334.74
644.701	1371.36
644.898	1396.35
645.095	1327.77
645.293	1326.02
645.49	1356.25
645.687	1364.97
645.884	1377.75
646.081	1257.44
646.278	1295.99
646.475	1319.63
646.672	1288.63
646.87	1303.16
647.067	1303.93
647.264	1293.86
647.461	1260.73
647.658	1259.76
647.855	1299.87
648.052	1255.89
648.249	1185.36
648.446	1261.12
648.642	1251.04
648.839	1201.06
649.036	1221.4
649.233	1200.86
649.43	1206.29
649.627	1177.61
649.824	1199.12
650.021	1198.92
650.217	1189.82
650.414	1178
650.611	1237.67
650.808	1228.37
651.004	1237.87
651.201	1247.94
651.398	1289.79
651.595	1240.19
651.791	1257.24
651.988	1254.34
652.185	1210.74
652.381	1260.73
652.578	1158.62
652.775	1201.64
652.971	1233.22
653.168	1222.37
653.364	1243.29
653.561	1167.73
653.757	1187.49
653.954	1219.07
654.15	1143.32
654.347	1269.06
654.543	1180.91
654.74	1162.31
654.936	1117.55
655.133	1178.97
655.329	1211.13
655.525	1154.17
655.722	1221.59
655.918	1117.94
656.115	1158.24
656.311	1060.39
656.507	1019.51
656.704	966.81
656.9	1004.79
657.096	1008.47
657.292	1014.09
657.489	1094.11
657.685	1082.48
657.881	1052.84
658.077	1077.25
658.273	1118.13
658.47	1188.85
658.666	1109.22
658.862	1149.13
659.058	1112.51
659.254	1178.39
659.45	1110.19
659.646	1133.44
659.842	1132.08
660.038	1205.12
660.234	1093.72
660.43	1125.11
660.626	1195.05
660.822	1181.1
661.018	1161.34
661.214	1152.23
661.41	1124.72
661.606	1168.31
661.802	1192.14
661.998	1126.85
662.194	1124.91
662.39	1176.64
662.586	1151.65
662.781	1148.16
662.977	1154.94
663.173	1162.11
663.369	1134.6
663.564	1102.63
663.76	1172.77
663.956	1103.99
664.152	1182.07
664.347	1040.44
664.543	1102.24
664.739	1079.58
664.934	1037.73
665.13	1063.49
665.326	1142.16
665.521	1103.41
665.717	1075.89
665.912	1092.36
666.108	1023.39
666.304	1079.77
666.499	1083.06
666.695	1032.3
666.89	1071.83
667.086	1129.56
667.281	1127.24
667.477	1167.54
667.672	1085.78
667.867	1093.53
668.063	1084.42
668.258	1041.21
668.454	1052.06
668.649	1160.76
668.844	1069.31
669.04	1090.62
669.235	1090.43
669.43	1060.2
669.626	1034.82
669.821	1061.17
670.016	1060.59
670.211	1075.12
670.407	1037.15
670.602	1059.81
670.797	1061.75
670.992	1092.36
671.187	1023.97
671.382	1073.38
671.578	1013.7
671.773	1062.14
671.968	991.23
672.163	1045.09
672.358	1070.47
672.553	986.58
672.748	1009.83
672.943	1113.68
673.138	1023.2
673.333	1078.61
673.528	998.01
673.723	1044.12
673.918	1017.19
674.113	1005.76
674.308	1131.5
674.503	1049.74
674.698	1055.55
674.892	1020.68
675.087	1041.79
675.282	1029.78
675.477	1010.8
675.672	1044.31
675.867	1011.76
676.061	1003.05
676.256	954.8
676.451	1035.4
676.646	999.56
676.84	966.81
677.035	954.8
677.23	963.13
677.424	1023.58
677.619	1032.88
677.814	1030.17
678.008	1033.85
678.203	947.25
678.397	943.95
678.592	992.97
678.787	1040.44
678.981	969.33
679.176	1011.38
679.37	1008.86
679.565	970.88
679.759	964.3
679.954	1005.76
680.148	1064.27
680.342	1072.21
680.537	1014.86
680.731	1013.7
680.926	990.45
681.12	1028.43
681.314	911.02
681.509	970.69
681.703	987.93
681.897	1004.98
682.092	997.43
682.286	949.18
682.48	1057.88
682.674	1013.12
682.869	951.51
683.063	979.8
683.257	1048.38
683.451	937.95
683.645	1027.85
683.839	1009.83
684.034	968.95
684.228	1016.03
684.422	933.88
684.616	944.92
684.81	1010.02
685.004	965.46
685.198	971.46
685.392	997.81
685.586	961.78
685.78	993.94
685.974	1032.5
686.168	1015.45
686.362	1025.71
686.556	943.57
686.75	897.26
686.944	894.55
687.138	902.88
687.331	801.55
687.525	806.39
687.719	769.97
687.913	848.24
688.107	803.87
688.301	801.74
688.494	827.9
688.688	793.22
688.882	779.27
689.076	753.89
689.269	808.91
689.463	904.62
689.657	862.39
689.85	803.87
690.044	855.22
690.238	844.56
690.431	825.96
690.625	826.15
690.818	878.66
691.012	914.12
691.205	914.31
691.399	846.69
691.593	912.57
691.786	941.05
691.98	950.54
692.173	975.15
692.366	938.33
692.56	961.39
692.753	1006.92
692.947	887.57
693.14	1011.38
693.333	971.85
693.527	909.27
693.72	981.73
693.914	944.34
694.107	938.14
694.3	971.27
694.493	928.07
694.687	1009.44
694.88	924.19
695.073	986.58
695.266	1001.88
695.46	996.46
695.653	1061.17
695.846	1057.49
696.039	930.39
696.232	1016.03
696.425	1044.12
696.618	1036.56
696.812	1035.4
697.005	1095.08
697.198	1176.84
697.391	1103.21
697.584	1137.89
697.777	1212.87
697.97	1149.91
698.163	1180.71
698.356	1111.93
698.549	1247.75
698.742	1190.01
698.935	1171.41
699.127	1206.48
699.32	1144.29
699.513	1154.17
699.706	1189.82
699.899	1182.07
700.092	1162.31
700.285	1212.29
700.477	1145.26
700.67	1227.79
700.863	1211.71
701.056	1313.23
701.248	1292.89
701.441	1287.66
701.634	1237.29
701.826	1373.88
702.019	1265.19
702.212	1342.88
702.404	1285.14
702.597	1256.08
702.79	1283.98
702.982	1338.03
703.175	1353.73
703.367	1388.99
703.56	1404.68
703.752	1463.39
703.945	1426.38
704.137	1454.48
704.33	1456.61
704.522	1493.03
704.715	1482.96
704.907	1489.16
705.1	1545.93
705.292	1589.71
705.484	1515.51
705.677	1568.21
705.869	1572.86
706.061	1637.18
706.254	1661.59
706.446	1603.66
706.638	1605.41
706.831	1717.59
707.023	1628.27
707.215	1761.37
707.407	1718.17
707.599	1748.78
707.792	1778.62
707.984	1773.97
708.176	1807.48
708.368	1779.2
708.56	1806.32
708.752	1831.31
708.944	1804.38
709.136	1816.98
709.329	1821.05
709.521	1968.29
709.713	1903
709.905	1924.89
710.097	1971.39
710.289	1930.13
710.481	1978.56
710.672	1967.13
710.864	1996
711.056	2056.26
711.248	2036.11
711.44	2064.01
711.632	2044.63
711.824	2093.26
712.016	2158.94
712.207	2135.89
712.399	2142.28
712.591	2205.83
712.783	2159.33
712.975	2200.02
713.166	2169.21
713.358	2181.8
713.55	2268.21
713.741	2286.23
713.933	2270.35
714.125	2249.42
714.316	2270.35
714.508	2361.79
714.7	2355.01
714.891	2357.14
715.083	2424.57
715.274	2361.6
715.466	2432.32
715.657	2470.49
715.849	2354.43
716.04	2406.16
716.232	2372.64
716.423	2464.29
716.615	2372.06
716.806	2313.75
716.998	2353.08
717.189	2289.33
717.381	2210.09
717.572	2187.81
717.763	2194.78
717.955	2165.72
718.146	2168.24
718.337	2090.35
718.528	2069.24
718.72	2072.72
718.911	2128.72
719.102	2028.94
719.293	2103.34
719.485	2085.12
719.676	2069.62
719.867	2049.28
720.058	2070.59
720.249	2098.1
720.44	2092.29
720.632	2144.22
720.823	2177.35
721.014	2335.83
721.205	2330.02
721.396	2392.6
721.587	2515.05
721.778	2570.46
721.969	2563.68
722.16	2649.51
722.351	2641.76
722.542	2794.04
722.733	2800.44
722.924	2717.32
723.115	2789.59
723.305	2798.89
723.496	2782.61
723.687	2660.36
723.878	2660.17
724.069	2712.67
724.26	2677.8
724.45	2651.06
724.641	2667.92
724.832	2662.1
725.023	2685.16
725.213	2658.03
725.404	2685.93
725.595	2670.43
725.785	2702.98
725.976	2732.82
726.167	2756.46
726.357	2782.23
726.548	2857.4
726.739	2778.55
726.929	2876.58
727.12	2906.61
727.31	2930.06
727.501	2852.75
727.691	2909.91
727.882	2911.46
728.072	2913.2
728.263	2919.98
728.453	2996.9
728.644	3036.23
728.834	3008.72
729.024	2958.73
729.215	2989.15
729.405	3003.29
729.596	3104.04
729.786	3062.38
729.976	3126.32
730.167	3141.82
730.357	3096.48
730.547	3116.05
730.737	3152.48
730.928	3167.4
731.118	3268.34
731.308	3197.62
731.498	3199.95
731.688	3372.57
731.879	3322.59
732.069	3385.56
732.259	3389.82
732.449	3428.18
732.639	3521.37
732.829	3498.9
733.019	3551.02
733.209	3622.51
733.399	3657.38
733.589	3710.66
733.779	3708.34
733.969	3732.36
734.159	3832.14
734.349	3852.29
734.539	3905.19
734.729	3883.68
734.919	3928.24
735.109	3979.2
735.299	3884.26
735.488	3967.38
735.678	3949.75
735.868	3953.62
736.058	3949.94
736.248	3966.8
736.437	3958.08
736.627	3896.08
736.817	4094.48
737.007	4018.91
737.196	4060.96
737.386	4047.01
737.576	3991.6
737.765	4117.92
737.955	4012.71
738.144	4218.47
738.334	4158.8
738.524	4064.64
738.713	4145.04
738.903	4120.24
739.092	4135.36
739.282	4190.77
739.471	4206.07
739.661	4134.19
739.85	4203.56
740.04	4205.49
740.229	4255.87
740.419	4296.17
740.608	4281.25
740.797	4262.46
740.987	4319.22
741.176	4303.14
741.365	4259.16
741.555	4197.16
741.744	4401.37
741.933	4314.38
742.123	4295.59
742.312	4347.12
742.501	4397.11
742.69	4384.52
742.88	4359.91
743.069	4431.6
743.258	4353.71
743.447	4426.75
743.636	4423.85
743.825	4376.77
744.014	4381.8
744.204	4459.11
744.393	4334.53
744.582	4452.33
744.771	4506.38
744.96	4405.83
745.149	4476.93
745.338	4457.95
745.527	4512.58
745.716	4414.35
745.905	4472.28
746.094	4534.28
746.283	4539.9
746.471	4524.01
746.66	4537.77
746.849	4553.27
747.038	4586.01
747.227	4520.14
747.416	4567.99
747.604	4522.66
747.793	4494.56
747.982	4522.27
748.171	4587.18
748.359	4553.46
748.548	4532.54
748.737	4525.95
748.926	4550.75
749.114	4453.49
749.303	4580.01
749.491	4509.29
749.68	4444
749.869	4554.04
750.057	4515.88
750.246	4484.88
750.434	4513.55
750.623	4509.1
750.811	4467.83
751	4539.71
751.188	4475.58
751.377	4471.9
751.565	4474.03
751.754	4474.22
751.942	4442.25
752.131	4501.54
752.319	4432.76
752.507	4392.65
752.696	4434.31
752.884	4463.95
753.072	4458.14
753.261	4494.18
753.449	4445.55
753.637	4421.33
753.825	4504.06
754.014	4414.74
754.202	4429.08
754.39	4452.91
754.578	4491.66
754.766	4426.17
754.955	4358.94
755.143	4485.85
755.331	4392.46
755.519	4431.6
755.707	4433.53
755.895	4383.16
756.083	4420.36
756.271	4339.95
756.459	4395.37
756.647	4463.56
756.835	4360.69
757.023	4353.71
757.211	4302.75
757.399	4345.57
757.587	4348.29
757.775	4299.65
757.963	4278.54
758.151	4328.91
758.339	4303.92
758.526	4280.67
758.714	4301.01
758.902	4220.8
759.09	4147.95
759.278	3961.37
759.465	3707.95
759.653	3286.55
759.841	3033.71
760.028	2675.67
760.216	2352.11
760.404	2217.07
760.591	1915.98
760.779	1704.41
760.967	1513.76
761.154	1361.87
761.342	1359.35
761.529	1364
761.717	1469.78
761.905	1442.66
762.092	1580.99
762.28	1522.09
762.467	1595.72
762.655	1543.21
762.842	1598.82
763.029	1600.95
763.217	1656.36
763.404	1619.55
763.592	1660.24
763.779	1625.17
763.966	1677.48
764.154	1766.22
764.341	1823.37
764.528	1841.58
764.716	1878.01
764.903	1962.09
765.09	2016.54
765.277	2087.84
765.465	2281.39
765.652	2269.76
765.839	2400.74
766.026	2517.96
766.213	2585.38
766.4	2665.2
766.588	2873.29
766.775	2904.87
766.962	2973.26
767.149	3028.87
767.336	3220.48
767.523	3160.61
767.71	3272.79
767.897	3441.55
768.084	3457.82
768.271	3531.45
768.458	3551.98
768.645	3638.01
768.832	3562.83
769.019	3659.51
769.206	3677.53
769.392	3758.52
769.579	3814.9
769.766	3812.38
769.953	3773.24
770.14	3789.52
770.327	3818.58
770.513	3860.04
770.7	3900.92
770.887	3825.94
771.073	3861.01
771.26	3837.57
771.447	3811.99
771.634	3752.32
771.82	3909.64
772.007	3823.62
772.193	3857.14
772.38	3903.83
772.567	3832.34
772.753	3839.7
772.94	3917.2
773.126	3872.05
773.313	3874.57
773.499	3874.19
773.686	3859.46
773.872	3819.16
774.059	3828.85
774.245	3780.61
774.432	3841.25
774.618	3701.36
774.804	3789.52
774.991	3756
775.177	3826.72
775.363	3753.87
775.55	3837.37
775.736	3702.72
775.922	3740.5
776.109	3730.04
776.295	3807.73
776.481	3812.19
776.667	3801.53
776.853	3723.06
777.04	3725.19
777.226	3700.01
777.412	3769.95
777.598	3659.13
777.784	3703.11
777.97	3656.8
778.156	3715.7
778.342	3735.27
778.528	3673.46
778.715	3582.01
778.901	3623.48
779.087	3673.08
779.272	3617.86
779.458	3604.49
779.644	3649.05
779.83	3628.9
780.016	3662.03
780.202	3599.45
780.388	3591.31
780.574	3482.43
780.76	3546.17
780.946	3595.38
781.131	3543.85
781.317	3547.53
781.503	3535.9
781.689	3538.81
781.874	3679.28
782.06	3536.29
782.246	3525.05
782.432	3542.1
782.617	3550.63
782.803	3584.34
782.989	3479.52
783.174	3499.87
783.36	3411.71
783.545	3466.93
783.731	3466.93
783.916	3362.11
784.102	3455.5
784.288	3417.33
784.473	3455.69
784.659	3412.87
784.844	3439.61
785.029	3393.89
785.215	3396.99
785.4	3330.34
785.586	3448.91
785.771	3351.46
785.956	3382.07
786.142	3363.86
786.327	3355.91
786.512	3323.17
786.698	3339.44
786.883	3258.07
787.068	3292.36
787.254	3317.36
787.439	3276.86
787.624	3289.65
787.809	3245.28
787.994	3278.22
788.18	3338.86
788.365	3167.78
788.55	3212.93
788.735	3267.76
788.92	3239.66
789.105	3255.16
789.29	3272.02
789.475	3177.08
789.66	3178.63
789.845	3145.5
790.03	3114.5
790.215	3197.04
790.4	3213.7
790.585	3244.51
790.77	3101.91
790.955	3110.24
791.14	3155.19
791.325	3194.52
791.51	3035.84
791.695	3102.68
791.879	3126.32
792.064	3055.6
792.249	3190.65
792.434	3150.35
792.618	3089.32
792.803	3168.36
792.988	3067.62
793.173	3133.68
793.357	3166.23
793.542	3056.38
793.727	3076.14
793.911	3105.98
794.096	3109.08
794.281	3103.65
794.465	3173.6
794.65	3105.2
794.834	3173.79
795.019	3148.02
795.203	3141.24
795.388	3169.72
795.572	3191.42
795.757	3224.16
795.941	3159.65
796.126	3184.06
796.31	3104.62
796.494	3158.87
796.679	3137.95
796.863	3093.58
797.048	3192
797.232	3168.36
797.416	3181.54
797.601	3159.65
797.785	3251.68
797.969	3246.25
798.153	3129.81
798.338	3220.1
798.522	3254
798.706	3208.08
798.89	3229.01
799.074	3317.36
799.258	3250.32
799.443	3212.15
799.627	3233.27
799.811	3273.96
799.995	3175.92
800.179	3185.22
800.363	3136.2
800.547	3210.8
800.731	3258.84
800.915	3167.59
801.099	3134.27
801.283	3171.08
801.467	3171.27
801.651	3164.88
801.835	3248.38
802.019	3192.58
802.202	3182.51
802.386	3126.13
802.57	3135.23
802.754	3154.22
802.938	3151.12
803.121	3159.45
803.305	3234.82
803.489	3169.53
803.673	3139.88
803.856	3165.07
804.04	3164.49
804.224	3192.2
804.407	3123.42
804.591	3146.08
804.775	3165.07
804.958	3143.76
805.142	3247.41
805.326	3161
805.509	3207.89
805.693	3219.32
805.876	3228.81
806.06	3167.78
806.243	3181.93
806.427	3235.4
806.61	3229.78
806.794	3130.2
806.977	3202.46
807.16	3170.3
807.344	3145.7
807.527	3182.7
807.71	3144.73
807.894	3192.97
808.077	3217.38
808.26	3122.06
808.444	3119.15
808.627	3196.65
808.81	3101.13
808.993	3070.72
809.177	3041.27
809.36	3040.49
809.543	3109.08
809.726	2981.2
809.909	2995.74
810.092	2977.33
810.276	2979.27
810.459	3010.85
810.642	2970.94
810.825	2921.14
811.008	2937.61
811.191	2850.23
811.374	2918.62
811.557	2913.97
811.74	2927.92
811.923	2820.59
812.106	2802.96
812.289	2823.49
812.472	2789.01
812.654	2830.86
812.837	2775.64
813.02	2738.83
813.203	2727.2
813.386	2588.67
813.569	2616.77
813.751	2497.81
813.934	2573.56
814.117	2545.47
814.3	2493.93
814.482	2463.71
814.665	2403.45
814.848	2358.31
815.03	2323.05
815.213	2329.44
815.396	2272.86
815.578	2273.06
815.761	2238.38
815.943	2311.81
816.126	2193.04
816.309	2164.37
816.491	2064.39
816.674	2036.3
816.856	2094.62
817.039	2078.73
817.221	2163.98
817.403	2140.34
817.586	2068.85
817.768	2130.46
817.951	2044.05
818.133	2035.14
818.315	2045.6
818.498	2117.09
818.68	2165.53
818.862	2146.35
819.045	2175.41
819.227	2147.51
819.409	2081.83
819.591	2143.25
819.774	2122.71
819.956	2064.78
820.138	2182.58
820.32	2125.81
820.502	2164.75
820.684	2237.22
820.866	2283.91
821.048	2304.83
821.231	2335.64
821.413	2334.28
821.595	2281.39
821.777	2317.43
821.959	2278.29
822.141	2374.58
822.323	2235.08
822.505	2182.97
822.686	2128.33
822.868	2075.82
823.05	1926.44
823.232	1903.58
823.414	1805.16
823.596	1887.5
823.778	1870.45
823.96	1911.14
824.141	1889.25
824.323	1938.26
824.505	2022.74
824.687	2026.61
824.868	2126.97
825.05	2188
825.232	2219.58
825.413	2333.9
825.595	2209.7
825.777	2169.21
825.958	2232.18
826.14	2212.8
826.321	2250
826.503	2202.92
826.685	2251.17
826.866	2272.67
827.048	2255.23
827.229	2163.4
827.411	2129.1
827.592	2121.74
827.773	2121.74
827.955	2067.49
828.136	2063.62
828.318	2008.4
828.499	2065.36
828.68	2020.22
828.862	2029.32
829.043	2060.91
829.224	2065.75
829.406	1997.55
829.587	2008.79
829.768	2016.92
829.949	2053.54
830.131	2021.19
830.312	2077.96
830.493	2007.43
830.674	2021.96
830.855	2022.54
831.036	2004.14
831.218	2093.07
831.399	2067.11
831.58	2057.81
831.761	2027.58
831.942	2037.46
832.123	2038.24
832.304	1957.83
832.485	1964.03
832.666	2000.65
832.847	2045.21
833.028	1986.89
833.209	2027.58
833.389	1998.71
833.57	1932.64
833.751	1956.86
833.932	2011.31
834.113	1995.61
834.294	1975.66
834.475	2058.39
834.655	2052.57
834.836	2044.44
835.017	2032.23
835.198	1947.76
835.378	2036.3
835.559	2078.73
835.74	2002.2
835.92	2025.64
836.101	1992.71
836.281	2027
836.462	2012.86
836.643	2051.8
836.823	2053.54
837.004	2073.11
837.184	2087.64
837.365	2090.94
837.545	2068.85
837.726	2047.34
837.906	2128.33
838.087	2054.71
838.267	2095.78
838.448	2031.84
838.628	2027.77
838.808	2064.39
838.989	2093.07
839.169	2017.12
839.349	2049.09
839.53	2071.56
839.71	2118.64
839.89	2018.28
840.07	2107.6
840.251	2012.66
840.431	2083.96
840.611	2053.16
840.791	2042.31
840.971	2043.47
841.151	2009.37
841.332	2038.43
841.512	2055.29
841.692	1945.24
841.872	2046.96
842.052	2017.51
842.232	2040.56
842.412	1972.36
842.592	1986.12
842.772	2006.85
842.952	1993.68
843.132	1979.14
843.312	1941.56
843.492	1945.82
843.672	2037.46
843.851	1914.43
844.031	1976.24
844.211	1909.01
844.391	1946.98
844.571	1965.19
844.751	1971.78
844.93	1958.22
845.11	1935.94
845.29	1931.68
845.47	1955.12
845.649	1934.97
845.829	1980.5
846.009	1884.6
846.188	1951.44
846.368	1950.86
846.547	1966.94
846.727	1977.01
846.907	1892.15
847.086	1892.15
847.266	1974.88
847.445	1933.81
847.625	1940.01
847.804	1879.36
847.984	1934.58
848.163	1860.57
848.343	1894.48
848.522	1909.78
848.701	1913.08
848.881	1880.91
849.06	1889.25
849.239	1899.71
849.419	1875.49
849.598	1810.97
849.777	1820.85
849.957	1781.33
850.136	1730.37
850.315	1717.97
850.494	1728.44
850.674	1708.48
850.853	1816.4
851.032	1751.49
851.211	1813.3
851.39	1790.05
851.569	1702.86
851.748	1715.65
851.927	1842.55
852.107	1746.84
852.286	1711.97
852.465	1710.8
852.644	1803.22
852.823	1775.9
853.002	1737.15
853.181	1755.17
853.359	1793.34
853.538	1674.38
853.717	1776.1
853.896	1681.35
854.075	1582.93
854.254	1568.01
854.433	1517.64
854.611	1540.5
854.79	1484.89
854.969	1530.81
855.148	1557.94
855.327	1512.79
855.505	1595.14
855.684	1580.99
855.863	1604.82
856.041	1555.23
856.22	1589.71
856.399	1593.78
856.577	1712.16
856.756	1684.84
856.934	1796.05
857.113	1792.95
857.291	1695.69
857.47	1679.42
857.648	1689.1
857.827	1693.37
858.005	1753.04
858.184	1659.27
858.362	1758.66
858.541	1654.42
858.719	1627.3
858.898	1685.23
859.076	1629.43
859.254	1712.35
859.433	1645.32
859.611	1610.64
859.789	1587.39
859.967	1675.93
860.146	1733.86
860.324	1550.58
860.502	1622.46
860.68	1557.94
860.859	1606.57
861.037	1637.76
861.215	1602.31
861.393	1619.36
861.571	1635.24
861.749	1556.97
861.927	1629.04
862.105	1601.14
862.283	1567.24
862.461	1557.55
862.639	1573.05
862.817	1550.58
862.995	1590.1
863.173	1540.89
863.351	1572.08
863.529	1564.14
863.707	1645.12
863.885	1592.62
864.063	1504.66
864.241	1548.06
864.418	1595.33
864.596	1539.92
864.774	1503.69
864.952	1513.38
865.129	1533.14
865.307	1505.82
865.485	1484.7
865.663	1549.61
865.84	1469.4
866.018	1483.34
866.196	1352.95
866.373	1382.79
866.551	1299.87
866.728	1215.2
866.906	1303.55
867.084	1341.91
867.261	1354.89
867.439	1383.37
867.616	1434.52
867.794	1392.28
867.971	1395.19
868.149	1431.23
868.326	1494.97
868.503	1461.26
868.681	1462.61
868.858	1428.9
869.035	1362.64
869.213	1425.03
869.39	1412.43
869.567	1502.53
869.745	1431.03
869.922	1438.2
870.099	1445.18
870.276	1456.41
870.454	1458.74
870.631	1447.89
870.808	1367.29
870.985	1435.88
871.162	1490.13
871.339	1432.58
871.517	1344.23
871.694	1372.33
871.871	1423.48
872.048	1399.84
872.225	1386.08
872.402	1416.89
872.579	1358.18
872.756	1401.78
872.933	1347.53
873.11	1378.72
873.287	1396.35
873.463	1352.37
873.64	1350.63
873.817	1402.16
873.994	1373.68
874.171	1321.95
874.348	1374.85
874.524	1318.27
874.701	1334.93
874.878	1274.87
875.055	1357.41
875.231	1324.28
875.408	1345.2
875.585	1234.96
875.762	1291.34
875.938	1301.8
876.115	1270.03
876.291	1279.52
876.468	1292.89
876.645	1246
876.821	1290.37
876.998	1281.07
877.174	1276.04
877.351	1247.17
877.527	1270.03
877.704	1289.6
877.88	1272.94
878.057	1216.75
878.233	1318.47
878.409	1251.62
878.586	1273.9
878.762	1277.2
878.938	1253.95
879.115	1177.42
879.291	1253.37
879.467	1136.54
879.644	1221.79
879.82	1275.65
879.996	1174.71
880.172	1192.14
880.349	1217.52
880.525	1245.42
880.701	1196.99
880.877	1165.41
881.053	1215.01
881.229	1200.28
881.405	1270.42
881.581	1164.44
881.757	1210.74
881.933	1218.1
882.109	1280.88
882.285	1227.21
882.461	1123.17
882.637	1186.72
882.813	1151.26
882.989	1189.24
883.165	1265.38
883.341	1149.32
883.517	1189.82
883.693	1213.07
883.869	1244.84
884.044	1190.21
884.22	1222.56
884.396	1252.98
884.572	1210.36
884.747	1235.93
884.923	1206.48
885.099	1264.22
885.275	1235.35
885.45	1173.93
885.626	1156.3
885.801	1196.6
885.977	1170.06
886.153	1152.62
886.328	1211.32
886.504	1141.57
886.679	1182.65
886.855	1163.86
887.03	1231.86
887.206	1215.97
887.381	1189.43
887.557	1193.5
887.732	1217.33
887.908	1205.51
888.083	1232.05
888.258	1208.22
888.434	1165.99
888.609	1186.72
888.784	1238.45
888.96	1192.34
889.135	1173.16
889.31	1164.44
889.485	1192.92
889.661	1148.16
889.836	1232.25
890.011	1218.1
890.186	1149.32
890.361	1167.73
890.537	1189.82
890.712	1188.66
890.887	1198.54
891.062	1180.71
891.237	1243.49
891.412	1146.61
891.587	1206.48
891.762	1206.48
891.937	1261.5
892.112	1200.28
892.287	1184.59
892.462	1106.7
892.637	1111.74
892.812	1098.95
892.987	1114.84
893.161	1120.65
893.336	1123.94
893.511	1132.47
893.686	1113.68
893.861	1108.64
894.035	1097.01
894.21	1105.73
894.385	1047.03
894.56	1106.12
894.734	1049.16
894.909	999.17
895.084	1028.23
895.258	1037.34
895.433	1018.93
895.608	1011.18
895.782	957.32
895.957	988.51
896.131	960.42
896.306	898.81
896.48	906.56
896.655	904.82
896.829	841.65
897.004	850.57
897.178	874.4
897.353	858.12
897.527	896.68
897.701	892.22
897.876	813.17
898.05	936.4
898.224	874.59
898.399	929.81
898.573	864.13
898.747	725.6
898.921	818.4
899.096	703.9
899.27	676.58
899.444	712.23
899.618	741.49
899.792	724.82
899.967	772.68
900.141	785.47
900.315	726.76
900.489	734.9
900.663	771.32
900.837	753.11
901.011	700.8
901.185	820.54
901.359	776.17
901.533	772.29
901.707	773.84
901.881	749.62
902.055	709.71
902.229	740.13
902.403	794.57
902.576	751.95
902.75	769.39
902.924	875.95
903.098	820.15
903.272	872.65
903.446	920.32
903.619	886.41
903.793	918.38
903.967	882.53
904.14	940.47
904.314	941.05
904.488	920.51
904.661	926.9
904.835	921.48
905.009	947.83
905.182	996.85
905.356	939.11
905.529	907.72
905.703	869.75
905.876	868.58
906.05	827.7
906.223	847.47
906.397	800.19
906.57	774.81
906.744	742.07
906.917	756.02
907.09	748.07
907.264	747.3
907.437	735.48
907.61	676.97
907.784	708.55
907.957	726.37
908.13	690.34
908.304	728.51
908.477	680.84
908.65	689.56
908.823	636.86
908.996	749.24
909.17	662.44
909.343	705.06
909.516	657.98
909.689	692.08
909.862	608.19
910.035	683.36
910.208	629.89
910.381	626.79
910.554	738.19
910.727	665.34
910.9	658.37
911.073	661.66
911.246	730.44
911.419	732.57
911.592	701.77
911.765	644.61
911.938	657.01
912.11	689.18
912.283	665.54
912.456	698.67
912.629	679.88
912.802	619.43
912.974	637.44
913.147	552.2
913.32	517.51
913.493	583.39
913.665	628.14
913.838	591.53
914.01	584.16
914.183	590.56
914.356	591.14
914.528	633.38
914.701	687.63
914.873	648.88
915.046	605.28
915.218	574.09
915.391	511.32
915.563	512.87
915.736	594.82
915.908	589.98
916.081	573.51
916.253	582.61
916.425	590.17
916.598	612.64
916.77	581.65
916.942	555.88
917.115	514.22
917.287	584.94
917.459	538.63
917.632	523.52
917.804	447.18
917.976	551.42
918.148	518.87
918.32	557.23
918.493	587.65
918.665	632.02
918.837	572.15
919.009	666.12
919.181	624.27
919.353	634.15
919.525	589.98
919.697	573.9
919.869	584.55
920.041	656.63
920.213	735.67
920.385	638.99
920.557	576.03
920.729	627.95
920.901	609.54
921.073	584.55
921.244	579.51
921.416	605.67
921.588	604.31
921.76	587.07
921.932	670.38
922.103	599.08
922.275	602.76
922.447	610.71
922.619	517.9
922.79	600.44
922.962	555.68
923.134	606.06
923.305	529.91
923.477	526.23
923.648	508.41
923.82	553.75
923.991	463.65
924.163	452.42
924.335	510.73
924.506	496.01
924.677	575.83
924.849	501.43
925.02	541.73
925.192	541.73
925.363	530.11
925.535	525.26
925.706	496.78
925.877	577.96
926.049	511.7
926.22	525.46
926.391	540.76
926.562	539.41
926.734	490.97
926.905	558.98
927.076	447.96
927.247	481.67
927.419	450.67
927.59	450.87
927.761	454.35
927.932	423.35
928.103	478.57
928.274	382.67
928.445	384.22
928.616	388.67
928.787	406.89
928.958	401.85
929.129	392.55
929.3	374.92
929.471	315.44
929.642	291.22
929.813	264.67
929.984	372.01
930.155	269.32
930.326	321.06
930.496	262.35
930.667	220.89
930.838	265.45
931.009	213.53
931.18	251.69
931.35	244.72
931.521	240.46
931.692	175.74
931.863	134.67
932.033	199.58
932.204	202.29
932.374	201.13
932.545	168.77
932.716	224.96
932.886	227.86
933.057	93.21
933.227	119.75
933.398	216.82
933.568	92.05
933.739	63.57
933.909	77.71
934.08	150.95
934.25	72.09
934.421	90.69
934.591	117.23
934.761	75.58
934.932	47.87
935.102	129.25
935.272	97.47
935.443	109.68
935.613	85.65
935.783	104.83
935.953	60.66
936.123	231.54
936.294	64.53
936.464	67.63
936.634	92.24
936.804	49.62
936.974	42.83
937.144	95.53
937.314	90.69
937.484	77.9
937.655	70.54
937.825	123.63
937.995	63.18
938.165	141.65
938.334	98.83
938.504	102.7
938.674	76.55
938.844	113.94
939.014	151.72
939.184	141.65
939.354	217.59
939.524	177.49
939.694	133.12
939.863	135.45
940.033	215.08
940.203	203.45
940.373	202.09
940.542	180.78
940.712	157.34
940.882	211.39
941.051	193.38
941.221	184.27
941.391	206.74
941.56	138.35
941.73	128.28
941.899	242.01
942.069	144.16
942.238	177.88
942.408	126.73
942.577	208.1
942.747	132.73
942.916	88.75
943.086	95.15
943.255	178.46
943.425	132.15
943.594	106.58
943.763	37.6
943.933	91.66
944.102	45.35
944.271	99.8
944.441	140.68
944.61	84.1
944.779	109.48
944.948	217.21
945.117	75.97
945.287	101.93
945.456	64.92
945.625	77.13
945.794	132.15
945.963	82.16
946.132	137.77
946.301	98.05
946.47	136.22
946.639	49.62
946.808	87.78
946.977	136.03
947.146	183.69
947.315	119.17
947.484	157.53
947.653	109.48
947.822	94.56
947.991	67.25
948.16	198.99
948.329	156.95
948.498	112.78
948.666	144.36
948.835	129.83
949.004	64.53
949.173	71.32
949.341	123.24
949.51	126.73
949.679	185.04
949.847	142.03
950.016	174
950.185	194.73
950.353	76.16
950.522	108.71
950.69	183.49
950.859	96.11
951.028	185.24
951.196	110.65
951.365	106
951.533	114.52
951.701	153.85
951.87	124.01
952.038	86.43
952.207	125.76
952.375	189.5
952.543	96.89
952.712	104.45
952.88	103.67
953.048	165.09
953.217	99.8
953.385	109.87
953.553	182.33
953.721	74.03
953.89	115.88
954.058	26.75
954.226	78.1
954.394	136.41
954.562	40.9
954.73	101.73
954.898	115.1
955.067	159.86
955.235	87.78
955.403	139.71
955.571	187.37
955.739	137.38
955.907	112.2
956.075	79.84
956.243	87.98
956.41	113.94
956.578	64.92
956.746	71.7
956.914	96.89
957.082	155.79
957.25	142.03
957.418	83.13
957.585	129.63
957.753	149.78
957.921	84.68
958.089	101.15
958.256	120.72
958.424	129.83
958.592	129.05
958.759	76.74
958.927	140.29
959.095	70.73
959.262	139.9
959.43	124.01
959.597	98.83
959.765	98.63
959.932	65.7
960.1	158.31
960.267	118.78
960.435	101.93
960.602	124.79
960.77	93.6
960.937	63.76
961.104	119.17
961.272	27.72
961.439	94.18
961.606	139.51
961.774	125.76
961.941	104.64
962.108	102.12
962.275	137.19
962.443	174.97
962.61	131.76
962.777	194.73
962.944	144.55
963.111	112.78
963.278	139.32
963.446	137
963.613	125.76
963.78	140.1
963.947	133.7
964.114	120.72
964.281	212.56
964.448	170.51
964.615	101.73
964.782	113.75
964.949	143
965.116	144.75
965.282	177.29
965.449	117.43
965.616	84.1
965.783	155.21
965.95	126.53
966.117	87.01
966.283	111.03
966.45	121.88
966.617	134.28
966.784	172.06
966.95	158.89
967.117	159.86
967.284	104.83
967.45	95.34
967.617	184.27
967.784	153.85
967.95	213.53
968.117	105.8
968.283	192.99
968.45	251.89
968.616	163.15
968.783	194.93
968.949	149.59
969.116	175.16
969.282	137.38
969.449	175.94
969.615	147.85
969.781	92.05
969.948	129.44
970.114	71.32
970.28	200.35
970.447	127.7
970.613	195.12
970.779	145.71
970.945	185.04
971.112	159.66
971.278	142.61
971.444	131.96
971.61	202.68
971.776	127.31
971.942	151.53
972.108	177.49
972.275	141.06
972.441	156.56
972.607	219.34
972.773	141.84
972.939	175.74
973.105	140.29
973.271	110.26
973.437	113.16
973.602	124.79
973.768	153.66
973.934	137
974.1	137
974.266	47.48
974.432	145.33
974.598	122.46
974.763	176.91
974.929	125.56
975.095	196.48
975.261	97.66
975.426	107.16
975.592	115.3
975.758	213.53
975.923	68.02
976.089	93.79
976.255	126.73
976.42	139.13
976.586	119.56
976.751	116.26
976.917	224.96
977.082	142.03
977.248	76.74
977.413	61.63
977.579	133.51
977.744	121.11
977.91	85.65
978.075	91.27
978.24	147.85
978.406	112
978.571	91.08
978.736	67.83
978.902	153.27
979.067	99.8
979.232	49.42
979.397	112.39
979.563	199.19
979.728	116.46
979.893	108.13
980.058	98.63
980.223	170.32
980.388	142.23
980.554	114.13
980.719	92.63
980.884	133.7
981.049	188.92
981.214	74.42
981.379	154.82
981.544	113.16
981.709	113.16
981.874	122.85
982.039	120.14
982.204	142.42
982.368	128.08
982.533	99.41
982.698	157.53
982.863	162.57
983.028	104.06
983.193	143.58
983.357	138.74
983.522	87.59
983.687	86.23
983.852	131.38
984.016	110.84
984.181	143.39
984.346	132.73
984.51	147.26
984.675	127.11
984.839	119.75
985.004	139.71
985.168	181.94
985.333	112.39
985.498	84.68
985.662	148.81
985.827	132.73
985.991	109.48
986.155	114.13
986.32	144.94
986.484	183.69
986.649	134.86
986.813	45.35
986.977	90.88
987.142	124.21
987.306	52.33
987.47	94.56
987.634	108.51
987.799	131.18
987.963	103.28
988.127	105.8
988.291	187.56
988.455	124.21
988.62	85.85
988.784	139.71
988.948	114.33
989.112	93.01
989.276	102.51
989.44	109.1
989.604	104.64
989.768	100.18
989.932	195.89
990.096	72.28
990.26	59.5
990.424	56.2
990.588	111.42
990.752	167.22
990.915	148.81
991.079	102.9
991.243	77.32
991.407	149.78
991.571	104.83
991.734	142.61
991.898	139.32
992.062	189.89
992.226	92.82
992.389	88.17
992.553	69.57
992.717	81.97
992.88	81.78
993.044	114.52
993.207	103.48
993.371	140.29
993.535	94.18
993.698	76.55
993.862	132.93
994.025	122.66
994.189	125.56
994.352	102.31
994.515	97.28
994.679	156.56
994.842	90.69
995.006	133.51
995.169	51.55
995.332	84.3
995.496	125.18
995.659	36.63
995.822	85.46
995.985	91.46
996.149	153.66
996.312	73.64
996.475	162.96
996.638	68.22
996.801	146.68
996.964	177.49
997.128	91.27
997.291	66.08
997.454	102.7
997.617	30.82
997.78	136.22
997.943	75.58
998.106	141.65
998.269	81
998.432	79.07
998.595	78.1
998.758	22.88
998.92	53.3
999.083	43.61
999.246	68.02
999.409	38.77
999.572	5.05
999.735	61.24
999.897	91.66
1000.06	81.97
1000.223	85.85
1000.386	130.02
1000.548	121.11
1000.711	111.03
1000.874	83.33
1001.036	4.67
1001.199	112
1001.361	57.75
1001.524	93.79
1001.687	111.61
1001.849	40.51
1002.012	81
1002.174	63.18
1002.337	120.14
1002.499	76.55
1002.661	135.64
1002.824	18.81
1002.986	57.17
1003.149	73.06
1003.311	49.03
1003.473	108.71
1003.636	58.72
1003.798	95.15
1003.96	88.36
1004.123	65.5
1004.285	46.52
1004.447	66.47
1004.609	69.57
1004.771	143.97
1004.933	35.67
1005.096	41.87
1005.258	39.15
1005.42	50.58
1005.582	104.25
1005.744	77.52
1005.906	-15.68
1006.068	71.12
1006.23	31.02
1006.392	-10.25
1006.554	35.67
1006.716	102.9
1006.878	100.76
1007.04	1.18
1007.202	37.6
1007.363	49.62
1007.525	75.38
1007.687	85.46
1007.849	138.16
1008.011	21.13
1008.172	3.31
1008.334	37.41
1008.496	49.81
1008.658	4.47
1008.819	35.47
1008.981	23.07
1009.143	25.59
1009.304	32.18
1009.466	81
1009.627	114.52
1009.789	180.98
1009.95	68.6
1010.112	10.28
1010.273	66.86
1010.435	15.71
1010.596	56.59
1010.758	12.61
1010.919	43.42
1011.081	19.2
1011.242	54.07
1011.403	67.63
1011.565	39.15
1011.726	80.23
1011.887	6.22
1012.049	45.74
1012.21	75.58
1012.371	122.85
1012.532	-18.97
1012.693	36.25
1012.855	23.85
1013.016	79.26
1013.177	78.48
1013.338	53.1
1013.499	98.44
1013.66	75.58
1013.821	93.98
1013.982	73.83
1014.143	41.67
1014.304	48.45
1014.465	70.73
1014.626	61.82
1014.787	49.62
1014.948	164.51
1015.109	-25.36
1015.27	112.2
1015.431	31.6
1015.592	29.08
1015.752	102.31
1015.913	23.65
1016.074	53.49
1016.235	82.36
1016.395	57.56
1016.556	20.75
1016.717	49.62
1016.877	97.86
1017.038	32.76
1017.199	67.25
1017.359	34.7
1017.52	37.8
1017.681	36.63
1017.841	36.25
1018.002	58.92
1018.162	29.85
1018.323	89.53
1018.483	50.39
1018.644	19.39
1018.804	-19.55
1018.964	-17.81
1019.125	16.48
1019.285	58.33
1019.446	5.25
1019.606	17.45
1019.766	-42.8
1019.926	72.28
1020.087	42.45
1020.247	-15.68
1020.407	40.7
1020.567	81.78
1020.728	17.26
1020.888	15.13
1021.048	25.98
1021.208	5.44
1021.368	15.9
1021.528	86.62
1021.688	81.58
1021.848	85.07
1022.008	35.67
1022.168	-0.76
1022.328	41.67
1022.488	32.18
1022.648	17.26
1022.808	18.23
1022.968	48.65
1023.128	0.6
1023.288	-4.63
1023.448	33.34
1023.608	43.61
1023.767	61.24
1023.927	26.56
1024.087	-2.89
1024.247	-1.53
1024.406	14.35
1024.566	8.15
1024.726	-4.44
1024.885	19.78
1025.045	69.96
1025.205	29.66
1025.364	14.16
1025.524	49.81
1025.683	12.61
1025.843	55.43
1026.003	27.53
1026.162	73.45
1026.321	70.35
1026.481	20.75
1026.64	12.42
1026.8	24.82
1026.959	29.66
1027.119	29.47
1027.278	-4.63
1027.437	21.13
1027.597	62.4
1027.756	65.5
1027.915	35.08
1028.074	51.75
1028.234	16.48
1028.393	46.13
1028.552	9.51
1028.711	-56.95
1028.87	59.88
1029.03	1.95
1029.189	26.75
1029.348	-53.65
1029.507	5.25
1029.666	17.45
1029.825	24.23
1029.984	-15.29
1030.143	37.02
1030.302	2.92
1030.461	-50.36
1030.62	5.83
1030.779	67.05
1030.938	0.4
1031.097	-10.83
1031.255	58.92
1031.414	99.99
1031.573	55.62
1031.732	-34.66
1031.891	-4.05
1032.049	59.69
1032.208	52.91
1032.367	3.31
1032.525	7.57
1032.684	33.34
1032.843	11.64
1033.001	-18.78
1033.16	180.98
1033.319	51.17
1033.477	53.49
1033.636	9.51
1033.794	-19.36
1033.953	44.77
1034.111	7.96
1034.27	-30.79
1034.428	25.59
1034.587	-26.72
1034.745	25.98
1034.903	12.42
1035.062	25.78
1035.22	-9.09
1035.378	59.11
1035.537	-30.4
1035.695	57.75
1035.853	-2.31
1036.011	52.13
1036.17	37.02
1036.328	-55.2
1036.486	24.82
1036.644	23.27
1036.802	-55.4
1036.96	12.22
1037.119	31.6
1037.277	8.54
1037.435	-30.4
1037.593	-15.48
1037.751	34.7
1037.909	39.35
1038.067	39.35
