Data from gum_old_FLMT105791__54__15-43-42-257.txt Node

Date: Mon Mar 20 15:43:42 GMT 2023
User: antho
Spectrometer: FLMT10579
Trigger mode: 0
Integration Time (sec): 1.000000E-1
Scans to average: 10
Electric dark correction enabled: true
Nonlinearity correction enabled: false
Boxcar width: 0
XAxis mode: Wavelengths
Number of Pixels in Spectrum: 3648
>>>>>Begin Spectral Data<<<<<
345.248	-201.93
345.464	-201.93
345.681	-201.93
345.898	-174.42
346.114	-169.77
346.331	-23.1
346.548	28.24
346.764	-9.54
346.981	-0.24
347.197	-6.64
347.414	0.92
347.631	-38.99
347.847	68.93
348.064	23.98
348.28	17
348.497	-51
348.713	-9.54
348.93	27.66
349.146	28.63
349.363	-0.82
349.579	26.11
349.796	7.31
350.012	7.7
350.229	53.62
350.445	14.87
350.661	-5.47
350.878	20.49
351.094	45.68
351.311	28.04
351.527	49.16
351.743	0.92
351.96	41.22
352.176	40.44
352.392	50.52
352.609	72.22
352.825	32.5
353.041	42.58
353.257	24.75
353.474	32.89
353.69	22.04
353.906	13.51
354.122	-8.19
354.339	28.04
354.555	26.11
354.771	9.45
354.987	102.06
355.203	83.26
355.42	7.12
355.636	8.86
355.852	13.13
356.068	36.38
356.284	-17.68
356.5	68.93
356.716	61.76
356.932	25.14
357.148	52.07
357.364	15.65
357.58	45.68
357.796	107.68
358.012	91.4
358.228	66.79
358.444	-49.84
358.66	64.08
358.876	33.08
359.092	11.19
359.308	48.78
359.524	52.65
359.74	35.79
359.956	16.61
360.172	29.59
360.388	46.84
360.604	38.12
360.819	113.87
361.035	43.74
361.251	50.13
361.467	43.35
361.683	101.09
361.898	42.96
362.114	46.64
362.33	59.82
362.546	66.99
362.762	54.98
362.977	47.61
363.193	11.58
363.409	80.16
363.624	18.75
363.84	30.95
364.056	30.56
364.271	25.14
364.487	50.71
364.703	7.12
364.918	15.84
365.134	31.34
365.35	44.9
365.565	155.34
365.781	28.04
365.996	52.07
366.212	124.14
366.427	60.59
366.643	44.51
366.858	43.74
367.074	17
367.289	104.77
367.505	147.97
367.72	-3.92
367.936	48.58
368.151	101.67
368.367	56.91
368.582	74.54
368.798	24.17
369.013	96.44
369.228	66.41
369.444	54.2
369.659	140.42
369.874	67.57
370.09	124.34
370.305	9.06
370.52	20.1
370.736	95.66
370.951	60.4
371.166	108.26
371.381	113.1
371.597	99.54
371.812	37.54
372.027	18.94
372.242	46.26
372.458	144.29
372.673	35.41
372.888	61.56
373.103	72.61
373.318	133.83
373.533	58.27
373.749	77.26
373.964	14.48
374.179	89.08
374.394	46.84
374.609	87.33
374.824	32.69
375.039	84.62
375.254	53.81
375.469	100.89
375.684	75.51
375.899	101.09
376.114	61.37
376.329	98.96
376.544	106.13
376.759	122.21
376.974	42.96
377.189	50.71
377.404	60.01
377.619	111.94
377.834	2.08
378.049	52.84
378.264	58.46
378.478	89.27
378.693	78.81
378.908	101.86
379.123	78.61
379.338	121.43
379.553	97.99
379.767	84.43
379.982	120.85
380.197	121.04
380.412	77.06
380.626	91.98
380.841	155.53
381.056	107.29
381.271	137.71
381.485	52.07
381.7	58.08
381.915	105.54
382.129	60.4
382.344	54.01
382.559	75.51
382.773	119.3
382.988	5.18
383.202	71.83
383.417	27.66
383.632	134.61
383.846	72.8
384.061	67.96
384.275	62.92
384.49	87.33
384.704	87.14
384.919	89.85
385.133	91.21
385.348	132.86
385.562	52.84
385.777	124.14
385.991	73.77
386.206	59.82
386.42	66.79
386.634	100.51
386.849	111.94
387.063	111.55
387.277	59.24
387.492	65.63
387.706	62.14
387.92	72.03
388.135	115.42
388.349	101.67
388.563	95.66
388.778	90.43
388.992	124.53
389.206	110.39
389.42	182.46
389.635	91.01
389.849	131.51
390.063	157.47
390.277	126.66
390.491	190.41
390.706	161.92
390.92	162.12
391.134	136.16
391.348	152.82
391.562	100.31
391.776	138.29
391.99	123.95
392.205	137.12
392.419	85.2
392.633	106.71
392.847	166.96
393.061	118.72
393.275	175.68
393.489	77.84
393.703	124.14
393.917	126.47
394.131	60.01
394.345	89.85
394.559	122.01
394.773	96.83
394.986	124.53
395.2	134.99
395.414	193.31
395.628	105.35
395.842	154.76
396.056	146.04
396.27	93.73
396.484	137.51
396.697	124.34
396.911	147.01
397.125	133.83
397.339	143.71
397.553	135.38
397.766	182.85
397.98	164.06
398.194	169.09
398.408	148.94
398.621	198.93
398.835	215.59
399.049	184.4
399.262	268.87
399.476	232.25
399.69	228.96
399.903	288.25
400.117	195.44
400.331	266.94
400.544	215.59
400.758	331.07
400.971	223.73
401.185	266.94
401.398	200.48
401.612	288.63
401.826	259.19
402.039	284.95
402.253	217.53
402.466	259.19
402.68	238.65
402.893	291.15
403.106	265
403.32	255.89
403.533	249.69
403.747	216.17
403.96	265.77
404.174	298.13
404.387	224.89
404.6	249.69
404.814	315.18
405.027	253.57
405.24	263.84
405.454	234.58
405.667	296.38
405.88	212.3
406.094	267.9
406.307	308.78
406.52	264.8
406.733	230.7
406.947	210.36
407.16	311.69
407.373	314.98
407.586	250.47
407.799	231.09
408.012	286.31
408.226	281.85
408.439	327.97
408.652	246.4
408.865	296.19
409.078	337.46
409.291	320.41
409.504	286.89
409.717	310.92
409.93	311.11
410.143	294.25
410.357	251.05
410.57	222.95
410.783	257.05
410.996	293.09
411.209	305.3
411.421	342.69
411.634	346.18
411.847	325.25
412.06	325.45
412.273	311.5
412.486	332.23
412.699	401.98
412.912	328.74
413.125	360.52
413.338	369.04
413.55	346.57
413.763	347.53
413.976	329.52
414.189	322.93
414.402	308.4
414.615	390.35
414.827	302.78
415.04	359.16
415.253	351.02
415.466	381.44
415.678	375.43
415.891	345.6
416.104	349.28
416.316	320.22
416.529	350.63
416.742	388.22
416.954	395.2
417.167	338.82
417.38	342.5
417.592	388.22
417.805	319.44
418.017	309.37
418.23	376.79
418.442	309.17
418.655	362.07
418.868	382.21
419.08	393.84
419.293	384.54
419.505	374.08
419.718	386.86
419.93	435.88
420.142	364.78
420.355	410.11
420.567	386.48
420.78	375.24
420.992	372.33
421.205	407.79
421.417	366.13
421.629	392.1
421.842	359.16
422.054	356.64
422.266	409.73
422.479	436.08
422.691	347.53
422.903	394.42
423.115	361.48
423.328	342.3
423.54	376.4
423.752	382.02
423.964	375.24
424.177	379.5
424.389	377.95
424.601	495.94
424.813	415.54
425.025	433.75
425.238	410.31
425.45	401.59
425.662	365.75
425.874	689.11
426.086	378.92
426.298	391.13
426.51	411.08
426.722	406.43
426.934	397.13
427.146	428.91
427.358	366.13
427.57	429.3
427.782	390.16
427.994	381.25
428.206	375.05
428.418	346.57
428.63	424.84
428.842	441.89
429.054	415.73
429.266	421.93
429.478	345.4
429.69	389.19
429.902	341.14
430.114	420.19
430.325	407.6
430.537	341.72
430.749	328.16
430.961	281.66
431.173	327.77
431.384	358.58
431.596	262.29
431.808	369.04
432.02	412.83
432.231	469.01
432.443	527.91
432.655	464.36
432.867	407.79
433.078	463.78
433.29	529.66
433.502	499.43
433.713	490.13
433.925	494.78
434.136	501.18
434.348	428.52
434.56	386.28
434.771	529.08
434.983	380.08
435.194	449.06
435.406	447.51
435.617	498.46
435.829	557.75
436.04	535.08
436.252	524.04
436.463	561.04
436.675	561.24
436.886	531.59
437.098	542.25
437.309	608.12
437.521	529.08
437.732	550.58
437.943	532.76
438.155	536.24
438.366	463.98
438.578	563.56
438.789	520.36
439	517.06
439.211	475.21
439.423	490.71
439.634	512.41
439.845	562.4
440.057	561.43
440.268	556.39
440.479	526.94
440.69	563.56
440.902	484.9
441.113	529.66
441.324	514.16
441.535	567.63
441.746	623.82
441.957	548.84
442.168	568.41
442.38	619.56
442.591	626.14
442.802	541.28
443.013	591.66
443.224	575.77
443.435	608.9
443.646	599.99
443.857	580.61
444.068	551.36
444.279	545.74
444.49	698.8
444.701	601.34
444.912	717.59
445.123	636.99
445.334	617.23
445.545	619.17
445.756	587.59
445.967	599.41
446.178	594.37
446.388	632.92
446.599	633.12
446.81	612.77
447.021	604.64
447.232	649.78
447.443	653.85
447.653	629.82
447.864	672.84
448.075	663.73
448.286	679.23
448.496	662.18
448.707	674.58
448.918	627.11
449.129	738.32
449.339	635.64
449.55	673.03
449.761	652.1
449.971	685.62
450.182	633.7
450.393	673.8
450.603	666.25
450.814	727.86
451.024	699.19
451.235	718.95
451.446	771.84
451.656	740.26
451.867	674.77
452.077	701.12
452.288	751.88
452.498	748.59
452.709	657.53
452.919	687.37
453.13	625.37
453.34	688.34
453.55	663.34
453.761	688.14
453.971	666.44
454.182	683.49
454.392	708.29
454.602	811.17
454.813	728.44
455.023	740.26
455.233	671.29
455.444	704.61
455.654	625.76
455.864	696.09
456.075	694.34
456.285	672.45
456.495	701.12
456.705	717.98
456.916	773.97
457.126	795.48
457.336	715.65
457.546	657.92
457.756	716.62
457.967	804
458.177	705
458.387	716.24
458.597	697.05
458.807	729.02
459.017	723.6
459.227	728.05
459.437	713.14
459.647	726.12
459.857	726.31
460.068	708.68
460.278	780.37
460.488	734.45
460.698	809.04
460.908	759.05
461.117	692.99
461.327	731.73
461.537	761.18
461.747	779.2
461.957	758.86
462.167	870.26
462.377	802.84
462.587	766.22
462.797	783.47
463.007	783.27
463.216	825.9
463.426	814.66
463.636	811.17
463.846	729.02
464.056	768.55
464.265	825.31
464.475	757.5
464.685	793.93
464.895	819.7
465.104	747.62
465.314	810.4
465.524	754.98
465.733	719.34
465.943	849.73
466.153	881.11
466.362	843.91
466.572	837.52
466.782	780.75
466.991	827.83
467.201	838.68
467.41	753.82
467.62	814.85
467.829	794.12
468.039	843.14
468.249	829.38
468.458	827.83
468.668	868.13
468.877	880.34
469.086	882.66
469.296	886.15
469.505	825.7
469.715	946.21
469.924	877.63
470.134	891.77
470.343	884.8
470.552	846.24
470.762	864.45
470.971	804.78
471.18	849.73
471.39	842.95
471.599	843.91
471.808	904.17
472.018	882.28
472.227	936.91
472.436	953.38
472.645	939.24
472.855	900.1
473.064	1013.06
473.273	988.84
473.482	955.13
473.691	1009.76
473.901	971.79
474.11	963.46
474.319	1052.58
474.528	965.39
474.737	1045.8
474.946	990
475.155	1018.48
475.364	1044.64
475.573	996.2
475.783	1028.56
475.992	1031.85
476.201	1077.38
476.41	1041.92
476.619	968.3
476.828	1053.74
477.037	977.79
477.245	1002.59
477.454	1070.41
477.663	1028.56
477.872	1081.25
478.081	1183.55
478.29	1065.56
478.499	1204.48
478.708	1142.29
478.917	1208.93
479.125	1118.26
479.334	1117.49
479.543	1096.95
479.752	1144.42
479.961	1150.62
480.169	1228.89
480.378	1144.42
480.587	1293.6
480.796	1185.68
481.004	1156.62
481.213	1220.37
481.422	1200.22
481.63	1212.42
481.839	1255.05
482.048	1277.71
482.256	1230.44
482.465	1280.81
482.674	1247.1
482.882	1281.78
483.091	1339.33
483.299	1278.3
483.508	1337.39
483.716	1316.27
483.925	1303.29
484.134	1254.46
484.342	1279.07
484.551	1324.41
484.759	1318.98
484.967	1337
485.176	1340.88
485.384	1346.49
485.593	1335.26
485.801	1297.86
486.01	1279.07
486.218	1218.82
486.426	1154.69
486.635	1156.04
486.843	1117.49
487.051	1185.68
487.26	1176.19
487.468	1229.86
487.676	1299.03
487.885	1239.93
488.093	1308.52
488.301	1338.74
488.509	1346.88
488.717	1390.09
488.926	1383.5
489.134	1346.88
489.342	1369.74
489.55	1328.28
489.758	1375.17
489.967	1391.64
490.175	1507.31
490.383	1451.7
490.591	1526.87
490.799	1418.18
491.007	1485.22
491.215	1469.33
491.423	1481.73
491.631	1469.14
491.839	1473.79
492.047	1487.74
492.255	1407.33
492.463	1384.86
492.671	1392.8
492.879	1441.82
493.087	1400.55
493.295	1456.93
493.503	1501.49
493.711	1507.89
493.919	1536.37
494.127	1524.74
494.334	1522.22
494.542	1470.49
494.75	1540.82
494.958	1507.69
495.166	1571.44
495.374	1567.56
495.581	1582.87
495.789	1577.05
495.997	1668.7
496.205	1540.24
496.412	1544.12
496.62	1576.28
496.828	1551.09
497.035	1585.58
497.243	1607.47
497.451	1609.8
497.658	1591.78
497.866	1607.67
498.074	1679.55
498.281	1563.69
498.489	1673.73
498.696	1588.87
498.904	1551.67
499.112	1563.3
499.319	1643.7
499.527	1574.73
499.734	1645.25
499.942	1560.2
500.149	1581.51
500.357	1630.92
500.564	1550.12
500.771	1598.95
500.979	1554
501.186	1569.69
501.394	1616.77
501.601	1562.52
501.808	1594.88
502.016	1567.75
502.223	1557.49
502.43	1560.39
502.638	1564.85
502.845	1590.62
503.052	1669.28
503.26	1589.26
503.467	1644.67
503.674	1614.83
503.881	1635.95
504.089	1701.44
504.296	1615.8
504.503	1598.75
504.71	1596.04
504.917	1598.56
505.125	1614.06
505.332	1616.77
505.539	1658.04
505.746	1751.81
505.953	1707.06
506.16	1710.93
506.367	1760.53
506.574	1763.44
506.781	1782.62
506.988	1710.93
507.195	1712.68
507.402	1703.76
507.609	1754.72
507.816	1688.85
508.023	1675.87
508.23	1652.62
508.437	1603.79
508.644	1679.35
508.851	1727.01
509.058	1729.15
509.265	1719.85
509.472	1727.79
509.679	1833.19
509.885	1738.64
510.092	1752.2
510.299	1753.36
510.506	1729.92
510.713	1712.29
510.92	1740.19
511.126	1761.11
511.333	1802.77
511.54	1777.58
511.746	1826.02
511.953	1816.14
512.16	1842.29
512.367	1775.06
512.573	1773.71
512.78	1790.95
512.987	1812.26
513.193	1753.95
513.4	1673.73
513.606	1765.76
513.813	1785.14
514.02	1769.06
514.226	1877.36
514.433	1828.15
514.639	1722.95
514.846	1748.91
515.052	1727.79
515.259	1778.36
515.465	1779.91
515.672	1807.61
515.878	1888.99
516.085	1809.94
516.291	1835.13
516.497	1787.85
516.704	1776.42
516.91	1692.91
517.117	1666.57
517.323	1605.34
517.529	1590.42
517.736	1617.93
517.942	1635.95
518.148	1607.86
518.354	1715.39
518.561	1709.38
518.767	1686.91
518.973	1686.13
519.179	1758.21
519.386	1711.9
519.592	1705.12
519.798	1736.12
520.004	1847.33
520.21	1825.63
520.417	1849.08
520.623	1865.35
520.829	1886.08
521.035	1864.38
521.241	1871.55
521.447	1889.18
521.653	2036.04
521.859	1917.27
522.065	1954.86
522.271	2050.96
522.477	1968.62
522.683	2020.93
522.889	1981.99
523.095	1968.42
523.301	1936.84
523.507	1915.72
523.713	1938.01
523.919	1917.66
524.125	2040.69
524.331	1987.99
524.537	2087
524.742	2091.07
524.948	2095.91
525.154	2102.5
525.36	2161.98
525.566	2099.78
525.772	2132.14
525.977	2065.49
526.183	2111.22
526.389	2148.8
526.595	2050.96
526.8	2066.07
527.006	1956.41
527.212	1902.94
527.417	1926.77
527.623	1879.3
527.829	1941.49
528.034	1986.05
528.24	1981.6
528.446	2044.37
528.651	2130.01
528.857	2129.43
529.062	2187.16
529.268	2155.39
529.473	2157.13
529.679	2168.95
529.884	2273.58
530.09	2215.45
530.295	2255.94
530.501	2223.2
530.706	2183.1
530.912	2156.55
531.117	2218.36
531.323	2224.94
531.528	2249.36
531.733	2290.63
531.939	2243.16
532.144	2260.79
532.35	2247.81
532.555	2267.76
532.76	2224.36
532.966	2250.13
533.171	2225.33
533.376	2159.85
533.581	2154.03
533.787	2197.05
533.992	2206.35
534.197	2242.19
534.402	2246.84
534.607	2233.08
534.813	2345.46
535.018	2261.95
535.223	2226.11
535.428	2244.32
535.633	2301.67
535.838	2338.29
536.043	2305.16
536.249	2429.93
536.454	2338.29
536.659	2404.35
536.864	2331.12
537.069	2308.26
537.274	2331.31
537.479	2289.85
537.684	2264.08
537.889	2261.37
538.094	2368.9
538.299	2304.19
538.504	2333.25
538.708	2329.96
538.913	2376.07
539.118	2336.74
539.323	2346.62
539.528	2287.91
539.733	2339.45
539.938	2326.27
540.142	2305.54
540.347	2298.96
540.552	2278.23
540.757	2265.83
540.962	2272.41
541.166	2203.05
541.371	2232.11
541.576	2291.59
541.781	2205.57
541.985	2317.94
542.19	2296.82
542.395	2373.36
542.599	2387.11
542.804	2339.26
543.008	2405.9
543.213	2319.88
543.418	2314.84
543.622	2367.35
543.827	2317.36
544.031	2374.13
544.236	2381.69
544.44	2396.6
544.645	2457.44
544.849	2350.11
545.054	2422.37
545.258	2457.83
545.463	2457.44
545.667	2374.71
545.872	2419.66
546.076	2427.6
546.281	2384.98
546.485	2363.67
546.689	2392.73
546.894	2436.32
547.098	2381.49
547.302	2352.43
547.507	2396.41
547.711	2408.62
547.915	2437.1
548.119	2350.49
548.324	2346.62
548.528	2473.52
548.732	2401.45
548.936	2383.82
549.141	2443.69
549.345	2377.23
549.549	2385.37
549.753	2425.09
549.957	2490.18
550.161	2464.22
550.366	2423.34
550.57	2392.92
550.774	2400.87
550.978	2405.52
551.182	2424.7
551.386	2418.69
551.59	2409.59
551.794	2385.95
551.998	2425.09
552.202	2378.2
552.406	2382.65
552.61	2461.32
552.814	2425.86
553.018	2497.55
553.222	2418.3
553.426	2413.07
553.63	2503.75
553.833	2394.28
554.037	2383.62
554.241	2449.89
554.445	2415.2
554.649	2420.63
554.853	2412.1
555.056	2490.18
555.26	2479.14
555.464	2441.36
555.668	2462.67
555.871	2470.42
556.075	2444.27
556.279	2424.7
556.483	2374.52
556.686	2409.2
556.89	2422.95
557.094	2436.9
557.297	2326.66
557.501	2383.43
557.704	2303.41
557.908	2395.64
558.112	2347.2
558.315	2394.47
558.519	2376.65
558.722	2335.57
558.926	2326.27
559.129	2232.69
559.333	2291.59
559.536	2252.46
559.74	2234.44
559.943	2264.86
560.147	2243.74
560.35	2263.31
560.553	2266.79
560.757	2196.08
560.96	2305.54
561.164	2274.54
561.367	2376.07
561.57	2299.15
561.774	2282.1
561.977	2311.16
562.18	2246.64
562.384	2366.57
562.587	2298.57
562.79	2244.9
562.993	2222.04
563.197	2296.05
563.4	2307.29
563.603	2336.16
563.806	2389.24
564.009	2277.26
564.212	2312.52
564.416	2198.01
564.619	2237.73
564.822	2171.86
565.025	2260.79
565.228	2212.74
565.431	2232.89
565.634	2123.23
565.837	2169.53
566.04	2138.92
566.243	2158.68
566.446	2036.62
566.649	2192.01
566.852	2108.5
567.055	2143.18
567.258	2170.7
567.461	2218.94
567.664	2237.73
567.867	2126.33
568.07	2164.11
568.273	2160.23
568.475	2211.77
568.678	2111.22
568.881	2142.41
569.084	2106.18
569.287	1995.35
569.489	2071.69
569.692	2127.3
569.895	2164.88
570.098	2048.44
570.3	2028.1
570.503	1971.14
570.706	1966.49
570.909	2003.1
571.111	1967.84
571.314	1948.27
571.516	1982.95
571.719	2003.88
571.922	1925.22
572.124	1954.28
572.327	1970.36
572.529	1952.54
572.732	2008.53
572.935	2028.1
573.137	2112.57
573.34	2020.93
573.542	2041.27
573.745	2036.04
573.947	2025
574.15	1990.12
574.352	1947.11
574.554	2056.97
574.757	2006.59
574.959	1954.28
575.162	1978.89
575.364	1934.32
575.566	2035.85
575.769	1901.19
575.971	1952.73
576.173	1842.29
576.376	1940.14
576.578	1962.42
576.78	2000.97
576.982	1846.36
577.185	1873.68
577.387	1832.61
577.589	1908.94
577.791	1934.13
577.993	1901.97
578.196	1887.05
578.398	1913.4
578.6	1913.59
578.802	1789.01
579.004	1826.21
579.206	1839.78
579.408	1880.46
579.61	1836.29
579.812	1921.15
580.014	1841.71
580.216	1821.95
580.418	1833.96
580.62	1850.63
580.822	1787.46
581.024	1864.38
581.226	1885.89
581.428	1827.18
581.63	1923.67
581.832	1824.28
582.034	1884.34
582.236	1867.48
582.438	1893.06
582.64	1901.77
582.841	1952.92
583.043	1952.34
583.245	1919.41
583.447	1860.89
583.649	1898.29
583.85	1883.76
584.052	1900.42
584.254	1812.07
584.456	1883.76
584.657	1800.83
584.859	1879.49
585.061	1817.88
585.262	1792.31
585.464	1785.53
585.666	1862.06
585.867	1790.18
586.069	1856.63
586.27	1779.13
586.472	1802.58
586.674	1783.01
586.875	1763.44
587.077	1765.18
587.278	1797.54
587.48	1808.97
587.681	1874.65
587.883	1777
588.084	1735.54
588.285	1805.87
588.487	1768.67
588.688	1759.18
588.89	1678
589.091	1659.01
589.292	1689.23
589.494	1646.61
589.695	1581.12
589.896	1535.98
590.098	1548.57
590.299	1563.88
590.5	1551.87
590.702	1553.61
590.903	1626.07
591.104	1710.16
591.305	1660.37
591.507	1742.51
591.708	1700.28
591.909	1694.85
592.11	1756.08
592.311	1706.67
592.512	1668.12
592.714	1623.55
592.915	1657.65
593.116	1654.75
593.317	1689.23
593.518	1653.97
593.719	1668.89
593.92	1699.7
594.121	1711.32
594.322	1679.74
594.523	1677.22
594.724	1643.32
594.925	1663.27
595.126	1672.96
595.327	1661.14
595.528	1640.22
595.729	1682.07
595.929	1643.7
596.13	1655.33
596.331	1695.43
596.532	1676.83
596.733	1730.89
596.934	1692.33
597.135	1730.31
597.335	1704.54
597.536	1651.84
597.737	1697.95
597.938	1639.05
598.138	1656.1
598.339	1672.57
598.54	1672.18
598.74	1673.73
598.941	1621.42
599.142	1719.26
599.342	1690.98
599.543	1631.11
599.744	1655.52
599.944	1661.92
600.145	1673.15
600.345	1659.4
600.546	1712.48
600.746	1693.3
600.947	1762.66
601.147	1656.68
601.348	1700.47
601.548	1580.74
601.749	1623.36
601.949	1623.17
602.15	1590.62
602.35	1628.4
602.551	1668.7
602.751	1580.93
602.951	1624.72
603.152	1572.4
603.352	1683.03
603.552	1611.93
603.753	1669.67
603.953	1681.87
604.153	1653.39
604.354	1638.86
604.554	1642.93
604.754	1640.8
604.954	1579.77
605.155	1625.68
605.355	1624.33
605.555	1667.92
605.755	1686.71
605.955	1597.98
606.155	1667.53
606.356	1640.99
606.556	1619.29
606.756	1668.7
606.956	1604.18
607.156	1671.8
607.356	1576.28
607.556	1626.27
607.756	1622
607.956	1654.36
608.156	1600.5
608.356	1567.95
608.556	1638.86
608.756	1590.23
608.956	1540.63
609.156	1594.49
609.356	1563.49
609.556	1535.2
609.755	1593.33
609.955	1543.73
610.155	1555.35
610.355	1581.51
610.555	1522.22
610.755	1520.29
610.954	1470.69
611.154	1554.77
611.354	1564.85
611.554	1496.46
611.753	1507.31
611.953	1441.24
612.153	1546.44
612.352	1550.7
612.552	1484.06
612.752	1446.08
612.951	1500.14
613.151	1511.57
613.351	1471.27
613.55	1515.44
613.75	1496.65
613.949	1489.67
614.149	1514.86
614.348	1483.86
614.548	1448.6
614.747	1399.58
614.947	1446.47
615.146	1396.48
615.346	1500.52
615.545	1488.51
615.745	1443.56
615.944	1496.07
616.144	1461.97
616.343	1460.22
616.542	1436.2
616.742	1442.79
616.941	1449.96
617.14	1352.11
617.34	1402.68
617.539	1441.62
617.738	1392.8
617.938	1479.02
618.137	1437.56
618.336	1408.88
618.535	1417.79
618.734	1434.65
618.934	1467.59
619.133	1445.69
619.332	1451.89
619.531	1422.44
619.73	1444.14
619.929	1473.98
620.128	1482.12
620.328	1511.57
620.527	1446.08
620.726	1422.64
620.925	1436.78
621.124	1420.51
621.323	1400.36
621.522	1402.49
621.721	1392.22
621.92	1376.33
622.119	1404.04
622.318	1367.61
622.517	1412.37
622.715	1426.32
622.914	1365.29
623.113	1376.72
623.312	1310.46
623.511	1425.35
623.71	1375.56
623.909	1347.66
624.107	1433.1
624.306	1342.43
624.505	1340.49
624.704	1357.15
624.902	1315.3
625.101	1381.37
625.3	1373.81
625.499	1326.93
625.697	1340.68
625.896	1346.11
626.095	1350.18
626.293	1296.7
626.492	1291.66
626.69	1352.69
626.889	1319.95
627.088	1351.92
627.286	1317.24
627.485	1300.58
627.683	1339.33
627.882	1319.95
628.08	1266.86
628.279	1268.03
628.477	1372.65
628.676	1269.38
628.874	1335.26
629.073	1250.98
629.271	1271.9
629.469	1307.36
629.668	1307.94
629.866	1291.66
630.065	1276.55
630.263	1323.63
630.461	1262.6
630.66	1282.95
630.858	1289.53
631.056	1340.29
631.254	1340.1
631.453	1241.48
631.651	1346.49
631.849	1298.25
632.047	1295.73
632.245	1283.53
632.444	1300.19
632.642	1311.81
632.84	1299.03
633.038	1280.23
633.236	1239.93
633.434	1241.68
633.632	1234.9
633.83	1252.53
634.028	1302.13
634.227	1306.39
634.425	1328.67
634.623	1279.85
634.821	1292.44
635.019	1277.52
635.216	1254.08
635.414	1279.85
635.612	1284.5
635.81	1271.9
636.008	1303.29
636.206	1256.79
636.404	1291.66
636.602	1237.22
636.8	1259.89
636.997	1263.18
637.195	1289.34
637.393	1299.61
637.591	1317.43
637.789	1296.31
637.986	1255.63
638.184	1298.06
638.382	1290.11
638.58	1287.98
638.777	1318.98
638.975	1261.63
639.173	1260.28
639.37	1259.5
639.568	1271.32
639.765	1261.25
639.963	1259.89
640.161	1293.6
640.358	1291.86
640.556	1250.78
640.753	1211.84
640.951	1174.06
641.148	1220.37
641.346	1215.52
641.543	1198.08
641.741	1242.65
641.938	1185.1
642.136	1198.67
642.333	1190.72
642.531	1242.45
642.728	1243.62
642.925	1222.11
643.123	1187.04
643.32	1210.87
643.517	1187.23
643.715	1212.81
643.912	1195.95
644.109	1260.86
644.306	1206.42
644.504	1152.75
644.701	1200.22
644.898	1239.93
645.095	1191.3
645.293	1180.07
645.49	1235.28
645.687	1185.3
645.884	1236.25
646.081	1139.96
646.278	1151.2
646.475	1161.66
646.672	1130.47
646.87	1183.94
647.067	1144.03
647.264	1184.72
647.461	1112.25
647.658	1112.84
647.855	1171.15
648.052	1126.79
648.249	1041.92
648.446	1136.28
648.642	1100.05
648.839	1129.89
649.036	1108.57
649.233	1046.57
649.43	1056.65
649.627	1032.82
649.824	1104.5
650.021	1062.85
650.217	1076.22
650.414	1055.68
650.611	1106.05
650.808	1101.21
651.004	1108.19
651.201	1143.84
651.398	1158.95
651.595	1118.45
651.791	1080.48
651.988	1142.29
652.185	1068.86
652.381	1116.71
652.578	1048.71
652.775	1090.55
652.971	1070.41
653.168	1114.19
653.364	1134.54
653.561	1016.16
653.757	1090.94
653.954	1091.14
654.15	1048.9
654.347	1134.34
654.543	1090.17
654.74	1045.22
654.936	1054.32
655.133	1067.89
655.329	1054.32
655.525	1058.97
655.722	1084.35
655.918	1011.31
656.115	1024.1
656.311	916.18
656.507	913.08
656.704	878.79
656.9	928.78
657.096	905.33
657.292	914.83
657.489	983.61
657.685	975.28
657.881	959.97
658.077	963.84
658.273	977.41
658.47	1084.55
658.666	1021.58
658.862	1035.72
659.058	1019.06
659.254	1057.04
659.45	996.97
659.646	1030.69
659.842	1005.31
660.038	1079.12
660.234	999.11
660.43	1028.17
660.626	1125.43
660.822	1076.41
661.018	1047.93
661.214	1046.57
661.41	1026.23
661.606	1092.49
661.802	1082.22
661.998	1026.81
662.194	1027.2
662.39	1072.73
662.586	1066.34
662.781	1067.5
662.977	1084.74
663.173	1077.96
663.369	1051.81
663.564	1039.21
663.76	1080.09
663.956	1033.59
664.152	1072.92
664.347	988.26
664.543	1014.8
664.739	1025.46
664.934	950.48
665.13	963.65
665.326	1030.49
665.521	1032.24
665.717	967.91
665.912	982.06
666.108	970.04
666.304	1000.07
666.499	1017.12
666.695	932.26
666.89	1020.42
667.086	1027.01
667.281	1007.24
667.477	1056.84
667.672	1006.27
667.867	1032.62
668.063	1012.09
668.258	966.56
668.454	992.91
668.649	1091.33
668.844	1009.37
669.04	1028.75
669.235	1034.95
669.43	983.22
669.626	968.88
669.821	969.66
670.016	961.91
670.211	988.64
670.407	955.9
670.602	1015.38
670.797	976.05
670.992	1018.29
671.187	970.24
671.382	1035.34
671.578	964.04
671.773	982.44
671.968	933.43
672.163	985.35
672.358	988.06
672.553	936.91
672.748	951.25
672.943	1039.21
673.138	979.93
673.333	996.2
673.528	945.05
673.723	974.11
673.918	960.55
674.113	934.2
674.308	1061.49
674.503	988.64
674.698	981.09
674.892	978.96
675.087	1016.35
675.282	985.54
675.477	973.73
675.672	967.33
675.867	952.22
676.061	925.68
676.256	908.43
676.451	921.99
676.646	946.21
676.84	946.41
677.035	942.53
677.23	925.09
677.424	959.58
677.619	994.46
677.814	1011.51
678.008	1002.21
678.203	901.07
678.397	938.66
678.592	969.46
678.787	994.26
678.981	920.83
679.176	980.51
679.37	960.16
679.565	909.4
679.759	942.73
679.954	937.3
680.148	982.83
680.342	1003.76
680.537	943.31
680.731	964.23
680.926	937.11
681.12	982.44
681.314	905.72
681.509	931.88
681.703	954.93
681.897	953.38
682.092	908.04
682.286	908.82
682.48	1001.04
682.674	977.79
682.869	874.91
683.063	926.84
683.257	975.47
683.451	926.84
683.645	940.59
683.839	908.63
684.034	953.58
684.228	951.06
684.422	884.99
684.616	886.54
684.81	941.18
685.004	888.28
685.198	891.77
685.392	936.72
685.586	888.67
685.78	923.74
685.974	947.96
686.168	923.54
686.362	961.33
686.556	862.32
686.75	823.57
686.944	842.17
687.138	840.43
687.331	727.67
687.525	769.32
687.719	703.06
687.913	797.8
688.107	769.9
688.301	722.05
688.494	775.52
688.688	747.23
688.882	721.66
689.076	691.63
689.269	751.3
689.463	828.41
689.657	756.73
689.85	762.73
690.044	794.7
690.238	800.32
690.431	752.66
690.625	788.31
690.818	836.75
691.012	815.43
691.205	821.83
691.399	775.72
691.593	808.65
691.786	854.96
691.98	893.13
692.173	835.97
692.366	855.15
692.56	879.37
692.753	909.01
692.947	831.9
693.14	916.18
693.333	895.06
693.527	839.65
693.72	902.81
693.914	847.98
694.107	849.34
694.3	832.48
694.493	833.84
694.687	917.73
694.88	857.48
695.073	928.97
695.266	878.6
695.46	891.96
695.653	945.44
695.846	917.15
696.039	823.38
696.232	895.64
696.425	941.18
696.618	931.1
696.812	891.96
697.005	950.86
697.198	1049.09
697.391	940.98
697.584	955.71
697.777	1044.44
697.97	998.14
698.163	1034.17
698.356	1007.63
698.549	1108.57
698.742	1038.05
698.935	1005.5
699.127	1051.22
699.32	995.42
699.513	963.46
699.706	1032.43
699.899	1084.16
700.092	1023.71
700.285	1071.18
700.477	1017.9
700.67	1059.56
700.863	1061.49
701.056	1161.27
701.248	1128.53
701.441	1144.61
701.634	1058.2
701.826	1251.56
702.019	1093.65
702.212	1155.46
702.404	1095.79
702.597	1113.03
702.79	1133.57
702.982	1181.23
703.175	1171.73
703.367	1216.1
703.56	1225.4
703.752	1329.06
703.945	1224.82
704.137	1291.28
704.33	1305.81
704.522	1309.1
704.715	1327.31
704.907	1352.31
705.1	1351.73
705.292	1393.96
705.484	1347.08
705.677	1386.02
705.869	1405.98
706.061	1407.33
706.254	1487.16
706.446	1417.99
706.638	1441.24
706.831	1513.7
707.023	1436.01
707.215	1558.84
707.407	1538.3
707.599	1556.32
707.792	1573.76
707.984	1554.39
708.176	1639.44
708.368	1548.19
708.56	1601.66
708.752	1595.27
708.944	1629.95
709.136	1626.46
709.329	1667.53
709.521	1802.77
709.713	1707.25
709.905	1743.68
710.097	1775.26
710.289	1697.18
710.481	1782.62
710.672	1784.17
710.864	1760.34
711.056	1840.94
711.248	1843.65
711.44	1819.24
711.632	1851.01
711.824	1833.96
712.016	1902.55
712.207	1916.5
712.399	1899.84
712.591	1980.24
712.783	1968.62
712.975	1986.05
713.166	1955.44
713.358	1971.33
713.55	2037.78
713.741	2000.78
713.933	2049.41
714.125	2066.46
714.316	2016.67
714.508	2164.3
714.7	2124.58
714.891	2103.85
715.083	2163.91
715.274	2116.06
715.466	2134.27
715.657	2240.64
715.849	2086.03
716.04	2190.26
716.232	2132.91
716.423	2197.24
716.615	2130.59
716.806	2132.72
716.998	2111.02
717.189	2053.67
717.381	2024.42
717.572	1923.67
717.763	2000.59
717.955	1962.42
718.146	1931.61
718.337	1908.17
718.528	1865.16
718.72	1816.14
718.911	1869.42
719.102	1848.11
719.293	1892.28
719.485	1902.36
719.676	1876.2
719.867	1859.73
720.058	1857.99
720.249	1870
720.44	1908.94
720.632	1940.33
720.823	2000
721.014	2105.6
721.205	2111.41
721.396	2186.58
721.587	2278.42
721.778	2328.41
721.969	2332.86
722.16	2449.11
722.351	2393.5
722.542	2554.7
722.733	2582.8
722.924	2480.11
723.115	2547.15
723.305	2499.48
723.496	2567.49
723.687	2421.6
723.878	2433.03
724.069	2497.93
724.26	2467.9
724.45	2408.81
724.641	2436.71
724.832	2469.07
725.023	2407.07
725.213	2430.7
725.404	2423.34
725.595	2450.47
725.785	2408.81
725.976	2503.36
726.167	2490.77
726.357	2534.94
726.548	2620
726.739	2552.77
726.929	2596.36
727.12	2656.61
727.31	2678.31
727.501	2583.57
727.691	2662.81
727.882	2650.22
728.072	2696.91
728.263	2690.71
728.453	2759.69
728.644	2760.85
728.834	2684.71
729.024	2705.24
729.215	2726.75
729.405	2742.64
729.596	2799.41
729.786	2821.88
729.976	2870.9
730.167	2846.1
730.357	2852.88
730.547	2855.01
730.737	2897.83
730.928	2919.53
731.118	3003.81
731.308	2942.97
731.498	2961.38
731.688	3017.56
731.879	3045.46
732.069	3094.48
732.259	3131.68
732.449	3171.79
732.639	3238.63
732.829	3210.92
733.019	3275.05
733.209	3326.2
733.399	3389.56
733.589	3405.64
733.779	3477.52
733.969	3463.76
734.159	3480.23
734.349	3542.81
734.539	3584.47
734.729	3623.61
734.919	3620.7
735.109	3678.63
735.299	3591.83
735.488	3634.65
735.678	3617.41
735.868	3692
736.058	3648.6
736.248	3647.82
736.437	3610.24
736.627	3577.88
736.817	3768.92
737.007	3664.1
737.196	3712.92
737.386	3735.2
737.576	3713.5
737.765	3802.24
737.955	3724.16
738.144	3845.06
738.334	3816.77
738.524	3726.87
738.713	3797.78
738.903	3807.28
739.092	3849.13
739.282	3869.66
739.471	3859.98
739.661	3825.1
739.85	3866.95
740.04	3895.05
740.229	3910.74
740.419	3917.52
740.608	3927.4
740.797	3946.58
740.987	4018.27
741.176	3956.08
741.365	3905.51
741.555	3857.65
741.744	3979.13
741.933	3995.79
742.123	3991.53
742.312	4048.49
742.501	4059.34
742.69	4035.51
742.88	3990.18
743.069	4118.24
743.258	3970.61
743.447	4091.12
743.636	4145.56
743.825	4026.99
744.014	4101.77
744.204	4132.97
744.393	4075.81
744.582	4193.03
744.771	4175.98
744.96	4126.77
745.149	4129.67
745.338	4101.39
745.527	4157.57
745.716	4143.82
745.905	4139.17
746.094	4170.36
746.283	4205.43
746.471	4217.25
746.66	4245.15
746.849	4224.8
747.038	4230.23
747.227	4172.69
747.416	4285.64
747.604	4157.77
747.793	4175.59
747.982	4217.83
748.171	4241.85
748.359	4239.14
748.548	4207.56
748.737	4204.65
748.926	4213.37
749.114	4110.49
749.303	4190.32
749.491	4206.59
749.68	4110.11
749.869	4230.62
750.057	4180.24
750.246	4205.24
750.434	4181.21
750.623	4106.23
750.811	4131.61
751	4184.7
751.188	4112.04
751.377	4190.9
751.565	4123.09
751.754	4091.31
751.942	4113.98
752.131	4206.79
752.319	4106.04
752.507	4106.04
752.696	4179.08
752.884	4217.25
753.072	4153.89
753.261	4164.74
753.449	4084.34
753.637	4093.44
753.825	4182.37
754.014	4119.6
754.202	4145.17
754.39	4159.32
754.578	4187.99
754.766	4064.19
754.955	4008.78
755.143	4193.22
755.331	4092.86
755.519	4157.57
755.707	4115.34
755.895	4087.63
756.083	4090.73
756.271	4055.27
756.459	4051.01
756.647	4116.31
756.835	4086.08
757.023	4085.11
757.211	4060.12
757.399	4048.3
757.587	4031.64
757.775	3987.85
757.963	3991.92
758.151	4018.46
758.339	3931.47
758.526	3989.21
758.714	4044.23
758.902	3911.13
759.09	3881.1
759.278	3674.95
759.465	3446.13
759.653	3119.48
759.841	2869.54
760.028	2507.43
760.216	2210.61
760.404	2088.74
760.591	1773.51
760.779	1542.76
760.967	1424.77
761.154	1248.26
761.342	1297.09
761.529	1301.55
761.717	1361.03
761.905	1394.16
762.092	1500.33
762.28	1415.28
762.467	1500.33
762.655	1415.66
762.842	1480.18
763.029	1509.63
763.217	1526.1
763.404	1509.82
763.592	1582.67
763.779	1519.32
763.966	1616.97
764.154	1622
764.341	1694.85
764.528	1708.22
764.716	1772.54
764.903	1798.31
765.09	1897.9
765.277	1946.34
765.465	2097.65
765.652	2133.3
765.839	2217
766.026	2347.78
766.213	2396.8
766.4	2463.45
766.588	2648.28
766.775	2669.79
766.962	2783.32
767.149	2839.32
767.336	2987.73
767.523	2954.98
767.71	3052.63
767.897	3190.19
768.084	3225.84
768.271	3269.63
768.458	3327.56
768.645	3398.28
768.832	3336.67
769.019	3382.2
769.206	3388.2
769.392	3472.68
769.579	3568
769.766	3519.95
769.953	3482.75
770.14	3585.05
770.327	3532.93
770.513	3596.48
770.7	3666.42
770.887	3540.49
771.073	3630.77
771.26	3594.54
771.447	3550.95
771.634	3541.84
771.82	3698.97
772.007	3545.91
772.193	3587.57
772.38	3587.18
772.567	3558.7
772.753	3560.06
772.94	3619.73
773.126	3639.49
773.313	3646.86
773.499	3587.57
773.686	3616.05
773.872	3580.98
774.059	3568.97
774.245	3556.57
774.432	3569.94
774.618	3450.59
774.804	3513.95
774.991	3449.04
775.177	3572.65
775.363	3525.76
775.55	3599.58
775.736	3442.06
775.922	3452.14
776.109	3503.48
776.295	3473.26
776.481	3571.49
776.667	3521.69
776.853	3499.61
777.04	3469.77
777.226	3475.39
777.412	3542.23
777.598	3402.35
777.784	3442.45
777.97	3435.28
778.156	3449.62
778.342	3441.68
778.528	3395.18
778.715	3385.88
778.901	3360.5
779.087	3441.1
779.272	3342.67
779.458	3355.65
779.644	3364.95
779.83	3343.83
780.016	3435.67
780.202	3362.82
780.388	3344.8
780.574	3265.56
780.76	3287.26
780.946	3365.15
781.131	3315.35
781.317	3307.6
781.503	3284.55
781.689	3308.57
781.874	3415.91
782.06	3261.3
782.246	3311.67
782.432	3258.59
782.617	3312.64
782.803	3367.67
782.989	3250.64
783.174	3226.62
783.36	3209.96
783.545	3214.99
783.731	3185.54
783.916	3162.49
784.102	3250.64
784.288	3192.52
784.473	3176.63
784.659	3144.28
784.844	3253.16
785.029	3138.27
785.215	3149.12
785.4	3126.26
785.586	3211.7
785.771	3113.08
785.956	3177.79
786.142	3113.66
786.327	3135.75
786.512	3157.84
786.698	3090.99
786.883	3039.85
787.068	3095.26
787.254	3140.4
787.439	3077.63
787.624	3077.24
787.809	3043.14
787.994	3054.96
788.18	3141.56
788.365	2959.44
788.55	3011.56
788.735	2989.47
788.92	2996.45
789.105	3018.34
789.29	3018.15
789.475	2940.65
789.66	2975.13
789.845	2926.12
790.03	2927.28
790.215	2967.19
790.4	2953.05
790.585	3016.98
790.77	2907.32
790.955	2884.85
791.14	2934.45
791.325	3023.57
791.51	2834.47
791.695	2928.63
791.879	2902.48
792.064	2868.57
792.249	2954.4
792.434	2856.75
792.618	2879.62
792.803	2943.75
792.988	2895.31
793.173	2886.79
793.357	2950.53
793.542	2812.97
793.727	2885.62
793.911	2901.12
794.096	2881.75
794.281	2908.87
794.465	2965.45
794.65	2885.24
794.834	2930.96
795.019	2941.23
795.203	2958.67
795.388	2950.92
795.572	3000.51
795.757	2953.63
795.941	2960.41
796.126	2951.69
796.31	2899.57
796.494	2929.22
796.679	2892.99
796.863	2867.41
797.048	2988.7
797.232	2988.31
797.416	2960.02
797.601	2913.13
797.785	3028.03
797.969	3020.47
798.153	2919.72
798.338	2993.54
798.522	3039.26
798.706	3036.55
798.89	2984.24
799.074	3062.71
799.258	3021.25
799.443	2986.76
799.627	2990.05
799.811	3061.35
799.995	3001.48
800.179	2929.99
800.363	2942.58
800.547	2961.18
800.731	3021.25
800.915	2904.42
801.099	2939.1
801.283	2901.7
801.467	2974.17
801.651	2945.49
801.835	2985.6
802.019	2954.79
802.202	2987.34
802.386	2904.03
802.57	2896.09
802.754	2934.83
802.938	2893.57
803.121	2923.6
803.305	2967.38
803.489	2941.42
803.673	2989.47
803.856	2997.22
804.04	2920.3
804.224	2985.79
804.407	2962.73
804.591	2928.83
804.775	2948.78
804.958	2936
805.142	3061.35
805.326	2917.78
805.509	3003.61
805.693	2997.22
805.876	2956.53
806.06	2928.05
806.243	3003.23
806.427	3006.91
806.61	2988.7
806.794	2918.17
806.977	2957.12
807.16	2980.75
807.344	2972.23
807.527	3002.26
807.71	2945.49
807.894	2940.45
808.077	2973.2
808.26	2901.9
808.444	2908.29
808.627	2994.31
808.81	2897.25
808.993	2832.34
809.177	2844.74
809.36	2871.87
809.543	2903.45
809.726	2809.67
809.909	2816.07
810.092	2759.49
810.276	2763.56
810.459	2798.63
810.642	2763.56
810.825	2755.42
811.008	2739.54
811.191	2679.86
811.374	2721.33
811.557	2693.04
811.74	2704.08
811.923	2636.66
812.106	2646.73
812.289	2631.43
812.472	2601.4
812.654	2604.69
812.837	2571.56
813.02	2519.25
813.203	2534.36
813.386	2426.05
813.569	2446.2
813.751	2365.99
813.934	2393.31
814.117	2356.69
814.3	2341.39
814.482	2250.71
814.665	2259.82
814.848	2199.95
815.03	2172.63
815.213	2178.25
815.396	2149.58
815.578	2115.48
815.761	2066.46
815.943	2138.92
816.126	2024.61
816.309	2023.06
816.491	1927.54
816.674	1886.66
816.856	1988.57
817.039	1910.49
817.221	1987.8
817.403	1957.57
817.586	1891.31
817.768	1971.91
817.951	1886.66
818.133	1909.72
818.315	1909.52
818.498	1934.13
818.68	2003.1
818.862	1967.45
819.045	2021.12
819.227	1983.92
819.409	1940.33
819.591	1990.12
819.774	1971.14
819.956	1952.15
820.138	2001.36
820.32	1973.65
820.502	2009.11
820.684	2050.38
820.866	2102.69
821.048	2150.35
821.231	2159.65
821.413	2155.78
821.595	2100.17
821.777	2096.88
821.959	2138.34
822.141	2204.41
822.323	2075.18
822.505	2018.8
822.686	1967.45
822.868	1888.21
823.05	1791.73
823.232	1770.41
823.414	1673.73
823.596	1725.66
823.778	1726.05
823.96	1747.94
824.141	1781.07
824.323	1779.33
824.505	1841.91
824.687	1917.27
824.868	1948.47
825.05	2036.23
825.232	2092.62
825.413	2159.65
825.595	2102.11
825.777	2024.42
825.958	2078.28
826.14	2052.32
826.321	2073.63
826.503	2050.18
826.685	2072.27
826.866	2083.9
827.048	2100.75
827.229	2026.94
827.411	1976.56
827.592	1938.2
827.773	1953.31
827.955	1889.76
828.136	1910.88
828.318	1851.79
828.499	1930.06
828.68	1852.18
828.862	1849.85
829.043	1921.15
829.224	1903.71
829.406	1848.11
829.587	1830.67
829.768	1856.24
829.949	1881.43
830.131	1888.21
830.312	1968.23
830.493	1917.27
830.674	1863.02
830.855	1869.61
831.036	1866.9
831.218	1943.04
831.399	1935.68
831.58	1901.77
831.761	1884.53
831.942	1902.36
832.123	1896.35
832.304	1830.67
832.485	1857.41
832.666	1846.75
832.847	1882.98
833.028	1845.78
833.209	1890.73
833.389	1857.21
833.57	1766.54
833.751	1813.81
833.932	1889.96
834.113	1853.34
834.294	1827.57
834.475	1909.14
834.655	1888.02
834.836	1894.41
835.017	1914.37
835.198	1840.94
835.378	1880.85
835.559	1941.49
835.74	1877.17
835.92	1902.36
836.101	1815.17
836.281	1886.08
836.462	1882.98
836.643	1933.74
836.823	1917.47
837.004	1931.81
837.184	1948.66
837.365	1930.06
837.545	1909.52
837.726	1919.21
837.906	1952.54
838.087	1932.58
838.267	1888.6
838.448	1890.54
838.628	1921.15
838.808	1918.82
838.989	1935.49
839.169	1856.05
839.349	1917.08
839.53	1969.39
839.71	1915.34
839.89	1886.27
840.07	1950.02
840.251	1851.98
840.431	1939.56
840.611	1895.38
840.791	1857.02
840.971	1915.14
841.151	1895.19
841.332	1854.11
841.512	1888.6
841.692	1813.62
841.872	1891.51
842.052	1872.32
842.232	1907.01
842.412	1830.28
842.592	1821.56
842.772	1823.31
842.952	1884.53
843.132	1842.68
843.312	1835.13
843.492	1820.01
843.672	1893.06
843.851	1792.89
844.031	1861.67
844.211	1814.59
844.391	1819.24
844.571	1849.66
844.751	1843.07
844.93	1813.23
845.11	1773.13
845.29	1797.54
845.47	1806.84
845.649	1839
845.829	1825.44
846.009	1774.09
846.188	1827.57
846.368	1826.79
846.547	1810.13
846.727	1807.03
846.907	1772.16
847.086	1809.94
847.266	1837.45
847.445	1759.56
847.625	1763.25
847.804	1751.62
847.984	1794.83
848.163	1766.54
848.343	1746.2
848.522	1781.07
848.701	1783.2
848.881	1743.29
849.06	1743.68
849.239	1731.28
849.419	1756.46
849.598	1666.76
849.777	1674.12
849.957	1646.42
850.136	1606.12
850.315	1577.05
850.494	1595.85
850.674	1620.26
850.853	1709.38
851.032	1640.6
851.211	1671.6
851.39	1650.29
851.569	1582.87
851.748	1583.64
851.927	1648.93
852.107	1634.02
852.286	1607.47
852.465	1576.67
852.644	1678
852.823	1623.94
853.002	1592.55
853.181	1656.68
853.359	1648.16
853.538	1593.33
853.717	1615.42
853.896	1530.36
854.075	1460.03
854.254	1434.07
854.433	1368.58
854.611	1423.22
854.79	1353.08
854.969	1417.79
855.148	1439.11
855.327	1374.01
855.505	1455.96
855.684	1469.52
855.863	1461.58
856.041	1480.37
856.22	1496.46
856.399	1470.88
856.577	1590.23
856.756	1560.78
856.934	1659.78
857.113	1680.71
857.291	1549.54
857.47	1531.14
857.648	1582.09
857.827	1554.39
858.005	1606.31
858.184	1537.72
858.362	1615.42
858.541	1548.57
858.719	1524.55
858.898	1528.42
859.076	1529.97
859.254	1572.99
859.433	1544.89
859.611	1549.54
859.789	1499.75
859.967	1567.17
860.146	1595.65
860.324	1439.3
860.502	1471.27
860.68	1454.02
860.859	1446.08
861.037	1463.13
861.215	1552.06
861.393	1481.15
861.571	1496.46
861.749	1434.84
861.927	1493.16
862.105	1504.59
862.283	1442.21
862.461	1444.72
862.639	1447.44
862.817	1448.41
862.995	1429.61
863.173	1433.87
863.351	1425.93
863.529	1477.47
863.707	1515.25
863.885	1487.16
864.063	1400.94
864.241	1412.56
864.418	1469.33
864.596	1427.09
864.774	1384.08
864.952	1419.93
865.129	1438.52
865.307	1395.71
865.485	1347.85
865.663	1400.36
865.84	1319.95
866.018	1364.51
866.196	1215.33
866.373	1268.41
866.551	1198.86
866.728	1144.03
866.906	1206.8
867.084	1263.38
867.261	1276.55
867.439	1283.72
867.616	1298.25
867.794	1304.45
867.971	1305.03
868.149	1295.54
868.326	1354.83
868.503	1382.92
868.681	1331
868.858	1308.52
869.035	1286.82
869.213	1311.04
869.39	1309.1
869.567	1385.24
869.745	1303.1
869.922	1325.38
870.099	1332.16
870.276	1325.38
870.454	1329.06
870.631	1310.65
870.808	1322.66
870.985	1337.97
871.162	1340.49
871.339	1335.64
871.517	1243.23
871.694	1270.35
871.871	1328.09
872.048	1285.85
872.225	1287.4
872.402	1285.85
872.579	1257.76
872.756	1286.82
872.933	1221.92
873.11	1246.13
873.287	1264.73
873.463	1237.03
873.64	1210.48
873.817	1273.45
873.994	1271.9
874.171	1231.8
874.348	1272.87
874.524	1182.58
874.701	1232.38
874.878	1159.92
875.055	1236.25
875.231	1223.66
875.408	1248.07
875.585	1184.72
875.762	1229.86
875.938	1219.59
876.115	1181.23
876.291	1198.28
876.468	1182.58
876.645	1165.15
876.821	1182.78
876.998	1200.22
877.174	1211.84
877.351	1185.49
877.527	1164.95
877.704	1193.82
877.88	1178.9
878.057	1153.33
878.233	1206.61
878.409	1169.41
878.586	1174.45
878.762	1153.91
878.938	1155.46
879.115	1097.72
879.291	1151.2
879.467	1094.04
879.644	1123.88
879.82	1121.75
879.996	1126.2
880.172	1087.26
880.349	1141.51
880.525	1161.66
880.701	1101.02
880.877	1078.35
881.053	1118.65
881.229	1126.59
881.405	1171.15
881.581	1066.34
881.757	1106.05
881.933	1125.82
882.109	1131.63
882.285	1117.1
882.461	1080.67
882.637	1113.03
882.813	1087.84
882.989	1091.72
883.165	1175.03
883.341	1061.3
883.517	1139.57
883.693	1112.25
883.869	1142.09
884.044	1070.99
884.22	1133.57
884.396	1168.25
884.572	1127.95
884.747	1151.39
884.923	1121.94
885.099	1124.27
885.275	1150.04
885.45	1083.58
885.626	1091.72
885.801	1070.41
885.977	1081.84
886.153	1058.2
886.328	1118.65
886.504	1060.33
886.679	1129.89
886.855	1065.95
887.03	1100.63
887.206	1105.09
887.381	1112.06
887.557	1133.95
887.732	1125.24
887.908	1110.7
888.083	1138.6
888.258	1069.44
888.434	1072.34
888.609	1088.62
888.784	1135.7
888.96	1095.01
889.135	1081.84
889.31	1056.46
889.485	1060.33
889.661	1083.39
889.836	1126.01
890.011	1107.8
890.186	1095.4
890.361	1097.72
890.537	1107.6
890.712	1120.78
890.887	1084.74
891.062	1069.24
891.237	1155.65
891.412	1065.76
891.587	1070.79
891.762	1127.17
891.937	1126.59
892.112	1055.29
892.287	1078.15
892.462	1052.97
892.637	1029.72
892.812	993.87
892.987	1040.37
893.161	1026.81
893.336	1049.67
893.511	1024.68
893.686	1013.25
893.861	1038.05
894.035	1027.78
894.21	998.72
894.385	969.08
894.56	998.14
894.734	936.14
894.909	953.38
895.084	975.47
895.258	931.29
895.433	946.79
895.608	942.34
895.782	868.13
895.957	921.99
896.131	900.1
896.306	826.28
896.48	830.16
896.655	858.25
896.829	754.79
897.004	779.59
897.178	799.55
897.353	752.85
897.527	845.27
897.701	805.36
897.876	756.53
898.05	837.33
898.224	822.02
898.399	857.48
898.573	775.72
898.747	675.74
898.921	746.27
899.096	634.28
899.27	646.49
899.444	657.14
899.618	688.34
899.792	692.99
899.967	701.9
900.141	742.97
900.315	689.5
900.489	691.44
900.663	745.1
900.837	680.39
901.011	657.92
901.185	772.42
901.359	683.88
901.533	680.2
901.707	723.02
901.881	706.35
902.055	667.41
902.229	671.87
902.403	742.58
902.576	678.45
902.75	705
902.924	800.71
903.098	749.75
903.272	774.36
903.446	845.08
903.619	799.55
903.793	835
903.967	790.63
904.14	871.62
904.314	874.33
904.488	827.64
904.661	869.88
904.835	831.13
905.009	884.6
905.182	914.24
905.356	862.51
905.529	863.68
905.703	820.08
905.876	822.8
906.05	770.48
906.223	778.04
906.397	705.97
906.57	718.75
906.744	701.51
906.917	688.34
907.09	708.1
907.264	692.79
907.437	638.93
907.61	636.99
907.784	657.92
907.957	679.04
908.13	625.37
908.304	683.1
908.477	587.78
908.65	622.66
908.823	593.4
908.996	676.13
909.17	616.65
909.343	632.54
909.516	611.61
909.689	599.41
909.862	607.93
910.035	642.8
910.208	582.36
910.381	568.41
910.554	662.18
910.727	576.54
910.9	602.89
911.073	603.28
911.246	662.18
911.419	642.42
911.592	652.3
911.765	571.12
911.938	577.51
912.11	619.75
912.283	626.53
912.456	668.57
912.629	625.37
912.802	586.42
912.974	540.89
913.147	537.6
913.32	478.89
913.493	534.69
913.665	502.53
913.838	569.18
914.01	531.01
914.183	531.79
914.356	551.94
914.528	604.25
914.701	609.29
914.873	599.99
915.046	553.49
915.218	513.96
915.391	442.47
915.563	500.01
915.736	502.92
915.908	573.64
916.081	520.16
916.253	527.53
916.425	512.22
916.598	560.27
916.77	535.86
916.942	495.17
917.115	434.72
917.287	529.85
917.459	505.24
917.632	451.96
917.804	416.12
917.976	482.38
918.148	533.14
918.32	513.58
918.493	564.34
918.665	574.41
918.837	521.33
919.009	601.15
919.181	571.89
919.353	571.31
919.525	545.16
919.697	549.42
919.869	520.16
920.041	600.18
920.213	689.69
920.385	562.59
920.557	521.52
920.729	584.1
920.901	566.66
921.073	533.92
921.244	529.85
921.416	585.84
921.588	540.89
921.76	551.16
921.932	608.32
922.103	544.77
922.275	539.34
922.447	559.11
922.619	475.6
922.79	537.6
922.962	513.77
923.134	552.32
923.305	489.36
923.477	475.21
923.648	477.15
923.82	489.94
923.991	435.69
924.163	420
924.335	465.91
924.506	462.23
924.677	553.68
924.849	449.64
925.02	482.19
925.192	521.52
925.363	486.45
925.535	487.23
925.706	458.55
925.877	519.39
926.049	456.42
926.22	492.65
926.391	479.28
926.562	504.86
926.734	441.89
926.905	494.59
927.076	409.92
927.247	450.61
927.419	411.66
927.59	399.46
927.761	428.33
927.932	395.58
928.103	417.86
928.274	344.43
928.445	331.07
928.616	349.28
928.787	361.1
928.958	398.49
929.129	397.33
929.3	341.53
929.471	320.41
929.642	293.48
929.813	231.29
929.984	298.13
930.155	224.31
930.326	274.1
930.496	278.75
930.667	160.37
930.838	238.84
931.009	206.87
931.18	221.79
931.35	192.73
931.521	231.29
931.692	159.21
931.863	132.86
932.033	198.74
932.204	181.69
932.374	176.84
932.545	125.31
932.716	185.76
932.886	188.86
933.057	77.06
933.227	118.14
933.398	195.83
933.568	92.95
933.739	67.38
933.909	74.35
934.08	147.59
934.25	29.21
934.421	50.13
934.591	94.69
934.761	57.3
934.932	46.45
935.102	89.27
935.272	72.99
935.443	66.6
935.613	70.86
935.783	98.96
935.953	54.01
936.123	208.42
936.294	48.78
936.464	46.06
936.634	67.18
936.804	41.03
936.974	31.73
937.144	85.01
937.314	78.42
937.484	43.54
937.655	51.88
937.825	93.92
937.995	49.55
938.165	112.32
938.334	66.21
938.504	118.52
938.674	84.43
938.844	116.78
939.014	153.01
939.184	136.54
939.354	184.01
939.524	172.97
939.694	154.95
939.863	117.94
940.033	214.24
940.203	180.91
940.373	174.32
940.542	166.38
940.712	151.27
940.882	166.77
941.051	170.84
941.221	156.89
941.391	182.07
941.56	139.26
941.73	151.85
941.899	235.35
942.069	132.86
942.238	162.51
942.408	128.41
942.577	155.72
942.747	129.57
942.916	89.85
943.086	108.84
943.255	168.9
943.425	139.06
943.594	127.44
943.763	42.58
943.933	79.58
944.102	27.46
944.271	95.28
944.441	107.29
944.61	99.15
944.779	125.5
944.948	226.64
945.117	43.74
945.287	80.16
945.456	48.97
945.625	67.38
945.794	116.2
945.963	72.41
946.132	113.29
946.301	63.31
946.47	99.34
946.639	69.31
946.808	98.18
946.977	121.24
947.146	164.83
947.315	88.49
947.484	114.84
947.653	108.45
947.822	90.04
947.991	54.39
948.16	159.99
948.329	143.13
948.498	128.41
948.666	99.34
948.835	157.47
949.004	55.17
949.173	53.43
949.341	97.02
949.51	96.63
949.679	132.47
949.847	106.51
950.016	187.5
950.185	161.92
950.353	91.01
950.522	119.11
950.69	137.9
950.859	75.9
951.028	157.86
951.196	126.66
951.365	85.59
951.533	113.29
951.701	125.69
951.87	130.73
952.038	75.32
952.207	140.81
952.375	183.24
952.543	81.13
952.712	94.69
952.88	76.68
953.048	158.63
953.217	135.38
953.385	81.52
953.553	147.59
953.721	75.13
953.89	104.77
954.058	54.01
954.226	78.23
954.394	87.33
954.562	38.89
954.73	82.29
954.898	72.22
955.067	134.22
955.235	99.73
955.403	135.96
955.571	166.19
955.739	123.76
955.907	61.76
956.075	73.19
956.243	72.99
956.41	138.48
956.578	51.68
956.746	34.24
956.914	77.26
957.082	132.09
957.25	89.85
957.418	83.26
957.585	97.79
957.753	128.6
957.921	69.51
958.089	107.87
958.256	124.92
958.424	129.37
958.592	110.58
958.759	62.53
958.927	91.21
959.095	64.66
959.262	114.26
959.43	116.01
959.597	91.4
959.765	100.51
959.932	48.97
960.1	140.03
960.267	104.19
960.435	95.47
960.602	135.77
960.77	85.59
960.937	72.41
961.104	113.87
961.272	62.73
961.439	65.24
961.606	119.3
961.774	126.47
961.941	104.58
962.108	124.72
962.275	100.51
962.443	154.37
962.61	122.01
962.777	174.32
962.944	141
963.111	146.23
963.278	155.14
963.446	134.41
963.613	121.04
963.78	140.61
963.947	114.26
964.114	99.73
964.281	183.04
964.448	126.08
964.615	102.25
964.782	138.67
964.949	137.71
965.116	143.71
965.282	158.63
965.449	120.46
965.616	74.74
965.783	120.27
965.95	122.59
966.117	94.5
966.283	99.73
966.45	113.1
966.617	113.49
966.784	152.62
966.95	157.66
967.117	178.01
967.284	82.68
967.45	94.5
967.617	175.68
967.784	117.56
967.95	172.39
968.117	126.27
968.283	173.55
968.45	225.86
968.616	129.57
968.783	169.09
968.949	130.54
969.116	187.11
969.282	122.59
969.449	136.93
969.615	119.3
969.781	78.42
969.948	98.57
970.114	86.75
970.28	188.86
970.447	94.89
970.613	185.37
970.779	122.79
970.945	153.79
971.112	143.52
971.278	126.86
971.444	118.33
971.61	177.62
971.776	113.49
971.942	138.67
972.108	160.18
972.275	122.01
972.441	146.81
972.607	188.08
972.773	97.99
972.939	146.23
973.105	116.97
973.271	90.04
973.437	102.83
973.602	84.23
973.768	147.01
973.934	87.72
974.1	151.85
974.266	23.98
974.432	132.86
974.598	110.58
974.763	133.44
974.929	107.68
975.095	181.3
975.261	96.63
975.426	80.55
975.592	124.72
975.758	182.66
975.923	59.04
976.089	88.49
976.255	144.29
976.42	99.73
976.586	115.04
976.751	132.09
976.917	192.15
977.082	155.92
977.248	64.28
977.413	62.53
977.579	103.99
977.744	115.04
977.91	68.54
978.075	100.7
978.24	137.9
978.406	109.61
978.571	92.76
978.736	64.28
978.902	130.73
979.067	80.74
979.232	56.72
979.397	109.81
979.563	160.37
979.728	79.78
979.893	100.12
980.058	57.88
980.223	154.56
980.388	91.4
980.554	87.14
980.719	91.79
980.884	121.43
981.049	168.12
981.214	69.51
981.379	108.26
981.544	74.74
981.709	101.86
981.874	73.38
982.039	88.88
982.204	135.96
982.368	104.77
982.533	111.16
982.698	118.72
982.863	137.9
983.028	100.51
983.193	116.97
983.357	111.16
983.522	110.58
983.687	84.04
983.852	83.84
984.016	88.3
984.181	77.84
984.346	122.98
984.51	154.56
984.675	85.01
984.839	123.95
985.004	110.58
985.168	128.41
985.333	116.2
985.498	73.77
985.662	112.71
985.827	122.98
985.991	79.19
986.155	83.26
986.32	131.31
986.484	178.2
986.649	115.42
986.813	48
986.977	107.87
987.142	103.22
987.306	70.67
987.47	72.03
987.634	92.56
987.799	126.08
987.963	111.74
988.127	109.03
988.291	155.72
988.455	102.25
988.62	78.23
988.784	95.86
988.948	106.71
989.112	69.12
989.276	116.2
989.44	101.09
989.604	50.52
989.768	84.62
989.932	179.36
990.096	50.33
990.26	66.41
990.424	75.71
990.588	94.11
990.752	149.91
990.915	93.73
991.079	82.1
991.243	65.83
991.407	106.71
991.571	89.08
991.734	98.76
991.898	96.83
992.062	169.29
992.226	66.6
992.389	56.14
992.553	29.79
992.717	42.19
992.88	66.99
993.044	94.89
993.207	59.43
993.371	119.3
993.535	102.44
993.698	86.36
993.862	129.57
994.025	113.49
994.189	112.52
994.352	89.46
994.515	106.9
994.679	136.54
994.842	53.62
995.006	121.62
995.169	54.39
995.332	76.48
995.496	107.29
995.659	26.11
995.822	91.98
995.985	68.73
996.149	133.83
996.312	87.72
996.475	145.46
996.638	66.79
996.801	120.46
996.964	141.19
997.128	82.49
997.291	85.98
997.454	87.91
997.617	33.66
997.78	128.6
997.943	49.16
998.106	97.02
998.269	49.36
998.432	91.4
998.595	98.57
998.758	30.76
998.92	38.12
999.083	29.21
999.246	71.06
999.409	8.67
999.572	23.98
999.735	52.84
999.897	92.76
1000.06	53.23
1000.223	66.79
1000.386	95.28
1000.548	109.81
1000.711	100.31
1000.874	89.27
1001.036	26.3
1001.199	128.41
1001.361	43.93
1001.524	74.54
1001.687	73.58
1001.849	54.2
1002.012	66.02
1002.174	59.43
1002.337	89.66
1002.499	49.55
1002.661	105.16
1002.824	40.44
1002.986	37.34
1003.149	56.14
1003.311	40.83
1003.473	118.33
1003.636	56.53
1003.798	75.32
1003.96	87.53
1004.123	66.02
1004.285	37.54
1004.447	53.04
1004.609	61.95
1004.771	104.58
1004.933	24.17
1005.096	31.34
1005.258	5.38
1005.42	39.48
1005.582	96.63
1005.744	39.09
1005.906	7.31
1006.068	60.01
1006.23	26.49
1006.392	7.51
1006.554	18.16
1006.716	81.71
1006.878	67.57
1007.04	9.83
1007.202	38.51
1007.363	41.61
1007.525	66.99
1007.687	67.76
1007.849	87.91
1008.011	-8.77
1008.172	8.48
1008.334	28.04
1008.496	94.89
1008.658	-3.34
1008.819	28.82
1008.981	-27.17
1009.143	41.03
1009.304	40.44
1009.466	81.13
1009.627	103.03
1009.789	154.95
1009.95	60.79
1010.112	3.63
1010.273	47.61
1010.435	36.18
1010.596	25.14
1010.758	21.26
1010.919	12.16
1011.081	17
1011.242	27.08
1011.403	63.89
1011.565	27.85
1011.726	48.19
1011.887	15.45
1012.049	38.7
1012.21	78.23
1012.371	117.56
1012.532	-20
1012.693	19.71
1012.855	13.32
1013.016	45.68
1013.177	57.49
1013.338	38.31
1013.499	89.08
1013.66	56.91
1013.821	74.93
1013.982	38.31
1014.143	41.03
1014.304	24.17
1014.465	51.68
1014.626	45.48
1014.787	21.85
1014.948	100.31
1015.109	-58.75
1015.27	76.68
1015.431	7.12
1015.592	43.16
1015.752	73.96
1015.913	70.09
1016.074	42.96
1016.235	66.41
1016.395	44.71
1016.556	5.38
1016.717	43.35
1016.877	60.01
1017.038	5.96
1017.199	54.2
1017.359	45.68
1017.52	35.41
1017.681	11.38
1017.841	38.89
1018.002	35.6
1018.162	11.58
1018.323	79.19
1018.483	35.99
1018.644	20.68
1018.804	-22.14
1018.964	11.19
1019.125	27.27
1019.285	29.21
1019.446	23.2
1019.606	-18.65
1019.766	-32.6
1019.926	12.74
1020.087	50.13
1020.247	15.45
1020.407	41.8
1020.567	64.66
1020.728	7.9
1020.888	-11.87
1021.048	0.15
1021.208	8.86
1021.368	1.11
1021.528	80.94
1021.688	50.71
1021.848	59.04
1022.008	45.09
1022.168	10.8
1022.328	14.68
1022.488	35.79
1022.648	-6.44
1022.808	21.65
1022.968	51.68
1023.128	10.8
1023.288	8.86
1023.448	26.49
1023.608	35.6
1023.767	47.03
1023.927	12.16
1024.087	-0.82
1024.247	-9.35
1024.406	-3.92
1024.566	-36.09
1024.726	-3.54
1024.885	10.41
1025.045	77.84
1025.205	27.66
1025.364	22.81
1025.524	50.71
1025.683	14.48
1025.843	41.41
1026.003	29.59
1026.162	99.93
1026.321	47.03
1026.481	28.43
1026.64	-4.31
1026.8	24.94
1026.959	21.46
1027.119	-0.63
1027.278	24.75
1027.437	18.36
1027.597	16.42
1027.756	48.39
1027.915	31.73
1028.074	37.34
1028.234	10.22
1028.393	50.13
1028.552	4.02
1028.711	-58.17
1028.87	41.22
1029.03	-13.8
1029.189	26.49
1029.348	-56.43
1029.507	4.21
1029.666	16.61
1029.825	-21.75
1029.984	21.46
1030.143	18.75
1030.302	7.9
1030.461	-50.23
1030.62	5.38
1030.779	32.89
1030.938	-33.57
1031.097	-18.84
1031.255	26.49
1031.414	43.35
1031.573	44.71
1031.732	-48.1
1031.891	31.73
1032.049	55.17
1032.208	44.51
1032.367	-17.29
1032.525	14.48
1032.684	8.09
1032.843	3.63
1033.001	-19.42
1033.16	146.04
1033.319	46.45
1033.477	35.99
1033.636	-12.06
1033.794	-17.87
1033.953	35.79
1034.111	42.58
1034.27	-14.77
1034.428	34.24
1034.587	6.54
1034.745	33.66
1034.903	12.74
1035.062	30.37
1035.22	-48.87
1035.378	27.66
1035.537	-7.99
1035.695	32.69
1035.853	51.1
1036.011	38.12
1036.17	8.28
1036.328	-58.37
1036.486	12.35
1036.644	23.39
1036.802	-94.21
1036.96	-23.88
1037.119	-6.05
1037.277	-38.22
1037.435	-25.62
1037.593	4.41
1037.751	16.03
1037.909	24.56
1038.067	24.56
