Data from gum_old_FLMT105791__59__15-43-47-257.txt Node

Date: Mon Mar 20 15:43:47 GMT 2023
User: antho
Spectrometer: FLMT10579
Trigger mode: 0
Integration Time (sec): 1.000000E-1
Scans to average: 10
Electric dark correction enabled: true
Nonlinearity correction enabled: false
Boxcar width: 0
XAxis mode: Wavelengths
Number of Pixels in Spectrum: 3648
>>>>>Begin Spectral Data<<<<<
345.248	-195.44
345.464	-195.44
345.681	-195.44
345.898	-195.64
346.114	-167.74
346.331	-20.88
346.548	33.95
346.764	5.67
346.981	8.96
347.197	-36.57
347.414	7.02
347.631	-16.81
347.847	48.87
348.064	-2.66
348.28	7.99
348.497	-28.63
348.713	-6.93
348.93	17.1
349.146	13.8
349.363	26.98
349.579	15.94
349.796	5.67
350.012	4.5
350.229	71.35
350.445	10.32
350.661	6.44
350.878	35.89
351.094	28.34
351.311	30.27
351.527	37.25
351.743	9.54
351.96	54.88
352.176	70.57
352.392	20.59
352.609	55.07
352.825	20.78
353.041	-11
353.257	45.58
353.474	29.69
353.69	23.3
353.906	27.56
354.122	-25.91
354.339	83.55
354.555	33.18
354.771	24.27
354.987	80.45
355.203	94.02
355.42	26.59
355.636	30.27
355.852	5.86
356.068	26.01
356.284	-19.33
356.5	84.13
356.716	51.59
356.932	22.72
357.148	54.3
357.364	29.5
357.58	70.18
357.796	87.23
358.012	64.76
358.228	37.83
358.444	-27.08
358.66	76.38
358.876	52.75
359.092	3.54
359.308	43.45
359.524	59.72
359.74	27.75
359.956	17.29
360.172	45.19
360.388	70.18
360.604	18.65
360.819	125.6
361.035	55.27
361.251	64.95
361.467	-4.41
361.683	57.01
361.898	75.03
362.114	77.35
362.33	62.05
362.546	71.93
362.762	37.83
362.977	54.3
363.193	9.93
363.409	90.53
363.624	13.61
363.84	14.58
364.056	31.24
364.271	66.5
364.487	50.81
364.703	20.59
364.918	30.66
365.134	22.52
365.35	21.75
365.565	150.78
365.781	45
365.996	69.8
366.212	131.02
366.427	69.41
366.643	46.74
366.858	56.04
367.074	13.8
367.289	104.09
367.505	134.7
367.72	25.43
367.936	52.17
368.151	95.18
368.367	86.65
368.582	61.47
368.798	57.2
369.013	97.7
369.228	66.31
369.444	77.16
369.659	107
369.874	66.5
370.09	141.68
370.305	19.62
370.52	47.13
370.736	124.24
370.951	58.75
371.166	106.03
371.381	120.56
371.597	116.3
371.812	23.69
372.027	46.35
372.242	82.39
372.458	137.03
372.673	52.17
372.888	64.18
373.103	65.34
373.318	139.35
373.533	81.23
373.749	82.2
373.964	19.81
374.179	93.82
374.394	37.83
374.609	96.92
374.824	23.3
375.039	117.85
375.254	33.57
375.469	119.98
375.684	59.14
375.899	123.85
376.114	80.65
376.329	78.71
376.544	114.36
376.759	100.8
376.974	34.54
377.189	65.54
377.404	62.63
377.619	111.84
377.834	22.33
378.049	34.34
378.264	41.7
378.478	100.02
378.693	69.41
378.908	121.72
379.123	87.62
379.338	120.75
379.553	90.92
379.767	96.15
379.982	104.28
380.197	122.11
380.412	77.16
380.626	95.57
380.841	182.17
381.056	105.06
381.271	180.23
381.485	70.77
381.7	54.49
381.915	114.94
382.129	62.44
382.344	80.65
382.559	58.56
382.773	126.18
382.988	4.12
383.202	106.22
383.417	32.21
383.632	163.96
383.846	72.32
384.061	79.48
384.275	58.17
384.49	92.85
384.704	107.77
384.919	95.76
385.133	97.12
385.348	150.01
385.562	64.95
385.777	137.03
385.991	84.13
386.206	76.77
386.42	66.31
386.634	134.9
386.849	113.2
387.063	107.77
387.277	84.91
387.492	81.03
387.706	73.28
387.92	69.99
388.135	139.93
388.349	109.71
388.563	104.28
388.778	135.48
388.992	145.55
389.206	148.27
389.42	194.76
389.635	96.73
389.849	152.14
390.063	166.48
390.277	132.96
390.491	200.96
390.706	153.3
390.92	169.77
391.134	147.68
391.348	176.55
391.562	92.47
391.776	138.19
391.99	87.04
392.205	154.46
392.419	115.72
392.633	136.45
392.847	169.58
393.061	77.74
393.275	175.97
393.489	98.47
393.703	102.35
393.917	119.01
394.131	67.28
394.345	99.83
394.559	129.28
394.773	110.68
394.986	142.26
395.2	137.42
395.414	187.79
395.628	123.08
395.842	146.91
396.056	147.1
396.27	85.68
396.484	147.3
396.697	162.99
396.911	173.84
397.125	143.62
397.339	154.27
397.553	123.08
397.766	196.31
397.98	156.79
398.194	200.77
398.408	153.88
398.621	199.41
398.835	222.47
399.049	206.58
399.262	255.02
399.476	261.03
399.69	248.82
399.903	291.25
400.117	209.1
400.331	251.53
400.544	220.53
400.758	312.18
400.971	254.24
401.185	258.31
401.398	211.43
401.612	305.78
401.826	277.88
402.039	264.71
402.253	243.59
402.466	303.65
402.68	250.37
402.893	276.72
403.106	274.78
403.32	260.25
403.533	283.5
403.747	238.55
403.96	299.58
404.174	291.44
404.387	222.66
404.6	258.51
404.814	321.09
405.027	266.06
405.24	274.01
405.454	262.96
405.667	308.69
405.88	214.33
406.094	295.51
406.307	333.87
406.52	283.31
406.733	258.12
406.947	232.55
407.16	322.44
407.373	304.81
407.586	261.99
407.799	268.97
408.012	332.91
408.226	314.69
408.439	322.83
408.652	259.67
408.865	310.43
409.078	369.91
409.291	312.95
409.504	274.39
409.717	363.71
409.93	342.01
410.143	312.18
410.357	249.01
410.57	233.9
410.783	271.88
410.996	295.13
411.209	277.3
411.421	346.08
411.634	342.59
411.847	318.38
412.06	320.89
412.273	336.2
412.486	326.9
412.699	433.65
412.912	350.92
413.125	371.46
413.338	317.99
413.55	344.34
413.763	313.53
413.976	347.24
414.189	315.28
414.402	344.72
414.615	415.25
414.827	310.04
415.04	375.72
415.253	376.89
415.466	385.41
415.678	382.31
415.891	361.77
416.104	343.37
416.316	354.99
416.529	357.12
416.742	400.14
416.954	435.98
417.167	388.51
417.38	377.66
417.592	419.12
417.805	349.37
418.017	353.44
418.23	387.74
418.442	317.02
418.655	349.57
418.868	375.34
419.08	421.25
419.293	432.88
419.505	379.02
419.718	427.26
419.93	402.07
420.142	364.68
420.355	411.37
420.567	393.94
420.78	414.28
420.992	365.07
421.205	441.21
421.417	372.43
421.629	405.17
421.842	361.39
422.054	409.82
422.266	436.37
422.479	450.51
422.691	372.43
422.903	417.96
423.115	367.39
423.328	393.16
423.54	401.69
423.752	400.52
423.964	366.81
424.177	421.25
424.389	413.51
424.601	506.12
424.813	408.66
425.025	456.32
425.238	437.72
425.45	407.11
425.662	398.01
425.874	708.97
426.086	420.67
426.298	439.08
426.51	417.19
426.722	412.73
426.934	412.73
427.146	426.49
427.358	381.34
427.57	443.73
427.782	390.64
427.994	404.21
428.206	360.22
428.418	391.81
428.63	451.29
428.842	460.78
429.054	437.14
429.266	448.38
429.478	395.29
429.69	406.53
429.902	343.37
430.114	420.67
430.325	410.79
430.537	363.32
430.749	359.06
430.961	280.4
431.173	325.74
431.384	368.94
431.596	282.34
431.808	373.01
432.02	432.3
432.231	478.41
432.443	504.18
432.655	500.11
432.867	449.15
433.078	459.81
433.29	533.24
433.502	493.72
433.713	519.1
433.925	515.03
434.136	524.52
434.348	458.26
434.56	437.72
434.771	576.64
434.983	407.89
435.194	470.08
435.406	511.35
435.617	557.27
435.829	578
436.04	561.92
436.252	515.22
436.463	562.88
436.675	593.69
436.886	562.11
437.098	583.23
437.309	617.91
437.521	587.88
437.732	590.2
437.943	552.62
438.155	568.7
438.366	486.16
438.578	623.33
438.789	527.82
439	541.57
439.211	495.27
439.423	538.67
439.634	546.61
439.845	582.07
440.057	559.98
440.268	587.1
440.479	531.3
440.69	557.27
440.902	553.78
441.113	543.51
441.324	544.28
441.535	595.82
441.746	648.71
441.957	544.09
442.168	587.88
442.38	617.91
442.591	615.78
442.802	547.19
443.013	599.11
443.224	627.01
443.435	586.33
443.646	641.55
443.857	593.69
444.068	587.68
444.279	570.25
444.49	679.91
444.701	617.13
444.912	732.03
445.123	655.5
445.334	603.18
445.545	668.28
445.756	616.94
445.967	609.58
446.178	609.58
446.388	642.51
446.599	637.48
446.81	666.54
447.021	620.43
447.232	691.14
447.443	694.24
447.653	650.65
447.864	699.67
448.075	672.93
448.286	694.44
448.496	655.88
448.707	734.35
448.918	632.25
449.129	764.57
449.339	655.5
449.55	691.34
449.761	653.17
449.971	705.87
450.182	667.31
450.393	713.81
450.603	691.73
450.814	735.9
451.024	720.98
451.235	758.18
451.446	770.19
451.656	794.99
451.867	699.48
452.077	730.09
452.288	792.28
452.498	775.23
452.709	714.01
452.919	747.72
453.13	676.42
453.34	742.1
453.55	654.14
453.761	721.56
453.971	704.13
454.182	718.85
454.392	720.01
454.602	797.71
454.813	725.63
455.023	797.12
455.233	656.08
455.444	725.63
455.654	669.64
455.864	703.74
456.075	713.43
456.285	715.94
456.495	691.34
456.705	753.73
456.916	813.98
457.126	801.39
457.336	759.15
457.546	658.21
457.756	723.31
457.967	830.84
458.177	793.64
458.387	756.83
458.597	712.84
458.807	743.84
459.017	739.97
459.227	744.43
459.437	776.59
459.647	780.66
459.857	798.67
460.068	722.53
460.278	812.04
460.488	829.48
460.698	845.17
460.908	768.45
461.117	732.22
461.327	763.99
461.537	821.73
461.747	789.18
461.957	807.78
462.167	899.23
462.377	843.24
462.587	805.84
462.797	848.27
463.007	829.67
463.216	862.61
463.426	883.92
463.636	859.12
463.846	759.93
464.056	782.01
464.265	813.59
464.475	776.01
464.685	811.46
464.895	821.34
465.104	806.42
465.314	848.27
465.524	766.12
465.733	793.44
465.943	887.02
466.153	871.91
466.362	897.68
466.572	843.04
466.782	792.67
466.991	849.05
467.201	905.82
467.41	737.06
467.62	853.12
467.829	849.05
468.039	848.86
468.249	862.42
468.458	866.68
468.668	901.55
468.877	861.84
469.086	914.92
469.296	919.77
469.505	828.71
469.715	940.11
469.924	875.98
470.134	927.32
470.343	921.9
470.552	878.69
470.762	881.02
470.971	847.31
471.18	887.8
471.39	902.91
471.599	869.59
471.808	918.6
472.018	909.5
472.227	951.73
472.436	1004.43
472.645	980.02
472.855	951.54
473.064	1018.77
473.273	1010.44
473.482	1007.15
473.691	1027.3
473.901	1048.8
474.11	987.77
474.319	1106.54
474.528	1008.89
474.737	1089.68
474.946	1054.61
475.155	1039.5
475.364	1095.88
475.573	1042.41
475.783	1053.65
475.992	1081.93
476.201	1096.27
476.41	1047.06
476.619	1011.22
476.828	1061.2
477.037	1047.45
477.245	1051.51
477.454	1097.05
477.663	1091.04
477.872	1102.08
478.081	1216.78
478.29	1073.99
478.499	1221.24
478.708	1163.89
478.917	1203.99
479.125	1144.51
479.334	1161.56
479.543	1134.44
479.752	1194.89
479.961	1176.68
480.169	1220.66
480.378	1197.79
480.587	1327.41
480.796	1237.12
481.004	1249.52
481.213	1250.11
481.422	1268.71
481.63	1246.04
481.839	1292.92
482.048	1341.55
482.256	1298.54
482.465	1340.78
482.674	1304.94
482.882	1344.46
483.091	1404.72
483.299	1322.95
483.508	1317.92
483.716	1350.27
483.925	1359.57
484.134	1315.2
484.342	1301.45
484.551	1378.95
484.759	1390.38
484.967	1376.43
485.176	1387.86
485.384	1412.47
485.593	1412.85
485.801	1402
486.01	1322.95
486.218	1279.36
486.426	1208.64
486.635	1191.79
486.843	1149.36
487.051	1236.16
487.26	1247.01
487.468	1289.24
487.676	1335.16
487.885	1333.8
488.093	1387.28
488.301	1393.48
488.509	1379.14
488.717	1466.91
488.926	1413.05
489.134	1399.1
489.342	1411.5
489.55	1377.59
489.758	1450.63
489.967	1430.48
490.175	1528.91
490.383	1490.35
490.591	1607.57
490.799	1481.44
491.007	1569.59
491.215	1542.66
491.423	1481.83
491.631	1545.18
491.839	1508.95
492.047	1562.23
492.255	1438.43
492.463	1442.11
492.671	1440.17
492.879	1526.78
493.087	1533.17
493.295	1521.74
493.503	1563.59
493.711	1591.1
493.919	1579.28
494.127	1612.8
494.334	1595.94
494.542	1516.9
494.75	1551.58
494.958	1594.59
495.166	1620.36
495.374	1660.85
495.581	1666.27
495.789	1640.7
495.997	1704.44
496.205	1600.59
496.412	1611.83
496.62	1644.19
496.828	1624.04
497.035	1638.76
497.243	1652.91
497.451	1675.38
497.658	1682.74
497.866	1663.56
498.074	1760.63
498.281	1654.26
498.489	1763.92
498.696	1718.01
498.904	1663.56
499.112	1617.64
499.319	1729.63
499.527	1638.37
499.734	1729.63
499.942	1618.42
500.149	1668.41
500.357	1701.92
500.564	1631.01
500.771	1661.24
500.979	1625.98
501.186	1609.7
501.394	1645.74
501.601	1609.7
501.808	1641.09
502.016	1617.45
502.223	1618.61
502.43	1629.85
502.638	1639.34
502.845	1596.91
503.052	1735.44
503.26	1661.04
503.467	1751.33
503.674	1708.9
503.881	1740.48
504.089	1769.15
504.296	1711.81
504.503	1647.09
504.71	1674.8
504.917	1643.8
505.125	1739.12
505.332	1715.49
505.539	1717.62
505.746	1832.32
505.953	1812.94
506.16	1793.95
506.367	1863.32
506.574	1863.7
506.781	1855.57
506.988	1758.3
507.195	1786.79
507.402	1760.63
507.609	1849.56
507.816	1761.02
508.023	1762.37
508.23	1725.56
508.437	1708.71
508.644	1765.28
508.851	1764.7
509.058	1768.38
509.265	1777.1
509.472	1818.95
509.679	1878.23
509.885	1826.5
510.092	1811.59
510.299	1815.07
510.506	1806.55
510.713	1791.63
510.92	1797.44
511.126	1845.49
511.333	1859.05
511.54	1824.95
511.746	1907.3
511.953	1881.53
512.16	1886.37
512.367	1845.3
512.573	1849.95
512.78	1843.55
512.987	1834.25
513.193	1822.43
513.4	1738.15
513.606	1802.87
513.813	1835.61
514.02	1797.83
514.226	1858.47
514.433	1862.73
514.639	1761.4
514.846	1802.48
515.052	1791.44
515.259	1804.22
515.465	1805.77
515.672	1789.11
515.878	1899.35
516.085	1798.6
516.291	1856.92
516.497	1799.38
516.704	1806.55
516.91	1737.77
517.117	1689.14
517.323	1643.41
517.529	1655.04
517.736	1631.98
517.942	1622.29
518.148	1646.32
518.354	1725.75
518.561	1712.19
518.767	1707.74
518.973	1764.12
519.179	1775.74
519.386	1736.41
519.592	1708.32
519.798	1747.65
520.004	1890.63
520.21	1805.58
520.417	1872.81
520.623	1903.42
520.829	1923.38
521.035	1953.21
521.241	1913.88
521.447	1921.63
521.653	2052.61
521.859	1940.04
522.065	1982.47
522.271	2072.37
522.477	2020.06
522.683	2054.54
522.889	2014.83
523.095	2007.08
523.301	2007.66
523.507	1907.1
523.713	1962.13
523.919	1937.71
524.125	2042.73
524.331	2013.86
524.537	2146.19
524.742	2131.85
524.948	2167.5
525.154	2131.85
525.36	2230.66
525.566	2131.66
525.772	2184.55
525.977	2066.56
526.183	2144.83
526.389	2183.97
526.595	2093.1
526.8	2080.7
527.006	2013.08
527.212	1937.33
527.417	1920.08
527.623	1927.45
527.829	2022.19
528.034	2060.55
528.24	2037.3
528.446	2052.61
528.651	2172.15
528.857	2179.7
529.062	2266.7
529.268	2218.26
529.473	2221.94
529.679	2250.04
529.884	2308.55
530.09	2293.24
530.295	2307.77
530.501	2331.22
530.706	2295.37
530.912	2245.58
531.117	2263.02
531.323	2313
531.528	2330.25
531.733	2352.33
531.939	2294.4
532.144	2339.55
532.35	2319.78
532.555	2332.38
532.76	2314.94
532.966	2321.53
533.171	2258.56
533.376	2230.47
533.581	2186.68
533.787	2262.43
533.992	2279.87
534.197	2329.08
534.402	2288.78
534.607	2362.02
534.813	2379.46
535.018	2318.43
535.223	2320.75
535.428	2341.29
535.633	2379.85
535.838	2339.74
536.043	2384.3
536.249	2497.06
536.454	2442.23
536.659	2416.27
536.864	2376.75
537.069	2380.23
537.274	2387.01
537.479	2347.88
537.684	2357.56
537.889	2291.11
538.094	2417.82
538.299	2376.36
538.504	2381.98
538.708	2448.63
538.913	2425.18
539.118	2415.88
539.323	2459.28
539.528	2360.66
539.733	2380.81
539.938	2381.59
540.142	2376.94
540.347	2372.87
540.552	2322.88
540.757	2332.38
540.962	2290.53
541.166	2221.17
541.371	2252.17
541.576	2320.17
541.781	2219.23
541.985	2383.91
542.19	2328.89
542.395	2443.59
542.599	2418.79
542.804	2429.64
543.008	2465.68
543.213	2359.11
543.418	2325.21
543.622	2390.11
543.827	2310.68
544.031	2390.89
544.236	2450.95
544.44	2439.71
544.645	2468.19
544.849	2424.6
545.054	2445.14
545.258	2523.99
545.463	2461.41
545.667	2385.85
545.872	2450.37
546.076	2428.86
546.281	2440.68
546.485	2406.97
546.689	2469.55
546.894	2465.87
547.098	2446.88
547.302	2422.47
547.507	2434.87
547.711	2463.93
547.915	2489.31
548.119	2422.86
548.324	2388.76
548.528	2500.94
548.732	2412.01
548.936	2458.51
549.141	2512.56
549.345	2415.88
549.549	2458.12
549.753	2477.49
549.957	2557.71
550.161	2564.29
550.366	2472.46
550.57	2424.02
550.774	2440.88
550.978	2439.91
551.182	2485.24
551.386	2427.51
551.59	2453.08
551.794	2426.54
551.998	2482.92
552.202	2461.22
552.406	2401.35
552.61	2470.52
552.814	2478.66
553.018	2492.99
553.222	2445.72
553.426	2449.21
553.63	2529.81
553.833	2431.38
554.037	2374.81
554.241	2474.2
554.445	2481.37
554.649	2464.71
554.853	2417.82
555.056	2503.07
555.26	2492.8
555.464	2470.91
555.668	2474.01
555.871	2500.94
556.075	2539.49
556.279	2414.53
556.483	2413.17
556.686	2437.97
556.89	2393.8
557.094	2482.14
557.297	2352.72
557.501	2429.25
557.704	2332.96
557.908	2432.16
558.112	2349.23
558.315	2489.12
558.519	2344.97
558.722	2318.43
558.926	2363.57
559.129	2300.8
559.333	2270.77
559.536	2284.91
559.74	2224.65
559.943	2245.77
560.147	2202.37
560.35	2255.46
560.553	2306.22
560.757	2266.89
560.96	2338.19
561.164	2284.13
561.367	2363.76
561.57	2269.41
561.774	2314.75
561.977	2261.08
562.18	2294.6
562.384	2374.03
562.587	2268.44
562.79	2277.55
562.993	2248.1
563.197	2319.98
563.4	2348.46
563.603	2319.78
563.806	2375.58
564.009	2269.41
564.212	2317.65
564.416	2255.65
564.619	2269.02
564.822	2196.37
565.025	2290.33
565.228	2261.47
565.431	2265.34
565.634	2136.11
565.837	2195.4
566.04	2185.13
566.243	2172.92
566.446	2064.43
566.649	2226.01
566.852	2122.94
567.055	2157.81
567.258	2208.19
567.461	2250.03
567.664	2249.65
567.867	2154.32
568.07	2191.91
568.273	2202.18
568.475	2236.86
568.678	2192.49
568.881	2142.12
569.084	2151.61
569.287	2053.58
569.489	2092.91
569.692	2151.03
569.895	2178.35
570.098	2096.2
570.3	2098.72
570.503	2012.89
570.706	2074.5
570.909	2045.05
571.111	2004.94
571.314	2004.75
571.516	2027.23
571.719	2055.51
571.922	2014.44
572.124	2002.04
572.327	2028
572.529	1945.85
572.732	2032.46
572.935	2040.79
573.137	2097.17
573.34	2005.91
573.542	2094.65
573.745	2097.56
573.947	2063.65
574.15	2017.34
574.352	1997.78
574.554	2140.57
574.757	2034.2
574.959	2005.14
575.162	2017.15
575.364	1982.86
575.566	2040.98
575.769	1955.54
575.971	1987.31
576.173	1862.73
576.376	1977.63
576.578	2021.8
576.78	2034.98
576.982	1890.44
577.185	1942.56
577.387	1933.06
577.589	1976.27
577.791	2013.47
577.993	1975.69
578.196	1994.68
578.398	1978.4
578.6	1949.53
578.802	1880.95
579.004	1844.13
579.206	1896.83
579.408	1942.36
579.61	1875.52
579.812	1981.7
580.014	1891.02
580.216	1885.02
580.418	1900.71
580.62	1876.1
580.822	1855.57
581.024	1895.87
581.226	1940.23
581.428	1907.88
581.63	1942.56
581.832	1857.5
582.034	1934.42
582.236	1896.64
582.438	1921.83
582.64	1938.3
582.841	1942.95
583.043	1964.26
583.245	1909.23
583.447	1911.56
583.649	1910.59
583.85	1906.52
584.052	1960.96
584.254	1833.09
584.456	1915.82
584.657	1846.07
584.859	1872.62
585.061	1875.13
585.262	1865.64
585.464	1805
585.666	1883.66
585.867	1804.03
586.069	1930.55
586.27	1859.63
586.472	1844.13
586.674	1796.09
586.875	1823.4
587.077	1812.94
587.278	1843.36
587.48	1812.75
587.681	1927.64
587.883	1843.17
588.084	1749.59
588.285	1825.73
588.487	1803.45
588.688	1827.67
588.89	1741.64
589.091	1711.22
589.292	1721.88
589.494	1644.77
589.695	1607.38
589.896	1582.96
590.098	1525.03
590.299	1597.11
590.5	1589.36
590.702	1569.21
590.903	1632.56
591.104	1699.02
591.305	1711.22
591.507	1726.72
591.708	1707.93
591.909	1717.81
592.11	1759.85
592.311	1722.46
592.512	1734.28
592.714	1643.22
592.915	1701.92
593.116	1650
593.317	1678.87
593.518	1712.97
593.719	1732.34
593.92	1746.29
594.121	1766.83
594.322	1711.61
594.523	1707.54
594.724	1641.09
594.925	1692.62
595.126	1693.98
595.327	1675.96
595.528	1708.71
595.729	1676.35
595.929	1650.19
596.13	1738.15
596.331	1719.56
596.532	1709.67
596.733	1765.09
596.934	1739.12
597.135	1732.34
597.335	1711.03
597.536	1709.67
597.737	1692.82
597.938	1677.12
598.138	1702.31
598.339	1678.87
598.54	1689.33
598.74	1661.62
598.941	1699.02
599.142	1748.04
599.342	1732.34
599.543	1637.41
599.744	1664.92
599.944	1631.01
600.145	1645.35
600.345	1687.59
600.546	1754.04
600.746	1700.37
600.947	1708.9
601.147	1678.67
601.348	1729.82
601.548	1662.4
601.749	1700.76
601.949	1610.67
602.15	1613.38
602.35	1634.11
602.551	1714.52
602.751	1592.84
602.951	1598.85
603.152	1557.19
603.352	1688.56
603.552	1611.64
603.753	1679.06
603.953	1681.97
604.153	1662.4
604.354	1641.47
604.554	1671.7
604.754	1683.32
604.954	1605.05
605.155	1699.41
605.355	1630.82
605.555	1702.31
605.755	1735.05
605.955	1669.18
606.155	1671.51
606.356	1688.75
606.556	1672.47
606.756	1671.89
606.956	1592.07
607.156	1711.81
607.356	1628.49
607.556	1671.89
607.756	1653.29
607.956	1700.57
608.156	1626.36
608.356	1611.06
608.556	1674.99
608.756	1618.03
608.956	1609.31
609.156	1652.91
609.356	1616.09
609.556	1607.38
609.755	1627.14
609.955	1626.94
610.155	1642.83
610.355	1624.23
610.555	1617.45
610.755	1605.83
610.954	1529.1
611.154	1608.73
611.354	1629.46
611.554	1595.75
611.753	1587.03
611.953	1553.71
612.153	1618.81
612.352	1592.46
612.552	1526.78
612.752	1484.35
612.951	1591.68
613.151	1548.09
613.351	1550.03
613.55	1537.82
613.75	1609.89
613.949	1562.23
614.149	1562.43
614.348	1537.43
614.548	1527.16
614.747	1453.15
614.947	1510.11
615.146	1476.01
615.346	1589.16
615.545	1544.21
615.745	1515.73
615.944	1545.57
616.144	1541.7
616.343	1541.89
616.542	1531.04
616.742	1470.01
616.941	1485.31
617.14	1392.12
617.34	1489
617.539	1494.03
617.738	1459.35
617.938	1565.72
618.137	1482.99
618.336	1475.24
618.535	1516.31
618.734	1467.68
618.934	1518.25
619.133	1486.67
619.332	1494.23
619.531	1471.17
619.73	1478.92
619.929	1511.08
620.128	1495
620.328	1568.63
620.527	1462.45
620.726	1445.79
620.925	1498.88
621.124	1436.68
621.323	1497.13
621.522	1411.69
621.721	1429.32
621.92	1409.37
622.119	1490.35
622.318	1423.12
622.517	1457.42
622.715	1457.61
622.914	1406.27
623.113	1442.69
623.312	1368.87
623.511	1462.45
623.71	1418.28
623.909	1426.03
624.107	1492.48
624.306	1400.07
624.505	1382.63
624.704	1394.25
624.902	1407.04
625.101	1486.28
625.3	1390.96
625.499	1329.93
625.697	1396.58
625.896	1338.26
626.095	1410.33
626.293	1298.15
626.492	1328.96
626.69	1399.87
626.889	1358.8
627.088	1424.09
627.286	1372.17
627.485	1365.39
627.683	1346.01
627.882	1408.78
628.08	1292.92
628.279	1327.99
628.477	1394.25
628.676	1314.24
628.874	1369.65
629.073	1293.5
629.271	1302.61
629.469	1350.85
629.668	1303.58
629.866	1296.8
630.065	1295.83
630.263	1363.06
630.461	1285.37
630.66	1339.42
630.858	1334
631.056	1337.87
631.254	1373.33
631.453	1320.24
631.651	1352.4
631.849	1321.21
632.047	1305.13
632.245	1317.92
632.444	1315.79
632.642	1344.65
632.84	1355.12
633.038	1293.7
633.236	1276.84
633.434	1275.49
633.632	1280.14
633.83	1296.22
634.028	1350.66
634.227	1309.59
634.425	1384.76
634.623	1314.43
634.821	1345.82
635.019	1300.09
635.216	1313.07
635.414	1364.03
635.612	1302.03
635.81	1326.05
636.008	1376.04
636.206	1317.92
636.404	1282.07
636.602	1292.15
636.8	1294.47
636.997	1334
637.195	1349.11
637.393	1306.1
637.591	1379.33
637.789	1332.64
637.986	1285.17
638.184	1342.91
638.382	1356.47
638.58	1387.08
638.777	1369.45
638.975	1337.29
639.173	1336.52
639.37	1336.13
639.568	1336.52
639.765	1396.77
639.963	1306.1
640.161	1340.78
640.358	1356.47
640.556	1293.7
640.753	1274.52
640.951	1261.34
641.148	1289.24
641.346	1254.95
641.543	1269.29
641.741	1286.34
641.938	1255.34
642.136	1257.86
642.333	1220.46
642.531	1326.64
642.728	1317.92
642.925	1290.99
643.123	1259.41
643.32	1280.72
643.517	1269.87
643.715	1284.79
643.912	1270.45
644.109	1274.91
644.306	1249.72
644.504	1214.26
644.701	1262.31
644.898	1298.74
645.095	1234.8
645.293	1235.38
645.49	1276.07
645.687	1246.23
645.884	1284.21
646.081	1148.97
646.278	1219.69
646.475	1240.81
646.672	1209.22
646.87	1240.22
647.067	1211.55
647.264	1246.42
647.461	1178.42
647.658	1161.18
647.855	1202.06
648.052	1188.49
648.249	1105.96
648.446	1163.5
648.642	1139.28
648.839	1143.74
649.036	1149.36
649.233	1139.67
649.43	1106.54
649.627	1083.1
649.824	1121.46
650.021	1123.39
650.217	1119.71
650.414	1118.94
650.611	1137.73
650.808	1146.06
651.004	1148.19
651.201	1200.7
651.398	1187.72
651.595	1156.91
651.791	1137.73
651.988	1183.65
652.185	1107.12
652.381	1186.36
652.578	1088.13
652.775	1120.68
652.971	1156.91
653.168	1097.82
653.364	1153.23
653.561	1054.23
653.757	1097.63
653.954	1121.26
654.15	1108.86
654.347	1151.29
654.543	1102.08
654.74	1035.43
654.936	1109.64
655.133	1103.05
655.329	1092.4
655.525	1099.37
655.722	1152.07
655.918	1062.56
656.115	1079.61
656.311	944.37
656.507	929.26
656.704	924.61
656.9	937.79
657.096	940.3
657.292	934.49
657.489	1034.46
657.685	977.89
657.881	979.05
658.077	999.4
658.273	1009.47
658.47	1072.83
658.666	1051.71
658.862	1109.06
659.058	1041.25
659.254	1096.27
659.45	1012.18
659.646	1058.1
659.842	1052.1
660.038	1115.26
660.234	1024
660.43	1062.75
660.626	1134.44
660.822	1117
661.018	1121.26
661.214	1075.15
661.41	1024.2
661.606	1094.33
661.802	1128.82
661.998	1084.84
662.194	1065.85
662.39	1102.08
662.586	1074.57
662.781	1121.65
662.977	1099.95
663.173	1116.61
663.369	1109.83
663.564	1084.45
663.76	1106.54
663.956	1072.63
664.152	1104.99
664.347	1036.4
664.543	1068.18
664.739	1057.91
664.934	1028.07
665.13	1008.12
665.326	1098.79
665.521	1083.68
665.717	1029.23
665.912	1015.67
666.108	971.88
666.304	1039.7
666.499	1015.28
666.695	979.05
666.89	1052.48
667.086	1024
667.281	1059.85
667.477	1089.68
667.672	1021.1
667.867	1016.64
668.063	1039.89
668.258	1036.01
668.454	1042.99
668.649	1088.33
668.844	1026.91
669.04	1061.4
669.235	1036.6
669.43	986.8
669.626	998.62
669.821	1003.27
670.016	974.21
670.211	1031.56
670.407	981.96
670.602	1031.36
670.797	1002.69
670.992	1024.2
671.187	989.13
671.382	1064.5
671.578	990.1
671.773	1003.08
671.968	973.82
672.163	973.82
672.358	1030.4
672.553	973.05
672.748	982.54
672.943	1098.01
673.138	1015.28
673.333	1019.93
673.528	987.77
673.723	1030.01
673.918	1023.62
674.113	923.64
674.308	1078.45
674.503	1025.94
674.698	1030.59
674.892	1009.47
675.087	1034.27
675.282	992.62
675.477	949.6
675.672	1053.65
675.867	974.02
676.061	976.34
676.256	956.19
676.451	979.83
676.646	997.85
676.84	945.34
677.035	932.36
677.23	959.87
677.424	1011.99
677.619	999.01
677.814	1021.48
678.008	1025.94
678.203	939.33
678.397	949.02
678.592	985.64
678.787	1018.58
678.981	998.43
679.176	994.55
679.37	962.58
679.565	946.12
679.759	967.62
679.954	1036.01
680.148	1044.54
680.342	1025.17
680.537	1002.88
680.731	961.23
680.926	998.62
681.12	1024
681.314	937.01
681.509	951.54
681.703	990.29
681.897	1000.37
682.092	958.52
682.286	972.08
682.48	1027.88
682.674	1017.03
682.869	964.33
683.063	981.96
683.257	1035.05
683.451	967.82
683.645	1002.5
683.839	978.28
684.034	961.42
684.228	1016.45
684.422	927.52
684.616	925
684.81	978.08
685.004	952.32
685.198	949.02
685.392	978.08
685.586	923.84
685.78	971.5
685.974	965.49
686.168	954.83
686.362	992.23
686.556	935.27
686.75	876.75
686.944	882.95
687.138	882.95
687.331	815.34
687.525	780.46
687.719	722.53
687.913	809.33
688.107	784.72
688.301	750.24
688.494	815.92
688.688	746.56
688.882	777.56
689.076	737.26
689.269	795.77
689.463	870.55
689.657	803.52
689.85	824.64
690.044	801.58
690.238	780.85
690.431	799.26
690.625	793.64
690.818	843.43
691.012	828.12
691.205	877.14
691.399	808.94
691.593	860.29
691.786	880.44
691.98	889.54
692.173	928.87
692.366	877.14
692.56	908.34
692.753	956.97
692.947	839.75
693.14	941.27
693.333	912.4
693.527	850.02
693.72	918.6
693.914	898.45
694.107	872.3
694.3	910.08
694.493	878.89
694.687	930.81
694.88	887.41
695.073	947.86
695.266	907.17
695.46	902.14
695.653	956.97
695.846	925.19
696.039	866.49
696.232	869
696.425	967.04
696.618	930.81
696.812	935.46
697.005	989.71
697.198	1091.62
697.391	995.72
697.584	1016.64
697.777	1080.38
697.97	1016.06
698.163	1069.73
698.356	1036.98
698.549	1103.44
698.742	1068.37
698.935	1030.59
699.127	1070.7
699.32	1008.5
699.513	1034.46
699.706	1067.01
699.899	1080.38
700.092	1071.47
700.285	1078.25
700.477	1051.51
700.67	1112.74
700.863	1101.89
701.056	1203.61
701.248	1144.71
701.441	1159.63
701.634	1145.48
701.826	1216.78
702.019	1106.15
702.212	1185.01
702.404	1144.9
702.597	1134.05
702.79	1172.61
702.982	1184.62
703.175	1217.94
703.367	1242.74
703.56	1227.63
703.752	1314.24
703.945	1294.28
704.137	1307.45
704.33	1312.49
704.522	1344.85
704.715	1332.25
704.907	1367.13
705.1	1392.51
705.292	1391.54
705.484	1353.57
705.677	1400.26
705.869	1387.47
706.061	1447.92
706.254	1495.2
706.446	1430.87
706.638	1467.88
706.831	1526.97
707.023	1460.32
707.215	1613.19
707.407	1556.23
707.599	1563.39
707.792	1611.06
707.984	1574.83
708.176	1620.36
708.368	1578.89
708.56	1637.6
708.752	1631.01
708.944	1617.64
709.136	1686.23
709.329	1672.28
709.521	1781.55
709.713	1712.97
709.905	1772.64
710.097	1775.55
710.289	1728.27
710.481	1795.89
710.672	1792.79
710.864	1840.65
711.056	1886.57
711.248	1800.15
711.44	1887.73
711.632	1829.8
711.824	1862.15
712.016	1945.66
712.207	1907.49
712.399	1943.91
712.591	1991.19
712.783	1972.59
712.975	2018.12
713.166	1972.98
713.358	2004.94
713.55	2074.69
713.741	2071.79
713.933	2074.5
714.125	2076.82
714.316	2047.18
714.508	2140.57
714.7	2148.51
714.891	2147.16
715.083	2227.95
715.274	2128.75
715.466	2163.24
715.657	2225.04
715.849	2107.63
716.04	2212.45
716.232	2168.08
716.423	2201.79
716.615	2146.57
716.806	2141.34
716.998	2124.49
717.189	2046.02
717.381	1988.86
717.572	1977.82
717.763	1980.34
717.955	1979.56
718.146	1951.47
718.337	1931.32
718.528	1919.31
718.72	1861.96
718.911	1907.49
719.102	1854.4
719.293	1934.42
719.485	1924.54
719.676	1901.48
719.867	1871.65
720.058	1884.82
720.249	1878.43
720.44	1922.21
720.632	1965.23
720.823	1980.73
721.014	2139.21
721.205	2124.68
721.396	2183.19
721.587	2306.03
721.778	2349.43
721.969	2350.98
722.16	2429.44
722.351	2391.47
722.542	2555.57
722.733	2605.95
722.924	2499.97
723.115	2573.01
723.305	2554.02
723.496	2592.97
723.687	2452.31
723.878	2450.56
724.069	2460.06
724.26	2492.8
724.45	2414.14
724.641	2400.96
724.832	2469.16
725.023	2429.83
725.213	2458.89
725.404	2422.28
725.595	2456.38
725.785	2449.01
725.976	2540.66
726.167	2545.69
726.357	2535.04
726.548	2686.93
726.739	2554.99
726.929	2602.07
727.12	2655.35
727.31	2689.07
727.501	2658.07
727.691	2642.95
727.882	2690.03
728.072	2704.95
728.263	2706.5
728.453	2772.96
728.644	2805.7
728.834	2759.01
729.024	2743.32
729.215	2724.13
729.405	2738.08
729.596	2873.9
729.786	2849.3
729.976	2854.72
730.167	2910.52
730.357	2868.67
730.547	2918.08
730.737	2929.12
730.928	2964.57
731.118	3041.3
731.308	2993.06
731.498	2963.41
731.688	3056.6
731.879	3047.11
732.069	3130.62
732.259	3139.72
732.449	3137.4
732.639	3237.37
732.829	3265.66
733.019	3283.29
733.209	3385.2
733.399	3352.26
733.589	3421.82
733.779	3463.28
733.969	3416.78
734.159	3545.82
734.349	3614.98
734.539	3594.64
734.729	3611.5
734.919	3674.46
735.109	3694.42
735.299	3624.48
735.488	3695
735.678	3665.55
735.868	3667.68
736.058	3661.1
736.248	3651.41
736.437	3601.03
736.627	3625.64
736.817	3775.41
737.007	3660.9
737.196	3788.97
737.386	3716.9
737.576	3711.08
737.765	3766.49
737.955	3772.31
738.144	3876.93
738.334	3784.9
738.524	3790.13
738.713	3784.51
738.903	3802.14
739.092	3847.87
739.282	3840.12
739.471	3782.38
739.661	3834.11
739.85	3918.39
740.04	3894.76
740.229	3913.74
740.419	3952.49
740.608	3988.34
740.797	3965.67
740.987	4038.71
741.176	3993.18
741.365	3970.32
741.555	3868.99
741.744	4071.84
741.933	3949.2
742.123	3981.36
742.312	4005
742.501	4053.63
742.69	4076.68
742.88	3998.6
743.069	4091.21
743.258	4077.85
743.447	4085.79
743.636	4095.67
743.825	4128.03
744.014	4123.96
744.204	4157.67
744.393	4097.8
744.582	4192.93
744.771	4195.06
744.96	4137.13
745.149	4193.13
745.338	4114.46
745.527	4194.48
745.716	4153.41
745.905	4123.18
746.094	4214.83
746.283	4197.19
746.471	4214.44
746.66	4242.73
746.849	4257.64
747.038	4272.95
747.227	4215.02
747.416	4276.63
747.604	4165.03
747.793	4218.31
747.982	4211.73
748.171	4254.74
748.359	4220.44
748.548	4223.16
748.737	4221.22
748.926	4214.83
749.114	4126.86
749.303	4220.64
749.491	4241.37
749.68	4136.36
749.869	4213.28
750.057	4187.7
750.246	4194.68
750.434	4196.03
750.623	4205.14
750.811	4139.46
751	4233.23
751.188	4158.06
751.377	4182.28
751.565	4155.73
751.754	4128.03
751.942	4095.09
752.131	4245.44
752.319	4141.2
752.507	4084.63
752.696	4213.28
752.884	4185.76
753.072	4154.76
753.261	4187.7
753.449	4170.26
753.637	4141.2
753.825	4207.85
754.014	4139.46
754.202	4139.65
754.39	4204.75
754.578	4166.39
754.766	4112.33
754.955	4109.04
755.143	4189.83
755.331	4136.55
755.519	4157.48
755.707	4069.71
755.895	4110.2
756.083	4099.55
756.271	4090.44
756.459	4056.53
756.647	4108.85
756.835	4083.66
757.023	4048.4
757.211	4067.38
757.399	4053.82
757.587	4067.77
757.775	4013.52
757.963	4033.67
758.151	4041.23
758.339	4013.91
758.526	4021.66
758.714	4032.7
758.902	3953.65
759.09	3892.62
759.278	3728.52
759.465	3463.09
759.653	3107.95
759.841	2882.81
760.028	2523.99
760.216	2197.53
760.404	2081.28
760.591	1780.2
760.779	1556.42
760.967	1417.5
761.154	1251.85
761.342	1272
761.529	1290.6
761.717	1407.23
761.905	1387.86
762.092	1480.86
762.28	1462.07
762.467	1502.56
762.655	1449.86
762.842	1513.02
763.029	1519.03
763.217	1527.36
763.404	1574.63
763.592	1569.59
763.779	1559.52
763.966	1639.92
764.154	1637.6
764.341	1722.46
764.528	1662.4
764.716	1793.37
764.903	1823.6
765.09	1890.83
765.277	1943.33
765.465	2132.62
765.652	2174.28
765.839	2248.1
766.026	2369
766.213	2412.01
766.4	2538.91
766.588	2692.17
766.775	2732.47
766.962	2797.37
767.149	2884.17
767.336	3014.17
767.523	2949.85
767.71	3106.98
767.897	3197.85
768.084	3264.69
768.271	3300.34
768.458	3339.09
768.645	3422.98
768.832	3345.09
769.019	3443.52
769.206	3432.86
769.392	3507.84
769.579	3571.58
769.766	3531.29
769.953	3509.2
770.14	3578.37
770.327	3540.2
770.513	3611.11
770.7	3681.83
770.887	3570.62
771.073	3600.07
771.26	3655.28
771.447	3581.85
771.634	3575.85
771.82	3687.64
772.007	3557.83
772.193	3605.68
772.38	3667.49
772.567	3616.15
772.753	3630.87
772.94	3649.86
773.126	3689.77
773.313	3680.08
773.499	3646.18
773.686	3656.45
773.872	3574.49
774.059	3599.1
774.245	3573.52
774.432	3611.3
774.618	3527.22
774.804	3542.72
774.991	3483.62
775.177	3570.03
775.363	3544.07
775.55	3565.58
775.736	3489.05
775.922	3527.8
776.109	3509.78
776.295	3488.08
776.481	3536.52
776.667	3552.6
776.853	3494.67
777.04	3445.65
777.226	3503.19
777.412	3544.27
777.598	3465.41
777.784	3414.84
777.97	3421.62
778.156	3491.37
778.342	3473.74
778.528	3445.84
778.715	3410
778.901	3400.31
779.087	3435.19
779.272	3371.25
779.458	3358.46
779.644	3399.92
779.83	3377.64
780.016	3517.53
780.202	3374.54
780.388	3380.94
780.574	3264.3
780.76	3348.78
780.946	3378.03
781.131	3331.73
781.317	3342.58
781.503	3293.95
781.689	3268.76
781.874	3471.42
782.06	3322.81
782.246	3312.54
782.432	3302.86
782.617	3296.46
782.803	3391.98
782.989	3268.56
783.174	3239.89
783.36	3245.9
783.545	3255.58
783.731	3203.66
783.916	3158.52
784.102	3236.79
784.288	3168.98
784.473	3223.23
784.659	3153.48
784.844	3223.23
785.029	3164.72
785.215	3152.51
785.4	3128.87
785.586	3201.72
785.771	3113.18
785.956	3175.95
786.142	3109.69
786.327	3104.85
786.512	3101.36
786.698	3124.61
786.883	3076.95
787.068	3075.59
787.254	3101.36
787.439	3102.91
787.624	3071.33
787.809	3039.55
787.994	3041.88
788.18	3108.14
788.365	2993.44
788.55	3039.36
788.735	3037.42
788.92	2988.6
789.105	2987.82
789.29	3028.71
789.475	2962.83
789.66	2974.46
789.845	2936.87
790.03	2956.63
790.215	3001.97
790.4	2981.82
790.585	2981.04
790.77	2972.91
790.955	2844.84
791.14	2967.87
791.325	3007.97
791.51	2849.1
791.695	2918.85
791.879	2879.91
792.064	2832.25
792.249	2942.49
792.434	2954.5
792.618	2912.07
792.803	2925.24
792.988	2907.42
793.173	2882.43
793.357	2951.59
793.542	2831.08
793.727	2914.39
793.911	2968.06
794.096	2935.9
794.281	2952.56
794.465	3000.22
794.65	2890.56
794.834	2978.52
795.019	3006.23
795.203	2994.02
795.388	2936.87
795.572	3013.01
795.757	2926.79
795.941	3007.39
796.126	2942.68
796.31	2919.63
796.494	2960.51
796.679	2902.19
796.863	2875.64
797.048	3004.29
797.232	2969.03
797.416	2968.06
797.601	2919.24
797.785	3033.36
797.969	3008.94
798.153	2915.94
798.338	3010.11
798.522	3003.71
798.706	3031.61
798.89	3043.62
799.074	3131.78
799.258	3051.37
799.443	2996.16
799.627	2959.73
799.811	3082.57
799.995	2982.01
800.179	2935.71
800.363	2972.13
800.547	2990.92
800.731	3024.06
800.915	2964.38
801.099	2983.95
801.283	2996.16
801.467	2981.82
801.651	2938.42
801.835	3014.56
802.019	2946.94
802.202	2972.52
802.386	2968.84
802.57	2921.76
802.754	2951.21
802.938	2908.58
803.121	2959.73
803.305	3007.59
803.489	2972.13
803.673	3021.54
803.856	2967.87
804.04	2956.24
804.224	2975.81
804.407	2939.39
804.591	2925.05
804.775	2954.5
804.958	2918.46
805.142	3085.86
805.326	2917.69
805.509	2980.46
805.693	3004.68
805.876	2988.41
806.06	3011.07
806.243	3013.79
806.427	2984.34
806.61	3011.07
806.794	2957.6
806.977	3021.73
807.16	2992.09
807.344	2986.47
807.527	2965.74
807.71	2939.58
807.894	2971.36
808.077	2958.76
808.26	2901.41
808.444	2902.77
808.627	2993.83
808.81	2894.44
808.993	2878.16
809.177	2806.86
809.36	2880.88
809.543	2914.59
809.726	2793.11
809.909	2774.12
810.092	2834.76
810.276	2814.81
810.459	2804.35
810.642	2782.84
810.825	2721.62
811.008	2779.16
811.191	2691
811.374	2716.77
811.557	2688.48
811.74	2776.45
811.923	2662.33
812.106	2646.05
812.289	2636.56
812.472	2612.73
812.654	2675.31
812.837	2602.27
813.02	2560.61
813.203	2555.96
813.386	2401.16
813.569	2414.72
813.751	2371.13
813.934	2450.56
814.117	2361.63
814.3	2316.3
814.482	2255.85
814.665	2239.19
814.848	2206.05
815.03	2181.84
815.213	2200.44
815.396	2144.44
815.578	2121.77
815.761	2096.01
815.943	2153.74
816.126	2030.91
816.309	2045.83
816.491	1957.09
816.674	1916.6
816.856	1963.48
817.039	1935.58
817.221	2000.49
817.403	1975.3
817.586	1961.16
817.768	2028.39
817.951	1936.36
818.133	1898.97
818.315	1911.17
818.498	1951.08
818.68	2046.99
818.862	1994.87
819.045	2008.24
819.227	1981.5
819.409	1952.05
819.591	2010.95
819.774	1977.05
819.956	1899.35
820.138	1989.83
820.32	1973.95
820.502	2092.91
820.684	2100.07
820.866	2116.93
821.048	2168.47
821.231	2187.84
821.413	2156.46
821.595	2109.76
821.777	2162.07
821.959	2137.86
822.141	2207.22
822.323	2067.72
822.505	2014.05
822.686	1967.94
822.868	1912.53
823.05	1800.74
823.232	1769.15
823.414	1684.87
823.596	1757.92
823.778	1717.42
823.96	1799.77
824.141	1772.84
824.323	1810.23
824.505	1865.45
824.687	1921.63
824.868	1985.76
825.05	2024.9
825.232	2114.22
825.413	2183.77
825.595	2110.34
825.777	2026.26
825.958	2103.56
826.14	2102.21
826.321	2118.87
826.503	2064.23
826.685	2099.49
826.866	2112.67
827.048	2104.14
827.229	2068.69
827.411	2023.93
827.592	2020.44
827.773	1989.44
827.955	1946.82
828.136	1944.11
828.318	1909.23
828.499	1912.33
828.68	1860.6
828.862	1892.77
829.043	1935.2
829.224	1914.08
829.406	1841.62
829.587	1883.66
829.768	1871.07
829.949	1892.38
830.131	1857.89
830.312	1946.63
830.493	1882.11
830.674	1905.94
830.855	1876.88
831.036	1904.39
831.218	1915.05
831.399	1986.15
831.58	1898.58
831.761	1910.78
831.942	1956.7
832.123	1881.53
832.304	1831.54
832.485	1836.58
832.666	1908.46
832.847	1900.71
833.028	1896.64
833.209	1857.89
833.389	1850.14
833.57	1828.05
833.751	1859.05
833.932	1890.44
834.113	1872.42
834.294	1825.34
834.475	1894.12
834.655	1885.79
834.836	1917.95
835.017	1925.9
835.198	1825.15
835.378	1892.77
835.559	1931.13
835.74	1879.98
835.92	1872.23
836.101	1863.32
836.281	1930.16
836.462	1918.73
836.643	1953.8
836.823	1967.36
837.004	1926.09
837.184	1996.03
837.365	1943.72
837.545	1945.46
837.726	1905.55
837.906	1984.21
838.087	1931.32
838.267	1904
838.448	1850.33
838.628	1915.43
838.808	1925.31
838.989	1965.23
839.169	1882.11
839.349	1902.45
839.53	1942.56
839.71	1934.03
839.89	1908.65
840.07	1981.89
840.251	1891.41
840.431	1946.63
840.611	1889.47
840.791	1887.73
840.971	1925.31
841.151	1922.21
841.332	1842.39
841.512	1971.43
841.692	1820.5
841.872	1899.55
842.052	1888.31
842.232	1898.58
842.412	1815.46
842.592	1837.35
842.772	1872.62
842.952	1898
843.132	1853.24
843.312	1814.88
843.492	1812.75
843.672	1863.32
843.851	1786.59
844.031	1831.35
844.211	1843.94
844.391	1826.5
844.571	1820.11
844.751	1835.22
844.93	1809.45
845.11	1781.36
845.29	1848.59
845.47	1859.05
845.649	1803.45
845.829	1848.4
846.009	1789.5
846.188	1850.72
846.368	1816.82
846.547	1852.27
846.727	1855.95
846.907	1769.15
847.086	1831.15
847.266	1834.64
847.445	1820.69
847.625	1806.35
847.804	1798.22
847.984	1784.27
848.163	1769.93
848.343	1784.27
848.522	1783.88
848.701	1794.92
848.881	1699.41
849.06	1745.52
849.239	1792.6
849.419	1763.34
849.598	1687.78
849.777	1722.07
849.957	1667.05
850.136	1612.99
850.315	1623.65
850.494	1578.51
850.674	1636.44
850.853	1688.56
851.032	1641.86
851.211	1693.98
851.39	1656.39
851.569	1600.21
851.748	1592.84
851.927	1703.67
852.107	1638.96
852.286	1598.27
852.465	1618.42
852.644	1648.45
852.823	1643.22
853.002	1656.78
853.181	1652.13
853.359	1685.84
853.538	1584.71
853.717	1623.46
853.896	1546.15
854.075	1479.31
854.254	1463.81
854.433	1371.78
854.611	1428.35
854.79	1366.35
854.969	1405.49
855.148	1447.73
855.327	1396.38
855.505	1460.9
855.684	1452.57
855.863	1490.93
856.041	1491.32
856.22	1530.07
856.399	1490.55
856.577	1572.5
856.756	1580.44
856.934	1668.41
857.113	1694.95
857.291	1548.67
857.47	1539.37
857.648	1568.43
857.827	1588.39
858.005	1591.29
858.184	1539.76
858.362	1617.64
858.541	1587.23
858.719	1556.23
858.898	1508.37
859.076	1521.93
859.254	1616.68
859.433	1536.27
859.611	1529.1
859.789	1447.92
859.967	1579.86
860.146	1611.44
860.324	1494.03
860.502	1507.4
860.68	1448.7
860.859	1482.41
861.037	1509.92
861.215	1527.75
861.393	1512.63
861.571	1507.4
861.749	1491.51
861.927	1537.82
862.105	1487.45
862.283	1458.19
862.461	1438.82
862.639	1436.88
862.817	1461.1
862.995	1473.3
863.173	1452.18
863.351	1487.06
863.529	1472.14
863.707	1523.68
863.885	1472.53
864.063	1380.3
864.241	1429.71
864.418	1515.35
864.596	1425.45
864.774	1380.5
864.952	1416.34
865.129	1458.77
865.307	1376.62
865.485	1382.63
865.663	1410.53
865.84	1359.57
866.018	1364.8
866.196	1228.21
866.373	1255.53
866.551	1207.09
866.728	1153.62
866.906	1201.47
867.084	1258.24
867.261	1304.16
867.439	1300.67
867.616	1352.79
867.794	1300.48
867.971	1321.99
868.149	1310.55
868.326	1374.88
868.503	1392.32
868.681	1326.25
868.858	1315.2
869.035	1283.24
869.213	1363.84
869.39	1265.02
869.567	1389.6
869.745	1290.6
869.922	1325.09
870.099	1350.47
870.276	1343.49
870.454	1304.16
870.631	1319.08
870.808	1320.63
870.985	1351.05
871.162	1377.59
871.339	1346.4
871.517	1282.07
871.694	1262.89
871.871	1333.22
872.048	1276.65
872.225	1270.45
872.402	1292.34
872.579	1257.08
872.756	1303.77
872.933	1212.13
873.11	1282.07
873.287	1279.17
873.463	1222.59
873.64	1248.75
873.817	1294.86
873.994	1261.54
874.171	1241.58
874.348	1258.05
874.524	1148.78
874.701	1254.56
874.878	1181.33
875.055	1253.79
875.231	1231.12
875.408	1253.79
875.585	1200.7
875.762	1203.02
875.938	1195.28
876.115	1221.82
876.291	1186.94
876.468	1193.53
876.645	1195.28
876.821	1166.99
876.998	1170.28
877.174	1237.71
877.351	1185.98
877.527	1165.83
877.704	1193.53
877.88	1161.76
878.057	1146.64
878.233	1192.18
878.409	1144.13
878.586	1181.52
878.762	1150.71
878.938	1160.01
879.115	1097.43
879.291	1180.16
879.467	1109.64
879.644	1124.17
879.82	1161.95
879.996	1124.94
880.172	1088.52
880.349	1134.24
880.525	1161.76
880.701	1098.21
880.877	1114.68
881.053	1099.76
881.229	1115.45
881.405	1143.93
881.581	1091.04
881.757	1101.7
881.933	1119.52
882.109	1162.53
882.285	1096.66
882.461	1037.18
882.637	1135.99
882.813	1117
882.989	1085.23
883.165	1155.36
883.341	1061.59
883.517	1125.91
883.693	1112.35
883.869	1142.77
884.044	1102.66
884.22	1121.07
884.396	1173.58
884.572	1116.61
884.747	1150.91
884.923	1135.21
885.099	1148.19
885.275	1208.26
885.45	1111.77
885.626	1087.75
885.801	1089.88
885.977	1133.47
886.153	1041.05
886.328	1107.12
886.504	1071.86
886.679	1144.32
886.855	1084.06
887.03	1109.25
887.206	1128.24
887.381	1111.58
887.557	1109.64
887.732	1136.96
887.908	1113.13
888.083	1130.37
888.258	1106.73
888.434	1096.46
888.609	1112.35
888.784	1178.23
888.96	1076.51
889.135	1070.89
889.31	1073.8
889.485	1082.51
889.661	1097.05
889.836	1140.25
890.011	1112.16
890.186	1086.97
890.361	1068.56
890.537	1109.45
890.712	1122.62
890.887	1115.26
891.062	1105.18
891.237	1156.53
891.412	1086.39
891.587	1103.63
891.762	1121.65
891.937	1156.72
892.112	1068.95
892.287	1092.98
892.462	1073.8
892.637	1028.85
892.812	1042.02
892.987	1039.11
893.161	1020.71
893.336	1035.43
893.511	1034.27
893.686	1063.33
893.861	1010.63
894.035	1027.88
894.21	988.74
894.385	984.87
894.56	1024.78
894.734	962.97
894.909	929.45
895.084	964.52
895.258	942.43
895.433	971.3
895.608	964.72
895.782	887.8
895.957	895.16
896.131	896.52
896.306	822.89
896.48	832
896.655	847.11
896.829	783.95
897.004	796.93
897.178	801.19
897.353	807.2
897.527	849.24
897.701	799.64
897.876	746.36
898.05	837.42
898.224	838.59
898.399	856.99
898.573	818.44
898.747	688.82
898.921	750.63
899.096	673.71
899.27	673.32
899.444	662.28
899.618	693.86
899.792	720.79
899.967	696.18
900.141	740.94
900.315	686.11
900.489	708.78
900.663	718.46
900.837	701.03
901.011	648.33
901.185	765.54
901.359	720.59
901.533	708.97
901.707	722.14
901.881	720.79
902.055	646.39
902.229	709.16
902.403	775.23
902.576	713.43
902.75	751.79
902.924	818.44
903.098	776.78
903.272	789.57
903.446	819.79
903.619	781.62
903.793	852.54
903.967	804.87
904.14	851.37
904.314	841.69
904.488	842.66
904.661	859.12
904.835	805.07
905.009	901.36
905.182	938.56
905.356	876.95
905.529	808.17
905.703	795.19
905.876	844.79
906.05	794.02
906.223	762.25
906.397	736.87
906.57	714.39
906.744	705.29
906.917	700.64
907.09	705.29
907.264	708
907.437	657.24
907.61	644.45
907.784	659.56
907.957	676.42
908.13	660.92
908.304	687.85
908.477	631.08
908.65	617.71
908.823	591.36
908.996	683.01
909.17	608.03
909.343	623.14
909.516	606.28
909.689	626.43
909.862	627.4
910.035	616.75
910.208	575.09
910.381	584.39
910.554	709.74
910.727	606.86
910.9	564.63
911.073	593.5
911.246	688.82
911.419	696.57
911.592	656.27
911.765	617.71
911.938	593.69
912.11	630.31
912.283	606.67
912.456	658.4
912.629	616.36
912.802	590.01
912.974	575.67
913.147	534.98
913.32	496.24
913.493	490.23
913.665	552.03
913.838	538.47
914.01	537.5
914.183	584.97
914.356	548.16
914.528	600.86
914.701	634.96
914.873	628.76
915.046	556.49
915.218	525.1
915.391	451.67
915.563	483.64
915.736	504.57
915.908	533.82
916.081	537.5
916.253	516.77
916.425	530.33
916.598	562.11
916.77	554.55
916.942	529.17
917.115	461.36
917.287	556.1
917.459	493.91
917.632	475.31
917.804	414.47
917.976	538.08
918.148	521.42
918.32	497.98
918.493	563.27
918.665	586.91
918.837	544.09
919.009	578.58
919.181	578
919.353	551.65
919.525	543.51
919.697	550.87
919.869	537.31
920.041	595.63
920.213	668.28
920.385	585.55
920.557	568.89
920.729	602.02
920.901	574.9
921.073	549.32
921.244	519.1
921.416	611.71
921.588	542.93
921.76	503.98
921.932	591.56
922.103	568.89
922.275	541.18
922.447	572.18
922.619	505.92
922.79	544.09
922.962	548.55
923.134	577.03
923.305	508.05
923.477	480.74
923.648	478.02
923.82	497.59
923.991	459.04
924.163	447.22
924.335	495.46
924.506	462.14
924.677	546.03
924.849	451.48
925.02	494.3
925.192	493.91
925.363	483.64
925.535	484.22
925.706	437.72
925.877	529.17
926.049	450.12
926.22	508.63
926.391	530.92
926.562	526.65
926.734	454.77
926.905	517.74
927.076	428.81
927.247	442.76
927.419	425.13
927.59	381.92
927.761	407.11
927.932	410.41
928.103	421.25
928.274	371.85
928.445	376.5
928.616	361.97
928.787	366.04
928.958	381.73
929.129	380.76
929.3	350.15
929.471	323.8
929.642	271.68
929.813	253.66
929.984	342.01
930.155	221.7
930.326	307.33
930.496	248.24
930.667	200.96
930.838	249.59
931.009	185.85
931.18	224.21
931.35	237
931.521	221.5
931.692	171.9
931.863	142.26
932.033	192.05
932.204	174.42
932.374	183.14
932.545	138.58
932.716	196.9
932.886	195.35
933.057	98.28
933.227	135.67
933.398	199.22
933.568	105.64
933.739	63.4
933.909	86.65
934.08	148.46
934.25	46.35
934.421	74.45
934.591	86.65
934.761	76.58
934.932	49.45
935.102	105.06
935.272	90.92
935.443	77.74
935.613	95.76
935.783	94.79
935.953	68.25
936.123	236.03
936.294	71.54
936.464	85.88
936.634	75.61
936.804	57.59
936.974	40.54
937.144	69.99
937.314	77.74
937.484	65.53
937.655	43.45
937.825	134.9
937.995	52.55
938.165	126.37
938.334	59.34
938.504	125.4
938.674	58.17
938.844	107.38
939.014	168.03
939.184	174.61
939.354	192.83
939.524	195.54
939.694	138.77
939.863	165.31
940.033	203.68
940.203	183.72
940.373	197.09
940.542	201.74
940.712	135.48
940.882	165.12
941.051	168.41
941.221	166.67
941.391	158.92
941.56	132.18
941.73	129.86
941.899	228.09
942.069	138.97
942.238	188.18
942.408	111.45
942.577	190.89
942.747	155.63
942.916	77.16
943.086	107.38
943.255	154.08
943.425	137.61
943.594	121.53
943.763	57.98
943.933	80.07
944.102	17.29
944.271	106.42
944.441	100.8
944.61	76
944.779	104.09
944.948	195.73
945.117	60.3
945.287	98.08
945.456	39.38
945.625	81.42
945.794	109.71
945.963	88.78
946.132	119.2
946.301	62.24
946.47	132.77
946.639	53.14
946.808	89.17
946.977	140.13
947.146	127.34
947.315	101.18
947.484	153.3
947.653	87.23
947.822	79.68
947.991	69.99
948.16	159.31
948.329	135.67
948.498	108.35
948.666	107.97
948.835	110.48
949.004	64.76
949.173	63.99
949.341	107
949.51	113.78
949.679	138
949.847	152.72
950.016	216.27
950.185	152.72
950.353	73.67
950.522	87.23
950.69	157.95
950.859	105.06
951.028	148.27
951.196	125.79
951.365	113.2
951.533	106.22
951.701	138.97
951.87	125.79
952.038	47.71
952.207	112.62
952.375	169
952.543	102.54
952.712	119.01
952.88	62.82
953.048	187.01
953.217	115.13
953.385	99.83
953.553	148.27
953.721	65.92
953.89	119.98
954.058	54.88
954.226	82.39
954.394	102.73
954.562	64.18
954.73	80.26
954.898	81.23
955.067	138.58
955.235	91.11
955.403	144.39
955.571	164.35
955.739	129.28
955.907	83.55
956.075	76
956.243	72.9
956.41	105.83
956.578	39.38
956.746	54.1
956.914	68.05
957.082	130.63
957.25	110.29
957.418	71.54
957.585	115.33
957.753	150.59
957.921	61.66
958.089	105.83
958.256	121.92
958.424	94.21
958.592	109.32
958.759	80.07
958.927	123.08
959.095	98.67
959.262	117.07
959.43	94.6
959.597	88.2
959.765	101.77
959.932	81.03
960.1	117.46
960.267	129.86
960.435	91.5
960.602	153.5
960.77	71.35
960.937	63.4
961.104	92.47
961.272	61.66
961.439	98.67
961.606	127.92
961.774	121.72
961.941	130.05
962.108	142.45
962.275	92.85
962.443	119.98
962.61	130.25
962.777	198.83
962.944	136.06
963.111	108.16
963.278	121.14
963.446	113.2
963.613	106.03
963.78	124.05
963.947	141.48
964.114	119.59
964.281	199.03
964.448	149.82
964.615	88.78
964.782	131.02
964.949	151.37
965.116	137.42
965.282	174.42
965.449	96.73
965.616	95.95
965.783	134.9
965.95	127.15
966.117	68.44
966.283	128.31
966.45	125.21
966.617	118.23
966.784	155.63
966.95	156.6
967.117	141.29
967.284	72.51
967.45	65.15
967.617	170.74
967.784	143.62
967.95	187.21
968.117	119.78
968.283	150.4
968.45	217.43
968.616	155.24
968.783	187.21
968.949	138.19
969.116	186.24
969.282	156.01
969.449	155.63
969.615	126.76
969.781	92.47
969.948	106.03
970.114	85.49
970.28	199.22
970.447	113.2
970.613	170.74
970.779	141.48
970.945	143.81
971.112	113.39
971.278	120.75
971.444	141.87
971.61	172.68
971.776	113.58
971.942	147.3
972.108	138.19
972.275	139.55
972.441	115.72
972.607	202.32
972.773	113
972.939	150.01
973.105	124.63
973.271	96.53
973.437	128.5
973.602	89.75
973.768	150.01
973.934	114.36
974.1	126.76
974.266	71.93
974.432	134.7
974.598	104.87
974.763	155.24
974.929	92.66
975.095	181.98
975.261	76.58
975.426	83.36
975.592	113.39
975.758	174.23
975.923	69.22
976.089	67.08
976.255	151.56
976.42	141.1
976.586	141.1
976.751	133.35
976.917	210.85
977.082	149.23
977.248	69.99
977.413	41.32
977.579	109.32
977.744	129.86
977.91	81.42
978.075	95.76
978.24	151.17
978.406	113.39
978.571	108.55
978.736	88.59
978.902	107.58
979.067	75.42
979.232	42.48
979.397	111.07
979.563	160.47
979.728	59.72
979.893	112.42
980.058	77.93
980.223	166.09
980.388	150.2
980.554	112.62
980.719	91.3
980.884	118.23
981.049	125.6
981.214	89.75
981.379	122.88
981.544	81.03
981.709	113
981.874	94.4
982.039	108.16
982.204	139.74
982.368	114.75
982.533	99.44
982.698	146.52
982.863	128.5
983.028	106.42
983.193	118.23
983.357	110.87
983.522	110.87
983.687	114.55
983.852	80.65
984.016	108.93
984.181	106.61
984.346	128.12
984.51	137.61
984.675	124.43
984.839	131.22
985.004	122.69
985.168	164.93
985.333	140.52
985.498	81.03
985.662	118.04
985.827	137.42
985.991	129.47
986.155	91.11
986.32	120.95
986.484	177.91
986.649	108.74
986.813	51.39
986.977	80.65
987.142	94.98
987.306	82.58
987.47	60.69
987.634	113.78
987.799	118.23
987.963	105.83
988.127	130.05
988.291	181.59
988.455	110.29
988.62	92.66
988.784	126.76
988.948	104.87
989.112	78.32
989.276	126.18
989.44	96.73
989.604	79.29
989.768	99.63
989.932	200.38
990.096	82.39
990.26	66.31
990.424	43.06
990.588	63.79
990.752	143.42
990.915	144.58
991.079	103.51
991.243	88.4
991.407	126.57
991.571	80.26
991.734	112.62
991.898	127.53
992.062	175.97
992.226	80.65
992.389	65.54
992.553	25.82
992.717	66.12
992.88	43.84
993.044	99.44
993.207	70.57
993.371	110.48
993.535	84.91
993.698	102.93
993.862	115.72
994.025	130.83
994.189	91.3
994.352	112.23
994.515	90.53
994.679	144.58
994.842	72.7
995.006	111.26
995.169	61.47
995.332	78.71
995.496	111.65
995.659	45.58
995.822	77.16
995.985	100.22
996.149	147.68
996.312	66.7
996.475	148.65
996.638	69.6
996.801	128.31
996.964	131.99
997.128	70.57
997.291	72.12
997.454	80.26
997.617	58.17
997.78	121.53
997.943	69.99
998.106	103.7
998.269	60.11
998.432	62.24
998.595	97.7
998.758	24.07
998.92	39.96
999.083	24.27
999.246	78.52
999.409	33.95
999.572	19.42
999.735	46.55
999.897	109.52
1000.06	37.83
1000.223	68.63
1000.386	103.32
1000.548	105.25
1000.711	89.95
1000.874	95.95
1001.036	22.52
1001.199	89.37
1001.361	45
1001.524	54.3
1001.687	103.9
1001.849	67.86
1002.012	95.18
1002.174	86.07
1002.337	83.55
1002.499	57.01
1002.661	93.82
1002.824	45.39
1002.986	65.53
1003.149	83.75
1003.311	48.49
1003.473	114.17
1003.636	41.9
1003.798	77.74
1003.96	59.92
1004.123	77.35
1004.285	49.45
1004.447	73.87
1004.609	57.01
1004.771	116.3
1004.933	12.45
1005.096	39.38
1005.258	31.44
1005.42	34.73
1005.582	113.58
1005.744	53.72
1005.906	38.41
1006.068	77.55
1006.23	30.08
1006.392	-14.68
1006.554	42.48
1006.716	94.02
1006.878	92.08
1007.04	32.21
1007.202	42.09
1007.363	68.25
1007.525	83.55
1007.687	70.18
1007.849	92.85
1008.011	11.48
1008.172	15.55
1008.334	34.92
1008.496	70.57
1008.658	15.55
1008.819	32.02
1008.981	15.55
1009.143	55.46
1009.304	48.87
1009.466	80.65
1009.627	104.48
1009.789	143.62
1009.95	55.65
1010.112	16.32
1010.273	78.13
1010.435	-18.16
1010.596	10.51
1010.758	38.99
1010.919	30.27
1011.081	16.71
1011.242	64.37
1011.403	62.82
1011.565	35.12
1011.726	77.74
1011.887	20.59
1012.049	31.05
1012.21	79.68
1012.371	114.36
1012.532	-33.47
1012.693	37.83
1012.855	7.8
1013.016	64.95
1013.177	44.22
1013.338	24.85
1013.499	131.8
1013.66	51.59
1013.821	69.99
1013.982	25.24
1014.143	76.58
1014.304	22.33
1014.465	85.49
1014.626	80.07
1014.787	33.37
1014.948	126.95
1015.109	-29.01
1015.27	79.87
1015.431	-2.08
1015.592	26.01
1015.752	99.83
1015.913	54.1
1016.074	62.44
1016.235	35.89
1016.395	32.4
1016.556	52.17
1016.717	25.24
1016.877	101.38
1017.038	-10.03
1017.199	49.45
1017.359	41.9
1017.52	48.29
1017.681	27.95
1017.841	22.33
1018.002	37.64
1018.162	10.32
1018.323	103.51
1018.483	35.89
1018.644	24.85
1018.804	-3.25
1018.964	3.73
1019.125	16.52
1019.285	55.07
1019.446	1.4
1019.606	-1.31
1019.766	-48.97
1019.926	64.18
1020.087	55.07
1020.247	0.82
1020.407	47.52
1020.567	71.73
1020.728	22.14
1020.888	-39.86
1021.048	9.35
1021.208	5.86
1021.368	8.96
1021.528	82.2
1021.688	48.87
1021.848	63.6
1022.008	52.75
1022.168	18.26
1022.328	38.8
1022.488	65.73
1022.648	22.91
1022.808	35.7
1022.968	28.14
1023.128	13.8
1023.288	12.06
1023.448	31.63
1023.608	61.66
1023.767	36.47
1023.927	15.74
1024.087	-0.92
1024.247	-7.12
1024.406	14.39
1024.566	-16.81
1024.726	-16.03
1024.885	25.82
1025.045	54.1
1025.205	31.63
1025.364	19.62
1025.524	22.72
1025.683	28.92
1025.843	54.49
1026.003	17.1
1026.162	80.84
1026.321	83.17
1026.481	38.99
1026.64	24.85
1026.8	18.45
1026.959	30.85
1027.119	47.32
1027.278	-14.87
1027.437	5.67
1027.597	44.61
1027.756	38.41
1027.915	38.8
1028.074	44.03
1028.234	-7.12
1028.393	34.15
1028.552	-1.7
1028.711	-47.03
1028.87	76.19
1029.03	-12.93
1029.189	19.62
1029.348	-39.67
1029.507	7.41
1029.666	9.93
1029.825	-16.81
1029.984	-8.09
1030.143	33.76
1030.302	5.28
1030.461	-44.32
1030.62	35.89
1030.779	56.43
1030.938	-15.26
1031.097	-35.02
1031.255	67.86
1031.414	65.15
1031.573	76.38
1031.732	-40.25
1031.891	1.02
1032.049	77.35
1032.208	51.78
1032.367	21.36
1032.525	5.67
1032.684	23.1
1032.843	11.87
1033.001	-20.49
1033.16	146.72
1033.319	63.79
1033.477	40.15
1033.636	-0.73
1033.794	-21.46
1033.953	45
1034.111	43.06
1034.27	13.42
1034.428	18.45
1034.587	-0.15
1034.745	23.69
1034.903	15.16
1035.062	37.64
1035.22	-20.3
1035.378	27.95
1035.537	-7.7
1035.695	12.84
1035.853	28.72
1036.011	41.32
1036.17	44.42
1036.328	-56.91
1036.486	40.35
1036.644	15.35
1036.802	-67.57
1036.96	-35.6
1037.119	-4.99
1037.277	3.73
1037.435	23.3
1037.593	-29.21
1037.751	25.43
1037.909	31.44
1038.067	31.44
