Data from gum_old_FLMT105791__173__15-48-00-249.txt Node

Date: Mon Mar 20 15:48:00 GMT 2023
User: antho
Spectrometer: FLMT10579
Trigger mode: 0
Integration Time (sec): 1.000000E-1
Scans to average: 10
Electric dark correction enabled: true
Nonlinearity correction enabled: false
Boxcar width: 0
XAxis mode: Wavelengths
Number of Pixels in Spectrum: 3648
>>>>>Begin Spectral Data<<<<<
345.248	-170.76
345.464	-170.76
345.681	-170.76
345.898	-189.16
346.114	-184.9
346.331	-58.38
346.548	17.57
346.764	3.42
346.981	-9.36
347.197	3.23
347.414	30.93
347.631	-36.1
347.847	74.14
348.064	6.91
348.28	31.71
348.497	-42.5
348.713	-21.57
348.93	8.46
349.146	51.86
349.363	-15.37
349.579	36.94
349.796	8.85
350.012	-9.36
350.229	50.12
350.445	22.41
350.661	2.65
350.878	27.84
351.094	14.85
351.311	21.64
351.527	32.68
351.743	-10.14
351.96	49.34
352.176	65.62
352.392	35.39
352.609	41.2
352.825	37.72
353.041	-2.2
353.257	-9.95
353.474	25.9
353.69	27.25
353.906	43.72
354.122	23.77
354.339	63.1
354.555	20.28
354.771	-10.14
354.987	81.5
355.203	85.77
355.42	-7.23
355.636	-5.49
355.852	22.41
356.068	24.54
356.284	-16.34
356.5	97.58
356.716	34.81
356.932	31.52
357.148	48.76
357.364	23.77
357.58	70.27
357.796	74.14
358.012	73.37
358.228	72.4
358.444	-14.98
358.66	96.03
358.876	57.67
359.092	9.24
359.308	30.16
359.524	28.61
359.74	29.77
359.956	28.8
360.172	38.3
360.388	73.95
360.604	21.64
360.819	136.91
361.035	58.25
361.251	54.38
361.467	-4.71
361.683	63.87
361.898	77.24
362.114	60.77
362.33	45.08
362.546	61.16
362.762	41.98
362.977	47.6
363.193	-2.2
363.409	76.66
363.624	5.55
363.84	-0.45
364.056	32.29
364.271	54.77
364.487	43.14
364.703	47.21
364.918	-0.26
365.134	25.32
365.35	42.17
365.565	140.6
365.781	51.08
365.996	61.55
366.212	111.53
366.427	51.86
366.643	48.18
366.858	47.4
367.074	8.46
367.289	106.5
367.505	162.3
367.72	30.16
367.936	43.33
368.151	89.45
368.367	95.26
368.582	67.36
368.798	44.11
369.013	102.82
369.228	75.11
369.444	47.6
369.659	92.74
369.874	88.48
370.09	88.87
370.305	-20.99
370.52	17.37
370.736	110.18
370.951	55.93
371.166	89.25
371.381	134.78
371.597	85.57
371.812	55.93
372.027	25.51
372.242	58.83
372.458	154.35
372.673	23.38
372.888	37.33
373.103	67.94
373.318	131.88
373.533	64.07
373.749	56.51
373.964	-2.58
374.179	88.48
374.394	31.9
374.609	90.61
374.824	23.19
375.039	91.77
375.254	5.75
375.469	123.35
375.684	54.57
375.899	94.48
376.114	86.35
376.329	90.22
376.544	110.57
376.759	119.09
376.974	20.67
377.189	76.08
377.404	48.76
377.619	126.65
377.834	21.05
378.049	29.19
378.264	31.13
378.478	85.18
378.693	38.88
378.908	91.19
379.123	48.37
379.338	136.33
379.553	85.18
379.767	91.77
379.982	104.37
380.197	85.96
380.412	53.6
380.626	79.18
380.841	173.15
381.056	75.69
381.271	170.82
381.485	38.3
381.7	26.67
381.915	87.7
382.129	71.23
382.344	68.91
382.559	65.62
382.773	113.08
382.988	11.17
383.202	91.77
383.417	38.88
383.632	167.14
383.846	65.23
384.061	56.51
384.275	72.4
384.49	85.77
384.704	71.62
384.919	101.27
385.133	97.2
385.348	103.2
385.562	46.63
385.777	124.51
385.991	98.75
386.206	72.98
386.42	69.68
386.634	141.76
386.849	83.44
387.063	107.85
387.277	76.47
387.492	71.43
387.706	62.9
387.92	68.13
388.135	103.4
388.349	100.68
388.563	95.26
388.778	115.02
388.992	134.01
389.206	131.1
389.42	171.4
389.635	82.08
389.849	132.46
390.063	142.92
390.277	130.71
390.491	178.96
390.706	139.43
390.92	145.05
391.134	134.01
391.348	144.66
391.562	43.92
391.776	117.35
391.99	110.76
392.205	179.54
392.419	114.83
392.633	118.12
392.847	150.67
393.061	101.07
393.275	181.09
393.489	63.29
393.703	80.34
393.917	107.66
394.131	72.01
394.345	96.62
394.559	141.76
394.773	87.9
394.986	147.96
395.2	122.58
395.414	156.68
395.628	91.97
395.842	125.68
396.056	131.68
396.27	85.77
396.484	137.69
396.697	154.93
396.911	163.26
397.125	125.48
397.339	123.35
397.553	94.48
397.766	189.42
397.98	154.55
398.194	155.71
398.408	131.68
398.621	189.81
398.835	203.76
399.049	207.44
399.262	233.01
399.476	228.75
399.69	222.36
399.903	268.08
400.117	187.87
400.331	209.57
400.544	164.04
400.758	335.89
400.971	239.6
401.185	277.19
401.398	164.81
401.612	245.03
401.826	240.96
402.039	235.53
402.253	220.42
402.466	252
402.68	238.63
402.893	234.95
403.106	261.69
403.32	222.55
403.533	252.39
403.747	241.34
403.96	251.42
404.174	271.57
404.387	170.05
404.6	244.44
404.814	276.22
405.027	228.75
405.24	214.22
405.454	223.33
405.667	273.12
405.88	184.58
406.094	256.07
406.307	281.84
406.52	251.03
406.733	217.71
406.947	186.71
407.16	310.32
407.373	284.55
407.586	236.31
407.799	230.69
408.012	282.03
408.226	247.35
408.439	308.38
408.652	227.01
408.865	268.47
409.078	314.39
409.291	299.66
409.504	241.93
409.717	306.06
409.93	320.2
410.143	258.01
410.357	216.93
410.57	216.54
410.783	240.57
410.996	283.19
411.209	258.78
411.421	329.11
411.634	299.08
411.847	240.38
412.06	320.78
412.273	290.75
412.486	276.61
412.699	378.52
412.912	307.99
413.125	369.99
413.338	308.19
413.55	313.03
413.763	264.21
413.976	316.13
414.189	270.41
414.402	287.84
414.615	350.81
414.827	290.17
415.04	318.65
415.253	335.12
415.466	355.85
415.678	389.56
415.891	332.21
416.104	312.64
416.316	293.85
416.529	292.49
416.742	371.93
416.954	378.52
417.167	330.47
417.38	332.21
417.592	336.28
417.805	283.39
418.017	252.97
418.23	351.59
418.442	304.31
418.655	338.61
418.868	334.15
419.08	365.54
419.293	375.81
419.505	346.16
419.718	354.88
419.93	372.32
420.142	316.52
420.355	369.8
420.567	390.53
420.78	327.76
420.992	326.79
421.205	423.08
421.417	324.07
421.629	339.77
421.842	322.14
422.054	340.16
422.266	422.11
422.479	414.94
422.691	337.83
422.903	363.79
423.115	310.51
423.328	328.72
423.54	370.19
423.752	358.56
423.964	341.9
424.177	376
424.389	339.77
424.601	466.67
424.813	388.2
425.025	419.98
425.238	413.59
425.45	382.97
425.662	369.41
425.874	698.78
426.086	363.79
426.298	396.73
426.51	404.48
426.722	368.44
426.934	361.08
427.146	402.93
427.358	323.69
427.57	403.32
427.782	364.57
427.994	356.82
428.206	378.13
428.418	341.9
428.63	411.65
428.842	420.56
429.054	385.49
429.266	456.21
429.478	373.87
429.69	390.34
429.902	345.77
430.114	405.64
430.325	356.43
430.537	358.17
430.749	348.29
430.961	251.42
431.173	295.21
431.384	346.16
431.596	252
431.808	353.52
432.02	382.39
432.231	427.15
432.443	457.37
432.655	437.42
432.867	381.81
433.078	465.7
433.29	502.9
433.502	462.99
433.713	502.9
433.925	466.28
434.136	497.09
434.348	385.88
434.56	387.62
434.771	525.96
434.983	383.55
435.194	422.11
435.406	469
435.617	538.75
435.829	549.4
436.04	491.67
436.252	511.82
436.463	532.35
436.675	528.48
436.886	525.96
437.098	524.41
437.309	564.32
437.521	507.75
437.732	521.89
437.943	490.7
438.155	528.87
438.366	454.27
438.578	572.26
438.789	503.1
439	526.35
439.211	498.06
439.423	541.65
439.634	532.55
439.845	527.12
440.057	524.41
440.268	557.15
440.479	512.2
440.69	574.98
440.902	536.62
441.113	523.63
441.324	517.05
441.535	585.83
441.746	594.35
441.957	537.78
442.168	563.16
442.38	570.33
442.591	634.46
442.802	555.99
443.013	552.89
443.224	598.61
443.435	586.6
443.646	588.35
443.857	597.84
444.068	578.08
444.279	558.51
444.49	683.28
444.701	574.98
444.912	706.73
445.123	653.25
445.334	615.28
445.545	623.22
445.756	589.31
445.967	586.6
446.178	607.72
446.388	612.18
446.599	625.74
446.81	605.2
447.021	591.06
447.232	652.48
447.443	656.35
447.653	579.82
447.864	696.65
448.075	621.67
448.286	678.44
448.496	666.62
448.707	693.36
448.918	637.95
449.129	726.49
449.339	635.23
449.55	646.66
449.761	655.96
449.971	691.42
450.182	637.75
450.393	713.89
450.603	670.11
450.814	732.49
451.024	686.77
451.235	702.27
451.446	768.72
451.656	791.2
451.867	713.51
452.077	681.34
452.288	758.46
452.498	756.52
452.709	692.39
452.919	694.71
453.13	643.95
453.34	704.98
453.55	631.55
453.761	687.74
453.971	691.03
454.182	685.03
454.392	692.19
454.602	750.71
454.813	722.03
455.023	743.15
455.233	643.76
455.444	688.13
455.654	620.51
455.864	654.99
456.075	669.14
456.285	676.11
456.495	690.26
456.705	735.01
456.916	785.39
457.126	796.82
457.336	718.74
457.546	649.38
457.756	732.69
457.967	759.42
458.177	680.57
458.387	729.01
458.597	678.24
458.807	723.97
459.017	682.31
459.227	688.32
459.437	707.11
459.647	748.19
459.857	744.89
460.068	716.41
460.278	774.54
460.488	786.36
460.698	805.34
460.908	747.8
461.117	732.11
461.327	754.19
461.537	764.66
461.747	763.11
461.957	757.29
462.167	878.19
462.377	786.16
462.587	770.08
462.797	839.25
463.007	733.46
463.216	825.69
463.426	875.87
463.636	840.02
463.846	731.72
464.056	754.77
464.265	783.64
464.475	743.34
464.685	830.53
464.895	789.07
465.104	809.99
465.314	818.71
465.524	765.82
465.733	758.84
465.943	835.57
466.153	867.92
466.362	840.6
466.572	850.68
466.782	821.62
466.991	811.74
467.201	867.34
467.41	768.34
467.62	826.65
467.829	809.41
468.039	808.25
468.249	818.13
468.458	826.07
468.668	848.16
468.877	882.65
469.086	887.88
469.296	884.59
469.505	854.55
469.715	959.57
469.924	855.52
470.134	935.93
470.343	931.67
470.552	864.05
470.762	867.92
470.971	823.94
471.18	889.43
471.39	850.87
471.599	838.86
471.808	889.43
472.018	872.19
472.227	971.38
472.436	943.1
472.645	941.35
472.855	923.14
473.064	1018.08
473.273	989.02
473.482	975.26
473.691	1010.91
473.901	976.62
474.11	949.3
474.319	1057.21
474.528	950.65
474.737	1046.75
474.946	1016.91
475.155	1026.6
475.364	1080.66
475.573	1035.51
475.783	1036.87
475.992	1049.08
476.201	1088.02
476.41	1040.16
476.619	1008
476.828	1048.3
477.037	1014.4
477.245	1002.77
477.454	1103.52
477.663	1043.07
477.872	1087.05
478.081	1156.22
478.29	1076.78
478.499	1226.16
478.708	1164.55
478.917	1183.34
479.125	1123.48
479.334	1128.32
479.543	1106.81
479.752	1148.28
479.961	1150.41
480.169	1250.96
480.378	1175.98
480.587	1324.78
480.796	1191.48
481.004	1239.92
481.213	1237.01
481.422	1212.02
481.63	1225.58
481.839	1262
482.048	1284.48
482.256	1258.32
482.465	1265.88
482.674	1298.62
482.882	1292.81
483.091	1328.46
483.299	1302.69
483.508	1319.55
483.716	1307.54
483.925	1333.69
484.134	1251.54
484.342	1294.36
484.551	1327.3
484.759	1339.7
484.967	1345.32
485.176	1376.51
485.384	1373.22
485.593	1366.05
485.801	1359.65
486.01	1315.67
486.218	1221.12
486.426	1139.56
486.635	1150.6
486.843	1164.74
487.051	1181.99
487.26	1219.38
487.468	1225.39
487.676	1269.75
487.885	1278.67
488.093	1310.64
488.301	1373.41
488.509	1344.73
488.717	1429.4
488.926	1375.35
489.134	1363.14
489.342	1392.59
489.55	1323.62
489.758	1402.08
489.967	1386
490.175	1517.36
490.383	1437.15
490.591	1557.28
490.799	1452.85
491.007	1508.65
491.215	1500.12
491.423	1490.63
491.631	1469.7
491.839	1473.96
492.047	1500.7
492.255	1431.73
492.463	1383.1
492.671	1423.78
492.879	1501.09
493.087	1463.89
493.295	1495.66
493.503	1521.82
493.711	1566.96
493.919	1577.62
494.127	1578.98
494.334	1585.18
494.542	1496.25
494.75	1554.37
494.958	1563.48
495.166	1644.66
495.374	1622.37
495.581	1632.84
495.789	1623.92
495.997	1653.37
496.205	1576.26
496.412	1542.55
496.62	1619.47
496.828	1600.87
497.035	1585.56
497.243	1657.64
497.451	1630.71
497.658	1633.22
497.866	1590.6
498.074	1678.17
498.281	1607.84
498.489	1706.07
498.696	1632.45
498.904	1584.21
499.112	1558.63
499.319	1688.25
499.527	1613.66
499.734	1722.54
499.942	1604.55
500.149	1627.61
500.357	1699.87
500.564	1595.06
500.771	1656.67
500.979	1599.32
501.186	1584.79
501.394	1620.44
501.601	1578.78
501.808	1641.75
502.016	1616.76
502.223	1613.66
502.43	1614.04
502.638	1619.27
502.845	1588.66
503.052	1709.75
503.26	1650.47
503.467	1771.75
503.674	1660.35
503.881	1709.75
504.089	1753.54
504.296	1710.92
504.503	1627.61
504.71	1626.83
504.917	1604.16
505.125	1665
505.332	1720.6
505.539	1707.24
505.746	1780.86
505.953	1748.31
506.16	1763.62
506.367	1838.79
506.574	1864.95
506.781	1837.63
506.988	1797.13
507.195	1776.21
507.402	1761.87
507.609	1797.33
507.816	1757.61
508.023	1727
508.23	1749.47
508.437	1705.49
508.644	1772.53
508.851	1817.67
509.058	1790.74
509.265	1782.99
509.472	1841.7
509.679	1895.95
509.885	1811.67
510.092	1808.18
510.299	1822.52
510.506	1800.23
510.713	1801.78
510.92	1825.81
511.126	1863.59
511.333	1873.66
511.54	1874.63
511.746	1876.76
511.953	1904.08
512.16	1932.76
512.367	1875.6
512.573	1888.39
512.78	1902.92
512.987	1889.75
513.193	1885.48
513.4	1786.87
513.606	1819.42
513.813	1838.79
514.02	1848.09
514.226	1932.37
514.433	1888.78
514.639	1811.47
514.846	1873.08
515.052	1826.2
515.259	1886.65
515.465	1864.95
515.672	1852.93
515.878	2001.73
516.085	1895.36
516.291	1955.04
516.497	1877.35
516.704	1864.75
516.91	1796.94
517.117	1763.04
517.323	1712.47
517.529	1711.11
517.736	1675.07
517.942	1754.9
518.148	1739.01
518.354	1812.63
518.561	1820.19
518.767	1813.02
518.973	1831.82
519.179	1859.52
519.386	1841.5
519.592	1816.9
519.798	1846.15
520.004	1981.39
520.21	1924.04
520.417	2018.98
520.623	1989.33
520.829	2007.93
521.035	2038.35
521.241	2012.78
521.447	2013.55
521.653	2141.04
521.859	2010.06
522.065	2066.83
522.271	2187.92
522.477	2131.15
522.683	2160.41
522.889	2123.6
523.095	2112.17
523.301	2095.7
523.507	2053.66
523.713	2078.46
523.919	2057.14
524.125	2151.3
524.331	2139.29
524.537	2248.37
524.742	2197.8
524.948	2237.91
525.154	2241.59
525.36	2312.5
525.566	2201.87
525.772	2291.58
525.977	2176.88
526.183	2216.21
526.389	2303.4
526.595	2183.47
526.8	2189.47
527.006	2105.97
527.212	2017.62
527.417	2013.94
527.623	2014.71
527.829	2114.69
528.034	2116.04
528.24	2154.21
528.446	2129.6
528.651	2282.86
528.857	2281.7
529.062	2353.19
529.268	2284.41
529.473	2331.49
529.679	2302.43
529.884	2377.41
530.09	2368.11
530.295	2380.51
530.501	2372.76
530.706	2346.02
530.912	2334.59
531.117	2388.26
531.323	2396.39
531.528	2445.8
531.733	2426.23
531.939	2392.52
532.144	2426.81
532.35	2414.41
532.555	2441.15
532.76	2417.71
532.966	2376.44
533.171	2374.11
533.376	2310.76
533.581	2281.7
533.787	2322.38
533.992	2394.26
534.197	2403.37
534.402	2372.37
534.607	2409.38
534.813	2477.57
535.018	2410.34
535.223	2437.86
535.428	2421
535.633	2473.51
535.838	2490.94
536.043	2514.19
536.249	2585.1
536.454	2499.86
536.659	2533.96
536.864	2507.8
537.069	2464.79
537.274	2470.99
537.479	2455.68
537.684	2430.88
537.889	2418.09
538.094	2574.45
538.299	2469.05
538.504	2489.2
538.708	2518.07
538.913	2565.73
539.118	2523.49
539.323	2542.67
539.528	2479.71
539.733	2495.79
539.938	2500.63
540.142	2504.51
540.347	2484.74
540.552	2429.53
540.757	2447.54
540.962	2440.57
541.166	2370.43
541.371	2397.75
541.576	2424.49
541.781	2343.89
541.985	2482.61
542.19	2445.41
542.395	2579.87
542.599	2591.89
542.804	2554.69
543.008	2574.06
543.213	2547.32
543.418	2465.56
543.622	2563.6
543.827	2449.68
544.031	2560.31
544.236	2567.86
544.44	2536.86
544.645	2609.13
544.849	2556.24
545.054	2629.09
545.258	2690.5
545.463	2665.32
545.667	2563.21
545.872	2608.55
546.076	2586.07
546.281	2576.77
546.485	2541.71
546.689	2599.83
546.894	2619.98
547.098	2620.75
547.302	2566.89
547.507	2604.87
547.711	2618.04
547.915	2661.83
548.119	2568.83
548.324	2566.89
548.528	2617.46
548.732	2543.64
548.936	2618.04
549.141	2621.92
549.345	2559.53
549.549	2630.83
549.753	2618.04
549.957	2724.41
550.161	2678.1
550.366	2635.67
550.57	2610.49
550.774	2609.52
550.978	2628.7
551.182	2629.09
551.386	2587.24
551.59	2569.6
551.794	2590.53
551.998	2626.57
552.202	2625.02
552.406	2562.63
552.61	2682.75
552.814	2657.95
553.018	2691.86
553.222	2619.2
553.426	2566.12
553.63	2698.83
553.833	2611.84
554.037	2534.73
554.241	2655.24
554.445	2643.81
554.649	2616.88
554.853	2584.14
555.056	2644.78
555.26	2669.19
555.464	2659.89
555.668	2624.63
555.871	2661.25
556.075	2662.8
556.279	2615.52
556.483	2581.42
556.686	2583.55
556.89	2628.5
557.094	2607.58
557.297	2461.49
557.501	2626.37
557.704	2479.71
557.908	2576.58
558.112	2507.99
558.315	2606.03
558.519	2554.49
558.722	2577.16
558.926	2504.7
559.129	2441.73
559.333	2395.43
559.536	2455.1
559.74	2409.18
559.943	2385.35
560.147	2422.36
560.35	2425.65
560.553	2452.39
560.757	2404.73
560.96	2515.74
561.164	2449.29
561.367	2534.54
561.57	2468.28
561.774	2509.16
561.977	2448.51
562.18	2442.89
562.384	2527.76
562.587	2442.7
562.79	2450.64
562.993	2408.79
563.197	2479.51
563.4	2534.15
563.603	2551.01
563.806	2587.82
564.009	2444.83
564.212	2496.37
564.416	2370.43
564.619	2460.53
564.822	2391.16
565.025	2464.21
565.228	2412.09
565.431	2426.43
565.634	2333.23
565.837	2406.86
566.04	2364.04
566.243	2355.51
566.446	2285.57
566.649	2350.09
566.852	2320.83
567.055	2330.13
567.258	2327.81
567.461	2419.26
567.664	2412.28
567.867	2303.59
568.07	2364.62
568.273	2366.36
568.475	2408.99
568.678	2293.71
568.881	2305.72
569.084	2315.21
569.287	2188.5
569.489	2251.86
569.692	2273.17
569.895	2299.13
570.098	2232.48
570.3	2206.33
570.503	2151.5
570.706	2208.65
570.909	2197.61
571.111	2120.89
571.314	2139.29
571.516	2154.99
571.719	2193.54
571.922	2141.81
572.124	2115.07
572.327	2177.65
572.529	2128.25
572.732	2155.57
572.935	2200.71
573.137	2276.66
573.34	2169.52
573.542	2214.27
573.745	2157.5
573.947	2172.81
574.15	2154.4
574.352	2157.5
574.554	2220.08
574.757	2142.78
574.959	2126.7
575.162	2126.12
575.364	2094.73
575.566	2225.12
575.769	2076.71
575.971	2096.09
576.173	1978.48
576.376	2052.88
576.578	2119.34
576.78	2149.95
576.982	2022.46
577.185	2049.78
577.387	2033.51
577.589	2025.95
577.791	2130.96
577.993	2097.64
578.196	2062.96
578.398	2050.94
578.6	2105.58
578.802	1977.51
579.004	2002.7
579.206	1965.5
579.408	2025.76
579.61	1989.72
579.812	2065.86
580.014	2013.94
580.216	2002.12
580.418	2016.46
580.62	2021.49
580.822	1978.09
581.024	2037.19
581.226	2060.63
581.428	2006.38
581.63	2085.04
581.832	1990.88
582.034	2066.64
582.236	2005.61
582.438	2052.88
582.64	2076.91
582.841	2137.74
583.043	2135.03
583.245	2027.31
583.447	2081.94
583.649	2030.02
583.85	2054.82
584.052	2075.36
584.254	2007.74
584.456	2062.96
584.657	1979.45
584.859	2054.82
585.061	1982.74
585.262	1979.45
585.464	1954.07
585.666	2023.63
585.867	1967.05
586.069	2018.39
586.27	1950.78
586.472	1978.87
586.674	1942.25
586.875	1925.2
587.077	1938.96
587.278	1979.45
587.48	1937.21
587.681	2101.12
587.883	1975.19
588.084	1882.96
588.285	1930.63
588.487	1890.71
588.688	1928.5
588.89	1865.14
589.091	1838.6
589.292	1827.36
589.494	1789.19
589.695	1731.07
589.896	1682.24
590.098	1669.26
590.299	1733.78
590.5	1699.68
590.702	1740.37
590.903	1782.41
591.104	1838.21
591.305	1802.37
591.507	1879.48
591.708	1856.62
591.909	1778.34
592.11	1909.9
592.311	1886.45
592.512	1820.97
592.714	1751.6
592.915	1788.8
593.116	1773.89
593.317	1827.17
593.518	1792.1
593.719	1806.63
593.92	1881.8
594.121	1883.16
594.322	1834.33
594.523	1818.06
594.724	1759.74
594.925	1822.9
595.126	1817.67
595.327	1832.78
595.528	1805.66
595.729	1784.54
595.929	1816.51
596.13	1811.08
596.331	1837.63
596.532	1816.51
596.733	1894.2
596.934	1872.89
597.135	1828.52
597.335	1834.14
597.536	1778.92
597.737	1807.4
597.938	1821.93
598.138	1821.16
598.339	1801.59
598.54	1840.73
598.74	1791.32
598.941	1802.95
599.142	1846.73
599.342	1813.02
599.543	1756.64
599.744	1777.76
599.944	1807.6
600.145	1797.13
600.345	1778.34
600.546	1904.66
600.746	1846.93
600.947	1889.55
601.147	1794.81
601.348	1819.8
601.548	1774.47
601.749	1762.07
601.949	1703.75
602.15	1763.81
602.35	1743.66
602.551	1795.39
602.751	1733.39
602.951	1732.42
603.152	1692.32
603.352	1798.3
603.552	1747.54
603.753	1814.77
603.953	1840.92
604.153	1805.85
604.354	1789.97
604.554	1742.89
604.754	1783.57
604.954	1762.65
605.155	1791.71
605.355	1726.03
605.555	1799.46
605.755	1845.38
605.955	1775.24
606.155	1766.14
606.356	1801.01
606.556	1790.55
606.756	1767.3
606.956	1696.39
607.156	1836.66
607.356	1711.3
607.556	1797.72
607.756	1737.46
607.956	1809.34
608.156	1776.02
608.356	1711.69
608.556	1784.73
608.756	1724.87
608.956	1729.13
609.156	1718.86
609.356	1706.85
609.556	1690.38
609.755	1722.74
609.955	1669.84
610.155	1716.15
610.355	1708.98
610.555	1654.34
610.755	1689.8
610.954	1627.8
611.154	1674.11
611.354	1729.52
611.554	1659.38
611.753	1680.11
611.953	1634
612.153	1695.42
612.352	1654.73
612.552	1601.64
612.752	1568.51
612.951	1650.27
613.151	1652.41
613.351	1589.24
613.55	1641.56
613.75	1651.05
613.949	1629.54
614.149	1610.56
614.348	1640.97
614.548	1556.11
614.747	1537.13
614.947	1574.52
615.146	1531.51
615.346	1622.37
615.545	1580.33
615.745	1629.74
615.944	1623.15
616.144	1568.51
616.343	1577.43
616.542	1567.93
616.742	1568.13
616.941	1530.93
617.14	1479.39
617.34	1525.89
617.539	1536.54
617.738	1538.29
617.938	1661.12
618.137	1563.48
618.336	1499.73
618.535	1561.73
618.734	1550.11
618.934	1547.98
619.133	1539.45
619.332	1597.58
619.531	1519.3
619.73	1549.33
619.929	1580.72
620.128	1601.84
620.328	1593.89
620.527	1520.85
620.726	1555.14
620.925	1584.4
621.124	1554.37
621.323	1559.41
621.522	1484.81
621.721	1521.82
621.92	1508.45
622.119	1563.67
622.318	1486.95
622.517	1504.96
622.715	1536.74
622.914	1445.68
623.113	1504.19
623.312	1443.35
623.511	1482.1
623.71	1477.06
623.909	1454.4
624.107	1548.36
624.306	1422.82
624.505	1429.21
624.704	1443.55
624.902	1443.35
625.101	1522.79
625.3	1441.03
625.499	1451.1
625.697	1425.33
625.896	1422.62
626.095	1446.65
626.293	1383.29
626.492	1390.65
626.69	1442
626.889	1403.63
627.088	1454.2
627.286	1398.4
627.485	1393.95
627.683	1424.95
627.882	1435.41
628.08	1369.92
628.279	1378.25
628.477	1479.97
628.676	1374.18
628.874	1400.53
629.073	1382.13
629.271	1350.93
629.469	1423.2
629.668	1380.19
629.866	1371.47
630.065	1348.42
630.263	1390.27
630.461	1356.55
630.66	1363.92
630.858	1376.32
631.056	1432.31
631.254	1401.12
631.453	1347.45
631.651	1414.29
631.849	1379.22
632.047	1418.55
632.245	1374.77
632.444	1381.16
632.642	1405.77
632.84	1396.66
633.038	1367.98
633.236	1331.75
633.434	1358.49
633.632	1341.63
633.83	1329.04
634.028	1422.23
634.227	1373.8
634.425	1471.06
634.623	1379.22
634.821	1384.84
635.019	1393.17
635.216	1381.93
635.414	1394.92
635.612	1362.17
635.81	1382.13
636.008	1379.42
636.206	1340.28
636.404	1391.04
636.602	1297.85
636.8	1362.56
636.997	1375.35
637.195	1405.77
637.393	1384.26
637.591	1404.41
637.789	1371.67
637.986	1351.32
638.184	1371.86
638.382	1399.95
638.58	1386.97
638.777	1474.35
638.975	1341.25
639.173	1374.38
639.37	1371.08
639.568	1334.27
639.765	1385.81
639.963	1359.07
640.161	1416.23
640.358	1370.7
640.556	1287.97
640.753	1292.42
640.951	1319.35
641.148	1332.14
641.346	1342.6
641.543	1305.4
641.741	1354.03
641.938	1278.47
642.136	1327.69
642.333	1285.45
642.531	1342.8
642.728	1377.67
642.925	1323.04
643.123	1287.58
643.32	1328.65
643.517	1293.39
643.715	1328.65
643.912	1278.86
644.109	1302.3
644.306	1279.25
644.504	1263.17
644.701	1302.89
644.898	1335.24
645.095	1244.96
645.293	1268.98
645.49	1302.89
645.687	1314.7
645.884	1300.95
646.081	1208.92
646.278	1225.58
646.475	1246.89
646.672	1237.4
646.87	1288.94
647.067	1264.91
647.264	1259.1
647.461	1213.18
647.658	1153.89
647.855	1232.94
648.052	1204.46
648.249	1136.46
648.446	1214.54
648.642	1182.18
648.839	1143.43
649.036	1199.62
649.233	1144.21
649.43	1151.38
649.627	1103.13
649.824	1170.17
650.021	1150.6
650.217	1124.06
650.414	1124.44
650.611	1133.55
650.808	1189.54
651.004	1176.76
651.201	1160.48
651.398	1251.54
651.595	1184.7
651.791	1121.34
651.988	1188.77
652.185	1139.94
652.381	1171.72
652.578	1113.01
652.775	1126.38
652.971	1142.66
653.168	1129.68
653.364	1212.02
653.561	1108.75
653.757	1162.81
653.954	1174.62
654.15	1120.38
654.347	1224.22
654.543	1172.69
654.74	1123.86
654.936	1091.31
655.133	1132
655.329	1132
655.525	1144.98
655.722	1135.88
655.918	1083.37
656.115	1119.99
656.311	1018.85
656.507	953.95
656.704	916.17
656.9	973.32
657.096	989.79
657.292	971.97
657.489	1062.25
657.685	1043.65
657.881	1035.32
658.077	1039.2
658.273	1057.41
658.47	1146.34
658.666	1074.85
658.862	1122.31
659.058	1074.65
659.254	1143.63
659.45	1054.11
659.646	1091.7
659.842	1106.23
660.038	1119.6
660.234	1044.62
660.43	1111.66
660.626	1183.54
660.822	1122.31
661.018	1147.11
661.214	1087.24
661.41	1032.22
661.606	1130.06
661.802	1113.59
661.998	1095.19
662.194	1058.18
662.39	1129.48
662.586	1129.48
662.781	1125.61
662.977	1108.75
663.173	1104.68
663.369	1104.49
663.564	1098.87
663.76	1145.95
663.956	1083.56
664.152	1131.81
664.347	1014.98
664.543	1078.72
664.739	1050.63
664.934	994.44
665.13	1021.76
665.326	1092.28
665.521	1074.85
665.717	1031.45
665.912	1027.76
666.108	987.47
666.304	1035.71
666.499	1046.17
666.695	971.19
666.89	1007.81
667.086	1066.9
667.281	1052.76
667.477	1132
667.672	1034.55
667.867	1048.5
668.063	1017.5
668.258	995.21
668.454	1035.9
668.649	1099.84
668.844	1025.63
669.04	1069.81
669.235	1023.11
669.43	969.25
669.626	988.82
669.821	969.45
670.016	983.2
670.211	1011.3
670.407	963.25
670.602	1006.84
670.797	1021.37
670.992	1060.31
671.187	979.33
671.382	1022.53
671.578	996.96
671.773	995.8
671.968	937.28
672.163	995.6
672.358	1025.25
672.553	961.7
672.748	983.4
672.943	1074.07
673.138	989.6
673.333	1019.82
673.528	965.77
673.723	993.47
673.918	1001.03
674.113	976.81
674.308	1050.63
674.503	1009.55
674.698	1032.03
674.892	972.74
675.087	998.7
675.282	1009.75
675.477	968.09
675.672	1035.9
675.867	972.55
676.061	947.36
676.256	951.82
676.451	958.98
676.646	1023.11
676.84	932.83
677.035	922.95
677.23	935.93
677.424	985.92
677.619	1028.93
677.814	995.8
678.008	987.47
678.203	896.21
678.397	908.61
678.592	975.65
678.787	1048.3
678.981	968.28
679.176	975.07
679.37	971.97
679.565	893.89
679.759	923.92
679.954	970.42
680.148	1001.8
680.342	989.98
680.537	985.92
680.731	962.67
680.926	984.17
681.12	958.79
681.314	946.39
681.509	945.62
681.703	982.04
681.897	958.6
682.092	952.01
682.286	932.05
682.48	1043.07
682.674	982.04
682.869	934.57
683.063	976.81
683.257	1010.71
683.451	924.88
683.645	958.79
683.839	942.13
684.034	933.22
684.228	977
684.422	904.73
684.616	906.28
684.81	968.09
685.004	929.34
685.198	930.89
685.392	966.54
685.586	901.83
685.78	958.21
685.974	968.48
686.168	931.86
686.362	998.51
686.556	907.25
686.75	883.23
686.944	896.6
687.138	847.39
687.331	750.71
687.525	781.32
687.719	721.64
687.913	798.17
688.107	795.27
688.301	752.45
688.494	834.02
688.688	745.47
688.882	740.44
689.076	737.14
689.269	779.96
689.463	922.56
689.657	810.38
689.85	795.27
690.044	838.47
690.238	826.27
690.431	793.91
690.625	809.61
690.818	832.08
691.012	822.97
691.205	854.55
691.399	826.07
691.593	869.67
691.786	931.47
691.98	916.75
692.173	973.71
692.366	878.58
692.56	936.9
692.753	996.57
692.947	862.11
693.14	941.35
693.333	927.79
693.527	858.82
693.72	940.19
693.914	894.08
694.107	925.66
694.3	918.88
694.493	907.25
694.687	979.13
694.88	898.92
695.073	948.72
695.266	956.85
695.46	929.34
695.653	1043.85
695.846	993.08
696.039	931.08
696.232	954.92
696.425	984.95
696.618	1016.72
696.812	976.23
697.005	1039.78
697.198	1137.23
697.391	1039.97
697.584	1096.16
697.777	1153.51
697.97	1087.44
698.163	1090.93
698.356	1058.96
698.549	1193.61
698.742	1128.9
698.935	1123.09
699.127	1174.43
699.32	1094.03
699.513	1086.08
699.706	1143.43
699.899	1146.14
700.092	1098.48
700.285	1215.51
700.477	1101.58
700.67	1193.22
700.863	1220.35
701.056	1256.77
701.248	1249.22
701.441	1262.59
701.634	1181.41
701.826	1305.79
702.019	1190.51
702.212	1313.15
702.404	1199.62
702.597	1225
702.79	1225.39
702.982	1283.12
703.175	1343.38
703.367	1334.47
703.56	1359.46
703.752	1430.18
703.945	1385.81
704.137	1397.24
704.33	1401.7
704.522	1457.5
704.715	1443.16
704.907	1482.1
705.1	1476.68
705.292	1503.03
705.484	1467.38
705.677	1526.47
705.869	1528.6
706.061	1556.69
706.254	1616.76
706.446	1590.02
706.638	1568.32
706.831	1657.44
707.023	1556.89
707.215	1716.92
707.407	1683.99
707.599	1709.95
707.792	1721.77
707.984	1705.88
708.176	1788.61
708.368	1717.7
708.56	1766.14
708.752	1759.35
708.944	1765.36
709.136	1794.81
709.329	1794.81
709.521	1905.25
709.713	1879.86
709.905	1888.97
710.097	1946.13
710.289	1888.97
710.481	1902.34
710.672	1951.36
710.864	1958.91
711.056	2013.55
711.248	1986.62
711.44	2016.84
711.632	1998.24
711.824	2046.49
712.016	2114.88
712.207	2107.52
712.399	2104.61
712.591	2214.47
712.783	2135.42
712.975	2197.03
713.166	2115.46
713.358	2192.57
713.55	2245.85
713.741	2241.78
713.933	2259.42
714.125	2280.53
714.316	2233.45
714.508	2285.38
714.7	2343.89
714.891	2322.58
715.083	2382.64
715.274	2340.21
715.466	2366.17
715.657	2422.55
715.849	2286.93
716.04	2383.41
716.232	2353.38
716.423	2429.72
716.615	2336.72
716.806	2299.91
716.998	2287.9
717.189	2226.48
717.381	2165.64
717.572	2174.94
717.763	2211.95
717.955	2168.55
718.146	2133.48
718.337	2053.66
718.528	2019.94
718.72	1987.2
718.911	2055.59
719.102	1998.83
719.293	2058.5
719.485	2080.39
719.676	2041.64
719.867	1989.14
720.058	2034.67
720.249	2031.96
720.44	2055.98
720.632	2164.87
720.823	2194.32
721.014	2287.9
721.205	2323.16
721.396	2359.78
721.587	2496.17
721.778	2532.21
721.969	2596.92
722.16	2620.17
722.351	2634.7
722.542	2805.78
722.733	2766.65
722.924	2684.11
723.115	2790.09
723.305	2775.17
723.496	2809.46
723.687	2661.05
723.878	2693.41
724.069	2679.27
724.26	2690.5
724.45	2646.72
724.641	2638.77
724.832	2739.33
725.023	2663.38
725.213	2644.59
725.404	2676.75
725.595	2650.98
725.785	2641.87
725.976	2735.26
726.167	2723.05
726.357	2728.87
726.548	2837.94
726.739	2762.58
726.929	2914.09
727.12	2872.43
727.31	2899.56
727.501	2833.88
727.691	2874.76
727.882	2891.23
728.072	2950.9
728.263	2904.01
728.453	3012.12
728.644	3012.32
728.834	3020.07
729.024	2921.84
729.215	2933.85
729.405	2977.25
729.596	3046.8
729.786	3100.08
729.976	3128.76
730.167	3093.88
730.357	3067.92
730.547	3140.58
730.737	3169.06
730.928	3191.15
731.118	3255.47
731.308	3215.95
731.498	3217.3
731.688	3253.15
731.879	3282.59
732.069	3352.54
732.259	3404.66
732.449	3394.77
732.639	3517.8
732.829	3508.31
733.019	3540.47
733.209	3596.85
733.399	3642.77
733.589	3693.92
733.779	3763.28
733.969	3680.16
734.159	3787.89
734.349	3851.63
734.539	3880.5
734.729	3884.18
734.919	3910.34
735.109	3956.45
735.299	3922.93
735.488	3919.64
735.678	3966.33
735.868	3987.45
736.058	3943.27
736.248	3937.46
736.437	3871.59
736.627	3854.34
736.817	4017.87
737.007	3972.92
737.196	4033.95
737.386	4045.18
737.576	3975.82
737.765	4060.68
737.955	3995
738.144	4190.3
738.334	4114.74
738.524	4064.56
738.713	4101.37
738.903	4066.3
739.092	4143.03
739.282	4114.55
739.471	4174.61
739.661	4130.43
739.85	4187.59
740.04	4187.98
740.229	4212.19
740.419	4241.06
740.608	4277.68
740.797	4227.11
740.987	4301.9
741.176	4277.87
741.365	4279.04
741.555	4162.4
741.744	4325.92
741.933	4263.73
742.123	4249.59
742.312	4294.54
742.501	4344.14
742.69	4391.41
742.88	4238.35
743.069	4425.7
743.258	4356.15
743.447	4391.6
743.636	4394.51
743.825	4357.31
744.014	4414.66
744.204	4436.36
744.393	4312.17
744.582	4451.67
744.771	4485.18
744.96	4395.67
745.149	4463.29
745.338	4387.54
745.527	4486.93
745.716	4429.97
745.905	4437.72
746.094	4530.52
746.283	4467.55
746.471	4478.4
746.66	4537.88
746.849	4512.11
747.038	4541.95
747.227	4465.42
747.416	4514.83
747.604	4467.75
747.793	4462.71
747.982	4504.36
748.171	4497.58
748.359	4502.81
748.548	4519.28
748.737	4509.21
748.926	4483.83
749.114	4416.6
749.303	4487.7
749.491	4480.73
749.68	4379.4
749.869	4515.99
750.057	4472.01
750.246	4428.61
750.434	4456.7
750.623	4466
750.811	4405.17
751	4498.16
751.188	4367.19
751.377	4409.04
751.565	4398.97
751.754	4385.21
751.942	4400.9
752.131	4425.32
752.319	4398.97
752.507	4351.89
752.696	4450.31
752.884	4467.94
753.072	4355.57
753.261	4400.13
753.449	4424.73
753.637	4347.43
753.825	4475.69
754.014	4378.04
754.202	4377.85
754.39	4482.28
754.578	4426.87
754.766	4385.21
754.955	4335.22
755.143	4436.94
755.331	4371.45
755.519	4407.88
755.707	4354.4
755.895	4356.92
756.083	4401.29
756.271	4280.39
756.459	4316.62
756.647	4366.22
756.835	4319.34
757.023	4295.51
757.211	4322.82
757.399	4299.57
757.587	4254.24
757.775	4213.74
757.963	4279.62
758.151	4236.41
758.339	4239.51
758.526	4216.46
758.714	4277.29
758.902	4166.86
759.09	4067.46
759.278	3896.39
759.465	3696.25
759.653	3280.08
759.841	3011.74
760.028	2642.65
760.216	2317.35
760.404	2180.95
760.591	1886.06
760.779	1650.66
760.967	1477.84
761.154	1291.07
761.342	1327.69
761.529	1357.13
761.717	1446.45
761.905	1497.21
762.092	1548.75
762.28	1545.84
762.467	1579.75
762.655	1510.58
762.842	1539.45
763.029	1563.48
763.217	1602.61
763.404	1642.33
763.592	1669.65
763.779	1638.07
763.966	1702
764.154	1734.17
764.341	1770.79
764.528	1774.47
764.716	1878.51
764.903	1914.93
765.09	2002.12
765.277	2019.94
765.465	2235.78
765.652	2265.62
765.839	2358.03
766.026	2512.45
766.213	2521.75
766.4	2631.41
766.588	2821.09
766.775	2872.04
766.962	2955.74
767.149	3029.56
767.336	3152.2
767.523	3117.72
767.71	3250.43
767.897	3358.74
768.084	3451.54
768.271	3440.5
768.458	3541.63
768.645	3603.05
768.832	3563.33
769.019	3606.93
769.206	3620.3
769.392	3712.71
769.579	3781.3
769.766	3743.71
769.953	3719.88
770.14	3833.22
770.327	3718.14
770.513	3821.41
770.7	3876.82
770.887	3772.39
771.073	3841.75
771.26	3822.37
771.447	3804.94
771.634	3760.76
771.82	3913.44
772.007	3700.7
772.193	3835.36
772.38	3779.56
772.567	3775.49
772.753	3773.55
772.94	3856.09
773.126	3829.54
773.313	3845.82
773.499	3817.92
773.686	3839.81
773.872	3746.62
774.059	3828.77
774.245	3757.28
774.432	3794.86
774.618	3646.45
774.804	3748.17
774.991	3702.25
775.177	3784.59
775.363	3740.03
775.55	3787.89
775.736	3669.31
775.922	3708.45
776.109	3701.09
776.295	3708.26
776.481	3733.06
776.667	3733.64
776.853	3688.11
777.04	3648.97
777.226	3697.41
777.412	3746.62
777.598	3689.27
777.784	3644.32
777.97	3618.55
778.156	3648.78
778.342	3663.5
778.528	3611.38
778.715	3560.23
778.901	3560.23
779.087	3618.55
779.272	3582.71
779.458	3544.15
779.644	3593.37
779.83	3541.63
780.016	3678.42
780.202	3565.85
780.388	3554.81
780.574	3457.55
780.76	3508.12
780.946	3529.43
781.131	3525.55
781.317	3480.02
781.503	3489.52
781.689	3517.8
781.874	3608.87
782.06	3511.8
782.246	3474.99
782.432	3493.2
782.617	3522.26
782.803	3545.51
782.989	3457.94
783.174	3433.52
783.36	3408.53
783.545	3421.12
783.731	3410.86
783.916	3343.82
784.102	3418.02
784.288	3326.38
784.473	3417.83
784.659	3326.77
784.844	3394.97
785.029	3346.73
785.215	3345.56
785.4	3259.54
785.586	3414.73
785.771	3279.11
785.956	3320.76
786.142	3330.84
786.327	3326.19
786.512	3290.15
786.698	3257.02
786.883	3238.42
787.068	3286.86
787.254	3284.92
787.439	3266.13
787.624	3227.96
787.809	3239
787.994	3266.71
788.18	3303.13
788.365	3133.02
788.55	3198.12
788.735	3191.34
788.92	3208.97
789.105	3179.71
789.29	3212.65
789.475	3131.28
789.66	3154.92
789.845	3107.25
790.03	3123.72
790.215	3116.55
790.4	3133.22
790.585	3153.56
790.77	3106.48
790.955	3035.57
791.14	3092.14
791.325	3154.33
791.51	3002.24
791.695	3064.44
791.879	3064.24
792.064	3004.18
792.249	3144.26
792.434	3061.92
792.618	3051.65
792.803	3111.9
792.988	3053.2
793.173	3063.85
793.357	3115.58
793.542	2982.87
793.727	3026.46
793.911	3096.6
794.096	3076.64
794.281	3086.91
794.465	3173.71
794.65	3037.31
794.834	3114.03
795.019	3100.86
795.203	3131.67
795.388	3118.88
795.572	3168.67
795.757	3117.33
795.941	3161.5
796.126	3111.32
796.31	3042.74
796.494	3130.7
796.679	3106.09
796.863	3020.45
797.048	3200.64
797.232	3131.28
797.416	3144.45
797.601	3129.73
797.785	3191.73
797.969	3222.15
798.153	3166.73
798.338	3184.95
798.522	3212.46
798.706	3247.53
798.89	3195.8
799.074	3286.47
799.258	3259.93
799.443	3210.71
799.627	3186.5
799.811	3199.67
799.995	3132.63
800.179	3128.76
800.363	3109.19
800.547	3152.98
800.731	3185.91
800.915	3125.08
801.099	3104.93
801.283	3172.55
801.467	3162.86
801.651	3134.96
801.835	3207.42
802.019	3140.58
802.202	3180.88
802.386	3109.58
802.57	3082.26
802.754	3101.05
802.938	3076.06
803.121	3102.41
803.305	3198.12
803.489	3149.1
803.673	3126.43
803.856	3122.75
804.04	3105.7
804.224	3155.5
804.407	3115.39
804.591	3123.14
804.775	3080.52
804.958	3103.18
805.142	3258.18
805.326	3115.39
805.509	3124.3
805.693	3161.12
805.876	3176.03
806.06	3121.59
806.243	3184.36
806.427	3186.69
806.61	3203.74
806.794	3168.28
806.977	3227.76
807.16	3107.45
807.344	3133.99
807.527	3135.93
807.71	3124.88
807.894	3130.5
808.077	3160.53
808.26	3041.57
808.444	3087.3
808.627	3154.33
808.81	3056.1
808.993	3028.2
809.177	3042.15
809.36	3011.74
809.543	3066.18
809.726	2988.29
809.909	2918.54
810.092	2959.42
810.276	2975.31
810.459	2927.84
810.642	2942.37
810.825	2900.33
811.008	2934.62
811.191	2802.68
811.374	2863.13
811.557	2838.53
811.74	2941.6
811.923	2827.29
812.106	2835.62
812.289	2778.85
812.472	2825.93
812.654	2807.14
812.837	2753.08
813.02	2690.31
813.203	2708.52
813.386	2584.52
813.569	2569.6
813.751	2508.77
813.934	2557.01
814.117	2491.52
814.3	2465.18
814.482	2435.53
814.665	2364.62
814.848	2352.8
815.03	2286.93
815.213	2264.07
815.396	2263.1
815.578	2242.56
815.761	2172.62
815.943	2265.62
816.126	2143.17
816.309	2165.45
816.491	2096.67
816.674	2000.57
816.856	2065.28
817.039	2029.44
817.221	2131.15
817.403	2080.2
817.586	2080.78
817.768	2107.91
817.951	1970.93
818.133	2011.42
818.315	2047.84
818.498	2080.78
818.68	2156.73
818.862	2108.87
819.045	2142.78
819.227	2095.51
819.409	2067.61
819.591	2146.27
819.774	2104.22
819.956	2075.36
820.138	2124.57
820.32	2147.82
820.502	2193.74
820.684	2230.16
820.866	2237.33
821.048	2302.81
821.231	2330.52
821.413	2295.07
821.595	2247.02
821.777	2301.85
821.959	2225.9
822.141	2350.28
822.323	2181.72
822.505	2150.92
822.686	2064.31
822.868	2009.87
823.05	1914.74
823.232	1889.55
823.414	1802.17
823.596	1898.85
823.778	1833.56
823.96	1911.25
824.141	1890.71
824.323	1883.55
824.505	1969.96
824.687	2012.97
824.868	2095.31
825.05	2157.5
825.232	2194.51
825.413	2299.91
825.595	2233.65
825.777	2165.84
825.958	2201.29
826.14	2214.08
826.321	2250.7
826.503	2215.63
826.685	2242.95
826.866	2290.8
827.048	2260.97
827.229	2201.49
827.411	2160.8
827.592	2116.62
827.773	2111.78
827.955	2024.98
828.136	2015.88
828.318	1986.43
828.499	2074.97
828.68	1988.94
828.862	2054.04
829.043	2018.98
829.224	1987.78
829.406	1987.59
829.587	1968.41
829.768	1999.99
829.949	2013.74
830.131	1970.34
830.312	2062.76
830.493	1986.81
830.674	2019.17
830.855	2007.16
831.036	1989.14
831.218	2050.75
831.399	2110.23
831.58	2014.13
831.761	2017.62
831.942	2027.31
832.123	2008.13
832.304	1924.23
832.485	1941.86
832.666	1973.83
832.847	2008.32
833.028	1978.87
833.209	1994.95
833.389	1973.44
833.57	1906.02
833.751	1941.28
833.932	2014.13
834.113	1987.98
834.294	1954.65
834.475	2007.16
834.655	2053.46
834.836	2022.66
835.017	1988.75
835.198	1994.37
835.378	1984.88
835.559	2062.18
835.74	1994.76
835.92	2025.95
836.101	1997.47
836.281	2051.52
836.462	2021.49
836.643	2029.24
836.823	2066.64
837.004	2060.63
837.184	2091.24
837.365	2052.69
837.545	2078.65
837.726	2043.19
837.906	2084.85
838.087	2051.33
838.267	2055.21
838.448	1968.99
838.628	2030.99
838.808	2019.17
838.989	2077.68
839.169	1983.52
839.349	2066.06
839.53	2024.21
839.71	2081.36
839.89	1980.61
840.07	2078.26
840.251	1998.63
840.431	2050.94
840.611	2052.3
840.791	1967.83
840.971	2020.91
841.151	2012.39
841.332	1970.15
841.512	2021.49
841.692	1929.46
841.872	1988.75
842.052	2005.99
842.232	2024.01
842.412	1908.15
842.592	1966.86
842.772	2027.89
842.952	1994.37
843.132	1956.78
843.312	1966.66
843.492	1910.48
843.672	1986.23
843.851	1890.52
844.031	1950.58
844.211	1926.56
844.391	1938.18
844.571	1959.3
844.751	1946.32
844.93	1984.29
845.11	1930.63
845.29	1952.33
845.47	1961.04
845.649	1920.94
845.829	1977.51
846.009	1923.65
846.188	1930.63
846.368	1926.36
846.547	1922.1
846.727	1941.48
846.907	1887.42
847.086	1924.81
847.266	1943.8
847.445	1887.81
847.625	1886.45
847.804	1857.2
847.984	1930.43
848.163	1862.82
848.343	1881.8
848.522	1887.81
848.701	1879.09
848.881	1829.1
849.06	1885.29
849.239	1900.6
849.419	1866.69
849.598	1811.28
849.777	1781.83
849.957	1773.11
850.136	1738.82
850.315	1680.31
850.494	1705.49
850.674	1708.59
850.853	1762.26
851.032	1700.45
851.211	1791.9
851.39	1800.82
851.569	1718.67
851.748	1725.06
851.927	1777.18
852.107	1796.17
852.286	1720.41
852.465	1699.29
852.644	1796.55
852.823	1786.87
853.002	1765.36
853.181	1727.77
853.359	1776.4
853.538	1684.57
853.717	1755.67
853.896	1624.31
854.075	1571.81
854.254	1523.37
854.433	1453.43
854.611	1485.4
854.79	1434.83
854.969	1504
855.148	1543.13
855.327	1479.39
855.505	1547.39
855.684	1568.13
855.863	1598.16
856.041	1548.94
856.22	1602.03
856.399	1591.57
856.577	1695.42
856.756	1656.47
856.934	1747.54
857.113	1814.18
857.291	1639.23
857.47	1620.82
857.648	1675.27
857.827	1699.1
858.005	1715.95
858.184	1652.21
858.362	1687.28
858.541	1650.47
858.719	1665.39
858.898	1656.86
859.076	1640.78
859.254	1683.02
859.433	1622.96
859.611	1627.02
859.789	1582.08
859.967	1671.01
860.146	1667.32
860.324	1581.88
860.502	1614.04
860.68	1563.86
860.859	1566.96
861.037	1604.16
861.215	1601.45
861.393	1606.68
861.571	1583.63
861.749	1565.03
861.927	1590.6
862.105	1634
862.283	1541.78
862.461	1569.87
862.639	1538.87
862.817	1573.94
862.995	1555.53
863.173	1556.11
863.351	1585.95
863.529	1601.84
863.707	1603.39
863.885	1580.33
864.063	1512.52
864.241	1516.98
864.418	1591.18
864.596	1477.65
864.774	1472.03
864.952	1524.73
865.129	1559.79
865.307	1499.93
865.485	1402.47
865.663	1510.58
865.84	1415.45
866.018	1474.16
866.196	1312.57
866.373	1341.83
866.551	1315.48
866.728	1222.67
866.906	1293.59
867.084	1313.93
867.261	1389.68
867.439	1378.25
867.616	1405.18
867.794	1365.08
867.971	1398.02
868.149	1427.27
868.326	1465.63
868.503	1463.31
868.681	1411
868.858	1396.85
869.035	1356.36
869.213	1448.58
869.39	1411.19
869.567	1485.4
869.745	1388.52
869.922	1400.53
870.099	1424.95
870.276	1440.83
870.454	1423.2
870.631	1416.81
870.808	1411.19
870.985	1415.65
871.162	1425.72
871.339	1432.5
871.517	1361.2
871.694	1328.27
871.871	1379.22
872.048	1363.72
872.225	1366.24
872.402	1389.88
872.579	1341.63
872.756	1410.03
872.933	1320.32
873.11	1384.65
873.287	1403.63
873.463	1336.99
873.64	1329.62
873.817	1348.8
873.994	1340.08
874.171	1300.17
874.348	1320.52
874.524	1299.4
874.701	1332.14
874.878	1243.02
875.055	1341.25
875.231	1319.16
875.408	1324.78
875.585	1266.65
875.762	1327.1
875.938	1303.85
876.115	1266.85
876.291	1258.13
876.468	1283.9
876.645	1246.7
876.821	1263.94
876.998	1253.67
877.174	1290.29
877.351	1267.62
877.527	1235.46
877.704	1249.99
877.88	1266.46
878.057	1249.41
878.233	1308.7
878.409	1212.6
878.586	1272.85
878.762	1238.95
878.938	1220.74
879.115	1181.02
879.291	1247.86
879.467	1152.73
879.644	1192.64
879.82	1234.3
879.996	1194.19
880.172	1173.07
880.349	1207.76
880.525	1225.39
880.701	1158.74
880.877	1152.54
881.053	1191.48
881.229	1185.28
881.405	1230.04
881.581	1166.1
881.757	1211.44
881.933	1237.01
882.109	1255.8
882.285	1186.25
882.461	1144.59
882.637	1183.54
882.813	1168.04
882.989	1157.19
883.165	1250.57
883.341	1128.32
883.517	1212.6
883.693	1185.47
883.869	1221.51
884.044	1160.87
884.22	1209.69
884.396	1232.94
884.572	1196.71
884.747	1210.47
884.923	1231.78
885.099	1215.89
885.275	1242.05
885.45	1159.71
885.626	1214.73
885.801	1157.96
885.977	1167.07
886.153	1120.76
886.328	1184.12
886.504	1154.67
886.679	1177.34
886.855	1147.31
887.03	1196.71
887.206	1201.56
887.381	1146.73
887.557	1216.47
887.732	1198.84
887.908	1185.28
888.083	1182.57
888.258	1170.56
888.434	1156.61
888.609	1156.8
888.784	1237.01
888.96	1174.43
889.135	1162.42
889.31	1143.24
889.485	1171.91
889.661	1159.51
889.836	1228.1
890.011	1195.74
890.186	1160.87
890.361	1139.75
890.537	1165.71
890.712	1198.26
890.887	1198.84
891.062	1174.04
891.237	1277.5
891.412	1132
891.587	1207.17
891.762	1187.99
891.937	1253.48
892.112	1144.79
892.287	1144.01
892.462	1119.79
892.637	1114.76
892.812	1073.49
892.987	1088.79
893.161	1099.45
893.336	1119.02
893.511	1079.49
893.686	1094.8
893.861	1078.72
894.035	1080.27
894.21	1123.86
894.385	998.9
894.56	1115.92
894.734	1012.85
894.909	1041.52
895.084	1016.33
895.258	1005.48
895.433	1002
895.608	991.73
895.782	950.85
895.957	977.39
896.131	958.21
896.306	902.22
896.48	904.35
896.655	902.22
896.829	811.16
897.004	851.26
897.178	871.8
897.353	840.99
897.527	878.58
897.701	883.23
897.876	803.02
898.05	899.89
898.224	862.69
898.399	888.27
898.573	846.61
898.747	741.41
898.921	806.51
899.096	691.81
899.27	713.89
899.444	710.99
899.618	753.81
899.792	760.2
899.967	757.87
900.141	785.77
900.315	682.31
900.489	726.1
900.663	765.43
900.837	753.03
901.011	693.16
901.185	790.62
901.359	758.65
901.533	771.05
901.707	759.23
901.881	752.26
902.055	683.28
902.229	729.01
902.403	780.74
902.576	777.44
902.75	778.61
902.924	872.96
903.098	837.5
903.272	845.45
903.446	894.47
903.619	854.75
903.793	886.72
903.967	874.9
904.14	901.05
904.314	903.77
904.488	899.31
904.661	918.68
904.835	916.17
905.009	974.68
905.182	974.87
905.356	923.92
905.529	914.62
905.703	883.81
905.876	866.37
906.05	844.48
906.223	836.92
906.397	766.98
906.57	775.89
906.744	758.07
906.917	737.14
907.09	739.66
907.264	752.06
907.437	685.8
907.61	660.23
907.784	707.11
907.957	728.42
908.13	673.59
908.304	729.78
908.477	649.76
908.65	707.31
908.823	626.13
908.996	708.47
909.17	649.57
909.343	649.18
909.516	696.07
909.689	663.33
909.862	649.96
910.035	661.58
910.208	635.81
910.381	613.15
910.554	731.14
910.727	625.16
910.9	640.85
911.073	616.44
911.246	720.68
911.419	713.12
911.592	653.06
911.765	642.98
911.938	645.5
912.11	643.18
912.283	689.48
912.456	706.92
912.629	675.73
912.802	635.81
912.974	634.46
913.147	561.8
913.32	511.23
913.493	547.85
913.665	575.95
913.838	606.17
914.01	567.81
914.183	598.81
914.356	597.84
914.528	628.45
914.701	728.42
914.873	653.44
915.046	576.14
915.218	574.2
915.391	466.87
915.563	540.1
915.736	544.75
915.908	581.56
916.081	565.87
916.253	564.9
916.425	579.05
916.598	631.94
916.77	590.28
916.942	538.36
917.115	493.6
917.287	569.94
917.459	543.2
917.632	501.55
917.804	440.13
917.976	525.18
918.148	526.93
918.32	533.9
918.493	594.35
918.665	602.49
918.837	553.08
919.009	615.47
919.181	593.58
919.353	616.25
919.525	582.53
919.697	569.75
919.869	566.06
920.041	636.01
920.213	710.6
920.385	616.05
920.557	585.83
920.729	626.71
920.901	600.36
921.073	578.46
921.244	556.76
921.416	613.73
921.588	618.57
921.76	602.49
921.932	648.6
922.103	575.95
922.275	569.94
922.447	607.72
922.619	502.9
922.79	564.9
922.962	543.78
923.134	611.98
923.305	540.3
923.477	502.9
923.648	509.88
923.82	547.27
923.991	487.02
924.163	496.12
924.335	522.28
924.506	478.88
924.677	555.99
924.849	483.72
925.02	514.14
925.192	540.88
925.363	510.27
925.535	560.06
925.706	472.87
925.877	548.43
926.049	465.12
926.22	526.15
926.391	537
926.562	526.35
926.734	501.93
926.905	541.65
927.076	463.77
927.247	488.57
927.419	455.63
927.59	441.49
927.761	439.94
927.932	429.67
928.103	440.52
928.274	398.09
928.445	379.29
928.616	375.81
928.787	391.11
928.958	413.59
929.129	390.92
929.3	389.37
929.471	349.46
929.642	271.96
929.813	241.54
929.984	354.88
930.155	252.19
930.326	299.66
930.496	270.79
930.667	199.69
930.838	292.49
931.009	208.41
931.18	236.89
931.35	225.07
931.521	234.37
931.692	166.75
931.863	131.68
932.033	171.01
932.204	196.2
932.374	203.56
932.545	138.46
932.716	193.68
932.886	219.84
933.057	100.68
933.227	111.53
933.398	211.31
933.568	105.72
933.739	65.62
933.909	69.1
934.08	129.16
934.25	47.02
934.421	63.87
934.591	121.22
934.761	84.99
934.932	59.03
935.102	123.35
935.272	91.97
935.443	74.53
935.613	71.04
935.783	101.85
935.953	78.02
936.123	259.94
936.294	76.08
936.464	55.73
936.634	86.54
936.804	63.48
936.974	13.69
937.144	94.68
937.314	85.77
937.484	56.12
937.655	61.35
937.825	133.23
937.995	70.65
938.165	129.75
938.334	90.22
938.504	131.1
938.674	64.65
938.844	106.11
939.014	170.63
939.184	176.44
939.354	233.01
939.524	169.66
939.694	162.1
939.863	133.62
940.033	230.11
940.203	192.91
940.373	190.97
940.542	183.22
940.712	148.35
940.882	178.76
941.051	225.07
941.221	178.57
941.391	178.76
941.56	126.65
941.73	128.2
941.899	248.32
942.069	155.9
942.238	177.21
942.408	154.35
942.577	161.33
942.747	121.41
942.916	73.56
943.086	144.08
943.255	202.98
943.425	159.78
943.594	124.71
943.763	50.89
943.933	91.77
944.102	36.17
944.271	79.18
944.441	142.34
944.61	82.86
944.779	106.3
944.948	198.14
945.117	83.05
945.287	110.57
945.456	60.97
945.625	75.5
945.794	117.73
945.963	105.72
946.132	116.18
946.301	95.07
946.47	138.85
946.639	61.93
946.808	82.08
946.977	111.15
947.146	145.25
947.315	81.89
947.484	155.71
947.653	101.07
947.822	67.36
947.991	84.22
948.16	177.41
948.329	158.03
948.498	90.03
948.666	132.65
948.835	158.81
949.004	78.02
949.173	72.2
949.341	135.95
949.51	109.6
949.679	139.43
949.847	119.09
950.016	185.16
950.185	175.86
950.353	76.08
950.522	122.38
950.69	190.58
950.859	96.62
951.028	155.32
951.196	139.24
951.365	95.84
951.533	134.4
951.701	129.75
951.87	113.28
952.038	74.53
952.207	107.85
952.375	176.25
952.543	85.38
952.712	89.25
952.88	103.59
953.048	171.79
953.217	119.28
953.385	116.18
953.553	161.91
953.721	72.2
953.89	132.26
954.058	33.45
954.226	99.72
954.394	100.49
954.562	52.83
954.73	125.68
954.898	106.5
955.067	150.86
955.235	66
955.403	143.7
955.571	175.66
955.739	128.58
955.907	81.7
956.075	91
956.243	69.88
956.41	128.39
956.578	88.28
956.746	64.07
956.914	130.13
957.082	142.15
957.25	127.42
957.418	97.2
957.585	121.61
957.753	163.85
957.921	75.3
958.089	96.23
958.256	129.16
958.424	130.71
958.592	126.26
958.759	88.09
958.927	141.56
959.095	58.64
959.262	115.22
959.43	116.96
959.597	77.63
959.765	92.93
959.932	96.42
960.1	135.17
960.267	94.68
960.435	109.79
960.602	129.36
960.77	88.48
960.937	84.8
961.104	127.23
961.272	83.05
961.439	111.73
961.606	147.18
961.774	145.25
961.941	86.73
962.108	110.18
962.275	144.86
962.443	163.65
962.61	129.94
962.777	216.16
962.944	129.16
963.111	133.62
963.278	130.33
963.446	136.33
963.613	112.12
963.78	155.71
963.947	145.63
964.114	127.03
964.281	201.24
964.448	153.96
964.615	106.5
964.782	152.61
964.949	156.68
965.116	173.53
965.282	186.71
965.449	126.65
965.616	100.3
965.783	154.55
965.95	151.64
966.117	100.68
966.283	132.26
966.45	160.94
966.617	160.55
966.784	163.07
966.95	167.33
967.117	158.81
967.284	103.78
967.45	122.77
967.617	179.54
967.784	159.97
967.95	198.33
968.117	136.72
968.283	180.31
968.45	243.28
968.616	172.56
968.783	203.18
968.949	146.6
969.116	200.27
969.282	135.36
969.449	167.53
969.615	148.73
969.781	101.65
969.948	110.76
970.114	115.99
970.28	228.56
970.447	150.28
970.613	217.32
970.779	125.87
970.945	157.06
971.112	160.55
971.278	152.61
971.444	141.56
971.61	188.06
971.776	140.98
971.942	167.72
972.108	162.1
972.275	126.26
972.441	167.91
972.607	221.58
972.773	139.05
972.939	157.45
973.105	144.66
973.271	96.62
973.437	101.65
973.602	115.41
973.768	158.03
973.934	152.61
974.1	134.2
974.266	69.68
974.432	139.24
974.598	115.8
974.763	159.97
974.929	94.29
975.095	184.19
975.261	92.74
975.426	91.19
975.592	115.41
975.758	191.55
975.923	75.69
976.089	106.88
976.255	142.53
976.42	134.59
976.586	160.55
976.751	116.96
976.917	217.32
977.082	135.75
977.248	99.91
977.413	68.52
977.579	92.55
977.744	128.2
977.91	93.52
978.075	94.1
978.24	159.58
978.406	115.99
978.571	102.43
978.736	106.5
978.902	139.82
979.067	80.73
979.232	39.85
979.397	98.17
979.563	163.65
979.728	91.19
979.893	110.76
980.058	91.19
980.223	147.57
980.388	124.51
980.554	132.85
980.719	100.88
980.884	122.58
981.049	157.45
981.214	80.53
981.379	120.25
981.544	87.12
981.709	102.82
981.874	139.24
982.039	115.22
982.204	118.9
982.368	95.84
982.533	110.76
982.698	112.89
982.863	176.05
983.028	89.45
983.193	133.04
983.357	114.25
983.522	113.86
983.687	115.99
983.852	114.63
984.016	112.31
984.181	124.71
984.346	148.35
984.51	152.8
984.675	130.52
984.839	126.26
985.004	119.86
985.168	175.08
985.333	127.81
985.498	106.69
985.662	143.31
985.827	127.03
985.991	113.28
986.155	109.21
986.32	129.75
986.484	181.09
986.649	135.75
986.813	52.44
986.977	109.21
987.142	128.78
987.306	33.07
987.47	69.88
987.634	109.02
987.799	132.07
987.963	97.78
988.127	154.55
988.291	164.04
988.455	120.25
988.62	70.65
988.784	123.35
988.948	143.5
989.112	70.65
989.276	111.34
989.44	119.48
989.604	76.85
989.768	81.5
989.932	181.09
990.096	77.63
990.26	61.16
990.424	69.3
990.588	81.31
990.752	167.53
990.915	136.14
991.079	79.76
991.243	84.22
991.407	123.55
991.571	92.35
991.734	127.03
991.898	134.78
992.062	207.44
992.226	94.1
992.389	90.42
992.553	75.3
992.717	56.7
992.88	100.49
993.044	104.75
993.207	83.44
993.371	111.34
993.535	119.48
993.698	95.07
993.862	119.67
994.025	118.51
994.189	87.51
994.352	100.3
994.515	99.91
994.679	124.13
994.842	76.85
995.006	118.9
995.169	54.96
995.332	56.12
995.496	111.73
995.659	59.42
995.822	79.57
995.985	91.38
996.149	140.01
996.312	70.85
996.475	176.44
996.638	80.34
996.801	146.21
996.964	140.01
997.128	85.77
997.291	94.68
997.454	89.83
997.617	31.32
997.78	113.86
997.943	36.17
998.106	119.86
998.269	77.82
998.432	84.41
998.595	74.14
998.758	34.03
998.92	33.65
999.083	17.37
999.246	87.12
999.409	14.27
999.572	20.09
999.735	60.58
999.897	106.5
1000.06	72.01
1000.223	67.55
1000.386	84.02
1000.548	76.08
1000.711	90.8
1000.874	98.94
1001.036	10.01
1001.199	126.26
1001.361	49.15
1001.524	100.68
1001.687	114.25
1001.849	47.79
1002.012	81.31
1002.174	96.23
1002.337	71.04
1002.499	36.94
1002.661	122.38
1002.824	37.33
1002.986	59.8
1003.149	86.15
1003.311	8.07
1003.473	136.14
1003.636	41.59
1003.798	100.88
1003.96	67.94
1004.123	61.55
1004.285	52.83
1004.447	63.48
1004.609	59.61
1004.771	147.96
1004.933	8.85
1005.096	33.45
1005.258	16.79
1005.42	65.03
1005.582	89.25
1005.744	53.41
1005.906	12.92
1006.068	71.62
1006.23	18.15
1006.392	-9.56
1006.554	34.23
1006.716	110.76
1006.878	81.31
1007.04	2.45
1007.202	23.38
1007.363	48.76
1007.525	45.85
1007.687	67.75
1007.849	102.04
1008.011	3.81
1008.172	15.63
1008.334	42.56
1008.496	55.15
1008.658	-2.39
1008.819	8.46
1008.981	33.84
1009.143	27.25
1009.304	54.18
1009.466	82.47
1009.627	90.61
1009.789	142.73
1009.95	61.74
1010.112	36.75
1010.273	64.84
1010.435	4.59
1010.596	30.74
1010.758	37.52
1010.919	67.55
1011.081	1.68
1011.242	41.78
1011.403	80.53
1011.565	32.1
1011.726	63.48
1011.887	20.47
1012.049	39.46
1012.21	80.15
1012.371	118.7
1012.532	-20.41
1012.693	49.92
1012.855	26.09
1013.016	67.75
1013.177	103.78
1013.338	30.55
1013.499	111.15
1013.66	52.05
1013.821	71.04
1013.982	86.35
1014.143	22.41
1014.304	25.12
1014.465	65.81
1014.626	64.07
1014.787	36.94
1014.948	139.05
1015.109	-23.31
1015.27	83.05
1015.431	35
1015.592	18.34
1015.752	98.55
1015.913	54.96
1016.074	46.82
1016.235	58.25
1016.395	50.89
1016.556	17.76
1016.717	28.42
1016.877	84.8
1017.038	2.84
1017.199	40.62
1017.359	65.03
1017.52	52.83
1017.681	21.64
1017.841	20.47
1018.002	26.87
1018.162	-0.84
1018.323	82.86
1018.483	4.39
1018.644	38.68
1018.804	-2.97
1018.964	-15.56
1019.125	20.09
1019.285	44.3
1019.446	-5.49
1019.606	3.04
1019.766	-33.97
1019.926	42.95
1020.087	59.03
1020.247	-22.73
1020.407	48.76
1020.567	84.8
1020.728	13.11
1020.888	-11.5
1021.048	-1.42
1021.208	14.47
1021.368	2.07
1021.528	100.1
1021.688	50.89
1021.848	58.25
1022.008	52.44
1022.168	27.64
1022.328	29
1022.488	51.47
1022.648	24.15
1022.808	55.54
1022.968	40.82
1023.128	4.78
1023.288	4.39
1023.448	36.94
1023.608	70.85
1023.767	43.14
1023.927	5.55
1024.087	13.89
1024.247	-16.34
1024.406	28.22
1024.566	-8.98
1024.726	-14.79
1024.885	9.82
1025.045	59.8
1025.205	21.05
1025.364	23.77
1025.524	29.97
1025.683	28.8
1025.843	47.6
1026.003	14.27
1026.162	90.8
1026.321	34.42
1026.481	14.66
1026.64	22.6
1026.8	33.84
1026.959	13.3
1027.119	53.02
1027.278	7.49
1027.437	-8.01
1027.597	55.93
1027.756	27.06
1027.915	31.71
1028.074	36.94
1028.234	7.1
1028.393	19.31
1028.552	35.58
1028.711	-76.4
1028.87	51.67
1029.03	-11.88
1029.189	34.23
1029.348	-27.19
1029.507	11.17
1029.666	28.8
1029.825	-27.77
1029.984	0.13
1030.143	24.15
1030.302	13.89
1030.461	-46.95
1030.62	-12.46
1030.779	57.87
1030.938	10.2
1031.097	-10.91
1031.255	41.01
1031.414	75.88
1031.573	49.34
1031.732	-58.96
1031.891	19.12
1032.049	47.98
1032.208	46.05
1032.367	2.26
1032.525	-2.39
1032.684	10.79
1032.843	17.76
1033.001	-41.91
1033.16	177.21
1033.319	68.52
1033.477	-4.33
1033.636	12.92
1033.794	-34.16
1033.953	50.31
1034.111	34.03
1034.27	-5.88
1034.428	52.63
1034.587	-1.42
1034.745	28.61
1034.903	-2
1035.062	28.61
1035.22	-1.42
1035.378	53.8
1035.537	-16.34
1035.695	22.22
1035.853	8.07
1036.011	63.68
1036.17	33.07
1036.328	-55.67
1036.486	23.77
1036.644	13.5
1036.802	-57.22
1036.96	17.18
1037.119	5.17
1037.277	-9.95
1037.435	-56.45
1037.593	-20.21
1037.751	-9.56
1037.909	36.17
1038.067	36.17
