Data from gum_old_FLMT105791__188__15-48-15-249.txt Node

Date: Mon Mar 20 15:48:15 GMT 2023
User: antho
Spectrometer: FLMT10579
Trigger mode: 0
Integration Time (sec): 1.000000E-1
Scans to average: 10
Electric dark correction enabled: true
Nonlinearity correction enabled: false
Boxcar width: 0
XAxis mode: Wavelengths
Number of Pixels in Spectrum: 3648
>>>>>Begin Spectral Data<<<<<
345.248	-182.61
345.464	-182.61
345.681	-182.61
345.898	-200.04
346.114	-187.06
346.331	-50.47
346.548	8.43
346.764	-1.45
346.981	17.15
347.197	7.65
347.414	1.65
347.631	-5.72
347.847	65.2
348.064	-11.53
348.28	38.46
348.497	-35.55
348.713	-33.81
348.93	34.58
349.146	19.08
349.363	12.5
349.579	39.23
349.796	3.58
350.012	-2.23
350.229	9.2
350.445	10.95
350.661	-17.15
350.878	-11.33
351.094	19.67
351.311	32.07
351.527	16.95
351.743	-11.14
351.96	52.6
352.176	37.49
352.392	41.75
352.609	48.15
352.825	14.24
353.041	11.53
353.257	-5.52
353.474	24.9
353.69	44.46
353.906	15.02
354.122	-19.67
354.339	82.44
354.555	10.75
354.771	-8.23
354.987	107.82
355.203	73.91
355.42	2.03
355.636	2.23
355.852	8.23
356.068	11.14
356.284	-31.87
356.5	65.58
356.716	25.48
356.932	41.37
357.148	50.08
357.364	0.87
357.58	71.2
357.796	73.14
358.012	56.28
358.228	26.83
358.444	-38.07
358.66	84.76
358.876	45.24
359.092	7.65
359.308	21.99
359.524	10.17
359.74	39.62
359.956	-13.66
360.172	22.18
360.388	63.65
360.604	-0.29
360.819	127.2
361.035	47.18
361.251	47.56
361.467	-1.65
361.683	41.75
361.898	17.34
362.114	60.55
362.33	11.14
362.546	73.33
362.762	25.48
362.977	23.73
363.193	-17.53
363.409	82.63
363.624	12.88
363.84	9.98
364.056	-7.85
364.271	18.7
364.487	41.17
364.703	8.82
364.918	-7.46
365.134	25.09
365.35	19.86
365.565	143.28
365.781	52.02
365.996	46.98
366.212	96.58
366.427	53.38
366.643	20.83
366.858	15.21
367.074	26.64
367.289	113.63
367.505	161.29
367.72	-16.57
367.936	25.28
368.151	90.38
368.367	44.08
368.582	53.38
368.798	13.66
369.013	105.69
369.228	54.73
369.444	21.6
369.659	114.8
369.874	67.13
370.09	115.18
370.305	-11.33
370.52	34.97
370.736	94.84
370.951	52.41
371.166	64.81
371.381	143.47
371.597	95.61
371.812	18.89
372.027	40.01
372.242	42.53
372.458	112.08
372.673	19.28
372.888	35.55
373.103	50.47
373.318	136.49
373.533	82.05
373.749	68.1
373.964	-25.09
374.179	83.41
374.394	8.23
374.609	85.15
374.824	13.27
375.039	69.85
375.254	32.45
375.469	120.22
375.684	44.27
375.899	76.24
376.114	45.82
376.329	62.48
376.544	83.41
376.759	93.68
376.974	39.82
377.189	14.05
377.404	42.72
377.619	92.13
377.834	-6.3
378.049	-2.23
378.264	33.23
378.478	78.76
378.693	52.21
378.908	86.12
379.123	64.81
379.338	110.92
379.553	69.65
379.767	97.94
379.982	114.99
380.197	101.81
380.412	90.58
380.626	90.19
380.841	157.61
381.056	56.48
381.271	127.97
381.485	60.93
381.7	47.37
381.915	64.61
382.129	56.28
382.344	67.33
382.559	65.58
382.773	109.95
382.988	-8.23
383.202	52.8
383.417	15.6
383.632	140.76
383.846	35.55
384.061	76.05
384.275	59.77
384.49	57.06
384.704	91.16
384.919	78.56
385.133	70.43
385.348	107.24
385.562	50.28
385.777	130.49
385.991	89.61
386.206	80.31
386.42	55.12
386.634	131.46
386.849	97.94
387.063	79.92
387.277	49.31
387.492	56.28
387.706	35.94
387.92	65.39
388.135	115.96
388.349	102.4
388.563	74.11
388.778	132.04
388.992	106.85
389.206	105.88
389.42	157.23
389.635	91.93
389.849	122.93
390.063	138.82
390.277	132.43
390.491	172.34
390.706	154.71
390.92	125.26
391.134	138.04
391.348	144.83
391.562	64.42
391.776	104.91
391.99	91.74
392.205	136.88
392.419	89.61
392.633	91.16
392.847	162.26
393.061	68.3
393.275	151.22
393.489	59
393.703	83.8
393.917	126.61
394.131	89.8
394.345	108.6
394.559	120.8
394.773	61.32
394.986	119.45
395.2	129.13
395.414	162.26
395.628	94.65
395.842	131.84
396.056	131.46
396.27	64.61
396.484	150.83
396.697	120.8
396.911	168.46
397.125	111.31
397.339	148.12
397.553	88.06
397.766	166.14
397.98	147.93
398.194	161.68
398.408	139.4
398.621	169.82
398.835	203.53
399.049	192.49
399.262	212.64
399.476	193.84
399.69	214.19
399.903	248.09
400.117	179.51
400.331	195.98
400.544	165.75
400.758	311.25
400.971	193.84
401.185	247.9
401.398	164.78
401.612	245.57
401.826	250.22
402.039	243.44
402.253	196.17
402.466	251.19
402.68	194.62
402.893	249.06
403.106	208.76
403.32	209.34
403.533	257.2
403.747	239.37
403.96	203.92
404.174	256.81
404.387	218.06
404.6	243.83
404.814	283.94
405.027	230.46
405.24	217.48
405.454	231.62
405.667	269.02
405.88	179.31
406.094	256.04
406.307	281.03
406.52	240.15
406.733	190.94
406.947	196.56
407.16	278.71
407.373	280.84
407.586	227.56
407.799	245.77
408.012	285.87
408.226	261.85
408.439	290.91
408.652	198.3
408.865	274.25
409.078	306.41
409.291	251.77
409.504	225.42
409.717	299.44
409.93	278.51
410.143	259.91
410.357	182.99
410.57	198.11
410.783	243.25
410.996	260.3
411.209	261.85
411.421	302.15
411.634	293.24
411.847	254.68
412.06	305.25
412.273	309.9
412.486	280.84
412.699	407.16
412.912	317.07
413.125	297.69
413.338	301.76
413.55	319.97
413.763	274.64
413.976	302.54
414.189	280.45
414.402	275.8
414.615	348.26
414.827	271.92
415.04	337.6
415.253	327.14
415.466	369.19
415.678	387.98
415.891	319.78
416.104	327.34
416.316	312.22
416.529	297.69
416.742	349.42
416.954	385.85
417.167	316.29
417.38	312.61
417.592	357.75
417.805	293.04
418.017	276.57
418.23	340.32
418.442	305.83
418.655	296.34
418.868	331.6
419.08	375
419.293	394.37
419.505	378.87
419.718	366.28
419.93	353.49
420.142	319.2
420.355	371.9
420.567	378.87
420.78	365.31
420.992	334.5
421.205	430.41
421.417	325.79
421.629	335.86
421.842	301.37
422.054	312.61
422.266	401.93
422.479	414.13
422.691	349.42
422.903	385.07
423.115	332.37
423.328	336.64
423.54	341.09
423.752	336.05
423.964	373.84
424.177	376.94
424.389	353.88
424.601	488.34
424.813	371.51
425.025	393.79
425.238	441.45
425.45	365.7
425.662	366.67
425.874	734.59
426.086	361.05
426.298	407.74
426.51	375.39
426.722	381.2
426.934	366.28
427.146	391.66
427.358	351.75
427.57	405.42
427.782	347.49
427.994	362.6
428.206	343.03
428.418	342.25
428.63	413.75
428.842	435.64
429.054	392.44
429.266	432.93
429.478	328.11
429.69	363.76
429.902	322.3
430.114	398.25
430.325	361.44
430.537	301.96
430.749	325.79
430.961	255.26
431.173	307.19
431.384	323.85
431.596	226.97
431.808	368.41
432.02	406
432.231	465.28
432.443	482.33
432.655	446.3
432.867	400.96
433.078	430.6
433.29	522.25
433.502	474.58
433.713	497.25
433.925	466.64
434.136	499.19
434.348	396.7
434.56	396.5
434.771	533.87
434.983	382.75
435.194	418.98
435.406	469.16
435.617	502.87
435.829	519.73
436.04	541.62
436.252	531.16
436.463	554.8
436.675	549.37
436.886	530
437.098	531.16
437.309	585.41
437.521	517.98
437.732	533.68
437.943	489.31
438.155	513.33
438.366	447.07
438.578	569.33
438.789	498.41
439	514.69
439.211	476.91
439.423	509.65
439.634	513.72
439.845	535.03
440.057	535.42
440.268	580.37
440.479	498.61
440.69	549.37
440.902	530.77
441.113	525.54
441.324	508.68
441.535	565.26
441.746	621.44
441.957	547.82
442.168	544.33
442.38	579.01
442.591	587.73
442.802	561.38
443.013	562.74
443.224	622.03
443.435	620.48
443.646	552.66
443.857	582.5
444.068	551.7
444.279	551.11
444.49	667.56
444.701	592.19
444.912	728.39
445.123	673.37
445.334	646.63
445.545	653.99
445.756	612.73
445.967	566.03
446.178	581.53
446.388	630.55
446.599	614.86
446.81	638.11
447.021	566.23
447.232	653.61
447.443	698.17
447.653	619.89
447.864	702.62
448.075	652.64
448.286	674.92
448.496	648.18
448.707	732.46
448.918	625.32
449.129	764.62
449.339	652.25
449.55	681.31
449.761	666.78
449.971	711.15
450.182	669.49
450.393	716.57
450.603	660.19
450.814	721.81
451.024	708.63
451.235	767.92
451.446	803.57
451.656	766.75
451.867	707.08
452.077	708.63
452.288	785.16
452.498	745.25
452.709	682.86
452.919	741.96
453.13	671.62
453.34	726.46
453.55	638.49
453.761	727.42
453.971	661.36
454.182	714.64
454.392	714.25
454.602	784.97
454.813	761.14
455.023	767.72
455.233	659.22
455.444	717.93
455.654	639.08
455.864	715.99
456.075	724.52
456.285	697.01
456.495	722.97
456.705	757.45
456.916	767.34
457.126	814.22
457.336	758.42
457.546	668.14
457.756	720.64
457.967	809.57
458.177	764.04
458.387	734.21
458.597	686.93
458.807	712.7
459.017	721.81
459.227	710.18
459.437	714.83
459.647	755.9
459.857	790.59
460.068	722.77
460.278	821.39
460.488	744.47
460.698	824.49
460.908	770.44
461.117	706.31
461.327	767.92
461.537	792.52
461.747	780.12
461.957	808.41
462.167	889.59
462.377	809.57
462.587	805.5
462.797	833.21
463.007	808.22
463.216	824.69
463.426	852.2
463.636	861.69
463.846	740.41
464.056	786.71
464.265	834.57
464.475	785.55
464.685	802.21
464.895	812.09
465.104	794.65
465.314	823.14
465.524	820.42
465.733	779.74
465.943	884.94
466.153	910.9
466.362	868.86
466.572	839.02
466.782	808.41
466.991	853.55
467.201	864.6
467.41	746.02
467.62	825.46
467.829	832.05
468.039	859.37
468.249	829.92
468.458	871.57
468.668	883.78
468.877	896.95
469.086	903.73
469.296	928.34
469.505	866.73
469.715	964.18
469.924	892.69
470.134	956.82
470.343	921.17
470.552	899.47
470.762	889.01
470.971	861.69
471.18	882.42
471.39	931.63
471.599	863.82
471.808	901.6
472.018	904.7
472.227	958.76
472.436	997.31
472.645	949.46
472.855	931.63
473.064	1036.84
473.273	992.66
473.482	988.79
473.691	1023.28
473.901	1021.73
474.11	970.96
474.319	1093.41
474.528	982.2
474.737	1094.77
474.946	1060.86
475.155	1027.34
475.364	1112.01
475.573	1036.64
475.783	1069.78
475.992	1100
476.201	1124.22
476.41	1085.86
476.619	1026.57
476.828	1067.06
477.037	1055.05
477.245	1078.88
477.454	1129.45
477.663	1048.46
477.872	1115.69
478.081	1177.69
478.29	1103.1
478.499	1225.55
478.708	1174.01
478.917	1210.05
479.125	1160.06
479.334	1189.32
479.543	1185.25
479.752	1210.24
479.961	1219.93
480.169	1243.95
480.378	1174.98
480.587	1344.51
480.796	1247.25
481.004	1233.1
481.213	1234.65
481.422	1259.45
481.63	1266.43
481.839	1300.72
482.048	1344.51
482.256	1300.33
482.465	1322.42
482.674	1343.54
482.882	1343.73
483.091	1396.24
483.299	1325.72
483.508	1340.25
483.716	1406.51
483.925	1360.98
484.134	1291.42
484.342	1346.25
484.551	1380.16
484.759	1371.05
484.967	1389.85
485.176	1405.93
485.384	1389.26
485.593	1421.62
485.801	1378.41
486.01	1324.55
486.218	1307.31
486.426	1193.19
486.635	1216.05
486.843	1190.87
487.051	1252.67
487.26	1224.19
487.468	1308.08
487.676	1309.05
487.885	1291.03
488.093	1387.91
488.301	1417.16
488.509	1428.98
488.717	1478.19
488.926	1454.75
489.134	1405.15
489.342	1431.89
489.55	1371.83
489.758	1433.83
489.967	1418.13
490.175	1544.84
490.383	1482.46
490.591	1620.4
490.799	1489.82
491.007	1605.68
491.215	1561.89
491.423	1522.18
491.631	1540
491.839	1524.31
492.047	1543.49
492.255	1460.56
492.463	1450.88
492.671	1464.24
492.879	1531.28
493.087	1517.33
493.295	1544.84
493.503	1563.44
493.711	1615.95
493.919	1639.2
494.127	1590.57
494.334	1589.41
494.542	1574.49
494.75	1627.96
494.958	1578.75
495.166	1706.43
495.374	1677.37
495.581	1686.67
495.789	1646.75
495.997	1747.31
496.205	1642.69
496.412	1638.62
496.62	1688.6
496.828	1679.69
497.035	1651.21
497.243	1711.27
497.451	1674.85
497.658	1689.57
497.866	1702.55
498.074	1761.84
498.281	1631.45
498.489	1776.76
498.696	1704.1
498.904	1652.37
499.112	1638.23
499.319	1694.61
499.527	1686.47
499.734	1742.66
499.942	1677.17
500.149	1680.66
500.357	1735.88
500.564	1642.3
500.771	1715.92
500.979	1647.92
501.186	1637.65
501.394	1710.88
501.601	1636.1
501.808	1730.26
502.016	1653.54
502.223	1642.1
502.43	1685.31
502.638	1660.51
502.845	1654.89
503.052	1795.75
503.26	1728.13
503.467	1806.4
503.674	1729.87
503.881	1748.86
504.089	1824.23
504.296	1739.95
504.503	1678.53
504.71	1722.7
504.917	1676.4
505.125	1768.82
505.332	1732
505.539	1814.54
505.746	1849.41
505.953	1866.46
506.16	1835.66
506.367	1895.91
506.574	1930.01
506.781	1937.96
506.988	1837.4
507.195	1847.48
507.402	1845.15
507.609	1880.8
507.816	1802.72
508.023	1825
508.23	1805.63
508.437	1770.17
508.644	1828.88
508.851	1820.35
509.058	1873.63
509.265	1859.49
509.472	1908.31
509.679	2013.32
509.885	1904.83
510.092	1873.25
510.299	1897.46
510.506	1883.9
510.713	1863.95
510.92	1921.49
511.126	1930.4
511.333	1971.47
511.54	1946.29
511.746	1972.25
511.953	1997.63
512.16	2008.29
512.367	1920.13
512.573	1937.76
512.78	2000.92
512.987	1983.1
513.193	1947.84
513.4	1847.09
513.606	1941.64
513.813	1968.37
514.02	1911.8
514.226	1999.96
514.433	2007.51
514.639	1906.18
514.846	1974.19
515.052	1965.28
515.259	1921.1
515.465	1966.05
515.672	1978.45
515.878	2054.2
516.085	1993.56
516.291	2057.11
516.497	1984.07
516.704	1975.35
516.91	1897.27
517.117	1833.72
517.323	1804.08
517.529	1770.17
517.736	1772.3
517.942	1762.23
518.148	1837.4
518.354	1922.26
518.561	1906.76
518.767	1917.42
518.973	1933.89
519.179	1961.21
519.386	1936.41
519.592	1926.91
519.798	1921.29
520.004	2086.56
520.21	2028.05
520.417	2116.59
520.623	2129.19
520.829	2110.97
521.035	2149.33
521.241	2147.78
521.447	2163.87
521.653	2288.83
521.859	2145.85
522.065	2171.42
522.271	2279.73
522.477	2224.51
522.683	2263.45
522.889	2240.01
523.095	2223.35
523.301	2205.33
523.507	2205.13
523.713	2189.83
523.919	2176.07
524.125	2263.65
524.331	2286.9
524.537	2379.31
524.742	2347.73
524.948	2335.33
525.154	2372.14
525.36	2484.52
525.566	2325.45
525.772	2417.87
525.977	2302.2
526.183	2386.09
526.389	2431.43
526.595	2323.9
526.8	2309.18
527.006	2187.7
527.212	2167.35
527.417	2146.04
527.623	2152.82
527.829	2229.16
528.034	2295.81
528.24	2285.93
528.446	2264.23
528.651	2419.81
528.857	2384.35
529.062	2473.86
529.268	2439.18
529.473	2519.78
529.679	2507.19
529.884	2546.13
530.09	2574.61
530.295	2531.79
530.501	2536.25
530.706	2531.21
530.912	2500.02
531.117	2544.97
531.323	2542.45
531.528	2598.05
531.733	2605.42
531.939	2598.83
532.144	2621.69
532.35	2560.27
532.555	2635.06
532.76	2577.71
532.966	2558.72
533.171	2513.58
533.376	2469.02
533.581	2423.68
533.787	2535.67
533.992	2554.46
534.197	2542.64
534.402	2555.82
534.607	2581.97
534.813	2666.45
535.018	2527.72
535.223	2594.57
535.428	2620.92
535.633	2660.25
535.838	2699.19
536.043	2720.89
536.249	2764.68
536.454	2684.27
536.659	2733.68
536.864	2688.15
537.069	2627.31
537.274	2676.91
537.479	2666.25
537.684	2660.25
537.889	2585.07
538.094	2785.79
538.299	2648.43
538.504	2656.76
538.708	2689.5
538.913	2749.56
539.118	2721.28
539.323	2755.18
539.528	2676.52
539.733	2676.13
539.938	2673.81
540.142	2675.55
540.347	2657.34
540.552	2615.88
540.757	2628.08
540.962	2578.1
541.166	2563.95
541.371	2534.7
541.576	2647.65
541.781	2520.36
541.985	2707.91
542.19	2625.18
542.395	2740.26
542.599	2779.59
542.804	2689.31
543.008	2784.05
543.213	2714.5
543.418	2668.58
543.622	2735.42
543.827	2652.11
544.031	2766.03
544.236	2791.99
544.44	2759.64
544.645	2866.39
544.849	2743.17
545.054	2786.96
545.258	2869.88
545.463	2817.96
545.667	2717.01
545.872	2834.04
546.076	2807.49
546.281	2807.11
546.485	2754.6
546.689	2795.29
546.894	2834.62
547.098	2816.6
547.302	2747.43
547.507	2777.85
547.711	2843.34
547.915	2822.99
548.119	2708.68
548.324	2730.96
548.528	2789.67
548.732	2738.33
548.936	2819.51
549.141	2793.35
549.345	2790.25
549.549	2809.82
549.753	2823.58
549.957	2892.94
550.161	2879.57
550.366	2797.03
550.57	2822.41
550.774	2818.34
550.978	2798.39
551.182	2826.09
551.386	2798.39
551.59	2808.46
551.794	2796.26
551.998	2809.82
552.202	2796.84
552.406	2756.15
552.61	2842.76
552.814	2832.88
553.018	2899.91
553.222	2763.71
553.426	2794.71
553.63	2862.91
553.833	2791.41
554.037	2718.56
554.241	2832.49
554.445	2820.48
554.649	2820.09
554.853	2773.01
555.056	2844.5
555.26	2868.91
555.464	2821.06
555.668	2826.87
555.871	2863.68
556.075	2861.55
556.279	2762.35
556.483	2774.17
556.686	2806.53
556.89	2773.01
557.094	2793.35
557.297	2719.34
557.501	2809.24
557.704	2684.85
557.908	2793.93
558.112	2693.96
558.315	2783.47
558.519	2735.81
558.722	2722.63
558.926	2682.53
559.129	2581.39
559.333	2558.34
559.536	2612.78
559.74	2623.24
559.943	2609.29
560.147	2571.12
560.35	2625.37
560.553	2648.62
560.757	2578.1
560.96	2705.78
561.164	2641.84
561.367	2741.62
561.57	2646.68
561.774	2663.15
561.977	2636.61
562.18	2610.07
562.384	2709.07
562.587	2655.98
562.79	2628.47
562.993	2589.92
563.197	2668.19
563.4	2709.07
563.603	2696.67
563.806	2735.61
564.009	2629.83
564.212	2687.95
564.416	2525.01
564.619	2617.62
564.822	2532.76
565.025	2674.2
565.228	2572.87
565.431	2612.97
565.634	2482.39
565.837	2558.14
566.04	2492.85
566.243	2498.85
566.446	2392.68
566.649	2531.6
566.852	2478.12
567.055	2516.68
567.258	2518.42
567.461	2573.84
567.664	2578.48
567.867	2468.24
568.07	2492.07
568.273	2520.94
568.475	2562.6
568.678	2463.4
568.881	2460.3
569.084	2454.1
569.287	2345.99
569.489	2365.94
569.692	2480.06
569.895	2466.69
570.098	2375.63
570.3	2379.51
570.503	2306.27
570.706	2306.46
570.909	2367.88
571.111	2298.52
571.314	2298.71
571.516	2291.93
571.719	2312.86
571.922	2297.75
572.124	2303.75
572.327	2297.55
572.529	2244.27
572.732	2263.45
572.935	2351.41
573.137	2382.61
573.34	2317.31
573.542	2376.41
573.745	2322.16
573.947	2329.71
574.15	2315.57
574.352	2297.16
574.554	2410.89
574.757	2270.81
574.959	2278.37
575.162	2285.54
575.364	2233.03
575.566	2358.97
575.769	2210.95
575.971	2235.36
576.173	2121.05
576.376	2200.68
576.578	2258.03
576.78	2273.91
576.982	2131.9
577.185	2184.98
577.387	2141.97
577.589	2186.53
577.791	2237.3
577.993	2220.83
578.196	2218.31
578.398	2215.98
578.6	2223.73
578.802	2085.98
579.004	2098.77
579.206	2133.64
579.408	2150.69
579.61	2089.85
579.812	2209.2
580.014	2125.7
580.216	2128.22
580.418	2142.75
580.62	2099.74
580.822	2079
581.024	2163.87
581.226	2181.69
581.428	2137.9
581.63	2225.48
581.832	2122.79
582.034	2181.5
582.236	2101.29
582.438	2190.6
582.64	2232.26
582.841	2230.71
583.043	2264.61
583.245	2174.33
583.447	2195.64
583.649	2151.85
583.85	2152.05
584.052	2175.3
584.254	2103.61
584.456	2172
584.657	2110.97
584.859	2165.8
585.061	2091.99
585.262	2129.57
585.464	2079
585.666	2125.12
585.867	2077.26
586.069	2160.18
586.27	2117.56
586.472	2054.59
586.674	2058.85
586.875	2042.39
587.077	2043.94
587.278	2104.39
587.48	2078.81
587.681	2177.04
587.883	2112.33
588.084	2000.15
588.285	2084.04
588.487	2008.87
588.688	2053.82
588.89	1967.02
589.091	1922.26
589.292	1915.09
589.494	1889.91
589.695	1833.91
589.896	1774.24
590.098	1755.45
590.299	1828.49
590.5	1823.65
590.702	1815.9
590.903	1835.66
591.104	1956.94
591.305	1961.4
591.507	1975.54
591.708	1934.86
591.909	1936.21
592.11	1987.94
592.311	2003.06
592.512	1904.05
592.714	1878.48
592.915	1901.73
593.116	1895.72
593.317	1961.01
593.518	1968.18
593.719	1935.83
593.92	1937.76
594.121	2024.17
594.322	1966.24
594.523	1956.36
594.724	1900.18
594.925	1887.58
595.126	1912.96
595.327	1921.68
595.528	1907.54
595.729	1916.26
595.929	1897.85
596.13	1918.39
596.331	1908.7
596.532	1952.88
596.733	1988.91
596.934	2003.64
597.135	1992.21
597.335	1945.71
597.536	1901.53
597.737	1918.78
597.938	1877.12
598.138	1922.84
598.339	1945.9
598.54	1944.54
598.74	1925.94
598.941	1906.38
599.142	1924.2
599.342	1911.8
599.543	1882.35
599.744	1898.82
599.944	1897.27
600.145	1872.86
600.345	1908.12
600.546	1968.76
600.746	1958.88
600.947	1990.07
601.147	1888.16
601.348	1912.58
601.548	1856.2
601.749	1897.66
601.949	1835.66
602.15	1846.12
602.35	1837.79
602.551	1908.31
602.751	1847.86
602.951	1828.1
603.152	1757.97
603.352	1895.53
603.552	1873.63
603.753	1907.73
603.953	1902.5
604.153	1868.6
604.354	1887.97
604.554	1863.56
604.754	1870.73
604.954	1858.13
605.155	1849.03
605.355	1891.46
605.555	1895.91
605.755	1917.81
605.955	1868.21
606.155	1918.97
606.356	1876.73
606.556	1896.3
606.756	1887.19
606.956	1789.16
607.156	1898.82
607.356	1817.64
607.556	1844.38
607.756	1843.6
607.956	1960.82
608.156	1853.87
608.356	1800.59
608.556	1887.39
608.756	1796.71
608.956	1812.8
609.156	1816.67
609.356	1791.68
609.556	1789.55
609.755	1812.8
609.955	1788.38
610.155	1806.21
610.355	1812.99
610.555	1776.76
610.755	1745.18
610.954	1705.85
611.154	1782.38
611.354	1829.65
611.554	1762.81
611.753	1734.91
611.953	1687.25
612.153	1750.8
612.352	1746.53
612.552	1676.01
612.752	1667.29
612.951	1733.36
613.151	1740.33
613.351	1714.76
613.55	1670.97
613.75	1742.08
613.949	1693.64
614.149	1735.88
614.348	1699.26
614.548	1634.74
614.747	1615.17
614.947	1664.97
615.146	1606.65
615.346	1755.83
615.545	1714.37
615.745	1677.75
615.944	1728.52
616.144	1669.42
616.343	1686.09
616.542	1620.02
616.742	1641.33
616.941	1644.82
617.14	1568.67
617.34	1615.37
617.539	1603.36
617.738	1596.96
617.938	1677.75
618.137	1611.69
618.336	1595.8
618.535	1650.82
618.734	1641.91
618.934	1643.27
619.133	1674.85
619.332	1689.96
619.531	1614.79
619.73	1666.9
619.929	1645.4
620.128	1648.11
620.328	1673.69
620.527	1621.18
620.726	1629.51
620.925	1625.05
621.124	1608.59
621.323	1648.5
621.522	1561.7
621.721	1559.57
621.92	1573.52
622.119	1621.95
622.318	1563.44
622.517	1590.37
622.715	1540.97
622.914	1541.94
623.113	1573.52
623.312	1517.14
623.511	1599.09
623.71	1564.99
623.909	1562.09
624.107	1643.85
624.306	1489.82
624.505	1504.16
624.704	1529.92
624.902	1522.18
625.101	1578.56
625.3	1548.91
625.499	1523.34
625.697	1502.99
625.896	1504.35
626.095	1527.6
626.293	1471.41
626.492	1479.94
626.69	1517.72
626.889	1485.75
627.088	1542.91
627.286	1484.59
627.485	1471.8
627.683	1502.8
627.882	1521.01
628.08	1439.06
628.279	1466.57
628.477	1550.46
628.676	1445.26
628.874	1482.65
629.073	1434.41
629.271	1422.59
629.469	1529.73
629.668	1476.64
629.866	1463.47
630.065	1444.48
630.263	1497.96
630.461	1392.17
630.66	1437.31
630.858	1453.39
631.056	1503.58
631.254	1501.83
631.453	1413.68
631.651	1501.64
631.849	1451.07
632.047	1431.11
632.245	1397.6
632.444	1488.08
632.642	1458.24
632.84	1475.87
633.038	1453.39
633.236	1415.23
633.434	1404.38
633.632	1407.86
633.83	1411.74
634.028	1491.76
634.227	1417.16
634.425	1489.82
634.623	1423.56
634.821	1434.8
635.019	1459.79
635.216	1425.11
635.414	1465.21
635.612	1441.96
635.81	1406.7
636.008	1496.41
636.206	1477.81
636.404	1462.31
636.602	1391.2
636.8	1434.21
636.997	1430.15
637.195	1473.93
637.393	1432.66
637.591	1490.59
637.789	1447.78
637.986	1404.38
638.184	1433.63
638.382	1485.75
638.58	1449.52
638.777	1515.59
638.975	1434.02
639.173	1438.48
639.37	1432.66
639.568	1465.79
639.765	1444.68
639.963	1423.95
640.161	1441.58
640.358	1435.76
640.556	1357.88
640.753	1335.79
640.951	1351.29
641.148	1410.96
641.346	1365.05
641.543	1390.81
641.741	1379.38
641.938	1319.71
642.136	1335.79
642.333	1334.82
642.531	1411.93
642.728	1470.44
642.925	1375.7
643.123	1339.67
643.32	1367.56
643.517	1371.44
643.715	1377.06
643.912	1344.12
644.109	1335.6
644.306	1333.85
644.504	1330.37
644.701	1365.82
644.898	1359.43
645.095	1328.62
645.293	1356.13
645.49	1344.9
645.687	1335.02
645.884	1386.36
646.081	1274.18
646.278	1281.35
646.475	1277.08
646.672	1292.2
646.87	1327.85
647.067	1290.07
647.264	1323
647.461	1259.45
647.658	1217.99
647.855	1307.31
648.052	1238.53
648.249	1159.48
648.446	1245.5
648.642	1248.99
648.839	1228.45
649.036	1229.42
649.233	1168.59
649.43	1190.48
649.627	1131
649.824	1162.97
650.021	1185.44
650.217	1157.74
650.414	1191.25
650.611	1231.17
650.808	1209.27
651.004	1162.97
651.201	1259.65
651.398	1321.84
651.595	1243.57
651.791	1196.29
651.988	1273.98
652.185	1167.62
652.381	1215.47
652.578	1152.7
652.775	1206.37
652.971	1200.75
653.168	1191.06
653.364	1269.53
653.561	1138.94
653.757	1175.95
653.954	1214.31
654.15	1172.66
654.347	1258.49
654.543	1204.62
654.74	1132.94
654.936	1138.36
655.133	1167.04
655.329	1164.32
655.525	1144.37
655.722	1209.08
655.918	1127.12
656.115	1149.79
656.311	1060.28
656.507	1006.23
656.704	967.67
656.9	1018.63
657.096	1012.04
657.292	1009.33
657.489	1088.76
657.685	1046.14
657.881	1057.57
658.077	1071.33
658.273	1082.37
658.47	1139.52
658.666	1072.1
658.862	1126.74
659.058	1122.28
659.254	1146.5
659.45	1137.97
659.646	1140.69
659.842	1077.33
660.038	1152.51
660.234	1087.21
660.43	1158.9
660.626	1206.56
660.822	1174.79
661.018	1182.15
661.214	1142.43
661.41	1079.46
661.606	1144.37
661.802	1197.26
661.998	1152.31
662.194	1069.58
662.39	1127.9
662.586	1142.43
662.781	1140.49
662.977	1141.07
663.173	1143.21
663.369	1124.22
663.564	1130.22
663.76	1158.12
663.956	1079.27
664.152	1155.22
664.347	1046.33
664.543	1107.36
664.739	1071.91
664.934	1049.82
665.13	1027.15
665.326	1129.06
665.521	1121.51
665.717	1075.59
665.912	1030.06
666.108	993.25
666.304	1047.69
666.499	1060.09
666.695	1011.26
666.89	1055.24
667.086	1100
667.281	1096.9
667.477	1108.52
667.672	1058.93
667.867	1036.45
668.063	1066.48
668.258	1027.15
668.454	1051.76
668.649	1109.11
668.844	1066.87
669.04	1082.56
669.235	1041.49
669.43	1010.88
669.626	1001.38
669.821	999.25
670.016	977.94
670.211	1040.91
670.407	1003.13
670.602	1040.33
670.797	1027.73
670.992	1062.61
671.187	996.35
671.382	1093.02
671.578	984.53
671.773	1036.26
671.968	974.84
672.163	1012.81
672.358	1029.67
672.553	1007.78
672.748	1014.17
672.943	1074.43
673.138	1012.62
673.333	1055.63
673.528	982.01
673.723	1002.16
673.918	967.28
674.113	968.64
674.308	1080.24
674.503	1035.29
674.698	1030.25
674.892	1019.01
675.087	1030.64
675.282	1038.58
675.477	987.43
675.672	1025.41
675.867	983.56
676.061	948.49
676.256	956.24
676.451	949.26
676.646	979.88
676.84	957.4
677.035	933.18
677.23	942.48
677.424	1036.64
677.619	1021.34
677.814	1016.88
678.008	1042.65
678.203	920.2
678.397	960.31
678.592	983.56
678.787	1052.92
678.981	963.21
679.176	987.63
679.37	960.11
679.565	966.51
679.759	970
679.954	971.93
680.148	1025.99
680.342	1040.13
680.537	1013.01
680.731	936.67
680.926	1005.45
681.12	989.18
681.314	961.86
681.509	978.52
681.703	980.07
681.897	1007.19
682.092	970.19
682.286	922.33
682.48	1043.81
682.674	994.99
682.869	930.86
683.063	929.7
683.257	1028.12
683.451	946.36
683.645	1000.61
683.839	976.97
684.034	966.9
684.228	1011.46
684.422	916.91
684.616	922.91
684.81	976.39
685.004	960.31
685.198	954.5
685.392	1000.22
685.586	931.83
685.78	967.28
685.974	974.65
686.168	993.83
686.362	1053.69
686.556	883.78
686.75	876.61
686.944	887.65
687.138	900.83
687.331	773.54
687.525	813.06
687.719	717.54
687.913	833.02
688.107	783.8
688.301	801.63
688.494	870.6
688.688	814.42
688.882	787.1
689.076	750.29
689.269	818.68
689.463	900.63
689.657	811.51
689.85	796.79
690.044	843.48
690.238	812.09
690.431	845.03
690.625	817.13
690.818	865.76
691.012	888.62
691.205	895.98
691.399	836.12
691.593	888.04
691.786	940.55
691.98	930.66
692.173	984.72
692.366	935.12
692.56	966.31
692.753	976
692.947	902.38
693.14	981.62
693.333	1009.13
693.527	925.63
693.72	987.63
693.914	944.23
694.107	955.66
694.3	978.52
694.493	963.41
694.687	979.68
694.88	917.88
695.073	1024.63
695.266	985.88
695.46	990.53
695.653	1049.43
695.846	1034.32
696.039	950.81
696.232	995.76
696.425	1080.04
696.618	1037.23
696.812	1071.33
697.005	1126.54
697.198	1157.93
697.391	1158.32
697.584	1123.44
697.777	1187.19
697.97	1179.63
698.163	1172.27
698.356	1150.57
698.549	1263.33
698.742	1205.2
698.935	1142.24
699.127	1197.07
699.32	1155.41
699.513	1185.25
699.706	1198.62
699.899	1207.72
700.092	1184.09
700.285	1225.74
700.477	1187.38
700.67	1226.71
700.863	1246.09
701.056	1360.01
701.248	1322.42
701.441	1281.54
701.634	1256.74
701.826	1387.13
702.019	1276.12
702.212	1359.23
702.404	1283.28
702.597	1284.25
702.79	1312.35
702.982	1374.73
703.175	1379.96
703.367	1420.07
703.56	1418.71
703.752	1473.93
703.945	1464.24
704.137	1462.69
704.33	1494.47
704.522	1512.29
704.715	1546.59
704.907	1563.83
705.1	1618.66
705.292	1591.54
705.484	1542.13
705.677	1626.8
705.869	1636.87
706.061	1691.7
706.254	1712.24
706.446	1635.71
706.638	1650.24
706.831	1747.89
707.023	1702.55
707.215	1843.99
707.407	1821.9
707.599	1776.57
707.792	1847.28
707.984	1827.91
708.176	1855.23
708.368	1857.75
708.56	1904.44
708.752	1868.01
708.944	1850.77
709.136	1947.84
709.329	1865.88
709.521	2050.14
709.713	1982.32
709.905	1986.97
710.097	2054.4
710.289	2011.77
710.481	2013.91
710.672	2055.95
710.864	2079.97
711.056	2139.65
711.248	2120.47
711.44	2174.91
711.632	2119.89
711.824	2195.45
712.016	2240.59
712.207	2234.39
712.399	2214.05
712.591	2339.21
712.783	2255.31
712.975	2304.33
713.166	2241.17
713.358	2272.95
713.55	2374.28
713.741	2381.25
713.933	2392.29
714.125	2352.58
714.316	2401.59
714.508	2465.53
714.7	2435.5
714.891	2467.86
715.083	2500.4
715.274	2461.85
715.466	2500.6
715.657	2517.07
715.849	2431.04
716.04	2544.77
716.232	2472.31
716.423	2508.74
716.615	2461.66
716.806	2434.72
716.998	2438.41
717.189	2357.03
717.381	2298.91
717.572	2259.19
717.763	2314.21
717.955	2239.81
718.146	2178.01
718.337	2164.83
718.528	2195.25
718.72	2117.17
718.911	2167.93
719.102	2117.56
719.293	2179.17
719.485	2148.95
719.676	2158.05
719.867	2107.1
720.058	2139.45
720.249	2157.86
720.44	2188.28
720.632	2230.9
720.823	2275.46
721.014	2385.32
721.205	2461.46
721.396	2516.68
721.587	2580.81
721.778	2657.15
721.969	2694.73
722.16	2768.36
722.351	2743.95
722.542	2905.14
722.733	2925.87
722.924	2841.79
723.115	2926.26
723.305	2884.99
723.496	2931.3
723.687	2777.08
723.878	2794.32
724.069	2765.06
724.26	2831.13
724.45	2755.18
724.641	2736.97
724.832	2807.3
725.023	2759.06
725.213	2747.05
725.404	2770.88
725.595	2775.33
725.785	2728.45
725.976	2834.04
726.167	2884.22
726.357	2802.65
726.548	2977.02
726.739	2859.61
726.929	2929.94
727.12	2967.92
727.31	3022.94
727.501	2966.75
727.691	2970.82
727.882	2968.89
728.072	3044.06
728.263	3032.82
728.453	3141.9
728.644	3147.13
728.834	3074.48
729.024	3057.82
729.215	3092.5
729.405	3087.85
729.596	3185.88
729.786	3218.82
729.976	3207.58
730.167	3247.49
730.357	3205.26
730.547	3230.25
730.737	3299.03
730.928	3348.05
731.118	3393.77
731.308	3316.27
731.498	3281.01
731.688	3415.67
731.879	3431.75
732.069	3467.4
732.259	3499.17
732.449	3497.82
732.639	3645.26
732.829	3605.15
733.019	3692.53
733.209	3748.91
733.399	3741.55
733.589	3818.47
733.779	3830.09
733.969	3830.29
734.159	3853.54
734.349	3910.88
734.539	4015.9
734.729	4008.73
734.919	3992.26
735.109	4121.88
735.299	4032.56
735.488	4086.61
735.678	4057.75
735.868	4114.9
736.058	4054.26
736.248	4065.49
736.437	4009.89
736.627	3997.88
736.817	4160.82
737.007	4081.96
737.196	4153.65
737.386	4128.85
737.576	4067.43
737.765	4146.87
737.955	4127.3
738.144	4283.27
738.334	4252.85
738.524	4157.52
738.713	4233.67
738.903	4204.41
739.092	4237.16
739.282	4254.01
739.471	4238.51
739.661	4204.41
739.85	4291.21
740.04	4278.42
740.229	4308.65
740.419	4336.74
740.608	4334.42
740.797	4367.93
740.987	4428.19
741.176	4459.96
741.365	4340.23
741.555	4285.01
741.744	4394.67
741.933	4318.72
742.123	4385.57
742.312	4449.89
742.501	4471.78
742.69	4437.1
742.88	4382.85
743.069	4518.86
743.258	4441.95
743.447	4489.22
743.636	4517.7
743.825	4505.88
744.014	4504.14
744.204	4544.83
744.393	4466.94
744.582	4564.78
744.771	4606.24
744.96	4542.5
745.149	4609.92
745.338	4523.51
745.527	4642.28
745.716	4523.32
745.905	4482.63
746.094	4600.82
746.283	4581.06
746.471	4542.31
746.66	4619.22
746.849	4585.13
747.038	4644.41
747.227	4545.79
747.416	4637.24
747.604	4555.09
747.793	4580.48
747.982	4604.11
748.171	4623.68
748.359	4609.54
748.548	4606.63
748.737	4575.24
748.926	4620.58
749.114	4479.73
749.303	4611.67
749.491	4592.29
749.68	4514.79
749.869	4601.21
750.057	4543.08
750.246	4525.45
750.434	4562.26
750.623	4548.31
750.811	4526.81
751	4565.17
751.188	4512.86
751.377	4540.37
751.565	4479.15
751.754	4486.12
751.942	4484.18
752.131	4565.94
752.319	4523.9
752.507	4428.19
752.696	4537.27
752.884	4547.93
753.072	4469.07
753.261	4480.7
753.449	4511.89
753.637	4442.53
753.825	4586.09
754.014	4475.46
754.202	4480.89
754.39	4514.02
754.578	4524.09
754.766	4485.73
754.955	4409.4
755.143	4553.93
755.331	4444.66
755.519	4465.39
755.707	4417.73
755.895	4408.82
756.083	4496
756.271	4380.53
756.459	4465.58
756.647	4466.75
756.835	4401.84
757.023	4387.12
757.211	4411.33
757.399	4367.35
757.587	4338.68
757.775	4337.71
757.963	4335.19
758.151	4319.3
758.339	4328.99
758.526	4275.52
758.714	4350.88
758.902	4196.66
759.09	4147.26
759.278	4004.27
759.465	3702.03
759.653	3353.09
759.841	3060.53
760.028	2663.73
760.216	2357.81
760.404	2257.06
760.591	1907.73
760.779	1641.52
760.967	1518.88
761.154	1328.82
761.342	1360.78
761.529	1380.55
761.717	1468.12
761.905	1488.66
762.092	1595.61
762.28	1559.18
762.467	1608.97
762.655	1552.59
762.842	1555.5
763.029	1643.07
763.217	1648.69
763.404	1664
763.592	1681.82
763.779	1634.55
763.966	1736.85
764.154	1731.81
764.341	1807.76
764.528	1828.68
764.716	1905.21
764.903	1958.88
765.09	2016.42
765.277	2071.06
765.465	2221.6
765.652	2374.08
765.839	2413.8
766.026	2527.14
766.213	2550
766.4	2683.3
766.588	2897.01
766.775	2903.79
766.962	2950.87
767.149	3071.18
767.336	3228.12
767.523	3176.97
767.71	3319.57
767.897	3437.95
768.084	3525.72
768.271	3534.24
768.458	3609.8
768.645	3670.64
768.832	3630.53
769.019	3656.3
769.206	3699.89
769.392	3770.22
769.579	3823.7
769.766	3828.35
769.953	3790.96
770.14	3856.83
770.327	3846.95
770.513	3911.08
770.7	3963
770.887	3809.75
771.073	3909.14
771.26	3933.55
771.447	3858.57
771.634	3832.42
771.82	3959.32
772.007	3834.74
772.193	3910.11
772.38	3860.12
772.567	3865.35
772.753	3836.49
772.94	3938.2
773.126	3893.45
773.313	3931.23
773.499	3895.19
773.686	3934.13
773.872	3810.72
774.059	3884.34
774.245	3854.12
774.432	3821.76
774.618	3795.8
774.804	3842.3
774.991	3791.92
775.177	3870.59
775.363	3766.35
775.55	3844.24
775.736	3751.62
775.922	3770.42
776.109	3780.49
776.295	3816.53
776.481	3802
776.667	3789.21
776.853	3793.47
777.04	3745.23
777.226	3739.03
777.412	3816.14
777.598	3708.23
777.784	3715.59
777.97	3717.91
778.156	3760.54
778.342	3685.17
778.528	3655.72
778.715	3660.37
778.901	3653.78
779.087	3722.95
779.272	3687.3
779.458	3669.09
779.644	3681.49
779.83	3585.39
780.016	3730.89
780.202	3635.18
780.388	3653.01
780.574	3529.78
780.76	3591.01
780.946	3649.52
781.131	3633.63
781.317	3607.28
781.503	3517.38
781.689	3535.98
781.874	3714.23
782.06	3515.45
782.246	3581.13
782.432	3551.1
782.617	3517.38
782.803	3610
782.989	3490.07
783.174	3487.16
783.36	3472.05
783.545	3470.11
783.731	3493.55
783.916	3400.55
784.102	3499.56
784.288	3432.52
784.473	3446.47
784.659	3393.58
784.844	3502.85
785.029	3404.04
785.215	3402.88
785.4	3337.01
785.586	3444.34
785.771	3344.76
785.956	3414.89
786.142	3364.52
786.327	3290.7
786.512	3365.68
786.698	3346.69
786.883	3289.92
787.068	3320.15
787.254	3358.32
787.439	3318.02
787.624	3328.67
787.809	3253.5
787.994	3278.69
788.18	3354.06
788.365	3239.94
788.55	3244.98
788.735	3265.9
788.92	3247.3
789.105	3230.25
789.29	3275.39
789.475	3220.37
789.66	3215.72
789.845	3161.47
790.03	3179.68
790.215	3223.47
790.4	3218.24
790.585	3220.76
790.77	3170.38
790.955	3125.05
791.14	3163.21
791.325	3213.39
791.51	3039.6
791.695	3157.98
791.879	3130.28
792.064	3089.59
792.249	3187.63
792.434	3092.11
792.618	3119.23
792.803	3173.29
792.988	3112.26
793.173	3133.18
793.357	3123.69
793.542	3076.03
793.727	3148.1
793.911	3152.56
794.096	3076.61
794.281	3105.67
794.465	3205.06
794.65	3118.07
794.834	3154.5
795.019	3190.73
795.203	3157.01
795.388	3211.46
795.572	3202.35
795.757	3141.9
795.941	3232.19
796.126	3145.2
796.31	3136.86
796.494	3189.18
796.679	3130.66
796.863	3095.6
797.048	3222.31
797.232	3190.53
797.416	3161.86
797.601	3154.69
797.785	3218.24
797.969	3236.06
798.153	3134.93
798.338	3241.88
798.522	3280.62
798.706	3245.17
798.89	3239.36
799.074	3338.94
799.258	3274.43
799.443	3209.52
799.627	3197.12
799.811	3311.82
799.995	3215.53
800.179	3205.84
800.363	3183.95
800.547	3219.59
800.731	3201.19
800.915	3144.61
801.099	3177.16
801.283	3153.14
801.467	3207.19
801.651	3183.75
801.835	3213.98
802.019	3244.2
802.202	3278.88
802.386	3165.73
802.57	3164.18
802.754	3186.08
802.938	3161.66
803.121	3146.94
803.305	3199.64
803.489	3185.11
803.673	3243.62
803.856	3183.36
804.04	3186.08
804.224	3181.43
804.407	3161.86
804.591	3145.78
804.775	3154.5
804.958	3180.65
805.142	3285.27
805.326	3140.16
805.509	3200.8
805.693	3246.72
805.876	3244.78
806.06	3182.98
806.243	3219.01
806.427	3238
806.61	3247.69
806.794	3159.73
806.977	3231.8
807.16	3185.69
807.344	3229.67
807.527	3189.56
807.71	3172.13
807.894	3154.88
808.077	3224.83
808.26	3140.35
808.444	3130.28
808.627	3239.36
808.81	3132.99
808.993	3058.98
809.177	3095.98
809.36	3083.97
809.543	3141.71
809.726	2987.29
809.909	3013.45
810.092	3002.21
810.276	3005.5
810.459	3017.52
810.642	2973.15
810.825	2948.74
811.008	2977.41
811.191	2891
811.374	2912.89
811.557	2928.2
811.74	2963.46
811.923	2845.27
812.106	2863.1
812.289	2799.16
812.472	2886.93
812.654	2860.19
812.837	2812.73
813.02	2746.46
813.203	2695.31
813.386	2593.6
813.569	2590.88
813.751	2549.81
813.934	2614.33
814.117	2553.88
814.3	2507.77
814.482	2473.47
814.665	2433.76
814.848	2351.41
815.03	2325.45
815.213	2322.93
815.396	2318.48
815.578	2274.88
815.761	2236.13
815.943	2322.74
816.126	2185.76
816.309	2184.98
816.491	2100.32
816.674	2053.43
816.856	2114.07
817.039	2062.34
817.221	2167.35
817.403	2101.48
817.586	2090.63
817.768	2152.24
817.951	2061.57
818.133	2060.4
818.315	2040.26
818.498	2125.5
818.68	2156.7
818.862	2086.75
819.045	2168.32
819.227	2129.57
819.409	2126.47
819.591	2137.52
819.774	2129.57
819.956	2090.05
820.138	2170.65
820.32	2168.32
820.502	2197.77
820.684	2267.33
820.866	2271.01
821.048	2337.66
821.231	2326.42
821.413	2314.21
821.595	2311.31
821.777	2279.15
821.959	2291.55
822.141	2398.49
822.323	2219.47
822.505	2183.82
822.686	2104.97
822.868	2032.7
823.05	1926.72
823.232	1874.99
823.414	1801.95
823.596	1907.34
823.778	1852.9
823.96	1900.95
824.141	1943.38
824.323	1933.11
824.505	2024.95
824.687	2057.69
824.868	2069.51
825.05	2212.11
825.232	2240.2
825.413	2358.78
825.595	2246.21
825.777	2210.56
825.958	2267.71
826.14	2231.1
826.321	2281.47
826.503	2219.08
826.685	2236.71
826.866	2279.92
827.048	2268.49
827.229	2229.35
827.411	2181.3
827.592	2120.66
827.773	2100.51
827.955	2087.14
828.136	2083.07
828.318	2023.79
828.499	2074.94
828.68	2007.51
828.862	2044.71
829.043	2068.35
829.224	2042
829.406	1976.71
829.587	2026.11
829.768	2006.54
829.949	2042
830.131	2012.94
830.312	2088.11
830.493	2026.31
830.674	2035.61
830.855	2031.15
831.036	1979.42
831.218	2077.65
831.399	2135.19
831.58	2090.24
831.761	2034.83
831.942	2053.24
832.123	2010.22
832.304	1985.42
832.485	1981.74
832.666	2002.47
832.847	2037.74
833.028	2060.99
833.209	2021.07
833.389	1989.11
833.57	1944.74
833.751	1968.96
833.932	2023.98
834.113	1984.26
834.294	1988.33
834.475	2026.69
834.655	2060.02
834.836	2071.84
835.017	2045.49
835.198	1971.28
835.378	2022.82
835.559	2062.15
835.74	2018.94
835.92	2020.49
836.101	2003.83
836.281	2048.39
836.462	2042.97
836.643	2094.31
836.823	2063.7
837.004	2105.74
837.184	2140.81
837.365	2107.68
837.545	2085.01
837.726	2079.39
837.906	2141.97
838.087	2042.77
838.267	2046.26
838.448	2023.79
838.628	2054.59
838.808	2082.88
838.989	2135.19
839.169	1988.14
839.349	2068.54
839.53	2078.42
839.71	2091.6
839.89	2016.04
840.07	2118.92
840.251	2024.95
840.431	2087.72
840.611	2037.93
840.791	2003.44
840.971	2014.87
841.151	2006.35
841.332	2030.18
841.512	2077.84
841.692	1975.93
841.872	2003.06
842.052	2023.4
842.232	2031.73
842.412	1975.74
842.592	2005.77
842.772	2034.06
842.952	2022.04
843.132	1961.21
843.312	1969.92
843.492	1982.52
843.672	1998.99
843.851	1905.79
844.031	1988.72
844.211	1967.99
844.391	1945.9
844.571	1949
844.751	1975.93
844.93	1983.1
845.11	1953.07
845.29	1942.8
845.47	2032.51
845.649	1956.17
845.829	1986.59
846.009	1922.84
846.188	1998.99
846.368	1935.63
846.547	1919.74
846.727	2002.86
846.907	1925.56
847.086	1934.66
847.266	1960.04
847.445	1945.13
847.625	1900.37
847.804	1881.77
847.984	1961.4
848.163	1921.49
848.343	1873.63
848.522	1896.11
848.701	1945.71
848.881	1862.98
849.06	1903.47
849.239	1936.02
849.419	1867.82
849.598	1788.58
849.777	1829.26
849.957	1826.94
850.136	1737.23
850.315	1734.91
850.494	1737.43
850.674	1735.88
850.853	1788.19
851.032	1754.67
851.211	1810.47
851.39	1791.1
851.569	1725.22
851.748	1740.92
851.927	1823.84
852.107	1762.81
852.286	1744.4
852.465	1739.95
852.644	1832.95
852.823	1798.46
853.002	1757.19
853.181	1782.38
853.359	1766.68
853.538	1715.53
853.717	1787.22
853.896	1672.52
854.075	1563.25
854.254	1551.24
854.433	1495.63
854.611	1540
854.79	1481.1
854.969	1512.1
855.148	1565.57
855.327	1516.36
855.505	1577.78
855.684	1569.84
855.863	1602
856.041	1609.94
856.22	1639.78
856.399	1566.35
856.577	1733.55
856.756	1683.76
856.934	1766.68
857.113	1796.13
857.291	1704.49
857.47	1655.86
857.648	1703.14
857.827	1695.58
858.005	1719.6
858.184	1630.87
858.362	1741.88
858.541	1689.77
858.719	1688.22
858.898	1651.21
859.076	1633.19
859.254	1721.15
859.433	1662.45
859.611	1635.13
859.789	1617.69
859.967	1666.13
860.146	1711.66
860.324	1599.48
860.502	1633.97
860.68	1581.85
860.859	1597.16
861.037	1612.46
861.215	1639.2
861.393	1650.63
861.571	1589.41
861.749	1530.89
861.927	1635.71
862.105	1622.92
862.283	1619.82
862.461	1593.67
862.639	1514.23
862.817	1539.03
862.995	1575.07
863.173	1558.02
863.351	1603.74
863.529	1585.14
863.707	1619.24
863.885	1620.99
864.063	1490.4
864.241	1566.16
864.418	1632.8
864.596	1549.88
864.774	1499.51
864.952	1514.43
865.129	1572.36
865.307	1517.72
865.485	1428.4
865.663	1534.57
865.84	1451.65
866.018	1482.65
866.196	1321.45
866.373	1358.65
866.551	1287.74
866.728	1259.45
866.906	1332.11
867.084	1375.9
867.261	1379.77
867.439	1378.22
867.616	1417.36
867.794	1398.18
867.971	1414.84
868.149	1404.96
868.326	1475.68
868.503	1460.56
868.681	1434.41
868.858	1452.43
869.035	1400.7
869.213	1472.77
869.39	1403.02
869.567	1521.01
869.745	1362.91
869.922	1423.95
870.099	1441.38
870.276	1456.11
870.454	1466.18
870.631	1447.58
870.808	1405.54
870.985	1449.71
871.162	1489.24
871.339	1434.02
871.517	1384.03
871.694	1390.04
871.871	1386.55
872.048	1374.73
872.225	1370.47
872.402	1417.36
872.579	1334.82
872.756	1385.97
872.933	1338.5
873.11	1387.91
873.287	1405.93
873.463	1350.9
873.64	1348.58
873.817	1390.62
873.994	1359.43
874.171	1327.65
874.348	1357.3
874.524	1307.7
874.701	1357.88
874.878	1251.7
875.055	1345.87
875.231	1321.07
875.408	1336.18
875.585	1257.32
875.762	1320.68
875.938	1293.75
876.115	1273.79
876.291	1286.19
876.468	1292.2
876.645	1271.27
876.821	1295.1
876.998	1275.53
877.174	1249.77
877.351	1245.7
877.527	1249.38
877.704	1314.87
877.88	1275.53
878.057	1261.97
878.233	1296.07
878.409	1261.78
878.586	1272.05
878.762	1263.72
878.938	1273.02
879.115	1156.19
879.291	1235.62
879.467	1192.42
879.644	1204.62
879.82	1233.49
879.996	1196.29
880.172	1172.85
880.349	1254.61
880.525	1249.77
880.701	1172.85
880.877	1158.51
881.053	1204.04
881.229	1199.78
881.405	1238.92
881.581	1165.1
881.757	1184.47
881.933	1221.87
882.109	1220.32
882.285	1162.58
882.461	1141.85
882.637	1198.62
882.813	1150.76
882.989	1189.51
883.165	1264.1
883.341	1149.99
883.517	1215.09
883.693	1199.78
883.869	1258.1
884.044	1172.85
884.22	1228.84
884.396	1231.36
884.572	1203.07
884.747	1277.86
884.923	1218.96
885.099	1214.12
885.275	1253.25
885.45	1180.4
885.626	1162.97
885.801	1175.17
885.977	1170.72
886.153	1099.42
886.328	1170.33
886.504	1168.59
886.679	1238.53
886.855	1138.36
887.03	1202.69
887.206	1206.56
887.381	1213.15
887.557	1217.02
887.732	1198.04
887.908	1218.57
888.083	1217.8
888.258	1180.21
888.434	1202.3
888.609	1183.5
888.784	1209.66
888.96	1179.24
889.135	1199.78
889.31	1137.78
889.485	1202.3
889.661	1173.04
889.836	1256.94
890.011	1229.42
890.186	1155.22
890.361	1176.92
890.537	1222.84
890.712	1197.45
890.887	1193
891.062	1173.04
891.237	1267.01
891.412	1158.12
891.587	1224
891.762	1218.19
891.937	1261.97
892.112	1149.6
892.287	1160.06
892.462	1135.84
892.637	1113.17
892.812	1100.19
892.987	1127.51
893.161	1072.29
893.336	1105.23
893.511	1105.42
893.686	1119.57
893.861	1094.19
894.035	1096.12
894.21	1131.58
894.385	1041.49
894.56	1093.02
894.734	1016.11
894.909	1040.13
895.084	1030.06
895.258	1033.35
895.433	1040.91
895.608	1010.88
895.782	943.45
895.957	989.56
896.131	989.18
896.306	901.8
896.48	888.82
896.655	894.82
896.829	847.93
897.004	880.1
897.178	851.23
897.353	817.13
897.527	891.92
897.701	877
897.876	779.54
898.05	905.87
898.224	868.28
898.399	913.62
898.573	878.35
898.747	744.86
898.921	784
899.096	704.56
899.27	721.81
899.444	704.56
899.618	749.32
899.792	751.84
899.967	757.84
900.141	823.52
900.315	717.54
900.489	749.51
900.663	753.19
900.837	761.52
901.011	723.55
901.185	804.54
901.359	736.72
901.533	797.56
901.707	759.78
901.881	746.22
902.055	723.55
902.229	742.34
902.403	795.82
902.576	758.04
902.75	756.87
902.924	894.82
903.098	810.74
903.272	860.14
903.446	866.53
903.619	885.52
903.793	887.07
903.967	868.47
904.14	944.03
904.314	937.06
904.488	920.01
904.661	945.58
904.835	912.84
905.009	949.07
905.182	982.59
905.356	959.34
905.529	930.86
905.703	907.22
905.876	869.44
906.05	879.52
906.223	822.94
906.397	774.89
906.57	780.9
906.744	758.81
906.917	738.08
907.09	769.27
907.264	751.25
907.437	702.04
907.61	704.95
907.784	718.32
907.957	743.12
908.13	674.92
908.304	741.96
908.477	686.93
908.65	685.96
908.823	660.58
908.996	745.64
909.17	682.67
909.343	657.09
909.516	673.17
909.689	674.14
909.862	656.9
910.035	655.74
910.208	647.79
910.381	654.19
910.554	726.65
910.727	657.48
910.9	640.43
911.073	646.05
911.246	708.24
911.419	711.34
911.592	675.69
911.765	653.99
911.938	628.61
912.11	642.37
912.283	649.73
912.456	716.57
912.629	670.27
912.802	641.01
912.974	643.73
913.147	586.57
913.32	540.07
913.493	547.43
913.665	571.26
913.838	599.36
914.01	584.24
914.183	597.42
914.356	591.22
914.528	670.27
914.701	680.54
914.873	655.54
915.046	595.48
915.218	551.31
915.391	494.54
915.563	509.46
915.736	569.71
915.908	599.36
916.081	591.22
916.253	596.64
916.425	605.17
916.598	611.95
916.77	590.44
916.942	567.2
917.115	498.41
917.287	563.13
917.459	536.39
917.632	503.65
917.804	454.82
917.976	541.04
918.148	560.61
918.32	541.62
918.493	595.29
918.665	644.31
918.837	590.44
919.009	625.51
919.181	646.83
919.353	608.27
919.525	607.69
919.697	608.46
919.869	600.13
920.041	653.03
920.213	705.53
920.385	598.78
920.557	569.91
920.729	618.73
920.901	593.16
921.073	587.15
921.244	568.55
921.416	632.49
921.588	624.35
921.76	564.1
921.932	667.56
922.103	591.22
922.275	580.37
922.447	612.14
922.619	490.86
922.79	572.62
922.962	526.7
923.134	594.71
923.305	523.02
923.477	521.47
923.648	518.37
923.82	537.36
923.991	482.14
924.163	495.7
924.335	540.65
924.506	469.16
924.677	537.94
924.849	487.18
925.02	518.18
925.192	579.79
925.363	521.47
925.535	541.04
925.706	498.41
925.877	557.7
926.049	483.88
926.22	528.06
926.391	506.36
926.562	522.63
926.734	499.58
926.905	533.87
927.076	473.42
927.247	497.25
927.419	451.33
927.59	418.4
927.761	450.37
927.932	415.1
928.103	418.98
928.274	409.29
928.445	367.64
928.616	409.1
928.787	417.43
928.958	416.07
929.129	385.65
929.3	388.95
929.471	331.6
929.642	275.99
929.813	246.93
929.984	342.64
930.155	239.18
930.326	306.02
930.496	256.23
930.667	201.01
930.838	290.14
931.009	222.32
931.18	248.29
931.35	226.97
931.521	243.25
931.692	164.78
931.863	117.51
932.033	182.03
932.204	219.03
932.374	176.41
932.545	154.9
932.716	189.78
932.886	193.07
933.057	119.06
933.227	128.16
933.398	192.88
933.568	118.67
933.739	71.01
933.909	50.66
934.08	141.92
934.25	19.28
934.421	76.82
934.591	135.14
934.761	89.22
934.932	31.29
935.102	99.49
935.272	72.75
935.443	80.31
935.613	92.32
935.783	108.79
935.953	57.25
936.123	245.57
936.294	76.63
936.464	85.35
936.634	71.59
936.804	40.78
936.974	8.82
937.144	105.88
937.314	113.83
937.484	74.5
937.655	35.17
937.825	142.5
937.995	53.18
938.165	97.36
938.334	89.61
938.504	133.78
938.674	86.9
938.844	93.68
939.014	174.86
939.184	124.1
939.354	200.82
939.524	182.8
939.694	136.49
939.863	147.73
940.033	209.93
940.203	200.82
940.373	154.9
940.542	183.38
940.712	137.27
940.882	207.02
941.051	168.66
941.221	180.67
941.391	202.37
941.56	141.73
941.73	139.4
941.899	255.46
942.069	156.26
942.238	166.14
942.408	113.05
942.577	198.88
942.747	151.41
942.916	46.79
943.086	118.28
943.255	173.31
943.425	144.83
943.594	108.01
943.763	55.31
943.933	99.1
944.102	49.31
944.271	100.46
944.441	122.35
944.61	97.75
944.779	147.54
944.948	195.59
945.117	92.51
945.287	92.32
945.456	49.7
945.625	71.59
945.794	123.32
945.963	83.6
946.132	133.01
946.301	92.13
946.47	121.19
946.639	53.76
946.808	86.7
946.977	112.08
947.146	176.6
947.315	103.95
947.484	119.06
947.653	117.31
947.822	72.17
947.991	56.67
948.16	192.1
948.329	161.49
948.498	109.76
948.666	92.51
948.835	146.18
949.004	53.96
949.173	31.1
949.341	112.28
949.51	104.91
949.679	165.56
949.847	146.57
950.016	191.52
950.185	203.73
950.353	71.4
950.522	108.4
950.69	175.24
950.859	93.29
951.028	161.68
951.196	132.04
951.365	81.28
951.533	106.46
951.701	137.85
951.87	125.84
952.038	45.43
952.207	118.09
952.375	169.63
952.543	97.36
952.712	118.86
952.88	85.73
953.048	168.66
953.217	112.08
953.385	99.88
953.553	173.69
953.721	69.07
953.89	112.08
954.058	51.05
954.226	62.1
954.394	131.07
954.562	67.91
954.73	95.42
954.898	113.25
955.067	143.28
955.235	95.81
955.403	146.38
955.571	175.05
955.739	90.77
955.907	78.18
956.075	77.79
956.243	89.03
956.41	120.41
956.578	54.35
956.746	70.04
956.914	91.93
957.082	144.24
957.25	113.05
957.418	75.46
957.585	115.57
957.753	147.34
957.921	68.49
958.089	109.18
958.256	99.3
958.424	120.41
958.592	102.59
958.759	77.21
958.927	122.74
959.095	67.52
959.262	97.16
959.43	122.74
959.597	69.65
959.765	111.5
959.932	91.55
960.1	134.75
960.267	128.36
960.435	104.53
960.602	136.49
960.77	85.93
960.937	69.65
961.104	129.52
961.272	40.98
961.439	95.81
961.606	109.56
961.774	160.52
961.941	106.85
962.108	130.1
962.275	130.88
962.443	139.79
962.61	136.3
962.777	200.04
962.944	147.34
963.111	123.9
963.278	131.07
963.446	104.53
963.613	104.72
963.78	139.4
963.947	140.76
964.114	138.43
964.281	207.02
964.448	160.91
964.615	93.68
964.782	126.23
964.949	153.74
965.116	160.52
965.282	155.09
965.449	108.21
965.616	83.02
965.783	139.79
965.95	143.86
966.117	92.9
966.283	158
966.45	116.35
966.617	124.1
966.784	163.81
966.95	150.64
967.117	143.86
967.284	112.47
967.45	93.1
967.617	173.31
967.784	147.93
967.95	187.26
968.117	143.28
968.283	179.12
968.45	242.67
968.616	122.55
968.783	181.44
968.949	162.07
969.116	174.08
969.282	138.24
969.449	169.04
969.615	142.11
969.781	105.5
969.948	148.7
970.114	94.06
970.28	197.72
970.447	146.76
970.613	224.84
970.779	136.3
970.945	163.23
971.112	139.98
971.278	142.89
971.444	124.48
971.61	173.11
971.776	126.81
971.942	159.74
972.108	193.26
972.275	141.53
972.441	180.09
972.607	192.49
972.773	95.61
972.939	178.73
973.105	156.45
973.271	92.71
973.437	114.8
973.602	90
973.768	138.63
973.934	130.49
974.1	148.31
974.266	59
974.432	117.51
974.598	91.55
974.763	171.56
974.929	99.88
975.095	171.95
975.261	138.04
975.426	95.81
975.592	86.31
975.758	214.58
975.923	85.54
976.089	62.1
976.255	145.21
976.42	160.52
976.586	136.88
976.751	123.13
976.917	196.94
977.082	166.53
977.248	71.01
977.413	52.02
977.579	107.82
977.744	127.2
977.91	83.41
978.075	109.37
978.24	155.87
978.406	102.01
978.571	106.27
978.736	76.43
978.902	155.87
979.067	55.12
979.232	56.48
979.397	136.88
979.563	188.03
979.728	81.86
979.893	95.23
980.058	98.13
980.223	149.48
980.388	120.8
980.554	117.7
980.719	95.81
980.884	107.82
981.049	144.83
981.214	69.07
981.379	152.19
981.544	89.03
981.709	87.86
981.874	93.68
982.039	113.44
982.204	127.78
982.368	102.2
982.533	80.89
982.698	149.48
982.863	167.11
983.028	92.9
983.193	114.6
983.357	107.43
983.522	140.76
983.687	123.51
983.852	106.66
984.016	82.44
984.181	112.08
984.346	114.02
984.51	134.17
984.675	95.23
984.839	128.94
985.004	121.38
985.168	149.86
985.333	133.39
985.498	100.26
985.662	129.71
985.827	100.65
985.991	107.63
986.155	82.44
986.32	121.58
986.484	162.07
986.649	123.51
986.813	61.9
986.977	113.05
987.142	109.37
987.306	78.56
987.47	68.1
987.634	93.87
987.799	120.61
987.963	100.26
988.127	121.77
988.291	192.68
988.455	119.45
988.62	102.2
988.784	132.04
988.948	134.94
989.112	72.56
989.276	119.64
989.44	123.32
989.604	66.94
989.768	87.86
989.932	179.7
990.096	65.58
990.26	44.85
990.424	30.52
990.588	103.17
990.752	174.86
990.915	119.25
991.079	75.08
991.243	83.6
991.407	122.16
991.571	80.11
991.734	119.25
991.898	125.45
992.062	174.86
992.226	94.65
992.389	53.18
992.553	50.28
992.717	40.01
992.88	89.41
993.044	82.83
993.207	80.31
993.371	104.91
993.535	112.86
993.698	126.03
993.862	119.64
994.025	130.1
994.189	93.29
994.352	111.31
994.515	109.56
994.679	115.57
994.842	87.67
995.006	126.42
995.169	91.35
995.332	62.68
995.496	122.55
995.659	38.85
995.822	78.76
995.985	62.48
996.149	126.03
996.312	80.11
996.475	155.48
996.638	71.59
996.801	133.2
996.964	168.08
997.128	86.9
997.291	70.43
997.454	84.76
997.617	21.02
997.78	115.18
997.943	52.02
998.106	144.05
998.269	46.21
998.432	77.4
998.595	90.77
998.758	39.62
998.92	30.71
999.083	30.52
999.246	95.81
999.409	49.31
999.572	-13.27
999.735	52.6
999.897	86.51
1000.06	56.48
1000.223	87.28
1000.386	119.25
1000.548	105.88
1000.711	90.77
1000.874	54.54
1001.036	13.85
1001.199	111.11
1001.361	57.45
1001.524	59.77
1001.687	104.72
1001.849	48.34
1002.012	88.06
1002.174	83.8
1002.337	89.41
1002.499	47.37
1002.661	118.67
1002.824	43.69
1002.986	47.95
1003.149	75.08
1003.311	46.6
1003.473	127.39
1003.636	56.48
1003.798	91.93
1003.96	74.11
1004.123	68.3
1004.285	38.27
1004.447	40.98
1004.609	51.63
1004.771	134.56
1004.933	30.71
1005.096	26.83
1005.258	-12.69
1005.42	32.65
1005.582	78.18
1005.744	87.86
1005.906	-1.26
1006.068	42.92
1006.23	18.5
1006.392	-0.48
1006.554	11.33
1006.716	97.75
1006.878	57.06
1007.04	8.82
1007.202	57.25
1007.363	66.55
1007.525	69.07
1007.687	73.72
1007.849	108.21
1008.011	-1.07
1008.172	18.89
1008.334	12.5
1008.496	87.67
1008.658	-2.03
1008.819	9.59
1008.981	15.4
1009.143	-1.84
1009.304	51.25
1009.466	64.42
1009.627	102.59
1009.789	118.48
1009.95	46.79
1010.112	38.07
1010.273	59.38
1010.435	22.57
1010.596	27.61
1010.758	36.13
1010.919	36.52
1011.081	1.65
1011.242	57.45
1011.403	64.42
1011.565	39.82
1011.726	78.76
1011.887	9.98
1012.049	45.63
1012.21	70.81
1012.371	109.76
1012.532	-40.59
1012.693	48.53
1012.855	10.17
1013.016	56.28
1013.177	79.15
1013.338	34.58
1013.499	102.78
1013.66	56.28
1013.821	80.31
1013.982	54.73
1014.143	61.13
1014.304	27.03
1014.465	62.29
1014.626	58.41
1014.787	20.44
1014.948	119.25
1015.109	-51.83
1015.27	81.66
1015.431	35.75
1015.592	-7.07
1015.752	105.5
1015.913	46.6
1016.074	33.42
1016.235	47.37
1016.395	47.56
1016.556	36.72
1016.717	24.32
1016.877	88.25
1017.038	25.48
1017.199	39.43
1017.359	34
1017.52	22.77
1017.681	-8.04
1017.841	10.95
1018.002	24.12
1018.162	20.44
1018.323	87.86
1018.483	19.28
1018.644	23.73
1018.804	-15.6
1018.964	1.26
1019.125	9.4
1019.285	44.66
1019.446	5.72
1019.606	19.86
1019.766	-31.1
1019.926	62.48
1020.087	10.95
1020.247	-25.87
1020.407	42.14
1020.567	89.41
1020.728	3.78
1020.888	-10.95
1021.048	7.65
1021.208	20.63
1021.368	-1.84
1021.528	67.91
1021.688	41.95
1021.848	49.7
1022.008	36.52
1022.168	31.1
1022.328	15.02
1022.488	33.03
1022.648	40.98
1022.808	36.91
1022.968	21.8
1023.128	1.84
1023.288	15.21
1023.448	52.02
1023.608	51.05
1023.767	43.88
1023.927	12.11
1024.087	-16.57
1024.247	-21.99
1024.406	7.27
1024.566	-13.27
1024.726	-21.99
1024.885	-3
1025.045	62.87
1025.205	15.4
1025.364	22.38
1025.524	30.9
1025.683	1.07
1025.843	41.17
1026.003	48.34
1026.162	82.25
1026.321	48.92
1026.481	23.93
1026.64	20.44
1026.8	18.5
1026.959	37.1
1027.119	13.47
1027.278	-2.42
1027.437	-5.13
1027.597	10.95
1027.756	53.76
1027.915	48.53
1028.074	34.97
1028.234	6.1
1028.393	25.67
1028.552	28.38
1028.711	-74.3
1028.87	79.53
1029.03	-16.57
1029.189	19.28
1029.348	-60.35
1029.507	19.28
1029.666	19.47
1029.825	-12.88
1029.984	9.98
1030.143	-1.45
1030.302	-6.1
1030.461	-64.03
1030.62	39.82
1030.779	53.76
1030.938	6.49
1031.097	-32.45
1031.255	33.62
1031.414	82.63
1031.573	41.75
1031.732	-48.15
1031.891	6.49
1032.049	44.08
1032.208	48.15
1032.367	-10.56
1032.525	-14.05
1032.684	5.52
1032.843	34.78
1033.001	-52.21
1033.16	167.49
1033.319	47.76
1033.477	36.72
1033.636	-2.81
1033.794	-37.49
1033.953	30.52
1034.111	41.56
1034.27	16.37
1034.428	16.57
1034.587	-15.4
1034.745	-0.48
1034.903	22.57
1035.062	37.3
1035.22	-47.76
1035.378	51.25
1035.537	-26.45
1035.695	37.3
1035.853	-1.65
1036.011	47.56
1036.17	2.23
1036.328	-72.56
1036.486	28.38
1036.644	27.8
1036.802	-77.01
1036.96	-20.44
1037.119	-3
1037.277	-21.8
1037.435	-35.36
1037.593	-20.05
1037.751	25.87
1037.909	40.59
1038.067	40.59
