Data from gum_old_FLMT105791__8__15-42-30-259.txt Node

Date: Mon Mar 20 15:42:30 GMT 2023
User: antho
Spectrometer: FLMT10579
Trigger mode: 0
Integration Time (sec): 1.000000E-1
Scans to average: 10
Electric dark correction enabled: true
Nonlinearity correction enabled: false
Boxcar width: 0
XAxis mode: Wavelengths
Number of Pixels in Spectrum: 3648
>>>>>Begin Spectral Data<<<<<
345.248	-161.41
345.464	-161.41
345.681	-161.41
345.898	-153.08
346.114	-155.79
346.331	-34.31
346.548	47.26
346.764	1.73
346.981	5.22
347.197	-31.6
347.414	13.74
347.631	-28.3
347.847	49.58
348.064	14.32
348.28	25.36
348.497	-42.06
348.713	-20.94
348.93	30.21
349.146	65.08
349.363	24.2
349.579	56.17
349.796	37.96
350.012	17.03
350.229	29.82
350.445	15.48
350.661	30.01
350.878	27.3
351.094	29.82
351.311	36.8
351.527	82.33
351.743	1.92
351.96	84.65
352.176	60.05
352.392	45.13
352.609	64.11
352.825	10.25
353.041	40.09
353.257	18.39
353.474	45.32
353.69	19.94
353.906	55.98
354.122	-3.7
354.339	81.36
354.555	45.71
354.771	15.29
354.987	79.81
355.203	117.39
355.42	10.64
355.636	23.81
355.852	34.86
356.068	39.7
356.284	-4.28
356.5	68.18
356.716	48.61
356.932	47.45
357.148	61.4
357.364	18.2
357.58	54.04
357.796	110.81
358.012	71.67
358.228	54.04
358.444	-47.29
358.66	93.76
358.876	49
359.092	28.46
359.308	30.79
359.524	69.73
359.74	38.35
359.956	48.81
360.172	32.92
360.388	88.91
360.604	40.67
360.819	125.92
361.035	74.19
361.251	74
361.467	13.93
361.683	57.14
361.898	58.3
362.114	67.6
362.33	81.75
362.546	74.96
362.762	52.3
362.977	63.53
363.193	-8.54
363.409	77.1
363.624	35.63
363.84	40.09
364.056	21.88
364.271	93.18
364.487	47.06
364.703	57.91
364.918	32.53
365.134	54.04
365.35	33.31
365.565	154.21
365.781	60.82
365.996	89.11
366.212	133.67
366.427	104.99
366.643	66.05
366.858	50.16
367.074	59.08
367.289	104.22
367.505	149.36
367.72	40.28
367.936	62.95
368.151	113.52
368.367	95.69
368.582	88.14
368.798	57.14
369.013	119.91
369.228	59.66
369.444	68.18
369.659	107.9
369.874	94.15
370.09	149.75
370.305	29.82
370.52	66.44
370.736	134.06
370.951	88.72
371.166	115.84
371.381	134.25
371.597	96.66
371.812	42.41
372.027	51.33
372.242	87.56
372.458	145.49
372.673	50.94
372.888	90.08
373.103	108.09
373.318	166.99
373.533	107.9
373.749	94.34
373.964	53.65
374.179	125.34
374.394	51.52
374.609	119.72
374.824	53.65
375.039	115.65
375.254	41.64
375.469	130.76
375.684	96.08
375.899	127.28
376.114	123.4
376.329	116.04
376.544	135.8
376.759	128.24
376.974	57.53
377.189	65.86
377.404	83.68
377.619	140.45
377.834	66.05
378.049	80.39
378.264	51.91
378.478	97.05
378.693	76.51
378.908	138.32
379.123	84.26
379.338	148.98
379.553	90.66
379.767	91.63
379.982	106.74
380.197	132.51
380.412	93.95
380.626	111.97
380.841	170.48
381.056	138.9
381.271	186.37
381.485	106.74
381.7	68.18
381.915	117.2
382.129	89.11
382.344	117.78
382.559	90.46
382.773	110.23
382.988	15.68
383.202	78.65
383.417	49.58
383.632	185.21
383.846	76.71
384.061	104.99
384.275	75.16
384.49	101.89
384.704	123.21
384.919	104.61
385.133	118.94
385.348	127.28
385.562	83.68
385.777	161.96
385.991	108.09
386.206	88.53
386.42	88.14
386.634	155.95
386.849	129.21
387.063	136.38
387.277	108.87
387.492	104.8
387.706	64.5
387.92	77.68
388.135	166.8
388.349	150.53
388.563	148.39
388.778	137.16
388.992	141.81
389.206	110.81
389.42	196.83
389.635	139.48
389.849	196.44
390.063	193.92
390.277	171.26
390.491	220.47
390.706	176.88
390.92	185.79
391.134	156.73
391.348	207.49
391.562	127.86
391.776	140.84
391.99	176.88
392.205	218.14
392.419	98.99
392.633	162.15
392.847	227.83
393.061	122.43
393.275	186.17
393.489	135.8
393.703	105.19
393.917	145.29
394.131	102.28
394.345	159.24
394.559	153.82
394.773	126.89
394.986	167.77
395.2	177.84
395.414	188.69
395.628	159.83
395.842	200.12
396.056	182.11
396.27	146.26
396.484	205.74
396.697	187.92
396.911	195.28
397.125	166.61
397.339	147.23
397.553	175.52
397.766	219.11
397.98	185.98
398.194	245.46
398.408	216.01
398.621	238.87
398.835	274.14
399.049	283.44
399.262	285.95
399.476	288.86
399.69	311.14
399.903	327.03
400.117	265.61
400.331	303.97
400.544	236.94
400.758	381.67
400.971	305.72
401.185	315.21
401.398	257.28
401.612	346.6
401.826	315.4
402.039	340.98
402.253	309.59
402.466	345.82
402.68	301.07
402.893	348.15
403.106	308.43
403.32	334.2
403.533	328.58
403.747	306.49
403.96	343.11
404.174	347.18
404.387	291.96
404.6	315.4
404.814	358.8
405.027	323.74
405.24	309.01
405.454	317.15
405.667	370.23
405.88	272.78
406.094	346.4
406.307	389.61
406.52	338.07
406.733	304.94
406.947	273.75
407.16	380.31
407.373	377.79
407.586	316.37
407.799	319.86
408.012	379.92
408.226	346.21
408.439	413.83
408.652	287.12
408.865	387.48
409.078	433.4
409.291	385.35
409.504	344.47
409.717	402.59
409.93	440.76
410.143	366.36
410.357	309.2
410.57	300.1
410.783	325.29
410.996	365.78
411.209	365.2
411.421	414.22
411.634	368.49
411.847	378.18
412.06	377.79
412.273	390.58
412.486	425.07
412.699	484.93
412.912	412.67
413.125	418.67
413.338	427.97
413.55	441.15
413.763	405.11
413.976	430.3
414.189	340.98
414.402	402.01
414.615	481.64
414.827	382.63
415.04	456.06
415.253	439.02
415.466	463.81
415.678	500.63
415.891	424.68
416.104	419.06
416.316	427.39
416.529	413.25
416.742	447.15
416.954	482.8
417.167	433.2
417.38	417.51
417.592	481.64
417.805	428.75
418.017	385.54
418.23	444.25
418.442	396.39
418.655	428.55
418.868	422.55
419.08	452.96
419.293	480.28
419.505	456.65
419.718	483
419.93	487.45
420.142	425.65
420.355	469.24
420.567	471.18
420.78	468.66
420.992	450.25
421.205	496.56
421.417	441.15
421.629	478.93
421.842	453.16
422.054	458.58
422.266	521.55
422.479	522.91
422.691	452.38
422.903	491.13
423.115	438.05
423.328	434.37
423.54	461.88
423.752	464.98
423.964	469.82
424.177	494.43
424.389	449.28
424.601	597.69
424.813	518.45
425.025	524.85
425.238	510.31
425.45	469.24
425.662	501.01
425.874	767.8
426.086	485.13
426.298	495.98
426.51	505.66
426.722	487.45
426.934	490.55
427.146	535.5
427.358	471.18
427.57	530.27
427.782	510.7
427.994	463.23
428.206	462.85
428.418	451.22
428.63	512.45
428.842	560.69
429.054	538.02
429.266	518.84
429.478	508.76
429.69	485.51
429.902	420.61
430.114	494.43
430.325	477.96
430.537	397.75
430.749	402.59
430.961	363.45
431.173	414.41
431.384	409.57
431.596	347.18
431.808	457.23
432.02	499.08
432.231	564.37
432.443	580.84
432.655	590.72
432.867	529.69
433.078	570.57
433.29	612.23
433.502	593.43
433.713	622.3
433.925	610.48
434.136	615.71
434.348	538.41
434.56	484.93
434.771	637.8
434.983	486.1
435.194	563.01
435.406	597.5
435.617	608.54
435.829	659.5
436.04	653.69
436.252	623.46
436.463	684.49
436.675	704.06
436.886	674.81
437.098	711.42
437.309	720.14
437.521	673.26
437.732	660.08
437.943	636.83
438.155	641.87
438.366	615.13
438.578	670.93
438.789	603.12
439	647.29
439.211	597.11
439.423	638.57
439.634	670.35
439.845	685.27
440.057	678.49
440.268	682.36
440.479	658.34
440.69	681.2
440.902	655.82
441.113	654.66
441.324	636.64
441.535	715.49
441.746	765.48
441.957	679.46
442.168	689.34
442.38	750.37
442.591	764.51
442.802	698.25
443.013	741.26
443.224	760.64
443.435	720.34
443.646	731.96
443.857	748.04
444.068	722.08
444.279	737.19
444.49	808.49
444.701	778.07
444.912	862.55
445.123	816.63
445.334	766.45
445.545	763.54
445.756	786.02
445.967	726.15
446.178	769.94
446.388	778.46
446.599	772.07
446.81	748.82
447.021	733.12
447.232	774
447.443	826.51
447.653	774
447.864	793.96
448.075	806.75
448.286	832.71
448.496	797.25
448.707	813.53
448.918	766.64
449.129	890.83
449.339	796.87
449.55	849.57
449.761	798.22
449.971	858.28
450.182	822.83
450.393	838.13
450.603	819.15
450.814	879.4
451.024	875.14
451.235	880.57
451.446	929.39
451.656	920.67
451.867	862.16
452.077	856.54
452.288	911.95
452.498	889.48
452.709	831.16
452.919	832.9
453.13	791.44
453.34	862.35
453.55	768.58
453.761	846.85
453.971	859.06
454.182	882.7
454.392	842.4
454.602	892.19
454.813	896.65
455.023	879.6
455.233	797.45
455.444	865.26
455.654	788.73
455.864	839.88
456.075	849.76
456.285	850.34
456.495	863.9
456.705	883.47
456.916	918.54
457.126	941.4
457.336	877.47
457.546	834.26
457.756	881.53
457.967	951.48
458.177	909.43
458.387	886.96
458.597	816.63
458.807	918.93
459.017	879.79
459.227	884.83
459.437	843.56
459.647	893.93
459.857	954.58
460.068	867.97
460.278	940.63
460.488	900.71
460.698	972.21
460.908	931.13
461.117	878.82
461.327	925.32
461.537	939.27
461.747	913.7
461.957	920.86
462.167	1037.5
462.377	1004.18
462.587	933.85
462.797	957.48
463.007	976.08
463.216	1001.27
463.426	1042.15
463.636	1007.66
463.846	901.3
464.056	939.85
464.265	1011.15
464.475	907.11
464.685	989.26
464.895	961.55
465.104	938.5
465.314	996.23
465.524	913.11
465.733	937.53
465.943	1059.39
466.153	1031.49
466.362	1004.37
466.572	978.6
466.782	991.78
466.991	1000.69
467.201	1022.78
467.41	898
467.62	992.94
467.829	983.83
468.039	1005.34
468.249	1017.74
468.458	1032.27
468.668	1048.16
468.877	1031.88
469.086	1093.88
469.296	1055.71
469.505	1033.82
469.715	1141.16
469.924	1075.67
470.134	1097.37
470.343	1102.99
470.552	1043.12
470.762	1049.13
470.971	1006.89
471.18	1072.37
471.39	1050.68
471.599	1017.74
471.808	1088.84
472.018	1041.57
472.227	1129.53
472.436	1202.57
472.645	1133.41
472.855	1085.36
473.064	1205.48
473.273	1176.61
473.482	1199.47
473.691	1203.54
473.901	1191.34
474.11	1138.44
474.319	1251.98
474.528	1170.8
474.737	1266.32
474.946	1239
475.155	1229.12
475.364	1284.33
475.573	1250.43
475.783	1307.58
475.992	1263.99
476.201	1278.72
476.41	1249.85
476.619	1216.52
476.828	1238.61
477.037	1242.48
477.245	1251.98
477.454	1328.7
477.663	1294.02
477.872	1322.31
478.081	1381.98
478.29	1312.43
478.499	1454.25
478.708	1379.27
478.917	1444.18
479.125	1353.5
479.334	1369.78
479.543	1368.42
479.752	1417.24
479.961	1407.17
480.169	1469.56
480.378	1424.22
480.587	1566.43
480.796	1506.95
481.004	1476.73
481.213	1464.91
481.422	1447.86
481.63	1501.91
481.839	1514.12
482.048	1544.73
482.256	1533.69
482.465	1570.69
482.674	1555.97
482.882	1547.44
483.091	1620.29
483.299	1505.79
483.508	1596.46
483.716	1571.27
483.925	1605.95
484.134	1541.63
484.342	1566.43
484.551	1631.92
484.759	1594.14
484.967	1629.4
485.176	1621.26
485.384	1630.37
485.593	1628.82
485.801	1610.02
486.01	1551.71
486.218	1473.63
486.426	1411.24
486.635	1428.29
486.843	1373.26
487.051	1448.05
487.26	1435.65
487.468	1469.56
487.676	1548.41
487.885	1519.93
488.093	1610.22
488.301	1632.69
488.509	1681.52
488.717	1691.59
488.926	1704.77
489.134	1662.72
489.342	1696.63
489.55	1621.07
489.758	1682.29
489.967	1716.78
490.175	1815.59
490.383	1770.45
490.591	1900.64
490.799	1756.69
491.007	1827.02
491.215	1779.94
491.423	1796.41
491.631	1759.21
491.839	1768.51
492.047	1808.61
492.255	1722.4
492.463	1690.82
492.671	1678.61
492.879	1788.46
493.087	1763.47
493.295	1775.1
493.503	1828.57
493.711	1866.74
493.919	1860.73
494.127	1848.72
494.334	1896.96
494.542	1820.05
494.75	1901.42
494.958	1843.1
495.166	1933
495.374	1904.13
495.581	1955.67
495.789	1919.05
495.997	1932.22
496.205	1862.28
496.412	1864.8
496.62	1905.1
496.828	1926.61
497.035	1928.74
497.243	1995.39
497.451	1917.5
497.658	1933.39
497.866	1957.99
498.074	2022.51
498.281	1935.71
498.489	1997.13
498.696	1902.19
498.904	1882.04
499.112	1893.67
499.319	1985.89
499.527	1944.82
499.734	1987.25
499.942	1915.76
500.149	1936.87
500.357	1970.78
500.564	1925.25
500.771	1943.27
500.979	1917.31
501.186	1914.59
501.394	1923.89
501.601	1884.37
501.808	1935.91
502.016	1932.22
502.223	1904.91
502.43	1933
502.638	1881.27
502.845	1895.99
503.052	2001.01
503.26	1965.16
503.467	2043.82
503.674	1970.78
503.881	1971.56
504.089	2045.95
504.296	1991.9
504.503	1885.14
504.71	1945.01
504.917	1940.75
505.125	1959.74
505.332	1986.47
505.539	2033.17
505.746	2091.49
505.953	2104.85
506.16	2097.49
506.367	2141.67
506.574	2141.08
506.781	2130.04
506.988	2055.06
507.195	2080.64
507.402	2085.87
507.609	2069.4
507.816	2048.09
508.023	2067.07
508.23	2026.97
508.437	1968.26
508.644	2051.96
508.851	2081.41
509.058	2122.29
509.265	2065.91
509.472	2116.87
509.679	2171.7
509.885	2124.62
510.092	2157.36
510.299	2086.64
510.506	2119.38
510.713	2087.8
510.92	2104.66
511.126	2119.77
511.333	2126.17
511.54	2128.68
511.746	2173.05
511.953	2205.6
512.16	2216.06
512.367	2124.62
512.573	2116.28
512.78	2155.03
512.987	2103.3
513.193	2075.79
513.4	2043.82
513.606	2102.34
513.813	2107.18
514.02	2093.04
514.226	2179.83
514.433	2171.7
514.639	2091.49
514.846	2088
515.052	2079.09
515.259	2105.82
515.465	2096.91
515.672	2148.64
515.878	2238.54
516.085	2137.79
516.291	2194.56
516.497	2148.25
516.704	2128.3
516.91	2073.08
517.117	1950.05
517.323	1924.48
517.529	1902.58
517.736	1905.49
517.942	1918.08
518.148	1961.29
518.354	2029.29
518.561	2040.92
518.767	2006.82
518.973	2032.97
519.179	2073.47
519.386	2033.55
519.592	2068.43
519.798	2065.33
520.004	2172.28
520.21	2138.37
520.417	2193.4
520.623	2253.85
520.829	2255.78
521.035	2254.43
521.241	2234.08
521.447	2245.32
521.653	2381.33
521.859	2254.43
522.065	2319.53
522.271	2390.05
522.477	2341.81
522.683	2399.93
522.889	2357.31
523.095	2311
523.301	2346.84
523.507	2288.72
523.713	2311.78
523.919	2261.01
524.125	2354.59
524.331	2360.21
524.537	2493.12
524.742	2500.29
524.948	2469.29
525.154	2482.08
525.36	2544.27
525.566	2446.82
525.772	2533.04
525.977	2396.25
526.183	2468.52
526.389	2494.48
526.595	2400.32
526.8	2398.38
527.006	2300.73
527.212	2247.65
527.417	2224.78
527.623	2253.07
527.829	2336.58
528.034	2348.59
528.24	2395.09
528.446	2388.69
528.651	2491.19
528.857	2503.2
529.062	2582.25
529.268	2524.12
529.473	2573.14
529.679	2585.15
529.884	2673.5
530.09	2640.76
530.295	2618.48
530.501	2607.05
530.706	2628.75
530.912	2550.28
531.117	2626.23
531.323	2631.46
531.528	2679.9
531.733	2698.11
531.939	2623.32
532.144	2654.32
532.35	2614.6
532.555	2694.43
532.76	2626.23
532.966	2625.07
533.171	2593.48
533.376	2546.6
533.581	2485.18
533.787	2578.37
533.992	2620.8
534.197	2674.66
534.402	2633.59
534.607	2636.69
534.813	2722.13
535.018	2647.93
535.223	2634.56
535.428	2679.9
535.633	2735.89
535.838	2719.42
536.043	2723.88
536.249	2839.35
536.454	2751.97
536.659	2803.12
536.864	2755.65
537.069	2679.31
537.274	2712.25
537.479	2699.27
537.684	2719.61
537.889	2676.6
538.094	2817.84
538.299	2748.48
538.504	2731.63
538.708	2741.51
538.913	2779.29
539.118	2741.51
539.323	2760.69
539.528	2694.62
539.733	2699.46
539.938	2735.69
540.142	2722.52
540.347	2676.41
540.552	2642.5
540.757	2669.82
540.962	2652.38
541.166	2587.87
541.371	2630.3
541.576	2658.39
541.781	2588.64
541.985	2711.48
542.19	2700.43
542.395	2805.06
542.599	2810.87
542.804	2736.28
543.008	2829.08
543.213	2727.17
543.418	2712.64
543.622	2747.51
543.827	2677.76
544.031	2762.24
544.236	2832.37
544.44	2794.01
544.645	2870.54
544.849	2806.41
545.054	2858.72
545.258	2879.84
545.463	2840.32
545.667	2777.16
545.872	2789.94
546.076	2807.57
546.281	2808.16
546.485	2749.45
546.689	2816.49
546.894	2833.54
547.098	2776.19
547.302	2771.15
547.507	2815.13
547.711	2824.43
547.915	2841.48
548.119	2743.64
548.324	2734.34
548.528	2803.12
548.732	2744.99
548.936	2836.83
549.141	2835.86
549.345	2790.33
549.549	2824.04
549.753	2813.19
549.957	2929.64
550.161	2882.36
550.366	2836.83
550.57	2807.96
550.774	2826.76
550.978	2821.91
551.182	2797.31
551.386	2771.15
551.59	2806.22
551.794	2746.54
551.998	2849.81
552.202	2793.63
552.406	2775.8
552.61	2823.07
552.814	2828.11
553.018	2853.88
553.222	2823.85
553.426	2772.7
553.63	2888.95
553.833	2785.68
554.037	2727.94
554.241	2793.24
554.445	2825.79
554.649	2839.35
554.853	2740.73
555.056	2885.27
555.26	2863.76
555.464	2831.21
555.668	2805.25
555.871	2812.22
556.075	2816.49
556.279	2792.66
556.483	2746.93
556.686	2791.3
556.89	2765.34
557.094	2762.82
557.297	2710.12
557.501	2783.16
557.704	2683.77
557.908	2767.47
558.112	2715.35
558.315	2822.3
558.519	2707.99
558.722	2712.06
558.926	2694.43
559.129	2627.78
559.333	2617.7
559.536	2642.5
559.74	2574.88
559.943	2572.75
560.147	2554.93
560.35	2587.28
560.553	2617.51
560.757	2640.18
560.96	2691.71
561.164	2622.16
561.367	2741.7
561.57	2667.5
561.774	2699.85
561.977	2646.96
562.18	2597.75
562.384	2672.53
562.587	2595.03
562.79	2603.75
562.993	2630.88
563.197	2628.17
563.4	2684.55
563.603	2683
563.806	2702.18
564.009	2631.85
564.212	2625.07
564.416	2537.3
564.619	2573.72
564.822	2543.5
565.025	2614.22
565.228	2550.47
565.431	2573.53
565.634	2526.45
565.837	2515.6
566.04	2512.69
566.243	2478.98
566.446	2391.02
566.649	2521.41
566.852	2484.02
567.055	2483.82
567.258	2506.88
567.461	2549.5
567.664	2551.83
567.867	2480.92
568.07	2522.38
568.273	2515.99
568.475	2576.82
568.678	2465.03
568.881	2458.83
569.084	2469.87
569.287	2310.42
569.489	2370.09
569.692	2449.34
569.895	2413.88
570.098	2390.63
570.3	2358.28
570.503	2317.98
570.706	2349.56
570.909	2322.04
571.111	2256.56
571.314	2293.95
571.516	2287.17
571.719	2308.09
571.922	2287.36
572.124	2328.24
572.327	2369.51
572.529	2244.35
572.732	2287.17
572.935	2354.59
573.137	2420.66
573.34	2293.76
573.542	2366.03
573.745	2297.44
573.947	2349.75
574.15	2323.4
574.352	2283.49
574.554	2409.81
574.757	2305.96
574.959	2275.55
575.162	2272.64
575.364	2238.35
575.566	2383.66
575.769	2225.95
575.971	2233.5
576.173	2122.29
576.376	2210.64
576.578	2296.28
576.78	2290.27
576.982	2173.05
577.185	2218.78
577.387	2176.35
577.589	2210.64
577.791	2226.91
577.993	2256.95
578.196	2222.65
578.398	2176.35
578.6	2217.61
578.802	2157.55
579.004	2092.45
579.206	2131.2
579.408	2154.65
579.61	2114.54
579.812	2171.31
580.014	2144.38
580.216	2119.38
580.418	2148.83
580.62	2125.58
580.822	2103.11
581.024	2176.15
581.226	2224.78
581.428	2136.63
581.63	2210.25
581.832	2116.09
582.034	2185.84
582.236	2143.99
582.438	2187.39
582.64	2249
582.841	2208.9
583.043	2279.42
583.245	2157.94
583.447	2259.66
583.649	2169.95
583.85	2184.1
584.052	2202.5
584.254	2178.28
584.456	2229.05
584.657	2124.81
584.859	2178.09
585.061	2156.97
585.262	2106.02
585.464	2079.47
585.666	2156.39
585.867	2094.2
586.069	2205.6
586.27	2129.85
586.472	2113.77
586.674	2083.93
586.875	2073.47
587.077	2075.02
587.278	2149.22
587.48	2092.26
587.681	2179.25
587.883	2111.05
588.084	2048.09
588.285	2089.94
588.487	2066.69
588.688	2060.87
588.89	1966.52
589.091	1972.14
589.292	1922.54
589.494	1875.07
589.695	1858.6
589.896	1784.98
590.098	1804.74
590.299	1860.54
590.5	1833.03
590.702	1869.06
590.903	1883.79
591.104	1937.46
591.305	1948.11
591.507	1994.42
591.708	1969.04
591.909	1946.17
592.11	1994.03
592.311	2001.2
592.512	1941.72
592.714	1907.81
592.915	1922.15
593.116	1924.67
593.317	1982.6
593.518	1963.42
593.719	1940.94
593.92	1980.86
594.121	2006.43
594.322	1953.34
594.523	1958.19
594.724	1895.61
594.925	1912.27
595.126	1942.49
595.327	1970.39
595.528	1969.04
595.729	1932.81
595.929	1920.6
596.13	1960.51
596.331	2009.53
596.532	1965.74
596.733	2026.58
596.934	2008.17
597.135	1968.65
597.335	1981.24
597.536	1920.79
597.737	1945.98
597.938	1941.14
598.138	1958.77
598.339	1947.34
598.54	1947.14
598.74	1902.19
598.941	1947.72
599.142	1951.41
599.342	1976.98
599.543	1896.96
599.744	1918.86
599.944	1910.14
600.145	1916.92
600.345	1934.55
600.546	1992.87
600.746	1945.21
600.947	1998.49
601.147	1935.71
601.348	1958.57
601.548	1868.68
601.749	1894.83
601.949	1869.06
602.15	1881.08
602.35	1875.65
602.551	1928.54
602.751	1846.98
602.951	1887.28
603.152	1835.93
603.352	1939.01
603.552	1900.26
603.753	1877.78
603.953	1940.56
604.153	1926.22
604.354	1868.29
604.554	1917.11
604.754	1944.24
604.954	1853.56
605.155	1927.38
605.355	1879.33
605.555	1925.25
605.755	1954.31
605.955	1915.37
606.155	1906.26
606.356	1897.93
606.556	1926.61
606.756	1882.24
606.956	1852.4
607.156	1950.63
607.356	1831.67
607.556	1944.82
607.756	1886.5
607.956	1949.66
608.156	1881.27
608.356	1851.43
608.556	1905.68
608.756	1853.18
608.956	1826.44
609.156	1865.96
609.356	1813.07
609.556	1824.5
609.755	1850.85
609.955	1828.18
610.155	1844.26
610.355	1847.56
610.555	1776.26
610.755	1812.88
610.954	1750.68
611.154	1825.86
611.354	1836.9
611.554	1789.05
611.753	1808.23
611.953	1764.83
612.153	1828.38
612.352	1842.33
612.552	1780.91
612.752	1720.65
612.951	1791.56
613.151	1799.31
613.351	1765.99
613.55	1776.45
613.75	1776.06
613.949	1752.62
614.149	1788.66
614.348	1750.3
614.548	1725.11
614.747	1670.67
614.947	1717.36
615.146	1706.12
615.346	1750.68
615.545	1802.22
615.745	1746.81
615.944	1755.33
616.144	1718.33
616.343	1743.32
616.542	1683.45
616.742	1713.48
616.941	1702.05
617.14	1625.91
617.34	1689.46
617.539	1689.65
617.738	1651.49
617.938	1772
618.137	1683.65
618.336	1652.84
618.535	1736.93
618.734	1698.57
618.934	1719.68
619.133	1722.2
619.332	1751.46
619.531	1659.24
619.73	1693.92
619.929	1760.37
620.128	1731.31
620.328	1741.77
620.527	1671.05
620.726	1720.85
620.925	1689.27
621.124	1703.6
621.323	1691.59
621.522	1643.15
621.721	1681.32
621.92	1645.29
622.119	1684.42
622.318	1627.85
622.517	1658.27
622.715	1650.52
622.914	1632.69
623.113	1656.33
623.312	1597.82
623.511	1666.6
623.71	1654
623.909	1611.19
624.107	1705.73
624.306	1601.11
624.505	1584.84
624.704	1598.98
624.902	1595.88
625.101	1662.34
625.3	1624.17
625.499	1582.12
625.697	1603.24
625.896	1585.22
626.095	1616.8
626.293	1538.92
626.492	1586.58
626.69	1567.79
626.889	1560.23
627.088	1621.45
627.286	1567.98
627.485	1558.87
627.683	1543.37
627.882	1592
628.08	1499.97
628.279	1548.99
628.477	1586.77
628.676	1510.24
628.874	1565.85
629.073	1519.16
629.271	1516.44
629.469	1543.76
629.668	1525.94
629.866	1511.79
630.065	1512.96
630.263	1563.33
630.461	1499.39
630.66	1519.35
630.858	1526.52
631.056	1566.82
631.254	1563.14
631.453	1510.05
631.651	1568.37
631.849	1509.86
632.047	1500.94
632.245	1473.63
632.444	1555
632.642	1524.19
632.84	1600.14
633.038	1466.46
633.236	1462.19
633.434	1498.62
633.632	1501.91
633.83	1488.74
634.028	1513.73
634.227	1546.86
634.425	1598.2
634.623	1482.34
634.821	1511.99
635.019	1524.97
635.216	1493
635.414	1551.9
635.612	1534.46
635.81	1466.46
636.008	1562.75
636.206	1523.42
636.404	1502.49
636.602	1492.03
636.8	1494.74
636.997	1500.36
637.195	1542.41
637.393	1504.82
637.591	1568.17
637.789	1518.57
637.986	1485.44
638.184	1486.99
638.382	1553.84
638.58	1511.99
638.777	1571.86
638.975	1503.46
639.173	1487.19
639.37	1501.52
639.568	1511.02
639.765	1503.85
639.963	1480.02
640.161	1523.81
640.358	1555
640.556	1442.43
640.753	1428.68
640.951	1441.27
641.148	1443.4
641.346	1456.38
641.543	1453.09
641.741	1467.43
641.938	1403.49
642.136	1431.58
642.333	1406.59
642.531	1505.98
642.728	1526.71
642.925	1454.06
643.123	1462.39
643.32	1458.13
643.517	1399.61
643.715	1456.77
643.912	1437.78
644.109	1455.03
644.306	1471.88
644.504	1403.49
644.701	1443.4
644.898	1445.73
645.095	1390.12
645.293	1421.89
645.49	1481.57
645.687	1409.11
645.884	1463.74
646.081	1350.4
646.278	1379.66
646.475	1370.75
646.672	1353.89
646.87	1441.27
647.067	1397.87
647.264	1406.01
647.461	1360.28
647.658	1322.89
647.855	1413.37
648.052	1349.05
648.249	1263.8
648.446	1338.78
648.642	1355.83
648.839	1323.08
649.036	1319.4
649.233	1317.27
649.43	1280.07
649.627	1302.16
649.824	1336.26
650.021	1260.12
650.217	1307
650.414	1289.76
650.611	1332.19
650.808	1345.75
651.004	1347.69
651.201	1344.59
651.398	1381.4
651.595	1365.71
651.791	1343.43
651.988	1385.86
652.185	1284.53
652.381	1356.99
652.578	1302.16
652.775	1296.35
652.971	1325.02
653.168	1323.66
653.364	1348.46
653.561	1280.85
653.757	1336.06
653.954	1354.08
654.15	1267.87
654.347	1367.65
654.543	1337.03
654.74	1251.98
654.936	1263.22
655.133	1295.77
655.329	1297.51
655.525	1281.82
655.722	1309.33
655.918	1185.52
656.115	1236.09
656.311	1170.02
656.507	1098.72
656.704	1082.64
656.9	1108.99
657.096	1087.49
657.292	1130.89
657.489	1183.59
657.685	1180.87
657.881	1199.28
658.077	1179.13
658.273	1245.58
658.47	1296.35
658.666	1232.02
658.862	1277.94
659.058	1220.2
659.254	1307.58
659.45	1238.61
659.646	1275.81
659.842	1261.28
660.038	1313.2
660.234	1243.84
660.43	1276.78
660.626	1330.06
660.822	1289.95
661.018	1310.88
661.214	1287.82
661.41	1194.63
661.606	1300.22
661.802	1306.42
661.998	1261.28
662.194	1245.2
662.39	1270.77
662.586	1339.55
662.781	1278.52
662.977	1285.88
663.173	1287.82
663.369	1272.32
663.564	1258.57
663.76	1291.7
663.956	1216.52
664.152	1278.52
664.347	1185.52
664.543	1274.65
664.739	1233.38
664.934	1163.44
665.13	1215.17
665.326	1281.04
665.521	1255.47
665.717	1212.07
665.912	1220.4
666.108	1175.25
666.304	1238.42
666.499	1208.58
666.695	1168.28
666.89	1230.28
667.086	1246.55
667.281	1234.15
667.477	1301.77
667.672	1230.67
667.867	1232.41
668.063	1226.4
668.258	1216.33
668.454	1239
668.649	1321.73
668.844	1227.18
669.04	1240.93
669.235	1208.97
669.43	1185.52
669.626	1152.39
669.821	1189.79
670.016	1177.58
670.211	1221.56
670.407	1200.05
670.602	1210.52
670.797	1168.86
670.992	1258.18
671.187	1136.51
671.382	1260.5
671.578	1173.32
671.773	1200.25
671.968	1153.94
672.163	1191.72
672.358	1214.59
672.553	1190.37
672.748	1134.96
672.943	1277.94
673.138	1219.04
673.333	1206.25
673.528	1143.48
673.723	1203.35
673.918	1169.64
674.113	1132.44
674.308	1279.3
674.503	1171.96
674.698	1185.91
674.892	1159.37
675.087	1228.34
675.282	1190.75
675.477	1165.18
675.672	1210.71
675.867	1114.42
676.061	1119.65
676.256	1127.59
676.451	1161.89
676.646	1189.59
676.84	1117.13
677.035	1126.62
677.23	1165.37
677.424	1171.77
677.619	1200.05
677.814	1197.34
678.008	1212.26
678.203	1094.46
678.397	1133.21
678.592	1162.85
678.787	1220.59
678.981	1134.57
679.176	1159.95
679.37	1156.07
679.565	1123.52
679.759	1133.79
679.954	1154.14
680.148	1183
680.342	1196.76
680.537	1164.21
680.731	1145.61
680.926	1136.7
681.12	1186.1
681.314	1112.87
681.509	1158.79
681.703	1162.85
681.897	1166.54
682.092	1123.52
682.286	1117.32
682.48	1194.44
682.674	1182.81
682.869	1106.47
683.063	1158.4
683.257	1181.26
683.451	1101.05
683.645	1125.07
683.839	1137.86
684.034	1141.35
684.228	1175.25
684.422	1073.92
684.616	1108.02
684.81	1143.48
685.004	1112.29
685.198	1129.53
685.392	1166.92
685.586	1088.26
685.78	1124.88
685.974	1120.62
686.168	1135.54
686.362	1145.03
686.556	1061.52
686.75	1029.94
686.944	1009.41
687.138	1020.64
687.331	922.22
687.525	950.51
687.719	876.88
687.913	930.36
688.107	957.87
688.301	893.93
688.494	939.08
688.688	918.35
688.882	900.91
689.076	871.46
689.269	932.3
689.463	1026.65
689.657	952.64
689.85	921.06
690.044	958.65
690.238	947.6
690.431	948.96
690.625	933.07
690.818	950.31
691.012	971.63
691.205	1020.26
691.399	929
691.593	1022.58
691.786	1037.31
691.98	1026.84
692.173	1051.64
692.366	1021.81
692.56	1040.02
692.753	1096.79
692.947	978.79
693.14	1099.69
693.333	1053.39
693.527	983.06
693.72	1052.61
693.914	1020.06
694.107	1024.13
694.3	1063.85
694.493	1002.04
694.687	1078.77
694.88	1032.27
695.073	1083.81
695.266	1075.47
695.46	1055.13
695.653	1122.56
695.846	1078.19
696.039	990.81
696.232	1035.56
696.425	1130.69
696.618	1111.32
696.812	1078.77
697.005	1138.25
697.198	1245.39
697.391	1168.67
697.584	1183
697.777	1208.97
697.97	1190.95
698.163	1204.7
698.356	1203.15
698.549	1259.34
698.742	1233.18
698.935	1195.4
699.127	1235.51
699.32	1226.02
699.513	1216.91
699.706	1232.6
699.899	1232.22
700.092	1203.93
700.285	1259.73
700.477	1186.69
700.67	1266.12
700.863	1264.38
701.056	1336.26
701.248	1328.9
701.441	1346.91
701.634	1313.98
701.826	1431.19
702.019	1255.08
702.212	1362.22
702.404	1279.88
702.597	1328.7
702.79	1341.68
702.982	1360.67
703.175	1397.68
703.367	1418.79
703.56	1470.33
703.752	1513.73
703.945	1468.01
704.137	1513.54
704.33	1503.66
704.522	1515.47
704.715	1539.31
704.907	1552.48
705.1	1588.32
705.292	1599.56
705.484	1573.21
705.677	1613.9
705.869	1635.79
706.061	1685.97
706.254	1715.81
706.446	1679.19
706.638	1666.79
706.831	1740.22
707.023	1697.98
707.215	1790.01
707.407	1795.63
707.599	1779.36
707.792	1820.43
707.984	1823.34
708.176	1849.88
708.368	1836.13
708.56	1859.57
708.752	1851.24
708.944	1848.91
709.136	1924.67
709.329	1880.49
709.521	2004.69
709.713	1947.34
709.905	1984.73
710.097	2024.45
710.289	1958.77
710.481	2049.44
710.672	2056.42
710.864	2057.39
711.056	2127.72
711.248	2096.91
711.44	2135.47
711.632	2095.55
711.824	2188.17
712.016	2217.42
712.207	2188.75
712.399	2214.13
712.591	2274.77
712.783	2259.27
712.975	2301.51
713.166	2268.38
713.358	2237.38
713.55	2354.59
713.741	2342.78
713.933	2331.34
714.125	2385.4
714.316	2402.84
714.508	2428.61
714.7	2406.32
714.891	2478.98
715.083	2504.55
715.274	2441.97
715.466	2461.93
715.657	2540.2
715.849	2419.89
716.04	2515.79
716.232	2428.99
716.423	2495.64
716.615	2460.96
716.806	2370.29
716.998	2368.74
717.189	2359.63
717.381	2268.96
717.572	2261.21
717.763	2280.78
717.955	2240.86
718.146	2228.27
718.337	2182.16
718.528	2143.6
718.72	2059.52
718.911	2175.38
719.102	2089.16
719.293	2168.79
719.485	2152.9
719.676	2145.15
719.867	2126.55
720.058	2166.47
720.249	2130.04
720.44	2154.84
720.632	2214.71
720.823	2267.8
721.014	2391.79
721.205	2383.27
721.396	2496.03
721.587	2556.87
721.778	2647.54
721.969	2669.63
722.16	2704.11
722.351	2739.96
722.542	2882.36
722.733	2847.68
722.924	2809.51
723.115	2905.22
723.305	2824.24
723.496	2865.89
723.687	2726.01
723.878	2814.16
724.069	2774.06
724.26	2791.11
724.45	2756.62
724.641	2759.33
724.832	2784.71
725.023	2787.04
725.213	2777.35
725.404	2734.53
725.595	2739.57
725.785	2772.89
725.976	2823.66
726.167	2829.08
726.357	2848.07
726.548	2931.57
726.739	2839.93
726.929	2942.81
727.12	2980.78
727.31	2981.37
727.501	2963.74
727.691	2945.52
727.882	2989.7
728.072	3056.54
728.263	3059.25
728.453	3068.16
728.644	3062.16
728.834	3069.33
729.024	3049.37
729.215	3045.11
729.405	3121.06
729.596	3196.62
729.786	3195.07
729.976	3277.22
730.167	3242.54
730.357	3200.69
730.547	3248.35
730.737	3249.71
730.928	3314.61
731.118	3361.69
731.308	3299.11
731.498	3285.94
731.688	3450.23
731.879	3406.84
732.069	3469.42
732.259	3503.13
732.449	3546.14
732.639	3624.41
732.829	3674.4
733.019	3704.82
733.209	3765.07
733.399	3738.53
733.589	3856.13
733.779	3855.17
733.969	3858.65
734.159	3938.48
734.349	3989.43
734.539	4040.58
734.729	4005.32
734.919	4098.71
735.109	4137.65
735.299	4015.4
735.488	4091.73
735.678	4064.03
735.868	4098.32
736.058	4127.57
736.248	4063.06
736.437	4029.34
736.627	4058.02
736.817	4202.36
737.007	4123.7
737.196	4184.73
737.386	4178.34
737.576	4113.82
737.765	4232
737.955	4181.63
738.144	4331.78
738.334	4282.77
738.524	4252.54
738.713	4260.29
738.903	4254.48
739.092	4309.7
739.282	4281.22
739.471	4320.16
739.661	4288
739.85	4350.77
740.04	4371.31
740.229	4375.38
740.419	4445.51
740.608	4449.2
740.797	4416.06
740.987	4506.74
741.176	4488.91
741.365	4401.53
741.555	4381
741.744	4512.94
741.933	4412.77
742.123	4462.18
742.312	4487.75
742.501	4525.53
742.69	4538.32
742.88	4454.04
743.069	4625.51
743.258	4535.8
743.447	4630.16
743.636	4628.02
743.825	4567.38
744.014	4621.44
744.204	4684.79
744.393	4574.94
744.582	4676.07
744.771	4673.94
744.96	4597.99
745.149	4684.4
745.338	4596.25
745.527	4709.01
745.716	4593.15
745.905	4572.81
746.094	4684.79
746.283	4717.15
746.471	4682.85
746.66	4754.93
746.849	4723.74
747.038	4710.37
747.227	4661.54
747.416	4726.06
747.604	4664.06
747.793	4725.67
747.982	4725.29
748.171	4743.5
748.359	4680.34
748.548	4706.3
748.737	4715.79
748.926	4677.43
749.114	4595.86
749.303	4763.65
749.491	4698.16
749.68	4547.43
749.869	4713.27
750.057	4683.82
750.246	4622.6
750.434	4642.55
750.623	4655.73
750.811	4608.84
751	4692.54
751.188	4712.3
751.377	4642.17
751.565	4642.17
751.754	4578.04
751.942	4554.01
752.131	4699.9
752.319	4551.49
752.507	4554.21
752.696	4668.13
752.884	4638.1
753.072	4605.55
753.261	4661.54
753.449	4619.11
753.637	4587.34
753.825	4613.49
754.014	4681.69
754.202	4631.32
754.39	4696.03
754.578	4633.84
754.766	4582.3
754.955	4534.64
755.143	4675.49
755.331	4615.82
755.519	4560.02
755.707	4603.81
755.895	4547.04
756.083	4574.94
756.271	4534.44
756.459	4570.29
756.647	4598.57
756.835	4565.44
757.023	4533.86
757.211	4473.41
757.399	4462.76
757.587	4507.71
757.775	4439.51
757.963	4487.94
758.151	4491.63
758.339	4461.01
758.526	4455.4
758.714	4487.36
758.902	4383.9
759.09	4263.39
759.278	4093.67
759.465	3834.44
759.653	3455.85
759.841	3161.94
760.028	2753.71
760.216	2449.53
760.404	2342.39
760.591	2001.01
760.779	1750.3
760.967	1562.36
761.154	1387.21
761.342	1429.45
761.529	1489.13
761.717	1568.76
761.905	1551.71
762.092	1683.26
762.28	1674.15
762.467	1690.04
762.655	1651.49
762.842	1665.82
763.029	1684.81
763.217	1697.02
763.404	1720.85
763.592	1766.18
763.779	1711.93
763.966	1805.51
764.154	1858.79
764.341	1883.98
764.528	1915.76
764.716	2002.36
764.903	2026
765.09	2114.54
765.277	2178.48
765.465	2364.48
765.652	2401.29
765.839	2510.75
766.026	2651.41
766.213	2717.48
766.4	2767.47
766.588	2972.45
766.775	3037.55
766.962	3105.95
767.149	3202.43
767.336	3358.2
767.523	3289.42
767.71	3406.45
767.897	3570.55
768.084	3629.84
768.271	3672.27
768.458	3699.78
768.645	3801.5
768.832	3727.1
769.019	3760.04
769.206	3814.48
769.392	3864.66
769.579	3957.27
769.766	3888.1
769.953	3889.85
770.14	3953.01
770.327	3938.09
770.513	3996.8
770.7	4037.87
770.887	3961.34
771.073	3962.31
771.26	4001.06
771.447	3990.6
771.634	3953.78
771.82	4076.62
772.007	3884.62
772.193	3946.03
772.38	4039.61
772.567	3956.11
772.753	3984.2
772.94	4024.7
773.126	4063.83
773.313	4075.46
773.499	3977.23
773.686	4019.08
773.872	3949.71
774.059	3990.79
774.245	3917.17
774.432	3978
774.618	3893.14
774.804	3945.84
774.991	3890.82
775.177	3951.26
775.363	3911.35
775.55	3953.01
775.736	3871.05
775.922	3926.85
776.109	3899.53
776.295	3887.33
776.481	3899.15
776.667	3913.48
776.853	3905.73
777.04	3821.26
777.226	3864.08
777.412	3904.57
777.598	3800.34
777.784	3846.06
777.97	3824.75
778.156	3854
778.342	3825.33
778.528	3832.3
778.715	3709.47
778.901	3780.38
779.087	3834.63
779.272	3743.18
779.458	3730.39
779.644	3782.9
779.83	3736.59
780.016	3805.18
780.202	3702.11
780.388	3743.96
780.574	3679.82
780.76	3717.61
780.946	3755
781.131	3694.36
781.317	3672.08
781.503	3706.76
781.689	3686.99
781.874	3783.29
782.06	3659.87
782.246	3689.9
782.432	3672.85
782.617	3665.88
782.803	3719.54
782.989	3576.17
783.174	3578.11
783.36	3524.25
783.545	3596.32
783.731	3595.74
783.916	3478.91
784.102	3590.89
784.288	3536.06
784.473	3535.48
784.659	3481.82
784.844	3583.15
785.029	3540.33
785.215	3508.16
785.4	3442.29
785.586	3565.9
785.771	3481.62
785.956	3560.28
786.142	3491.7
786.327	3483.75
786.512	3456.82
786.698	3452.37
786.883	3356.27
787.068	3420.59
787.254	3433.77
787.439	3435.51
787.624	3414.59
787.809	3353.94
787.994	3332.44
788.18	3458.37
788.365	3335.92
788.55	3352.2
788.735	3372.54
788.92	3351.23
789.105	3344.64
789.29	3384.36
789.475	3297.37
789.66	3302.21
789.845	3304.34
790.03	3248.54
790.215	3296.98
790.4	3309.38
790.585	3275.86
790.77	3244.67
790.955	3228.59
791.14	3253.58
791.325	3348.71
791.51	3138.11
791.695	3195.84
791.879	3176.28
792.064	3158.45
792.249	3266.56
792.434	3184.61
792.618	3222.39
792.803	3255.52
792.988	3214.83
793.173	3226.46
793.357	3195.84
793.542	3150.31
793.727	3170.27
793.911	3225.68
794.096	3213.09
794.281	3231.88
794.465	3308.41
794.65	3216.38
794.834	3258.81
795.019	3264.04
795.203	3271.41
795.388	3266.37
795.572	3283.03
795.757	3300.66
795.941	3320.81
796.126	3238.47
796.31	3210.57
796.494	3237.31
796.679	3188.29
796.863	3171.43
797.048	3317.32
797.232	3253.58
797.416	3238.66
797.601	3221.03
797.785	3367.7
797.969	3329.72
798.153	3256.87
798.338	3287.1
798.522	3353.94
798.706	3324.11
798.89	3313.64
799.074	3401.22
799.258	3387.85
799.443	3294.66
799.627	3349.49
799.811	3377.97
799.995	3271.02
800.179	3346
800.363	3276.44
800.547	3311.71
800.731	3301.63
800.915	3240.6
801.099	3237.31
801.283	3259.39
801.467	3304.73
801.651	3236.53
801.835	3290.01
802.019	3299.5
802.202	3321.01
802.386	3275.47
802.57	3257.84
802.754	3262.88
802.938	3222.97
803.121	3226.26
803.305	3269.47
803.489	3271.6
803.673	3276.06
803.856	3266.37
804.04	3253
804.224	3286.71
804.407	3272.76
804.591	3246.8
804.775	3240.02
804.958	3243.51
805.142	3330.89
805.326	3228.98
805.509	3269.08
805.693	3275.86
805.876	3299.89
806.06	3262.49
806.243	3289.42
806.427	3294.66
806.61	3304.34
806.794	3310.74
806.977	3315.19
807.16	3335.34
807.344	3275.86
807.527	3298.92
807.71	3258.23
807.894	3228.59
808.077	3302.6
808.26	3204.76
808.444	3197.39
808.627	3261.91
808.81	3198.94
808.993	3153.99
809.177	3109.63
809.36	3194.68
809.543	3206.89
809.726	3075.53
809.909	3083.28
810.092	3082.89
810.276	3063.52
810.459	3066.42
810.642	3054.99
810.825	3016.24
811.008	3051.5
811.191	2934.09
811.374	2983.3
811.557	2999.19
811.74	3061.19
811.923	2935.64
812.106	2906.77
812.289	2886.82
812.472	2867.64
812.654	2937.58
812.837	2889.14
813.02	2814.36
813.203	2819.01
813.386	2713.22
813.569	2651.03
813.751	2612.47
813.934	2670.79
814.117	2585.73
814.3	2552.8
814.482	2513.47
814.665	2465.22
814.848	2443.14
815.03	2343.36
815.213	2364.86
815.396	2383.85
815.578	2331.54
815.761	2333.48
815.943	2356.73
816.126	2238.73
816.309	2259.46
816.491	2127.91
816.674	2084.9
816.856	2146.7
817.039	2152.71
817.221	2247.45
817.403	2141.28
817.586	2168.21
817.768	2176.54
817.951	2090.32
818.133	2069.01
818.315	2088.58
818.498	2155.23
818.68	2187.39
818.862	2194.75
819.045	2214.13
819.227	2223.04
819.409	2180.03
819.591	2179.06
819.774	2155.62
819.956	2113.38
820.138	2238.35
820.32	2191.65
820.502	2236.8
820.684	2311.78
820.866	2318.75
821.048	2402.45
821.231	2371.26
821.413	2363.31
821.595	2342.39
821.777	2360.6
821.959	2336.77
822.141	2436.55
822.323	2274.96
822.505	2217.42
822.686	2201.53
822.868	2123.45
823.05	1971.17
823.232	1950.63
823.414	1865.38
823.596	1944.24
823.778	1915.76
823.96	1945.98
824.141	1971.17
824.323	1986.28
824.505	2063.2
824.687	2077.15
824.868	2197.08
825.05	2262.76
825.232	2289.88
825.413	2400.51
825.595	2301.31
825.777	2249.2
825.958	2294.92
826.14	2276.51
826.321	2314.49
826.503	2287.75
826.685	2298.41
826.866	2332.7
827.048	2355.37
827.229	2249.2
827.411	2206.38
827.592	2190.68
827.773	2202.89
827.955	2113.38
828.136	2131.01
828.318	2102.92
828.499	2124.42
828.68	2065.52
828.862	2093.62
829.043	2112.22
829.224	2033.17
829.406	2050.22
829.587	2041.89
829.768	2072.69
829.949	2095.36
830.131	2086.25
830.312	2174.8
830.493	2076.76
830.674	2116.28
830.855	2085.87
831.036	2090.32
831.218	2107.95
831.399	2191.65
831.58	2075.02
831.761	2112.41
831.942	2100.2
832.123	2076.18
832.304	2028.9
832.485	2032.97
832.666	2077.34
832.847	2082.38
833.028	2044.21
833.209	2075.99
833.389	2058.74
833.57	1977.95
833.751	1985.89
833.932	2082.57
834.113	2044.6
834.294	2010.89
834.475	2110.28
834.655	2099.62
834.836	2090.71
835.017	2100.98
835.198	2046.15
835.378	2045.18
835.559	2129.07
835.74	2041.89
835.92	2070.37
836.101	2041.69
836.281	2101.56
836.462	2087.22
836.643	2116.48
836.823	2117.25
837.004	2130.43
837.184	2137.98
837.365	2122.29
837.545	2123.84
837.726	2098.46
837.906	2159.68
838.087	2113.38
838.267	2122.1
838.448	2082.96
838.628	2135.85
838.808	2095.94
838.989	2183.9
839.169	2075.02
839.349	2099.24
839.53	2132.17
839.71	2168.4
839.89	2054.48
840.07	2128.3
840.251	2075.4
840.431	2162.78
840.611	2095.17
840.791	2019.8
840.971	2096.91
841.151	2085.67
841.332	2011.47
841.512	2097.1
841.692	2030.84
841.872	2093.04
842.052	2048.67
842.232	2080.83
842.412	1997.91
842.592	2045.18
842.772	2071.34
842.952	2082.96
843.132	2009.14
843.312	2029.1
843.492	2027.16
843.672	2060.29
843.851	1946.95
844.031	2042.47
844.211	2018.05
844.391	1965.55
844.571	2017.47
844.751	2022.9
844.93	2038.59
845.11	1997.71
845.29	2007.01
845.47	2047.7
845.649	2041.11
845.829	2047.7
846.009	1971.17
846.188	1999.46
846.368	2018.25
846.547	1971.17
846.727	2011.66
846.907	1942.3
847.086	1963.81
847.266	1962.26
847.445	1970.78
847.625	1950.63
847.804	1904.91
847.984	1936.49
848.163	1909.94
848.343	1929.71
848.522	1956.25
848.701	1969.42
848.881	1927.96
849.06	1945.21
849.239	1932.81
849.419	1913.24
849.598	1859.96
849.777	1838.26
849.957	1856.28
850.136	1762.11
850.315	1758.43
850.494	1745.65
850.674	1748.94
850.853	1813.07
851.032	1812.3
851.211	1810.55
851.39	1807.84
851.569	1791.37
851.748	1766.18
851.927	1796.6
852.107	1808.42
852.286	1764.63
852.465	1770.06
852.644	1819.46
852.823	1792.73
853.002	1802.41
853.181	1788.46
853.359	1813.85
853.538	1734.02
853.717	1801.45
853.896	1695.27
854.075	1650.9
854.254	1612.74
854.433	1510.24
854.611	1565.85
854.79	1471.3
854.969	1547.25
855.148	1579.02
855.327	1560.23
855.505	1601.5
855.684	1585.03
855.863	1653.04
856.041	1589.49
856.22	1677.06
856.399	1635.4
856.577	1724.53
856.756	1711.74
856.934	1805.9
857.113	1805.71
857.291	1712.52
857.47	1702.05
857.648	1731.5
857.827	1718.91
858.005	1734.6
858.184	1696.43
858.362	1786.91
858.541	1690.04
858.719	1709.61
858.898	1743.13
859.076	1679.38
859.254	1752.04
859.433	1659.24
859.611	1676.09
859.789	1634.63
859.967	1749.91
860.146	1743.9
860.324	1641.6
860.502	1701.67
860.68	1628.43
860.859	1619.71
861.037	1659.82
861.215	1667.76
861.393	1646.84
861.571	1635.79
861.749	1627.27
861.927	1667.37
862.105	1651.68
862.283	1654
862.461	1614.67
862.639	1591.42
862.817	1613.12
862.995	1618.35
863.173	1602.47
863.351	1631.53
863.529	1610.99
863.707	1631.72
863.885	1638.7
864.063	1551.51
864.241	1568.95
864.418	1636.18
864.596	1546.86
864.774	1531.56
864.952	1599.95
865.129	1583.48
865.307	1508.5
865.485	1471.69
865.663	1579.61
865.84	1487.19
866.018	1493
866.196	1351.56
866.373	1388.76
866.551	1341.68
866.728	1299.06
866.906	1325.02
867.084	1357.96
867.261	1411.43
867.439	1411.24
867.616	1454.44
867.794	1380.43
867.971	1436.62
868.149	1458.13
868.326	1488.93
868.503	1489.51
868.681	1481.18
868.858	1472.66
869.035	1446.69
869.213	1468.01
869.39	1412.01
869.567	1517.02
869.745	1470.14
869.922	1461.61
870.099	1470.33
870.276	1485.64
870.454	1501.72
870.631	1459.87
870.808	1418.02
870.985	1432.16
871.162	1525.55
871.339	1445.14
871.517	1382.95
871.694	1396.13
871.871	1418.41
872.048	1414.53
872.225	1415.89
872.402	1429.64
872.579	1409.88
872.756	1434.88
872.933	1363
873.11	1383.34
873.287	1408.33
873.463	1398.65
873.64	1347.11
873.817	1395.35
873.994	1412.98
874.171	1339.16
874.348	1371.91
874.524	1341.1
874.701	1366.87
874.878	1301
875.055	1388.18
875.231	1348.85
875.408	1371.33
875.585	1293.05
875.762	1333.74
875.938	1316.88
876.115	1320.56
876.291	1332.96
876.468	1349.63
876.645	1267.09
876.821	1298.48
876.998	1292.08
877.174	1322.7
877.351	1312.43
877.527	1288.98
877.704	1301
877.88	1311.27
878.057	1290.15
878.233	1334.71
878.409	1244.03
878.586	1292.86
878.762	1263.99
878.938	1293.63
879.115	1202.19
879.291	1274.65
879.467	1197.15
879.644	1229.89
879.82	1278.91
879.996	1239.58
880.172	1201.99
880.349	1240.93
880.525	1276.78
880.701	1191.53
880.877	1166.92
881.053	1228.54
881.229	1194.24
881.405	1262.44
881.581	1237.64
881.757	1215.94
881.933	1245.39
882.109	1254.3
882.285	1279.3
882.461	1197.34
882.637	1235.9
882.813	1188.82
882.989	1212.07
883.165	1244.42
883.341	1200.83
883.517	1260.7
883.693	1244.23
883.869	1263.8
884.044	1191.53
884.22	1258.18
884.396	1260.89
884.572	1245
884.747	1294.6
884.923	1268.06
885.099	1263.6
885.275	1274.26
885.45	1184.75
885.626	1212.84
885.801	1193.85
885.977	1211.68
886.153	1159.95
886.328	1242.68
886.504	1174.67
886.679	1225.44
886.855	1205.87
887.03	1187.27
887.206	1226.79
887.381	1241.32
887.557	1207.61
887.732	1235.51
887.908	1233.18
888.083	1224.47
888.258	1207.22
888.434	1192.3
888.609	1192.3
888.784	1262.25
888.96	1231.05
889.135	1186.69
889.31	1169.44
889.485	1232.6
889.661	1229.7
889.836	1233.96
890.011	1226.6
890.186	1212.84
890.361	1197.92
890.537	1196.18
890.712	1210.52
890.887	1232.41
891.062	1239
891.237	1283.95
891.412	1173.9
891.587	1215.36
891.762	1220.2
891.937	1250.62
892.112	1157.43
892.287	1197.92
892.462	1160.53
892.637	1152.39
892.812	1128.37
892.987	1114.22
893.161	1127.79
893.336	1163.63
893.511	1128.76
893.686	1151.04
893.861	1112.29
894.035	1118.87
894.21	1103.96
894.385	1097.95
894.56	1070.24
894.734	1084.97
894.909	1051.06
895.084	1046.03
895.258	1029.94
895.433	1084.58
895.608	1066.95
895.782	970.27
895.957	1001.46
896.131	993.71
896.306	931.71
896.48	924.16
896.655	918.15
896.829	885.6
897.004	863.13
897.178	902.46
897.353	841.43
897.527	905.17
897.701	922.41
897.876	829.03
898.05	902.26
898.224	929.2
898.399	939.46
898.573	880.37
898.747	769.16
898.921	803.84
899.096	736.61
899.27	725.95
899.444	745.91
899.618	781.95
899.792	812.37
899.967	777.69
900.141	845.3
900.315	745.33
900.489	758.7
900.663	778.07
900.837	778.27
901.011	741.45
901.185	805.97
901.359	783.69
901.533	786.02
901.707	776.52
901.881	789.89
902.055	702.32
902.229	744.75
902.403	805.78
902.576	750.95
902.75	749.79
902.924	901.68
903.098	843.75
903.272	868.94
903.446	909.43
903.619	881.92
903.793	926.48
903.967	903.81
904.14	943.53
904.314	935.78
904.488	917.76
904.661	950.9
904.835	914.28
905.009	969.11
905.182	985.77
905.356	957.48
905.529	906.33
905.703	902.46
905.876	893.16
906.05	866.42
906.223	840.85
906.397	762.38
906.57	801.32
906.744	758.12
906.917	768.19
907.09	794.54
907.264	770.71
907.437	722.47
907.61	693.41
907.784	727.5
907.957	731.19
908.13	685.07
908.304	737.39
908.477	663.37
908.65	684.88
908.823	664.34
908.996	743.2
909.17	670.16
909.343	686.24
909.516	699.8
909.689	676.94
909.862	629.27
910.035	680.42
910.208	643.81
910.381	647.49
910.554	751.14
910.727	680.04
910.9	674.42
911.073	652.72
911.246	741.26
911.419	729.25
911.592	711.23
911.765	683.72
911.938	665.51
912.11	694.96
912.283	668.02
912.456	728.67
912.629	666.28
912.802	659.11
912.974	601.76
913.147	576.38
913.32	533.18
913.493	566.69
913.665	600.6
913.838	588.2
914.01	576.77
914.183	599.05
914.356	583.36
914.528	628.69
914.701	694.18
914.873	678.49
915.046	600.21
915.218	546.16
915.391	525.81
915.563	507.8
915.736	577.16
915.908	625.4
916.081	564.37
916.253	564.18
916.425	619.59
916.598	607.19
916.77	586.84
916.942	565.34
917.115	496.75
917.287	599.24
917.459	579.48
917.632	535.89
917.804	486.68
917.976	565.34
918.148	575.99
918.32	558.75
918.493	587.62
918.665	633.34
918.837	577.54
919.009	653.69
919.181	663.37
919.353	610.87
919.525	597.89
919.697	614.94
919.869	607.96
920.041	647.68
920.213	721.89
920.385	637.61
920.557	595.37
920.729	627.34
920.901	603.7
921.073	605.25
921.244	612.42
921.416	644.39
921.588	588.78
921.76	579.48
921.932	635.28
922.103	600.21
922.275	620.56
922.447	612.61
922.619	520.97
922.79	591.88
922.962	586.46
923.134	614.55
923.305	545.19
923.477	529.3
923.648	529.11
923.82	561.66
923.991	494.43
924.163	497.72
924.335	548.68
924.506	512.64
924.677	566.31
924.849	529.88
925.02	548.48
925.192	570.38
925.363	543.44
925.535	535.11
925.706	502.37
925.877	577.93
926.049	511.09
926.22	526.78
926.391	522.13
926.562	553.71
926.734	515.93
926.905	544.99
927.076	460.52
927.247	504.31
927.419	462.85
927.59	455.1
927.761	462.26
927.932	467.3
928.103	467.88
928.274	413.83
928.445	402.98
928.616	402.01
928.787	407.43
928.958	424.48
929.129	397.94
929.3	391.93
929.471	364.42
929.642	318.89
929.813	272.39
929.984	343.69
930.155	259.22
930.326	337.88
930.496	292.93
930.667	230.93
930.838	270.65
931.009	220.08
931.18	249.92
931.35	243.33
931.521	233.84
931.692	183.46
931.863	120.49
932.033	201.48
932.204	202.26
932.374	211.17
932.545	159.83
932.716	214.46
932.886	211.75
933.057	81.36
933.227	136.77
933.398	190.24
933.568	111.39
933.739	54.81
933.909	70.12
934.08	121.27
934.25	36.41
934.421	92.98
934.591	111.78
934.761	97.24
934.932	80.97
935.102	114.88
935.272	85.43
935.443	97.44
935.613	93.76
935.783	111.39
935.953	61.79
936.123	220.47
936.294	74.96
936.464	80.39
936.634	111.39
936.804	70.7
936.974	60.24
937.144	98.21
937.314	78.45
937.484	62.18
937.655	54.23
937.825	157.11
937.995	71.48
938.165	109.26
938.334	94.34
938.504	149.17
938.674	79.81
938.844	109.64
939.014	212.52
939.184	174.55
939.354	188.5
939.524	212.72
939.694	130.57
939.863	145.68
940.033	227.83
940.203	201.87
940.373	183.07
940.542	182.49
940.712	174.74
940.882	202.64
941.051	180.94
941.221	193.73
941.391	197.02
941.56	167.77
941.73	145.29
941.899	259.99
942.069	170.87
942.238	188.5
942.408	131.73
942.577	196.64
942.747	144.71
942.916	94.73
943.086	139.29
943.255	179.98
943.425	166.8
943.594	123.01
943.763	65.08
943.933	101.51
944.102	66.44
944.271	113.52
944.441	149.17
944.61	102.86
944.779	116.23
944.948	218.53
945.117	76.9
945.287	93.37
945.456	73.61
945.625	105.96
945.794	132.89
945.963	98.21
946.132	122.82
946.301	117.2
946.47	155.76
946.639	68.76
946.808	87.95
946.977	138.32
947.146	169.32
947.315	82.13
947.484	155.95
947.653	87.75
947.822	98.79
947.991	104.22
948.16	187.14
948.329	174.36
948.498	120.11
948.666	112.36
948.835	139.48
949.004	75.16
949.173	91.05
949.341	118.56
949.51	145.68
949.679	141.23
949.847	131.54
950.016	187.34
950.185	157.89
950.353	96.28
950.522	122.24
950.69	187.14
950.859	93.56
951.028	176.29
951.196	123.79
951.365	97.44
951.533	114.29
951.701	140.06
951.87	133.09
952.038	101.89
952.207	123.21
952.375	193.73
952.543	85.23
952.712	90.27
952.88	83.3
953.048	189.86
953.217	137.93
953.385	135.8
953.553	153.24
953.721	84.26
953.89	114.29
954.058	88.33
954.226	99.18
954.394	152.08
954.562	75.93
954.73	132.31
954.898	112.16
955.067	148.78
955.235	102.28
955.403	169.71
955.571	155.37
955.739	123.98
955.907	76.51
956.075	94.73
956.243	51.52
956.41	136.38
956.578	86.78
956.746	68.96
956.914	101.51
957.082	148.98
957.25	155.56
957.418	88.91
957.585	105.58
957.753	150.53
957.921	69.15
958.089	121.85
958.256	146.84
958.424	135.03
958.592	120.88
958.759	101.12
958.927	168.35
959.095	94.73
959.262	146.46
959.43	113.13
959.597	90.46
959.765	109.84
959.932	86.78
960.1	130.38
960.267	117.59
960.435	128.63
960.602	181.72
960.77	109.84
960.937	69.54
961.104	124.56
961.272	69.35
961.439	103.83
961.606	92.98
961.774	134.44
961.941	93.56
962.108	139.87
962.275	118.75
962.443	169.71
962.61	141.03
962.777	161.38
962.944	138.71
963.111	124.95
963.278	139.87
963.446	143.16
963.613	127.86
963.78	177.46
963.947	132.51
964.114	125.53
964.281	237.32
964.448	156.92
964.615	98.6
964.782	90.85
964.949	159.44
965.116	171.45
965.282	164.09
965.449	106.93
965.616	102.48
965.783	136.38
965.95	173.39
966.117	76.13
966.283	146.46
966.45	130.96
966.617	133.28
966.784	156.34
966.95	156.73
967.117	171.84
967.284	113.71
967.45	112.36
967.617	191.21
967.784	171.64
967.95	175.71
968.117	126.69
968.283	190.82
968.45	229.77
968.616	160.99
968.783	199.16
968.949	171.64
969.116	197.02
969.282	140.64
969.449	168.74
969.615	165.25
969.781	122.04
969.948	141.42
970.114	100.54
970.28	203.61
970.447	160.99
970.613	213.3
970.779	163.7
970.945	160.02
971.112	169.9
971.278	150.72
971.444	152.46
971.61	187.72
971.776	131.54
971.942	159.83
972.108	169.13
972.275	155.56
972.441	147.81
972.607	224.34
972.773	130.18
972.939	142.58
973.105	151.3
973.271	117.78
973.437	142.19
973.602	127.28
973.768	148.01
973.934	118.36
974.1	146.26
974.266	61.21
974.432	141.81
974.598	110.61
974.763	158.08
974.929	147.04
975.095	196.25
975.261	109.64
975.426	98.21
975.592	134.83
975.758	201.09
975.923	67.02
976.089	108.87
976.255	151.69
976.42	151.3
976.586	134.25
976.751	142
976.917	233.26
977.082	174.36
977.248	58.88
977.413	52.3
977.579	110.23
977.744	130.18
977.91	79.03
978.075	95.89
978.24	150.72
978.406	125.53
978.571	112.94
978.736	98.41
978.902	140.64
979.067	87.56
979.232	71.48
979.397	127.47
979.563	179.2
979.728	94.92
979.893	124.95
980.058	121.46
980.223	165.25
980.388	130.96
980.554	152.08
980.719	114.1
980.884	112.94
981.049	174.74
981.214	108.68
981.379	138.71
981.544	96.47
981.709	122.04
981.874	117.01
982.039	130.96
982.204	146.46
982.368	123.59
982.533	109.26
982.698	144.33
982.863	135.03
983.028	132.51
983.193	133.48
983.357	124.18
983.522	133.86
983.687	124.76
983.852	115.65
984.016	134.25
984.181	120.11
984.346	162.34
984.51	149.36
984.675	103.25
984.839	155.76
985.004	120.69
985.168	161.18
985.333	116.81
985.498	118.56
985.662	144.52
985.827	137.16
985.991	132.51
986.155	103.06
986.32	157.5
986.484	180.75
986.649	140.26
986.813	51.91
986.977	125.92
987.142	123.4
987.306	72.25
987.47	66.63
987.634	127.47
987.799	130.57
987.963	113.71
988.127	143.74
988.291	160.21
988.455	136.38
988.62	97.24
988.784	149.75
988.948	141.61
989.112	71.09
989.276	87.95
989.44	116.81
989.604	97.63
989.768	81.75
989.932	209.81
990.096	59.46
990.26	86.78
990.424	84.26
990.588	100.93
990.752	170.68
990.915	142
991.079	82.52
991.243	103.64
991.407	142
991.571	91.24
991.734	126.31
991.898	123.4
992.062	183.07
992.226	118.56
992.389	94.92
992.553	53.26
992.717	89.69
992.88	106.74
993.044	113.13
993.207	105.96
993.371	122.82
993.535	115.07
993.698	105.96
993.862	139.87
994.025	141.42
994.189	115.84
994.352	103.64
994.515	128.24
994.679	157.89
994.842	80.58
995.006	95.69
995.169	77.68
995.332	62.56
995.496	137.54
995.659	43.38
995.822	73.22
995.985	76.9
996.149	147.23
996.312	85.43
996.475	164.09
996.638	66.83
996.801	147.23
996.964	176.49
997.128	100.73
997.291	80.2
997.454	81.75
997.617	46.87
997.78	116.81
997.943	96.28
998.106	99.57
998.269	78.84
998.432	102.48
998.595	72.45
998.758	8.12
998.92	54.43
999.083	32.15
999.246	53.65
999.409	39.31
999.572	21.88
999.735	25.17
999.897	106.35
1000.06	64.31
1000.223	73.8
1000.386	91.24
1000.548	103.44
1000.711	94.34
1000.874	87.56
1001.036	44.74
1001.199	98.41
1001.361	64.89
1001.524	78.06
1001.687	108.87
1001.849	68.57
1002.012	102.67
1002.174	97.24
1002.337	108.68
1002.499	74
1002.661	118.56
1002.824	12.96
1002.986	74.38
1003.149	87.75
1003.311	57.53
1003.473	144.13
1003.636	40.09
1003.798	93.18
1003.96	111.58
1004.123	80.97
1004.285	70.51
1004.447	84.65
1004.609	65.28
1004.771	133.86
1004.933	27.3
1005.096	25.56
1005.258	24.4
1005.42	76.13
1005.582	95.5
1005.744	70.51
1005.906	33.11
1006.068	94.53
1006.23	15.87
1006.392	22.46
1006.554	48.42
1006.716	86.2
1006.878	79.81
1007.04	29.82
1007.202	36.41
1007.363	92.21
1007.525	77.48
1007.687	99.38
1007.849	112.94
1008.011	16.45
1008.172	38.54
1008.334	64.5
1008.496	72.45
1008.658	16.06
1008.819	31.95
1008.981	-5.83
1009.143	37.38
1009.304	29.82
1009.466	98.79
1009.627	97.05
1009.789	130.18
1009.95	78.45
1010.112	38.73
1010.273	50.16
1010.435	53.07
1010.596	37.57
1010.758	57.91
1010.919	61.6
1011.081	32.92
1011.242	34.66
1011.403	98.21
1011.565	33.89
1011.726	69.73
1011.887	24.01
1012.049	47.06
1012.21	68.18
1012.371	121.66
1012.532	-32.18
1012.693	45.71
1012.855	38.54
1013.016	48.03
1013.177	88.72
1013.338	34.47
1013.499	108.68
1013.66	81.16
1013.821	75.35
1013.982	53.26
1014.143	48.03
1014.304	47.26
1014.465	68.57
1014.626	63.92
1014.787	22.46
1014.948	143.16
1015.109	-23.85
1015.27	93.56
1015.431	35.83
1015.592	17.81
1015.752	99.57
1015.913	38.73
1016.074	58.3
1016.235	58.88
1016.395	47.06
1016.556	32.53
1016.717	36.02
1016.877	93.18
1017.038	23.43
1017.199	35.83
1017.359	75.74
1017.52	51.52
1017.681	11.03
1017.841	43.96
1018.002	23.43
1018.162	16.65
1018.323	64.31
1018.483	12.58
1018.644	43.58
1018.804	-6.02
1018.964	-9.7
1019.125	12.58
1019.285	49.78
1019.446	0.95
1019.606	18.78
1019.766	-22.1
1019.926	64.5
1020.087	35.05
1020.247	21.68
1020.407	39.9
1020.567	72.25
1020.728	9.09
1020.888	-6.99
1021.048	26.53
1021.208	15.48
1021.368	11.22
1021.528	92.79
1021.688	69.93
1021.848	86.98
1022.008	30.21
1022.168	40.09
1022.328	27.3
1022.488	67.21
1022.648	26.33
1022.808	50.75
1022.968	41.25
1023.128	34.08
1023.288	47.84
1023.448	34.47
1023.608	40.67
1023.767	61.98
1023.927	14.13
1024.087	3.08
1024.247	2.12
1024.406	13.55
1024.566	-5.44
1024.726	-16.1
1024.885	25.95
1025.045	45.32
1025.205	29.24
1025.364	15.29
1025.524	45.13
1025.683	23.62
1025.843	46.1
1026.003	23.43
1026.162	77.29
1026.321	78.06
1026.481	7.35
1026.64	29.43
1026.8	57.91
1026.959	43.96
1027.119	31.76
1027.278	-15.32
1027.437	-5.25
1027.597	21.3
1027.756	-2.92
1027.915	55.2
1028.074	27.5
1028.234	8.51
1028.393	25.17
1028.552	31.37
1028.711	-79.84
1028.87	53.65
1029.03	-23.85
1029.189	17.23
1029.348	-19.58
1029.507	3.47
1029.666	21.88
1029.825	-27.33
1029.984	-7.57
1030.143	9.48
1030.302	25.56
1030.461	-16.1
1030.62	10.83
1030.779	28.66
1030.938	-2.34
1031.097	2.31
1031.255	62.76
1031.414	90.27
1031.573	76.32
1031.732	-27.33
1031.891	35.83
1032.049	56.17
1032.208	26.33
1032.367	20.71
1032.525	-8.73
1032.684	31.95
1032.843	39.12
1033.001	-49.42
1033.16	157.31
1033.319	71.28
1033.477	50.55
1033.636	-1.18
1033.794	-11.83
1033.953	46.1
1034.111	46.29
1034.27	11.22
1034.428	51.71
1034.587	-11.25
1034.745	41.83
1034.903	26.33
1035.062	39.51
1035.22	-4.08
1035.378	35.44
1035.537	-6.99
1035.695	38.54
1035.853	9.67
1036.011	28.85
1036.17	38.93
1036.328	-12.22
1036.486	27.88
1036.644	12.19
1036.802	-67.44
1036.96	2.7
1037.119	-1.95
1037.277	4.44
1037.435	-37.41
1037.593	-13.38
1037.751	13.74
1037.909	38.15
1038.067	38.15
