Data from gum_old_FLMT105791__25__15-42-47-259.txt Node

Date: Mon Mar 20 15:42:47 GMT 2023
User: antho
Spectrometer: FLMT10579
Trigger mode: 0
Integration Time (sec): 1.000000E-1
Scans to average: 10
Electric dark correction enabled: true
Nonlinearity correction enabled: false
Boxcar width: 0
XAxis mode: Wavelengths
Number of Pixels in Spectrum: 3648
>>>>>Begin Spectral Data<<<<<
345.248	-159.23
345.464	-159.23
345.681	-159.23
345.898	-146.83
346.114	-175.7
346.331	-25.54
346.548	9.72
346.764	-2.68
346.981	-4.04
347.197	-5.39
347.414	10.88
347.631	-23.02
347.847	58.35
348.064	-0.55
348.28	3.71
348.497	-34.84
348.713	13.4
348.93	7.2
349.146	46.92
349.363	8.94
349.579	12.04
349.796	14.95
350.012	0.03
350.229	57.19
350.445	23.28
350.661	33.94
350.878	19.79
351.094	55.25
351.311	49.05
351.527	46.92
351.743	24.06
351.96	56.41
352.176	65.71
352.392	63
352.609	82.57
352.825	54.28
353.041	29.68
353.257	8.94
353.474	33.55
353.69	78.89
353.906	28.9
354.122	19.41
354.339	117.06
354.555	49.24
354.771	51.38
354.987	125.97
355.203	126.36
355.42	35.68
355.636	22.12
355.852	1.58
356.068	35.1
356.284	17.28
356.5	90.32
356.716	50.6
356.932	25.99
357.148	93.81
357.364	35.29
357.58	75.21
357.796	106.4
358.012	83.54
358.228	77.53
358.444	-18.37
358.66	93.42
358.876	48.47
359.092	-6.94
359.308	52.34
359.524	56.99
359.74	49.44
359.956	37.04
360.172	45.76
360.388	80.82
360.604	35.49
360.819	124.03
361.035	53.12
361.251	78.5
361.467	30.84
361.683	93.03
361.898	67.26
362.114	86.44
362.33	77.72
362.546	90.71
362.762	49.24
362.977	63.39
363.193	30.06
363.409	115.12
363.624	27.35
363.84	49.63
364.056	41.69
364.271	93.61
364.487	86.83
364.703	69.39
364.918	35.88
365.134	47.89
365.35	71.53
365.565	169.95
365.781	75.98
365.996	93.61
366.212	157.36
366.427	88.19
366.643	81.21
366.858	75.21
367.074	44.59
367.289	160.07
367.505	182.74
367.72	44.01
367.936	70.17
368.151	125.77
368.367	102.14
368.582	97.29
368.798	95.36
369.013	160.26
369.228	97.1
369.444	105.43
369.659	144.37
369.874	110.86
370.09	165.1
370.305	36.26
370.52	62.81
370.736	140.11
370.951	85.28
371.166	162
371.381	144.37
371.597	125.77
371.812	46.92
372.027	70.17
372.242	96.13
372.458	155.81
372.673	66.49
372.888	75.01
373.103	121.12
373.318	183.12
373.533	123.64
373.749	99.04
373.964	22.51
374.179	123.84
374.394	50.6
374.609	150.77
374.824	38.2
375.039	126.94
375.254	68.43
375.469	149.22
375.684	117.83
375.899	129.26
376.114	119.19
376.329	117.83
376.544	142.05
376.759	122.09
376.974	97.29
377.189	114.54
377.404	109.69
377.619	145.73
377.834	56.99
378.049	81.6
378.264	81.41
378.478	148.64
378.693	95.74
378.908	147.28
379.123	100.2
379.338	145.92
379.553	99.42
379.767	119.19
379.982	146.89
380.197	150.77
380.412	114.73
380.626	109.5
380.841	211.22
381.056	129.26
381.271	205.21
381.485	98.07
381.7	94.77
381.915	130.81
382.129	113.76
382.344	129.65
382.559	112.41
382.773	138.76
382.988	52.15
383.202	121.71
383.417	72.11
383.632	189.32
383.846	117.64
384.061	106.59
384.275	66.68
384.49	127.71
384.704	136.43
384.919	129.07
385.133	117.83
385.348	167.43
385.562	103.69
385.777	177.12
385.991	146.31
386.206	123.45
386.42	111.82
386.634	162.97
386.849	157.74
387.063	128.87
387.277	123.26
387.492	122.48
387.706	91.67
387.92	99.04
388.135	159.49
388.349	150.57
388.563	147.67
388.778	152.9
388.992	164.72
389.206	181.57
389.42	204.05
389.635	153.67
389.849	201.14
390.063	211.41
390.277	198.82
390.491	249
390.706	206.95
390.92	211.41
391.134	185.64
391.348	230.4
391.562	167.82
391.776	207.54
391.99	203.85
392.205	247.06
392.419	186.22
392.633	193
392.847	236.79
393.061	140.5
393.275	204.63
393.489	118.8
393.703	131.78
393.917	168.59
394.131	114.54
394.345	170.92
394.559	177.5
394.773	159.87
394.986	190.68
395.2	213.54
395.414	243.77
395.628	215.48
395.842	241.05
396.056	220.9
396.27	167.04
396.484	219.74
396.697	211.22
396.911	239.12
397.125	188.55
397.339	181.19
397.553	172.08
397.766	238.54
397.98	230.01
398.194	255
398.408	249.97
398.621	327.27
398.835	342.38
399.049	291.23
399.262	362.92
399.476	343.55
399.69	342.38
399.903	421.82
400.117	326.3
400.331	353.62
400.544	305.57
400.758	429.18
400.971	339.67
401.185	373.38
401.398	345.87
401.612	395.47
401.826	388.3
402.039	377.06
402.253	345.87
402.466	373.38
402.68	367.18
402.893	376.1
403.106	404.96
403.32	366.02
403.533	386.75
403.747	363.5
403.96	367.96
404.174	416.01
404.387	335.02
404.6	380.75
404.814	422.01
405.027	379.97
405.24	372.61
405.454	390.24
405.667	410.2
405.88	344.32
406.094	404.77
406.307	426.08
406.52	424.34
406.733	339.09
406.947	354.4
407.16	437.13
407.373	422.4
407.586	367.57
407.799	375.9
408.012	422.21
408.226	392.18
408.439	441.97
408.652	357.88
408.865	453.4
409.078	482.08
409.291	442.36
409.504	432.09
409.717	478.01
409.93	484.21
410.143	443.13
410.357	370.28
410.57	356.72
410.783	394.11
410.996	441.19
411.209	416.98
411.421	486.34
411.634	464.83
411.847	450.88
412.06	465.22
412.273	481.49
412.486	499.32
412.699	587.86
412.912	462.7
413.125	517.34
413.338	477.23
413.55	487.31
413.763	468.9
413.976	486.92
414.189	499.71
414.402	468.13
414.615	519.08
414.827	488.28
415.04	532.64
415.253	500.87
415.466	515.01
415.678	569.46
415.891	501.06
416.104	484.59
416.316	502.81
416.529	505.33
416.742	547.17
416.954	584.57
417.167	556.28
417.38	527.8
417.592	560.35
417.805	478.59
418.017	483.63
418.23	515.4
418.442	468.71
418.655	513.66
418.868	521.79
419.08	563.64
419.293	540.39
419.505	546.79
419.718	547.95
419.93	578.37
420.142	513.66
420.355	575.66
420.567	554.92
420.78	534
420.992	537.29
421.205	605.49
421.417	512.3
421.629	558.99
421.842	538.26
422.054	533.42
422.266	606.07
422.479	608.79
422.691	555.51
422.903	560.16
423.115	530.9
423.328	518.5
423.54	549.11
423.752	556.67
423.964	542.72
424.177	589.02
424.389	566.16
424.601	683.77
424.813	612.66
425.025	586.7
425.238	641.34
425.45	579.72
425.662	594.64
425.874	878.48
426.086	583.02
426.298	609.75
426.51	576.62
426.722	604.14
426.934	566.94
427.146	628.35
427.358	551.63
427.57	628.55
427.782	579.92
427.994	561.51
428.206	546.01
428.418	531.29
428.63	626.22
428.842	646.18
429.054	585.54
429.266	655.09
429.478	571.78
429.69	555.12
429.902	520.05
430.114	574.88
430.325	566.94
430.537	510.94
430.749	476.65
430.961	419.11
431.173	473.36
431.384	514.24
431.596	411.94
431.808	503.78
432.02	596.77
432.231	653.15
432.443	733.75
432.655	661.87
432.867	661.68
433.078	673.5
433.29	715.54
433.502	716.51
433.713	700.04
433.925	714.57
434.136	728.72
434.348	634.75
434.56	587.47
434.771	754.68
434.983	596.39
435.194	674.66
435.406	683.57
435.617	729.68
435.829	783.74
436.04	751.19
436.252	753.32
436.463	802.53
436.675	829.85
436.886	831.6
437.098	829.27
437.309	831.01
437.521	807.38
437.732	788.2
437.943	759.13
438.155	755.65
438.366	721.16
438.578	802.53
438.789	763.4
439	744.8
439.211	705.85
439.423	733.75
439.634	770.57
439.845	806.21
440.057	818.42
440.268	844.19
440.479	749.06
440.69	820.36
440.902	763.98
441.113	785.1
441.324	756.62
441.535	856.59
441.746	858.91
441.957	806.99
442.168	852.13
442.38	882.55
442.591	897.08
442.802	846.32
443.013	886.81
443.224	923.63
443.435	884.1
443.646	844.19
443.857	859.11
444.068	848.26
444.279	834.31
444.49	974.39
444.701	913.36
444.912	1034.06
445.123	955.59
445.334	900.76
445.545	927.5
445.756	887.98
445.967	868.79
446.178	887.98
446.388	873.44
446.599	934.09
446.81	897.47
447.021	862.01
447.232	925.37
447.443	958.89
447.653	915.49
447.864	982.72
448.075	958.69
448.286	977.1
448.496	974.58
448.707	1008.29
448.918	925.76
449.129	1051.3
449.339	938.74
449.55	1001.32
449.761	964.12
449.971	1008.29
450.182	961.99
450.393	1008.68
450.603	965.67
450.814	1020.89
451.024	1044.33
451.235	1038.9
451.446	1089.67
451.656	1091.22
451.867	993.57
452.077	1056.73
452.288	1061.19
452.498	1048.4
452.709	1003.26
452.919	1020.11
453.13	962.76
453.34	1036
453.55	905.22
453.761	1037.16
453.971	976.52
454.182	1015.46
454.392	1001.12
454.602	1119.12
454.813	1066.03
455.023	1029.8
455.233	1000.35
455.444	1022.82
455.654	937.19
455.864	1030.19
456.075	1048.98
456.285	1005.39
456.495	1030.57
456.705	1068.16
456.916	1105.55
457.126	1145.08
457.336	1042.97
457.546	982.14
457.756	1072.81
457.967	1123.77
458.177	1055.57
458.387	1068.55
458.597	1022.24
458.807	1047.82
459.017	1013.14
459.227	1017.79
459.437	1036.19
459.647	1068.16
459.857	1054.02
460.068	1059.44
460.278	1096.45
460.488	1084.82
460.698	1120.67
460.908	1092.19
461.117	1053.44
461.327	1090.44
461.537	1135.39
461.747	1132.68
461.957	1121.63
462.167	1241.56
462.377	1152.44
462.587	1122.22
462.797	1226.84
463.007	1142.56
463.216	1184.02
463.426	1203.78
463.636	1215.02
463.846	1097.8
464.056	1141.01
464.265	1156.12
464.475	1131.13
464.685	1168.91
464.895	1179.37
465.104	1093.54
465.314	1204.56
465.524	1115.82
465.733	1110.01
465.943	1225.1
466.153	1225.29
466.362	1240.4
466.572	1171.04
466.782	1185.57
466.991	1185.96
467.201	1254.35
467.41	1122.41
467.62	1184.22
467.829	1195.84
468.039	1209.79
468.249	1222.77
468.458	1223.74
468.668	1270.82
468.877	1245.63
469.086	1296.01
469.296	1281.28
469.505	1255.71
469.715	1319.26
469.924	1249.51
470.134	1287.48
470.343	1282.64
470.552	1272.76
470.762	1246.99
470.971	1248.15
471.18	1268.3
471.39	1293.88
471.599	1210.56
471.808	1293.3
472.018	1287.87
472.227	1379.51
472.436	1405.28
472.645	1352.78
472.855	1343.09
473.064	1406.83
473.273	1429.5
473.482	1404.51
473.691	1435.7
473.901	1404.12
474.11	1387.84
474.319	1502.15
474.528	1424.66
474.737	1526.18
474.946	1498.09
475.155	1482.39
475.364	1541.87
475.573	1492.85
475.783	1510.87
475.992	1474.25
476.201	1550.2
476.41	1525.21
476.619	1420.59
476.828	1516.88
477.037	1497.5
477.245	1493.05
477.454	1545.55
477.663	1566.87
477.872	1574.62
478.081	1689.51
478.29	1575.2
478.499	1671.68
478.708	1694.35
478.917	1725.16
479.125	1633.13
479.334	1664.9
479.543	1652.7
479.752	1687.76
479.961	1684.08
480.169	1746.86
480.378	1706.95
480.587	1873.96
480.796	1760.61
481.004	1741.24
481.213	1793.74
481.422	1769.91
481.63	1787.93
481.839	1821.45
482.048	1849.35
482.256	1804.01
482.465	1878.99
482.674	1885.19
482.882	1878.61
483.091	1927.43
483.299	1875.51
483.508	1934.6
483.716	1937.89
483.925	1918.71
484.134	1875.7
484.342	1885
484.551	1912.7
484.759	1914.06
484.967	1959.2
485.176	1946.22
485.384	2004.54
485.593	1941.77
485.801	1948.94
486.01	1900.89
486.218	1788.71
486.426	1711.21
486.635	1662.19
486.843	1662.77
487.051	1710.43
487.26	1731.75
487.468	1795.68
487.676	1852.06
487.885	1859.81
488.093	1937.12
488.301	1964.44
488.509	1996.79
488.717	2053.95
488.926	2032.05
489.134	1988.65
489.342	1995.82
489.55	1976.64
489.758	2007.64
489.967	2043.68
490.175	2118.27
490.383	2122.92
490.591	2210.69
490.799	2160.9
491.007	2196.35
491.215	2159.73
491.423	2139.97
491.631	2177.94
491.839	2144.43
492.047	2162.45
492.255	2051.04
492.463	1982.07
492.671	2034.96
492.879	2103.55
493.087	2082.81
493.295	2121.56
493.503	2156.05
493.711	2242.27
493.919	2222.51
494.127	2233.36
494.334	2262.03
494.542	2186.66
494.75	2249.05
494.958	2220.76
495.166	2331.39
495.374	2299.62
495.581	2350.57
495.789	2319.96
495.997	2377.5
496.205	2271.52
496.412	2297.1
496.62	2298.07
496.828	2328.87
497.035	2329.46
497.243	2386.03
497.451	2347.47
497.658	2407.73
497.866	2353.29
498.074	2419.55
498.281	2345.54
498.489	2458.68
498.696	2323.06
498.904	2306.21
499.112	2266.49
499.319	2401.34
499.527	2310.66
499.734	2362.59
499.942	2305.62
500.149	2345.73
500.357	2359.87
500.564	2298.07
500.771	2328.68
500.979	2282.57
501.186	2253.12
501.394	2329.46
501.601	2256.41
501.808	2302.72
502.016	2300.01
502.223	2282.18
502.43	2297.49
502.638	2294.19
502.845	2294.39
503.052	2393.78
503.26	2317.44
503.467	2416.84
503.674	2377.89
503.881	2386.03
504.089	2442.41
504.296	2387.58
504.503	2322.09
504.71	2313.76
504.917	2305.43
505.125	2356.39
505.332	2419.35
505.539	2419.16
505.746	2507.32
505.953	2515.84
506.16	2492.4
506.367	2566.6
506.574	2578.61
506.781	2601.67
506.988	2479.22
507.195	2525.14
507.402	2503.25
507.609	2526.88
507.816	2440.67
508.023	2427.49
508.23	2367.82
508.437	2388.74
508.644	2447.25
508.851	2481.35
509.058	2523.98
509.265	2463.92
509.472	2535.21
509.679	2593.15
509.885	2538.12
510.092	2524.17
510.299	2544.71
510.506	2491.43
510.713	2478.25
510.92	2483.68
511.126	2522.04
511.333	2613.1
511.54	2572.22
511.746	2617.36
511.953	2577.45
512.16	2606.13
512.367	2572.8
512.573	2549.75
512.78	2571.06
512.987	2534.05
513.193	2492.98
513.4	2406.57
513.606	2501.5
513.813	2516.62
514.02	2515.07
514.226	2566.02
514.433	2555.56
514.639	2512.55
514.846	2539.09
515.052	2487.36
515.259	2513.71
515.465	2529.98
515.672	2533.66
515.878	2634.03
516.085	2575.32
516.291	2565.05
516.497	2579.78
516.704	2533.47
516.91	2460.43
517.117	2349.8
517.323	2252.54
517.529	2283.34
517.736	2297.49
517.942	2273.07
518.148	2364.33
518.354	2401.53
518.561	2392.23
518.767	2364.52
518.973	2422.65
519.179	2457.13
519.386	2433.11
519.592	2449.19
519.798	2434.08
520.004	2594.7
520.21	2589.66
520.417	2626.08
520.623	2697.96
520.829	2695.64
521.035	2679.36
521.241	2657.66
521.447	2716.95
521.653	2794.64
521.859	2694.86
522.065	2753.37
522.271	2808.4
522.477	2796.39
522.683	2823.9
522.889	2758.99
523.095	2768.68
523.301	2734.97
523.507	2678.78
523.713	2731.48
523.919	2692.54
524.125	2799.68
524.331	2820.22
524.537	2906.82
524.742	2905.08
524.948	2919.03
525.154	2884.15
525.36	2991.49
525.566	2897.72
525.772	2944.8
525.977	2877.37
526.183	2909.73
526.389	2905.66
526.595	2851.02
526.8	2826.03
527.006	2736.71
527.212	2619.69
527.417	2639.26
527.623	2661.73
527.829	2736.52
528.034	2748.34
528.24	2795.61
528.446	2791.54
528.651	2928.52
528.857	2931.62
529.062	3008.35
529.268	2998.27
529.473	2982.38
529.679	3042.64
529.884	3086.23
530.09	3073.44
530.295	3062.79
530.501	3081.78
530.706	3040.51
530.912	2982.77
531.117	3076.16
531.323	3074.99
531.528	3086.23
531.733	3145.13
531.939	3084.29
532.144	3092.24
532.35	3114.33
532.555	3125.18
532.76	3115.88
532.966	3093.59
533.171	3031.6
533.376	2962.23
533.581	2929.1
533.787	3038.57
533.992	3084.29
534.197	3052.71
534.402	3059.88
534.607	3099.02
534.813	3185.43
535.018	3085.26
535.223	3108.32
535.428	3131.37
535.633	3168.96
535.838	3210.62
536.043	3217.98
536.249	3305.55
536.454	3187.37
536.659	3247.62
536.864	3166.25
537.069	3143
537.274	3215.27
537.479	3154.24
537.684	3119.75
537.889	3102.31
538.094	3256.54
538.299	3124.59
538.504	3178.07
538.708	3192.02
538.913	3254.02
539.118	3220.3
539.323	3225.54
539.528	3148.04
539.733	3193.96
539.938	3205
540.142	3188.53
540.347	3115.68
540.552	3104.64
540.757	3086.43
540.962	3114.52
541.166	3059.69
541.371	3025.2
541.576	3051.55
541.781	3045.74
541.985	3185.04
542.19	3145.13
542.395	3280.17
542.599	3262.93
542.804	3146.49
543.008	3236
543.213	3204.22
543.418	3135.44
543.622	3195.51
543.827	3128.66
544.031	3265.45
544.236	3247.04
544.44	3228.83
544.645	3331.32
544.849	3238.52
545.054	3320.28
545.258	3356.9
545.463	3283.47
545.667	3219.92
545.872	3291.6
546.076	3265.06
546.281	3293.93
546.485	3246.07
546.689	3243.75
546.894	3319.5
547.098	3247.43
547.302	3208.1
547.507	3233.87
547.711	3255.37
547.915	3270.87
548.119	3191.05
548.324	3180.78
548.528	3249.95
548.732	3193.57
548.936	3270.87
549.141	3301.68
549.345	3222.63
549.549	3253.63
549.753	3251.3
549.957	3341.2
550.161	3302.45
550.366	3311.17
550.57	3251.89
550.774	3240.84
550.978	3296.84
551.182	3268.74
551.386	3205.58
551.59	3257.7
551.794	3245.49
551.998	3299.35
552.202	3275.14
552.406	3237.74
552.61	3329
552.814	3310.4
553.018	3321.83
553.222	3211.97
553.426	3252.66
553.63	3322.02
553.833	3238.9
554.037	3216.24
554.241	3219.14
554.445	3233.09
554.649	3221.47
554.853	3211.2
555.056	3276.69
555.26	3283.08
555.464	3267.58
555.668	3291.41
555.871	3261.38
556.075	3280.37
556.279	3233.87
556.483	3205.97
556.686	3215.27
556.89	3231.15
557.094	3225.54
557.297	3091.66
557.501	3231.54
557.704	3058.72
557.908	3189.69
558.112	3105.41
558.315	3236.39
558.519	3149.39
558.722	3117.04
558.926	3102.51
559.129	3043.41
559.333	3062.01
559.536	3060.85
559.74	2968.05
559.943	3023.65
560.147	3005.25
560.35	3017.26
560.553	3059.11
560.757	2976.76
560.96	3109.87
561.164	3060.27
561.367	3153.66
561.57	3090.69
561.774	3116.07
561.977	3037.41
562.18	3031.01
562.384	3129.24
562.587	3024.04
562.79	3019
562.993	3033.15
563.197	3056.39
563.4	3133.31
563.603	3122.85
563.806	3136.22
564.009	3014.74
564.212	3073.64
564.416	2979.28
564.619	3032.18
564.822	2991.68
565.025	3070.15
565.228	3006.6
565.431	3030.05
565.634	2899.85
565.837	2962.43
566.04	2942.67
566.243	2918.45
566.446	2846.76
566.649	2900.62
566.852	2863.42
567.055	2891.52
567.258	2864.59
567.461	2944.41
567.664	2967.85
567.867	2874.27
568.07	2916.7
568.273	2922.32
568.475	2983.55
568.678	2842.89
568.881	2847.92
569.084	2822.35
569.287	2764.03
569.489	2829.52
569.692	2870.01
569.895	2853.74
570.098	2780.69
570.3	2770.81
570.503	2731.09
570.706	2760.74
570.909	2738.07
571.111	2688.86
571.314	2634.8
571.516	2713.66
571.719	2710.36
571.922	2690.6
572.124	2694.86
572.327	2742.91
572.529	2670.64
572.732	2724.89
572.935	2755.7
573.137	2826.42
573.34	2710.36
573.542	2760.74
573.745	2776.82
573.947	2757.83
574.15	2737.49
574.352	2704.36
574.554	2786.7
574.757	2699.9
574.959	2700.87
575.162	2708.23
575.364	2675.68
575.566	2753.76
575.769	2599.15
575.971	2699.12
576.173	2517.2
576.376	2616.2
576.578	2636.16
576.78	2704.16
576.982	2545.87
577.185	2626.86
577.387	2576.29
577.589	2611.55
577.791	2644.29
577.993	2658.83
578.196	2594.89
578.398	2616.01
578.6	2602.64
578.802	2542.58
579.004	2539.28
579.206	2573.96
579.408	2606.51
579.61	2515.65
579.812	2577.26
580.014	2541.22
580.216	2520.3
580.418	2563.7
580.62	2537.35
580.822	2547.23
581.024	2555.56
581.226	2619.49
581.428	2557.88
581.63	2646.04
581.832	2516.62
582.034	2632.28
582.236	2580.16
582.438	2588.3
582.64	2648.75
582.841	2634.03
583.043	2692.15
583.245	2606.51
583.447	2599.93
583.649	2598.76
583.85	2611.16
584.052	2605.74
584.254	2548.58
584.456	2610.97
584.657	2554.59
584.859	2561.56
585.061	2557.69
585.262	2548.2
585.464	2475.54
585.666	2574.74
585.867	2534.25
586.069	2564.47
586.27	2536.18
586.472	2544.51
586.674	2442.99
586.875	2457.72
587.077	2439.31
587.278	2504.22
587.48	2488.72
587.681	2629.76
587.883	2508.87
588.084	2447.25
588.285	2488.33
588.487	2448.8
588.688	2482.71
588.89	2350.96
589.091	2304.66
589.292	2276.56
589.494	2235.1
589.695	2217.28
589.896	2131.45
590.098	2138.42
590.299	2172.13
590.5	2183.95
590.702	2234.33
590.903	2275.79
591.104	2361.04
591.305	2316.86
591.507	2362.2
591.708	2350.38
591.909	2309.69
592.11	2394.36
592.311	2340.69
592.512	2301.17
592.714	2305.04
592.915	2289.54
593.116	2283.15
593.317	2337.79
593.518	2337.98
593.719	2291.87
593.92	2320.16
594.121	2368.01
594.322	2341.27
594.523	2365.3
594.724	2267.26
594.925	2324.22
595.126	2309.11
595.327	2311.05
595.528	2313.18
595.729	2301.94
595.929	2300.78
596.13	2283.92
596.331	2332.75
596.532	2334.49
596.733	2355.03
596.934	2356.97
597.135	2374.21
597.335	2330.23
597.536	2292.84
597.737	2295.55
597.938	2252.73
598.138	2335.46
598.339	2303.3
598.54	2335.85
598.74	2287.41
598.941	2287.8
599.142	2355.8
599.342	2287.22
599.543	2311.24
599.744	2262.42
599.944	2253.31
600.145	2286.64
600.345	2317.25
600.546	2394.75
600.746	2361.81
600.947	2376.34
601.147	2299.81
601.348	2354.06
601.548	2232.78
601.749	2285.67
601.949	2251.76
602.15	2265.91
602.35	2274.43
602.551	2281.02
602.751	2260.87
602.951	2244.4
603.152	2193.83
603.352	2289.93
603.552	2258.74
603.753	2328.87
603.953	2310.27
604.153	2275.98
604.354	2307.56
604.554	2284.7
604.754	2302.14
604.954	2244.59
605.155	2311.63
605.355	2284.7
605.555	2323.26
605.755	2329.46
605.955	2305.24
606.155	2339.34
606.356	2256.99
606.556	2295.16
606.756	2287.22
606.956	2228.9
607.156	2328.29
607.356	2241.3
607.556	2245.37
607.756	2241.49
607.956	2335.66
608.156	2280.82
608.356	2212.24
608.556	2276.17
608.756	2262.42
608.956	2215.14
609.156	2261.84
609.356	2194.8
609.556	2199.06
609.755	2190.73
609.955	2210.49
610.155	2198.48
610.355	2195.77
610.555	2152.95
610.755	2219.79
610.954	2122.15
611.154	2180.85
611.354	2237.04
611.554	2135.51
611.753	2174.65
611.953	2146.75
612.153	2182.21
612.352	2199.45
612.552	2118.85
612.752	2070.42
612.951	2135.51
613.151	2134.74
613.351	2104.9
613.55	2131.83
613.75	2134.74
613.949	2113.43
614.149	2132.03
614.348	2097.15
614.548	2081.27
614.747	2043.1
614.947	2074.68
615.146	2056.66
615.346	2089.6
615.545	2132.22
615.745	2083.59
615.944	2150.24
616.144	2105.1
616.343	2086.88
616.542	2043.29
616.742	2044.26
616.941	2064.8
617.14	1984.39
617.34	2036.51
617.539	2031.47
617.738	2024.88
617.938	2088.63
618.137	2054.33
618.336	1980.32
618.535	2052.59
618.734	2076.42
618.934	2097.35
619.133	2046.78
619.332	2061.7
619.531	2041.74
619.73	2066.35
619.929	2121.18
620.128	2066.54
620.328	2130.48
620.527	2031.86
620.726	2076.62
620.925	2089.21
621.124	2084.95
621.323	2062.86
621.522	2022.56
621.721	2038.45
621.92	1999.7
622.119	2028.57
622.318	1967.73
622.517	2012.48
622.715	2018.3
622.914	1945.84
623.113	2014.42
623.312	1925.69
623.511	1999.31
623.71	1981.49
623.909	1932.47
624.107	2012.29
624.306	1949.13
624.505	1960.56
624.704	1956.88
624.902	1950.29
625.101	2005.51
625.3	1923.55
625.499	1898.56
625.697	1946.8
625.896	1922.59
626.095	1953.2
626.293	1850.12
626.492	1893.33
626.69	1907.67
626.889	1911.74
627.088	1961.92
627.286	1905.34
627.485	1892.36
627.683	1883.45
627.882	1925.3
628.08	1847.8
628.279	1848.77
628.477	1921.23
628.676	1826.29
628.874	1873.57
629.073	1839.27
629.271	1821.84
629.469	1890.04
629.668	1879.57
629.866	1823.58
630.065	1834.82
630.263	1874.34
630.461	1842.76
630.66	1853.03
630.858	1868.53
631.056	1887.91
631.254	1907.86
631.453	1809.83
631.651	1843.15
631.849	1824.94
632.047	1814.67
632.245	1777.86
632.444	1832.69
632.642	1823.97
632.84	1834.04
633.038	1833.66
633.236	1808.66
633.434	1829.39
633.632	1834.04
633.83	1787.93
634.028	1848.57
634.227	1825.52
634.425	1901.47
634.623	1877.44
634.821	1861.17
635.019	1830.36
635.216	1845.86
635.414	1877.44
635.612	1846.06
635.81	1824.74
636.008	1884.42
636.206	1830.75
636.404	1829.78
636.602	1796.84
636.8	1810.6
636.997	1840.05
637.195	1850.51
637.393	1818.54
637.591	1850.71
637.789	1814.48
637.986	1807.5
638.184	1830.94
638.382	1892.56
638.58	1841.21
638.777	1892.75
638.975	1843.34
639.173	1843.15
639.37	1825.91
639.568	1826.68
639.765	1840.82
639.963	1798.78
640.161	1824.74
640.358	1843.92
640.556	1774.37
640.753	1743.18
640.951	1732.71
641.148	1789.68
641.346	1799.17
641.543	1770.49
641.741	1793.74
641.938	1768.17
642.136	1714.5
642.333	1709.27
642.531	1802.08
642.728	1823.58
642.925	1763.71
643.123	1756.54
643.32	1796.26
643.517	1739.69
643.715	1741.04
643.912	1728.06
644.109	1788.13
644.306	1757.9
644.504	1706.36
644.701	1755.96
644.898	1742.79
645.095	1699.2
645.293	1746.66
645.49	1736.39
645.687	1752.67
645.884	1773.21
646.081	1649.21
646.278	1713.73
646.475	1675.56
646.672	1666.45
646.87	1689.51
647.067	1741.43
647.264	1741.82
647.461	1668.97
647.658	1630.61
647.855	1650.95
648.052	1606.78
648.249	1540.9
648.446	1624.6
648.642	1642.23
648.839	1601.74
649.036	1630.42
649.233	1569.19
649.43	1560.47
649.627	1544
649.824	1593.41
650.021	1535.87
650.217	1554.27
650.414	1597.87
650.611	1575.2
650.808	1604.84
651.004	1586.05
651.201	1648.05
651.398	1695.51
651.595	1633.71
651.791	1560.28
651.988	1645.14
652.185	1597.67
652.381	1641.85
652.578	1531.02
652.775	1635.45
652.971	1612.4
653.168	1558.34
653.364	1633.9
653.561	1534.51
653.757	1621.7
653.954	1628.09
654.15	1588.37
654.347	1702.3
654.543	1593.02
654.74	1513.2
654.936	1574.03
655.133	1571.71
655.329	1558.92
655.525	1522.69
655.722	1588.95
655.918	1469.61
656.115	1482.97
656.311	1411.48
656.507	1354.52
656.704	1322.94
656.9	1356.26
657.096	1370.6
657.292	1358.78
657.489	1422.14
657.685	1432.02
657.881	1431.63
658.077	1439.96
658.273	1435.51
658.47	1538.19
658.666	1507.58
658.862	1541.49
659.058	1504.87
659.254	1566.09
659.45	1503.7
659.646	1531.22
659.842	1529.47
660.038	1577.13
660.234	1486.85
660.43	1561.25
660.626	1638.17
660.822	1607.55
661.018	1572.68
661.214	1563.57
661.41	1504.29
661.606	1599.61
661.802	1538.19
661.998	1584.11
662.194	1518.82
662.39	1565.7
662.586	1581.59
662.781	1587.79
662.977	1632.93
663.173	1578.68
663.369	1568.42
663.564	1559.12
663.76	1595.35
663.956	1542.45
664.152	1561.25
664.347	1503.51
664.543	1515.91
664.739	1532.77
664.934	1465.54
665.13	1439.96
665.326	1540.32
665.521	1520.95
665.717	1532.57
665.912	1516.3
666.108	1458.17
666.304	1511.45
666.499	1538.77
666.695	1430.86
666.89	1496.15
667.086	1504.09
667.281	1528.7
667.477	1533.35
667.672	1526.18
667.867	1525.21
668.063	1501.38
668.258	1452.94
668.454	1497.7
668.649	1525.4
668.844	1493.05
669.04	1522.5
669.235	1466.51
669.43	1473.09
669.626	1456.24
669.821	1484.33
670.016	1450.62
670.211	1487.04
670.407	1427.76
670.602	1489.56
670.797	1473.87
670.992	1486.07
671.187	1434.92
671.382	1502.74
671.578	1426.01
671.773	1442.09
671.968	1397.53
672.163	1436.67
672.358	1431.82
672.553	1416.13
672.748	1451.39
672.943	1499.44
673.138	1472.9
673.333	1482.78
673.528	1390.17
673.723	1450.42
673.918	1452.17
674.113	1428.14
674.308	1526.57
674.503	1447.32
674.698	1489.75
674.892	1403.15
675.087	1478.52
675.282	1467.86
675.477	1427.76
675.672	1457.01
675.867	1412.64
676.061	1400.05
676.256	1395.01
676.451	1403.54
676.646	1374.09
676.84	1358.01
677.035	1390.17
677.23	1354.71
677.424	1455.85
677.619	1489.75
677.814	1458.37
678.008	1447.13
678.203	1366.53
678.397	1396.76
678.592	1416.32
678.787	1435.31
678.981	1382.42
679.176	1424.46
679.37	1396.17
679.565	1365.95
679.759	1407.41
679.954	1432.6
680.148	1448.1
680.342	1472.12
680.537	1418.46
680.731	1426.4
680.926	1421.17
681.12	1410.51
681.314	1364.01
681.509	1390.17
681.703	1396.56
681.897	1401.41
682.092	1387.65
682.286	1388.04
682.48	1454.88
682.674	1418.84
682.869	1355.88
683.063	1403.54
683.257	1449.46
683.451	1349.87
683.645	1402.57
683.839	1360.53
684.034	1352.97
684.228	1362.66
684.422	1318.09
684.616	1332.04
684.81	1363.24
685.004	1356.46
685.198	1363.24
685.392	1362.85
685.586	1317.32
685.78	1373.89
685.974	1351.42
686.168	1352.39
686.362	1416.32
686.556	1285.55
686.75	1240.21
686.944	1235.75
687.138	1195.65
687.331	1105.55
687.525	1104.97
687.719	1039.29
687.913	1126.48
688.107	1106.72
688.301	1079.4
688.494	1137.91
688.688	1117.18
688.882	1079.79
689.076	1101.68
689.269	1083.66
689.463	1172.2
689.657	1095.29
689.85	1128.22
690.044	1129.97
690.238	1178.79
690.431	1147.4
690.625	1159.42
690.818	1196.03
691.012	1186.54
691.205	1199.13
691.399	1195.26
691.593	1187.32
691.786	1227.61
691.98	1222.58
692.173	1280.9
692.366	1253.96
692.56	1262.88
692.753	1289.23
692.947	1199.52
693.14	1284.38
693.333	1293.88
693.527	1205.14
693.72	1251.64
693.914	1238.08
694.107	1209.6
694.3	1237.88
694.493	1224.51
694.687	1266.75
694.88	1215.8
695.073	1276.83
695.266	1271.6
695.46	1271.4
695.653	1302.21
695.846	1294.85
696.039	1256.29
696.232	1271.01
696.425	1323.33
696.618	1315.77
696.812	1357.23
697.005	1377.19
697.198	1443.45
697.391	1339.6
697.584	1364.21
697.777	1448.87
697.97	1374.86
698.163	1441.32
698.356	1401.6
698.549	1517.46
698.742	1455.27
698.935	1395.79
699.127	1423.88
699.32	1407.22
699.513	1429.11
699.706	1440.74
699.899	1458.95
700.092	1432.02
700.285	1456.43
700.477	1369.05
700.67	1444.61
700.863	1470.57
701.056	1586.82
701.248	1523.85
701.441	1544.59
701.634	1509.71
701.826	1607.75
702.019	1494.4
702.212	1581.98
702.404	1499.05
702.597	1507.58
702.79	1555.63
702.982	1554.85
703.175	1656.38
703.367	1607.75
703.56	1645.53
703.752	1732.33
703.945	1676.72
704.137	1669.75
704.33	1721.28
704.522	1689.9
704.715	1743.18
704.907	1763.91
705.1	1797.62
705.292	1859.81
705.484	1791.81
705.677	1825.71
705.869	1833.07
706.061	1854.58
706.254	1899.14
706.446	1872.02
706.638	1886.36
706.831	1942.74
707.023	1903.99
707.215	1984.2
707.407	2037.28
707.599	1946.8
707.792	2048.52
707.984	2029.53
708.176	2079.52
708.368	1988.27
708.56	2051.82
708.752	2074.87
708.944	2083.98
709.136	2148.5
709.329	2111.68
709.521	2227.16
709.713	2189.96
709.905	2202.55
710.097	2220.57
710.289	2173.68
710.481	2227.35
710.672	2278.11
710.864	2254.67
711.056	2318.02
711.248	2320.35
711.44	2310.66
711.632	2349.99
711.824	2369.95
712.016	2398.04
712.207	2396.49
712.399	2401.72
712.591	2477.28
712.783	2459.46
712.975	2495.69
713.166	2430.2
713.358	2482.32
713.55	2575.13
713.741	2533.86
713.933	2568.15
714.125	2526.11
714.316	2514.68
714.508	2595.28
714.7	2625.5
714.891	2657.08
715.083	2673.16
715.274	2620.08
715.466	2624.34
715.657	2705.91
715.849	2616.78
716.04	2653.01
716.232	2617.17
716.423	2718.89
716.615	2631.7
716.806	2592.37
716.998	2614.07
717.189	2478.45
717.381	2488.13
717.572	2399.98
717.763	2424.78
717.955	2446.67
718.146	2415.67
718.337	2313.76
718.528	2282.76
718.72	2239.17
718.911	2287.8
719.102	2235.88
719.293	2274.82
719.485	2306.59
719.676	2281.6
719.867	2221.93
720.058	2300.59
720.249	2255.44
720.44	2272.49
720.632	2342.05
720.823	2378.67
721.014	2486
721.205	2516.81
721.396	2619.49
721.587	2716.56
721.778	2771.39
721.969	2795.42
722.16	2887.83
722.351	2923.29
722.542	3021.71
722.733	3019.2
722.924	2991.88
723.115	3023.46
723.305	2997.88
723.496	3030.05
723.687	2882.22
723.878	2899.07
724.069	2927.94
724.26	2986.45
724.45	2877.57
724.641	2845.79
724.832	2941.31
725.023	2913.02
725.213	2908.37
725.404	2887.83
725.595	2877.57
725.785	2864.59
725.976	2958.36
726.167	2976.57
726.357	2983.55
726.548	3073.44
726.739	2995.17
726.929	3084.29
727.12	3148.62
727.31	3143
727.501	3107.16
727.691	3134.09
727.882	3110.45
728.072	3157.92
728.263	3131.76
728.453	3263.32
728.644	3219.34
728.834	3226.12
729.024	3191.82
729.215	3211.2
729.405	3230.57
729.596	3307.49
729.786	3306.91
729.976	3363.68
730.167	3350.5
730.357	3342.95
730.547	3361.74
730.737	3384.22
730.928	3453.19
731.118	3504.73
731.308	3444.28
731.498	3473.15
731.688	3606.25
731.879	3539.41
732.069	3603.54
732.259	3645.39
732.449	3711.26
732.639	3791.28
732.829	3781.98
733.019	3794.38
733.209	3917.21
733.399	3959.26
733.589	4022.22
733.779	4040.44
733.969	4016.61
734.159	4106.7
734.349	4175.09
734.539	4153
734.729	4225.47
734.919	4186.72
735.109	4288.82
735.299	4182.07
735.488	4262.67
735.678	4224.11
735.868	4255.69
736.058	4271
736.248	4273.71
736.437	4157.65
736.627	4161.34
736.817	4330.67
737.007	4248.52
737.196	4327.18
737.386	4371.16
737.576	4246.97
737.765	4406.04
737.955	4354.11
738.144	4478.89
738.334	4442.85
738.524	4368.26
738.713	4419.21
738.903	4393.44
739.092	4492.84
739.282	4462.42
739.471	4443.24
739.661	4405.65
739.85	4550.57
740.04	4497.87
740.229	4484.89
740.419	4557.16
740.608	4591.26
740.797	4549.02
740.987	4631.95
741.176	4611.22
741.365	4599.79
741.555	4456.99
741.744	4652.1
741.933	4592.23
742.123	4583.9
742.312	4624.39
742.501	4684.65
742.69	4719.71
742.88	4592.42
743.069	4745.68
743.258	4706.93
743.447	4754.59
743.636	4752.65
743.825	4709.83
744.014	4722.43
744.204	4756.72
744.393	4671.28
744.582	4821.04
744.771	4831.12
744.96	4794.5
745.149	4793.14
745.338	4760.01
745.527	4815.62
745.716	4802.25
745.905	4768.54
746.094	4815.43
746.283	4802.64
746.471	4797.99
746.66	4881.3
746.849	4832.48
747.038	4891.76
747.227	4810.39
747.416	4841.19
747.604	4786.36
747.793	4830.34
747.982	4854.18
748.171	4863.67
748.359	4862.31
748.548	4853.79
748.737	4851.08
748.926	4857.47
749.114	4730.76
749.303	4802.44
749.491	4845.26
749.68	4722.81
749.869	4914.24
750.057	4812.13
750.246	4803.8
750.434	4828.02
750.623	4763.7
750.811	4786.56
751	4826.08
751.188	4761.76
751.377	4769.9
751.565	4754.98
751.754	4717.2
751.942	4724.36
752.131	4835.19
752.319	4739.86
752.507	4747.61
752.696	4798.96
752.884	4797.99
753.072	4755.75
753.261	4759.63
753.449	4725.91
753.637	4682.9
753.825	4866.19
754.014	4763.5
754.202	4776.68
754.39	4781.13
754.578	4777.45
754.766	4679.61
754.955	4694.92
755.143	4782.68
755.331	4718.75
755.519	4787.33
755.707	4712.74
755.895	4701.7
756.083	4697.63
756.271	4659.46
756.459	4692.59
756.647	4697.43
756.835	4671.28
757.023	4671.08
757.211	4593.59
757.399	4607.73
757.587	4666.05
757.775	4564.52
757.963	4587
758.151	4585.45
758.339	4597.46
758.526	4531.78
758.714	4596.3
758.902	4476.37
759.09	4419.79
759.278	4178
759.465	3915.86
759.653	3556.07
759.841	3278.24
760.028	2892.1
760.216	2506.35
760.404	2394.36
760.591	2090.18
760.779	1801.11
760.967	1623.25
761.154	1451.2
761.342	1485.88
761.529	1468.44
761.717	1589.34
761.905	1591.28
762.092	1729.42
762.28	1662.58
762.467	1740.08
762.655	1673.62
762.842	1699
763.029	1757.71
763.217	1734.65
763.404	1781.73
763.592	1804.59
763.779	1788.13
763.966	1833.46
764.154	1931.5
764.341	1960.17
764.528	1984.2
764.716	2040.19
764.903	2107.42
765.09	2170.58
765.277	2215.14
765.465	2384.67
765.652	2498.6
765.839	2541.61
766.026	2704.94
766.213	2733.03
766.4	2887.83
766.588	3037.41
766.775	3081.58
766.962	3214.11
767.149	3225.54
767.336	3459.58
767.523	3420.83
767.71	3519.45
767.897	3653.91
768.084	3716.88
768.271	3746.72
768.458	3814.72
768.645	3898.42
768.832	3864.51
769.019	3930.19
769.206	3955.77
769.392	3980.38
769.579	4078.02
769.766	4026.49
769.953	4050.12
770.14	4043.15
770.327	4091.01
770.513	4097.79
770.7	4144.87
770.887	4096.62
771.073	4095.65
771.26	4153.59
771.447	4079.19
771.634	4114.45
771.82	4196.21
772.007	4064.07
772.193	4140.99
772.38	4156.3
772.567	4128.59
772.753	4079.57
772.94	4165.4
773.126	4153.39
773.313	4151.07
773.499	4135.18
773.686	4125.69
773.872	4097.79
774.059	4087.52
774.245	4047.22
774.432	4053.61
774.618	4001.11
774.804	4051.67
774.991	4023
775.177	4036.95
775.363	4004.79
775.55	4073.96
775.736	4002.46
775.922	4042.57
776.109	4049.16
776.295	3980.76
776.481	3998.78
776.667	4027.26
776.853	3957.9
777.04	3990.45
777.226	3974.37
777.412	4068.34
777.598	3913.92
777.784	3981.93
777.97	3862.58
778.156	3963.52
778.342	3903.65
778.528	3899.2
778.715	3893
778.901	3860.25
779.087	3909.27
779.272	3879.63
779.458	3862
779.644	3889.7
779.83	3846.11
780.016	3928.84
780.202	3864.71
780.388	3865.48
780.574	3734.51
780.76	3806.78
780.946	3809.68
781.131	3816.08
781.317	3823.83
781.503	3765.9
781.689	3785.08
781.874	3906.75
782.06	3748.85
782.246	3770.16
782.432	3760.86
782.617	3737.8
782.803	3791.08
782.989	3693.44
783.174	3720.95
783.36	3655.27
783.545	3706.8
783.731	3682
783.916	3560.33
784.102	3667.67
784.288	3654.11
784.473	3662.44
784.659	3624.27
784.844	3666.12
785.029	3595.79
785.215	3614.97
785.4	3508.99
785.586	3667.86
785.771	3514.8
785.956	3569.05
786.142	3584.16
786.327	3559.94
786.512	3571.18
786.698	3549.87
786.883	3473.73
787.068	3573.7
787.254	3511.12
787.439	3475.86
787.624	3501.43
787.809	3483.99
787.994	3475.66
788.18	3556.26
788.365	3402.04
788.55	3423.93
788.735	3419.09
788.92	3428.78
789.105	3372.59
789.29	3463.65
789.475	3377.43
789.66	3389.64
789.845	3392.55
790.03	3377.63
790.215	3401.26
790.4	3402.23
790.585	3418.12
790.77	3349.15
790.955	3265.84
791.14	3311.17
791.325	3412.5
791.51	3231.35
791.695	3334.81
791.879	3310.2
792.064	3275.14
792.249	3327.45
792.434	3291.02
792.618	3297.61
792.803	3326.87
792.988	3277.27
793.173	3320.86
793.357	3301.29
793.542	3308.46
793.727	3294.32
793.911	3344.88
794.096	3285.6
794.281	3325.7
794.465	3398.55
794.65	3337.52
794.834	3351.08
795.019	3362.9
795.203	3377.63
795.388	3380.92
795.572	3377.63
795.757	3345.47
795.941	3389.64
796.126	3330.35
796.31	3328.42
796.494	3308.46
796.679	3343.14
796.863	3281.34
797.048	3385.57
797.232	3378.79
797.416	3382.67
797.601	3379.76
797.785	3433.62
797.969	3400.68
798.153	3318.73
798.338	3414.83
798.522	3438.66
798.706	3398.16
798.89	3411.15
799.074	3513.64
799.258	3481.28
799.443	3360.58
799.627	3420.25
799.811	3432.26
799.995	3409.98
800.179	3381.89
800.363	3372.98
800.547	3424.71
800.731	3400.49
800.915	3329.38
801.099	3359.42
801.283	3372.2
801.467	3371.23
801.651	3344.3
801.835	3423.55
802.019	3394.48
802.202	3375.88
802.386	3370.07
802.57	3301.68
802.754	3353.6
802.938	3319.31
803.121	3329.77
803.305	3432.46
803.489	3375.5
803.673	3378.4
803.856	3364.26
804.04	3349.53
804.224	3376.08
804.407	3316.4
804.591	3347.79
804.775	3344.3
804.958	3351.47
805.142	3483.99
805.326	3323.38
805.509	3345.85
805.693	3403.98
805.876	3402.23
806.06	3375.3
806.243	3380.53
806.427	3439.24
806.61	3411.92
806.794	3385.96
806.977	3400.49
807.16	3391
807.344	3380.15
807.527	3349.34
807.71	3339.46
807.894	3363.29
808.077	3360.19
808.26	3307.49
808.444	3287.15
808.627	3399.13
808.81	3279.2
808.993	3260.8
809.177	3236
809.36	3216.82
809.543	3283.66
809.726	3152.3
809.909	3213.91
810.092	3160.24
810.276	3161.99
810.459	3198.02
810.642	3178.26
810.825	3087.39
811.008	3125.76
811.191	3059.49
811.374	3057.17
811.557	3063.76
811.74	3088.17
811.923	3025.59
812.106	3000.98
812.289	2987.23
812.472	2972.5
812.654	2984.9
812.837	2965.72
813.02	2889.77
813.203	2867.69
813.386	2776.24
813.569	2753.37
813.751	2662.7
813.934	2714.43
814.117	2704.74
814.3	2661.93
814.482	2603.03
814.665	2549.36
814.848	2499.37
815.03	2467.21
815.213	2489.68
815.396	2444.54
815.578	2407.73
815.761	2410.44
815.943	2454.03
816.126	2315.89
816.309	2282.76
816.491	2200.81
816.674	2140.94
816.856	2207.59
817.039	2209.53
817.221	2283.15
817.403	2208.94
817.586	2227.16
817.768	2231.81
817.951	2175.43
818.133	2161.09
818.315	2190.73
818.498	2220.76
818.68	2279.86
818.862	2222.31
819.045	2263.77
819.227	2244.98
819.409	2219.99
819.591	2249.83
819.774	2228.13
819.956	2189.38
820.138	2299.23
820.32	2277.72
820.502	2320.74
820.684	2390.49
820.866	2361.62
821.048	2435.82
821.231	2470.12
821.413	2450.93
821.595	2424.59
821.777	2465.66
821.959	2448.61
822.141	2491.23
822.323	2318.22
822.505	2277.92
822.686	2264.94
822.868	2152.56
823.05	2009
823.232	1969.09
823.414	1930.72
823.596	2008.61
823.778	1961.14
823.96	2004.73
824.141	1991.37
824.323	2040.38
824.505	2117.5
824.687	2164.96
824.868	2217.28
825.05	2296.52
825.232	2327.32
825.413	2414.51
825.595	2377.5
825.777	2309.89
825.958	2368.98
826.14	2377.5
826.321	2394.36
826.503	2343.99
826.685	2403.08
826.866	2389.71
827.048	2407.73
827.229	2347.47
827.411	2292.84
827.592	2242.66
827.773	2245.56
827.955	2189.96
828.136	2173.1
828.318	2121.18
828.499	2196.93
828.68	2109.36
828.862	2135.51
829.043	2160.9
829.224	2143.46
829.406	2100.83
829.587	2114.01
829.768	2145.4
829.949	2161.86
830.131	2139.97
830.312	2203.52
830.493	2141.71
830.674	2130.28
830.855	2133.38
831.036	2125.05
831.218	2176.2
831.399	2201.19
831.58	2145.4
831.761	2150.82
831.942	2175.81
832.123	2116.91
832.304	2071.77
832.485	2095.8
832.666	2124.28
832.847	2165.16
833.028	2096.57
833.209	2105.87
833.389	2083.59
833.57	2061.31
833.751	2076.42
833.932	2160.7
834.113	2126.02
834.294	2096.96
834.475	2146.56
834.655	2153.53
834.836	2124.86
835.017	2134.16
835.198	2055.69
835.378	2145.01
835.559	2196.35
835.74	2134.35
835.92	2173.88
836.101	2086.3
836.281	2133.38
836.462	2137.84
836.643	2203.91
836.823	2184.53
837.004	2165.93
837.184	2221.93
837.365	2243.63
837.545	2211.27
837.726	2139.97
837.906	2230.64
838.087	2145.4
838.267	2166.71
838.448	2135.13
838.628	2150.43
838.808	2137.65
838.989	2209.33
839.169	2137.84
839.349	2175.23
839.53	2181.63
839.71	2198.48
839.89	2105.29
840.07	2213.21
840.251	2157.99
840.431	2176.78
840.611	2152.56
840.791	2149.66
840.971	2159.54
841.151	2138.23
841.332	2106.06
841.512	2167.48
841.692	2084.36
841.872	2147.53
842.052	2085.33
842.232	2148.88
842.412	2065.77
842.592	2122.15
842.772	2136.1
842.952	2108.39
843.132	2081.27
843.312	2067.51
843.492	2036.32
843.672	2118.08
843.851	2032.83
844.031	2049.49
844.211	2028.57
844.391	2021.59
844.571	2038.25
844.751	2093.66
844.93	2085.53
845.11	2039.22
845.29	2054.14
845.47	2083.98
845.649	2045.42
845.829	2073.32
846.009	2039.22
846.188	2065.38
846.368	2042.32
846.547	2064.41
846.727	2044.65
846.907	2010.93
847.086	2031.28
847.266	2074.1
847.445	2030.31
847.625	2010.93
847.804	2003.38
847.984	2033.02
848.163	1964.44
848.343	2009
848.522	2010.55
848.701	1974.12
848.881	1950.49
849.06	2018.49
849.239	1998.92
849.419	1995.43
849.598	1891.59
849.777	1908.44
849.957	1858.46
850.136	1804.21
850.315	1808.28
850.494	1846.64
850.674	1833.66
850.853	1886.55
851.032	1849.16
851.211	1898.56
851.39	1885.77
851.569	1840.24
851.748	1829.78
851.927	1876.86
852.107	1870.27
852.286	1811.57
852.465	1809.44
852.644	1888.87
852.823	1867.95
853.002	1842.57
853.181	1852.84
853.359	1886.16
853.538	1785.61
853.717	1869.69
853.896	1748.41
854.075	1688.35
854.254	1616.27
854.433	1570.93
854.611	1600.58
854.79	1531.22
854.969	1588.76
855.148	1651.15
855.327	1576.55
855.505	1659.86
855.684	1642.62
855.863	1656.76
856.041	1658.12
856.22	1701.33
856.399	1692.03
856.577	1750.54
856.756	1765.84
856.934	1882.87
857.113	1863.69
857.291	1782.7
857.47	1747.83
857.648	1778.63
857.827	1777.86
858.005	1816.41
858.184	1766.43
858.362	1838.11
858.541	1758.48
858.719	1768.17
858.898	1748.21
859.076	1728.26
859.254	1811.38
859.433	1711.21
859.611	1691.25
859.789	1693.96
859.967	1737.94
860.146	1796.46
860.324	1686.99
860.502	1703.46
860.68	1647.27
860.859	1708.88
861.037	1697.45
861.215	1675.95
861.393	1688.73
861.571	1703.07
861.749	1655.8
861.927	1700.55
862.105	1717.02
862.283	1693.38
862.461	1633.32
862.639	1655.41
862.817	1675.36
862.995	1676.91
863.173	1665.87
863.351	1644.17
863.529	1674.01
863.707	1728.06
863.885	1684.66
864.063	1598.06
864.241	1598.64
864.418	1690.48
864.596	1590.12
864.774	1594.57
864.952	1574.03
865.129	1600.97
865.307	1570.35
865.485	1515.14
865.663	1615.69
865.84	1527.92
866.018	1564.15
866.196	1399.47
866.373	1417.87
866.551	1376.61
866.728	1349.29
866.906	1372.54
867.084	1423.49
867.261	1435.7
867.439	1453.14
867.616	1491.89
867.794	1462.05
867.971	1480.45
868.149	1516.49
868.326	1564.93
868.503	1512.42
868.681	1512.42
868.858	1500.41
869.035	1472.32
869.213	1534.51
869.39	1482.78
869.567	1549.43
869.745	1466.31
869.922	1500.02
870.099	1514.17
870.276	1545.94
870.454	1510.68
870.631	1492.66
870.808	1426.98
870.985	1538.19
871.162	1538.19
871.339	1495.57
871.517	1447.71
871.694	1459.92
871.871	1449.65
872.048	1463.99
872.225	1447.32
872.402	1473.29
872.579	1388.81
872.756	1474.84
872.933	1422.52
873.11	1457.21
873.287	1477.16
873.463	1417.68
873.64	1397.14
873.817	1476.39
873.994	1418.84
874.171	1393.07
874.348	1448.1
874.524	1384.55
874.701	1412.64
874.878	1348.71
875.055	1420.97
875.231	1405.28
875.408	1439.57
875.585	1315.77
875.762	1373.7
875.938	1351.42
876.115	1359.36
876.291	1341.73
876.468	1372.34
876.645	1321.58
876.821	1296.01
876.998	1335.73
877.174	1359.94
877.351	1324.88
877.527	1317.32
877.704	1338.24
877.88	1340.96
878.057	1289.23
878.233	1398.31
878.409	1312.86
878.586	1337.28
878.762	1302.79
878.938	1315.77
879.115	1263.07
879.291	1305.89
879.467	1222.58
879.644	1303.56
879.82	1337.28
879.996	1255.9
880.172	1225.29
880.349	1302.98
880.525	1291.55
880.701	1202.62
880.877	1264.43
881.053	1297.56
881.229	1257.06
881.405	1287.68
881.581	1244.86
881.757	1265.2
881.933	1261.71
882.109	1279.35
882.285	1297.36
882.461	1219.28
882.637	1283.8
882.813	1216.38
882.989	1240.01
883.165	1313.83
883.341	1224.51
883.517	1265.2
883.693	1270.82
883.869	1286.32
884.044	1214.25
884.22	1312.86
884.396	1306.86
884.572	1265.59
884.747	1291.55
884.923	1271.4
885.099	1281.09
885.275	1325.84
885.45	1222.77
885.626	1241.76
885.801	1239.82
885.977	1259.97
886.153	1162.32
886.328	1255.13
886.504	1247.38
886.679	1228.97
886.855	1239.24
887.03	1236.53
887.206	1257.26
887.381	1219.67
887.557	1271.98
887.732	1267.53
887.908	1291.16
888.083	1260.55
888.258	1233.23
888.434	1235.36
888.609	1236.72
888.784	1283.41
888.96	1222.77
889.135	1227.61
889.31	1234.59
889.485	1243.5
889.661	1251.83
889.836	1263.85
890.011	1247.57
890.186	1244.28
890.361	1245.83
890.537	1222
890.712	1266.56
890.887	1265.01
891.062	1240.98
891.237	1279.54
891.412	1188.87
891.587	1245.05
891.762	1300.46
891.937	1285.35
892.112	1195.45
892.287	1204.56
892.462	1155.54
892.637	1132.68
892.812	1131.9
892.987	1176.85
893.161	1147.21
893.336	1151.67
893.511	1148.57
893.686	1193.9
893.861	1141.2
894.035	1149.73
894.21	1157.87
894.385	1112.72
894.56	1145.47
894.734	1084.63
894.909	1079.79
895.084	1061.77
895.258	1062.93
895.433	1066.42
895.608	1051.11
895.782	1003.84
895.957	1017.79
896.131	1021.47
896.306	965.47
896.48	955.79
896.655	973.03
896.829	875.96
897.004	895.14
897.178	884.1
897.353	877.9
897.527	954.43
897.701	932.15
897.876	852.33
898.05	943
898.224	931.57
898.399	954.62
898.573	908.9
898.747	782.58
898.921	833.34
899.096	693.07
899.27	740.53
899.444	761.85
899.618	777.73
899.792	811.83
899.967	821.91
900.141	857.36
900.315	777.54
900.489	783.35
900.663	800.01
900.837	799.82
901.011	723.48
901.185	853.49
901.359	791.49
901.533	812.41
901.707	767.08
901.881	805.63
902.055	733.56
902.229	806.99
902.403	856.2
902.576	803.31
902.75	770.57
902.924	895.73
903.098	865.31
903.272	891.27
903.446	959.47
903.619	904.25
903.793	929.83
903.967	925.37
904.14	958.31
904.314	964.89
904.488	933.7
904.661	984.66
904.835	947.84
905.009	970.51
905.182	1029.61
905.356	982.33
905.529	974.39
905.703	918.39
905.876	913.36
906.05	912
906.223	882.74
906.397	815.13
906.57	812.41
906.744	784.13
906.917	819.39
907.09	807.96
907.264	782
907.437	750.22
907.61	693.26
907.784	737.63
907.957	745.18
908.13	719.61
908.304	759.52
908.477	690.74
908.65	731.43
908.823	683.38
908.996	776.38
909.17	711.67
909.343	701.59
909.516	715.93
909.689	700.82
909.862	686.09
910.035	694.23
910.208	669.62
910.381	685.32
910.554	786.65
910.727	695.78
910.9	685.12
911.073	649.47
911.246	733.95
911.419	752.74
911.592	726.58
911.765	692.29
911.938	680.28
912.11	696.36
912.283	694.03
912.456	741.31
912.629	702.95
912.802	668.27
912.974	625.64
913.147	600.07
913.32	589.99
913.493	574.11
913.665	610.92
913.838	598.13
914.01	611.5
914.183	627.97
914.356	636.69
914.528	642.5
914.701	709.92
914.873	701.98
915.046	614.21
915.218	559.57
915.391	521.41
915.563	535.16
915.736	578.37
915.908	612.85
916.081	606.07
916.253	580.11
916.425	617.89
916.598	603.36
916.77	612.27
916.942	596
917.115	545.43
917.287	585.73
917.459	550.08
917.632	540.39
917.804	487.89
917.976	571.39
918.148	579.34
918.32	553.96
918.493	609.95
918.665	668.07
918.837	600.45
919.009	644.63
919.181	669.04
919.353	634.94
919.525	633.97
919.697	603.17
919.869	607.82
920.041	672.72
920.213	739.57
920.385	666.33
920.557	614.02
920.729	634.36
920.901	666.91
921.073	618.86
921.244	595.22
921.416	658.19
921.588	606.46
921.76	586.12
921.932	658.77
922.103	633.97
922.275	613.05
922.447	631.07
922.619	561.71
922.79	612.66
922.962	580.89
923.134	635.72
923.305	580.5
923.477	530.32
923.648	523.73
923.82	560.93
923.991	540.78
924.163	521.79
924.335	549.89
924.506	524.7
924.677	579.34
924.849	508.43
925.02	550.86
925.192	592.51
925.363	541.56
925.535	590.19
925.706	530.12
925.877	599.68
926.049	528.96
926.22	531.29
926.391	529.35
926.562	556.28
926.734	528.96
926.905	567.91
927.076	495.44
927.247	544.07
927.419	440.42
927.59	476.65
927.761	484.98
927.932	475.68
928.103	468.51
928.274	422.79
928.445	390.24
928.616	421.43
928.787	410
928.958	429.96
929.129	416.98
929.3	405.35
929.471	367.18
929.642	310.22
929.813	255.97
929.984	379.2
930.155	270.5
930.326	332.5
930.496	262.17
930.667	223.62
930.838	279.22
931.009	230.4
931.18	260.23
931.35	244.15
931.521	255.78
931.692	201.72
931.863	175.76
932.033	208.12
932.204	191.07
932.374	226.33
932.545	166.85
932.716	201.92
932.886	204.24
933.057	137.4
933.227	137.79
933.398	216.64
933.568	117.83
933.739	79.27
933.909	87.99
934.08	148.06
934.25	40.14
934.421	78.11
934.591	113.57
934.761	101.36
934.932	63.58
935.102	126.74
935.272	76.37
935.443	102.14
935.613	90.32
935.783	97.1
935.953	62.81
936.123	222.07
936.294	76.76
936.464	82.76
936.634	102.14
936.804	54.09
936.974	32.97
937.144	111.82
937.314	88.38
937.484	84.31
937.655	46.73
937.825	130.81
937.995	85.47
938.165	141.08
938.334	88.57
938.504	118.02
938.674	90.32
938.844	125.77
939.014	151.54
939.184	179.83
939.354	210.25
939.524	210.44
939.694	147.67
939.863	165.69
940.033	237.57
940.203	226.72
940.373	208.5
940.542	193
940.712	173.63
940.882	199.4
941.051	214.7
941.221	205.4
941.391	193.59
941.56	171.3
941.73	172.66
941.899	273.6
942.069	147.86
942.238	199.79
942.408	141.27
942.577	174.6
942.747	145.34
942.916	81.99
943.086	120.35
943.255	183.9
943.425	131.59
943.594	112.6
943.763	60.29
943.933	108.72
944.102	57.77
944.271	100.97
944.441	135.07
944.61	128.29
944.779	141.66
944.948	206.76
945.117	66.49
945.287	106.79
945.456	88.77
945.625	108.14
945.794	143.41
945.963	94.39
946.132	151.16
946.301	99.42
946.47	148.44
946.639	48.28
946.808	90.9
946.977	141.47
947.146	156.39
947.315	129.65
947.484	114.92
947.653	117.25
947.822	124.42
947.991	100.97
948.16	190.49
948.329	167.62
948.498	139.34
948.666	132.75
948.835	143.02
949.004	94.77
949.173	87.22
949.341	124.81
949.51	137.21
949.679	168.2
949.847	147.86
950.016	205.02
950.185	182.54
950.353	140.31
950.522	128.1
950.69	170.34
950.859	138.95
951.028	183.12
951.196	122.87
951.365	98.65
951.533	99.23
951.701	146.7
951.87	150.96
952.038	80.63
952.207	122.67
952.375	183.12
952.543	99.23
952.712	119.57
952.88	108.53
953.048	157.16
953.217	151.93
953.385	91.29
953.553	172.08
953.721	99.81
953.89	117.64
954.058	84.89
954.226	75.21
954.394	99.23
954.562	79.86
954.73	110.66
954.898	98.84
955.067	145.92
955.235	97.68
955.403	154.26
955.571	161.42
955.739	129.26
955.907	105.24
956.075	80.05
956.243	82.76
956.41	162.2
956.578	63.58
956.746	67.07
956.914	100.78
957.082	149.61
957.25	170.14
957.418	110.08
957.585	116.47
957.753	144.76
957.921	94.97
958.089	137.21
958.256	153.67
958.424	131.39
958.592	157.94
958.759	96.52
958.927	148.44
959.095	98.26
959.262	135.07
959.43	140.31
959.597	88.38
959.765	106.4
959.932	92.06
960.1	168.79
960.267	133.33
960.435	127.13
960.602	161.23
960.77	145.15
960.937	70.75
961.104	125.39
961.272	81.41
961.439	110.47
961.606	133.91
961.774	172.85
961.941	103.69
962.108	152.51
962.275	137.21
962.443	151.54
962.61	147.47
962.777	178.47
962.944	151.16
963.111	133.14
963.278	145.73
963.446	135.85
963.613	146.89
963.78	133.33
963.947	137.21
964.114	139.53
964.281	206.18
964.448	163.94
964.615	114.34
964.782	156.58
964.949	188.35
965.116	158.13
965.282	175.37
965.449	95.94
965.616	96.13
965.783	145.92
965.95	152.12
966.117	67.07
966.283	146.31
966.45	149.22
966.617	147.47
966.784	173.44
966.95	149.22
967.117	158.52
967.284	122.09
967.45	113.37
967.617	199.59
967.784	157.55
967.95	218.39
968.117	157.16
968.283	218.77
968.45	236.21
968.616	166.85
968.783	185.84
968.949	170.53
969.116	204.24
969.282	153.29
969.449	163.36
969.615	178.09
969.781	100.59
969.948	163.36
970.114	116.28
970.28	207.34
970.447	138.95
970.613	202.11
970.779	150.77
970.945	150.38
971.112	186.42
971.278	155.22
971.444	165.1
971.61	175.37
971.776	154.26
971.942	186.61
972.108	156.39
972.275	143.21
972.441	184.67
972.607	226.72
972.773	111.63
972.939	161.04
973.105	139.14
973.271	98.84
973.437	120.35
973.602	117.64
973.768	169.37
973.934	155.03
974.1	177.7
974.266	65.91
974.432	133.91
974.598	137.98
974.763	193
974.929	125.97
975.095	199.79
975.261	108.14
975.426	108.92
975.592	148.44
975.758	208.7
975.923	82.57
976.089	90.12
976.255	160.07
976.42	160.07
976.586	148.25
976.751	132.36
976.917	213.74
977.082	161.42
977.248	116.67
977.413	66.88
977.579	131.01
977.744	144.76
977.91	106.79
978.075	123.26
978.24	181.77
978.406	133.91
978.571	117.83
978.736	102.72
978.902	130.04
979.067	105.62
979.232	94.19
979.397	136.04
979.563	187.39
979.728	87.22
979.893	112.41
980.058	109.89
980.223	159.87
980.388	131.78
980.554	129.84
980.719	86.25
980.884	151.16
981.049	198.24
981.214	134.11
981.379	145.34
981.544	121.51
981.709	125
981.874	127.52
982.039	125
982.204	161.04
982.368	111.82
982.533	109.89
982.698	145.34
982.863	157.16
983.028	127.91
983.193	142.44
983.357	138.17
983.522	116.09
983.687	129.65
983.852	139.14
984.016	134.69
984.181	146.89
984.346	157.94
984.51	139.72
984.675	120.54
984.839	160.45
985.004	138.95
985.168	138.95
985.333	148.06
985.498	99.81
985.662	149.41
985.827	157.55
985.991	141.47
986.155	99.42
986.32	158.52
986.484	183.51
986.649	124.42
986.813	69.39
986.977	163.36
987.142	134.88
987.306	78.5
987.47	81.41
987.634	119.19
987.799	122.87
987.963	139.53
988.127	121.51
988.291	187.39
988.455	122.87
988.62	118.02
988.784	131.78
988.948	122.67
989.112	93.22
989.276	131.2
989.44	136.82
989.604	107.37
989.768	99.04
989.932	191.45
990.096	60.48
990.26	65.52
990.424	64.94
990.588	114.54
990.752	192.04
990.915	112.41
991.079	108.92
991.243	86.06
991.407	134.88
991.571	109.11
991.734	149.02
991.898	133.33
992.062	167.24
992.226	93.22
992.389	80.63
992.553	53.12
992.717	69.2
992.88	78.31
993.044	117.06
993.207	105.82
993.371	135.07
993.535	116.47
993.698	115.7
993.862	150.38
994.025	140.31
994.189	100.01
994.352	96.91
994.515	136.43
994.679	151.16
994.842	110.47
995.006	128.49
995.169	78.69
995.332	76.76
995.496	131.97
995.659	53.7
995.822	93.22
995.985	100.97
996.149	123.64
996.312	87.41
996.475	144.37
996.638	74.62
996.801	116.67
996.964	160.45
997.128	107.37
997.291	90.32
997.454	106.98
997.617	36.07
997.78	148.06
997.943	102.52
998.106	106.01
998.269	64.94
998.432	93.22
998.595	82.96
998.758	54.86
998.92	64.16
999.083	18.83
999.246	93.42
999.409	34.13
999.572	21.15
999.735	65.52
999.897	98.65
1000.06	73.85
1000.223	80.63
1000.386	124.42
1000.548	94.19
1000.711	93.42
1000.874	89.35
1001.036	20.76
1001.199	121.12
1001.361	51.38
1001.524	79.47
1001.687	98.84
1001.849	72.88
1002.012	99.81
1002.174	98.84
1002.337	129.65
1002.499	96.32
1002.661	109.31
1002.824	32.97
1002.986	82.18
1003.149	90.12
1003.311	32
1003.473	122.09
1003.636	16.89
1003.798	99.42
1003.96	105.82
1004.123	79.47
1004.285	51.76
1004.447	91.48
1004.609	53.51
1004.771	161.23
1004.933	28.51
1005.096	34.52
1005.258	32.97
1005.42	63.58
1005.582	130.62
1005.744	81.6
1005.906	63.19
1006.068	81.21
1006.23	36.26
1006.392	25.22
1006.554	33.74
1006.716	76.76
1006.878	95.74
1007.04	26.58
1007.202	43.63
1007.363	67.26
1007.525	68.81
1007.687	77.14
1007.849	109.11
1008.011	11.08
1008.172	23.48
1008.334	71.33
1008.496	67.84
1008.658	26.96
1008.819	23.86
1008.981	15.14
1009.143	39.75
1009.304	37.62
1009.466	80.82
1009.627	120.54
1009.789	156.39
1009.95	74.24
1010.112	39.94
1010.273	75.98
1010.435	20.76
1010.596	54.67
1010.758	24.83
1010.919	40.33
1011.081	30.06
1011.242	46.92
1011.403	54.09
1011.565	53.31
1011.726	64.36
1011.887	28.32
1012.049	45.76
1012.21	67.26
1012.371	108.92
1012.532	9.53
1012.693	78.11
1012.855	56.99
1013.016	53.51
1013.177	106.59
1013.338	22.51
1013.499	99.42
1013.66	66.1
1013.821	64.36
1013.982	83.92
1014.143	75.4
1014.304	43.63
1014.465	74.82
1014.626	45.76
1014.787	14.95
1014.948	136.43
1015.109	-21.47
1015.27	64.94
1015.431	30.64
1015.592	22.12
1015.752	96.91
1015.913	57.96
1016.074	60.09
1016.235	82.76
1016.395	53.7
1016.556	50.41
1016.717	76.76
1016.877	75.01
1017.038	33.74
1017.199	70.17
1017.359	59.9
1017.52	54.09
1017.681	24.25
1017.841	46.92
1018.002	40.72
1018.162	27.16
1018.323	81.6
1018.483	33.94
1018.644	34.13
1018.804	-9.07
1018.964	1
1019.125	17.47
1019.285	48.08
1019.446	28.71
1019.606	-10.62
1019.766	-18.18
1019.926	71.14
1020.087	64.94
1020.247	-22.83
1020.407	55.25
1020.567	93.22
1020.728	30.84
1020.888	16.11
1021.048	7.78
1021.208	-9.66
1021.368	-13.53
1021.528	82.18
1021.688	65.91
1021.848	59.32
1022.008	42.27
1022.168	-19.15
1022.328	57.96
1022.488	54.48
1022.648	15.34
1022.808	27.93
1022.968	49.63
1023.128	24.83
1023.288	20.38
1023.448	24.83
1023.608	75.01
1023.767	70.75
1023.927	11.08
1024.087	16.89
1024.247	-11.59
1024.406	34.33
1024.566	9.33
1024.726	-19.73
1024.885	57.38
1025.045	72.3
1025.205	43.24
1025.364	31.23
1025.524	38.59
1025.683	30.26
1025.843	35.29
1026.003	36.07
1026.162	94.77
1026.321	50.41
1026.481	24.83
1026.64	31.81
1026.8	20.57
1026.959	34.33
1027.119	18.24
1027.278	-3.65
1027.437	-23.6
1027.597	54.48
1027.756	35.29
1027.915	50.21
1028.074	32.97
1028.234	5.65
1028.393	46.53
1028.552	-2.29
1028.711	-33.68
1028.87	48.47
1029.03	-33.87
1029.189	45.76
1029.348	-42.59
1029.507	14.37
1029.666	14.76
1029.825	1
1029.984	0.61
1030.143	41.49
1030.302	2.16
1030.461	-32.9
1030.62	40.53
1030.779	37.62
1030.938	-4.62
1031.097	-9.66
1031.255	53.51
1031.414	103.49
1031.573	82.96
1031.732	-34.07
1031.891	5.84
1032.049	86.64
1032.208	39.17
1032.367	26.96
1032.525	16.31
1032.684	16.5
1032.843	9.91
1033.001	-11.59
1033.16	178.09
1033.319	72.88
1033.477	43.43
1033.636	5.65
1033.794	-36.2
1033.953	76.37
1034.111	43.82
1034.27	16.31
1034.428	39.36
1034.587	-44.14
1034.745	51.76
1034.903	3.33
1035.062	68.43
1035.22	4.88
1035.378	65.71
1035.537	-10.82
1035.695	48.28
1035.853	27.93
1036.011	48.86
1036.17	62.42
1036.328	-39.3
1036.486	46.34
1036.644	37.43
1036.802	-54.22
1036.96	-3.26
1037.119	9.53
1037.277	-2.29
1037.435	-11.4
1037.593	-18.57
1037.751	12.43
1037.909	57.38
1038.067	57.38
