Data from pine_FLMT105791__25__17-19-59-080.txt Node

Date: Mon Mar 20 17:19:59 GMT 2023
User: antho
Spectrometer: FLMT10579
Trigger mode: 0
Integration Time (sec): 1.000000E-1
Scans to average: 10
Electric dark correction enabled: true
Nonlinearity correction enabled: false
Boxcar width: 0
XAxis mode: Wavelengths
Number of Pixels in Spectrum: 3648
>>>>>Begin Spectral Data<<<<<
345.248	-152.61
345.464	-152.61
345.681	-152.61
345.898	-173.53
346.114	-162.88
346.331	-36.94
346.548	43.08
346.764	-18.15
346.981	23.12
347.197	-39.65
347.414	41.33
347.631	-38.68
347.847	68.84
348.064	-8.07
348.28	20.99
348.497	-31.32
348.713	-24.54
348.93	37.85
349.146	20.99
349.363	-2.84
349.579	-16.6
349.796	6.07
350.012	5.68
350.229	24.86
350.445	18.86
350.661	-9.43
350.878	-11.75
351.094	-5.55
351.311	51.21
351.527	28.93
351.743	-23.57
351.96	52.96
352.176	23.51
352.392	27
352.609	26.03
352.825	-4.78
353.041	-29.77
353.257	18.08
353.474	-2.84
353.69	27
353.906	1.61
354.122	-16.99
354.339	56.45
354.555	-0.9
354.771	7.43
354.987	32.23
355.203	80.66
355.42	-13.89
355.636	-10.2
355.852	3.94
356.068	10.33
356.284	-29.77
356.5	39.78
356.716	33.2
356.932	21.76
357.148	39.4
357.364	-12.14
357.58	60.13
357.796	43.27
358.012	60.71
358.228	16.34
358.444	-58.64
358.66	58.77
358.876	6.07
359.092	-15.82
359.308	20.41
359.524	5.88
359.74	-3.62
359.956	-10.2
360.172	39.98
360.388	64.19
360.604	3.94
360.819	118.06
361.035	-1.29
361.251	34.75
361.467	-15.05
361.683	41.14
361.898	0.45
362.114	52.76
362.33	15.95
362.546	64
362.762	-10.01
362.977	26.41
363.193	3.55
363.409	34.55
363.624	-21.83
363.84	4.91
364.056	-10.01
364.271	46.37
364.487	30.1
364.703	-20.86
364.918	-20.86
365.134	5.1
365.35	4.52
365.565	97.91
365.781	10.53
365.996	24.28
366.212	72.33
366.427	13.43
366.643	-19.12
366.858	-6.91
367.074	-30.93
367.289	66.71
367.505	103.91
367.72	-21.64
367.936	-21.64
368.151	43.08
368.367	41.33
368.582	44.82
368.798	16.73
369.013	57.8
369.228	13.24
369.444	8.98
369.659	85.89
369.874	21.57
370.09	71.17
370.305	-59.42
370.52	-1.87
370.736	75.24
370.951	19.44
371.166	63.81
371.381	76.4
371.597	59.93
371.812	-15.24
372.027	-23.38
372.242	-3.42
372.458	85.7
372.673	-2.65
372.888	19.05
373.103	33.58
373.318	88.61
373.533	67.1
373.749	41.72
373.964	-54.38
374.179	57.03
374.394	-0.9
374.609	59.93
374.824	-8.65
375.039	55.09
375.254	-9.82
375.469	96.74
375.684	42.11
375.899	52.57
376.114	8.59
376.329	40.95
376.544	50.44
376.759	56.83
376.974	3.36
377.189	5.3
377.404	24.28
377.619	61.29
377.834	-32.68
378.049	7.62
378.264	-34.81
378.478	-1.87
378.693	-21.25
378.908	31.84
379.123	-4.59
379.338	55.48
379.553	52.96
379.767	27
379.982	31.84
380.197	50.05
380.412	16.92
380.626	10.91
380.841	99.46
381.056	50.05
381.271	84.34
381.485	22.35
381.7	-8.85
381.915	27.38
382.129	3.55
382.344	40.95
382.559	22.54
382.773	57.8
382.988	-23.96
383.202	36.68
383.417	-19.5
383.632	105.08
383.846	28.74
384.061	64
384.275	20.02
384.49	17.7
384.704	23.7
384.919	55.67
385.133	18.28
385.348	39.59
385.562	-7.1
385.777	51.02
385.991	17.31
386.206	22.15
386.42	-4.97
386.634	67.1
386.849	38.23
387.063	45.98
387.277	-0.9
387.492	15.95
387.706	-4
387.92	-2.84
388.135	61.87
388.349	41.91
388.563	45.21
388.778	33.2
388.992	40.17
389.206	44.82
389.42	83.38
389.635	39.59
389.849	45.98
390.063	70.98
390.277	33.39
390.491	78.14
390.706	40.17
390.92	59.16
391.134	28.55
391.348	57.22
391.562	-6.33
391.776	23.12
391.99	2.97
392.205	50.25
392.419	31.84
392.633	19.44
392.847	87.44
393.061	6.07
393.275	72.53
393.489	27.96
393.703	38.23
393.917	70.59
394.131	-17.18
394.345	49.86
394.559	40.75
394.773	28.74
394.986	74.85
395.2	20.21
395.414	56.83
395.628	-11.75
395.842	40.36
396.056	4.71
396.27	-18.54
396.484	40.75
396.697	53.54
396.911	86.86
397.125	73.88
397.339	75.04
397.553	73.69
397.766	109.92
397.98	72.91
398.194	63.03
398.408	22.93
398.621	55.48
398.835	76.21
399.049	48.5
399.262	76.79
399.476	65.36
399.69	81.63
399.903	105.46
400.117	49.86
400.331	75.04
400.544	37.65
400.758	153.32
400.971	72.33
401.185	67.1
401.398	20.21
401.612	100.43
401.826	82.79
402.039	97.91
402.253	48.5
402.466	61.29
402.68	62.64
402.893	66.52
403.106	62.64
403.32	42.3
403.533	79.89
403.747	59.74
403.96	80.66
404.174	74.08
404.387	24.67
404.6	69.43
404.814	99.65
405.027	47.73
405.24	53.93
405.454	43.85
405.667	112.05
405.88	-1.1
406.094	41.72
406.307	94.81
406.52	69.62
406.733	43.66
406.947	13.24
407.16	159.13
407.373	93.84
407.586	50.63
407.799	45.6
408.012	95.97
408.226	57.61
408.439	99.07
408.652	26.8
408.865	74.46
409.078	97.52
409.291	80.28
409.504	30.68
409.717	69.23
409.93	84.15
410.143	76.79
410.357	13.24
410.57	34.16
410.783	47.15
410.996	91.71
411.209	76.98
411.421	118.64
411.634	59.54
411.847	62.45
412.06	57.22
412.273	47.15
412.486	99.26
412.699	169.98
412.912	64.78
413.125	113.21
413.338	82.41
413.55	86.28
413.763	91.13
413.976	75.63
414.189	44.63
414.402	52.38
414.615	117.48
414.827	72.91
415.04	142.47
415.253	97.33
415.466	109.92
415.678	130.07
415.891	79.31
416.104	70.78
416.316	54.31
416.529	72.72
416.742	93.26
416.954	108.18
417.167	54.7
417.38	62.84
417.592	129.68
417.805	80.66
418.017	36.88
418.23	106.04
418.442	55.86
418.655	74.27
418.868	81.24
419.08	127.55
419.293	128.33
419.505	95
419.718	111.86
419.93	125.23
420.142	94.03
420.355	152.35
420.567	145.96
420.78	116.31
420.992	94.03
421.205	147.31
421.417	49.66
421.629	98.1
421.842	61.87
422.054	54.51
422.266	123.09
422.479	122.13
422.691	79.5
422.903	120.19
423.115	68.65
423.328	73.11
423.54	120.96
423.752	94.61
423.964	75.04
424.177	126.97
424.389	80.86
424.601	205.05
424.813	130.46
425.025	128.13
425.238	148.67
425.45	94.42
425.662	97.91
425.874	386.59
426.086	119.8
426.298	125.03
426.51	132.01
426.722	107.59
426.934	87.83
427.146	160.68
427.358	87.44
427.57	138.98
427.782	119.03
427.994	111.08
428.206	86.86
428.418	81.44
428.63	146.54
428.842	144.41
429.054	137.82
429.266	154.48
429.478	75.63
429.69	131.04
429.902	87.83
430.114	143.05
430.325	129.1
430.537	103.14
430.749	113.02
430.961	67.1
431.173	118.25
431.384	154.09
431.596	50.05
431.808	120.19
432.02	144.21
432.231	159.32
432.443	174.24
432.655	133.75
432.867	99.46
433.078	144.21
433.29	241.67
433.502	186.26
433.713	193.23
433.925	161.84
434.136	198.27
434.348	104.49
434.56	101.2
434.771	225.2
434.983	80.66
435.194	123.87
435.406	123.87
435.617	226.75
435.829	204.66
436.04	165.91
436.252	181.8
436.463	213.96
436.675	212.99
436.886	178.31
437.098	206.79
437.309	223.26
437.521	191.68
437.732	208.73
437.943	199.82
438.155	210.09
438.366	129.29
438.578	241.09
438.789	166.3
439	191.1
439.211	168.82
439.423	206.41
439.634	199.43
439.845	203.69
440.057	179.67
440.268	206.21
440.479	176.57
440.69	202.14
440.902	188
441.113	183.35
441.324	188.58
441.535	214.35
441.746	252.9
441.957	183.93
442.168	192.84
442.38	230.62
442.591	232.76
442.802	189.36
443.013	190.32
443.224	242.05
443.435	223.65
443.646	235.47
443.857	205.63
444.068	212.22
444.279	184.32
444.49	260.85
444.701	204.27
444.912	336.22
445.123	265.5
445.334	257.75
445.545	259.69
445.756	244.38
445.967	211.25
446.178	247.67
446.388	276.54
446.599	282.16
446.81	231.21
447.021	257.17
447.232	315.87
447.443	286.81
447.653	191.49
447.864	279.06
448.075	231.59
448.286	257.94
448.496	247.29
448.707	295.53
448.918	257.75
449.129	328.85
449.339	242.05
449.55	290.69
449.761	246.51
449.971	330.6
450.182	257.55
450.393	288.17
450.603	274.02
450.814	319.36
451.024	300.76
451.235	325.56
451.446	368.77
451.656	345.71
451.867	250.77
452.077	286.23
452.288	349.39
452.498	337.18
452.709	291.65
452.919	301.73
453.13	273.64
453.34	304.64
453.55	257.17
453.761	316.45
453.971	308.51
454.182	314.32
454.392	304.05
454.602	354.82
454.813	285.07
455.023	325.37
455.233	277.12
455.444	297.47
455.654	264.14
455.864	281.39
456.075	293.2
456.285	294.95
456.495	270.54
456.705	301.92
456.916	373.42
457.126	363.92
457.336	297.66
457.546	251.94
457.756	257.75
457.967	356.75
458.177	273.64
458.387	309.09
458.597	309.29
458.807	304.44
459.017	303.09
459.227	281.58
459.437	287.78
459.647	334.86
459.857	318.39
460.068	272.47
460.278	349.2
460.488	342.61
460.698	387.17
460.908	324.59
461.117	298.82
461.327	271.5
461.537	323.82
461.747	318.2
461.957	310.06
462.167	425.34
462.377	334.08
462.587	311.03
462.797	365.47
463.007	338.15
463.216	373.42
463.426	407.9
463.636	373.42
463.846	313.35
464.056	347.26
464.265	356.95
464.475	334.08
464.685	349.78
464.895	376.32
465.104	326.53
465.314	361.21
465.524	350.94
465.733	333.7
465.943	417.2
466.153	415.07
466.362	427.47
466.572	384.27
466.782	336.02
466.991	358.11
467.201	405.97
467.41	297.08
467.62	357.92
467.829	353.85
468.039	392.79
468.249	367.41
468.458	384.46
468.668	399.77
468.877	390.85
469.086	424.18
469.296	441.61
469.505	346.87
469.715	473.39
469.924	409.06
470.134	431.15
470.343	449.75
470.552	385.82
470.762	397.83
470.971	388.72
471.18	403.06
471.39	372.45
471.599	369.35
471.808	450.33
472.018	404.42
472.227	449.36
472.436	434.25
472.645	420.5
472.855	398.22
473.064	486.76
473.273	430.96
473.482	439.68
473.691	483.08
473.901	478.62
474.11	418.36
474.319	530.16
474.528	453.82
474.737	488.5
474.946	480.17
475.155	464.67
475.364	516.59
475.573	474.94
475.783	473
475.992	481.14
476.201	515.04
476.41	494.51
476.619	424.95
476.828	468.74
477.037	445.88
477.245	472.23
477.454	519.31
477.663	481.14
477.872	505.74
478.081	528.99
478.29	485.79
478.499	597.58
478.708	539.84
478.917	567.94
479.125	521.24
479.334	532.48
479.543	498.77
479.752	553.02
479.961	525.31
480.169	590.8
480.378	555.15
480.587	696.97
480.796	574.91
481.004	550.5
481.213	581.69
481.422	579.56
481.63	567.94
481.839	579.76
482.048	650.47
482.256	582.47
482.465	640.79
482.674	638.66
482.882	590.61
483.091	721.97
483.299	621.61
483.508	646.79
483.716	621.22
483.925	647.18
484.134	616.76
484.342	592.54
484.551	679.92
484.759	613.66
484.967	655.9
485.176	660.74
485.384	643.69
485.593	677.79
485.801	661.32
486.01	631.68
486.218	623.16
486.426	537.91
486.635	552.24
486.843	569.88
487.051	596.22
487.26	578.4
487.468	621.22
487.676	650.47
487.885	608.04
488.093	664.23
488.301	662.68
488.509	680.12
488.717	678.37
488.926	665.01
489.134	671.4
489.342	693.68
489.55	650.09
489.758	666.75
489.967	677.99
490.175	753.55
490.383	686.12
490.591	806.44
490.799	659.97
491.007	743.09
491.215	738.63
491.423	712.09
491.631	711.31
491.839	712.47
492.047	757.42
492.255	683.6
492.463	670.62
492.671	689.42
492.879	757.04
493.087	725.07
493.295	765.95
493.503	777.77
493.711	784.55
493.919	810.9
494.127	768.27
494.334	819.23
494.542	732.24
494.75	745.22
494.958	769.63
495.166	816.71
495.374	811.28
495.581	808.38
495.789	782.42
495.997	859.33
496.205	796.37
496.412	769.05
496.62	797.53
496.828	831.82
497.035	775.44
497.243	838.02
497.451	812.45
497.658	827.56
497.866	833.76
498.074	848.48
498.281	781.06
498.489	886.65
498.696	790.75
498.904	800.82
499.112	809.93
499.319	882.58
499.527	804.89
499.734	869.99
499.942	786.1
500.149	798.3
500.357	836.86
500.564	814.97
500.771	830.08
500.979	829.88
501.186	791.91
501.394	820.97
501.601	813.61
501.808	870.57
502.016	810.7
502.223	838.02
502.43	821.55
502.638	809.54
502.845	808.77
503.052	905.83
503.26	832.02
503.467	947.88
503.674	876.96
503.881	903.31
504.089	936.83
504.296	913.78
504.503	828.14
504.71	835.89
504.917	820.97
505.125	861.66
505.332	860.3
505.539	891.3
505.746	977.13
505.953	933.34
506.16	970.74
506.367	959.11
506.574	963.18
506.781	974.61
506.988	894.21
507.195	934.31
507.402	930.25
507.609	963.57
507.816	902.54
508.023	891.69
508.23	921.72
508.437	864.18
508.644	956.98
508.851	994.38
509.058	1000.58
509.265	929.47
509.472	963.18
509.679	1075.94
509.885	922.3
510.092	982.17
510.299	973.45
510.506	964.73
510.713	961.05
510.92	969.77
511.126	948.65
511.333	1029.25
511.54	982.17
511.746	1037.58
511.953	1048.82
512.16	1078.46
512.367	992.83
512.573	991.86
512.78	1022.27
512.987	1021.89
513.193	995.34
513.4	955.82
513.606	979.65
513.813	1031.96
514.02	982.94
514.226	1082.92
514.433	1078.66
514.639	1009.88
514.846	1010.07
515.052	1034.87
515.259	1028.28
515.465	1025.57
515.672	1047.27
515.878	1124.19
516.085	1037.77
516.291	1056.57
516.497	1022.86
516.704	980.62
516.91	943.81
517.117	945.16
517.323	925.4
517.529	950.59
517.736	972.29
517.942	962.41
518.148	974.23
518.354	1012.39
518.561	1053.27
518.767	1020.53
518.973	1043.39
519.179	1047.66
519.386	1025.76
519.592	1007.55
519.798	1014.72
520.004	1134.65
520.21	1090.47
520.417	1128.25
520.623	1152.67
520.829	1188.51
521.035	1138.33
521.241	1143.75
521.447	1179.6
521.653	1257.68
521.859	1154.22
522.065	1206.53
522.271	1264.46
522.477	1222.03
522.683	1233.85
522.889	1222.42
523.095	1169.33
523.301	1206.53
523.507	1166.42
523.713	1216.22
523.919	1161.97
524.125	1254.58
524.331	1234.23
524.537	1303.98
524.742	1281.12
524.948	1274.92
525.154	1275.12
525.36	1378.38
525.566	1290.42
525.772	1329.17
525.977	1255.16
526.183	1303.6
526.389	1325.3
526.595	1270.85
526.8	1225.13
527.006	1195.1
527.212	1163.13
527.417	1168.94
527.623	1172.62
527.829	1236.37
528.034	1268.14
528.24	1286.16
528.446	1229.97
528.651	1338.28
528.857	1322.39
529.062	1356.49
529.268	1293.33
529.473	1362.11
529.679	1374.31
529.884	1408.99
530.09	1402.41
530.295	1420.43
530.501	1410.54
530.706	1373.73
530.912	1316
531.117	1357.65
531.323	1381.29
531.528	1439.61
531.733	1398.53
531.939	1380.71
532.144	1424.88
532.35	1362.11
532.555	1445.03
532.76	1423.72
532.966	1425.08
533.171	1373.73
533.376	1366.95
533.581	1317.74
533.787	1362.11
533.992	1409.19
534.197	1414.42
534.402	1409.96
534.607	1390.01
534.813	1482.62
535.018	1413.26
535.223	1413.26
535.428	1447.94
535.633	1450.26
535.838	1436.31
536.043	1476.81
536.249	1548.3
536.454	1463.82
536.659	1452.39
536.864	1450.07
537.069	1417.52
537.274	1468.67
537.479	1451.43
537.684	1448.91
537.889	1419.26
538.094	1557.79
538.299	1487.66
538.504	1496.96
538.708	1530.47
538.913	1544.42
539.118	1487.07
539.323	1512.84
539.528	1453.75
539.733	1453.17
539.938	1464.99
540.142	1509.16
540.347	1445.61
540.552	1429.73
540.757	1425.27
540.962	1469.44
541.166	1426.82
541.371	1413.84
541.576	1467.31
541.781	1365.21
541.985	1517.69
542.19	1470.99
542.395	1522.72
542.599	1557.6
542.804	1488.82
543.008	1556.82
543.213	1489.4
543.418	1457.24
543.622	1498.31
543.827	1447.55
544.031	1522.92
544.236	1586.27
544.44	1516.91
544.645	1620.95
544.849	1526.6
545.054	1558.95
545.258	1606.04
545.463	1581.24
545.667	1531.25
545.872	1543.26
546.076	1580.07
546.281	1515.56
546.485	1569.03
546.689	1565.35
546.894	1573.1
547.098	1536.48
547.302	1534.93
547.507	1529.89
547.711	1572.13
547.915	1626.19
548.119	1506.64
548.324	1538.42
548.528	1601
548.732	1544.62
548.936	1594.99
549.141	1610.49
549.345	1531.44
549.549	1583.56
549.753	1593.64
549.957	1644.59
550.161	1626.96
550.366	1588.4
550.57	1553.14
550.774	1581.24
550.978	1542.49
551.182	1582.59
551.386	1573.49
551.59	1615.53
551.794	1550.24
551.998	1618.44
552.202	1579.1
552.406	1567.29
552.61	1603.13
552.814	1629.09
553.018	1644.59
553.222	1600.03
553.426	1579.1
553.63	1673.07
553.833	1584.53
554.037	1539
554.241	1603.32
554.445	1575.23
554.649	1571.35
554.853	1535.51
555.056	1618.24
555.26	1636.45
555.464	1590.92
555.668	1581.04
555.871	1633.74
556.075	1647.5
556.279	1542.49
556.483	1551.2
556.686	1581.43
556.89	1578.33
557.094	1560.31
557.297	1546.55
557.501	1592.86
557.704	1499.28
557.908	1597.32
558.112	1524.27
558.315	1611.27
558.519	1536.67
558.722	1517.49
558.926	1509.74
559.129	1456.85
559.333	1453.94
559.536	1469.44
559.74	1458.21
559.943	1446.58
560.147	1448.91
560.35	1484.94
560.553	1467.51
560.757	1423.91
560.96	1532.99
561.164	1487.46
561.367	1586.27
561.57	1533.19
561.774	1520.98
561.977	1517.69
562.18	1478.94
562.384	1573.29
562.587	1489.59
562.79	1490.37
562.993	1470.8
563.197	1530.86
563.4	1511.68
563.603	1545.78
563.806	1600.42
564.009	1455.49
564.212	1516.91
564.416	1424.49
564.619	1494.63
564.822	1418.68
565.025	1514.39
565.228	1467.7
565.431	1495.41
565.634	1389.04
565.837	1444.64
566.04	1396.01
566.243	1445.23
566.446	1371.79
566.649	1439.99
566.852	1411.32
567.055	1410.74
567.258	1437.48
567.461	1474.67
567.664	1480.49
567.867	1389.23
568.07	1433.6
568.273	1440.96
568.475	1475.26
568.678	1368.11
568.881	1412.87
569.084	1415.58
569.287	1248.77
569.489	1326.85
569.692	1427.79
569.895	1378.38
570.098	1325.88
570.3	1319.29
570.503	1282.86
570.706	1298.95
570.909	1317.55
571.111	1284.8
571.314	1263.1
571.516	1309.99
571.719	1341.38
571.922	1319.68
572.124	1330.72
572.327	1308.05
572.529	1227.26
572.732	1285
572.935	1328.01
573.137	1405.51
573.34	1330.53
573.542	1323.36
573.745	1302.82
573.947	1347.38
574.15	1305.34
574.352	1265.82
574.554	1347.96
574.757	1252.83
574.959	1266.98
575.162	1233.27
575.364	1233.65
575.566	1364.43
575.769	1254.97
575.971	1248.77
576.173	1179.21
576.376	1237.33
576.578	1278.99
576.78	1306.31
576.982	1167
577.185	1253.61
577.387	1219.7
577.589	1218.35
577.791	1251.48
577.993	1244.7
578.196	1245.47
578.398	1253.8
578.6	1263.1
578.802	1193.35
579.004	1203.82
579.206	1179.79
579.408	1232.3
579.61	1157.12
579.812	1249.93
580.014	1218.93
580.216	1184.64
580.418	1246.63
580.62	1184.25
580.822	1160.42
581.024	1230.75
581.226	1248.96
581.428	1219.32
581.63	1289.84
581.832	1175.53
582.034	1266.2
582.236	1223.58
582.438	1247.99
582.64	1296.23
582.841	1309.41
583.043	1333.24
583.245	1218.15
583.447	1291.2
583.649	1250.51
583.85	1245.67
584.052	1284.8
584.254	1222.61
584.456	1293.33
584.657	1218.35
584.859	1249.15
585.061	1228.62
585.262	1209.24
585.464	1193.16
585.666	1239.27
585.867	1200.52
586.069	1275.89
586.27	1203.82
586.472	1219.12
586.674	1174.95
586.875	1193.94
587.077	1216.6
587.278	1206.92
587.48	1221.06
587.681	1297.98
587.883	1222.22
588.084	1162.74
588.285	1206.33
588.487	1170.88
588.688	1217.57
588.89	1114.11
589.091	1084.08
589.292	1108.88
589.494	1091.25
589.695	1060.06
589.896	998.83
590.098	1033.32
590.299	1084.08
590.5	1048.43
590.702	1058.12
590.903	1073.04
591.104	1148.4
591.305	1095.71
591.507	1139.88
591.708	1092.99
591.909	1102.87
592.11	1196.26
592.311	1159.25
592.512	1103.46
592.714	1063.93
592.915	1072.84
593.116	1076.33
593.317	1099
593.518	1107.91
593.719	1088.73
593.92	1142.4
594.121	1164.49
594.322	1100.94
594.523	1093.38
594.724	1056.37
594.925	1093.57
595.126	1097.84
595.327	1154.6
595.528	1138.52
595.729	1071.49
595.929	1111.98
596.13	1128.45
596.331	1125.54
596.532	1132.13
596.733	1155.57
596.934	1142.98
597.135	1172.82
597.335	1124.57
597.536	1084.27
597.737	1103.07
597.938	1080.98
598.138	1121.86
598.339	1112.56
598.54	1123.8
598.74	1111.2
598.941	1108.49
599.142	1147.82
599.342	1119.54
599.543	1084.08
599.744	1099.97
599.944	1098.22
600.145	1095.51
600.345	1086.21
600.546	1175.72
600.746	1165.45
600.947	1190.45
601.147	1126.51
601.348	1160.61
601.548	1069.55
601.749	1121.47
601.949	1053.08
602.15	1099.77
602.35	1105.78
602.551	1122.25
602.751	1061.99
602.951	1079.82
603.152	1029.44
603.352	1113.53
603.552	1108.3
603.753	1138.33
603.953	1107.91
604.153	1115.08
604.354	1108.3
604.554	1082.14
604.754	1107.33
604.954	1073.04
605.155	1115.47
605.355	1091.25
605.555	1126.9
605.755	1112.75
605.955	1138.14
606.155	1158.29
606.356	1136.78
606.556	1154.02
606.756	1124.77
606.956	1045.33
607.156	1160.03
607.356	1069.16
607.556	1118.18
607.756	1093.57
607.956	1141.82
608.156	1126.9
608.356	1086.02
608.556	1115.08
608.756	1106.17
608.956	1053.08
609.156	1101.71
609.356	1037.39
609.556	1057.92
609.755	1074.01
609.955	1049.01
610.155	1055.21
610.355	1090.86
610.555	1024.99
610.755	1072.65
610.954	1009.1
611.154	1053.86
611.354	1109.07
611.554	1046.49
611.753	1039.52
611.953	1000.96
612.153	1051.53
612.352	1063.93
612.552	1010.84
612.752	952.72
612.951	1042.81
613.151	1041.46
613.351	990.11
613.55	1008.91
613.75	988.76
613.949	997.28
614.149	1030.22
614.348	1013.36
614.548	989.34
614.747	939.16
614.947	935.48
615.146	909.9
615.346	1056.37
615.545	992.63
615.745	1004.45
615.944	1039.91
616.144	987.01
616.343	997.86
616.542	968.03
616.742	980.43
616.941	963.96
617.14	931.99
617.34	967.06
617.539	975.78
617.738	972.48
617.938	1013.56
618.137	980.81
618.336	932.96
618.535	1009.49
618.734	1015.88
618.934	999.99
619.133	986.63
619.332	1002.51
619.531	948.26
619.73	974.81
619.929	1030.99
620.128	985.85
620.328	1032.93
620.527	956.98
620.726	980.81
620.925	1013.17
621.124	976.94
621.323	979.46
621.522	961.44
621.721	919.78
621.92	969.77
622.119	1027.51
622.318	945.55
622.517	968.41
622.715	962.6
622.914	912.42
623.113	956.98
623.312	863.4
623.511	968.41
623.71	943.81
623.909	923.66
624.107	1006.58
624.306	885.3
624.505	893.24
624.704	914.16
624.902	894.79
625.101	958.34
625.3	935.86
625.499	882.97
625.697	905.83
625.896	876.77
626.095	915.13
626.293	854.1
626.492	888.01
626.69	931.02
626.889	872.51
627.088	944.97
627.286	873.28
627.485	912.42
627.683	873.86
627.882	908.93
628.08	818.84
628.279	864.76
628.477	944.58
628.676	818.45
628.874	892.27
629.073	824.85
629.271	820.58
629.469	869.99
629.668	861.85
629.866	864.37
630.065	834.92
630.263	897.7
630.461	820
630.66	849.26
630.858	907.19
631.056	918.04
631.254	911.65
631.453	838.6
631.651	913.78
631.849	838.99
632.047	888.01
632.245	842.48
632.444	878.32
632.642	924.82
632.84	907.58
633.038	856.04
633.236	847.51
633.434	868.05
633.632	834.92
633.83	838.02
634.028	927.92
634.227	868.44
634.425	946.52
634.623	883.75
634.821	899.25
635.019	873.09
635.216	849.65
635.414	918.04
635.612	889.36
635.81	848.29
636.008	909.51
636.206	867.08
636.404	888.4
636.602	854.49
636.8	861.27
636.997	914.55
637.195	887.04
637.393	875.61
637.591	917.46
637.789	905.64
637.986	871.73
638.184	859.72
638.382	918.62
638.58	897.7
638.777	958.73
638.975	844.42
639.173	855.46
639.37	867.47
639.568	880.84
639.765	895.37
639.963	873.09
640.161	873.28
640.358	902.15
640.556	838.8
640.753	825.62
640.951	821.17
641.148	863.79
641.346	852.36
641.543	849.45
641.741	885.88
641.938	835.31
642.136	844.42
642.333	785.13
642.531	874.64
642.728	903.9
642.925	844.03
643.123	841.12
643.32	871.35
643.517	823.88
643.715	838.02
643.912	839.38
644.109	841.7
644.306	830.66
644.504	810.12
644.701	856.62
644.898	817.87
645.095	795.98
645.293	802.95
645.49	834.92
645.687	809.54
645.884	858.36
646.081	752.19
646.278	782.42
646.475	790.55
646.672	809.15
646.87	812.06
647.067	810.9
647.264	812.25
647.461	721
647.658	751.8
647.855	804.89
648.052	749.09
648.249	679.54
648.446	763.82
648.642	760.72
648.839	725.26
649.036	739.99
649.233	726.62
649.43	719.84
649.627	688.45
649.824	734.75
650.021	708.4
650.217	706.47
650.414	716.74
650.611	753.74
650.808	751.8
651.004	769.63
651.201	789.58
651.398	794.62
651.595	754.13
651.791	740.18
651.988	752.77
652.185	731.27
652.381	751.61
652.578	699.69
652.775	737.85
652.971	749.48
653.168	721.97
653.364	767.88
653.561	701.43
653.757	729.33
653.954	762.65
654.15	690.97
654.347	772.53
654.543	754.32
654.74	704.72
654.936	678.95
655.133	730.88
655.329	708.6
655.525	714.02
655.722	726.42
655.918	679.34
656.115	723.71
656.311	632.07
656.507	609.21
656.704	566
656.9	608.43
657.096	621.99
657.292	602.04
657.489	699.69
657.685	695.81
657.881	661.52
658.077	670.43
658.273	669.07
658.47	763.04
658.666	685.35
658.862	731.85
659.058	684.19
659.254	745.8
659.45	687.67
659.646	708.02
659.842	698.52
660.038	721
660.234	658.61
660.43	716.15
660.626	775.63
660.822	740.57
661.018	737.85
661.214	694.84
661.41	680.5
661.606	739.02
661.802	741.54
661.998	714.41
662.194	693.1
662.39	723.32
662.586	761.1
662.781	722.35
662.977	731.07
663.173	725.07
663.369	712.86
663.564	702.59
663.76	742.89
663.956	704.72
664.152	752.97
664.347	629.74
664.543	709.37
664.739	683.8
664.934	632.46
665.13	628.77
665.326	722.74
665.521	698.91
665.717	660.74
665.912	664.23
666.108	614.82
666.304	664.81
666.499	657.84
666.695	612.69
666.89	657.45
667.086	711.7
667.281	670.82
667.477	714.99
667.672	679.92
667.867	686.9
668.063	659.19
668.258	618.89
668.454	648.73
668.649	743.67
668.844	666.56
669.04	715.57
669.235	666.94
669.43	638.66
669.626	622.19
669.821	638.46
670.016	612.89
670.211	665.78
670.407	640.59
670.602	642.34
670.797	635.36
670.992	677.6
671.187	625.87
671.382	704.14
671.578	639.43
671.773	655.12
671.968	598.36
672.163	659.77
672.358	663.84
672.553	631.1
672.748	622.57
672.943	721.19
673.138	637.49
673.333	689.61
673.528	626.26
673.723	685.15
673.918	616.18
674.113	617.54
674.308	705.89
674.503	646.21
674.698	660.94
674.892	646.41
675.087	674.11
675.282	663.26
675.477	625.29
675.672	657.45
675.867	624.9
676.061	624.12
676.256	585.96
676.451	617.92
676.646	637.69
676.84	591.57
677.035	575.49
677.23	582.47
677.424	648.15
677.619	658.03
677.814	657.26
678.008	671.2
678.203	549.73
678.397	624.51
678.592	625.67
678.787	664.81
678.981	615.41
679.176	653.57
679.37	644.08
679.565	613.86
679.759	607.46
679.954	671.59
680.148	690.19
680.342	675.08
680.537	633.04
680.731	650.28
680.926	679.73
681.12	657.06
681.314	623.74
681.509	612.11
681.703	637.88
681.897	668.88
682.092	613.86
682.286	616.37
682.48	698.91
682.674	675.66
682.869	615.21
683.063	632.07
683.257	715.57
683.451	621.61
683.645	650.47
683.839	654.16
684.034	605.33
684.228	665.78
684.422	567.74
684.616	600.87
684.81	658.22
685.004	625.48
685.198	619.67
685.392	670.43
685.586	632.26
685.78	648.92
685.974	653.57
686.168	628.39
686.362	700.07
686.556	628.39
686.75	571.43
686.944	556.7
687.138	578.98
687.331	484.63
687.525	519.31
687.719	447.04
687.913	487.73
688.107	504
688.301	506.91
688.494	529.96
688.688	477.85
688.882	477.26
689.076	457.5
689.269	511.17
689.463	609.01
689.657	528.8
689.85	523.38
690.044	516.01
690.238	534.23
690.431	539.07
690.625	534.81
690.818	582.08
691.012	585.96
691.205	596.81
691.399	550.5
691.593	579.37
691.786	627.22
691.98	659.39
692.173	703.37
692.366	641.95
692.56	649.7
692.753	685.54
692.947	623.35
693.14	704.72
693.333	677.02
693.527	625.87
693.72	689.42
693.914	630.91
694.107	652.41
694.3	666.17
694.493	647.18
694.687	731.46
694.88	671.79
695.073	740.76
695.266	689.03
695.46	744.44
695.653	772.15
695.846	752.58
696.039	678.76
696.232	702.2
696.425	745.6
696.618	765.37
696.812	727
697.005	839.38
697.198	902.54
697.391	808.38
697.584	874.25
697.777	888.78
697.97	839.96
698.163	855.65
698.356	849.26
698.549	951.36
698.742	918.43
698.935	862.24
699.127	922.11
699.32	847.32
699.513	874.06
699.706	907.38
699.899	870.38
700.092	868.05
700.285	958.53
700.477	874.45
700.67	926.95
700.863	946.52
701.056	1008.33
701.248	974.23
701.441	975
701.634	960.66
701.826	1058.31
702.019	932.96
702.212	1027.51
702.404	983.91
702.597	940.9
702.79	979.84
702.982	1034.67
703.175	1060.44
703.367	1084.47
703.56	1056.18
703.752	1167.39
703.945	1115.27
704.137	1125.54
704.33	1123.99
704.522	1131.94
704.715	1136
704.907	1191.61
705.1	1204.78
705.292	1232.88
705.484	1206.33
705.677	1197.62
705.869	1211.37
706.061	1238.88
706.254	1256.13
706.446	1246.05
706.638	1236.56
706.831	1297.98
707.023	1251.28
707.215	1316.38
707.407	1329.36
707.599	1309.8
707.792	1379.35
707.984	1309.02
708.176	1375.48
708.368	1316
708.56	1367.53
708.752	1396.59
708.944	1367.15
709.136	1389.04
709.329	1391.17
709.521	1490.76
709.713	1452.01
709.905	1454.53
710.097	1492.89
710.289	1439.61
710.481	1468.28
710.672	1482.04
710.864	1484.56
711.056	1534.16
711.248	1513.04
711.44	1527.18
711.632	1508.58
711.824	1563.22
712.016	1589.76
712.207	1597.51
712.399	1595.57
712.591	1671.91
712.783	1632.58
712.975	1676.17
713.166	1570.58
713.358	1592.47
713.55	1658.54
713.741	1667.45
713.933	1694.77
714.125	1635.1
714.316	1673.46
714.508	1712.02
714.7	1731.58
714.891	1700.39
715.083	1779.83
715.274	1706.59
715.466	1696.9
715.657	1738.36
715.849	1662.8
716.04	1718.8
716.232	1669.2
716.423	1745.92
716.615	1647.88
716.806	1601.97
716.998	1606.42
717.189	1544.62
717.381	1468.47
717.572	1442.13
717.763	1477.39
717.955	1459.76
718.146	1416.74
718.337	1394.08
718.528	1334.4
718.72	1295.65
718.911	1364.05
719.102	1338.28
719.293	1347.77
719.485	1359.59
719.676	1347.77
719.867	1314.45
720.058	1316.77
720.249	1328.59
720.44	1351.84
720.632	1360.75
720.823	1414.42
721.014	1525.44
721.205	1542.29
721.396	1611.46
721.587	1676.95
721.778	1694.58
721.969	1696.32
722.16	1762.2
722.351	1818.38
722.542	1871.28
722.733	1885.42
722.924	1763.75
723.115	1847.83
723.305	1849.96
723.496	1834.66
723.687	1717.63
723.878	1730.42
724.069	1733.71
724.26	1772.66
724.45	1709.88
724.641	1688.96
724.832	1735.85
725.023	1688.18
725.213	1701.55
725.404	1711.43
725.595	1688.18
725.785	1694.58
725.976	1725.58
726.167	1731.78
726.357	1733.33
726.548	1850.16
726.739	1787.38
726.929	1816.25
727.12	1840.28
727.31	1864.49
727.501	1812.18
727.691	1842.6
727.882	1833.69
728.072	1861.39
728.263	1844.34
728.453	1915.45
728.644	1884.06
728.834	1919.52
729.024	1855
729.215	1851.13
729.405	1852.48
729.596	1946.45
729.786	1977.06
729.976	1979.39
730.167	2008.25
730.357	1900.92
730.547	1981.71
730.737	1958.66
730.928	2010.97
731.118	2061.15
731.308	1998.95
731.498	2034.02
731.688	2066.77
731.879	2086.33
732.069	2153.57
732.259	2159.57
732.449	2160.15
732.639	2205.3
732.829	2272.14
733.019	2276.59
733.209	2311.08
733.399	2329.68
733.589	2365.72
733.779	2404.47
733.969	2407.18
734.159	2421.71
734.349	2468.6
734.539	2487.59
734.729	2488.17
734.919	2515.68
735.109	2566.83
735.299	2536.99
735.488	2568.38
735.678	2518.2
735.868	2548.03
736.058	2555.78
736.248	2530.6
736.437	2458.14
736.627	2448.45
736.817	2604.61
737.007	2561.6
737.196	2573.22
737.386	2548.62
737.576	2502.31
737.765	2588.53
737.955	2542.8
738.144	2701.29
738.334	2610.81
738.524	2542.22
738.713	2638.71
738.903	2614.68
739.092	2690.24
739.282	2682.49
739.471	2633.48
739.661	2661.38
739.85	2697.22
740.04	2704.58
740.229	2704.19
740.419	2741.2
740.608	2746.63
740.797	2701.68
740.987	2765.61
741.176	2766.39
741.365	2697.8
741.555	2661.57
741.744	2747.01
741.933	2732.09
742.123	2735.39
742.312	2746.43
742.501	2813.86
742.69	2811.53
742.88	2723.57
743.069	2829.94
743.258	2751.66
743.447	2785.37
743.636	2789.06
743.825	2804.17
744.014	2857.45
744.204	2818.89
744.393	2753.41
744.582	2832.46
744.771	2860.74
744.96	2787.51
745.149	2822.57
745.338	2791.96
745.527	2836.14
745.716	2787.12
745.905	2764.45
746.094	2840.98
746.283	2866.17
746.471	2850.67
746.66	2917.51
746.849	2894.45
747.038	2921.39
747.227	2862.29
747.416	2892.52
747.604	2851.83
747.793	2835.17
747.982	2865
748.171	2846.99
748.359	2875.66
748.548	2894.26
748.737	2862.29
748.926	2828
749.114	2715.24
749.303	2811.14
749.491	2839.04
749.68	2775.49
749.869	2858.03
750.057	2812.11
750.246	2816.96
750.434	2801.26
750.623	2767.36
750.811	2777.04
751	2842.72
751.188	2785.18
751.377	2823.54
751.565	2762.13
751.754	2767.74
751.942	2775.69
752.131	2787.7
752.319	2763.09
752.507	2746.82
752.696	2829.36
752.884	2827.81
753.072	2767.55
753.261	2827.22
753.449	2819.47
753.637	2747.98
753.825	2863.07
754.014	2803.59
754.202	2802.23
754.39	2834.97
754.578	2842.92
754.766	2741.39
754.955	2744.3
755.143	2800.49
755.331	2736.94
755.519	2795.84
755.707	2743.14
755.895	2707.49
756.083	2744.88
756.271	2715.63
756.459	2752.44
756.647	2773.94
756.835	2717.37
757.023	2702.06
757.211	2715.04
757.399	2704.58
757.587	2687.92
757.775	2628.63
757.963	2685.59
758.151	2679.59
758.339	2646.65
758.526	2653.43
758.714	2658.47
758.902	2530.79
759.09	2518
759.278	2329.88
759.465	2145.04
759.653	1856.55
759.841	1696.9
760.028	1509.74
760.216	1245.28
760.404	1203.23
760.591	947.88
760.779	805.28
760.967	743.47
761.154	560.38
761.342	633.23
761.529	646.41
761.717	715.57
761.905	660.36
762.092	750.64
762.28	684.19
762.467	713.25
762.655	628.58
762.842	657.06
763.029	662.68
763.217	677.99
763.404	679.34
763.592	730.69
763.779	663.46
763.966	714.8
764.154	721.39
764.341	815.93
764.528	790.55
764.716	843.64
764.903	922.88
765.09	956.59
765.277	994.76
765.465	1140.07
765.652	1131.74
765.839	1196.07
766.026	1336.92
766.213	1352.81
766.4	1473.71
766.588	1621.15
766.775	1563.99
766.962	1686.44
767.149	1716.86
767.336	1842.79
767.523	1846.28
767.71	1930.76
767.897	2006.7
768.084	2044.68
768.271	2107.26
768.458	2140
768.645	2181.08
768.832	2169.06
769.019	2195.61
769.206	2213.63
769.392	2282.02
769.579	2348.09
769.766	2325.03
769.953	2288.03
770.14	2345.18
770.327	2341.5
770.513	2369.01
770.7	2484.1
770.887	2352.93
771.073	2420.35
771.26	2410.28
771.447	2350.41
771.634	2366.69
771.82	2480.42
772.007	2348.67
772.193	2384.32
772.38	2451.55
772.567	2423.07
772.753	2410.67
772.94	2427.91
773.126	2433.34
773.313	2449.03
773.499	2440.31
773.686	2427.91
773.872	2394.2
774.059	2436.82
774.245	2385.29
774.432	2399.24
774.618	2304.49
774.804	2379.47
774.991	2339.56
775.177	2382.96
775.363	2340.72
775.55	2382.96
775.736	2283.38
775.922	2327.74
776.109	2353.51
776.295	2349.64
776.481	2353.9
776.667	2379.67
776.853	2341.69
777.04	2337.43
777.226	2307.4
777.412	2388.58
777.598	2310.31
777.784	2328.52
777.97	2317.09
778.156	2340.53
778.342	2300.62
778.528	2303.72
778.715	2243.85
778.901	2278.14
779.087	2306.43
779.272	2271.75
779.458	2244.82
779.644	2314.18
779.83	2223.9
780.016	2345.76
780.202	2264.97
780.388	2269.62
780.574	2172.94
780.76	2205.1
780.946	2300.81
781.131	2244.24
781.317	2269.43
781.503	2219.63
781.689	2199.1
781.874	2315.15
782.06	2215.95
782.246	2233.58
782.432	2223.51
782.617	2223.31
782.803	2253.15
782.989	2130.12
783.174	2218.86
783.36	2124.7
783.545	2167.32
783.731	2195.22
783.916	2123.34
784.102	2192.31
784.288	2142.13
784.473	2180.88
784.659	2136.71
784.844	2196.96
785.029	2078.78
785.215	2106.48
785.4	2090.98
785.586	2165.96
785.771	2121.4
785.956	2110.75
786.142	2082.27
786.327	2053.01
786.512	2100.87
786.698	2071.61
786.883	2032.28
787.068	2048.36
787.254	2096.22
787.439	2024.53
787.624	2042.16
787.809	2028.21
787.994	2036.15
788.18	2071.8
788.365	2020.46
788.55	1986.17
788.735	2000.89
788.92	2035.77
789.105	1993.53
789.29	2035.96
789.475	1961.37
789.66	1977.06
789.845	1931.92
790.03	1940.25
790.215	1972.02
790.4	2013.68
790.585	2015.23
790.77	1957.11
790.955	1885.42
791.14	1969.89
791.325	2047
791.51	1876.7
791.695	1908.86
791.879	1945.87
792.064	1873.21
792.249	1977.26
792.434	1917
792.618	1937.92
792.803	1941.8
792.988	1921.46
793.173	1917.39
793.357	1951.68
793.542	1923.2
793.727	1926.11
793.911	1955.94
794.096	1927.27
794.281	1958.46
794.465	2004.96
794.65	1959.04
794.834	1932.69
795.019	1999.15
795.203	1991.01
795.388	1978.61
795.572	2017.55
795.757	1988.49
795.941	1977.45
796.126	1951.87
796.31	1889.29
796.494	1938.12
796.679	1910.41
796.863	1916.42
797.048	1966.02
797.232	1962.72
797.416	1935.79
797.601	1950.13
797.785	2020.65
797.969	1983.65
798.153	1980.36
798.338	1962.14
798.522	1983.07
798.706	1971.25
798.89	1990.04
799.074	2058.82
799.258	2056.3
799.443	1978.42
799.627	1970.67
799.811	2071.03
799.995	1951.49
800.179	1943.93
800.363	1965.44
800.547	1998.95
800.731	2015.42
800.915	1950.71
801.099	1951.49
801.283	1974.74
801.467	1953.04
801.651	1953.42
801.835	2026.08
802.019	2010.58
802.202	1983.26
802.386	1936.37
802.57	1923.39
802.754	1947.03
802.938	1931.34
803.121	1943.93
803.305	1991.59
803.489	1964.27
803.673	1986.94
803.856	1982.1
804.04	1953.23
804.224	1964.66
804.407	1918.74
804.591	1953.62
804.775	1929.21
804.958	1956.91
805.142	2051.65
805.326	1958.07
805.509	1961.56
805.693	2042.16
805.876	2012.52
806.06	1978.81
806.243	1973.96
806.427	2030.34
806.61	1994.11
806.794	1936.96
806.977	2043.71
807.16	1982.49
807.344	1972.02
807.527	1996.44
807.71	1988.3
807.894	1974.16
808.077	2004.38
808.26	1954.39
808.444	1921.07
808.627	1980.55
808.81	1937.73
808.993	1863.33
809.177	1893.75
809.36	1892.39
809.543	1949.55
809.726	1829.62
809.909	1852.09
810.092	1881.93
810.276	1889.1
810.459	1896.07
810.642	1861.78
810.825	1836.21
811.008	1844.34
811.191	1746.11
811.374	1790.87
811.557	1772.46
811.74	1856.94
811.923	1723.06
812.106	1746.7
812.289	1682.76
812.472	1715.89
812.654	1733.52
812.837	1668.62
813.02	1651.57
813.203	1610.1
813.386	1537.64
813.569	1531.25
813.751	1478.94
813.934	1560.12
814.117	1532.02
814.3	1475.45
814.482	1457.24
814.665	1426.82
814.848	1400.28
815.03	1342.93
815.213	1361.53
815.396	1365.98
815.578	1361.53
815.761	1309.8
815.943	1360.56
816.126	1268.53
816.309	1232.88
816.491	1205.37
816.674	1126.51
816.856	1223.97
817.039	1206.72
817.221	1252.25
817.403	1219.12
817.586	1230.55
817.768	1249.15
817.951	1167.97
818.133	1155.57
818.315	1198.58
818.498	1249.54
818.68	1318.51
818.862	1249.73
819.045	1270.66
819.227	1269.69
819.409	1233.65
819.591	1255.16
819.774	1190.64
819.956	1184.64
820.138	1298.17
820.32	1270.08
820.502	1276.67
820.684	1367.34
820.866	1376.06
821.048	1401.05
821.231	1417.33
821.413	1406.09
821.595	1373.15
821.777	1386.13
821.959	1356.3
822.141	1449.1
822.323	1325.88
822.505	1295.65
822.686	1241.79
822.868	1189.67
823.05	1120.89
823.232	1114.11
823.414	1042.23
823.596	1121.47
823.778	1073.81
823.96	1117.4
824.141	1114.5
824.323	1124.96
824.505	1186.77
824.687	1252.64
824.868	1237.14
825.05	1350.87
825.232	1405.89
825.413	1435.93
825.595	1376.06
825.777	1304.95
825.958	1358.43
826.14	1347
826.321	1362.69
826.503	1318.13
826.685	1365.6
826.866	1430.11
827.048	1369.08
827.229	1351.06
827.411	1311.93
827.592	1262.33
827.773	1272.98
827.955	1221.06
828.136	1252.83
828.318	1162.94
828.499	1231.91
828.68	1226.68
828.862	1257.68
829.043	1273.18
829.224	1265.82
829.406	1191.22
829.587	1228.42
829.768	1196.07
829.949	1240.05
830.131	1185.8
830.312	1295.46
830.493	1212.53
830.674	1229.97
830.855	1174.17
831.036	1216.99
831.218	1280.15
831.399	1290.81
831.58	1230.17
831.761	1245.67
831.942	1261.94
832.123	1205.37
832.304	1166.04
832.485	1174.95
832.666	1221.25
832.847	1201.1
833.028	1203.82
833.209	1219.12
833.389	1228.62
833.57	1172.82
833.751	1209.43
833.932	1247.02
834.113	1214.86
834.294	1198.78
834.475	1250.9
834.655	1240.82
834.836	1290.42
835.017	1250.32
835.198	1188.32
835.378	1224.55
835.559	1329.95
835.74	1218.35
835.92	1216.6
836.101	1221.45
836.281	1273.95
836.462	1229
836.643	1275.31
836.823	1282.09
837.004	1292.94
837.184	1323.94
837.365	1291.97
837.545	1318.71
837.726	1302.82
837.906	1313.86
838.087	1292.55
838.267	1305.34
838.448	1226.1
838.628	1276.86
838.808	1245.28
838.989	1323.94
839.169	1223.97
839.349	1310.18
839.53	1282.86
839.71	1293.33
839.89	1285.19
840.07	1331.88
840.251	1263.88
840.431	1295.85
840.611	1275.31
840.791	1255.55
840.971	1297.78
841.151	1275.12
841.332	1275.89
841.512	1285.96
841.692	1208.08
841.872	1268.14
842.052	1256.52
842.232	1302.63
842.412	1230.17
842.592	1234.82
842.772	1261.36
842.952	1262.33
843.132	1221.25
843.312	1251.09
843.492	1223.38
843.672	1283.06
843.851	1190.25
844.031	1208.47
844.211	1243.53
844.391	1199.17
844.571	1245.08
844.751	1268.92
844.93	1223.38
845.11	1218.54
845.29	1228.23
845.47	1237.92
845.649	1244.7
845.829	1260.97
846.009	1204.78
846.188	1226.1
846.368	1221.06
846.547	1209.82
846.727	1260
846.907	1200.13
847.086	1228.03
847.266	1227.45
847.445	1187.54
847.625	1219.32
847.804	1168.75
847.984	1218.15
848.163	1185.8
848.343	1183.47
848.522	1230.17
848.701	1223.97
848.881	1136.78
849.06	1198
849.239	1190.45
849.419	1206.14
849.598	1134.07
849.777	1148.02
849.957	1140.27
850.136	1093.57
850.315	1064.12
850.494	1102.1
850.674	1086.41
850.853	1138.14
851.032	1099.39
851.211	1147.05
851.39	1140.27
851.569	1092.99
851.748	1066.26
851.927	1111.4
852.107	1175.92
852.286	1074.59
852.465	1060.64
852.644	1127.87
852.823	1128.64
853.002	1118.76
853.181	1106.56
853.359	1128.06
853.538	1065.67
853.717	1127.87
853.896	993.6
854.075	998.83
854.254	999.61
854.433	925.21
854.611	965.89
854.79	918.04
854.969	954.46
855.148	992.24
855.327	943.42
855.505	1023.63
855.684	976.74
855.863	1015.88
856.041	971.51
856.22	1020.14
856.399	986.24
856.577	1079.24
856.756	1053.47
856.934	1162.94
857.113	1140.85
857.291	1081.37
857.47	1040.1
857.648	1025.76
857.827	1038.94
858.005	1099.97
858.184	1034.67
858.362	1142.59
858.541	1031.19
858.719	1058.89
858.898	1026.34
859.076	1031.96
859.254	1098.42
859.433	1013.94
859.611	1023.82
859.789	1009.1
859.967	1061.22
860.146	1120.31
860.324	1004.26
860.502	1040.49
860.68	988.18
860.859	1002.13
861.037	993.99
861.215	1045.91
861.393	979.26
861.571	1011.04
861.749	984.88
861.927	1041.07
862.105	1006
862.283	996.12
862.461	972.09
862.639	980.62
862.817	973.06
862.995	999.03
863.173	1008.71
863.351	1007.16
863.529	987.01
863.707	1027.12
863.885	1003.29
864.063	944
864.241	950.39
864.418	1011.23
864.596	928.89
864.774	953.49
864.952	968.03
865.129	972.68
865.307	932.76
865.485	913.39
865.663	1008.91
865.84	887.23
866.018	932.76
866.196	825.04
866.373	872.7
866.551	838.41
866.728	752
866.906	821.36
867.084	829.88
867.261	889.36
867.439	890.53
867.616	914.36
867.794	856.04
867.971	903.31
868.149	875.8
868.326	953.11
868.503	909.51
868.681	897.89
868.858	888.01
869.035	882.39
869.213	903.51
869.39	871.93
869.567	939.54
869.745	866.31
869.922	904.48
870.099	932.18
870.276	925.21
870.454	936.06
870.631	933.34
870.808	882.2
870.985	940.51
871.162	973.26
871.339	924.82
871.517	825.82
871.694	857.2
871.871	879.29
872.048	903.51
872.225	857.78
872.402	895.18
872.579	830.08
872.756	859.14
872.933	827.75
873.11	882.2
873.287	890.72
873.463	850.42
873.64	846.74
873.817	890.91
873.994	852.16
874.171	829.69
874.348	867.08
874.524	812.25
874.701	836.67
874.878	765.95
875.055	857.98
875.231	839.38
875.408	851.39
875.585	782.61
875.762	841.51
875.938	805.08
876.115	814.77
876.291	794.04
876.468	812.45
876.645	789.2
876.821	798.3
876.998	802.76
877.174	784.55
877.351	812.45
877.527	814.38
877.704	815.55
877.88	838.41
878.057	778.93
878.233	837.63
878.409	794.43
878.586	804.89
878.762	771.95
878.938	785.9
879.115	672.37
879.291	780.28
879.467	744.25
879.644	745.02
879.82	803.15
879.996	743.28
880.172	720.22
880.349	764.59
880.525	758.39
880.701	746.38
880.877	721.58
881.053	744.05
881.229	742.7
881.405	803.73
881.581	758.39
881.757	741.73
881.933	783.38
882.109	809.15
882.285	779.51
882.461	697.17
882.637	771.76
882.813	687.48
882.989	736.3
883.165	814.77
883.341	746.96
883.517	794.23
883.693	760.33
883.869	774.86
884.044	725.84
884.22	745.41
884.396	815.74
884.572	770.98
884.747	792.1
884.923	763.04
885.099	812.06
885.275	816.9
885.45	729.33
885.626	721.39
885.801	734.17
885.977	735.53
886.153	686.51
886.328	767.88
886.504	714.02
886.679	769.05
886.855	734.75
887.03	774.28
887.206	789.2
887.381	762.07
887.557	776.8
887.732	773.5
887.908	774.47
888.083	806.25
888.258	751.61
888.434	738.82
888.609	727.2
888.784	787.45
888.96	736.3
889.135	730.1
889.31	725.84
889.485	723.52
889.661	709.37
889.836	773.12
890.011	778.15
890.186	728.55
890.361	733.01
890.537	763.04
890.712	766.72
890.887	746.96
891.062	739.79
891.237	788.03
891.412	702.01
891.587	743.86
891.762	763.43
891.937	789.78
892.112	743.09
892.287	739.02
892.462	694.45
892.637	683.41
892.812	669.46
892.987	669.46
893.161	668.49
893.336	674.69
893.511	672.17
893.686	674.3
893.861	643.31
894.035	657.84
894.21	694.65
894.385	613.08
894.56	665.59
894.734	597.58
894.909	608.82
895.084	596.81
895.258	585.96
895.433	647.37
895.608	616.76
895.782	554.38
895.957	593.32
896.131	569.68
896.306	526.28
896.48	537.91
896.655	530.35
896.829	478.43
897.004	476.88
897.178	531.51
897.353	502.64
897.527	538.68
897.701	505.74
897.876	441.42
898.05	535.39
898.224	521.63
898.399	529.77
898.573	516.79
898.747	415.85
898.921	508.65
899.096	367.8
899.27	419.14
899.444	405.58
899.618	435.8
899.792	458.28
899.967	443.94
900.141	470.68
900.315	403.45
900.489	440.06
900.663	467.19
900.837	434.64
901.011	406.93
901.185	489.28
901.359	469.9
901.533	449.36
901.707	447.23
901.881	445.1
902.055	417.01
902.229	405
902.403	475.91
902.576	441.42
902.75	444.33
902.924	554.76
903.098	502.06
903.272	529.38
903.446	532.29
903.619	495.28
903.793	535.97
903.967	539.46
904.14	585.37
904.314	564.64
904.488	526.28
904.661	592.74
904.835	542.75
905.009	580.14
905.182	616.57
905.356	569.88
905.529	579.95
905.703	527.44
905.876	516.4
906.05	500.71
906.223	459.83
906.397	449.17
906.57	466.8
906.744	414.49
906.917	433.09
907.09	477.65
907.264	433.67
907.437	397.44
907.61	369.73
907.784	421.08
907.957	421.46
908.13	373.61
908.304	430.96
908.477	393.37
908.65	388.92
908.823	344.55
908.996	440.84
909.17	416.23
909.343	387.75
909.516	382.13
909.689	377.87
909.862	379.62
910.035	362.57
910.208	338.15
910.381	377.68
910.554	474.36
910.727	354.82
910.9	365.08
911.073	366.83
911.246	418.56
911.419	410.61
911.592	406.35
911.765	358.88
911.938	374.77
912.11	395.5
912.283	397.83
912.456	429.99
912.629	387.56
912.802	347.45
912.974	342.42
913.147	310.25
913.32	264.14
913.493	293.4
913.665	328.27
913.838	319.55
914.01	321.1
914.183	344.16
914.356	335.83
914.528	348.03
914.701	425.73
914.873	398.99
915.046	352.49
915.218	289.33
915.391	263.95
915.563	302.7
915.736	337.77
915.908	325.56
916.081	334.67
916.253	314.52
916.425	336.99
916.598	344.16
916.77	322.85
916.942	292.04
917.115	289.91
917.287	340.48
917.459	305.22
917.632	263.95
917.804	240.5
917.976	279.45
918.148	299.99
918.32	303.67
918.493	339.32
918.665	412.36
918.837	327.69
919.009	392.21
919.181	404.8
919.353	362.95
919.525	348.03
919.697	309.67
919.869	333.12
920.041	400.35
920.213	442.78
920.385	371.48
920.557	346.68
920.729	384.85
920.901	368.57
921.073	354.43
921.244	321.3
921.416	372.06
921.588	342.22
921.76	317.62
921.932	417.78
922.103	322.85
922.275	351.72
922.447	368.18
922.619	280.22
922.79	345.13
922.962	309.48
923.134	348.42
923.305	287.97
923.477	296.3
923.648	290.3
923.82	286.04
923.991	268.02
924.163	231.01
924.335	281.97
924.506	282.35
924.677	332.73
924.849	292.24
925.02	288.36
925.192	310.84
925.363	280.03
925.535	308.7
925.706	298.82
925.877	310.45
926.049	268.21
926.22	327.5
926.391	307.35
926.562	348.42
926.734	265.69
926.905	343
927.076	252.52
927.247	268.6
927.419	234.5
927.59	255.04
927.761	262.4
927.932	243.41
928.103	233.14
928.274	209.31
928.445	205.24
928.616	204.86
928.787	222.68
928.958	257.55
929.129	239.73
929.3	214.93
929.471	175.99
929.642	110.31
929.813	119.22
929.984	189.16
930.155	96.55
930.326	188.77
930.496	120.38
930.667	96.16
930.838	156.81
931.009	95.19
931.18	119.41
931.35	126.19
931.521	117.86
931.692	61.29
931.863	44.43
932.033	114.76
932.204	108.37
932.374	101.98
932.545	66.52
932.716	101.2
932.886	126
933.057	33.78
933.227	43.27
933.398	106.63
933.568	29.13
933.739	25.25
933.909	58
934.08	64.19
934.25	-26.87
934.421	-1.87
934.591	63.42
934.761	43.08
934.932	-3.42
935.102	49.66
935.272	-0.52
935.443	24.48
935.613	32.61
935.783	35.33
935.953	-10.59
936.123	153.32
936.294	6.85
936.464	1.81
936.634	38.04
936.804	-24.93
936.974	-9.43
937.144	20.21
937.314	39.59
937.484	-10.98
937.655	6.07
937.825	79.31
937.995	5.3
938.165	70.39
938.334	22.93
938.504	46.37
938.674	13.24
938.844	45.6
939.014	106.04
939.184	83.38
939.354	101.98
939.524	83.18
939.694	39.4
939.863	65.74
940.033	125.42
940.203	120.19
940.373	80.47
940.542	96.94
940.712	92.29
940.882	101.98
941.051	84.73
941.221	80.66
941.391	97.13
941.56	35.52
941.73	39.98
941.899	193.81
942.069	50.25
942.238	101.59
942.408	47.15
942.577	99.84
942.747	53.54
942.916	11.69
943.086	33.97
943.255	90.74
943.425	60.32
943.594	32.42
943.763	-6.52
943.933	9.17
944.102	-13.5
944.271	23.12
944.441	60.13
944.61	25.83
944.779	51.8
944.948	136.85
945.117	13.05
945.287	27.19
945.456	-11.95
945.625	30.48
945.794	48.11
945.963	-11.17
946.132	83.18
946.301	23.31
946.47	67.49
946.639	-14.08
946.808	21.76
946.977	71.75
947.146	102.17
947.315	48.5
947.484	77.95
947.653	21.38
947.822	42.11
947.991	5.68
948.16	128.13
948.329	102.17
948.498	48.5
948.666	48.5
948.835	68.65
949.004	9.95
949.173	-6.91
949.341	56.64
949.51	51.99
949.679	108.95
949.847	74.85
950.016	151.96
950.185	103.14
950.353	15.56
950.522	43.85
950.69	109.34
950.859	29.51
951.028	78.34
951.196	76.4
951.365	21.57
951.533	52.57
951.701	88.22
951.87	57.61
952.038	45.4
952.207	50.25
952.375	83.18
952.543	47.92
952.712	32.03
952.88	22.93
953.048	97.33
953.217	47.92
953.385	42.69
953.553	83.76
953.721	22.54
953.89	63.23
954.058	-1.1
954.226	4.33
954.394	50.05
954.562	7.43
954.73	41.14
954.898	32.23
955.067	101.78
955.235	11.88
955.403	73.11
955.571	131.04
955.739	64.19
955.907	26.03
956.075	29.51
956.243	17.31
956.41	60.13
956.578	-10.2
956.746	-13.3
956.914	16.73
957.082	58.19
957.25	60.13
957.418	3.36
957.585	31.45
957.753	91.13
957.921	19.44
958.089	31.45
958.256	32.23
958.424	71.75
958.592	50.44
958.759	30.87
958.927	77.37
959.095	21.96
959.262	39.01
959.43	74.46
959.597	16.92
959.765	44.63
959.932	6.26
960.1	64.78
960.267	50.63
960.435	45.79
960.602	84.93
960.77	39.4
960.937	15.76
961.104	37.07
961.272	5.88
961.439	38.04
961.606	73.88
961.774	87.25
961.941	41.53
962.108	70.2
962.275	66.71
962.443	107.21
962.61	106.04
962.777	127.36
962.944	79.11
963.111	72.33
963.278	58.96
963.446	52.96
963.613	64.78
963.78	67.68
963.947	73.49
964.114	60.9
964.281	124.84
964.448	62.06
964.615	52.96
964.782	85.12
964.949	89.77
965.116	94.42
965.282	87.25
965.449	52.76
965.616	37.65
965.783	88.22
965.95	64.39
966.117	8.01
966.283	53.35
966.45	75.82
966.617	57.61
966.784	94.61
966.95	116.89
967.117	91.32
967.284	36.68
967.45	33.58
967.617	115.54
967.784	78.73
967.95	119.99
968.117	92.48
968.283	93.64
968.45	157.19
968.616	104.11
968.783	113.99
968.949	105.66
969.116	90.54
969.282	63.81
969.449	98.29
969.615	66.33
969.781	57.61
969.948	81.44
970.114	32.42
970.28	104.69
970.447	55.67
970.613	105.08
970.779	62.45
970.945	91.32
971.112	58.58
971.278	76.59
971.444	80.86
971.61	75.24
971.776	54.9
971.942	80.08
972.108	95
972.275	82.99
972.441	82.02
972.607	134.14
972.773	27.58
972.939	87.83
973.105	69.81
973.271	28.16
973.437	57.41
973.602	61.48
973.768	106.04
973.934	51.8
974.1	77.76
974.266	-5.17
974.432	89.58
974.598	73.69
974.763	87.25
974.929	51.02
975.095	110.5
975.261	15.95
975.426	39.98
975.592	64
975.758	137.63
975.923	35.91
976.089	40.75
976.255	92.68
976.42	94.23
976.586	78.34
976.751	51.21
976.917	137.43
977.082	111.08
977.248	49.86
977.413	5.88
977.579	49.47
977.744	72.53
977.91	26.03
978.075	20.8
978.24	95.58
978.406	51.02
978.571	13.43
978.736	38.81
978.902	84.15
979.067	52.57
979.232	-0.71
979.397	60.9
979.563	111.08
979.728	30.68
979.893	70.2
980.058	27.38
980.223	79.89
980.388	50.83
980.554	49.86
980.719	27.38
980.884	78.14
981.049	93.64
981.214	25.64
981.379	74.66
981.544	22.15
981.709	52.76
981.874	37.46
982.039	69.23
982.204	84.93
982.368	68.07
982.533	21.57
982.698	67.1
982.863	93.84
983.028	50.44
983.193	45.79
983.357	66.33
983.522	90.35
983.687	57.41
983.852	45.79
984.016	50.44
984.181	62.45
984.346	89.77
984.51	84.34
984.675	62.06
984.839	88.61
985.004	82.99
985.168	90.93
985.333	72.53
985.498	31.06
985.662	80.47
985.827	68.65
985.991	55.09
986.155	41.53
986.32	100.43
986.484	111.47
986.649	73.88
986.813	11.69
986.977	63.23
987.142	79.11
987.306	21.38
987.47	39.2
987.634	48.89
987.799	72.53
987.963	75.43
988.127	66.91
988.291	125.23
988.455	86.48
988.62	56.45
988.784	61.48
988.948	79.69
989.112	51.6
989.276	87.25
989.44	61.29
989.604	46.18
989.768	50.25
989.932	115.54
990.096	34.75
990.26	44.05
990.424	20.6
990.588	76.21
990.752	116.12
990.915	77.18
991.079	60.9
991.243	32.61
991.407	53.54
991.571	41.72
991.734	56.83
991.898	49.66
992.062	133.56
992.226	33.78
992.389	31.26
992.553	7.62
992.717	29.71
992.88	18.08
993.044	74.66
993.207	51.6
993.371	73.49
993.535	62.06
993.698	49.08
993.862	87.25
994.025	92.68
994.189	80.28
994.352	63.61
994.515	55.86
994.679	68.07
994.842	38.62
995.006	85.7
995.169	30.87
995.332	38.62
995.496	76.4
995.659	-21.64
995.822	22.73
995.985	49.08
996.149	70.59
996.312	56.45
996.475	108.18
996.638	51.21
996.801	105.66
996.964	112.05
997.128	51.8
997.291	39.01
997.454	64.19
997.617	18.28
997.78	91.32
997.943	50.44
998.106	80.66
998.269	47.53
998.432	49.47
998.595	64
998.758	3.16
998.92	-10.01
999.083	14.79
999.246	25.06
999.409	0.84
999.572	-10.59
999.735	29.13
999.897	57.41
1000.06	23.9
1000.223	17.11
1000.386	78.34
1000.548	82.99
1000.711	48.31
1000.874	68.26
1001.036	-11.37
1001.199	91.32
1001.361	-6.14
1001.524	47.53
1001.687	72.91
1001.849	26.8
1002.012	69.23
1002.174	45.79
1002.337	44.82
1002.499	13.82
1002.661	81.05
1002.824	10.72
1002.986	18.28
1003.149	21.96
1003.311	32.81
1003.473	92.29
1003.636	7.81
1003.798	56.64
1003.96	70.2
1004.123	32.42
1004.285	23.12
1004.447	50.05
1004.609	40.95
1004.771	87.64
1004.933	-8.46
1005.096	-8.46
1005.258	-5.94
1005.42	7.43
1005.582	73.3
1005.744	39.2
1005.906	1.42
1006.068	46.18
1006.23	-12.72
1006.392	-21.25
1006.554	6.07
1006.716	63.03
1006.878	62.84
1007.04	-4.59
1007.202	19.63
1007.363	40.56
1007.525	71.75
1007.687	32.03
1007.849	74.27
1008.011	-12.72
1008.172	16.73
1008.334	49.08
1008.496	48.11
1008.658	-23.77
1008.819	13.05
1008.981	-30.55
1009.143	29.13
1009.304	30.1
1009.466	23.12
1009.627	71.36
1009.789	126.39
1009.95	47.15
1010.112	8.78
1010.273	17.31
1010.435	-13.11
1010.596	21.57
1010.758	43.85
1010.919	13.05
1011.081	-7.69
1011.242	-7.3
1011.403	38.43
1011.565	24.86
1011.726	37.07
1011.887	-15.05
1012.049	48.5
1012.21	53.35
1012.371	82.6
1012.532	-33.65
1012.693	31.65
1012.855	19.05
1013.016	10.72
1013.177	61.29
1013.338	24.67
1013.499	84.54
1013.66	44.43
1013.821	45.6
1013.982	37.07
1014.143	18.66
1014.304	31.26
1014.465	30.48
1014.626	68.07
1014.787	12.46
1014.948	84.34
1015.109	-34.03
1015.27	29.71
1015.431	-11.95
1015.592	-4.2
1015.752	55.86
1015.913	50.83
1016.074	40.36
1016.235	8.59
1016.395	5.88
1016.556	13.82
1016.717	21.57
1016.877	73.88
1017.038	-0.13
1017.199	8.4
1017.359	12.08
1017.52	32.03
1017.681	2.97
1017.841	24.48
1018.002	16.34
1018.162	-3.62
1018.323	66.52
1018.483	31.84
1018.644	6.46
1018.804	-43.53
1018.964	-6.72
1019.125	2
1019.285	26.61
1019.446	-24.35
1019.606	-6.91
1019.766	-30.55
1019.926	57.03
1020.087	38.62
1020.247	-45.47
1020.407	55.67
1020.567	42.69
1020.728	0.06
1020.888	-4
1021.048	9.36
1021.208	-1.49
1021.368	-19.31
1021.528	44.43
1021.688	12.85
1021.848	66.13
1022.008	6.65
1022.168	6.26
1022.328	12.46
1022.488	28.93
1022.648	4.13
1022.808	-0.32
1022.968	20.02
1023.128	0.84
1023.288	24.67
1023.448	13.63
1023.608	19.25
1023.767	47.53
1023.927	-25.32
1024.087	-11.37
1024.247	-17.95
1024.406	0.84
1024.566	-11.95
1024.726	-21.64
1024.885	8.78
1025.045	38.23
1025.205	8.59
1025.364	7.23
1025.524	9.56
1025.683	27.19
1025.843	55.28
1026.003	25.06
1026.162	65.74
1026.321	37.65
1026.481	-3.42
1026.64	-1.29
1026.8	8.78
1026.959	14.21
1027.119	19.25
1027.278	-1.1
1027.437	22.35
1027.597	13.24
1027.756	40.36
1027.915	29.71
1028.074	34.75
1028.234	0.65
1028.393	19.25
1028.552	10.72
1028.711	-52.63
1028.87	33
1029.03	-31.71
1029.189	-1.87
1029.348	-50.31
1029.507	-5.36
1029.666	-33.84
1029.825	-11.75
1029.984	-24.93
1030.143	29.51
1030.302	1.81
1030.461	-35.78
1030.62	-14.66
1030.779	15.37
1030.938	-25.9
1031.097	-26.09
1031.255	30.68
1031.414	51.6
1031.573	51.02
1031.732	-53.22
1031.891	15.18
1032.049	45.79
1032.208	56.83
1032.367	1.81
1032.525	-4.39
1032.684	8.2
1032.843	-4.2
1033.001	-57.28
1033.16	156.03
1033.319	53.73
1033.477	-1.29
1033.636	-17.95
1033.794	-30.55
1033.953	43.85
1034.111	20.21
1034.27	-5.36
1034.428	37.07
1034.587	-24.15
1034.745	21.18
1034.903	15.95
1035.062	31.84
1035.22	-38.1
1035.378	16.34
1035.537	-42.75
1035.695	25.25
1035.853	8.4
1036.011	56.83
1036.17	47.15
1036.328	-37.33
1036.486	43.27
1036.644	1.42
1036.802	-89.25
1036.96	-48.95
1037.119	0.06
1037.277	-35.78
1037.435	-37.33
1037.593	-34.62
1037.751	-11.17
1037.909	31.65
1038.067	31.65
