Data from pine_FLMT105791__101__17-22-00-076.txt Node

Date: Mon Mar 20 17:22:00 GMT 2023
User: antho
Spectrometer: FLMT10579
Trigger mode: 0
Integration Time (sec): 1.000000E-1
Scans to average: 10
Electric dark correction enabled: true
Nonlinearity correction enabled: false
Boxcar width: 0
XAxis mode: Wavelengths
Number of Pixels in Spectrum: 3648
>>>>>Begin Spectral Data<<<<<
345.248	-182.04
345.464	-182.04
345.681	-182.04
345.898	-177.78
346.114	-159.18
346.331	-36.34
346.548	19.07
346.764	-20.65
346.981	29.34
347.197	-33.05
347.414	33.41
347.631	-21.62
347.847	65.37
348.064	2.21
348.28	7.06
348.497	-56.88
348.713	12.09
348.93	52.59
349.146	9.96
349.363	9.96
349.579	28.56
349.796	-1.08
350.012	-19.29
350.229	47.94
350.445	37.67
350.661	-33.63
350.878	4.34
351.094	24.69
351.311	23.52
351.527	41.93
351.743	15.58
351.96	26.43
352.176	43.48
352.392	57.82
352.609	46.39
352.825	32.24
353.041	13.06
353.257	7.83
353.474	6.67
353.69	17.52
353.906	33.41
354.122	-17.74
354.339	41.35
354.555	27.59
354.771	18.29
354.987	56.85
355.203	47.55
355.42	1.82
355.636	-1.47
355.852	19.46
356.068	19.84
356.284	-22.98
356.5	64.02
356.716	19.07
356.932	27.01
357.148	44.06
357.364	-3.41
357.58	42.51
357.796	64.02
358.012	62.47
358.228	33.21
358.444	-11.93
358.66	61.5
358.876	6.09
359.092	7.83
359.308	14.61
359.524	29.34
359.74	-9.03
359.956	-3.41
360.172	3.96
360.388	52
360.604	19.46
360.819	88.82
361.035	12.87
361.251	45.61
361.467	-0.89
361.683	26.62
361.898	48.91
362.114	45.61
362.33	21.97
362.546	50.07
362.762	14.61
362.977	32.44
363.193	-28.79
363.409	46.19
363.624	-24.53
363.84	-31.5
364.056	2.21
364.271	43.29
364.487	22.94
364.703	-22.78
364.918	-28.59
365.134	-6.89
365.35	6.09
365.565	122.72
365.781	32.05
365.996	5.51
366.212	54.33
366.427	36.12
366.643	-9.61
366.858	2.21
367.074	-13.68
367.289	41.74
367.505	120.4
367.72	-25.3
367.936	10.54
368.151	66.73
368.367	26.24
368.582	51.04
368.798	23.72
369.013	66.15
369.228	23.33
369.444	18.29
369.659	58.98
369.874	34.37
370.09	65.95
370.305	-37.12
370.52	1.24
370.736	55.88
370.951	21.39
371.166	74.09
371.381	75.45
371.597	52.78
371.812	5.12
372.027	-22.01
372.242	15.77
372.458	99.09
372.673	-2.24
372.888	32.24
373.103	35.15
373.318	88.82
373.533	36.31
373.749	48.32
373.964	-21.62
374.179	70.02
374.394	14.81
374.609	66.34
374.824	0.27
375.039	69.25
375.254	7.44
375.469	81.26
375.684	10.35
375.899	64.99
376.114	19.84
376.329	44.06
376.544	68.86
376.759	48.52
376.974	-20.84
377.189	12.87
377.404	12.67
377.619	58.2
377.834	-33.05
378.049	-14.06
378.264	-12.32
378.478	53.36
378.693	2.99
378.908	51.42
379.123	3.96
379.338	74.29
379.553	39.8
379.767	42.71
379.982	22.75
380.197	44.84
380.412	24.3
380.626	55.49
380.841	100.05
381.056	17.71
381.271	74.29
381.485	30.89
381.7	-19.29
381.915	37.28
382.129	23.33
382.344	44.84
382.559	34.96
382.773	66.15
382.988	-7.86
383.202	28.17
383.417	-16.78
383.632	107.03
383.846	-2.24
384.061	33.21
384.275	16.94
384.49	59.95
384.704	60.34
384.919	27.79
385.133	15.97
385.348	64.02
385.562	6.28
385.777	77.39
385.991	31.08
386.206	26.43
386.42	6.28
386.634	56.65
386.849	61.3
387.063	55.88
387.277	-6.7
387.492	20.62
387.706	-13.29
387.92	0.47
388.135	61.89
388.349	41.93
388.563	31.08
388.778	53.36
388.992	50.07
389.206	69.44
389.42	80.87
389.635	9.19
389.849	77.58
390.063	74.87
390.277	62.08
390.491	88.82
390.706	76.22
390.92	70.8
391.134	37.67
391.348	61.89
391.562	-10.96
391.776	46.77
391.99	6.67
392.205	55.69
392.419	-0.31
392.633	-6.89
392.847	72.15
393.061	-1.47
393.275	99.86
393.489	21.97
393.703	48.71
393.917	52.2
394.131	-11.35
394.345	64.4
394.559	79.32
394.773	30.31
394.986	28.76
395.2	24.3
395.414	29.53
395.628	-3.41
395.842	34.37
396.056	35.54
396.27	-10.19
396.484	64.79
396.697	39.99
396.911	77.77
397.125	47.74
397.339	80.1
397.553	31.86
397.766	106.06
397.98	71.38
398.194	75.25
398.408	22.94
398.621	73.51
398.835	61.89
399.049	70.6
399.262	96.37
399.476	82.23
399.69	52.2
399.903	116.14
400.117	52.59
400.331	71.57
400.544	25.07
400.758	106.64
400.971	82.23
401.185	66.34
401.398	10.54
401.612	101.02
401.826	84.36
402.039	73.32
402.253	21.78
402.466	64.02
402.68	41.54
402.893	71.19
403.106	57.43
403.32	28.37
403.533	85.72
403.747	8.8
403.96	70.41
404.174	71.77
404.387	3.57
404.6	59.95
404.814	62.08
405.027	85.14
405.24	51.42
405.454	75.25
405.667	92.69
405.88	-6.12
406.094	78.94
406.307	91.92
406.52	60.92
406.733	42.12
406.947	4.34
407.16	92.3
407.373	99.09
407.586	29.53
407.799	13.84
408.012	95.6
408.226	65.57
408.439	128.73
408.652	25.66
408.865	73.51
409.078	109.35
409.291	85.52
409.504	35.92
409.717	76.03
409.93	63.05
410.143	94.82
410.357	1.63
410.57	24.11
410.783	39.22
410.996	86.69
411.209	54.91
411.421	103.35
411.634	78.55
411.847	25.85
412.06	52.97
412.273	61.89
412.486	60.53
412.699	145.2
412.912	51.42
413.125	89.2
413.338	54.33
413.55	99.67
413.763	59.95
413.976	74.09
414.189	48.71
414.402	70.02
414.615	142.87
414.827	47.16
415.04	112.65
415.253	91.92
415.466	89.59
415.678	151.59
415.891	53.55
416.104	71.77
416.316	71.57
416.529	30.5
416.742	106.84
416.954	104.9
417.167	82.23
417.38	60.72
417.592	110.32
417.805	26.24
418.017	23.33
418.23	77.97
418.442	56.27
418.655	51.81
418.868	91.92
419.08	114.97
419.293	136.87
419.505	73.51
419.718	99.47
419.93	115.94
420.142	81.45
420.355	99.67
420.567	132.41
420.78	114.97
420.992	60.14
421.205	124.08
421.417	38.06
421.629	68.47
421.842	55.88
422.054	53.75
422.266	110.71
422.479	115.55
422.691	54.72
422.903	133.77
423.115	65.95
423.328	65.18
423.54	85.52
423.752	69.83
423.964	70.99
424.177	71.77
424.389	74.29
424.601	200.61
424.813	87.27
425.025	99.28
425.238	114.78
425.45	78.74
425.662	79.32
425.874	374.79
426.086	103.15
426.298	100.44
426.51	92.5
426.722	113.62
426.934	78.94
427.146	133.57
427.358	80.68
427.57	113.62
427.782	126.21
427.994	92.11
428.206	74.09
428.418	43.29
428.63	122.34
428.842	122.92
429.054	99.28
429.266	121.75
429.478	78.55
429.69	122.14
429.902	75.64
430.114	124.66
430.325	130.28
430.537	72.35
430.749	80.87
430.961	38.83
431.173	82.23
431.384	114.2
431.596	36.89
431.808	88.62
432.02	111.49
432.231	115.55
432.443	139.77
432.655	105.48
432.867	78.94
433.078	101.02
433.29	169.22
433.502	135.12
433.713	128.34
433.925	132.99
434.136	164.38
434.348	83.97
434.56	60.72
434.771	204.48
434.983	68.47
435.194	93.47
435.406	102.96
435.617	128.15
435.829	161.67
436.04	165.73
436.252	149.07
436.463	176.78
436.675	161.86
436.886	163.41
437.098	142.48
437.309	190.73
437.521	126.79
437.732	140.55
437.943	134.93
438.155	151.4
438.366	75.64
438.578	201.97
438.789	143.84
439	172.52
439.211	124.47
439.423	155.85
439.634	156.05
439.845	155.85
440.057	142.48
440.268	173.87
440.479	110.71
440.69	125.44
440.902	132.41
441.113	112.26
441.324	135.9
441.535	150.62
441.746	228.31
441.957	116.72
442.168	126.4
442.38	159.53
442.591	188.6
442.802	131.44
443.013	153.14
443.224	156.05
443.435	138.03
443.646	132.8
443.857	180.07
444.068	125.05
444.279	151.98
444.49	206.03
444.701	120.98
444.912	233.93
445.123	179.88
445.334	164.57
445.545	181.62
445.756	181.23
445.967	142.1
446.178	175.42
446.388	203.13
446.599	194.22
446.81	194.6
447.021	145
447.232	189.57
447.443	202.93
447.653	149.27
447.864	199.06
448.075	151.4
448.286	197.7
448.496	170.38
448.707	209.33
448.918	167.87
449.129	265.71
449.339	152.75
449.55	186.47
449.761	166.32
449.971	221.73
450.182	158.76
450.393	217.47
450.603	162.25
450.814	216.5
451.024	204.29
451.235	219.02
451.446	255.44
451.656	249.43
451.867	171.93
452.077	209.33
452.288	251.76
452.498	259.7
452.709	207.2
452.919	230.83
453.13	168.45
453.34	239.55
453.55	141.71
453.761	241.3
453.971	235.48
454.182	226.96
454.392	232.58
454.602	279.66
454.813	228.7
455.023	235.1
455.233	198.87
455.444	225.41
455.654	140.55
455.864	209.33
456.075	180.27
456.285	158.57
456.495	198.48
456.705	218.05
456.916	233.16
457.126	273.65
457.336	221.34
457.546	154.5
457.756	186.85
457.967	238.78
458.177	196.73
458.387	236.26
458.597	179.88
458.807	228.51
459.017	187.24
459.227	202.93
459.437	213.2
459.647	238.39
459.857	244.98
460.068	180.65
460.278	244.01
460.488	214.95
460.698	295.35
460.908	203.9
461.117	185.11
461.327	187.24
461.537	217.08
461.747	232.77
461.957	251.56
462.167	357.16
462.377	251.76
462.587	231.22
462.797	243.23
463.007	227.15
463.216	263.77
463.426	262.61
463.636	269.39
463.846	208.55
464.056	259.7
464.265	290.12
464.475	205.84
464.685	233.16
464.895	295.74
465.104	252.34
465.314	264.93
465.524	263.19
465.733	211.46
465.943	302.52
466.153	275.01
466.362	247.11
466.572	262.22
466.782	242.26
466.991	242.07
467.201	333.71
467.41	206.81
467.62	250.79
467.829	248.66
468.039	278.11
468.249	244.01
468.458	240.71
468.668	286.83
468.877	275.59
469.086	303.68
469.296	325.19
469.505	231.41
469.715	307.56
469.924	276.56
470.134	305.23
470.343	312.79
470.552	254.47
470.762	281.4
470.971	240.13
471.18	268.03
471.39	254.28
471.599	213.01
471.808	288.76
472.018	232.58
472.227	285.66
472.436	320.93
472.645	283.92
472.855	261.64
473.064	331
473.273	269.39
473.482	314.34
473.691	336.04
473.901	318.41
474.11	300.58
474.319	369.56
474.528	298.06
474.737	325.58
474.946	324.03
475.155	307.17
475.364	371.69
475.573	323.64
475.783	330.42
475.992	319.57
476.201	353.67
476.41	284.5
476.619	292.45
476.828	300.39
477.037	294.77
477.245	306.98
477.454	325.38
477.663	311.05
477.872	269.78
478.081	366.07
478.29	281.98
478.499	419.74
478.708	325.96
478.917	393
479.125	329.45
479.334	344.95
479.543	335.65
479.752	337.2
479.961	368.39
480.169	380.41
480.378	324.99
480.587	451.51
480.796	370.14
481.004	329.06
481.213	378.86
481.422	352.7
481.63	359.68
481.839	398.81
482.048	409.27
482.256	357.54
482.465	364.91
482.674	373.04
482.882	397.84
483.091	442.41
483.299	383.7
483.508	394.94
483.716	394.74
483.925	379.24
484.134	387.77
484.342	381.96
484.551	419.74
484.759	405.79
484.967	417.02
485.176	420.12
485.384	429.81
485.593	446.47
485.801	432.14
486.01	414.51
486.218	411.41
486.426	343.01
486.635	378.08
486.843	332.94
487.051	394.16
487.26	378.66
487.468	401.33
487.676	411.02
487.885	375.18
488.093	383.7
488.301	428.84
488.509	404.24
488.717	461.2
488.926	393.97
489.134	410.44
489.342	430.2
489.55	380.21
489.758	417.99
489.967	418.77
490.175	513.7
490.383	406.76
490.591	474.76
490.799	394.94
491.007	490.45
491.215	436.59
491.423	450.74
491.631	432.33
491.839	448.02
492.047	486
492.255	381.38
492.463	416.06
492.671	424.77
492.879	470.69
493.087	420.71
493.295	474.18
493.503	481.16
493.711	482.71
493.919	518.35
494.127	495.3
494.334	504.99
494.542	441.05
494.75	456.94
494.958	438.53
495.166	528.24
495.374	487.55
495.581	488.13
495.789	514.67
495.997	528.43
496.205	455.58
496.412	448.8
496.62	487.36
496.828	507.7
497.035	480.57
497.243	519.9
497.451	500.72
497.658	515.64
497.866	484.84
498.074	533.08
498.281	475.34
498.489	562.92
498.696	503.44
498.904	467.4
499.112	490.65
499.319	564.47
499.527	479.41
499.734	543.93
499.942	470.69
500.149	457.13
500.357	510.22
500.564	441.82
500.771	545.48
500.979	489.68
501.186	494.33
501.394	507.7
501.601	497.82
501.808	533.08
502.016	519.9
502.223	502.27
502.43	518.55
502.638	511.57
502.845	479.22
503.052	560.4
503.26	460.42
503.467	576.28
503.674	531.34
503.881	518.94
504.089	607.87
504.296	550.71
504.503	502.47
504.71	547.61
504.917	492
505.125	539.47
505.332	516.03
505.539	555.55
505.746	577.45
505.953	564.27
506.16	566.02
506.367	604.77
506.574	617.75
506.781	622.78
506.988	528.24
507.195	560.4
507.402	549.94
507.609	615.62
507.816	553.62
508.023	561.56
508.23	567.95
508.437	514.87
508.644	609.22
508.851	641.58
509.058	592.17
509.265	567.76
509.472	620.07
509.679	685.56
509.885	588.68
510.092	590.43
510.299	588.1
510.506	583.26
510.713	609.42
510.92	585.97
511.126	647.78
511.333	667.73
511.54	646.81
511.746	666.76
511.953	641.19
512.16	654.95
512.367	613.48
512.573	631.89
512.78	623.75
512.987	652.82
513.193	631.5
513.4	549.74
513.606	598.76
513.813	640.03
514.02	640.22
514.226	698.15
514.433	673.35
514.639	617.75
514.846	639.45
515.052	602.83
515.259	654.37
515.465	636.73
515.672	642.55
515.878	737.1
516.085	673.35
516.291	682.65
516.497	641.77
516.704	639.25
516.91	623.17
517.117	601.67
517.323	560.4
517.529	616.58
517.736	602.05
517.942	644.29
518.148	602.63
518.354	655.92
518.561	642.93
518.767	627.82
518.973	665.6
519.179	669.86
519.386	641
519.592	623.37
519.798	647.58
520.004	691.95
520.21	680.52
520.417	701.83
520.623	735.16
520.829	735.16
521.035	721.01
521.241	707.45
521.447	731.28
521.653	847.92
521.859	715.4
522.065	738.45
522.271	801.61
522.477	782.82
522.683	819.05
522.889	738.45
523.095	784.37
523.301	752.4
523.507	722.56
523.713	749.11
523.919	705.51
524.125	789.6
524.331	756.86
524.537	807.23
524.742	798.71
524.948	841.14
525.154	815.76
525.36	914.76
525.566	800.26
525.772	845.21
525.977	771
526.183	832.42
526.389	848.31
526.595	792.89
526.8	780.49
527.006	789.21
527.212	738.45
527.417	755.89
527.623	765.96
527.829	836.88
528.034	804.71
528.24	814.4
528.446	801.23
528.651	866.71
528.857	851.99
529.062	911.08
529.268	830.09
529.473	846.76
529.679	833.39
529.884	905.27
530.09	884.73
530.295	927.16
530.501	898.87
530.706	874.85
530.912	857.41
531.117	868.07
531.323	882.6
531.528	907.98
531.733	899.84
531.939	843.27
532.144	927.16
532.35	895
532.555	925.22
532.76	905.07
532.966	934.14
533.171	901.59
533.376	892.29
533.581	835.91
533.787	895.97
533.992	913.41
534.197	934.33
534.402	881.44
534.607	879.5
534.813	1011.25
535.018	899.84
535.223	890.54
535.428	935.69
535.633	939.75
535.838	959.32
536.043	927.74
536.249	1001.56
536.454	950.6
536.659	950.99
536.864	913.02
537.069	953.7
537.274	938.4
537.479	960.87
537.684	970.56
537.889	955.06
538.094	1046.32
538.299	964.55
538.504	970.37
538.708	960.1
538.913	966.49
539.118	984.32
539.323	963.39
539.528	924.64
539.733	957.97
539.938	974.05
540.142	995.75
540.347	933.55
540.552	973.85
540.757	958.74
540.962	933.17
541.166	888.8
541.371	926.58
541.576	972.11
541.781	843.27
541.985	973.85
542.19	978.89
542.395	1015.51
542.599	1038.18
542.804	998.27
543.008	1057.17
543.213	958.35
543.418	914.37
543.622	1013.96
543.827	926.58
544.031	1011.64
544.236	1025.97
544.44	1023.84
544.645	1074.99
544.849	986.45
545.054	1014.93
545.258	1093.59
545.463	1037.98
545.667	992.07
545.872	1020.55
546.076	991.29
546.281	1009.12
546.485	996.14
546.689	1032.37
546.894	1043.6
547.098	1015.51
547.302	962.42
547.507	993.62
547.711	1032.17
547.915	1056.78
548.119	967.65
548.324	999.62
548.528	1052.32
548.732	1016.28
548.936	1030.23
549.141	1076.54
549.345	993.04
549.549	1029.07
549.753	1007.76
549.957	1095.72
550.161	1088.75
550.366	1041.67
550.57	1029.27
550.774	1015.12
550.978	1031.4
551.182	1064.72
551.386	1019.77
551.59	1005.82
551.794	1040.5
551.998	1047.67
552.202	1005.44
552.406	989.74
552.61	1042.25
552.814	1050
553.018	1061.82
553.222	1009.89
553.426	1018.61
553.63	1109.48
553.833	1013.57
554.037	940.34
554.241	1051.35
554.445	1021.71
554.649	1023.26
554.853	982.38
555.056	1040.89
555.26	1048.06
555.464	1041.67
555.668	1046.32
555.871	1050
556.075	1072.08
556.279	1005.24
556.483	1015.12
556.686	1020.93
556.89	1019.77
557.094	1044.57
557.297	967.46
557.501	1083.71
557.704	983.54
557.908	1077.9
558.112	980.64
558.315	1082.35
558.519	1012.41
558.722	1015.9
558.926	972.89
559.129	963.2
559.333	958.55
559.536	963
559.74	941.11
559.943	993.42
560.147	960.1
560.35	986.84
560.553	974.63
560.757	925.22
560.96	1060.85
561.164	975.99
561.367	1042.05
561.57	978.31
561.774	994.2
561.977	1000.79
562.18	976.57
562.384	1063.17
562.587	981.02
562.79	958.94
562.993	975.6
563.197	1023.26
563.4	1035.47
563.603	1059.3
563.806	1078.28
564.009	982.77
564.212	970.17
564.416	937.24
564.619	982.38
564.822	923.67
565.025	1007.95
565.228	965.52
565.431	946.54
565.634	881.24
565.837	949.05
566.04	942.66
566.243	933.75
566.446	862.64
566.649	962.62
566.852	900.04
567.055	930.65
567.258	975.4
567.461	1006.6
567.664	968.24
567.867	883.18
568.07	953.9
568.273	931.04
568.475	968.24
568.678	935.69
568.881	920.19
569.084	932.97
569.287	887.25
569.489	910.69
569.692	936.65
569.895	955.45
570.098	892.29
570.3	880.47
570.503	825.25
570.706	841.33
570.909	861.67
571.111	824.28
571.314	838.42
571.516	826.61
571.719	871.36
571.922	831.84
572.124	857.8
572.327	864.39
572.529	805.49
572.732	817.89
572.935	851.41
573.137	903.52
573.34	801.23
573.542	865.16
573.745	891.9
573.947	845.21
574.15	853.34
574.352	789.99
574.554	908.76
574.757	793.09
574.959	802.78
575.162	786.69
575.364	830.87
575.566	907.59
575.769	792.89
575.971	809.17
576.173	721.98
576.376	846.56
576.578	861.48
576.78	891.12
576.982	744.26
577.185	815.18
577.387	749.88
577.589	739.23
577.791	848.11
577.993	831.64
578.196	805.1
578.398	815.37
578.6	857.99
578.802	750.85
579.004	764.03
579.206	752.98
579.408	805.49
579.61	768.68
579.812	835.13
580.014	780.11
580.216	774.1
580.418	794.25
580.62	770.61
580.822	742.52
581.024	795.03
581.226	827.38
581.428	762.86
581.63	834.36
581.832	759.18
582.034	844.24
582.236	786.5
582.438	838.04
582.64	840.75
582.841	862.64
583.043	891.12
583.245	831.84
583.447	811.88
583.649	813.24
583.85	836.49
584.052	823.7
584.254	768.68
584.456	841.33
584.657	778.75
584.859	804.52
585.061	798.32
585.262	787.86
585.464	752.4
585.666	833.58
585.867	767.71
586.069	877.37
586.27	839.59
586.472	772.55
586.674	765.77
586.875	780.49
587.077	772.16
587.278	770.81
587.48	764.8
587.681	908.56
587.883	798.9
588.084	742.33
588.285	758.99
588.487	783.21
588.688	790.76
588.89	735.55
589.091	705.51
589.292	747.17
589.494	743.1
589.695	714.62
589.896	672.77
590.098	635.38
590.299	753.56
590.5	665.41
590.702	695.63
590.903	681.3
591.104	760.15
591.305	756.86
591.507	786.11
591.708	739.23
591.909	714.23
592.11	783.79
592.311	766.93
592.512	719.85
592.714	678
592.915	677.03
593.116	710.94
593.317	703.38
593.518	718.88
593.719	711.91
593.92	733.22
594.121	760.73
594.322	732.25
594.523	774.1
594.724	673.16
594.925	726.44
595.126	733.22
595.327	756.08
595.528	758.41
595.729	730.31
595.929	735.55
596.13	709.39
596.331	737.68
596.532	729.15
596.733	799.48
596.934	758.02
597.135	777.98
597.335	757.83
597.536	708.23
597.737	728.57
597.938	693.5
598.138	737.87
598.339	706.29
598.54	719.85
598.74	713.46
598.941	711.52
599.142	758.6
599.342	758.6
599.543	694.47
599.744	696.99
599.944	699.51
600.145	706.48
600.345	727.99
600.546	798.71
600.746	774.1
600.947	797.16
601.147	722.76
601.348	770.81
601.548	699.31
601.749	710.36
601.949	687.5
602.15	709.2
602.35	717.14
602.551	759.57
602.751	689.05
602.951	702.41
603.152	640.42
603.352	737.1
603.552	729.93
603.753	730.12
603.953	752.01
604.153	725.66
604.354	726.25
604.554	689.63
604.754	708.23
604.954	667.15
605.155	724.31
605.355	718.88
605.555	759.38
605.755	786.69
605.955	744.85
606.155	755.5
606.356	714.04
606.556	726.25
606.756	757.24
606.956	679.16
607.156	765.19
607.356	678
607.556	732.45
607.756	706.68
607.956	777.59
608.156	699.9
608.356	701.45
608.556	714.81
608.756	731.48
608.956	675.29
609.156	714.43
609.356	691.37
609.556	669.67
609.755	686.72
609.955	681.1
610.155	688.85
610.355	717.53
610.555	670.25
610.755	682.46
610.954	628.02
611.154	695.25
611.354	747.36
611.554	694.08
611.753	691.37
611.953	626.66
612.153	701.64
612.352	693.11
612.552	678.39
612.752	643.71
612.951	662.89
613.151	697.96
613.351	629.76
613.55	671.41
613.75	686.72
613.949	670.45
614.149	698.73
614.348	682.85
614.548	672.38
614.747	609.61
614.947	636.15
615.146	621.23
615.346	666.38
615.545	637.12
615.745	673.55
615.944	717.33
616.144	673.74
616.343	668.12
616.542	643.71
616.742	664.25
616.941	661.53
617.14	584.03
617.34	664.44
617.539	660.37
617.738	660.57
617.938	699.31
618.137	631.89
618.336	604.38
618.535	644.87
618.734	649.33
618.934	667.15
619.133	661.73
619.332	647.58
619.531	612.9
619.73	610.77
619.929	644.48
620.128	658.63
620.328	686.72
620.527	626.66
620.726	636.54
620.925	629.18
621.124	616.58
621.323	658.24
621.522	604.38
621.721	599.15
621.92	605.15
622.119	660.37
622.318	628.79
622.517	607.28
622.715	623.75
622.914	560.01
623.113	608.64
623.312	554
623.511	628.21
623.71	594.5
623.909	581.13
624.107	651.07
624.306	568.34
624.505	566.79
624.704	583.84
624.902	597.02
625.101	647.39
625.3	624.72
625.499	574.93
625.697	597.02
625.896	588.1
626.095	597.02
626.293	537.73
626.492	579.77
626.69	616.2
626.889	570.47
627.088	634.41
627.286	580.16
627.485	584.42
627.683	561.37
627.882	601.67
628.08	520.87
628.279	601.67
628.477	632.28
628.676	573.96
628.874	588.88
629.073	558.46
629.271	557.49
629.469	595.85
629.668	569.31
629.866	576.87
630.065	555.17
630.263	579.38
630.461	546.25
630.66	579.97
630.858	600.7
631.056	608.06
631.254	625.11
631.453	540.44
631.651	607.09
631.849	565.24
632.047	607.28
632.245	540.25
632.444	593.53
632.642	572.22
632.84	605.15
633.038	581.9
633.236	530.75
633.434	540.25
633.632	536.37
633.83	566.02
634.028	581.52
634.227	589.65
634.425	631.5
634.623	563.69
634.821	578.42
635.019	616
635.216	561.75
635.414	596.43
635.612	594.11
635.81	568.15
636.008	615.42
636.206	584.03
636.404	599.92
636.602	546.06
636.8	595.85
636.997	609.22
637.195	605.73
637.393	567.95
637.591	634.99
637.789	591.01
637.986	575.51
638.184	574.93
638.382	609.22
638.58	627.05
638.777	629.18
638.975	605.54
639.173	547.42
639.37	591.2
639.568	598.95
639.765	596.05
639.963	572.8
640.161	633.63
640.358	583.07
640.556	586.55
640.753	532.69
640.951	546.25
641.148	575.9
641.346	552.45
641.543	553.23
641.741	592.75
641.938	520.1
642.136	563.69
642.333	520.87
642.531	626.85
642.728	569.5
642.925	591.59
643.123	538.5
643.32	572.02
643.517	577.45
643.715	572.22
643.912	541.6
644.109	549.16
644.306	542.96
644.504	506.15
644.701	580.93
644.898	558.85
645.095	491.04
645.293	511.77
645.49	560.01
645.687	574.54
645.884	576.48
646.081	494.14
646.278	516.61
646.475	512.93
646.672	512.35
646.87	544.12
647.067	529.98
647.264	523.59
647.461	471.08
647.658	473.6
647.855	551.1
648.052	485.42
648.249	432.14
648.446	488.9
648.642	498.01
648.839	479.8
649.036	483.87
649.233	478.06
649.43	471.86
649.627	477.47
649.824	464.49
650.021	495.69
650.217	485.42
650.414	485.03
650.611	510.02
650.808	479.22
651.004	513.7
651.201	505.95
651.398	541.99
651.595	503.24
651.791	457.32
651.988	517.39
652.185	483.09
652.381	505.18
652.578	462.56
652.775	506.54
652.971	477.86
653.168	483.09
653.364	516.42
653.561	422.06
653.757	451.9
653.954	473.6
654.15	464.11
654.347	554.97
654.543	468.56
654.74	454.42
654.936	428.07
655.133	489.29
655.329	495.1
655.525	458.1
655.722	509.05
655.918	436.59
656.115	510.8
656.311	421.29
656.507	403.27
656.704	399.59
656.9	413.92
657.096	423.22
657.292	425.16
657.489	496.65
657.685	468.95
657.881	450.54
658.077	430.59
658.273	457.32
658.47	501.89
658.666	449.38
658.862	487.36
659.058	445.51
659.254	506.15
659.45	439.11
659.646	496.65
659.842	439.89
660.038	510.22
660.234	408.69
660.43	450.93
660.626	529.4
660.822	487.36
661.018	483.87
661.214	458.68
661.41	431.36
661.606	514.48
661.802	473.6
661.998	454.81
662.194	425.94
662.39	494.14
662.586	490.07
662.781	455.77
662.977	469.34
663.173	490.26
663.369	466.62
663.564	465.07
663.76	501.11
663.956	450.93
664.152	519.52
664.347	394.94
664.543	449.38
664.739	477.09
664.934	401.52
665.13	421.87
665.326	459.07
665.521	470.89
665.717	430.2
665.912	409.86
666.108	387.58
666.304	429.04
666.499	436.79
666.695	385.06
666.89	400.56
667.086	488.9
667.281	440.47
667.477	479.41
667.672	444.34
667.867	423.03
668.063	454.42
668.258	405.79
668.454	430.59
668.649	507.89
668.844	455.19
669.04	464.3
669.235	426.52
669.43	436.59
669.626	384.09
669.821	431.94
670.016	399.59
670.211	413.73
670.407	396.29
670.602	433.49
670.797	413.92
670.992	470.5
671.187	398.43
671.382	440.66
671.578	413.34
671.773	458.1
671.968	400.17
672.163	416.06
672.358	462.36
672.553	416.25
672.748	394.55
672.943	499.37
673.138	437.17
673.333	455.58
673.528	413.34
673.723	440.08
673.918	396.29
674.113	357.54
674.308	514.29
674.503	424.77
674.698	438.92
674.892	448.8
675.087	466.62
675.282	432.91
675.477	379.83
675.672	430.39
675.867	400.36
676.061	391.26
676.256	384.09
676.451	378.86
676.646	428.46
676.84	391.06
677.035	370.91
677.23	369.75
677.424	424.58
677.619	439.89
677.814	421.09
678.008	432.52
678.203	377.31
678.397	363.74
678.592	404.24
678.787	484.84
678.981	404.82
679.176	411.02
679.37	433.88
679.565	386.41
679.759	368.39
679.954	416.64
680.148	455.19
680.342	448.02
680.537	400.36
680.731	397.26
680.926	441.63
681.12	436.21
681.314	391.45
681.509	400.75
681.703	405.4
681.897	413.73
682.092	405.01
682.286	389.9
682.48	489.1
682.674	453.64
682.869	389.32
683.063	396.88
683.257	481.16
683.451	389.51
683.645	382.54
683.839	410.44
684.034	415.28
684.228	432.52
684.422	360.45
684.616	376.34
684.81	420.32
685.004	420.12
685.198	428.65
685.392	443.76
685.586	392.81
685.78	390.68
685.974	425.16
686.168	398.04
686.362	448.99
686.556	366.07
686.75	362.39
686.944	395.33
687.138	407.34
687.331	298.65
687.525	344.37
687.719	315.89
687.913	361.81
688.107	358.13
688.301	325.19
688.494	365.68
688.688	306.01
688.882	304.26
689.076	329.06
689.269	328.48
689.463	419.16
689.657	366.65
689.85	329.06
690.044	350.96
690.238	362.58
690.431	356.96
690.625	341.08
690.818	371.3
691.012	387.38
691.205	390.29
691.399	329.45
691.593	402.3
691.786	436.01
691.98	412.57
692.173	442.41
692.366	424
692.56	416.83
692.753	483.87
692.947	418.19
693.14	463.72
693.333	477.09
693.527	414.12
693.72	431.75
693.914	451.71
694.107	423.61
694.3	438.14
694.493	403.85
694.687	466.82
694.88	432.52
695.073	509.25
695.266	494.14
695.46	459.46
695.653	486.97
695.846	493.75
696.039	430.01
696.232	454.61
696.425	513.12
696.618	506.73
696.812	492
697.005	546.25
697.198	607.09
697.391	547.03
697.584	530.56
697.777	612.71
697.97	619.3
698.163	549.55
698.356	561.17
698.549	642.55
698.742	598.37
698.935	573.19
699.127	606.51
699.32	567.18
699.513	544.12
699.706	607.28
699.899	613.1
700.092	586.17
700.285	664.44
700.477	563.89
700.67	622.98
700.863	606.7
701.056	711.91
701.248	674.71
701.441	692.34
701.634	634.22
701.826	722.76
702.019	597.6
702.212	710.36
702.404	621.04
702.597	642.74
702.79	652.82
702.982	672.58
703.175	710.16
703.367	728.38
703.56	726.63
703.752	819.83
703.945	753.95
704.137	763.06
704.33	762.67
704.522	758.79
704.715	757.05
704.907	782.63
705.1	810.91
705.292	818.28
705.484	791.73
705.677	827.58
705.869	812.27
706.061	861.29
706.254	883.18
706.446	841.72
706.638	830.09
706.831	909.53
707.023	870.01
707.215	963.2
707.407	945.76
707.599	949.25
707.792	935.88
707.984	943.82
708.176	977.92
708.368	907.4
708.56	938.2
708.752	937.82
708.944	929.68
709.136	978.89
709.329	935.88
709.521	1058.91
709.713	1057.94
709.905	1027.91
710.097	1061.43
710.289	1011.05
710.481	1010.67
710.672	1056.58
710.864	1016.48
711.056	1091.07
711.248	1088.36
711.44	1073.44
711.632	1068.02
711.824	1061.82
712.016	1120.33
712.207	1136.8
712.399	1125.56
712.591	1153.26
712.783	1122.26
712.975	1162.56
713.166	1083.9
713.358	1112.38
713.55	1175.55
713.741	1174.96
713.933	1186.01
714.125	1188.14
714.316	1152.88
714.508	1224.37
714.7	1208.29
714.891	1209.06
715.083	1263.51
715.274	1215.26
715.466	1221.66
715.657	1296.44
715.849	1170.7
716.04	1249.36
716.232	1135.25
716.423	1261.76
716.615	1174.19
716.806	1157.72
716.998	1177.68
717.189	1128.08
717.381	1072.86
717.572	1045.93
717.763	1088.55
717.955	1065.11
718.146	1053.1
718.337	1025
718.528	1018.22
718.72	955.84
718.911	1014.73
719.102	958.94
719.293	1036.05
719.485	998.85
719.676	995.94
719.867	964.36
720.058	955.45
720.249	986.64
720.44	975.6
720.632	1030.23
720.823	1065.5
721.014	1152.3
721.205	1109.28
721.396	1168.18
721.587	1241.81
721.778	1244.91
721.969	1275.52
722.16	1313.49
722.351	1288.11
722.542	1406.88
722.733	1378.98
722.924	1291.79
723.115	1353.6
723.305	1346.82
723.496	1385.95
723.687	1267.77
723.878	1334.22
724.069	1305.74
724.26	1325.12
724.45	1261.96
724.641	1237.16
724.832	1292.57
725.023	1283.85
725.213	1293.73
725.404	1273.19
725.595	1274.74
725.785	1249.56
725.976	1326.67
726.167	1308.84
726.357	1308.07
726.548	1380.72
726.739	1332.87
726.929	1372.78
727.12	1401.26
727.31	1401.26
727.501	1371.23
727.691	1383.63
727.882	1379.17
728.072	1419.09
728.263	1423.15
728.453	1449.5
728.644	1406.3
728.834	1400.68
729.024	1424.7
729.215	1404.75
729.405	1416.18
729.596	1494.45
729.786	1464.81
729.976	1487.87
730.167	1519.25
730.357	1462.29
730.547	1484.77
730.737	1527.97
730.928	1533.59
731.118	1580.86
731.308	1494.07
731.498	1520.22
731.688	1619.23
731.879	1571.76
732.069	1629.69
732.259	1601.6
732.449	1656.04
732.639	1694.21
732.829	1718.04
733.019	1742.45
733.209	1758.72
733.399	1763.76
733.589	1815.3
733.779	1813.36
733.969	1816.85
734.159	1825.37
734.349	1928.06
734.539	1932.9
734.729	1905.97
734.919	1959.25
735.109	2003.23
735.299	1943.17
735.488	1984.05
735.678	1975.91
735.868	1962.93
736.058	1970.1
736.248	1953.44
736.437	1899.58
736.627	1927.48
736.817	2023.58
737.007	1928.25
737.196	2018.73
737.386	1983.28
737.576	1945.5
737.765	2018.35
737.955	1990.83
738.144	2073.76
738.334	2042.76
738.524	1989.28
738.713	2035.98
738.903	2040.43
739.092	2072.4
739.282	2030.16
739.471	2081.51
739.661	2007.11
739.85	2097.2
740.04	2109.02
740.229	2114.44
740.419	2127.23
740.608	2112.31
740.797	2126.84
740.987	2176.83
741.176	2185.36
741.365	2128.98
741.555	2128.78
741.744	2166.95
741.933	2146.99
742.123	2195.62
742.312	2203.18
742.501	2197.76
742.69	2241.15
742.88	2153.77
743.069	2246.58
743.258	2181.67
743.447	2256.65
743.636	2207.44
743.825	2228.95
744.014	2209.38
744.204	2235.34
744.393	2216.36
744.582	2251.42
744.771	2278.16
744.96	2188.46
745.149	2293.08
745.338	2206.86
745.527	2267.31
745.716	2260.14
745.905	2240.57
746.094	2275.45
746.283	2268.86
746.471	2248.32
746.66	2297.73
746.849	2250.65
747.038	2307.22
747.227	2229.53
747.416	2332.41
747.604	2231.27
747.793	2250.07
747.982	2290.37
748.171	2253.17
748.359	2345.78
748.548	2256.46
748.737	2270.8
748.926	2276.61
749.114	2221.01
749.303	2300.25
749.491	2233.02
749.68	2231.66
749.869	2278.35
750.057	2258.98
750.246	2246.97
750.434	2220.42
750.623	2290.75
750.811	2244.06
751	2308.97
751.188	2243.48
751.377	2267.5
751.565	2219.07
751.754	2181.87
751.942	2243.48
752.131	2258.4
752.319	2229.34
752.507	2149.32
752.696	2234.76
752.884	2299.09
753.072	2223.52
753.261	2225.85
753.449	2223.33
753.637	2189.04
753.825	2304.12
754.014	2183.22
754.202	2252.39
754.39	2262.66
754.578	2279.71
754.766	2203.18
754.955	2206.86
755.143	2282.04
755.331	2218.29
755.519	2175.86
755.707	2186.13
755.895	2210.93
756.083	2233.41
756.271	2201.82
756.459	2208.02
756.647	2273.32
756.835	2193.49
757.023	2174.89
757.211	2194.07
757.399	2181.87
757.587	2198.34
757.775	2165.21
757.963	2171.79
758.151	2143.7
758.339	2142.54
758.526	2117.16
758.714	2128.01
758.902	2055.55
759.09	2050.51
759.278	1887.37
759.465	1783.91
759.653	1505.3
759.841	1409.79
760.028	1180.97
760.216	1042.44
760.404	1057.94
760.591	842.49
760.779	673.74
760.967	625.5
761.154	500.72
761.342	539.09
761.529	528.82
761.717	580.55
761.905	503.44
762.092	605.54
762.28	556.72
762.467	553.04
762.655	507.12
762.842	518.55
763.029	572.41
763.217	578.8
763.404	572.6
763.592	590.04
763.779	539.28
763.966	582.87
764.154	602.83
764.341	642.55
764.528	633.44
764.716	711.52
764.903	729.73
765.09	781.85
765.277	796.58
765.465	931.23
765.652	948.28
765.839	993.42
766.026	1082.55
766.213	1091.85
766.4	1192.4
766.588	1293.34
766.775	1287.53
766.962	1382.27
767.149	1415.79
767.336	1514.22
767.523	1438.85
767.71	1576.02
767.897	1627.36
768.084	1691.11
768.271	1691.3
768.458	1763.96
768.645	1781.78
768.832	1723.66
769.019	1742.45
769.206	1785.07
769.392	1863.15
769.579	1933.1
769.766	1907.72
769.953	1884.27
770.14	1917.79
770.327	1905
770.513	1975.91
770.7	2009.82
770.887	1917.6
771.073	1988.9
771.26	1948.98
771.447	1928.83
771.634	1898.61
771.82	2028.23
772.007	1898.22
772.193	1937.36
772.38	1986.38
772.567	1948.4
772.753	1952.08
772.94	2022.8
773.126	1999.16
773.313	2005.36
773.499	1985.41
773.686	1998.97
773.872	1949.57
774.059	1978.24
774.245	1889.5
774.432	1955.57
774.618	1856.18
774.804	1965.07
774.991	1917.79
775.177	1966.62
775.363	1955.57
775.55	1926.9
775.736	1886.6
775.922	1907.33
776.109	1904.42
776.295	1886.21
776.481	1956.73
776.667	2007.3
776.853	1928.45
777.04	1903.26
777.226	1893.57
777.412	1996.84
777.598	1863.54
777.784	1843.78
777.97	1852.5
778.156	1896.09
778.342	1891.05
778.528	1891.05
778.715	1818.79
778.901	1836.61
779.087	1900.35
779.272	1808.32
779.458	1828.28
779.644	1878.27
779.83	1831.38
780.016	1954.6
780.202	1895.51
780.388	1820.34
780.574	1793.79
780.76	1815.1
780.946	1873.42
781.131	1835.06
781.317	1863.54
781.503	1796.89
781.689	1803.87
781.874	1954.6
782.06	1806.58
782.246	1800.57
782.432	1776.94
782.617	1791.08
782.803	1837.19
782.989	1758.14
783.174	1797.86
783.36	1742.06
783.545	1776.36
783.731	1745.94
783.916	1706.99
784.102	1791.66
784.288	1730.24
784.473	1765.51
784.659	1730.44
784.844	1792.63
785.029	1762.99
785.215	1740.71
785.4	1696.73
785.586	1764.73
785.771	1693.43
785.956	1728.5
786.142	1762.6
786.327	1696.14
786.512	1732.18
786.698	1695.56
786.883	1672.89
787.068	1681.03
787.254	1677.54
787.439	1675.22
787.624	1682
787.809	1668.05
787.994	1678.71
788.18	1700.41
788.365	1630.27
788.55	1645.96
788.735	1643.25
788.92	1658.36
789.105	1637.63
789.29	1657.39
789.475	1648.48
789.66	1633.37
789.845	1604.5
790.03	1638.6
790.215	1634.14
790.4	1674.25
790.585	1644.99
790.77	1635.11
790.955	1560.71
791.14	1607.21
791.325	1674.83
791.51	1555.68
791.695	1610.12
791.879	1558.2
792.064	1527
792.249	1650.81
792.434	1560.13
792.618	1589.2
792.803	1608.18
792.988	1543.86
793.173	1558.97
793.357	1597.72
793.542	1546.18
793.727	1586.68
793.911	1604.31
794.096	1538.43
794.281	1621.94
794.465	1670.76
794.65	1575.25
794.834	1610.9
795.019	1656.81
795.203	1631.04
795.388	1611.67
795.572	1649.84
795.757	1614
795.941	1624.65
796.126	1614.19
796.31	1564.2
796.494	1618.06
796.679	1601.98
796.863	1559.94
797.048	1632.4
797.232	1600.63
797.416	1602.18
797.601	1595.59
797.785	1670.18
797.969	1628.53
798.153	1585.13
798.338	1656.04
798.522	1631.04
798.706	1658.36
798.89	1641.89
799.074	1745.94
799.258	1669.6
799.443	1618.06
799.627	1613.8
799.811	1649.45
799.995	1624.07
800.179	1608.76
800.363	1602.76
800.547	1638.21
800.731	1658.17
800.915	1537.85
801.099	1592.49
801.283	1598.11
801.467	1634.34
801.651	1580.48
801.835	1635.31
802.019	1594.81
802.202	1645.58
802.386	1590.36
802.57	1565.17
802.754	1567.3
802.938	1603.92
803.121	1595.78
803.305	1663.01
803.489	1622.52
803.673	1589
803.856	1623.88
804.04	1626.78
804.224	1643.25
804.407	1606.25
804.591	1614.77
804.775	1607.8
804.958	1620.2
805.142	1727.34
805.326	1616.51
805.509	1631.24
805.693	1635.11
805.876	1699.83
806.06	1623.49
806.243	1628.91
806.427	1684.33
806.61	1664.37
806.794	1597.14
806.977	1667.28
807.16	1609.54
807.344	1639.38
807.527	1637.44
807.71	1600.05
807.894	1589.39
808.077	1649.06
808.26	1574.28
808.444	1575.25
808.627	1678.51
808.81	1638.79
808.993	1558.78
809.177	1567.88
809.36	1539.98
809.543	1595.4
809.726	1519.25
809.909	1526.23
810.092	1527.78
810.276	1533.98
810.459	1534.37
810.642	1508.98
810.825	1500.27
811.008	1504.53
811.191	1421.41
811.374	1456.09
811.557	1461.52
811.74	1520.22
811.923	1440.2
812.106	1432.45
812.289	1368.71
812.472	1421.8
812.654	1465.39
812.837	1400.49
813.02	1362.12
813.203	1369.49
813.386	1261.57
813.569	1288.89
813.751	1234.64
813.934	1274.55
814.117	1262.54
814.3	1206.54
814.482	1219.72
814.665	1156.36
814.848	1175.55
815.03	1112.38
815.213	1113.16
815.396	1098.05
815.578	1134.08
815.761	1084.87
815.943	1142.61
816.126	1053.1
816.309	1029.85
816.491	998.27
816.674	969.01
816.856	1024.03
817.039	982.19
817.221	1092.04
817.403	980.83
817.586	1022.48
817.768	1032.17
817.951	987.03
818.133	955.06
818.315	1019.19
818.498	1015.32
818.68	1092.62
818.862	1062.01
819.045	1090.3
819.227	1052.52
819.409	1022.87
819.591	1026.36
819.774	1041.08
819.956	1001.17
820.138	1082.93
820.32	1080.22
820.502	1103.28
820.684	1141.45
820.866	1164.7
821.048	1176.13
821.231	1179.61
821.413	1157.53
821.595	1140.67
821.777	1202.48
821.959	1141.06
822.141	1205.38
822.323	1133.5
822.505	1059.68
822.686	1056.2
822.868	999.43
823.05	943.24
823.232	915.34
823.414	868.65
823.596	923.67
823.778	904.49
823.96	918.25
824.141	931.04
824.323	940.72
824.505	1008.34
824.687	1042.25
824.868	1051.93
825.05	1112.77
825.232	1104.44
825.413	1198.6
825.595	1132.34
825.777	1111.61
825.958	1135.44
826.14	1124.78
826.321	1135.25
826.503	1113.93
826.685	1184.07
826.866	1190.66
827.048	1154.81
827.229	1116.45
827.411	1078.87
827.592	1034.69
827.773	1046.51
827.955	1016.28
828.136	1046.9
828.318	970.37
828.499	1024.62
828.68	990.32
828.862	1044.18
829.043	1058.72
829.224	1056
829.406	967.65
829.587	1025.78
829.768	992.07
829.949	1032.56
830.131	1030.82
830.312	1105.02
830.493	1026.94
830.674	1044.96
830.855	1033.33
831.036	983.93
831.218	1076.93
831.399	1075.38
831.58	1010.47
831.761	1018.03
831.942	1056.39
832.123	1011.44
832.304	1000.2
832.485	1000.98
832.666	1008.92
832.847	1031.2
833.028	1034.88
833.209	1041.67
833.389	1040.89
833.57	965.91
833.751	996.14
833.932	1085.84
834.113	1021.32
834.294	1003.3
834.475	1031.59
834.655	1056.78
834.836	1033.72
835.017	1032.17
835.198	973.08
835.378	1043.6
835.559	1064.92
835.74	1037.21
835.92	1012.41
836.101	996.33
836.281	1067.05
836.462	1024.03
836.643	1073.05
836.823	1080.22
837.004	1068.79
837.184	1112.96
837.365	1084.87
837.545	1101.92
837.726	1068.79
837.906	1112.77
838.087	1066.66
838.267	1053.29
838.448	1032.17
838.628	1105.99
838.808	1071.89
838.989	1115.29
839.169	1023.65
839.349	1109.48
839.53	1065.3
839.71	1100.56
839.89	1054.84
840.07	1128.27
840.251	1044.96
840.431	1103.86
840.611	1079.45
840.791	1004.27
840.971	1096.69
841.151	1078.28
841.332	1054.26
841.512	1093.2
841.692	1013.18
841.872	1068.21
842.052	1043.02
842.232	1097.66
842.412	1009.31
842.592	1043.22
842.772	1063.56
842.952	1093.98
843.132	1033.92
843.312	1034.11
843.492	1007.76
843.672	1041.28
843.851	965.91
844.031	1041.28
844.211	1038.18
844.391	1023.84
844.571	1033.33
844.751	1074.02
844.93	1054.84
845.11	1023.26
845.29	1039.53
845.47	1037.21
845.649	1011.25
845.829	1065.11
846.009	993.23
846.188	1050.38
846.368	1047.28
846.547	1017.25
846.727	1045.73
846.907	1010.67
847.086	1039.15
847.266	1056.97
847.445	987.8
847.625	998.07
847.804	974.44
847.984	1034.3
848.163	975.21
848.343	984.32
848.522	1031.98
848.701	1023.84
848.881	976.37
849.06	994.59
849.239	1000.4
849.419	980.05
849.598	948.47
849.777	966.69
849.957	977.73
850.136	929.49
850.315	882.6
850.494	915.92
850.674	925.22
850.853	980.44
851.032	938.98
851.211	996.14
851.39	962.42
851.569	888.02
851.748	896.94
851.927	984.9
852.107	943.05
852.286	894.42
852.465	877.95
852.644	951.77
852.823	943.24
853.002	917.67
853.181	937.04
853.359	944.4
853.538	899.26
853.717	947.7
853.896	861.67
854.075	834.16
854.254	819.83
854.433	792.89
854.611	804.33
854.79	794.83
854.969	845.98
855.148	861.67
855.327	801.03
855.505	832.81
855.684	816.73
855.863	841.14
856.041	791.15
856.22	850.63
856.399	808.2
856.577	917.28
856.756	909.34
856.934	981.6
857.113	978.31
857.291	887.25
857.47	879.69
857.648	890.16
857.827	911.08
858.005	937.62
858.184	864.77
858.362	947.12
858.541	895.77
858.719	902.56
858.898	892.67
859.076	901.59
859.254	943.05
859.433	875.62
859.611	865.16
859.789	852.57
859.967	916.12
860.146	954.87
860.324	847.72
860.502	880.08
860.68	835.13
860.859	855.67
861.037	851.41
861.215	888.02
861.393	866.71
861.571	891.71
861.749	844.43
861.927	909.92
862.105	853.73
862.283	808.59
862.461	830.29
862.639	803.36
862.817	804.52
862.995	841.91
863.173	853.73
863.351	808.2
863.529	848.5
863.707	896.74
863.885	834.36
864.063	789.02
864.241	812.27
864.418	879.11
864.596	795.8
864.774	798.71
864.952	817.5
865.129	870.78
865.307	789.79
865.485	769.45
865.663	843.27
865.84	762.67
866.018	798.13
866.196	692.92
866.373	756.86
866.551	698.54
866.728	668.9
866.906	710.16
867.084	729.93
867.261	760.34
867.439	769.06
867.616	795.8
867.794	740.97
867.971	781.27
868.149	741.94
868.326	830.48
868.503	794.44
868.681	765.19
868.858	772.16
869.035	726.63
869.213	793.48
869.39	767.9
869.567	831.84
869.745	743.88
869.922	781.08
870.099	793.48
870.276	795.41
870.454	790.76
870.631	768.68
870.808	752.98
870.985	784.95
871.162	840.75
871.339	767.9
871.517	734.58
871.694	707.45
871.871	769.64
872.048	749.69
872.225	725.28
872.402	768.29
872.579	717.53
872.756	748.72
872.933	706.29
873.11	748.14
873.287	762.48
873.463	752.21
873.64	694.28
873.817	757.05
873.994	753.56
874.171	703.58
874.348	707.45
874.524	672.19
874.701	725.47
874.878	667.93
875.055	746.2
875.231	718.5
875.408	735.74
875.585	654.75
875.762	701.83
875.938	706.29
876.115	702.8
876.291	707.65
876.468	686.53
876.645	670.83
876.821	705.51
876.998	715.59
877.174	701.83
877.351	667.73
877.527	669.86
877.704	677.61
877.88	690.21
878.057	665.21
878.233	707.06
878.409	683.43
878.586	704.16
878.762	647.39
878.938	685.36
879.115	601.67
879.291	655.53
879.467	618.33
879.644	642.74
879.82	698.93
879.996	644.68
880.172	608.64
880.349	633.44
880.525	682.85
880.701	628.21
880.877	627.24
881.053	660.57
881.229	660.37
881.405	668.7
881.581	610
881.757	627.24
881.933	646.23
882.109	685.36
882.285	648.75
882.461	596.05
882.637	633.83
882.813	625.3
882.989	618.52
883.165	672.58
883.341	617.55
883.517	663.66
883.693	663.66
883.869	665.6
884.044	633.83
884.22	676.45
884.396	683.23
884.572	691.37
884.747	689.63
884.923	660.76
885.099	675.29
885.275	677.23
885.45	643.32
885.626	633.25
885.801	617.55
885.977	619.68
886.153	579.38
886.328	669.67
886.504	593.14
886.679	672.77
886.855	611.35
887.03	667.15
887.206	681.49
887.381	647.97
887.557	638.48
887.732	625.3
887.908	660.18
888.083	693.11
888.258	632.86
888.434	633.63
888.609	652.82
888.784	713.26
888.96	625.5
889.135	612.13
889.31	587.72
889.485	623.17
889.661	605.15
889.836	665.21
890.011	626.85
890.186	616.58
890.361	606.9
890.537	646.62
890.712	644.48
890.887	648.17
891.062	651.46
891.237	701.45
891.412	611.35
891.587	644.29
891.762	671.22
891.937	660.57
892.112	613.87
892.287	650.3
892.462	563.69
892.637	585.58
892.812	567.57
892.987	578.8
893.161	555.17
893.336	567.95
893.511	585
893.686	611.74
893.861	612.32
894.035	569.31
894.21	581.71
894.385	548.19
894.56	595.85
894.734	537.54
894.909	503.82
895.084	544.32
895.258	553.23
895.433	535.6
895.608	511.77
895.782	476.51
895.957	519.32
896.131	500.92
896.306	471.08
896.48	455.19
896.655	476.31
896.829	423.03
897.004	438.34
897.178	435.43
897.353	407.92
897.527	503.63
897.701	433.69
897.876	394.55
898.05	503.82
898.224	442.6
898.399	472.44
898.573	464.88
898.747	343.79
898.921	420.71
899.096	344.18
899.27	373.82
899.444	346.69
899.618	367.62
899.792	383.51
899.967	381.57
900.141	428.46
900.315	338.36
900.489	383.31
900.663	382.73
900.837	376.34
901.011	356.19
901.185	459.84
901.359	407.34
901.533	394.94
901.707	391.06
901.881	405.01
902.055	332.74
902.229	383.51
902.403	431.75
902.576	394.74
902.75	391.84
902.924	481.35
903.098	415.86
903.272	446.28
903.446	487.16
903.619	429.23
903.793	487.74
903.967	440.86
904.14	513.51
904.314	477.86
904.488	474.96
904.661	486.58
904.835	459.07
905.009	513.7
905.182	540.44
905.356	492.78
905.529	498.4
905.703	450.93
905.876	460.81
906.05	429.81
906.223	429.23
906.397	371.11
906.57	371.69
906.744	371.88
906.917	384.09
907.09	372.08
907.264	387.38
907.437	354.64
907.61	342.82
907.784	343.01
907.957	371.3
908.13	334.49
908.304	392.42
908.477	325.58
908.65	372.08
908.823	331.97
908.996	412.96
909.17	348.24
909.343	332.16
909.516	352.89
909.689	331.78
909.862	318.02
910.035	343.59
910.208	325.58
910.381	340.49
910.554	414.51
910.727	338.36
910.9	328.48
911.073	317.63
911.246	402.11
911.419	370.91
911.592	357.35
911.765	335.07
911.938	327.13
912.11	348.44
912.283	340.88
912.456	383.12
912.629	339.33
912.802	308.91
912.974	306.98
913.147	281.79
913.32	274.62
913.493	268.61
913.665	295.35
913.838	301.36
914.01	298.26
914.183	318.02
914.356	278.5
914.528	349.79
914.701	367.23
914.873	352.51
915.046	311.63
915.218	279.46
915.391	238.78
915.563	244.4
915.736	316.08
915.908	322.28
916.081	281.98
916.253	276.36
916.425	290.31
916.598	305.81
916.77	325.19
916.942	262.03
917.115	223.67
917.287	287.8
917.459	292.45
917.632	239.75
917.804	218.63
917.976	267.45
918.148	277.72
918.32	282.37
918.493	317.63
918.665	350.96
918.837	296.13
919.009	346.89
919.181	307.36
919.353	305.04
919.525	287.6
919.697	302.33
919.869	274.23
920.041	360.45
920.213	411.6
920.385	313.95
920.557	300.58
920.729	348.63
920.901	299.81
921.073	283.73
921.244	303.49
921.416	348.44
921.588	329.06
921.76	287.21
921.932	417.22
922.103	291.09
922.275	308.53
922.447	311.05
922.619	229.09
922.79	309.69
922.962	288.38
923.134	303.68
923.305	264.16
923.477	261.83
923.648	255.05
923.82	257.18
923.991	240.91
924.163	248.08
924.335	267.06
924.506	245.36
924.677	301.55
924.849	243.04
925.02	275.2
925.192	292.64
925.363	291.67
925.535	278.5
925.706	230.25
925.877	305.62
926.049	249.82
926.22	288.18
926.391	277.33
926.562	280.43
926.734	215.53
926.905	295.35
927.076	208.94
927.247	250.79
927.419	214.37
927.59	213.4
927.761	219.98
927.932	242.07
928.103	237.23
928.274	186.47
928.445	139
928.616	197.51
928.787	224.63
928.958	225.41
929.129	226.76
929.3	194.6
929.471	169.61
929.642	158.37
929.813	94.44
929.984	193.83
930.155	124.66
930.326	172.71
930.496	140.35
930.667	82.62
930.838	143.07
931.009	89.4
931.18	123.89
931.35	124.85
931.521	98.5
931.692	60.53
931.863	59.75
932.033	123.3
932.204	114.59
932.374	111.68
932.545	60.14
932.716	111.87
932.886	117.49
933.057	32.24
933.227	56.46
933.398	144.23
933.568	63.24
933.739	21.01
933.909	30.11
934.08	56.07
934.25	14.22
934.421	14.42
934.591	46.97
934.761	39.99
934.932	-14.64
935.102	19.65
935.272	33.79
935.443	44.26
935.613	43.29
935.783	48.71
935.953	5.89
936.123	178.91
936.294	26.24
936.464	15
936.634	38.64
936.804	25.46
936.974	-3.6
937.144	67.7
937.314	35.92
937.484	40.38
937.655	5.89
937.825	72.93
937.995	30.31
938.165	66.73
938.334	38.06
938.504	57.82
938.674	1.05
938.844	22.56
939.014	94.05
939.184	72.35
939.354	132.41
939.524	86.49
939.694	45.22
939.863	69.64
940.033	140.55
940.203	87.65
940.373	102.19
940.542	104.9
940.712	69.64
940.882	99.86
941.051	143.26
941.221	81.45
941.391	143.07
941.56	67.89
941.73	35.92
941.899	161.86
942.069	39.41
942.238	85.52
942.408	73.32
942.577	115.36
942.747	96.18
942.916	13.06
943.086	52
943.255	94.63
943.425	78.55
943.594	46
943.763	-4.96
943.933	51.23
944.102	-1.66
944.271	42.9
944.441	74.48
944.61	28.56
944.779	48.71
944.948	148.1
945.117	20.23
945.287	51.23
945.456	-9.99
945.625	55.1
945.794	58.2
945.963	22.75
946.132	62.08
946.301	23.91
946.47	64.02
946.639	1.63
946.808	30.69
946.977	81.26
947.146	95.6
947.315	39.22
947.484	67.31
947.653	34.57
947.822	48.32
947.991	30.31
948.16	119.24
948.329	102.57
948.498	40.19
948.666	54.14
948.835	76.8
949.004	20.23
949.173	24.69
949.341	68.47
949.51	70.8
949.679	102.38
949.847	78.55
950.016	115.55
950.185	100.44
950.353	55.69
950.522	35.73
950.69	100.05
950.859	30.31
951.028	85.14
951.196	79.32
951.365	52
951.533	31.47
951.701	76.8
951.87	91.92
952.038	0.66
952.207	50.07
952.375	118.85
952.543	57.82
952.712	35.34
952.88	0.66
953.048	110.9
953.217	60.53
953.385	65.18
953.553	108.39
953.721	8.99
953.89	54.91
954.058	0.66
954.226	55.69
954.394	76.61
954.562	0.47
954.73	75.25
954.898	38.83
955.067	94.44
955.235	20.23
955.403	84.55
955.571	97.92
955.739	70.22
955.907	32.44
956.075	38.44
956.243	-8.83
956.41	76.22
956.578	5.7
956.746	33.6
956.914	47.94
957.082	77.97
957.25	79.9
957.418	-0.5
957.585	51.23
957.753	61.89
957.921	33.41
958.089	72.74
958.256	77.97
958.424	72.15
958.592	73.7
958.759	17.52
958.927	54.52
959.095	36.7
959.262	59.56
959.43	71.19
959.597	30.31
959.765	57.82
959.932	33.99
960.1	78.55
960.267	53.17
960.435	59.37
960.602	73.12
960.77	57.43
960.937	6.67
961.104	68.47
961.272	-2.05
961.439	24.49
961.606	71.38
961.774	67.12
961.941	35.34
962.108	76.61
962.275	85.33
962.443	100.25
962.61	65.57
962.777	136.48
962.944	117.49
963.111	66.54
963.278	87.27
963.446	71.38
963.613	71.57
963.78	72.15
963.947	82.81
964.114	61.69
964.281	132.02
964.448	73.9
964.615	54.14
964.782	81.26
964.949	121.75
965.116	106.45
965.282	105.87
965.449	89.59
965.616	44.06
965.783	106.25
965.95	49.1
966.117	23.72
966.283	45.81
966.45	51.42
966.617	84.55
966.784	107.42
966.95	116.14
967.117	104.9
967.284	40.57
967.45	43.67
967.617	120.2
967.784	89.2
967.95	150.82
968.117	51.81
968.283	110.52
968.45	159.92
968.616	36.12
968.783	144.81
968.949	83.39
969.116	135.9
969.282	81.65
969.449	90.17
969.615	64.4
969.781	55.1
969.948	59.17
970.114	23.91
970.28	165.73
970.447	69.64
970.613	136.67
970.779	64.4
970.945	100.05
971.112	101.8
971.278	96.18
971.444	54.72
971.61	103.54
971.776	65.57
971.942	84.75
972.108	95.4
972.275	57.82
972.441	85.33
972.607	148.88
972.773	69.44
972.939	120.01
973.105	99.28
973.271	54.33
973.437	58.59
973.602	48.71
973.768	71.38
973.934	43.09
974.1	101.41
974.266	16.55
974.432	80.29
974.598	62.08
974.763	107.22
974.929	68.47
975.095	110.32
975.261	59.37
975.426	34.37
975.592	69.05
975.758	123.11
975.923	49.87
976.089	54.33
976.255	77.77
976.42	104.12
976.586	62.47
976.751	79.32
976.917	126.6
977.082	97.34
977.248	28.37
977.413	32.82
977.579	73.12
977.744	73.51
977.91	13.64
978.075	43.67
978.24	62.85
978.406	62.27
978.571	83.78
978.736	52.78
978.902	89.2
979.067	24.69
979.232	11.71
979.397	38.83
979.563	122.72
979.728	20.42
979.893	64.6
980.058	18.1
980.223	103.74
980.388	85.91
980.554	58.4
980.719	49.1
980.884	52.39
981.049	97.54
981.214	47.74
981.379	92.69
981.544	57.82
981.709	59.95
981.874	45.81
982.039	68.67
982.204	100.05
982.368	73.51
982.533	29.14
982.698	86.49
982.863	99.47
983.028	32.44
983.193	102.57
983.357	62.47
983.522	49.68
983.687	47.16
983.852	66.92
984.016	58.01
984.181	66.92
984.346	60.34
984.51	103.15
984.675	72.74
984.839	96.95
985.004	70.8
985.168	108.58
985.333	86.49
985.498	63.44
985.662	67.31
985.827	93.08
985.991	69.44
986.155	59.17
986.32	92.5
986.484	96.76
986.649	69.05
986.813	25.27
986.977	76.8
987.142	83.39
987.306	34.37
987.47	31.86
987.634	67.12
987.799	86.69
987.963	45.61
988.127	78.35
988.291	120.79
988.455	84.94
988.62	66.34
988.784	99.28
988.948	85.52
989.112	46.39
989.276	92.69
989.44	98.31
989.604	45.42
989.768	50.26
989.932	123.69
990.096	47.36
990.26	-0.69
990.424	18.29
990.588	38.06
990.752	121.95
990.915	82.23
991.079	44.45
991.243	22.36
991.407	99.47
991.571	72.93
991.734	101.41
991.898	84.75
992.062	141.13
992.226	47.94
992.389	35.34
992.553	15.19
992.717	64.4
992.88	53.75
993.044	47.16
993.207	66.73
993.371	81.84
993.535	76.8
993.698	73.51
993.862	68.28
994.025	75.06
994.189	77.39
994.352	65.18
994.515	78.16
994.679	88.04
994.842	47.94
995.006	101.6
995.169	24.49
995.332	37.09
995.496	75.84
995.659	18.49
995.822	53.75
995.985	69.83
996.149	112.26
996.312	56.27
996.475	119.43
996.638	56.27
996.801	101.8
996.964	128.73
997.128	50.46
997.291	86.88
997.454	58.79
997.617	-10.77
997.78	98.31
997.943	47.94
998.106	90.95
998.269	24.11
998.432	24.88
998.595	65.18
998.758	-19.1
998.92	6.09
999.083	14.42
999.246	30.69
999.409	2.99
999.572	-9.99
999.735	11.12
999.897	54.72
1000.06	24.69
1000.223	33.41
1000.386	53.17
1000.548	64.99
1000.711	67.7
1000.874	64.79
1001.036	24.49
1001.199	106.84
1001.361	26.82
1001.524	48.32
1001.687	64.4
1001.849	42.71
1002.012	52.39
1002.174	85.33
1002.337	68.67
1002.499	53.17
1002.661	66.92
1002.824	6.67
1002.986	15.77
1003.149	54.91
1003.311	15.58
1003.473	107.03
1003.636	45.42
1003.798	45.42
1003.96	64.21
1004.123	38.64
1004.285	39.61
1004.447	52.2
1004.609	53.17
1004.771	112.65
1004.933	0.27
1005.096	34.57
1005.258	-3.41
1005.42	26.24
1005.582	98.5
1005.744	72.35
1005.906	-12.13
1006.068	41.74
1006.23	5.51
1006.392	-4.76
1006.554	11.71
1006.716	86.69
1006.878	60.34
1007.04	5.51
1007.202	10.16
1007.363	54.52
1007.525	26.04
1007.687	69.05
1007.849	70.8
1008.011	23.14
1008.172	8.61
1008.334	-2.63
1008.496	64.99
1008.658	-19.1
1008.819	15.58
1008.981	-24.91
1009.143	0.66
1009.304	12.87
1009.466	61.11
1009.627	95.02
1009.789	115.94
1009.95	36.31
1010.112	-11.54
1010.273	40.77
1010.435	4.54
1010.596	4.54
1010.758	36.89
1010.919	17.71
1011.081	-7.48
1011.242	26.62
1011.403	50.26
1011.565	27.21
1011.726	58.79
1011.887	21.01
1012.049	21.97
1012.21	62.47
1012.371	87.85
1012.532	-24.53
1012.693	27.79
1012.855	8.8
1013.016	61.89
1013.177	74.48
1013.338	31.27
1013.499	80.1
1013.66	51.04
1013.821	63.44
1013.982	53.75
1014.143	18.68
1014.304	-4.38
1014.465	47.16
1014.626	70.8
1014.787	33.41
1014.948	118.46
1015.109	-40.99
1015.27	82.42
1015.431	5.51
1015.592	-7.28
1015.752	96.95
1015.913	29.53
1016.074	48.32
1016.235	8.99
1016.395	43.29
1016.556	27.4
1016.717	20.62
1016.877	92.11
1017.038	5.7
1017.199	31.47
1017.359	25.46
1017.52	52.2
1017.681	2.41
1017.841	33.21
1018.002	43.29
1018.162	27.59
1018.323	103.93
1018.483	43.29
1018.644	28.37
1018.804	7.06
1018.964	-5.73
1019.125	10.74
1019.285	54.33
1019.446	8.8
1019.606	-11.54
1019.766	-5.15
1019.926	14.03
1020.087	39.8
1020.247	-15.61
1020.407	19.65
1020.567	79.71
1020.728	4.92
1020.888	3.37
1021.048	20.04
1021.208	-9.03
1021.368	-22.59
1021.528	71.19
1021.688	63.44
1021.848	54.33
1022.008	56.46
1022.168	22.36
1022.328	28.17
1022.488	46.19
1022.648	-3.02
1022.808	9.96
1022.968	44.26
1023.128	-1.47
1023.288	2.02
1023.448	39.99
1023.608	57.43
1023.767	40.19
1023.927	23.33
1024.087	-5.15
1024.247	-14.06
1024.406	16.94
1024.566	-16
1024.726	-0.11
1024.885	19.65
1025.045	38.25
1025.205	11.9
1025.364	-8.83
1025.524	16.16
1025.683	6.47
1025.843	20.62
1026.003	19.07
1026.162	77.97
1026.321	52.97
1026.481	22.36
1026.64	4.54
1026.8	8.99
1026.959	40.57
1027.119	36.31
1027.278	3.18
1027.437	-21.81
1027.597	30.69
1027.756	35.15
1027.915	17.52
1028.074	30.89
1028.234	-16
1028.393	28.56
1028.552	15.77
1028.711	-48.16
1028.87	50.07
1029.03	-34.99
1029.189	8.02
1029.348	-36.54
1029.507	3.96
1029.666	17.91
1029.825	-29.76
1029.984	-0.31
1030.143	5.89
1030.302	14.03
1030.461	-38.86
1030.62	22.75
1030.779	36.7
1030.938	2.6
1031.097	-6.12
1031.255	37.67
1031.414	77.97
1031.573	42.32
1031.732	-32.66
1031.891	7.83
1032.049	64.21
1032.208	33.21
1032.367	11.32
1032.525	8.02
1032.684	-7.86
1032.843	7.44
1033.001	-56.49
1033.16	141.9
1033.319	39.61
1033.477	50.65
1033.636	-3.99
1033.794	-24.14
1033.953	36.51
1034.111	17.91
1034.27	10.54
1034.428	54.52
1034.587	-26.27
1034.745	25.66
1034.903	17.13
1035.062	59.95
1035.22	-28.59
1035.378	57.62
1035.537	-23.94
1035.695	30.5
1035.853	4.92
1036.011	64.21
1036.17	32.44
1036.328	-44.67
1036.486	29.14
1036.644	34.96
1036.802	-69.47
1036.96	8.61
1037.119	13.26
1037.277	5.51
1037.435	-21.62
1037.593	-14.64
1037.751	1.63
1037.909	45.81
1038.067	45.81
