Data from pine_FLMT105791__83__17-21-23-077.txt Node

Date: Mon Mar 20 17:21:23 GMT 2023
User: antho
Spectrometer: FLMT10579
Trigger mode: 0
Integration Time (sec): 1.000000E-1
Scans to average: 10
Electric dark correction enabled: true
Nonlinearity correction enabled: false
Boxcar width: 0
XAxis mode: Wavelengths
Number of Pixels in Spectrum: 3648
>>>>>Begin Spectral Data<<<<<
345.248	-171.98
345.464	-171.98
345.681	-171.98
345.898	-172.76
346.114	-174.11
346.331	-40.62
346.548	36.1
346.764	-24.54
346.981	10.53
347.197	-17.76
347.414	16.92
347.631	-15.44
347.847	64.97
348.064	-1.1
348.28	13.24
348.497	-37.33
348.713	-4.97
348.93	33.58
349.146	30.87
349.363	12.66
349.579	-0.32
349.796	-4
350.012	0.45
350.229	-5.94
350.445	9.75
350.661	-1.87
350.878	16.34
351.094	16.15
351.311	11.88
351.527	12.27
351.743	-1.29
351.96	54.12
352.176	7.23
352.392	26.22
352.609	24.09
352.825	-15.82
353.041	-10.2
353.257	-11.37
353.474	-4
353.69	12.46
353.906	-1.29
354.122	-28.22
354.339	51.99
354.555	-20.28
354.771	-16.99
354.987	55.86
355.203	38.04
355.42	-19.89
355.636	-38.3
355.852	-43.72
356.068	10.91
356.284	-35.2
356.5	71.94
356.716	17.7
356.932	6.07
357.148	-2.45
357.364	-37.91
357.58	27.96
357.796	49.47
358.012	44.63
358.228	13.24
358.444	-47.21
358.66	53.35
358.876	31.84
359.092	-20.67
359.308	11.88
359.524	30.87
359.74	-8.65
359.956	-0.32
360.172	18.66
360.388	18.86
360.604	-9.43
360.819	83.76
361.035	2.97
361.251	36.88
361.467	-13.5
361.683	19.44
361.898	31.26
362.114	28.74
362.33	14.4
362.546	36.68
362.762	8.01
362.977	8.4
363.193	-23.96
363.409	49.66
363.624	5.3
363.84	5.1
364.056	-21.44
364.271	12.46
364.487	32.03
364.703	10.91
364.918	-27.84
365.134	-10.98
365.35	17.11
365.565	105.27
365.781	13.43
365.996	22.93
366.212	68.46
366.427	17.5
366.643	-8.46
366.858	-9.04
367.074	-20.67
367.289	64.58
367.505	86.86
367.72	-45.66
367.936	-27.45
368.151	50.83
368.367	46.76
368.582	21.57
368.798	8.59
369.013	42.69
369.228	7.43
369.444	0.84
369.659	64.58
369.874	24.28
370.09	30.48
370.305	-46.05
370.52	-33.84
370.736	80.47
370.951	-12.92
371.166	54.31
371.381	76.59
371.597	47.15
371.812	-18.92
372.027	-21.64
372.242	-3.04
372.458	70.98
372.673	0.45
372.888	-0.52
373.103	39.59
373.318	105.85
373.533	12.66
373.749	26.41
373.964	-28.61
374.179	79.69
374.394	-9.62
374.609	48.11
374.824	-16.99
375.039	53.54
375.254	-6.72
375.469	49.47
375.684	18.66
375.899	74.46
376.114	-7.49
376.329	32.81
376.544	41.72
376.759	53.54
376.974	13.24
377.189	11.5
377.404	-12.92
377.619	26.41
377.834	-35
378.049	-27.25
378.264	-10.2
378.478	20.41
378.693	-36.55
378.908	17.7
379.123	-8.27
379.338	31.26
379.553	5.49
379.767	16.15
379.982	39.59
380.197	14.01
380.412	14.98
380.626	24.86
380.841	68.84
381.056	30.68
381.271	70.98
381.485	-16.21
381.7	-19.7
381.915	21.96
382.129	2.78
382.344	21.57
382.559	10.33
382.773	60.32
382.988	-44.5
383.202	17.31
383.417	-33.84
383.632	102.17
383.846	8.4
384.061	21.18
384.275	14.79
384.49	26.61
384.704	22.54
384.919	16.15
385.133	25.83
385.348	43.27
385.562	-15.82
385.777	43.46
385.991	-9.43
386.206	10.91
386.42	-5.94
386.634	60.13
386.849	20.41
387.063	24.09
387.277	-22.22
387.492	-1.87
387.706	-2.26
387.92	-20.67
388.135	45.21
388.349	46.56
388.563	27.77
388.778	18.86
388.992	34.16
389.206	20.41
389.42	70.98
389.635	21.76
389.849	49.47
390.063	46.18
390.277	14.01
390.491	72.91
390.706	55.67
390.92	47.92
391.134	22.54
391.348	62.45
391.562	-22.02
391.776	3.94
391.99	-10.79
392.205	50.83
392.419	-19.12
392.633	1.03
392.847	49.28
393.061	-18.73
393.275	44.05
393.489	32.81
393.703	49.86
393.917	50.25
394.131	-1.49
394.345	67.29
394.559	55.28
394.773	18.08
394.986	40.17
395.2	5.1
395.414	51.21
395.628	-28.22
395.842	26.61
396.056	12.08
396.27	-32.87
396.484	33.97
396.697	36.68
396.911	63.81
397.125	18.66
397.339	54.7
397.553	36.3
397.766	93.64
397.98	54.9
398.194	69.81
398.408	11.88
398.621	34.36
398.835	53.15
399.049	19.63
399.262	64.19
399.476	56.64
399.69	32.81
399.903	89.19
400.117	25.25
400.331	40.36
400.544	6.26
400.758	133.94
400.971	35.13
401.185	40.17
401.398	17.89
401.612	72.53
401.826	54.31
402.039	55.09
402.253	3.36
402.466	44.24
402.68	8.98
402.893	17.89
403.106	50.25
403.32	18.47
403.533	47.15
403.747	33.58
403.96	63.81
404.174	54.12
404.387	-2.07
404.6	27.19
404.814	75.04
405.027	39.2
405.24	44.43
405.454	14.01
405.667	82.21
405.88	-8.07
406.094	33.39
406.307	77.56
406.52	52.38
406.733	18.08
406.947	-1.49
407.16	106.04
407.373	92.87
407.586	3.16
407.799	6.65
408.012	65.94
408.226	36.88
408.439	84.73
408.652	5.3
408.865	43.66
409.078	102.56
409.291	38.04
409.504	-2.84
409.717	44.63
409.93	65.55
410.143	35.33
410.357	11.11
410.57	25.25
410.783	37.46
410.996	40.17
411.209	42.88
411.421	67.1
411.634	39.01
411.847	14.79
412.06	50.25
412.273	16.53
412.486	37.65
412.699	135.3
412.912	38.62
413.125	73.69
413.338	48.11
413.55	79.11
413.763	49.47
413.976	41.53
414.189	31.26
414.402	33
414.615	98.68
414.827	-0.32
415.04	69.43
415.253	74.27
415.466	58.58
415.678	109.53
415.891	36.49
416.104	46.18
416.316	41.33
416.529	39.98
416.742	46.56
416.954	106.43
417.167	58
417.38	39.98
417.592	70.01
417.805	16.15
418.017	-1.68
418.23	93.06
418.442	12.08
418.655	23.12
418.868	69.43
419.08	82.6
419.293	77.56
419.505	44.24
419.718	80.08
419.93	72.33
420.142	29.32
420.355	115.54
420.567	134.91
420.78	90.54
420.992	37.46
421.205	106.04
421.417	19.25
421.629	26.61
421.842	32.23
422.054	6.46
422.266	82.41
422.479	76.21
422.691	58.96
422.903	89.58
423.115	22.93
423.328	64.58
423.54	76.21
423.752	69.62
423.964	30.68
424.177	76.98
424.389	66.71
424.601	189.94
424.813	79.5
425.025	74.08
425.238	101.98
425.45	53.35
425.662	26.03
425.874	372.06
426.086	84.34
426.298	97.91
426.51	92.29
426.722	42.11
426.934	44.43
427.146	82.21
427.358	39.2
427.57	101.98
427.782	65.94
427.994	77.56
428.206	53.93
428.418	28.35
428.63	111.28
428.842	102.17
429.054	98.88
429.266	111.47
429.478	65.55
429.69	64.19
429.902	24.28
430.114	106.24
430.325	96.74
430.537	81.24
430.749	78.14
430.961	15.56
431.173	66.52
431.384	123.87
431.596	4.52
431.808	69.62
432.02	88.41
432.231	88.8
432.443	136.66
432.655	91.32
432.867	45.6
433.078	111.47
433.29	170.37
433.502	140.73
433.713	114.18
433.925	126
434.136	146.54
434.348	71.75
434.56	45.6
434.771	191.29
434.983	93.26
435.194	55.28
435.406	101.59
435.617	142.28
435.829	195.17
436.04	114.57
436.252	160.1
436.463	186.26
436.675	172.11
436.886	132.59
437.098	141.69
437.309	179.47
437.521	135.3
437.732	160.68
437.943	129.68
438.155	136.08
438.366	71.17
438.578	180.25
438.789	131.23
439	164.75
439.211	138.4
439.423	159.71
439.634	171.34
439.845	142.47
440.057	148.86
440.268	177.92
440.479	138.59
440.69	146.15
440.902	137.43
441.113	157.58
441.324	165.91
441.535	188.19
441.746	205.63
441.957	126.97
442.168	145.18
442.38	176.18
442.591	195.75
442.802	161.07
443.013	164.56
443.224	169.01
443.435	168.24
443.646	167.85
443.857	194.78
444.068	141.5
444.279	169.21
444.49	238.76
444.701	164.17
444.912	263.37
445.123	220.36
445.334	213.77
445.545	196.91
445.756	172.31
445.967	160.68
446.178	183.16
446.388	235.08
446.599	207.76
446.81	216.09
447.021	196.33
447.232	242.64
447.443	277.7
447.653	173.86
447.864	238.18
448.075	215.51
448.286	212.41
448.496	228.3
448.707	264.92
448.918	203.11
449.129	329.05
449.339	183.74
449.55	218.42
449.761	204.66
449.971	235.08
450.182	211.64
450.393	268.02
450.603	214.16
450.814	247.29
451.024	224.23
451.235	280.22
451.446	300.18
451.656	292.04
451.867	232.76
452.077	241.28
452.288	285.07
452.498	295.34
452.709	239.54
452.919	273.64
453.13	232.56
453.34	283.32
453.55	186.64
453.761	276.15
453.971	237.99
454.182	267.44
454.392	260.27
454.602	311.22
454.813	284.87
455.023	296.5
455.233	244.38
455.444	278.09
455.654	181.99
455.864	256.97
456.075	236.82
456.285	257.55
456.495	233.72
456.705	297.08
456.916	329.24
457.126	322.07
457.336	281
457.546	210.86
457.756	233.14
457.967	301.34
458.177	265.89
458.387	292.62
458.597	262.2
458.807	270.92
459.017	257.94
459.227	272.67
459.437	281.58
459.647	303.86
459.857	314.32
460.068	239.54
460.278	322.85
460.488	310.06
460.698	341.45
460.908	311.42
461.117	232.76
461.327	289.52
461.537	306.38
461.747	298.24
461.957	305.41
462.167	366.63
462.377	328.27
462.587	303.47
462.797	330.02
463.007	312.39
463.216	312.19
463.426	336.22
463.636	339.51
463.846	287.78
464.056	278.29
464.265	331.37
464.475	272.86
464.685	322.85
464.895	328.85
465.104	332.73
465.314	376.13
465.524	320.91
465.733	267.82
465.943	406.74
466.153	383.1
466.362	367.6
466.572	351.33
466.782	309.67
466.991	351.13
467.201	387.75
467.41	260.85
467.62	343.97
467.829	318.2
468.039	350.55
468.249	331.18
468.458	342.42
468.668	368.18
468.877	356.37
469.086	395.7
469.296	388.92
469.505	343
469.715	407.32
469.924	359.66
470.134	399.57
470.343	405.38
470.552	349.39
470.762	341.83
470.971	306.96
471.18	370.7
471.39	339.9
471.599	319.75
471.808	416.04
472.018	356.75
472.227	396.86
472.436	396.86
472.645	377.1
472.855	382.72
473.064	450.72
473.273	398.8
473.482	388.53
473.691	434.83
473.901	400.73
474.11	366.25
474.319	471.45
474.528	410.03
474.737	482.3
474.946	445.88
475.155	417.78
475.364	480.75
475.573	434.25
475.783	438.9
475.992	440.45
476.201	450.14
476.41	426.5
476.619	393.37
476.828	437.74
477.037	417.01
477.245	434.45
477.454	468.55
477.663	458.28
477.872	433.09
478.081	497.03
478.29	414.49
478.499	561.74
478.708	488.7
478.917	519.69
479.125	478.43
479.334	477.85
479.543	470.29
479.752	502.84
479.961	520.28
480.169	553.99
480.378	467.38
480.587	607.85
480.796	505.94
481.004	500.9
481.213	522.02
481.422	550.11
481.63	501.48
481.839	555.15
482.048	593.32
482.256	532.09
482.465	539.84
482.674	590.99
482.882	564.06
483.091	634.97
483.299	559.61
483.508	618.12
483.716	580.73
483.925	583.05
484.134	535.58
484.342	535.39
484.551	581.31
484.759	590.02
484.967	585.57
485.176	624.12
485.384	588.47
485.593	606.49
485.801	593.32
486.01	581.5
486.218	535.58
486.426	472.03
486.635	520.08
486.843	529.19
487.051	532.87
487.26	539.65
487.468	571.62
487.676	610.76
487.885	566.39
488.093	591.77
488.301	596.22
488.509	594.87
488.717	660.94
488.926	612.5
489.134	617.73
489.342	615.41
489.55	609.98
489.758	618.12
489.967	624.9
490.175	728.75
490.383	664.23
490.591	719.45
490.799	622.19
491.007	700.85
491.215	690.97
491.423	652.99
491.631	670.62
491.839	670.04
492.047	704.14
492.255	638.46
492.463	604.75
492.671	665.97
492.879	723.9
493.087	698.72
493.295	720.03
493.503	704.72
493.711	717.51
493.919	733.2
494.127	773.12
494.334	733.01
494.542	678.57
494.75	718.48
494.958	720.61
495.166	773.31
495.374	712.09
495.581	764.2
495.789	749.48
495.997	789
496.205	694.65
496.412	709.76
496.62	748.51
496.828	785.32
497.035	728.17
497.243	776.99
497.451	754.9
497.658	786.68
497.866	766.92
498.074	816.52
498.281	723.9
498.489	808.96
498.696	765.37
498.904	763.62
499.112	743.86
499.319	820.2
499.527	740.37
499.734	785.52
499.942	721.19
500.149	762.27
500.357	740.95
500.564	743.67
500.771	763.82
500.979	732.04
501.186	748.7
501.394	757.81
501.601	733.2
501.808	772.73
502.016	745.22
502.223	743.09
502.43	767.88
502.638	769.82
502.845	745.02
503.052	842.87
503.26	766.72
503.467	859.91
503.674	801.6
503.881	833.57
504.089	876.77
504.296	870.76
504.503	755.29
504.71	818.84
504.917	787.65
505.125	807.8
505.332	826.4
505.539	835.31
505.746	900.41
505.953	847.51
506.16	860.5
506.367	925.6
506.574	929.28
506.781	909.9
506.988	833.18
507.195	856.43
507.402	858.95
507.609	910.29
507.816	852.75
508.023	838.99
508.23	880.45
508.437	790.94
508.644	882.39
508.851	947.88
509.058	923.27
509.265	915.71
509.472	933.54
509.679	1004.06
509.885	909.13
510.092	908.93
510.299	902.73
510.506	884.33
510.713	876.38
510.92	924.82
511.126	958.14
511.333	962.99
511.54	955.63
511.746	1000.38
511.953	1009.1
512.16	989.92
512.367	944.39
512.573	924.63
512.78	949.23
512.987	938.58
513.193	945.74
513.4	876
513.606	933.93
513.813	969.77
514.02	967.06
514.226	988.56
514.433	995.73
514.639	938.96
514.846	968.03
515.052	949.62
515.259	972.48
515.465	959.69
515.672	984.3
515.878	1086.21
516.085	993.6
516.291	1032.16
516.497	956.98
516.704	967.64
516.91	925.01
517.117	911.65
517.323	852.36
517.529	922.88
517.736	928.89
517.942	915.91
518.148	929.47
518.354	956.21
518.561	924.43
518.767	943.81
518.973	1038.36
519.179	995.54
519.386	976.74
519.592	981.39
519.798	971.51
520.004	1034.67
520.21	1009.88
520.417	1072.65
520.623	1087.76
520.829	1105.2
521.035	1104.42
521.241	1108.1
521.447	1095.12
521.653	1184.83
521.859	1123.02
522.065	1124.96
522.271	1246.63
522.477	1203.82
522.683	1176.3
522.889	1180.76
523.095	1146.08
523.301	1148.02
523.507	1167.78
523.713	1167.59
523.919	1117.02
524.125	1203.43
524.331	1191.8
524.537	1267.17
524.742	1183.86
524.948	1250.32
525.154	1242.18
525.36	1298.36
525.566	1235.98
525.772	1289.26
525.977	1154.22
526.183	1229.58
526.389	1258.26
526.595	1227.07
526.8	1190.06
527.006	1185.02
527.212	1166.04
527.417	1165.07
527.623	1118.57
527.829	1179.79
528.034	1197.81
528.24	1224.55
528.446	1227.45
528.651	1291
528.857	1248.18
529.062	1305.53
529.268	1278.8
529.473	1315.8
529.679	1306.31
529.884	1386.91
530.09	1352.23
530.295	1335.37
530.501	1308.83
530.706	1313.67
530.912	1298.36
531.117	1325.49
531.323	1370.83
531.528	1340.99
531.733	1367.15
531.939	1348.16
532.144	1403.96
532.35	1369.47
532.555	1413.26
532.76	1384.19
532.966	1384
533.171	1350.48
533.376	1273.18
533.581	1271.05
533.787	1345.45
533.992	1355.13
534.197	1351.45
534.402	1327.04
534.607	1370.44
534.813	1452.98
535.018	1376.06
535.223	1351.26
535.428	1377.22
535.633	1411.9
535.838	1401.63
536.043	1431.28
536.249	1493.47
536.454	1403.18
536.659	1444.64
536.864	1379.35
537.069	1405.31
537.274	1433.99
537.479	1385.36
537.684	1446.78
537.889	1405.51
538.094	1489.21
538.299	1412.29
538.504	1426.82
538.708	1428.37
538.913	1480.68
539.118	1428.76
539.323	1452.59
539.528	1429.92
539.733	1425.66
539.938	1440.38
540.142	1434.57
540.347	1364.63
540.552	1394.66
540.757	1404.34
540.962	1378.96
541.166	1340.41
541.371	1328.01
541.576	1383.03
541.781	1314.83
541.985	1435.73
542.19	1422.75
542.395	1482.23
542.599	1482.81
542.804	1435.15
543.008	1490.17
543.213	1385.94
543.418	1377.99
543.622	1417.71
543.827	1431.08
544.031	1520.79
544.236	1492.11
544.44	1468.67
544.645	1527.76
544.849	1452.39
545.054	1480.49
545.258	1563.02
545.463	1508.39
545.667	1478.94
545.872	1479.32
546.076	1489.98
546.281	1490.17
546.485	1448.33
546.689	1488.04
546.894	1542.1
547.098	1513.23
547.302	1471.57
547.507	1501.61
547.711	1501.02
547.915	1570.19
548.119	1470.8
548.324	1462.08
548.528	1540.74
548.732	1497.54
548.936	1552.17
549.141	1555.27
549.345	1511.68
549.549	1511.29
549.753	1536.29
549.957	1598.09
550.161	1625.41
550.366	1543.65
550.57	1503.54
550.774	1525.44
550.978	1497.54
551.182	1584.72
551.386	1503.74
551.59	1496.18
551.794	1488.82
551.998	1579.1
552.202	1506.26
552.406	1492.69
552.61	1553.53
552.814	1543.84
553.018	1595.19
553.222	1533.19
553.426	1496.96
553.63	1607
553.833	1543.84
554.037	1483.39
554.241	1571.94
554.445	1528.54
554.649	1555.85
554.853	1498.7
555.056	1576.2
555.26	1611.07
555.464	1546.36
555.668	1575.62
555.871	1623.86
556.075	1604.29
556.279	1540.74
556.483	1468.67
556.686	1516.52
556.89	1521.56
557.094	1541.71
557.297	1451.04
557.501	1567.09
557.704	1446.97
557.908	1509.94
558.112	1466.73
558.315	1535.32
558.519	1467.31
558.722	1477.58
558.926	1494.63
559.129	1417.71
559.333	1389.43
559.536	1421.59
559.74	1423.33
559.943	1424.3
560.147	1379.16
560.35	1462.66
560.553	1408.99
560.757	1439.03
560.96	1551.59
561.164	1439.99
561.367	1514.78
561.57	1462.47
561.774	1492.89
561.977	1448.91
562.18	1446.58
562.384	1538.22
562.587	1454.14
562.79	1449.49
562.993	1439.03
563.197	1508.77
563.4	1523.11
563.603	1473.12
563.806	1564.38
564.009	1457.04
564.212	1515.94
564.416	1391.36
564.619	1455.11
564.822	1399.31
565.025	1504.71
565.228	1426.82
565.431	1408.61
565.634	1340.99
565.837	1369.08
566.04	1378.19
566.243	1343.9
566.446	1303.4
566.649	1437.09
566.852	1335.95
567.055	1408.61
567.258	1432.24
567.461	1440.96
567.664	1437.86
567.867	1353.39
568.07	1433.99
568.273	1386.91
568.475	1419.84
568.678	1353.97
568.881	1349.32
569.084	1384.78
569.287	1289.06
569.489	1341.18
569.692	1381.29
569.895	1358.04
570.098	1293.52
570.3	1301.46
570.503	1268.33
570.706	1279.18
570.909	1309.02
571.111	1224.35
571.314	1230.75
571.516	1195.1
571.719	1259.42
571.922	1272.79
572.124	1244.7
572.327	1276.08
572.529	1259.23
572.732	1227.26
572.935	1267.56
573.137	1351.26
573.34	1253.42
573.542	1333.05
573.745	1295.07
573.947	1265.43
574.15	1243.34
574.352	1243.73
574.554	1306.89
574.757	1243.34
574.959	1233.46
575.162	1206.14
575.364	1211.76
575.566	1310.18
575.769	1182.89
575.971	1218.93
576.173	1123.02
576.376	1243.53
576.578	1235.59
576.78	1292.94
576.982	1145.69
577.185	1194.13
577.387	1194.52
577.589	1164.87
577.791	1204.01
577.993	1265.43
578.196	1185.22
578.398	1209.63
578.6	1210.98
578.802	1139.3
579.004	1128.25
579.206	1165.45
579.408	1194.71
579.61	1177.85
579.812	1230.75
580.014	1162.74
580.216	1188.7
580.418	1199.36
580.62	1175.92
580.822	1122.64
581.024	1192.97
581.226	1224.16
581.428	1184.64
581.63	1278.22
581.832	1155.38
582.034	1249.73
582.236	1222.22
582.438	1232.1
582.64	1279.57
582.841	1301.27
583.043	1284.61
583.245	1210.6
583.447	1234.43
583.649	1226.87
583.85	1256.9
584.052	1249.93
584.254	1190.45
584.456	1244.7
584.657	1204.2
584.859	1182.5
585.061	1194.13
585.262	1167.2
585.464	1143.95
585.666	1190.06
585.867	1149.57
586.069	1215.05
586.27	1206.33
586.472	1189.48
586.674	1168.36
586.875	1145.69
587.077	1167.78
587.278	1179.79
587.48	1149.37
587.681	1265.43
587.883	1171.07
588.084	1137.94
588.285	1150.15
588.487	1141.43
588.688	1160.8
588.89	1059.86
589.091	1057.73
589.292	1054.82
589.494	1040.1
589.695	1055.6
589.896	968.8
590.098	954.46
590.299	1015.69
590.5	1016.08
590.702	1051.53
590.903	1091.44
591.104	1109.46
591.305	1084.66
591.507	1140.27
591.708	1122.25
591.909	1065.67
592.11	1156.93
592.311	1118.37
592.512	1044.36
592.714	1033.12
592.915	1073.81
593.116	1031.38
593.317	1067.03
593.518	1052.69
593.719	1084.27
593.92	1085.24
594.121	1130.39
594.322	1112.37
594.523	1133.68
594.724	1037.58
594.925	1055.41
595.126	1064.12
595.327	1082.34
595.528	1079.04
595.729	1073.42
595.929	1074.78
596.13	1082.92
596.331	1080.59
596.532	1084.47
596.733	1114.69
596.934	1117.02
597.135	1107.14
597.335	1101.52
597.536	1048.24
597.737	1114.11
597.938	1041.65
598.138	1071.1
598.339	1077.49
598.54	1111.01
598.74	1060.64
598.941	1086.02
599.142	1162.94
599.342	1106.94
599.543	1027.7
599.744	1052.11
599.944	1050.76
600.145	1058.12
600.345	1066.06
600.546	1144.14
600.746	1119.15
600.947	1155.77
601.147	1079.43
601.348	1103.07
601.548	1068.77
601.749	1075.56
601.949	1012.98
602.15	1068.19
602.35	1049.4
602.551	1106.94
602.751	1047.85
602.951	1051.53
603.152	1002.32
603.352	1081.76
603.552	1068.97
603.753	1081.17
603.953	1092.41
604.153	1092.61
604.354	1071.29
604.554	1072.65
604.754	1062.77
604.954	1023.63
605.155	1111.01
605.355	1045.14
605.555	1127.48
605.755	1126.51
605.955	1036.61
606.155	1084.47
606.356	1077.69
606.556	1112.17
606.756	1053.66
606.956	988.95
607.156	1152.09
607.356	1035.06
607.556	1106.94
607.756	1066.06
607.956	1105.39
608.156	1073.04
608.356	1031.96
608.556	1088.73
608.756	1068
608.956	1034.87
609.156	1089.51
609.356	1045.33
609.556	993.02
609.755	1042.04
609.955	1002.71
610.155	1038.74
610.355	1038.36
610.555	1030.61
610.755	1006.19
610.954	968.99
611.154	1049.79
611.354	1058.51
611.554	1018.59
611.753	1008.13
611.953	978.49
612.153	1049.21
612.352	1013.36
612.552	959.5
612.752	945.36
612.951	987.21
613.151	1027.89
613.351	965.7
613.55	974.03
613.75	994.76
613.949	1009.29
614.149	1024.99
614.348	972.87
614.548	979.07
614.747	937.41
614.947	979.46
615.146	908.55
615.346	1003.09
615.545	987.79
615.745	989.53
615.944	982.94
616.144	991.28
616.343	983.91
616.542	949.62
616.742	1008.33
616.941	966.67
617.14	928.31
617.34	973.45
617.539	976.16
617.738	943.61
617.938	1021.69
618.137	924.24
618.336	897.5
618.535	971.9
618.734	974.61
618.934	1001.54
619.133	980.23
619.332	974.42
619.531	937.61
619.73	936.25
619.929	992.44
620.128	957.37
620.328	1027.51
620.527	965.89
620.726	964.93
620.925	974.03
621.124	912.03
621.323	956.01
621.522	906.22
621.721	904.28
621.92	925.79
622.119	965.31
622.318	920.75
622.517	939.16
622.715	929.47
622.914	901.38
623.113	929.08
623.312	891.3
623.511	927.34
623.71	938.19
623.909	900.8
624.107	970.35
624.306	868.83
624.505	889.56
624.704	882.78
624.902	872.7
625.101	950.59
625.3	894.21
625.499	865.15
625.697	893.05
625.896	875.61
626.095	908.93
626.293	850.81
626.492	854.49
626.69	896.73
626.889	830.85
627.088	907.58
627.286	893.43
627.485	877.55
627.683	843.64
627.882	893.82
628.08	800.63
628.279	827.75
628.477	910.48
628.676	817.1
628.874	875.22
629.073	814.77
629.271	796.17
629.469	842.87
629.668	819.62
629.866	807.22
630.065	821.17
630.263	858.95
630.461	801.6
630.66	832.98
630.858	878.13
631.056	899.83
631.254	881.61
631.453	793.85
631.651	888.98
631.849	862.24
632.047	875.22
632.245	843.06
632.444	842.87
632.642	836.47
632.84	887.62
633.038	824.65
633.236	783.19
633.434	814.77
633.632	831.82
633.83	795.2
634.028	864.18
634.227	831.24
634.425	872.12
634.623	836.28
634.821	872.31
635.019	863.01
635.216	825.82
635.414	881.23
635.612	880.84
635.81	842.87
636.008	870.96
636.206	837.63
636.404	834.92
636.602	772.73
636.8	812.06
636.997	848.87
637.195	870.96
637.393	848.87
637.591	918.81
637.789	885.3
637.986	835.5
638.184	834.15
638.382	912.23
638.58	874.25
638.777	916.49
638.975	846.55
639.173	856.23
639.37	860.69
639.568	859.33
639.765	844.22
639.963	815.93
640.161	892.66
640.358	896.34
640.556	845.19
640.753	822.33
640.951	813.42
641.148	819.42
641.346	819.42
641.543	830.47
641.741	860.88
641.938	798.3
642.136	800.43
642.333	783.19
642.531	861.46
642.728	867.66
642.925	843.83
643.123	827.37
643.32	837.05
643.517	801.02
643.715	805.47
643.912	839.57
644.109	822.13
644.306	849.45
644.504	795.01
644.701	821.94
644.898	835.89
645.095	756.45
645.293	807.02
645.49	826.98
645.687	824.65
645.884	877.55
646.081	752
646.278	806.44
646.475	763.04
646.672	757.23
646.87	830.66
647.067	795.59
647.264	784.74
647.461	762.07
647.658	710.54
647.855	807.6
648.052	744.05
648.249	663.07
648.446	725.07
648.642	739.79
648.839	714.8
649.036	720.03
649.233	692.32
649.43	699.1
649.627	714.6
649.824	709.37
650.021	679.54
650.217	701.24
650.414	729.33
650.611	751.22
650.808	759.94
651.004	759.17
651.201	773.12
651.398	785.32
651.595	727.59
651.791	707.44
651.988	742.89
652.185	708.21
652.381	757.62
652.578	693.29
652.775	732.24
652.971	742.31
653.168	716.54
653.364	738.05
653.561	658.42
653.757	713.83
653.954	743.47
654.15	729.14
654.347	794.43
654.543	726.62
654.74	680.12
654.936	701.24
655.133	733.59
655.329	737.27
655.525	713.05
655.722	695.23
655.918	661.91
656.115	706.08
656.311	607.66
656.507	584.21
656.704	577.04
656.9	605.14
657.096	609.01
657.292	626.64
657.489	662.1
657.685	668.3
657.881	666.17
658.077	650.47
658.273	669.46
658.47	754.9
658.666	684.96
658.862	718.87
659.058	670.43
659.254	725.45
659.45	688.84
659.646	688.25
659.842	682.44
660.038	738.44
660.234	659.58
660.43	668.69
660.626	750.45
660.822	715.38
661.018	701.62
661.214	692.52
661.41	630.71
661.606	723.32
661.802	714.02
661.998	685.35
662.194	688.06
662.39	707.82
662.586	683.41
662.781	691.94
662.977	708.21
663.173	723.52
663.369	679.15
663.564	694.07
663.76	717.32
663.956	679.92
664.152	708.99
664.347	623.74
664.543	633.04
664.739	653.77
664.934	609.4
665.13	601.26
665.326	702.01
665.521	712.28
665.717	607.66
665.912	635.75
666.108	603.01
666.304	645.82
666.499	660.16
666.695	594.67
666.89	616.37
667.086	653.19
667.281	648.92
667.477	714.99
667.672	668.3
667.867	638.27
668.063	683.8
668.258	619.47
668.454	623.93
668.649	708.4
668.844	614.82
669.04	672.75
669.235	633.42
669.43	622.57
669.626	560.77
669.821	602.62
670.016	568.13
670.211	619.47
670.407	605.52
670.602	616.18
670.797	622.19
670.992	635.56
671.187	602.04
671.382	650.09
671.578	581.11
671.773	621.22
671.968	578.4
672.163	607.27
672.358	628.58
672.553	584.6
672.748	602.81
672.943	657.64
673.138	607.46
673.333	636.91
673.528	583.24
673.723	637.3
673.918	614.82
674.113	572.01
674.308	694.07
674.503	634.01
674.698	647.96
674.892	613.27
675.087	621.41
675.282	654.16
675.477	603.01
675.672	655.12
675.867	582.08
676.061	573.56
676.256	561.35
676.451	573.17
676.646	579.95
676.84	558.25
677.035	573.56
677.23	578.4
677.424	641.95
677.619	624.51
677.814	641.95
678.008	615.21
678.203	557.09
678.397	598.55
678.592	579.37
678.787	655.71
678.981	586.92
679.176	622.38
679.37	600.29
679.565	572.59
679.759	582.08
679.954	624.51
680.148	672.95
680.342	645.05
680.537	630.71
680.731	612.11
680.926	633.23
681.12	655.51
681.314	592.35
681.509	598.94
681.703	607.46
681.897	599.52
682.092	610.56
682.286	577.24
682.48	657.45
682.674	627.61
682.869	566.97
683.063	596.03
683.257	696.59
683.451	564.45
683.645	621.41
683.839	575.3
684.034	617.54
684.228	644.86
684.422	560.19
684.616	547.21
684.81	635.75
685.004	602.81
685.198	598.36
685.392	613.66
685.586	565.23
685.78	603.39
685.974	631.49
686.168	635.17
686.362	669.07
686.556	565.61
686.75	561.93
686.944	536.16
687.138	548.76
687.331	457.7
687.525	462.54
687.719	410.42
687.913	482.11
688.107	464.09
688.301	467.96
688.494	513.11
688.688	472.23
688.882	424.76
689.076	447.23
689.269	492.38
689.463	565.61
689.657	465.25
689.85	500.13
690.044	510.98
690.238	489.66
690.431	518.92
690.625	504.97
690.818	531.51
691.012	554.38
691.205	585.76
691.399	553.41
691.593	559.03
691.786	629.55
691.98	599.71
692.173	665.59
692.366	617.15
692.56	642.53
692.753	657.45
692.947	570.65
693.14	650.28
693.333	666.36
693.527	579.56
693.72	677.02
693.914	613.86
694.107	643.11
694.3	650.47
694.493	601.65
694.687	685.93
694.88	607.27
695.073	731.46
695.266	661.91
695.46	678.18
695.653	726.23
695.846	756.65
696.039	642.72
696.232	693.29
696.425	704.72
696.618	758.58
696.812	713.05
697.005	788.81
697.198	848.48
697.391	822.13
697.584	792.3
697.777	851.2
697.97	831.43
698.163	824.27
698.356	829.88
698.549	863.79
698.742	873.09
698.935	802.95
699.127	855.26
699.32	819.03
699.513	843.06
699.706	845.38
699.899	887.04
700.092	854.1
700.285	878.9
700.477	829.11
700.67	888.4
700.863	928.31
701.056	1004.26
701.248	925.6
701.441	946.91
701.634	910.68
701.826	1008.91
702.019	913.2
702.212	968.22
702.404	914.94
702.597	884.52
702.79	893.63
702.982	956.98
703.175	1022.27
703.367	1034.09
703.56	1003.29
703.752	1054.82
703.945	1066.84
704.137	1095.9
704.33	1107.52
704.522	1116.44
704.715	1104.04
704.907	1133.49
705.1	1176.5
705.292	1170.1
705.484	1098.42
705.677	1143.75
705.869	1163.71
706.061	1218.15
706.254	1225.52
706.446	1192.39
706.638	1173.01
706.831	1266.98
707.023	1181.92
707.215	1297.78
707.407	1270.66
707.599	1283.45
707.792	1314.45
707.984	1318.13
708.176	1300.5
708.368	1283.64
708.56	1327.81
708.752	1304.95
708.944	1302.63
709.136	1356.88
709.329	1322.78
709.521	1464.02
709.713	1408.61
709.905	1387.29
710.097	1462.86
710.289	1400.28
710.481	1402.21
710.672	1431.66
710.864	1429.14
711.056	1516.52
711.248	1496.76
711.44	1528.54
711.632	1500.83
711.824	1535.9
712.016	1580.46
712.207	1572.9
712.399	1545.2
712.591	1586.85
712.783	1639.75
712.975	1636.45
713.166	1549.85
713.358	1574.65
713.55	1644.01
713.741	1658.54
713.933	1682.57
714.125	1709.69
714.316	1638.2
714.508	1720.93
714.7	1712.02
714.891	1666.29
715.083	1734.1
715.274	1666.48
715.466	1735.07
715.657	1799.98
715.849	1655.83
716.04	1716.47
716.232	1633.16
716.423	1743.6
716.615	1666.87
716.806	1640.33
716.998	1603.52
717.189	1579.1
717.381	1455.49
717.572	1449.1
717.763	1471.38
717.955	1467.12
718.146	1407.83
718.337	1386.13
718.528	1361.33
718.72	1291
718.911	1365.4
719.102	1336.53
719.293	1387.1
719.485	1358.62
719.676	1362.88
719.867	1316.58
720.058	1330.33
720.249	1353.39
720.44	1378.38
720.632	1422.17
720.823	1444.84
721.014	1565.93
721.205	1547.33
721.396	1631.03
721.587	1753.28
721.778	1732.55
721.969	1766.46
722.16	1818.38
722.351	1849.19
722.542	1945.09
722.733	1910.61
722.924	1851.13
723.115	1885.23
723.305	1857.91
723.496	1859.46
723.687	1777.11
723.878	1815.67
724.069	1780.8
724.26	1776.15
724.45	1708.14
724.641	1688.77
724.832	1737.4
725.023	1748.63
725.213	1712.98
725.404	1712.98
725.595	1760.45
725.785	1700.39
725.976	1766.85
726.167	1780.6
726.357	1742.82
726.548	1893.94
726.739	1814.12
726.929	1888.91
727.12	1841.63
727.31	1887.94
727.501	1826.52
727.691	1879.03
727.882	1863.33
728.072	1855.97
728.263	1910.61
728.453	1929.79
728.644	1918.16
728.834	1938.7
729.024	1923.78
729.215	1863.14
729.405	1925.91
729.596	2003.22
729.786	1993.72
729.976	1987.52
730.167	2021.43
730.357	1939.28
730.547	2018.14
730.737	2053.98
730.928	2056.89
731.118	2078
731.308	2047.39
731.498	2049.91
731.688	2128.77
731.879	2127.02
732.069	2206.46
732.259	2172.94
732.449	2204.91
732.639	2243.66
732.829	2303.72
733.019	2343.63
733.209	2388.58
733.399	2408.92
733.589	2474.41
733.779	2440.7
733.969	2479.45
734.159	2513.55
734.349	2551.13
734.539	2590.08
734.729	2543.77
734.919	2611.58
735.109	2610.61
735.299	2528.85
735.488	2606.55
735.678	2586.78
735.868	2593.76
736.058	2573.03
736.248	2580.2
736.437	2558.11
736.627	2552.68
736.817	2685.21
737.007	2605.96
737.196	2654.98
737.386	2634.83
737.576	2588.53
737.765	2662.15
737.955	2632.7
738.144	2730.16
738.334	2713.88
738.524	2659.63
738.713	2665.25
738.903	2643.36
739.092	2722.41
739.282	2717.37
739.471	2732.68
739.661	2689.86
739.85	2784.21
740.04	2792.35
740.229	2798.55
740.419	2813.47
740.608	2852.22
740.797	2795.06
740.987	2876.63
741.176	2841.17
741.365	2747.98
741.555	2767.74
741.744	2831.68
741.933	2781.5
742.123	2859.39
742.312	2880.7
742.501	2906.27
742.69	2932.24
742.88	2812.5
743.069	2968.85
743.258	2823.93
743.447	2914.41
743.636	2913.25
743.825	2890.19
744.014	2919.84
744.204	2912.28
744.393	2902.4
744.582	3031.82
744.771	3014
744.96	2936.69
745.149	2976.99
745.338	2926.81
745.527	3000.43
745.716	2980.09
745.905	2958.97
746.094	3007.8
746.283	3030.27
746.471	2997.33
746.66	3031.24
746.849	3069.21
747.038	3083.16
747.227	2978.73
747.416	3006.63
747.604	2921.19
747.793	2970.98
747.982	2985.52
748.171	2997.53
748.359	3042.28
748.548	3050.03
748.737	3005.67
748.926	3033.76
749.114	2912.86
749.303	3006.25
749.491	2987.07
749.68	2927.59
749.869	3028.14
750.057	2991.72
750.246	2952.58
750.434	2950.45
750.623	2967.69
750.811	2953.16
751	3025.23
751.188	2979.51
751.377	2976.8
751.565	2971.76
751.754	2938.24
751.942	2921.19
752.131	2945.8
752.319	2887.09
752.507	2909.95
752.696	2942.7
752.884	2947.15
753.072	2906.47
753.261	2908.4
753.449	2929.14
753.637	2877.21
753.825	2996.37
754.014	2911.7
754.202	2932.43
754.39	2988.81
754.578	2962.07
754.766	2891.74
754.955	2903.95
755.143	2960.72
755.331	2899.69
755.519	2857.64
755.707	2880.5
755.895	2891.55
756.083	2917.51
756.271	2847.18
756.459	2870.43
756.647	2918.48
756.835	2851.44
757.023	2881.28
757.211	2856.09
757.399	2871.79
757.587	2871.4
757.775	2828.77
757.963	2858.42
758.151	2834.39
758.339	2834.59
758.526	2811.34
758.714	2845.63
758.902	2714.66
759.09	2673.2
759.278	2473.83
759.465	2269.23
759.653	2013.1
759.841	1764.52
760.028	1488.24
760.216	1331.88
760.404	1245.67
760.591	1004.06
760.779	854.49
760.967	730.69
761.154	591.57
761.342	646.99
761.529	630.91
761.717	725.84
761.905	714.6
762.092	811.09
762.28	745.6
762.467	725.65
762.655	651.83
762.842	701.62
763.029	730.49
763.217	739.02
763.404	702.2
763.592	735.53
763.779	698.33
763.966	775.05
764.154	779.32
764.341	808.18
764.528	846.55
764.716	903.7
764.903	923.27
765.09	1013.94
765.277	1052.89
765.465	1186.57
765.652	1223.38
765.839	1283.83
766.026	1385.36
766.213	1436.31
766.4	1534.74
766.588	1722.09
766.775	1670.36
766.962	1772.85
767.149	1864.3
767.336	1921.07
767.523	1917.77
767.71	2035.38
767.897	2122.95
768.084	2215.95
768.271	2222.54
768.458	2295.58
768.645	2333.56
768.832	2285.31
769.019	2350.41
769.206	2372.11
769.392	2428.3
769.579	2495.53
769.766	2436.63
769.953	2462.79
770.14	2518.2
770.327	2463.37
770.513	2507.54
770.7	2604.22
770.887	2514.32
771.073	2539.32
771.26	2549.2
771.447	2505.02
771.634	2507.35
771.82	2662.15
772.007	2516.26
772.193	2549
772.38	2592.21
772.567	2523.82
772.753	2559.47
772.94	2576.32
773.126	2573.42
773.313	2602.86
773.499	2595.7
773.686	2600.54
773.872	2525.75
774.059	2555.4
774.245	2503.28
774.432	2551.52
774.618	2473.44
774.804	2541.83
774.991	2473.83
775.177	2543.77
775.363	2559.27
775.55	2530.6
775.736	2473.83
775.922	2523.04
776.109	2503.09
776.295	2519.94
776.481	2563.73
776.667	2544.74
776.853	2514.32
777.04	2469.37
777.226	2488.36
777.412	2572.83
777.598	2421.71
777.784	2436.05
777.97	2426.75
778.156	2481.77
778.342	2488.36
778.528	2472.28
778.715	2399.43
778.901	2395.17
779.087	2443.99
779.272	2415.71
779.458	2398.85
779.644	2426.55
779.83	2422.29
780.016	2506.77
780.202	2420.94
780.388	2355.45
780.574	2329.88
780.76	2372.31
780.946	2430.82
781.131	2390.13
781.317	2387.81
781.503	2335.69
781.689	2331.81
781.874	2457.75
782.06	2360.87
782.246	2354.67
782.432	2356.61
782.617	2350.22
782.803	2402.92
782.989	2285.89
783.174	2319.8
783.36	2289.96
783.545	2301.01
783.731	2289.19
783.916	2221.76
784.102	2297.13
784.288	2284.34
784.473	2290.16
784.659	2239.78
784.844	2289.77
785.029	2254.51
785.215	2231.26
785.4	2198.9
785.586	2315.73
785.771	2198.71
785.956	2278.14
786.142	2256.25
786.327	2245.4
786.512	2228.35
786.698	2189.8
786.883	2149.88
787.068	2161.51
787.254	2205.3
787.439	2176.23
787.624	2185.34
787.809	2187.28
787.994	2180.69
788.18	2214.01
788.365	2125.86
788.55	2147.56
788.735	2125.28
788.92	2150.08
789.105	2117.14
789.29	2149.3
789.475	2065.8
789.66	2084.98
789.845	2081.1
790.03	2099.9
790.215	2123.15
790.4	2120.05
790.585	2152.21
790.77	2088.66
790.955	2020.07
791.14	2089.05
791.325	2167.9
791.51	2015.62
791.695	2073.93
791.879	2042.55
792.064	1996.44
792.249	2127.99
792.434	2044.1
792.618	2075.87
792.803	2052.43
792.988	2044.1
793.173	2049.52
793.357	2084.98
793.542	2008.06
793.727	2039.25
793.911	2090.79
794.096	2032.28
794.281	2073.55
794.465	2167.71
794.65	2065.99
794.834	2087.69
795.019	2143.88
795.203	2127.22
795.388	2096.41
795.572	2159.96
795.757	2072.97
795.941	2098.73
796.126	2117.72
796.31	2022.01
796.494	2043.52
796.679	2028.4
796.863	2034.99
797.048	2123.73
797.232	2093.89
797.416	2094.28
797.601	2094.67
797.785	2160.35
797.969	2147.37
798.153	2087.88
798.338	2139.81
798.522	2119.27
798.706	2102.8
798.89	2146.4
799.074	2237.85
799.258	2176.43
799.443	2118.88
799.627	2119.27
799.811	2187.66
799.995	2114.82
800.179	2088.08
800.363	2084.4
800.547	2118.11
800.731	2127.02
800.915	2054.17
801.099	2104.35
801.283	2096.22
801.467	2090.79
801.651	2092.34
801.835	2130.51
802.019	2088.85
802.202	2094.86
802.386	2018.72
802.57	2034.02
802.754	2089.82
802.938	2060.95
803.121	2052.04
803.305	2138.45
803.489	2103.19
803.673	2090.4
803.856	2098.54
804.04	2078.2
804.224	2094.47
804.407	2070.06
804.591	2086.33
804.775	2092.92
804.958	2107.84
805.142	2192.51
805.326	2095.63
805.509	2104.93
805.693	2087.69
805.876	2160.73
806.06	2120.24
806.243	2148.72
806.427	2142.52
806.61	2172.36
806.794	2101.25
806.977	2141.94
807.16	2085.17
807.344	2116.17
807.527	2069.48
807.71	2049.72
807.894	2102.03
808.077	2132.83
808.26	2049.91
808.444	2064.64
808.627	2166.35
808.81	2068.7
808.993	2030.54
809.177	2017.17
809.36	2043.9
809.543	2054.56
809.726	1973.96
809.909	1969.89
810.092	1983.65
810.276	1938.31
810.459	1998.57
810.642	1941.8
810.825	1945.67
811.008	1962.72
811.191	1871.86
811.374	1917
811.557	1876.89
811.74	1963.89
811.923	1827.88
812.106	1833.3
812.289	1823.23
812.472	1820.51
812.654	1850.74
812.837	1829.81
813.02	1756
813.203	1739.72
813.386	1652.15
813.569	1649.05
813.751	1615.14
813.934	1631.22
814.117	1620.37
814.3	1575.42
814.482	1563.02
814.665	1502.19
814.848	1468.09
815.03	1424.11
815.213	1443.09
815.396	1416.94
815.578	1415.19
815.761	1353.2
815.943	1443.68
816.126	1353.2
816.309	1320.45
816.491	1308.83
816.674	1237.92
816.856	1316.58
817.039	1288.87
817.221	1387.68
817.403	1309.8
817.586	1309.99
817.768	1357.07
817.951	1258.84
818.133	1245.28
818.315	1295.46
818.498	1315.41
818.68	1375.09
818.862	1352.61
819.045	1364.05
819.227	1353.97
819.409	1289.06
819.591	1339.05
819.774	1336.73
819.956	1292.55
820.138	1379.74
820.32	1381.48
820.502	1418.1
820.684	1464.79
820.866	1461.89
821.048	1509.36
821.231	1500.06
821.413	1486.49
821.595	1482.62
821.777	1502.96
821.959	1453.56
822.141	1518.46
822.323	1418.88
822.505	1347.58
822.686	1305.73
822.868	1271.82
823.05	1192.77
823.232	1158.29
823.414	1097.26
823.596	1159.45
823.778	1146.27
823.96	1196.45
824.141	1161.97
824.323	1223.77
824.505	1282.86
824.687	1333.05
824.868	1343.51
825.05	1433.79
825.232	1449.49
825.413	1539.97
825.595	1459.95
825.777	1401.63
825.958	1468.86
826.14	1441.93
826.321	1491.34
826.503	1443.87
826.685	1456.85
826.866	1473.71
827.048	1461.69
827.229	1421.01
827.411	1400.08
827.592	1352.61
827.773	1394.85
827.955	1342.54
828.136	1338.86
828.318	1270.08
828.499	1334.79
828.68	1285.38
828.862	1337.5
829.043	1357.46
829.224	1302.82
829.406	1297.98
829.587	1281.51
829.768	1270.27
829.949	1290.03
830.131	1290.42
830.312	1319.1
830.493	1334.98
830.674	1299.72
830.855	1293.13
831.036	1303.4
831.218	1355.52
831.399	1381.29
831.58	1317.93
831.761	1335.76
831.942	1309.41
832.123	1297.4
832.304	1248.38
832.485	1263.88
832.666	1280.15
832.847	1307.66
833.028	1299.33
833.209	1336.34
833.389	1278.6
833.57	1201.49
833.751	1258.07
833.932	1319.1
834.113	1314.25
834.294	1266.59
834.475	1327.43
834.655	1312.31
834.836	1366.18
835.017	1351.65
835.198	1308.83
835.378	1344.28
835.559	1357.07
835.74	1328.98
835.92	1310.57
836.101	1309.21
836.281	1375.67
836.462	1319.48
836.643	1361.72
836.823	1375.48
837.004	1352.42
837.184	1413.06
837.365	1376.25
837.545	1383.42
837.726	1320.06
837.906	1406.28
838.087	1363.46
838.267	1334.01
838.448	1314.83
838.628	1337.5
838.808	1369.66
838.989	1422.56
839.169	1308.83
839.349	1364.82
839.53	1373.15
839.71	1330.53
839.89	1319.68
840.07	1415.19
840.251	1375.67
840.431	1380.51
840.611	1385.74
840.791	1335.76
840.971	1369.28
841.151	1320.26
841.332	1317.35
841.512	1412.68
841.692	1294.49
841.872	1378.38
842.052	1327.62
842.232	1380.9
842.412	1285.58
842.592	1331.69
842.772	1368.89
842.952	1362.3
843.132	1313.48
843.312	1333.43
843.492	1295.85
843.672	1371.99
843.851	1301.66
844.031	1298.17
844.211	1280.73
844.391	1276.67
844.571	1343.31
844.751	1344.09
844.93	1320.45
845.11	1301.46
845.29	1330.72
845.47	1325.1
845.649	1318.71
845.829	1333.43
846.009	1302.05
846.188	1319.29
846.368	1340.8
846.547	1303.6
846.727	1354.55
846.907	1257.68
847.086	1304.95
847.266	1339.25
847.445	1307.47
847.625	1246.05
847.804	1258.84
847.984	1309.21
848.163	1289.26
848.343	1262.52
848.522	1309.41
848.701	1281.51
848.881	1277.83
849.06	1274.34
849.239	1282.67
849.419	1265.82
849.598	1202.07
849.777	1195.29
849.957	1189.29
850.136	1162.94
850.315	1144.53
850.494	1153.05
850.674	1160.42
850.853	1213.31
851.032	1196.26
851.211	1282.28
851.39	1233.85
851.569	1136.78
851.748	1150.92
851.927	1228.81
852.107	1182.7
852.286	1175.72
852.465	1139.3
852.644	1213.5
852.823	1198.97
853.002	1198.97
853.181	1179.02
853.359	1215.05
853.538	1131.55
853.717	1210.21
853.896	1102.49
854.075	1046.49
854.254	1040.68
854.433	1006.78
854.611	1030.41
854.79	967.64
854.969	1057.54
855.148	1076.52
855.327	1020.92
855.505	1093.96
855.684	1038.74
855.863	1098.03
856.041	1061.8
856.22	1122.05
856.399	1058.89
856.577	1164.49
856.756	1124.77
856.934	1230.94
857.113	1238.3
857.291	1152.09
857.47	1119.34
857.648	1133.1
857.827	1169.14
858.005	1155.57
858.184	1114.11
858.362	1220.48
858.541	1128.84
858.719	1131.55
858.898	1113.14
859.076	1139.88
859.254	1173.01
859.433	1110.04
859.611	1112.17
859.789	1056.18
859.967	1128.25
860.146	1168.55
860.324	1067.03
860.502	1068.58
860.68	1023.63
860.859	1096.09
861.037	1096.67
861.215	1089.7
861.393	1084.47
861.571	1090.86
861.749	1050.76
861.927	1092.8
862.105	1086.02
862.283	1074.59
862.461	1047.66
862.639	1043.78
862.817	1055.02
862.995	1081.56
863.173	1068.19
863.351	1057.34
863.529	1080.01
863.707	1146.27
863.885	1095.71
864.063	1006.78
864.241	1039.52
864.418	1111.59
864.596	1039.13
864.774	996.12
864.952	1025.37
865.129	1088.15
865.307	1031.77
865.485	982.56
865.663	1060.25
865.84	992.44
866.018	1006.39
866.196	860.69
866.373	890.53
866.551	896.53
866.728	856.81
866.906	907.58
867.084	923.66
867.261	949.23
867.439	966.28
867.616	999.03
867.794	956.21
867.971	952.72
868.149	962.21
868.326	1000.38
868.503	1004.06
868.681	976.74
868.858	976.94
869.035	965.7
869.213	1012.01
869.39	957.56
869.567	1024.41
869.745	951.75
869.922	968.03
870.099	980.23
870.276	1018.21
870.454	999.8
870.631	990.69
870.808	969.38
870.985	974.42
871.162	1057.15
871.339	992.05
871.517	938.58
871.694	903.51
871.871	954.66
872.048	956.21
872.225	938.77
872.402	940.13
872.579	940.51
872.756	984.3
872.933	898.86
873.11	920.95
873.287	941.87
873.463	934.31
873.64	890.14
873.817	944.97
873.994	907
874.171	876.96
874.348	918.23
874.524	877.16
874.701	937.99
874.878	853.33
875.055	917.26
875.231	888.59
875.408	941.68
875.585	837.83
875.762	894.4
875.938	871.93
876.115	894.6
876.291	858.75
876.468	872.7
876.645	802.95
876.821	838.99
876.998	866.5
877.174	884.33
877.351	847.51
877.527	861.08
877.704	890.72
877.88	873.09
878.057	851.97
878.233	906.61
878.409	863.21
878.586	863.4
878.762	869.6
878.938	859.53
879.115	802.18
879.291	841.12
879.467	795.78
879.644	803.53
879.82	879.48
879.996	815.74
880.172	784.93
880.349	820.58
880.525	822.33
880.701	785.71
880.877	795.01
881.053	846.16
881.229	820.97
881.405	856.62
881.581	789
881.757	805.86
881.933	821.55
882.109	832.21
882.285	809.93
882.461	791.33
882.637	792.49
882.813	798.69
882.989	793.07
883.165	833.57
883.341	775.44
883.517	852.55
883.693	826.4
883.869	866.5
884.044	794.62
884.22	819.03
884.396	869.8
884.572	829.11
884.747	856.23
884.923	842.87
885.099	849.65
885.275	863.6
885.45	804.12
885.626	803.53
885.801	769.24
885.977	792.49
886.153	753.74
886.328	803.53
886.504	787.84
886.679	794.62
886.855	779.7
887.03	821.75
887.206	856.23
887.381	845.19
887.557	855.26
887.732	801.21
887.908	809.54
888.083	816.71
888.258	802.95
888.434	783.77
888.609	810.12
888.784	868.44
888.96	791.13
889.135	774.08
889.31	777.18
889.485	829.11
889.661	782.03
889.836	815.93
890.011	811.48
890.186	770.4
890.361	789.2
890.537	828.53
890.712	795.98
890.887	796.37
891.062	832.98
891.237	866.7
891.412	788.62
891.587	826.78
891.762	834.53
891.937	807.6
892.112	759.17
892.287	775.83
892.462	763.23
892.637	734.95
892.812	708.6
892.987	760.13
893.161	704.14
893.336	721.39
893.511	737.08
893.686	764.78
893.861	752.19
894.035	698.52
894.21	753.16
894.385	686.12
894.56	733.79
894.734	701.43
894.909	679.73
895.084	665.39
895.258	634.59
895.433	675.27
895.608	627.22
895.782	612.89
895.957	659.19
896.131	620.83
896.306	571.23
896.48	584.79
896.655	585.57
896.829	522.21
897.004	511.17
897.178	533.84
897.353	482.5
897.527	574.33
897.701	532.87
897.876	493.35
898.05	580.34
898.224	558.83
898.399	613.66
898.573	515.82
898.747	444.13
898.921	516.21
899.096	432.9
899.27	410.42
899.444	438.71
899.618	460.21
899.792	484.43
899.967	472.42
900.141	515.43
900.315	435.03
900.489	460.6
900.663	484.82
900.837	462.93
901.011	421.27
901.185	539.07
901.359	452.46
901.533	460.8
901.707	464.86
901.881	484.05
902.055	406.74
902.229	429.02
902.403	546.04
902.576	489.66
902.75	500.32
902.924	591.57
903.098	543.14
903.272	526.48
903.446	590.61
903.619	561.74
903.793	588.47
903.967	573.17
904.14	604.17
904.314	606.11
904.488	593.9
904.661	602.42
904.835	572.39
905.009	622.19
905.182	664.81
905.356	618.7
905.529	589.83
905.703	572.01
905.876	553.41
906.05	546.82
906.223	526.09
906.397	474.55
906.57	469.13
906.744	445.3
906.917	462.93
907.09	492.96
907.264	473.2
907.437	449.36
907.61	412.55
907.784	439.68
907.957	432.9
908.13	413.52
908.304	452.66
908.477	414.3
908.65	422.63
908.823	370.7
908.996	455.56
909.17	430.96
909.343	409.65
909.516	440.26
909.689	436.77
909.862	388.14
910.035	399.18
910.208	387.95
910.381	382.13
910.554	498.77
910.727	395.89
910.9	389.88
911.073	376.13
911.246	477.26
911.419	433.67
911.592	446.85
911.765	393.76
911.938	407.71
912.11	403.83
912.283	421.08
912.456	459.63
912.629	408.87
912.802	380.97
912.974	357.33
913.147	341.83
913.32	263.17
913.493	331.95
913.665	367.02
913.838	385.04
914.01	359.85
914.183	358.88
914.356	338.93
914.528	413.52
914.701	430.38
914.873	400.35
915.046	322.65
915.218	312.58
915.391	239.54
915.563	303.09
915.736	364.5
915.908	348.62
916.081	355.4
916.253	329.63
916.425	369.93
916.598	373.61
916.77	355.59
916.942	348.62
917.115	245.54
917.287	335.25
917.459	324.2
917.632	308.9
917.804	251.35
917.976	316.84
918.148	342.03
918.32	354.62
918.493	376.32
918.665	395.7
918.837	385.62
919.009	401.7
919.181	421.46
919.353	391.43
919.525	390.85
919.697	379.03
919.869	349
920.041	422.24
920.213	473.78
920.385	424.18
920.557	374.19
920.729	405.97
920.901	397.25
921.073	379.03
921.244	362.57
921.416	411.97
921.588	372.45
921.76	359.08
921.932	406.93
922.103	356.17
922.275	356.17
922.447	353.85
922.619	318.39
922.79	369.35
922.962	360.82
923.134	385.43
923.305	314.52
923.477	303.47
923.648	311.61
923.82	344.35
923.991	282.55
924.163	289.72
924.335	290.49
924.506	280.8
924.677	359.27
924.849	271.31
925.02	317.23
925.192	355.2
925.363	310.25
925.535	309.09
925.706	288.94
925.877	373.8
926.049	260.46
926.22	300.95
926.391	304.25
926.562	369.15
926.734	273.05
926.905	330.4
927.076	253.49
927.247	286.23
927.419	249.22
927.59	233.92
927.761	280.03
927.932	229.85
928.103	276.54
928.274	220.55
928.445	208.54
928.616	205.82
928.787	214.54
928.958	252.32
929.129	228.69
929.3	226.56
929.471	184.32
929.642	118.44
929.813	115.15
929.984	192.46
930.155	128.71
930.326	189.16
930.496	144.02
930.667	104.69
930.838	132.59
931.009	101.01
931.18	118.64
931.35	105.85
931.521	150.99
931.692	59.93
931.863	63.42
932.033	89.58
932.204	92.09
932.374	68.26
932.545	68.26
932.716	114.18
932.886	101.01
933.057	42.11
933.227	29.51
933.398	114.76
933.568	17.11
933.739	-1.29
933.909	23.31
934.08	90.54
934.25	0.65
934.421	-8.27
934.591	45.98
934.761	7.23
934.932	-25.7
935.102	8.78
935.272	13.82
935.443	12.08
935.613	34.16
935.783	32.23
935.953	-5.17
936.123	136.85
936.294	-4
936.464	28.93
936.634	36.88
936.804	11.69
936.974	-29.38
937.144	53.15
937.314	25.25
937.484	10.53
937.655	-9.82
937.825	75.24
937.995	-15.63
938.165	76.01
938.334	20.41
938.504	33.2
938.674	33.2
938.844	28.55
939.014	80.47
939.184	85.7
939.354	106.63
939.524	107.4
939.694	37.26
939.863	61.87
940.033	132.98
940.203	119.22
940.373	73.49
940.542	100.43
940.712	39.59
940.882	90.16
941.051	107.98
941.221	85.51
941.391	110.11
941.56	50.25
941.73	29.9
941.899	157.39
942.069	45.01
942.238	76.98
942.408	41.14
942.577	123.48
942.747	56.45
942.916	8.98
943.086	7.04
943.255	96.94
943.425	32.42
943.594	52.76
943.763	-16.79
943.933	24.48
944.102	-17.57
944.271	50.63
944.441	57.03
944.61	21.57
944.779	69.43
944.948	133.36
945.117	9.75
945.287	34.75
945.456	-18.15
945.625	29.71
945.794	57.03
945.963	20.99
946.132	60.71
946.301	34.16
946.47	66.91
946.639	-12.92
946.808	32.23
946.977	88.41
947.146	95.78
947.315	-12.92
947.484	78.73
947.653	24.86
947.822	15.18
947.991	19.63
948.16	129.29
948.329	86.28
948.498	34.55
948.666	51.8
948.835	83.38
949.004	3.55
949.173	-5.94
949.341	57.03
949.51	82.21
949.679	73.88
949.847	71.17
950.016	140.92
950.185	103.14
950.353	34.75
950.522	30.87
950.69	81.83
950.859	8.59
951.028	75.24
951.196	45.21
951.365	48.31
951.533	86.09
951.701	86.86
951.87	72.14
952.038	2.78
952.207	40.36
952.375	128.52
952.543	37.26
952.712	37.07
952.88	9.17
953.048	87.83
953.217	37.46
953.385	32.81
953.553	81.05
953.721	-3.81
953.89	56.25
954.058	-28.03
954.226	26.61
954.394	55.28
954.562	-3.04
954.73	41.91
954.898	38.43
955.067	77.95
955.235	32.81
955.403	87.25
955.571	107.01
955.739	73.11
955.907	4.13
956.075	33.78
956.243	-2.84
956.41	60.51
956.578	-19.12
956.746	34.94
956.914	33.97
957.082	60.71
957.25	50.44
957.418	24.09
957.585	72.53
957.753	112.44
957.921	5.1
958.089	37.26
958.256	75.63
958.424	52.38
958.592	36.49
958.759	31.65
958.927	63.61
959.095	14.6
959.262	28.55
959.43	44.05
959.597	21.76
959.765	30.1
959.932	13.05
960.1	79.11
960.267	60.9
960.435	30.29
960.602	88.41
960.77	28.55
960.937	11.88
961.104	46.56
961.272	-17.76
961.439	19.63
961.606	57.22
961.774	73.11
961.941	25.45
962.108	54.12
962.275	58.77
962.443	83.76
962.61	67.68
962.777	154.29
962.944	79.69
963.111	62.45
963.278	70.98
963.446	58.38
963.613	86.28
963.78	62.64
963.947	81.44
964.114	69.81
964.281	133.94
964.448	69.04
964.615	44.24
964.782	40.95
964.949	81.05
965.116	85.89
965.282	104.69
965.449	33
965.616	8.4
965.783	82.79
965.95	67.68
966.117	28.35
966.283	87.83
966.45	52.38
966.617	79.89
966.784	63.61
966.95	96.36
967.117	103.72
967.284	42.69
967.45	45.79
967.617	87.25
967.784	84.93
967.95	112.63
968.117	68.46
968.283	98.68
968.45	168.04
968.616	77.37
968.783	95
968.949	99.65
969.116	113.41
969.282	68.46
969.449	65.94
969.615	74.46
969.781	22.93
969.948	52.57
970.114	27.96
970.28	134.33
970.447	60.13
970.613	118.25
970.779	85.31
970.945	59.16
971.112	59.74
971.278	71.75
971.444	63.03
971.61	117.48
971.776	52.76
971.942	85.31
972.108	95.97
972.275	73.11
972.441	86.86
972.607	131.04
972.773	65.36
972.939	88.8
973.105	58.38
973.271	37.65
973.437	42.69
973.602	32.61
973.768	113.79
973.934	55.09
974.1	84.15
974.266	-15.24
974.432	86.86
974.598	50.44
974.763	109.53
974.929	47.92
975.095	105.66
975.261	30.48
975.426	24.67
975.592	59.74
975.758	124.06
975.923	32.23
976.089	34.75
976.255	88.41
976.42	68.84
976.586	91.71
976.751	62.06
976.917	192.65
977.082	90.93
977.248	24.86
977.413	-1.87
977.579	42.88
977.744	65.36
977.91	25.06
978.075	36.3
978.24	95.19
978.406	73.88
978.571	47.73
978.736	27.58
978.902	69.62
979.067	12.66
979.232	8.59
979.397	88.41
979.563	86.48
979.728	31.45
979.893	61.87
980.058	22.15
980.223	71.17
980.388	65.74
980.554	53.93
980.719	51.02
980.884	67.68
981.049	119.99
981.214	55.28
981.379	71.75
981.544	52.76
981.709	75.04
981.874	38.23
982.039	39.4
982.204	62.06
982.368	64.78
982.533	24.28
982.698	86.09
982.863	115.73
983.028	36.1
983.193	61.68
983.357	58.38
983.522	62.84
983.687	39.4
983.852	33
984.016	39.4
984.181	56.83
984.346	45.6
984.51	77.37
984.675	55.86
984.839	72.72
985.004	52.76
985.168	79.11
985.333	61.48
985.498	22.15
985.662	61.29
985.827	65.94
985.991	52.38
986.155	37.85
986.32	76.98
986.484	122.51
986.649	68.26
986.813	10.33
986.977	52.96
987.142	88.99
987.306	19.05
987.47	29.9
987.634	49.66
987.799	47.53
987.963	66.33
988.127	70.78
988.291	136.08
988.455	63.03
988.62	26.41
988.784	104.11
988.948	82.41
989.112	38.62
989.276	51.02
989.44	22.54
989.604	25.83
989.768	45.4
989.932	104.3
990.096	27
990.26	9.36
990.424	6.85
990.588	28.74
990.752	130.65
990.915	60.9
991.079	44.63
991.243	29.13
991.407	85.31
991.571	65.36
991.734	81.44
991.898	99.26
992.062	154.29
992.226	67.49
992.389	18.66
992.553	21.96
992.717	41.53
992.88	45.21
993.044	42.3
993.207	41.33
993.371	58.96
993.535	63.42
993.698	44.05
993.862	71.17
994.025	110.89
994.189	50.44
994.352	48.7
994.515	65.55
994.679	93.64
994.842	56.06
995.006	90.16
995.169	44.24
995.332	27
995.496	52.57
995.659	-4.59
995.822	43.66
995.985	57.61
996.149	67.88
996.312	38.23
996.475	122.51
996.638	29.9
996.801	64.39
996.964	98.88
997.128	36.49
997.291	43.66
997.454	63.61
997.617	-3.04
997.78	67.1
997.943	27.77
998.106	89.77
998.269	22.54
998.432	28.93
998.595	44.24
998.758	0.45
998.92	-5.17
999.083	-20.67
999.246	14.6
999.409	6.07
999.572	-6.72
999.735	8.01
999.897	55.28
1000.06	36.88
1000.223	-14.85
1000.386	78.73
1000.548	81.24
1000.711	62.64
1000.874	64.78
1001.036	-6.33
1001.199	47.15
1001.361	19.83
1001.524	48.5
1001.687	74.46
1001.849	-7.88
1002.012	58.38
1002.174	44.63
1002.337	56.45
1002.499	29.32
1002.661	52.76
1002.824	3.94
1002.986	-22.99
1003.149	30.1
1003.311	5.3
1003.473	63.81
1003.636	3.94
1003.798	49.08
1003.96	56.64
1004.123	14.79
1004.285	11.88
1004.447	35.52
1004.609	8.78
1004.771	98.29
1004.933	-15.24
1005.096	-6.14
1005.258	-11.56
1005.42	19.44
1005.582	51.21
1005.744	54.51
1005.906	-27.25
1006.068	25.06
1006.23	-2.84
1006.392	-3.42
1006.554	12.66
1006.716	59.35
1006.878	59.74
1007.04	-20.28
1007.202	3.16
1007.363	32.81
1007.525	42.3
1007.687	40.17
1007.849	49.86
1008.011	-22.02
1008.172	-26.67
1008.334	21.57
1008.496	58
1008.658	-18.92
1008.819	7.43
1008.981	-23.96
1009.143	16.53
1009.304	-3.04
1009.466	39.59
1009.627	58.19
1009.789	119.61
1009.95	46.95
1010.112	14.98
1010.273	30.68
1010.435	-2.84
1010.596	14.98
1010.758	-8.27
1010.919	10.14
1011.081	-9.62
1011.242	23.31
1011.403	32.42
1011.565	9.56
1011.726	47.34
1011.887	-31.13
1012.049	17.89
1012.21	29.71
1012.371	70.2
1012.532	-58.06
1012.693	34.16
1012.855	4.91
1013.016	20.8
1013.177	53.54
1013.338	22.54
1013.499	72.72
1013.66	31.06
1013.821	70.2
1013.982	19.05
1014.143	29.71
1014.304	-1.49
1014.465	16.73
1014.626	27.96
1014.787	-9.24
1014.948	116.31
1015.109	-67.36
1015.27	46.76
1015.431	-10.59
1015.592	-14.66
1015.752	70.2
1015.913	14.4
1016.074	24.28
1016.235	32.61
1016.395	0.06
1016.556	10.53
1016.717	28.55
1016.877	65.94
1017.038	-16.4
1017.199	29.71
1017.359	14.21
1017.52	32.61
1017.681	17.11
1017.841	19.25
1018.002	3.75
1018.162	14.01
1018.323	73.11
1018.483	5.3
1018.644	-4.78
1018.804	-39.46
1018.964	-20.47
1019.125	-21.44
1019.285	-7.3
1019.446	-15.82
1019.606	-10.79
1019.766	-31.9
1019.926	25.45
1020.087	36.49
1020.247	-32.87
1020.407	58.77
1020.567	35.33
1020.728	5.68
1020.888	-27.06
1021.048	-22.8
1021.208	-18.15
1021.368	-18.73
1021.528	9.75
1021.688	47.15
1021.848	37.46
1022.008	9.95
1022.168	2
1022.328	15.95
1022.488	13.24
1022.648	0.65
1022.808	13.43
1022.968	9.56
1023.128	-22.41
1023.288	15.95
1023.448	8.59
1023.608	17.7
1023.767	32.61
1023.927	-6.33
1024.087	-21.83
1024.247	-44.11
1024.406	5.49
1024.566	-36.55
1024.726	-3.81
1024.885	12.85
1025.045	25.83
1025.205	10.53
1025.364	-30.35
1025.524	-4.2
1025.683	5.1
1025.843	-21.64
1026.003	20.6
1026.162	71.36
1026.321	46.95
1026.481	9.36
1026.64	-18.54
1026.8	19.44
1026.959	5.88
1027.119	0.45
1027.278	-8.65
1027.437	-31.32
1027.597	18.47
1027.756	7.62
1027.915	22.54
1028.074	13.43
1028.234	10.72
1028.393	10.72
1028.552	-7.1
1028.711	-50.5
1028.87	31.45
1029.03	-15.05
1029.189	38.23
1029.348	-41.78
1029.507	-16.02
1029.666	-18.73
1029.825	-10.2
1029.984	-8.27
1030.143	13.82
1030.302	-42.37
1030.461	-40.04
1030.62	-14.47
1030.779	35.33
1030.938	-18.34
1031.097	-52.63
1031.255	20.41
1031.414	64.97
1031.573	61.87
1031.732	-29.19
1031.891	4.71
1032.049	33.97
1032.208	43.27
1032.367	-25.9
1032.525	-9.62
1032.684	-4.78
1032.843	12.66
1033.001	-63.1
1033.16	126.19
1033.319	41.14
1033.477	32.81
1033.636	-14.85
1033.794	-38.49
1033.953	2.97
1034.111	21.96
1034.27	-15.05
1034.428	36.68
1034.587	-22.41
1034.745	-9.62
1034.903	13.43
1035.062	9.75
1035.22	-25.32
1035.378	47.73
1035.537	-39.65
1035.695	39.78
1035.853	9.95
1036.011	56.25
1036.17	32.42
1036.328	-57.28
1036.486	23.51
1036.644	20.8
1036.802	-87.51
1036.96	-33.65
1037.119	0.26
1037.277	-10.01
1037.435	-28.42
1037.593	-36.55
1037.751	47.34
1037.909	25.45
1038.067	25.45
