Data from pine_FLMT105791__141__17-22-40-074.txt Node

Date: Mon Mar 20 17:22:40 GMT 2023
User: antho
Spectrometer: FLMT10579
Trigger mode: 0
Integration Time (sec): 1.000000E-1
Scans to average: 10
Electric dark correction enabled: true
Nonlinearity correction enabled: false
Boxcar width: 0
XAxis mode: Wavelengths
Number of Pixels in Spectrum: 3648
>>>>>Begin Spectral Data<<<<<
345.248	-187.31
345.464	-187.31
345.681	-187.31
345.898	-139.06
346.114	-157.47
346.331	-37.15
346.548	48.29
346.764	3.73
346.981	-9.83
347.197	-16.23
347.414	7.41
347.631	-37.93
347.847	49.45
348.064	14.77
348.28	6.44
348.497	-28.43
348.713	-0.53
348.93	26.59
349.146	2.57
349.363	-22.62
349.579	15.55
349.796	13.42
350.012	-26.11
350.229	17.87
350.445	-4.99
350.661	-5.38
350.878	4.7
351.094	23.1
351.311	16.13
351.527	24.85
351.743	-4.8
351.96	34.73
352.176	22.72
352.392	31.24
352.609	25.43
352.825	-0.73
353.041	-9.06
353.257	3.92
353.474	14.97
353.69	23.69
353.906	14
354.122	-16.23
354.339	73.48
354.555	20.2
354.771	12.84
354.987	42.29
355.203	58.75
355.42	8.38
355.636	8.57
355.852	-1.7
356.068	-11.38
356.284	-30.95
356.5	49.26
356.716	41.12
356.932	10.32
357.148	34.92
357.364	4.7
357.58	39.38
357.796	46.55
358.012	57.59
358.228	22.33
358.444	-55.94
358.66	63.21
358.876	34.73
359.092	-4.02
359.308	11.67
359.524	41.9
359.74	-0.53
359.956	-29.59
360.172	15.74
360.388	53.14
360.604	22.14
360.819	97.7
361.035	17.1
361.251	7.99
361.467	4.89
361.683	40.15
361.898	16.71
362.114	27.17
362.33	-1.89
362.546	51.2
362.762	24.27
362.977	20.59
363.193	-21.85
363.409	62.24
363.624	-12.74
363.84	-21.65
364.056	-7.7
364.271	37.83
364.487	12.84
364.703	4.89
364.918	-39.67
365.134	14.19
365.35	24.65
365.565	114.55
365.781	23.69
365.996	-4.02
366.212	84.72
366.427	21.17
366.643	12.25
366.858	5.67
367.074	-18.75
367.289	62.05
367.505	116.88
367.72	-14.29
367.936	26.2
368.151	65.15
368.367	56.62
368.582	29.69
368.798	20.78
369.013	67.28
369.228	27.56
369.444	38.22
369.659	65.53
369.874	38.22
370.09	46.94
370.305	-24.75
370.52	-3.25
370.736	82.2
370.951	11.67
371.166	38.22
371.381	61.66
371.597	30.66
371.812	-4.99
372.027	-3.25
372.242	1.6
372.458	85.1
372.673	11.48
372.888	41.32
373.103	34.92
373.318	95.37
373.533	48.29
373.749	41.7
373.964	-23.01
374.179	58.95
374.394	-2.86
374.609	46.35
374.824	-43.16
375.039	50.04
375.254	8.96
375.469	65.53
375.684	39.19
375.899	67.08
376.114	20.2
376.329	10.51
376.544	50.62
376.759	53.72
376.974	16.32
377.189	10.7
377.404	9.35
377.619	54.88
377.834	-11.77
378.049	-21.46
378.264	3.92
378.478	18.45
378.693	5.28
378.908	64.95
379.123	26.79
379.338	71.35
379.553	33.95
379.767	18.45
379.982	38.99
380.197	46.35
380.412	26.4
380.626	49.65
380.841	112.03
381.056	39.57
381.271	96.73
381.485	5.67
381.7	-22.04
381.915	15.94
382.129	29.69
382.344	47.52
382.559	-5.76
382.773	58.75
382.988	-9.06
383.202	24.07
383.417	-6.54
383.632	106.42
383.846	24.65
384.061	46.74
384.275	6.25
384.49	27.37
384.704	64.18
384.919	34.15
385.133	46.74
385.348	32.4
385.562	-27.27
385.777	69.41
385.991	20
386.206	28.14
386.42	-22.43
386.634	80.07
386.849	15.94
387.063	44.8
387.277	-11.58
387.492	14
387.706	-18.94
387.92	0.05
388.135	48.29
388.349	79.87
388.563	46.35
388.778	37.05
388.992	47.13
389.206	55.85
389.42	121.33
389.635	43.84
389.849	53.91
390.063	67.08
390.277	65.73
390.491	108.35
390.706	41.12
390.92	69.02
391.134	48.1
391.348	74.83
391.562	-2.47
391.776	32.4
391.99	1.02
392.205	67.47
392.419	27.37
392.633	29.5
392.847	72.7
393.061	18.65
393.275	89.37
393.489	17.49
393.703	40.15
393.917	67.67
394.131	9.93
394.345	64.57
394.559	50.42
394.773	32.6
394.986	59.14
395.2	25.04
395.414	72.9
395.628	15.35
395.842	49.84
396.056	16.32
396.27	-33.86
396.484	53.33
396.697	52.17
396.911	75.42
397.125	48.87
397.339	72.32
397.553	37.83
397.766	87.82
397.98	84.33
398.194	76.97
398.408	45.58
398.621	55.85
398.835	76.58
399.049	33.76
399.262	85.1
399.476	82
399.69	71.73
399.903	99.83
400.117	22.91
400.331	73.67
400.544	31.44
400.758	198.83
400.971	69.8
401.185	89.95
401.398	33.95
401.612	101.96
401.826	72.32
402.039	68.63
402.253	39.96
402.466	83.94
402.68	54.69
402.893	84.52
403.106	38.02
403.32	40.54
403.533	83.75
403.747	76.19
403.96	82.78
404.174	90.33
404.387	20.2
404.6	59.72
404.814	118.04
405.027	80.65
405.24	81.23
405.454	60.89
405.667	100.8
405.88	0.82
406.094	38.6
406.307	96.53
406.52	82.78
406.733	42.48
406.947	7.02
407.16	129.86
407.373	110.87
407.586	58.95
407.799	38.22
408.012	77.35
408.226	89.17
408.439	105.25
408.652	25.62
408.865	77.55
409.078	88.59
409.291	93.24
409.504	25.82
409.717	60.11
409.93	103.32
410.143	63.79
410.357	10.12
410.57	35.89
410.783	49.84
410.996	84.13
411.209	87.43
411.421	133.35
411.634	84.91
411.847	47.9
412.06	78.9
412.273	55.46
412.486	83.55
412.699	190.89
412.912	54.69
413.125	121.33
413.338	77.35
413.55	122.88
413.763	56.62
413.976	76.19
414.189	87.82
414.402	74.64
414.615	127.92
414.827	38.02
415.04	103.12
415.253	110.48
415.466	114.36
415.678	147.3
415.891	86.07
416.104	78.9
416.316	84.52
416.529	62.44
416.742	99.83
416.954	118.23
417.167	73.28
417.38	76
417.592	115.13
417.805	64.18
418.017	57.79
418.23	125.6
418.442	84.13
418.655	82.97
418.868	108.74
419.08	122.69
419.293	137.42
419.505	110.68
419.718	99.05
419.93	116.3
420.142	100.02
420.355	151.95
420.567	133.73
420.78	109.52
420.992	96.53
421.205	150.01
421.417	52.36
421.629	99.25
421.842	52.75
422.054	53.33
422.266	116.3
422.479	134.7
422.691	83.36
422.903	132.57
423.115	101.38
423.328	94.21
423.54	113
423.752	106.03
423.964	105.64
424.177	132.18
424.389	91.5
424.601	221.11
424.813	126.95
425.025	129.67
425.238	145.36
425.45	104.09
425.662	96.15
425.874	403.43
426.086	104.09
426.298	105.06
426.51	120.17
426.722	131.22
426.934	105.06
427.146	139.74
427.358	67.67
427.57	171.71
427.782	123.66
427.994	115.91
428.206	109.13
428.418	81.81
428.63	126.95
428.842	159.5
429.054	119.59
429.266	157.76
429.478	88.98
429.69	112.23
429.902	81.62
430.114	144.97
430.325	109.9
430.537	83.75
430.749	122.88
430.961	56.62
431.173	135.28
431.384	142.26
431.596	36.86
431.808	101.38
432.02	109.32
432.231	148.85
432.443	176.94
432.655	138.19
432.867	131.22
433.078	155.05
433.29	222.28
433.502	169
433.713	203.29
433.925	160.28
434.136	187.6
434.348	113.97
434.56	107.97
434.771	276.91
434.983	109.71
435.194	135.09
435.406	156.21
435.617	181.59
435.829	216.66
436.04	224.02
436.252	224.41
436.463	202.9
436.675	211.23
436.886	179.85
437.098	191.08
437.309	247.08
437.521	215.3
437.732	204.84
437.943	160.86
438.155	190.11
438.366	135.48
438.578	238.36
438.789	163.18
439	208.33
439.211	190.31
439.423	208.33
439.634	195.73
439.845	242.62
440.057	188.56
440.268	260.25
440.479	151.75
440.69	202.71
440.902	178.1
441.113	211.81
441.324	177.13
441.535	209.3
441.746	257.93
441.957	179.26
442.168	195.54
442.38	233.13
442.591	237
442.802	199.61
443.013	212.78
443.224	218.98
443.435	199.41
443.646	217.43
443.857	216.66
444.068	205.23
444.279	205.61
444.49	313.53
444.701	243.78
444.912	321.86
445.123	267.23
445.334	234.29
445.545	234.87
445.756	220.53
445.967	239.13
446.178	235.06
446.388	261.99
446.599	271.88
446.81	255.21
447.021	227.9
447.232	299.97
447.443	317.21
447.653	189.34
447.864	282.73
448.075	247.85
448.286	303.07
448.496	237.2
448.707	298.42
448.918	220.73
449.129	342.59
449.339	231.19
449.55	297.64
449.761	282.73
449.971	338.52
450.182	259.86
450.393	305.59
450.603	259.86
450.814	329.22
451.024	287.18
451.235	313.73
451.446	338.33
451.656	373.21
451.867	275.75
452.077	293.38
452.288	341.24
452.498	326.9
452.709	266.64
452.919	316.83
453.13	252.11
453.34	330.39
453.55	232.74
453.761	308.49
453.971	302.1
454.182	313.34
454.392	327.29
454.602	383.28
454.813	326.51
455.023	332.13
455.233	279.82
455.444	330.19
455.654	242.43
455.864	312.76
456.075	284.66
456.285	272.46
456.495	317.79
456.705	314.31
456.916	345.5
457.126	337.17
457.336	334.84
457.546	243.78
457.756	287.57
457.967	362.94
458.177	308.49
458.387	350.92
458.597	266.64
458.807	296.87
459.017	290.48
459.227	317.6
459.437	319.73
459.647	344.34
459.857	330.19
460.068	289.7
460.278	339.3
460.488	354.99
460.698	419.12
460.908	330
461.117	299.97
461.327	269.16
461.537	340.07
461.747	370.11
461.957	317.41
462.167	417.19
462.377	391.03
462.587	336.59
462.797	406.53
463.007	363.32
463.216	357.9
463.426	392.19
463.636	381.34
463.846	302.1
464.056	335.62
464.265	418.15
464.475	329.22
464.685	339.69
464.895	401.49
465.104	336.78
465.314	351.51
465.524	350.73
465.733	336.01
465.943	420.48
466.153	442.57
466.362	427.84
466.572	385.02
466.782	365.46
466.991	353.44
467.201	438.11
467.41	334.26
467.62	401.69
467.829	354.99
468.039	410.79
468.249	355.96
468.458	395.68
468.668	413.12
468.877	373.98
469.086	423.19
469.296	424.55
469.505	372.04
469.715	444.31
469.924	401.69
470.134	447.22
470.343	444.12
470.552	365.46
470.762	402.66
470.971	367.01
471.18	411.76
471.39	403.82
471.599	379.79
471.808	439.47
472.018	427.26
472.227	462.91
472.436	451.67
472.645	443.54
472.855	395.68
473.064	473.95
473.273	422.03
473.482	463.3
473.691	474.34
473.901	462.52
474.11	456.9
474.319	539.63
474.528	434.82
474.737	506.5
474.946	474.15
475.155	485.77
475.364	490.23
475.573	455.74
475.783	498.17
475.992	522.39
476.201	517.74
476.41	467.56
476.619	462.14
476.828	502.05
477.037	483.84
477.245	474.73
477.454	514.06
477.663	490.42
477.872	478.41
478.081	581.1
478.29	485.58
478.499	597.37
478.708	533.82
478.917	596.21
479.125	562.5
479.334	557.27
479.543	520.07
479.752	560.56
479.961	531.69
480.169	613.65
480.378	535.57
480.587	691.73
480.796	586.72
481.004	565.4
481.213	600.86
481.422	578
481.63	570.83
481.839	586.91
482.048	654.53
482.256	567.73
482.465	614.42
482.674	622.75
482.882	613.65
483.091	687.85
483.299	623.53
483.508	648.91
483.716	609.58
483.925	647.36
484.134	609.77
484.342	621.98
484.551	646
484.759	641.55
484.967	652.01
485.176	680.88
485.384	683.39
485.593	670.03
485.801	659.37
486.01	614.81
486.218	609.96
486.426	557.65
486.635	597.37
486.843	600.66
487.051	618.88
487.26	589.04
487.468	633.02
487.676	670.61
487.885	615.39
488.093	655.3
488.301	678.94
488.509	681.84
488.717	711.49
488.926	689.79
489.134	678.36
489.342	700.25
489.55	655.5
489.758	692.5
489.967	697.15
490.175	788.02
490.383	721.76
490.591	785.5
490.799	691.73
491.007	781.43
491.215	757.99
491.423	741.33
491.631	730.48
491.839	767.87
492.047	769.42
492.255	683.39
492.463	655.69
492.671	698.12
492.879	777.17
493.087	762.06
493.295	761.09
493.503	784.34
493.711	789.76
493.919	809.91
494.127	820.96
494.334	814.37
494.542	757.99
494.75	793.64
494.958	778.33
495.166	838.59
495.374	821.34
495.581	823.09
495.789	829.67
495.997	876.56
496.205	789.57
496.412	811.27
496.62	803.13
496.828	836.84
497.035	791.12
497.243	858.74
497.451	787.82
497.658	833.74
497.866	838.39
498.074	893.03
498.281	812.82
498.489	891.29
498.696	835.68
498.904	840.33
499.112	830.06
499.319	886.44
499.527	851.76
499.734	873.46
499.942	800.42
500.149	828.32
500.357	865.71
500.564	824.06
500.771	881.79
500.979	777.17
501.186	834.13
501.394	832
501.601	863.77
501.808	882.18
502.016	817.47
502.223	829.29
502.43	836.46
502.638	855.44
502.845	821.92
503.052	928.68
503.26	828.9
503.467	930.42
503.674	885.86
503.881	903.3
504.089	930.62
504.296	906.01
504.503	824.25
504.71	889.15
504.917	853.7
505.125	919.57
505.332	906.79
505.539	918.22
505.746	990.48
505.953	947.67
506.16	958.9
506.367	1014.9
506.574	996.88
506.781	999.4
506.988	900.59
507.195	919.19
507.402	932.36
507.609	978.86
507.816	938.75
508.023	950.18
508.23	940.3
508.437	900.2
508.644	955.8
508.851	1016.06
509.058	993.58
509.265	997.85
509.472	1021.87
509.679	1087.36
509.885	967.82
510.092	990.68
510.299	994.75
510.506	1020.9
510.713	991.26
510.92	1000.17
511.126	1020.32
511.333	1080.96
511.54	1013.73
511.746	1067.01
511.953	1068.37
512.16	1085.42
512.367	1037.18
512.573	1036.6
512.78	1057.33
512.987	1065.08
513.193	1045.7
513.4	998.82
513.606	1017.22
513.813	1055.78
514.02	1016.83
514.226	1096.66
514.433	1099.95
514.639	1042.6
514.846	1049
515.052	1035.82
515.259	1056.94
515.465	1058.3
515.672	1099.18
515.878	1141.41
516.085	1102.86
516.291	1136.76
516.497	1074.76
516.704	1064.11
516.91	1003.66
517.117	974.6
517.323	950.38
517.529	980.8
517.736	1017.8
517.942	1019.16
518.148	1034.85
518.354	1034.66
518.561	1068.95
518.767	1081.16
518.973	1079.22
519.179	1098.4
519.386	1103.25
519.592	1087.94
519.798	1066.05
520.004	1186.94
520.21	1145.68
520.417	1160.98
520.623	1210.97
520.829	1243.91
521.035	1197.41
521.241	1214.07
521.447	1232.86
521.653	1310.75
521.859	1231.31
522.065	1252.43
522.271	1354.54
522.477	1275.87
522.683	1321.6
522.889	1304.94
523.095	1289.44
523.301	1291.37
523.507	1238.87
523.713	1293.89
523.919	1253.59
524.125	1326.64
524.331	1277.81
524.537	1396.58
524.742	1364.42
524.948	1381.47
525.154	1370.62
525.36	1454.12
525.566	1394.64
525.772	1424.09
525.977	1353.76
526.183	1383.21
526.389	1435.91
526.595	1321.6
526.8	1300.48
527.006	1273.36
527.212	1256.89
527.417	1270.26
527.623	1221.04
527.829	1315.2
528.034	1344.85
528.24	1350.66
528.446	1349.89
528.651	1419.63
528.857	1447.53
529.062	1453.93
529.268	1399.48
529.473	1422.73
529.679	1413.24
529.884	1517.28
530.09	1486.86
530.295	1506.24
530.501	1501.59
530.706	1472.33
530.912	1427.77
531.117	1489.96
531.323	1512.25
531.528	1525.81
531.733	1534.53
531.939	1479.11
532.144	1515.15
532.35	1484.35
532.555	1556.81
532.76	1492.87
532.966	1500.62
533.171	1473.3
533.376	1436.88
533.581	1409.17
533.787	1465.94
533.992	1507.01
534.197	1538.4
534.402	1471.75
534.607	1525.03
534.813	1591.88
535.018	1494.03
535.223	1508.76
535.428	1526.2
535.633	1588
535.838	1594.98
536.043	1589.55
536.249	1661.24
536.454	1591.29
536.659	1627.33
536.864	1546.35
537.069	1557.19
537.274	1592.07
537.479	1589.16
537.684	1594.39
537.889	1539.37
538.094	1688.75
538.299	1599.63
538.504	1628.69
538.708	1590.13
538.913	1641.09
539.118	1601.76
539.323	1627.91
539.528	1549.45
539.733	1595.36
539.938	1625.78
540.142	1628.88
540.347	1577.73
540.552	1563.39
540.757	1592.65
540.962	1572.31
541.166	1529.3
541.371	1526.58
541.576	1567.08
541.781	1470.2
541.985	1587.03
542.19	1580.25
542.395	1670.15
542.599	1675.57
542.804	1650.97
543.008	1678.48
543.213	1630.82
543.418	1561.26
543.622	1619.97
543.827	1596.33
544.031	1674.22
544.236	1669.96
544.44	1668.41
544.645	1761.21
544.849	1635.08
545.054	1715.49
545.258	1759.08
545.463	1736.8
545.667	1642.25
545.872	1701.34
546.076	1647.09
546.281	1676.93
546.485	1604.66
546.689	1688.75
546.894	1729.05
547.098	1669.96
547.302	1630.43
547.507	1645.16
547.711	1683.91
547.915	1729.63
548.119	1651.16
548.324	1641.09
548.528	1735.83
548.732	1674.41
548.936	1712
549.141	1723.04
549.345	1675.57
549.549	1688.94
549.753	1678.48
549.957	1761.02
550.161	1744.94
550.366	1698.82
550.57	1709.09
550.774	1709.87
550.978	1672.28
551.182	1740.09
551.386	1690.49
551.59	1707.93
551.794	1706.77
551.998	1741.64
552.202	1674.8
552.406	1684.1
552.61	1723.04
552.814	1695.53
553.018	1772.06
553.222	1686.04
553.426	1702.31
553.63	1772.06
553.833	1709.29
554.037	1655.23
554.241	1725.56
554.445	1712.19
554.649	1700.96
554.853	1674.99
555.056	1711.22
555.26	1759.85
555.464	1733.12
555.668	1700.37
555.871	1749.2
556.075	1766.25
556.279	1693.01
556.483	1644.96
556.686	1713.74
556.89	1676.54
557.094	1690.69
557.297	1656.78
557.501	1726.72
557.704	1612.99
557.908	1683.52
558.112	1633.73
558.315	1687.2
558.519	1649.03
558.722	1633.34
558.926	1635.86
559.129	1584.51
559.333	1574.63
559.536	1585.48
559.74	1561.65
559.943	1585.68
560.147	1551.96
560.35	1612.99
560.553	1590.52
560.757	1542.28
560.96	1669.76
561.164	1600.59
561.367	1670.34
561.57	1627.91
561.774	1614.35
561.977	1600.21
562.18	1569.98
562.384	1691.46
562.587	1605.05
562.79	1582.77
562.993	1578.7
563.197	1627.53
563.4	1663.37
563.603	1641.28
563.806	1672.28
564.009	1571.73
564.212	1598.85
564.416	1540.92
564.619	1604.47
564.822	1527.75
565.025	1616.87
565.228	1536.46
565.431	1566.49
565.634	1501.59
565.837	1500.62
566.04	1519.41
566.243	1520.38
566.446	1406.27
566.649	1534.33
566.852	1467.49
567.055	1490.16
567.258	1553.51
567.461	1559.71
567.664	1586.45
567.867	1457.8
568.07	1532.78
568.273	1513.8
568.475	1571.53
568.678	1463.81
568.881	1485.7
569.084	1499.46
569.287	1391.35
569.489	1410.53
569.692	1463.03
569.895	1484.15
570.098	1437.85
570.3	1447.92
570.503	1362.29
570.706	1370.42
570.909	1374.69
571.111	1369.26
571.314	1308.04
571.516	1368.49
571.719	1373.14
571.922	1357.83
572.124	1377.78
572.327	1400.45
572.529	1354.92
572.732	1320.05
572.935	1351.44
573.137	1436.88
573.34	1346.4
573.542	1418.67
573.745	1390.38
573.947	1382.63
574.15	1372.55
574.352	1340.97
574.554	1399.48
574.757	1357.44
574.959	1347.56
575.162	1350.85
575.364	1294.67
575.566	1413.63
575.769	1294.28
575.971	1323.73
576.173	1237.71
576.376	1266.19
576.578	1381.47
576.78	1407.23
576.982	1272.77
577.185	1310.55
577.387	1236.35
577.589	1258.44
577.791	1310.17
577.993	1316.56
578.196	1290.4
578.398	1290.6
578.6	1342.72
578.802	1247.2
579.004	1265.02
579.206	1248.56
579.408	1279.94
579.61	1241
579.812	1321.02
580.014	1259.21
580.216	1267.93
580.418	1236.93
580.62	1270.26
580.822	1235.19
581.024	1283.82
581.226	1310.36
581.428	1260.18
581.63	1356.28
581.832	1278.78
582.034	1327.22
582.236	1293.5
582.438	1321.4
582.64	1353.76
582.841	1349.89
583.043	1352.99
583.245	1290.6
583.447	1313.27
583.649	1278.78
583.85	1308.81
584.052	1319.85
584.254	1280.72
584.456	1330.9
584.657	1242.94
584.859	1272.58
585.061	1305.32
585.262	1268.9
585.464	1234.22
585.666	1291.76
585.867	1257.66
586.069	1268.32
586.27	1297.57
586.472	1265.99
586.674	1245.84
586.875	1220.27
587.077	1241.39
587.278	1263.47
587.48	1252.62
587.681	1360.93
587.883	1281.69
588.084	1215.04
588.285	1216.01
588.487	1217.56
588.688	1222.21
588.89	1139.28
589.091	1109.64
589.292	1126.49
589.494	1107.12
589.695	1096.66
589.896	1048.61
590.098	1052.48
590.299	1088.52
590.5	1078.83
590.702	1076.12
590.903	1109.64
591.104	1158.66
591.305	1168.93
591.507	1189.08
591.708	1199.93
591.909	1180.16
592.11	1219.3
592.311	1191.21
592.512	1139.28
592.714	1092.01
592.915	1120.49
593.116	1118.55
593.317	1155.56
593.518	1153.81
593.719	1146.26
593.92	1169.12
594.121	1185.2
594.322	1180.74
594.523	1151.68
594.724	1128.82
594.925	1148.58
595.126	1138.12
595.327	1149.55
595.528	1176.09
595.729	1132.5
595.929	1157.49
596.13	1171.25
596.331	1152.07
596.532	1186.17
596.733	1204.57
596.934	1203.02
597.135	1180.94
597.335	1151.1
597.536	1119.71
597.737	1161.76
597.938	1145.48
598.138	1142.58
598.339	1120.29
598.54	1174.93
598.74	1150.13
598.941	1105.57
599.142	1197.21
599.342	1165.24
599.543	1123.78
599.744	1129.79
599.944	1138.51
600.145	1123.2
600.345	1161.56
600.546	1192.18
600.746	1193.34
600.947	1219.49
601.147	1162.92
601.348	1157.3
601.548	1115.45
601.749	1167.57
601.949	1096.66
602.15	1094.14
602.35	1116.23
602.551	1204.38
602.751	1122.23
602.951	1143.54
603.152	1049.19
603.352	1152.46
603.552	1135.99
603.753	1159.04
603.953	1159.04
604.153	1139.67
604.354	1145.48
604.554	1118.94
604.754	1109.06
604.954	1097.24
605.155	1103.63
605.355	1120.1
605.555	1149.94
605.755	1181.52
605.955	1097.63
606.155	1123.39
606.356	1117.78
606.556	1165.63
606.756	1130.18
606.956	1065.27
607.156	1184.81
607.356	1111.58
607.556	1150.71
607.756	1110.61
607.956	1173.96
608.156	1113.9
608.356	1110.22
608.556	1152.65
608.756	1126.49
608.956	1084.45
609.156	1106.73
609.356	1077.09
609.556	1098.79
609.755	1132.11
609.955	1055.58
610.155	1113.71
610.355	1100.15
610.555	1068.18
610.755	1119.33
610.954	1038.34
611.154	1094.53
611.354	1121.26
611.554	1061.2
611.753	1073.41
611.953	1047.64
612.153	1114.68
612.352	1087.36
612.552	1039.31
612.752	984.67
612.951	1015.28
613.151	1056.55
613.351	1039.89
613.55	1010.83
613.75	1055.78
613.949	1024.97
614.149	1067.79
614.348	1049.19
614.548	1023.23
614.747	982.54
614.947	997.27
615.146	951.54
615.346	1034.85
615.545	1041.63
615.745	1005.21
615.944	1060.62
616.144	1029.04
616.343	1085.42
616.542	1003.66
616.742	1007.15
616.941	1001.92
617.14	952.7
617.34	1010.25
617.539	992.62
617.738	956.19
617.938	1045.31
618.137	996.3
618.336	993.39
618.535	1026.52
618.734	991.65
618.934	1010.05
619.133	998.23
619.332	1040.08
619.531	989.71
619.73	988.93
619.929	1044.15
620.128	1001.14
620.328	1062.36
620.527	982.54
620.726	1018.38
620.925	1010.63
621.124	1009.67
621.323	996.1
621.522	949.22
621.721	988.55
621.92	927.71
622.119	989.71
622.318	940.3
622.517	967.43
622.715	961.81
622.914	899.62
623.113	943.6
623.312	887.8
623.511	955.61
623.71	931.59
623.909	925.97
624.107	1001.33
624.306	891.87
624.505	956.97
624.704	928.68
624.902	904.46
625.101	968.2
625.3	927.13
625.499	927.32
625.697	908.92
625.896	912.4
626.095	934.49
626.293	890.32
626.492	891.48
626.69	947.67
626.889	906.98
627.088	959.87
627.286	889.74
627.485	903.1
627.683	909.89
627.882	932.55
628.08	856.02
628.279	849.63
628.477	909.89
628.676	854.67
628.874	892.84
629.073	868.62
629.271	816.31
629.469	895.16
629.668	870.36
629.866	862.22
630.065	838.97
630.263	901.36
630.461	838.01
630.66	894
630.858	868.42
631.056	899.81
631.254	928.1
631.453	857.77
631.651	908.14
631.849	872.69
632.047	890.9
632.245	862.8
632.444	894.58
632.642	901.55
632.84	912.02
633.038	890.7
633.236	823.28
633.434	845.37
633.632	832.77
633.83	822.7
634.028	925.19
634.227	869
634.425	942.82
634.623	887.41
634.821	892.64
635.019	881.6
635.216	883.15
635.414	929.07
635.612	915.7
635.81	891.87
636.008	936.04
636.206	863.77
636.404	908.53
636.602	851.76
636.8	891.09
636.997	915.5
637.195	927.71
637.393	909.5
637.591	949.8
637.789	879.27
637.986	862.8
638.184	894.19
638.382	941.66
638.58	916.67
638.777	940.11
638.975	878.69
639.173	890.51
639.37	886.25
639.568	872.69
639.765	918.41
639.963	847.5
640.161	935.65
640.358	893.22
640.556	841.69
640.753	821.92
640.951	823.28
641.148	863.58
641.346	866.49
641.543	852.92
641.741	860.87
641.938	802.36
642.136	858.74
642.333	837.23
642.531	873.27
642.728	910.27
642.925	845.17
643.123	836.07
643.32	874.43
643.517	825.61
643.715	859.51
643.912	820.96
644.109	818.82
644.306	859.51
644.504	811.27
644.701	850.21
644.898	871.14
645.095	817.47
645.293	824.06
645.49	863.19
645.687	837.42
645.884	858.15
646.081	771.16
646.278	801.97
646.475	815.34
646.672	792.86
646.87	821.54
647.067	802.94
647.264	804.68
647.461	755.66
647.658	712.84
647.855	795.38
648.052	782.21
648.249	702.96
648.446	790.34
648.642	742.1
648.839	727.76
649.036	735.13
649.233	696.38
649.43	695.6
649.627	696.96
649.824	731.06
650.021	724.47
650.217	716.53
650.414	708.58
650.611	753.53
650.808	774.84
651.004	768.06
651.201	748.88
651.398	792.09
651.595	737.64
651.791	736.29
651.988	777.17
652.185	676.23
652.381	758.57
652.578	681.46
652.775	745.98
652.971	754.69
653.168	722.34
653.364	750.43
653.561	717.3
653.757	727.76
653.954	732.22
654.15	676.81
654.347	807.78
654.543	739.97
654.74	707.61
654.936	689.4
655.133	730.28
655.329	706.64
655.525	718.08
655.722	723.69
655.918	675.26
656.115	711.29
656.311	620.62
656.507	588.07
656.704	598.53
656.9	604.93
657.096	635.15
657.292	632.05
657.489	663.25
657.685	645.81
657.881	636.51
658.077	653.36
658.273	682.81
658.47	742.68
658.666	656.27
658.862	731.64
659.058	681.07
659.254	721.76
659.45	671.58
659.646	709.36
659.842	691.73
660.038	711.1
660.234	652.98
660.43	715.17
660.626	778.14
660.822	745.59
661.018	737.84
661.214	697.73
661.41	672.93
661.606	719.43
661.802	758.18
661.998	678.36
662.194	676.42
662.39	719.04
662.586	705.87
662.781	708
662.977	714.01
663.173	731.25
663.369	681.26
663.564	708.78
663.76	696.76
663.956	681.26
664.152	698.51
664.347	637.09
664.543	677.97
664.739	667.12
664.934	631.28
665.13	646
665.326	707.03
665.521	676.42
665.717	620.23
665.912	638.45
666.108	582.45
666.304	600.28
666.499	665.76
666.695	578.19
666.89	665.38
667.086	679.91
667.281	693.66
667.477	691.53
667.672	656.08
667.867	655.11
668.063	637.86
668.258	602.99
668.454	649.68
668.649	713.81
668.844	655.88
669.04	657.63
669.235	628.56
669.43	625.27
669.626	565.02
669.821	612.1
670.016	609.38
670.211	608.8
670.407	614.42
670.602	631.47
670.797	609
670.992	671.19
671.187	597.95
671.382	662.47
671.578	606.86
671.773	653.95
671.968	591.95
672.163	618.3
672.358	672.16
672.553	615.39
672.748	586.72
672.943	682.43
673.138	594.27
673.333	620.23
673.528	582.07
673.723	640.19
673.918	616.16
674.113	576.83
674.308	673.51
674.503	636.31
674.698	662.28
674.892	641.35
675.087	641.93
675.282	620.62
675.477	592.33
675.672	648.33
675.867	619.65
676.061	591.17
676.256	576.64
676.451	608.22
676.646	615.78
676.84	574.12
677.035	561.72
677.23	573.73
677.424	597.37
677.619	626.43
677.814	666.54
678.008	660.53
678.203	543.12
678.397	583.42
678.592	591.75
678.787	647.16
678.981	591.56
679.176	596.01
679.37	603.96
679.565	577.61
679.759	583.03
679.954	610.93
680.148	645.03
680.342	667.7
680.537	639.03
680.731	593.88
680.926	606.67
681.12	619.85
681.314	559.2
681.509	584.2
681.703	599.89
681.897	619.26
682.092	598.15
682.286	604.15
682.48	661.5
682.674	628.76
682.869	601.63
683.063	605.9
683.257	660.73
683.451	581.68
683.645	587.68
683.839	590.59
684.034	585.75
684.228	631.28
684.422	561.53
684.616	596.98
684.81	657.43
685.004	597.18
685.198	597.37
685.392	648.13
685.586	557.85
685.78	597.56
685.974	628.37
686.168	613.45
686.362	650.26
686.556	561.14
686.75	508.05
686.944	546.03
687.138	536.92
687.331	468.72
687.525	486.94
687.719	420.29
687.913	447.6
688.107	503.4
688.301	460.97
688.494	502.43
688.688	472.4
688.882	442.18
689.076	433.07
689.269	477.83
689.463	546.03
689.657	495.27
689.85	478.8
690.044	499.34
690.238	501.85
690.431	477.64
690.625	500.3
690.818	531.11
691.012	534.4
691.205	563.08
691.399	531.88
691.593	546.61
691.786	619.85
691.98	628.56
692.173	660.15
692.366	621.78
692.56	626.24
692.753	688.04
692.947	592.14
693.14	667.9
693.333	647.94
693.527	584.78
693.72	651.81
693.914	636.12
694.107	628.37
694.3	654.33
694.493	608.03
694.687	666.93
694.88	620.23
695.073	705.87
695.266	679.13
695.46	652.98
695.653	771.16
695.846	735.32
696.039	630.31
696.232	654.72
696.425	730.09
696.618	784.72
696.812	735.13
697.005	818.05
697.198	846.92
697.391	822.12
697.584	840.72
697.777	887.41
697.97	819.41
698.163	851.96
698.356	834.52
698.549	942.63
698.742	887.99
698.935	872.1
699.127	872.3
699.32	842.27
699.513	866.68
699.706	905.04
699.899	877.92
700.092	885.09
700.285	941.47
700.477	839.94
700.67	895.74
700.863	940.3
701.056	1036.79
701.248	984.28
701.441	997.65
701.634	953.09
701.826	1050.35
702.019	953.87
702.212	1025.36
702.404	996.68
702.597	945.34
702.79	996.3
702.982	1025.75
703.175	1019.93
703.367	1056.55
703.56	1090.46
703.752	1169.89
703.945	1125.91
704.137	1139.67
704.33	1139.48
704.522	1139.67
704.715	1175.71
704.907	1214.26
705.1	1212.52
705.292	1233.44
705.484	1192.56
705.677	1214.46
705.869	1253.21
706.061	1283.24
706.254	1315.98
706.446	1247.59
706.638	1271.22
706.831	1328.77
707.023	1282.66
707.215	1396.19
707.407	1367.71
707.599	1344.46
707.792	1427.97
707.984	1396.97
708.176	1421.38
708.368	1379.92
708.56	1431.65
708.752	1393.28
708.944	1399.29
709.136	1462.45
709.329	1424.48
709.521	1533.36
709.713	1500.43
709.905	1516.7
710.097	1543.44
710.289	1517.48
710.481	1537.63
710.672	1554.48
710.864	1551.19
711.056	1596.53
711.248	1592.07
711.44	1556.81
711.632	1576.57
711.824	1607.96
712.016	1677.9
712.207	1635.47
712.399	1652.13
712.591	1716.26
712.783	1686.23
712.975	1693.98
713.166	1658.14
713.358	1686.62
713.55	1746.68
713.741	1739.51
713.933	1754.62
714.125	1758.89
714.316	1702.31
714.508	1772.84
714.7	1809.26
714.891	1787.75
715.083	1842.2
715.274	1799.57
715.466	1769.35
715.657	1824.95
715.849	1718.78
716.04	1778.26
716.232	1693.98
716.423	1798.41
716.615	1700.37
716.806	1687.97
716.998	1651.55
717.189	1613.96
717.381	1498.49
717.572	1492.29
717.763	1572.89
717.955	1491.9
718.146	1497.13
718.337	1450.63
718.528	1438.04
718.72	1339.62
718.911	1420.6
719.102	1369.26
719.293	1419.44
719.485	1410.53
719.676	1396.38
719.867	1370.42
720.058	1358.8
720.249	1373.72
720.44	1415.57
720.632	1452.18
720.823	1488.41
721.014	1592.07
721.205	1578.31
721.396	1666.27
721.587	1733.7
721.778	1734.47
721.969	1784.46
722.16	1908.07
722.351	1826.12
722.542	1952.83
722.733	1926.28
722.924	1865.64
723.115	1908.65
723.305	1906.71
723.496	1898.77
723.687	1782.52
723.878	1779.81
724.069	1792.4
724.26	1821.47
724.45	1775.35
724.641	1731.57
724.832	1761.21
725.023	1777.1
725.213	1762.57
725.404	1710.26
725.595	1772.84
725.785	1706.38
725.976	1789.5
726.167	1762.76
726.357	1784.07
726.548	1888.12
726.739	1822.63
726.929	1879.01
727.12	1883.66
727.31	1911.56
727.501	1801.32
727.691	1887.73
727.882	1849.75
728.072	1904
728.263	1911.75
728.453	1943.53
728.644	1933.84
728.834	1922.41
729.024	1885.02
729.215	1906.33
729.405	1917.37
729.596	2009.79
729.786	1975.88
729.976	1996.81
730.167	2043.5
730.357	1979.76
730.547	1993.51
730.737	2025.29
730.928	2070.63
731.118	2060.74
731.308	1991.96
731.498	2033.04
731.688	2110.15
731.879	2119.45
732.069	2186.87
732.259	2214.97
732.449	2188.23
732.639	2276.19
732.829	2291.3
733.019	2288.4
733.209	2389.73
733.399	2340.9
733.589	2437.78
733.779	2414.91
733.969	2430.61
734.159	2486.99
734.349	2480.01
734.539	2530
734.729	2530.58
734.919	2565.65
735.109	2599.17
735.299	2525.54
735.488	2573.01
735.678	2571.46
735.868	2556.54
736.058	2570.69
736.248	2545.5
736.437	2490.28
736.627	2516.63
736.817	2605.37
737.007	2567.2
737.196	2632.1
737.386	2588.9
737.576	2571.46
737.765	2637.14
737.955	2621.06
738.144	2664.65
738.334	2664.07
738.524	2603.24
738.713	2607.3
738.903	2624.74
739.092	2658.65
739.282	2676.67
739.471	2659.81
739.661	2669.5
739.85	2699.92
740.04	2714.83
740.229	2740.41
740.419	2742.73
740.608	2749.32
740.797	2719.29
740.987	2792.53
741.176	2771.22
741.365	2741.96
741.555	2703.02
741.744	2807.06
741.933	2776.06
742.123	2798.15
742.312	2792.91
742.501	2850.26
742.69	2805.12
742.88	2738.08
743.069	2823.14
743.258	2762.11
743.447	2839.61
743.636	2825.08
743.825	2817.13
744.014	2814.03
744.204	2847.36
744.393	2784.97
744.582	2859.95
744.771	2856.27
744.96	2830.89
745.149	2870.41
745.338	2804.54
745.527	2887.46
745.716	2803.96
745.905	2779.35
746.094	2881.46
746.283	2849.1
746.471	2847.16
746.66	2888.63
746.849	2879.52
747.038	2933.19
747.227	2887.66
747.416	2919.04
747.604	2841.16
747.793	2863.24
747.982	2852.4
748.171	2895.02
748.359	2907.23
748.548	2874.87
748.737	2899.09
748.926	2860.15
749.114	2778.58
749.303	2832.25
749.491	2854.91
749.68	2791.56
749.869	2885.53
750.057	2803.18
750.246	2792.53
750.434	2815.39
750.623	2803.96
750.811	2790.59
751	2863.44
751.188	2799.31
751.377	2839.03
751.565	2827.21
751.754	2754.55
751.942	2763.66
752.131	2812.48
752.319	2771.8
752.507	2724.33
752.696	2801.25
752.884	2864.6
753.072	2761.53
753.261	2796.4
753.449	2738.28
753.637	2765.4
753.825	2847.16
754.014	2800.66
754.202	2787.88
754.39	2820.04
754.578	2830.7
754.766	2724.13
754.955	2736.92
755.143	2846.58
755.331	2784.2
755.519	2762.11
755.707	2747.19
755.895	2715.8
756.083	2737.5
756.271	2719.1
756.459	2711.54
756.647	2738.28
756.835	2724.13
757.023	2683.25
757.211	2686.55
757.399	2682.87
757.587	2674.15
757.775	2652.45
757.963	2666.4
758.151	2693.91
758.339	2606.72
758.526	2623
758.714	2649.93
758.902	2576.69
759.09	2496.87
759.278	2357.18
759.465	2153.36
759.653	1829.02
759.841	1685.07
760.028	1442.11
760.216	1269.67
760.404	1165.83
760.591	959.48
760.779	823.47
760.967	728.54
761.154	565.4
761.342	621.4
761.529	642.32
761.717	684.17
761.905	659.18
762.092	730.67
762.28	688.63
762.467	679.33
762.655	632.83
762.842	626.43
763.029	677.97
763.217	670.22
763.404	721.76
763.592	700.06
763.779	628.76
763.966	673.32
764.154	736.87
764.341	751.21
764.528	765.35
764.716	840.72
764.903	864.35
765.09	935.65
765.277	938.95
765.465	1090.26
765.652	1116.23
765.839	1168.54
766.026	1278.97
766.213	1303.97
766.4	1372.75
766.588	1565.53
766.775	1556.03
766.962	1648.26
767.149	1707.54
767.336	1823.4
767.523	1796.86
767.71	1908.07
767.897	1975.11
768.084	2046.79
768.271	2053.38
768.458	2132.82
768.645	2152
768.832	2168.08
769.019	2142.89
769.206	2196.95
769.392	2260.5
769.579	2381.98
769.766	2292.85
769.953	2285.68
770.14	2347.88
770.327	2314.75
770.513	2367.64
770.7	2416.66
770.887	2314.36
771.073	2395.15
771.26	2389.15
771.447	2339.74
771.634	2300.41
771.82	2436.03
772.007	2355.05
772.193	2370.35
772.38	2445.91
772.567	2355.24
772.753	2377.52
772.94	2408.33
773.126	2423.44
773.313	2440.88
773.499	2394.18
773.686	2411.81
773.872	2341.87
774.059	2402.51
774.245	2331.22
774.432	2367.45
774.618	2278.32
774.804	2354.66
774.991	2309.13
775.177	2384.3
775.363	2362.21
775.55	2401.93
775.736	2318.23
775.922	2312.62
776.109	2337.61
776.295	2322.11
776.481	2381.4
776.667	2392.63
776.853	2351.17
777.04	2307.97
777.226	2299.83
777.412	2380.23
777.598	2294.6
777.784	2282
777.97	2300.02
778.156	2302.73
778.342	2293.24
778.528	2282.39
778.715	2239.19
778.901	2293.43
779.087	2296.92
779.272	2249.26
779.458	2233.37
779.644	2267.08
779.83	2212.06
780.016	2315.72
780.202	2263.02
780.388	2266.5
780.574	2205.09
780.76	2171.18
780.946	2240.15
781.131	2229.5
781.317	2203.92
781.503	2221.55
781.689	2166.72
781.874	2304.48
782.06	2193.65
782.246	2220.39
782.432	2208.77
782.617	2190.75
782.803	2248.29
782.989	2135.34
783.174	2152.77
783.36	2098.72
783.545	2165.75
783.731	2163.82
783.916	2056.48
784.102	2140.37
784.288	2091.16
784.473	2175.64
784.659	2095.42
784.844	2162.66
785.029	2100.66
785.215	2099.11
785.4	2043.5
785.586	2136.69
785.771	2070.43
785.956	2105.89
786.142	2083.61
786.327	2040.01
786.512	2082.06
786.698	2051.64
786.883	1997.19
787.068	2025.29
787.254	2070.82
787.439	2039.82
787.624	2038.85
787.809	2008.24
787.994	1994.48
788.18	2072.56
788.365	1954.76
788.55	1984.99
788.735	1969.3
788.92	2022.19
789.105	1947.79
789.29	1995.45
789.475	1919.5
789.66	1946.43
789.845	1917.37
790.03	1912.33
790.215	1934.81
790.4	1975.3
790.585	2010.95
790.77	1924.54
790.955	1873.78
791.14	1901.68
791.325	1971.43
791.51	1875.52
791.695	1900.32
791.879	1934.61
792.064	1853.05
792.249	1975.5
792.434	1909.62
792.618	1867.58
792.803	1960.58
792.988	1878.62
793.173	1877.85
793.357	1933.45
793.542	1879.4
793.727	1911.75
793.911	1922.6
794.096	1918.34
794.281	1882.88
794.465	1984.99
794.65	1917.95
794.834	1893.93
795.019	1997.19
795.203	1977.82
795.388	1980.53
795.572	1979.95
795.757	1937.33
795.941	1970.85
796.126	1961.55
796.31	1892.96
796.494	1947.4
796.679	1878.82
796.863	1881.14
797.048	1964.65
797.232	1926.86
797.416	1923.96
797.601	1918.92
797.785	2012.11
797.969	2008.04
798.153	1935.39
798.338	1955.93
798.522	1935.97
798.706	1954.57
798.89	1965.61
799.074	2041.56
799.258	1974.53
799.443	1916.01
799.627	1952.05
799.811	2003.2
799.995	1950.7
800.179	1922.6
800.363	1918.73
800.547	1939.65
800.731	2008.24
800.915	1902.06
801.099	1897.8
801.283	1893.73
801.467	1974.53
801.651	1917.76
801.835	1992.16
802.019	1914.66
802.202	1935.39
802.386	1875.52
802.57	1887.15
802.754	1899.74
802.938	1916.21
803.121	1899.35
803.305	1983.83
803.489	1936.36
803.673	1950.31
803.856	1949.53
804.04	1926.48
804.224	1940.23
804.407	1922.8
804.591	1915.24
804.775	1885.6
804.958	1919.7
805.142	2020.06
805.326	1928.41
805.509	1938.68
805.693	1962.9
805.876	1996.03
806.06	1928.8
806.243	1986.93
806.427	2006.49
806.61	2029.36
806.794	1939.07
806.977	2005.33
807.16	1956.7
807.344	1993.71
807.527	1956.9
807.71	1933.06
807.894	1950.5
808.077	1957.48
808.26	1906.91
808.444	1915.05
808.627	2010.76
808.81	1946.05
808.993	1882.5
809.177	1876.1
809.36	1897.42
809.543	1934.81
809.726	1836.58
809.909	1820.3
810.092	1806.74
810.276	1817.4
810.459	1858.47
810.642	1825.34
810.825	1760.24
811.008	1809.26
811.191	1701.34
811.374	1759.66
811.557	1752.3
811.74	1837.55
811.923	1709.09
812.106	1731.18
812.289	1665.69
812.472	1690.49
812.654	1713.74
812.837	1662.4
813.02	1607.38
813.203	1576.18
813.386	1525.42
813.569	1542.28
813.751	1495.39
813.934	1520.19
814.117	1488.61
814.3	1426.22
814.482	1436.68
814.665	1407.82
814.848	1397.93
815.03	1341.17
815.213	1344.65
815.396	1342.91
815.578	1293.89
815.761	1269.29
815.943	1334.77
816.126	1244.87
816.309	1236.35
816.491	1218.33
816.674	1156.72
816.856	1183.26
817.039	1190.63
817.221	1261.73
817.403	1196.44
817.586	1207.09
817.768	1211.94
817.951	1132.11
818.133	1170.86
818.315	1187.53
818.498	1219.3
818.68	1308.81
818.862	1253.59
819.045	1273.94
819.227	1236.16
819.409	1194.69
819.591	1233.06
819.774	1226.27
819.956	1224.14
820.138	1253.4
820.32	1253.21
820.502	1311.14
820.684	1369.26
820.866	1330.7
821.048	1382.05
821.231	1364.42
821.413	1408.98
821.595	1343.69
821.777	1388.63
821.959	1352.4
822.141	1425.83
822.323	1296.99
822.505	1286.53
822.686	1225.69
822.868	1181.33
823.05	1087.36
823.232	1082.9
823.414	1038.53
823.596	1086.39
823.778	1075.15
823.96	1092.4
824.141	1095.3
824.323	1112.74
824.505	1173.58
824.687	1273.74
824.868	1222.59
825.05	1345.82
825.232	1362.67
825.413	1390.38
825.595	1333.42
825.777	1301.84
825.958	1315.98
826.14	1307.45
826.321	1366.55
826.503	1301.25
826.685	1361.9
826.866	1354.15
827.048	1377.2
827.229	1320.05
827.411	1267.35
827.592	1234.02
827.773	1250.88
827.955	1203.99
828.136	1211.74
828.318	1193.53
828.499	1226.27
828.68	1169.31
828.862	1206.12
829.043	1251.46
829.224	1195.66
829.406	1153.62
829.587	1172.99
829.768	1173.38
829.949	1228.02
830.131	1188.49
830.312	1247.01
830.493	1181.13
830.674	1221.62
830.855	1212.91
831.036	1211.74
831.218	1257.08
831.399	1264.83
831.58	1202.25
831.761	1223.17
831.942	1233.25
832.123	1185.59
832.304	1124.56
832.485	1219.3
832.666	1205.35
832.847	1233.25
833.028	1207.09
833.209	1208.64
833.389	1228.99
833.57	1147.61
833.751	1179
833.932	1230.34
834.113	1202.44
834.294	1188.11
834.475	1209.03
834.655	1282.07
834.836	1250.88
835.017	1256.69
835.198	1172.41
835.378	1217.94
835.559	1252.24
835.74	1248.75
835.92	1189.85
836.101	1192.37
836.281	1251.46
836.462	1239.26
836.643	1270.26
836.823	1268.9
837.004	1264.64
837.184	1318.11
837.365	1283.82
837.545	1244.49
837.726	1256.5
837.906	1308.81
838.087	1254.56
838.267	1255.72
838.448	1191.21
838.628	1256.5
838.808	1241.58
838.989	1306.29
839.169	1198.57
839.349	1259.79
839.53	1309.97
839.71	1305.52
839.89	1246.81
840.07	1305.32
840.251	1218.72
840.431	1265.02
840.611	1258.63
840.791	1229.96
840.971	1270.06
841.151	1287.89
841.332	1237.51
841.512	1277.23
841.692	1185.01
841.872	1259.6
842.052	1220.27
842.232	1261.73
842.412	1160.01
842.592	1227.24
842.772	1246.81
842.952	1248.94
843.132	1227.05
843.312	1223.76
843.492	1202.25
843.672	1244.68
843.851	1184.04
844.031	1222.59
844.211	1202.44
844.391	1212.13
844.571	1231.31
844.751	1252.82
844.93	1224.92
845.11	1175.13
845.29	1227.44
845.47	1228.21
845.649	1202.64
845.829	1243.91
846.009	1175.32
846.188	1228.79
846.368	1183.07
846.547	1190.43
846.727	1244.87
846.907	1156.91
847.086	1189.85
847.266	1249.91
847.445	1193.34
847.625	1177.45
847.804	1196.05
847.984	1187.53
848.163	1138.89
848.343	1147.61
848.522	1176.29
848.701	1193.92
848.881	1159.43
849.06	1172.61
849.239	1172.41
849.419	1178.61
849.598	1116.42
849.777	1137.15
849.957	1117.78
850.136	1089.1
850.315	1052.48
850.494	1019.55
850.674	1071.28
850.853	1143.74
851.032	1088.71
851.211	1130.37
851.39	1123.01
851.569	1055.2
851.748	1071.08
851.927	1143.54
852.107	1070.89
852.286	1030.78
852.465	1034.66
852.644	1112.16
852.823	1094.53
853.002	1093.75
853.181	1104.6
853.359	1117.39
853.538	1016.45
853.717	1115.26
853.896	1003.66
854.075	985.64
854.254	982.15
854.433	906.2
854.611	964.13
854.79	931.78
854.969	995.72
855.148	991.07
855.327	947.67
855.505	980.22
855.684	974.21
855.863	965.68
856.041	957.74
856.22	1036.21
856.399	971.88
856.577	1036.01
856.756	1042.99
856.934	1151.1
857.113	1149.94
857.291	1042.8
857.47	1018.19
857.648	1030.2
857.827	1053.45
858.005	1049.58
858.184	1043.76
858.362	1114.68
858.541	1022.84
858.719	1046.28
858.898	1033.11
859.076	1029.43
859.254	1097.43
859.433	1030.78
859.611	1009.28
859.789	981.77
859.967	1066.43
860.146	1098.21
860.324	971.11
860.502	1005.21
860.68	939.92
860.859	989.52
861.037	1004.05
861.215	996.1
861.393	987
861.571	993.58
861.749	970.92
861.927	988.55
862.105	1008.7
862.283	1002.5
862.461	967.23
862.639	921.32
862.817	959.29
862.995	1002.5
863.173	949.02
863.351	992.03
863.529	990.87
863.707	1019.35
863.885	959.1
864.063	931
864.241	915.12
864.418	1008.31
864.596	957.74
864.774	915.12
864.952	933.91
865.129	994.36
865.307	932.17
865.485	899.42
865.663	964.91
865.84	907.95
866.018	914.92
866.196	812.04
866.373	834.71
866.551	811.27
866.728	791.51
866.906	793.64
867.084	838.39
867.261	865.13
867.439	864.16
867.616	889.93
867.794	894
867.971	874.43
868.149	875.4
868.326	904.46
868.503	919.19
868.681	880.44
868.858	865.32
869.035	875.2
869.213	914.54
869.39	861.84
869.567	957.55
869.745	875.2
869.922	887.02
870.099	901.94
870.276	921.9
870.454	896.52
870.631	896.32
870.808	894.77
870.985	887.02
871.162	942.82
871.339	879.27
871.517	846.72
871.694	820.18
871.871	875.98
872.048	845.76
872.225	864.16
872.402	875.98
872.579	814.17
872.756	874.62
872.933	829.09
873.11	802.94
873.287	859.51
873.463	847.69
873.64	815.53
873.817	868.04
873.994	842.27
874.171	833.74
874.348	855.44
874.524	797.32
874.701	847.89
874.878	753.92
875.055	852.92
875.231	854.09
875.408	840.91
875.585	770.19
875.762	841.88
875.938	844.21
876.115	795.38
876.291	796.35
876.468	791.51
876.645	778.14
876.821	792.47
876.998	815.34
877.174	809.14
877.351	785.5
877.527	796.16
877.704	826.57
877.88	792.86
878.057	782.01
878.233	820.57
878.409	780.85
878.586	791.12
878.762	777.75
878.938	775.62
879.115	752.56
879.291	771.74
879.467	714.39
879.644	745.39
879.82	797.71
879.996	735.13
880.172	713.23
880.349	759.93
880.525	788.41
880.701	739.78
880.877	706.26
881.053	735.51
881.229	748.69
881.405	764.38
881.581	723.89
881.757	758.76
881.933	763.22
882.109	753.14
882.285	737.06
882.461	691.53
882.637	731.06
882.813	720.59
882.989	743.46
883.165	763.99
883.341	704.9
883.517	774.46
883.693	756.05
883.869	767.48
884.044	723.11
884.22	776.78
884.396	769.42
884.572	762.83
884.747	794.99
884.923	721.76
885.099	785.5
885.275	778.52
885.45	707.61
885.626	736.29
885.801	708.78
885.977	753.92
886.153	711.49
886.328	754.89
886.504	690.95
886.679	737.26
886.855	719.63
887.03	765.35
887.206	761.28
887.381	732.8
887.557	777.56
887.732	770.19
887.908	765.54
888.083	761.67
888.258	722.34
888.434	729.89
888.609	730.48
888.784	768.06
888.96	701.22
889.135	722.14
889.31	681.46
889.485	740.16
889.661	675.84
889.836	755.47
890.011	758.76
890.186	739.78
890.361	686.49
890.537	716.72
890.712	726.99
890.887	750.63
891.062	752.18
891.237	805.65
891.412	705.87
891.587	725.44
891.762	752.76
891.937	786.66
892.112	683.78
892.287	745.98
892.462	694.24
892.637	668.09
892.812	682.04
892.987	657.05
893.161	653.95
893.336	667.12
893.511	652.78
893.686	673.13
893.861	655.3
894.035	673.51
894.21	659.56
894.385	619.46
894.56	656.08
894.734	592.33
894.909	626.05
895.084	652.59
895.258	600.08
895.433	649.49
895.608	572.57
895.782	561.33
895.957	574.9
896.131	595.43
896.306	518.32
896.48	510.96
896.655	531.3
896.829	448.77
897.004	478.8
897.178	507.86
897.353	470.47
897.527	550.48
897.701	474.92
897.876	467.56
898.05	522.78
898.224	498.17
898.399	555.33
898.573	467.17
898.747	416.22
898.921	460
899.096	379.02
899.27	402.85
899.444	382.7
899.618	423.97
899.792	428.04
899.967	406.53
900.141	479.77
900.315	384.06
900.489	405.56
900.663	455.55
900.837	443.34
901.011	358.29
901.185	481.7
901.359	450.7
901.533	435.59
901.707	421.06
901.881	424.16
902.055	379.02
902.229	430.75
902.403	483.06
902.576	422.61
902.75	438.3
902.924	525.68
903.098	485.39
903.272	497.79
903.446	521.62
903.619	513.09
903.793	538.86
903.967	512.32
904.14	553.58
904.314	549.71
904.488	506.7
904.661	552.23
904.835	535.95
905.009	556.68
905.182	612.29
905.356	564.43
905.529	537.31
905.703	519.1
905.876	497.2
906.05	496.04
906.223	488.29
906.397	423.77
906.57	452.84
906.744	421.25
906.917	420.87
907.09	426.87
907.264	445.86
907.437	394.71
907.61	389.87
907.784	399.94
907.957	377.66
908.13	342.21
908.304	430.75
908.477	377.66
908.65	386.19
908.823	333.68
908.996	442.57
909.17	401.69
909.343	365.84
909.516	378.05
909.689	395.87
909.862	350.54
910.035	383.86
910.208	354.02
910.381	369.14
910.554	452.25
910.727	387.35
910.9	373.98
911.073	347.44
911.246	424.55
911.419	427.26
911.592	398.2
911.765	375.92
911.938	358.87
912.11	386.57
912.283	384.44
912.456	404.79
912.629	387.74
912.802	349.37
912.974	337.94
913.147	299.58
913.32	280.4
913.493	300.36
913.665	317.21
913.838	344.14
914.01	315.86
914.183	323.61
914.356	311.4
914.528	349.96
914.701	390.06
914.873	385.8
915.046	326.32
915.218	321.09
915.391	246.11
915.563	258.31
915.736	309.08
915.908	337.56
916.081	301.52
916.253	305.59
916.425	348.02
916.598	304.04
916.77	311.4
916.942	298.61
917.115	243.01
917.287	305.78
917.459	288.15
917.632	273.04
917.804	211.23
917.976	313.34
918.148	307.14
918.32	280.98
918.493	336.2
918.665	361.19
918.837	320.12
919.009	379.02
919.181	362.94
919.353	346.27
919.525	324.77
919.697	322.44
919.869	336.59
920.041	387.54
920.213	440.63
920.385	343.17
920.557	340.66
920.729	358.29
920.901	362.94
921.073	329.22
921.244	322.06
921.416	367.2
921.588	354.99
921.76	339.11
921.932	391.81
922.103	345.31
922.275	330.19
922.447	335.81
922.619	268.19
922.79	313.73
922.962	314.11
923.134	345.89
923.305	304.62
923.477	273.04
923.648	267.03
923.82	320.89
923.991	270.13
924.163	276.33
924.335	297.64
924.506	268
924.677	358.87
924.849	262.19
925.02	294.74
925.192	304.62
925.363	273.43
925.535	292.99
925.706	261.03
925.877	313.53
926.049	269.74
926.22	256.38
926.391	288.73
926.562	308.69
926.734	255.79
926.905	315.66
927.076	227.31
927.247	255.41
927.419	223.83
927.59	239.13
927.761	245.14
927.932	213.17
928.103	241.07
928.274	188.18
928.445	172.87
928.616	187.01
928.787	201.93
928.958	218.21
929.129	223.63
929.3	193.21
929.471	172.29
929.642	133.15
929.813	100.41
929.984	203.48
930.155	108.93
930.326	183.53
930.496	132.77
930.667	82.78
930.838	127.15
931.009	82.97
931.18	133.73
931.35	103.32
931.521	142.07
931.692	71.54
931.863	55.46
932.033	84.91
932.204	97.31
932.374	97.12
932.545	33.57
932.716	120.56
932.886	111.45
933.057	22.72
933.227	63.02
933.398	141.29
933.568	60.69
933.739	-1.31
933.909	29.3
934.08	96.73
934.25	-18.36
934.421	18.45
934.591	53.72
934.761	24.65
934.932	-20.68
935.102	32.02
935.272	-4.02
935.443	38.6
935.613	14.19
935.783	42.48
935.953	18.45
936.123	145.17
936.294	13.03
936.464	3.92
936.634	26.01
936.804	-1.89
936.974	-2.47
937.144	55.07
937.314	44.61
937.484	18.65
937.655	15.55
937.825	69.41
937.995	-27.85
938.165	53.14
938.334	10.9
938.504	35.7
938.674	1.6
938.844	8.19
939.014	102.35
939.184	51.59
939.354	101.18
939.524	105.45
939.694	69.8
939.863	41.51
940.033	108.16
940.203	90.53
940.373	81.23
940.542	96.34
940.712	52.55
940.882	96.15
941.051	107.38
941.221	106.42
941.391	128.7
941.56	39.96
941.73	14.39
941.899	139.93
942.069	53.52
942.238	99.63
942.408	45.77
942.577	83.75
942.747	90.33
942.916	-3.05
943.086	12.06
943.255	107
943.425	66.31
943.594	29.5
943.763	-3.44
943.933	34.34
944.102	-19.91
944.271	53.33
944.441	69.8
944.61	11.48
944.779	33.57
944.948	108.16
945.117	29.5
945.287	50.04
945.456	2.18
945.625	-13.13
945.794	81.81
945.963	16.32
946.132	66.31
946.301	9.35
946.47	63.99
946.639	6.64
946.808	7.02
946.977	81.03
947.146	119.78
947.315	13.61
947.484	47.71
947.653	28.92
947.822	33.95
947.991	26.98
948.16	119.2
948.329	88.01
948.498	36.86
948.666	54.3
948.835	78.52
949.004	7.99
949.173	4.89
949.341	54.69
949.51	57.79
949.679	62.24
949.847	83.36
950.016	118.62
950.185	81.81
950.353	32.6
950.522	39.57
950.69	72.12
950.859	28.72
951.028	89.95
951.196	63.99
951.365	25.82
951.533	33.57
951.701	105.25
951.87	68.63
952.038	16.13
952.207	49.07
952.375	127.73
952.543	29.3
952.712	49.07
952.88	25.43
953.048	109.52
953.217	39.38
953.385	62.44
953.553	92.27
953.721	8.57
953.89	49.84
954.058	-4.21
954.226	28.34
954.394	60.5
954.562	6.64
954.73	58.95
954.898	27.95
955.067	100.22
955.235	54.1
955.403	87.04
955.571	117.27
955.739	88.78
955.907	33.76
956.075	41.32
956.243	32.99
956.41	74.45
956.578	10.51
956.746	10.9
956.914	22.91
957.082	61.47
957.25	54.1
957.418	29.69
957.585	70.77
957.753	96.92
957.921	8.57
958.089	52.94
958.256	68.63
958.424	72.12
958.592	71.73
958.759	23.1
958.927	69.22
959.095	16.13
959.262	48.1
959.43	59.53
959.597	10.32
959.765	70.96
959.932	25.62
960.1	93.43
960.267	38.22
960.435	46.94
960.602	90.33
960.77	44.03
960.937	15.35
961.104	71.54
961.272	27.95
961.439	35.5
961.606	57.98
961.774	98.08
961.941	29.89
962.108	59.72
962.275	69.22
962.443	81.62
962.61	59.92
962.777	116.88
962.944	77.74
963.111	71.73
963.278	77.55
963.446	82.2
963.613	73.09
963.78	82.39
963.947	78.52
964.114	50.81
964.281	151.95
964.448	77.16
964.615	48.29
964.782	74.64
964.949	87.04
965.116	84.91
965.282	115.52
965.449	59.34
965.616	24.27
965.783	85.49
965.95	77.74
966.117	28.92
966.283	41.32
966.45	48.49
966.617	51.2
966.784	87.04
966.95	100.99
967.117	77.35
967.284	9.93
967.45	28.53
967.617	103.32
967.784	47.52
967.95	115.72
968.117	85.1
968.283	106.8
968.45	170.35
968.616	68.44
968.783	82
968.949	77.74
969.116	106.03
969.282	64.57
969.449	99.05
969.615	79.68
969.781	17.1
969.948	55.07
970.114	5.67
970.28	134.32
970.447	43.45
970.613	121.53
970.779	67.67
970.945	70.18
971.112	65.92
971.278	68.25
971.444	81.42
971.61	113.2
971.776	65.92
971.942	94.21
972.108	103.12
972.275	56.62
972.441	100.41
972.607	115.13
972.773	38.8
972.939	101.57
973.105	77.16
973.271	47.32
973.437	28.14
973.602	55.27
973.768	57.4
973.934	62.24
974.1	91.11
974.266	21.36
974.432	97.31
974.598	54.3
974.763	78.52
974.929	40.54
975.095	130.63
975.261	34.15
975.426	44.22
975.592	62.82
975.758	115.91
975.923	-3.44
976.089	7.8
976.255	105.83
976.42	71.35
976.586	72.9
976.751	84.91
976.917	133.73
977.082	78.9
977.248	-12.55
977.413	-6.93
977.579	56.24
977.744	67.67
977.91	17.1
978.075	68.44
978.24	89.95
978.406	56.82
978.571	44.03
978.736	29.5
978.902	62.24
979.067	6.44
979.232	24.07
979.397	72.51
979.563	113.58
979.728	41.51
979.893	39.19
980.058	46.94
980.223	99.63
980.388	73.67
980.554	47.32
980.719	23.1
980.884	79.29
981.049	108.93
981.214	46.35
981.379	73.67
981.544	42.67
981.709	53.72
981.874	53.72
982.039	71.54
982.204	79.48
982.368	69.02
982.533	33.76
982.698	86.46
982.863	75.61
983.028	17.68
983.193	75.42
983.357	76.38
983.522	77.16
983.687	47.71
983.852	45
984.016	60.11
984.181	69.8
984.346	69.99
984.51	67.67
984.675	51.2
984.839	66.31
985.004	73.87
985.168	93.82
985.333	72.12
985.498	61.85
985.662	80.84
985.827	46.35
985.991	54.1
986.155	37.05
986.32	78.32
986.484	138.77
986.649	62.24
986.813	25.82
986.977	93.05
987.142	82.78
987.306	29.3
987.47	19.42
987.634	29.89
987.799	59.72
987.963	71.54
988.127	87.04
988.291	155.82
988.455	53.72
988.62	48.1
988.784	68.25
988.948	90.72
989.112	25.24
989.276	59.92
989.44	36.67
989.604	20.2
989.768	51.2
989.932	133.15
990.096	25.04
990.26	10.51
990.424	7.22
990.588	45
990.752	114.36
990.915	89.17
991.079	49.26
991.243	24.27
991.407	76.97
991.571	57.2
991.734	87.43
991.898	79.87
992.062	153.11
992.226	79.29
992.389	38.02
992.553	6.05
992.717	13.22
992.88	35.12
993.044	41.32
993.207	50.81
993.371	58.75
993.535	42.29
993.698	60.3
993.862	65.53
994.025	75.61
994.189	63.02
994.352	44.22
994.515	66.12
994.679	93.43
994.842	18.84
995.006	76.58
995.169	24.27
995.332	38.41
995.496	92.85
995.659	-4.41
995.822	22.52
995.985	69.41
996.149	76.19
996.312	79.29
996.475	86.27
996.638	50.42
996.801	113.58
996.964	117.85
997.128	56.04
997.291	37.05
997.454	47.52
997.617	10.51
997.78	76
997.943	29.11
998.106	75.03
998.269	23.88
998.432	36.67
998.595	46.94
998.758	2.18
998.92	30.85
999.083	3.92
999.246	62.82
999.409	15.94
999.572	-5.57
999.735	19.42
999.897	45.97
1000.06	35.5
1000.223	9.93
1000.386	59.53
1000.548	85.88
1000.711	69.6
1000.874	39.77
1001.036	-22.23
1001.199	69.6
1001.361	30.47
1001.524	47.9
1001.687	63.02
1001.849	20
1002.012	64.18
1002.174	52.94
1002.337	63.99
1002.499	35.31
1002.661	88.01
1002.824	10.7
1002.986	13.03
1003.149	32.02
1003.311	25.62
1003.473	64.57
1003.636	10.12
1003.798	51.78
1003.96	43.06
1004.123	38.8
1004.285	27.95
1004.447	33.76
1004.609	51.2
1004.771	117.07
1004.933	-13.13
1005.096	15.55
1005.258	-10.41
1005.42	21.36
1005.582	70.96
1005.744	41.9
1005.906	-2.08
1006.068	24.27
1006.23	-8.28
1006.392	-35.02
1006.554	14.58
1006.716	91.3
1006.878	44.8
1007.04	0.82
1007.202	16.9
1007.363	40.93
1007.525	33.95
1007.687	48.87
1007.849	65.73
1008.011	-8.09
1008.172	-19.71
1008.334	20.59
1008.496	43.84
1008.658	-30.95
1008.819	-1.11
1008.981	-15.06
1009.143	3.15
1009.304	-1.5
1009.466	43.64
1009.627	80.07
1009.789	140.13
1009.95	29.11
1010.112	7.41
1010.273	40.35
1010.435	-9.64
1010.596	34.34
1010.758	6.64
1010.919	35.7
1011.081	-6.73
1011.242	18.07
1011.403	42.67
1011.565	35.12
1011.726	49.65
1011.887	-2.08
1012.049	14.77
1012.21	58.17
1012.371	73.28
1012.532	-61.95
1012.693	26.79
1012.855	12.06
1013.016	45.58
1013.177	71.15
1013.338	40.54
1013.499	93.24
1013.66	69.99
1013.821	33.57
1013.982	53.14
1014.143	33.18
1014.304	-18.94
1014.465	51.59
1014.626	61.27
1014.787	5.67
1014.948	108.16
1015.109	-28.63
1015.27	58.37
1015.431	37.44
1015.592	-3.63
1015.752	72.9
1015.913	25.04
1016.074	12.06
1016.235	21.36
1016.395	15.16
1016.556	4.89
1016.717	28.53
1016.877	72.32
1017.038	-1.11
1017.199	34.92
1017.359	14
1017.52	39.38
1017.681	8.96
1017.841	4.5
1018.002	20.2
1018.162	-16.42
1018.323	83.94
1018.483	14.39
1018.644	1.21
1018.804	-17.39
1018.964	-13.71
1019.125	6.05
1019.285	11.48
1019.446	-6.15
1019.606	0.63
1019.766	-28.24
1019.926	26.98
1020.087	30.08
1020.247	8.38
1020.407	39.38
1020.567	46.35
1020.728	7.6
1020.888	-29.21
1021.048	-2.86
1021.208	-5.76
1021.368	-18.75
1021.528	54.49
1021.688	50.62
1021.848	40.74
1022.008	39.19
1022.168	7.99
1022.328	14.19
1022.488	27.75
1022.648	2.95
1022.808	13.8
1022.968	34.34
1023.128	-20.1
1023.288	-4.02
1023.448	16.13
1023.608	40.74
1023.767	13.42
1023.927	-0.73
1024.087	-25.91
1024.247	-21.65
1024.406	-1.5
1024.566	2.76
1024.726	-4.02
1024.885	-5.76
1025.045	36.09
1025.205	19.23
1025.364	14.58
1025.524	21.55
1025.683	7.8
1025.843	36.67
1026.003	8.38
1026.162	61.27
1026.321	36.47
1026.481	3.92
1026.64	-1.31
1026.8	30.27
1026.959	-4.21
1027.119	31.44
1027.278	-0.34
1027.437	-20.68
1027.597	14.39
1027.756	6.83
1027.915	18.26
1028.074	35.7
1028.234	-3.63
1028.393	19.81
1028.552	17.87
1028.711	-35.99
1028.87	70.77
1029.03	-1.31
1029.189	16.13
1029.348	-56.53
1029.507	-0.34
1029.666	3.92
1029.825	-34.63
1029.984	-6.35
1030.143	30.85
1030.302	6.25
1030.461	-51.49
1030.62	4.12
1030.779	25.62
1030.938	-16.03
1031.097	-32.5
1031.255	31.63
1031.414	45.19
1031.573	43.84
1031.732	-39.86
1031.891	27.95
1032.049	49.26
1032.208	22.33
1032.367	-10.22
1032.525	9.15
1032.684	7.99
1032.843	6.44
1033.001	-37.34
1033.16	163.76
1033.319	25.43
1033.477	13.03
1033.636	-26.11
1033.794	-23.39
1033.953	21.94
1034.111	38.41
1034.27	-11.58
1034.428	17.68
1034.587	-16.42
1034.745	18.84
1034.903	15.55
1035.062	32.99
1035.22	-46.64
1035.378	33.57
1035.537	-13.9
1035.695	49.45
1035.853	4.5
1036.011	37.44
1036.17	-19.33
1036.328	-23.2
1036.486	24.07
1036.644	19.04
1036.802	-49.94
1036.96	-22.43
1037.119	-10.41
1037.277	14.39
1037.435	-22.04
1037.593	-26.88
1037.751	-14.1
1037.909	35.31
1038.067	35.31
