Data from pine_FLMT105791__177__17-23-31-073.txt Node

Date: Mon Mar 20 17:23:31 GMT 2023
User: antho
Spectrometer: FLMT10579
Trigger mode: 0
Integration Time (sec): 1.000000E-1
Scans to average: 10
Electric dark correction enabled: true
Nonlinearity correction enabled: false
Boxcar width: 0
XAxis mode: Wavelengths
Number of Pixels in Spectrum: 3648
>>>>>Begin Spectral Data<<<<<
345.248	-169.87
345.464	-169.87
345.681	-169.87
345.898	-159.6
346.114	-163.09
346.331	-25.33
346.548	17.68
346.764	-7.51
346.981	-15.65
347.197	-0.15
347.414	7.99
347.631	-30.18
347.847	56.04
348.064	-7.7
348.28	35.7
348.497	-44.32
348.713	13.42
348.93	42.29
349.146	27.95
349.363	6.05
349.579	18.45
349.796	23.3
350.012	-3.63
350.229	48.87
350.445	14.97
350.661	14.58
350.878	26.98
351.094	14.77
351.311	30.85
351.527	17.29
351.743	-12.35
351.96	45
352.176	61.66
352.392	22.72
352.609	27.56
352.825	0.63
353.041	2.76
353.257	-4.99
353.474	8.38
353.69	15.55
353.906	25.82
354.122	-1.11
354.339	58.75
354.555	15.16
354.771	-0.34
354.987	40.93
355.203	56.43
355.42	-4.99
355.636	-7.9
355.852	9.93
356.068	-3.05
356.284	-54.59
356.5	61.27
356.716	32.02
356.932	20.78
357.148	47.52
357.364	14
357.58	47.9
357.796	53.72
358.012	43.84
358.228	17.87
358.444	-57.3
358.66	90.53
358.876	26.98
359.092	-2.08
359.308	16.13
359.524	28.34
359.74	-4.99
359.956	-5.57
360.172	28.72
360.388	50.81
360.604	-13.51
360.819	95.37
361.035	13.42
361.251	31.63
361.467	-24.56
361.683	49.84
361.898	28.53
362.114	42.09
362.33	30.27
362.546	44.22
362.762	11.29
362.977	31.24
363.193	-11
363.409	60.69
363.624	-27.66
363.84	2.95
364.056	-6.93
364.271	33.18
364.487	30.08
364.703	11.29
364.918	-29.01
365.134	4.31
365.35	20
365.565	108.93
365.781	7.99
365.996	48.29
366.212	65.34
366.427	34.92
366.643	2.37
366.858	22.14
367.074	-14.87
367.289	67.28
367.505	114.55
367.72	-13.71
367.936	9.15
368.151	59.92
368.367	56.62
368.582	22.14
368.798	6.83
369.013	51.2
369.228	24.46
369.444	14.77
369.659	67.28
369.874	18.84
370.09	63.4
370.305	-26.69
370.52	-6.73
370.736	48.87
370.951	21.94
371.166	89.75
371.381	82
371.597	49.45
371.812	2.57
372.027	-9.45
372.242	1.79
372.458	83.36
372.673	27.17
372.888	3.92
373.103	44.42
373.318	79.68
373.533	49.65
373.749	34.15
373.964	-27.46
374.179	59.14
374.394	-8.67
374.609	48.29
374.824	-11.77
375.039	61.85
375.254	-18.55
375.469	85.1
375.684	18.84
375.899	47.32
376.114	26.98
376.329	26.79
376.544	53.91
376.759	56.62
376.974	7.41
377.189	13.42
377.404	7.22
377.619	33.18
377.834	-60.21
378.049	-24.56
378.264	-29.4
378.478	28.92
378.693	6.05
378.908	32.4
379.123	2.95
379.338	55.27
379.553	34.54
379.767	31.05
379.982	47.13
380.197	29.11
380.412	16.32
380.626	39.19
380.841	96.92
381.056	30.08
381.271	86.85
381.485	-9.06
381.7	-1.89
381.915	40.54
382.129	11.09
382.344	34.34
382.559	20.59
382.773	56.24
382.988	-32.69
383.202	39.19
383.417	7.8
383.632	78.52
383.846	12.06
384.061	26.79
384.275	4.12
384.49	40.54
384.704	44.22
384.919	41.12
385.133	16.71
385.348	25.82
385.562	-14.68
385.777	66.5
385.991	48.49
386.206	35.89
386.42	-6.35
386.634	51.78
386.849	45.77
387.063	35.89
387.277	-29.59
387.492	-4.8
387.706	-8.09
387.92	24.07
388.135	60.89
388.349	19.81
388.563	58.56
388.778	3.54
388.992	43.45
389.206	63.4
389.42	86.85
389.635	21.55
389.849	60.3
390.063	50.23
390.277	45
390.491	83.94
390.706	38.22
390.92	66.5
391.134	28.72
391.348	35.5
391.562	-13.32
391.776	19.04
391.99	11.67
392.205	36.67
392.419	-8.67
392.633	23.88
392.847	77.35
393.061	16.71
393.275	81.03
393.489	51.97
393.703	29.89
393.917	76.97
394.131	16.71
394.345	67.67
394.559	49.26
394.773	14.19
394.986	25.04
395.2	16.71
395.414	42.67
395.628	-14.48
395.842	28.14
396.056	10.51
396.27	-18.55
396.484	32.99
396.697	51.78
396.911	73.28
397.125	57.59
397.339	85.49
397.553	53.52
397.766	110.68
397.98	36.67
398.194	81.62
398.408	29.5
398.621	67.67
398.835	51.59
399.049	30.08
399.262	60.69
399.476	56.43
399.69	41.51
399.903	124.82
400.117	44.8
400.331	68.63
400.544	14.97
400.758	139.16
400.971	53.72
401.185	85.1
401.398	2.18
401.612	69.41
401.826	65.34
402.039	52.36
402.253	7.41
402.466	73.67
402.68	44.22
402.893	30.08
403.106	52.17
403.32	25.24
403.533	84.33
403.747	46.35
403.96	46.16
404.174	50.62
404.387	11.87
404.6	52.55
404.814	84.13
405.027	27.95
405.24	33.57
405.454	25.43
405.667	80.84
405.88	-20.88
406.094	29.3
406.307	78.13
406.52	67.47
406.733	13.42
406.947	16.71
407.16	85.49
407.373	98.47
407.586	26.2
407.799	7.22
408.012	77.93
408.226	68.25
408.439	96.92
408.652	8.96
408.865	48.87
409.078	65.92
409.291	47.13
409.504	-1.31
409.717	62.63
409.93	50.81
410.143	50.62
410.357	5.67
410.57	11.09
410.783	50.42
410.996	75.61
411.209	38.8
411.421	67.08
411.634	50.62
411.847	7.22
412.06	54.88
412.273	50.62
412.486	30.27
412.699	125.98
412.912	50.23
413.125	83.55
413.338	32.99
413.55	72.12
413.763	35.31
413.976	72.32
414.189	52.94
414.402	37.83
414.615	113.39
414.827	-3.44
415.04	64.76
415.253	59.92
415.466	95.18
415.678	92.85
415.891	42.48
416.104	62.44
416.316	30.47
416.529	18.84
416.742	78.13
416.954	83.36
417.167	33.18
417.38	71.15
417.592	89.56
417.805	46.35
418.017	-21.26
418.23	80.45
418.442	31.24
418.655	34.73
418.868	56.82
419.08	73.48
419.293	92.66
419.505	48.68
419.718	75.8
419.93	79.1
420.142	41.7
420.355	106.8
420.567	115.13
420.78	63.4
420.992	15.94
421.205	106.22
421.417	13.42
421.629	25.04
421.842	11.67
422.054	9.35
422.266	74.83
422.479	58.17
422.691	48.68
422.903	51
423.115	51.59
423.328	66.5
423.54	82.2
423.752	69.41
423.964	30.08
424.177	56.62
424.389	41.9
424.601	147.68
424.813	69.41
425.025	94.6
425.238	80.26
425.45	38.8
425.662	57.59
425.874	315.08
426.086	65.92
426.298	66.5
426.51	63.21
426.722	66.89
426.934	47.52
427.146	91.88
427.358	9.15
427.57	91.69
427.782	72.12
427.994	57.4
428.206	51
428.418	5.09
428.63	76
428.842	95.76
429.054	55.46
429.266	83.94
429.478	50.81
429.69	71.73
429.902	39.96
430.114	78.71
430.325	71.93
430.537	55.85
430.749	74.45
430.961	15.55
431.173	51.2
431.384	73.09
431.596	-10.8
431.808	31.82
432.02	86.46
432.231	89.17
432.443	77.55
432.655	75.42
432.867	39.96
433.078	48.49
433.29	113.97
433.502	92.47
433.713	74.83
433.925	40.54
434.136	120.17
434.348	9.35
434.56	7.99
434.771	141.1
434.983	13.8
435.194	17.87
435.406	31.44
435.617	88.2
435.829	112.81
436.04	78.9
436.252	90.33
436.463	115.52
436.675	68.44
436.886	60.5
437.098	72.12
437.309	123.47
437.521	46.94
437.732	79.1
437.943	56.04
438.155	54.49
438.366	5.86
438.578	125.4
438.789	93.63
439	93.05
439.211	74.83
439.423	112.81
439.634	67.67
439.845	81.23
440.057	73.67
440.268	82.58
440.479	30.27
440.69	95.95
440.902	63.4
441.113	60.5
441.324	60.89
441.535	91.5
441.746	112.03
441.957	24.85
442.168	74.83
442.38	91.11
442.591	89.56
442.802	52.55
443.013	81.03
443.224	89.56
443.435	81.03
443.646	69.41
443.857	70.38
444.068	41.32
444.279	64.18
444.49	107.19
444.701	87.62
444.912	154.46
445.123	100.99
445.334	98.28
445.545	86.27
445.756	63.21
445.967	26.2
446.178	62.24
446.388	122.5
446.599	107
446.81	110.87
447.021	51.2
447.232	123.27
447.443	124.63
447.653	40.74
447.864	113.97
448.075	38.6
448.286	112.03
448.496	85.1
448.707	114.94
448.918	64.18
449.129	161.63
449.339	58.37
449.55	99.25
449.761	76.77
449.971	132.38
450.182	85.68
450.393	116.88
450.603	59.34
450.814	103.51
451.024	84.13
451.235	119.2
451.446	125.79
451.656	124.05
451.867	100.02
452.077	127.73
452.288	159.31
452.498	135.28
452.709	85.68
452.919	100.8
453.13	74.25
453.34	150.78
453.55	55.27
453.761	122.3
453.971	126.37
454.182	145.17
454.392	129.08
454.602	160.08
454.813	122.5
455.023	128.89
455.233	76.19
455.444	117.46
455.654	56.04
455.864	89.37
456.075	69.22
456.285	81.81
456.495	97.5
456.705	106.22
456.916	154.27
457.126	151.95
457.336	120.75
457.546	51.2
457.756	61.47
457.967	119.01
458.177	85.88
458.387	79.48
458.597	68.25
458.807	68.63
459.017	98.67
459.227	96.15
459.437	90.92
459.647	134.32
459.857	131.6
460.068	72.51
460.278	129.86
460.488	128.7
460.698	171.9
460.908	114.17
461.117	49.26
461.327	66.12
461.537	110.87
461.747	98.67
461.957	106.8
462.167	202.71
462.377	142.07
462.587	97.12
462.797	122.69
463.007	131.22
463.216	144.58
463.426	136.64
463.636	149.82
463.846	70.57
464.056	91.3
464.265	133.73
464.475	77.74
464.685	88.2
464.895	142.45
465.104	105.25
465.314	125.79
465.524	95.57
465.733	99.25
465.943	186.82
466.153	171.51
466.362	148.65
466.572	122.88
466.782	96.53
466.991	87.62
467.201	197.67
467.41	80.84
467.62	104.67
467.829	111.07
468.039	132.96
468.249	107.38
468.458	98.47
468.668	120.95
468.877	123.47
469.086	170.74
469.296	150.01
469.505	75.03
469.715	184.88
469.924	118.62
470.134	165.51
470.343	149.82
470.552	122.69
470.762	109.71
470.971	72.32
471.18	110.1
471.39	99.05
471.599	95.57
471.808	160.08
472.018	100.22
472.227	140.71
472.436	154.46
472.645	110.29
472.855	82.2
473.064	135.87
473.273	108.16
473.482	144
473.691	175.78
473.901	165.9
474.11	135.28
474.319	193.21
474.528	149.23
474.737	141.29
474.946	153.3
475.155	109.9
475.364	157.37
475.573	141.87
475.783	135.87
475.992	160.66
476.201	169
476.41	117.07
476.619	101.57
476.828	131.99
477.037	100.6
477.245	130.63
477.454	159.31
477.663	105.83
477.872	89.75
478.081	173.84
478.29	76.77
478.499	205.81
478.708	141.68
478.917	203.87
479.125	140.71
479.334	160.66
479.543	114.36
479.752	143.23
479.961	135.48
480.169	162.6
480.378	90.72
480.587	252.5
480.796	148.46
481.004	156.79
481.213	149.04
481.422	148.27
481.63	119.2
481.839	162.41
482.048	175.78
482.256	129.28
482.465	131.22
482.674	164.54
482.882	169.77
483.091	187.4
483.299	177.52
483.508	156.6
483.716	133.35
483.925	141.48
484.134	138.38
484.342	150.59
484.551	186.05
484.759	177.33
484.967	178.1
485.176	204.65
485.384	168.41
485.593	180.04
485.801	160.08
486.01	145.17
486.218	152.72
486.426	155.24
486.635	158.92
486.843	181.78
487.051	166.86
487.26	169
487.468	191.66
487.676	184.11
487.885	138.97
488.093	128.7
488.301	182.36
488.509	179.85
488.717	178.3
488.926	175.78
489.134	134.9
489.342	166.48
489.55	143.03
489.758	170.93
489.967	143.81
490.175	238.75
490.383	149.23
490.591	193.8
490.799	109.13
491.007	211.81
491.215	164.54
491.423	148.46
491.631	175.2
491.839	158.53
492.047	197.09
492.255	165.31
492.463	130.44
492.671	169.19
492.879	212.59
493.087	172.68
493.295	207.36
493.503	166.67
493.711	189.92
493.919	216.08
494.127	209.49
494.334	213.56
494.542	150.98
494.75	181.01
494.958	188.37
495.166	194.57
495.374	204.06
495.581	188.18
495.789	160.66
495.997	242.43
496.205	169.96
496.412	199.03
496.62	164.54
496.828	207.16
497.035	174.61
497.243	203.1
497.451	166.28
497.658	169.77
497.866	168.03
498.074	233.51
498.281	192.05
498.489	255.99
498.696	206.78
498.904	198.83
499.112	182.95
499.319	252.5
499.527	195.73
499.734	207.55
499.942	170.35
500.149	166.86
500.357	179.26
500.564	162.8
500.771	236.81
500.979	180.23
501.186	195.35
501.394	195.35
501.601	191.08
501.808	229.64
502.016	199.8
502.223	190.89
502.43	203.68
502.638	201.74
502.845	136.64
503.052	244.94
503.26	176.36
503.467	271.1
503.674	192.44
503.881	210.85
504.089	309.27
504.296	240.1
504.503	177.91
504.71	193.6
504.917	145.36
505.125	214.91
505.332	205.23
505.539	209.49
505.746	241.07
505.953	232.16
506.16	215.5
506.367	271.88
506.574	257.93
506.781	261.03
506.988	193.41
507.195	218.98
507.402	218.21
507.609	240.49
507.816	231.96
508.023	210.46
508.23	209.1
508.437	190.7
508.644	260.25
508.851	262.77
509.058	247.27
509.265	208.33
509.472	255.6
509.679	295.13
509.885	220.15
510.092	245.14
510.299	232.74
510.506	256.38
510.713	249.4
510.92	246.3
511.126	257.15
511.333	271.49
511.54	244.36
511.746	261.8
511.953	259.09
512.16	270.33
512.367	202.9
512.573	212.01
512.78	229.45
512.987	230.03
513.193	225.76
513.4	183.14
513.606	204.26
513.813	253.86
514.02	262.58
514.226	320.31
514.433	298.23
514.639	202.32
514.846	252.69
515.052	212.2
515.259	228.67
515.465	233.71
515.672	263.54
515.878	312.37
516.085	196.12
516.291	283.69
516.497	218.6
516.704	244.56
516.91	217.05
517.117	202.9
517.323	191.66
517.529	253.08
517.736	218.79
517.942	226.93
518.148	208.71
518.354	270.71
518.561	249.59
518.767	222.66
518.973	272.65
519.179	295.9
519.386	225.38
519.592	193.02
519.798	226.73
520.004	291.83
520.21	240.49
520.417	274.39
520.623	266.64
520.829	273.62
521.035	267.81
521.241	266.64
521.447	318.57
521.653	357.51
521.859	258.7
522.065	279.04
522.271	343.76
522.477	291.44
522.683	353.25
522.889	310.43
523.095	311.79
523.301	301.13
523.507	268.19
523.713	302.88
523.919	231.38
524.125	310.63
524.331	275.75
524.537	324.96
524.742	299
524.948	319.34
525.154	332.13
525.36	376.5
525.566	319.73
525.772	356.93
525.977	267.03
526.183	323.41
526.389	348.21
526.595	321.28
526.8	307.14
527.006	293.58
527.212	275.36
527.417	294.93
527.623	278.08
527.829	347.05
528.034	306.94
528.24	325.16
528.446	295.32
528.651	333.49
528.857	317.79
529.062	367.2
529.268	315.08
529.473	314.11
529.679	285.44
529.884	399.94
530.09	348.41
530.295	374.76
530.501	340.85
530.706	350.15
530.912	291.25
531.117	324.77
531.323	330.58
531.528	354.22
531.733	359.84
531.939	321.09
532.144	355.77
532.35	334.07
532.555	380.57
532.76	371.07
532.966	396.26
533.171	373.01
533.376	330.58
533.581	332.32
533.787	352.09
533.992	361.77
534.197	392.97
534.402	358.48
534.607	345.11
534.813	447.41
535.018	335.04
535.223	359.45
535.428	342.79
535.633	366.04
535.838	367.97
536.043	383.47
536.249	426.1
536.454	360.22
536.659	367.78
536.864	323.41
537.069	336.2
537.274	383.47
537.479	394.32
537.684	407.11
537.889	334.65
538.094	416.22
538.299	363.52
538.504	375.72
538.708	392.39
538.913	384.25
539.118	348.02
539.323	400.52
539.528	354.41
539.733	394.13
539.938	391.81
540.142	413.12
540.347	366.23
540.552	357.32
540.757	376.69
540.962	381.34
541.166	340.85
541.371	328.64
541.576	365.84
541.781	283.89
541.985	392.97
542.19	395.29
542.395	432.88
542.599	401.69
542.804	414.47
543.008	442.57
543.213	348.6
543.418	362.94
543.622	392.39
543.827	359.26
544.031	417.77
544.236	447.99
544.44	347.82
544.645	456.71
544.849	376.69
545.054	398.78
545.258	458.45
545.463	434.82
545.667	370.69
545.872	392.19
546.076	411.18
546.281	377.08
546.485	387.54
546.689	394.52
546.894	468.72
547.098	406.34
547.302	364.1
547.507	429.39
547.711	400.33
547.915	461.17
548.119	387.74
548.324	390.45
548.528	457.87
548.732	405.95
548.936	419.12
549.141	432.3
549.345	420.48
549.549	373.01
549.753	390.45
549.957	487.9
550.161	472.21
550.366	379.41
550.57	368.17
550.774	380.76
550.978	406.53
551.182	434.04
551.386	421.84
551.59	389.67
551.794	386.19
551.998	438.89
552.202	379.6
552.406	368.75
552.61	388.12
552.814	406.72
553.018	481.51
553.222	391.03
553.426	403.43
553.63	511.15
553.833	392.39
554.037	365.07
554.241	442.57
554.445	381.73
554.649	372.04
554.853	402.85
555.056	439.47
555.26	420.87
555.464	425.52
555.668	403.43
555.871	439.08
556.075	429.2
556.279	373.79
556.483	375.53
556.686	413.51
556.89	413.51
557.094	411.57
557.297	374.76
557.501	476.28
557.704	366.81
557.908	463.3
558.112	389.67
558.315	468.72
558.519	412.73
558.722	411.18
558.926	433.46
559.129	385.61
559.333	374.17
559.536	350.73
559.74	380.57
559.943	387.74
560.147	347.24
560.35	388.71
560.553	363.71
560.757	335.04
560.96	428.23
561.164	364.1
561.367	433.85
561.57	384.06
561.774	389.09
561.977	381.34
562.18	373.79
562.384	501.66
562.587	392.77
562.79	369.72
562.993	378.82
563.197	416.02
563.4	469.69
563.603	442.18
563.806	470.66
564.009	377.66
564.212	407.69
564.416	362.36
564.619	420.87
564.822	355.77
565.025	417.77
565.228	382.7
565.431	398.01
565.634	296.48
565.837	376.31
566.04	349.57
566.243	373.01
566.446	303.65
566.649	421.45
566.852	344.34
567.055	379.99
567.258	451.29
567.461	439.08
567.664	423.19
567.867	303.84
568.07	400.52
568.273	402.27
568.475	431.91
568.678	397.62
568.881	388.9
569.084	433.46
569.287	308.88
569.489	338.33
569.692	399.75
569.895	394.91
570.098	333.29
570.3	333.87
570.503	299.19
570.706	343.95
570.909	307.91
571.111	324.19
571.314	293.77
571.516	348.41
571.719	359.64
571.922	331.94
572.124	327.67
572.327	334.65
572.529	307.91
572.732	291.06
572.935	309.08
573.137	364.87
573.34	315.66
573.542	350.73
573.745	349.18
573.947	328.84
574.15	351.12
574.352	291.44
574.554	387.54
574.757	323.99
574.959	321.28
575.162	279.24
575.364	318.18
575.566	428.81
575.769	302.88
575.971	331.55
576.173	266.84
576.376	305.59
576.578	383.09
576.78	395.49
576.982	255.79
577.185	319.15
577.387	284.47
577.589	286.79
577.791	319.93
577.993	343.95
578.196	300.94
578.398	365.07
578.6	361.58
578.802	290.67
579.004	295.13
579.206	294.93
579.408	353.06
579.61	304.04
579.812	362.74
580.014	307.53
580.216	298.42
580.418	295.9
580.62	264.71
580.822	230.22
581.024	279.43
581.226	348.02
581.428	278.46
581.63	371.27
581.832	304.43
582.034	354.61
582.236	301.52
582.438	335.04
582.64	357.9
582.841	356.74
583.043	414.09
583.245	338.14
583.447	328.06
583.649	312.37
583.85	326.32
584.052	370.11
584.254	342.98
584.456	355.57
584.657	292.03
584.859	298.61
585.061	319.15
585.262	263.16
585.464	293.58
585.666	356.54
585.867	317.99
586.069	393.36
586.27	347.05
586.472	316.44
586.674	305.78
586.875	298.03
587.077	314.5
587.278	322.64
587.48	291.83
587.681	398.01
587.883	344.92
588.084	278.08
588.285	314.11
588.487	276.14
588.688	318.57
588.89	304.43
589.091	276.91
589.292	301.71
589.494	293.38
589.695	281.95
589.896	252.69
590.098	215.69
590.299	298.23
590.5	271.49
590.702	282.34
590.903	266.64
591.104	320.12
591.305	274.2
591.507	347.63
591.708	308.69
591.909	284.08
592.11	337.75
592.311	326.9
592.512	275.75
592.714	259.86
592.915	276.91
593.116	264.9
593.317	289.12
593.518	281.37
593.719	265.68
593.92	302.49
594.121	338.72
594.322	314.5
594.523	301.71
594.724	245.72
594.925	272.65
595.126	306.94
595.327	299.39
595.528	309.46
595.729	299.19
595.929	270.13
596.13	273.04
596.331	254.83
596.532	301.71
596.733	340.66
596.934	339.3
597.135	353.44
597.335	292.99
597.536	250.37
597.737	326.9
597.938	279.63
598.138	320.89
598.339	253.28
598.54	288.34
598.74	323.61
598.941	295.32
599.142	344.53
599.342	314.31
599.543	276.53
599.744	280.4
599.944	295.32
600.145	289.89
600.345	326.9
600.546	356.54
600.746	351.31
600.947	367.97
601.147	301.33
601.348	318.96
601.548	262.96
601.749	319.73
601.949	240.49
602.15	276.91
602.35	283.11
602.551	334.07
602.751	265.87
602.951	291.25
603.152	227.9
603.352	302.1
603.552	285.24
603.753	317.79
603.953	288.15
604.153	292.41
604.354	289.89
604.554	303.26
604.754	302.29
604.954	247.27
605.155	299.78
605.355	275.17
605.555	311.79
605.755	339.3
605.955	318.96
606.155	324.19
606.356	293.58
606.556	326.32
606.756	302.88
606.956	231.96
607.156	358.29
607.356	255.02
607.556	334.84
607.756	315.28
607.956	324.19
608.156	294.16
608.356	282.14
608.556	338.14
608.756	291.44
608.956	274.39
609.156	312.56
609.356	234.48
609.556	283.69
609.755	315.86
609.955	283.5
610.155	292.22
610.355	318.96
610.555	275.94
610.755	300.36
610.954	217.43
611.154	297.64
611.354	310.04
611.554	235.45
611.753	266.06
611.953	237.39
612.153	312.76
612.352	318.76
612.552	251.92
612.752	218.01
612.951	272.46
613.151	280.59
613.351	234.48
613.55	268.97
613.75	286.79
613.949	280.21
614.149	297.84
614.348	274.59
614.548	278.27
614.747	213.56
614.947	269.55
615.146	204.65
615.346	311.59
615.545	292.61
615.745	289.51
615.944	309.85
616.144	297.45
616.343	308.69
616.542	267.61
616.742	293.77
616.941	273.81
617.14	251.73
617.34	278.46
617.539	269.36
617.738	228.86
617.938	329.42
618.137	247.66
618.336	236.03
618.535	266.84
618.734	282.34
618.934	277.11
619.133	289.7
619.332	275.17
619.531	244.56
619.73	265.48
619.929	310.63
620.128	287.96
620.328	329.61
620.527	249.01
620.726	223.05
620.925	282.92
621.124	240.49
621.323	270.91
621.522	239.52
621.721	224.21
621.92	248.24
622.119	279.82
622.318	256.38
622.517	248.43
622.715	281.56
622.914	201.35
623.113	255.21
623.312	229.45
623.511	263.54
623.71	263.35
623.909	247.27
624.107	292.03
624.306	199.8
624.505	226.35
624.704	247.08
624.902	246.11
625.101	290.86
625.3	244.75
625.499	227.12
625.697	242.04
625.896	209.68
626.095	274.39
626.293	236.61
626.492	233.71
626.69	278.66
626.889	223.83
627.088	276.53
627.286	213.56
627.485	245.14
627.683	230.03
627.882	273.43
628.08	186.43
628.279	244.56
628.477	288.93
628.676	206.97
628.874	266.64
629.073	237.58
629.271	230.41
629.469	264.13
629.668	230.22
629.866	259.67
630.065	241.84
630.263	272.26
630.461	218.6
630.66	243.01
630.858	260.83
631.056	286.41
631.254	300.36
631.453	202.13
631.651	274.01
631.849	243.39
632.047	247.27
632.245	225.76
632.444	234.29
632.642	259.86
632.84	243.39
633.038	230.61
633.236	191.08
633.434	218.01
633.632	209.1
633.83	197.09
634.028	243.01
634.227	251.73
634.425	284.28
634.623	242.04
634.821	235.26
635.019	210.46
635.216	199.41
635.414	234.1
635.612	239.91
635.81	228.48
636.008	292.61
636.206	253.86
636.404	263.35
636.602	220.34
636.8	244.75
636.997	291.25
637.195	252.89
637.393	218.79
637.591	310.63
637.789	262.19
637.986	229.25
638.184	245.14
638.382	265.29
638.58	260.83
638.777	292.99
638.975	244.75
639.173	255.6
639.37	249.79
639.568	262.38
639.765	270.13
639.963	195.35
640.161	275.17
640.358	247.27
640.556	232.16
640.753	190.31
640.951	218.79
641.148	255.99
641.346	220.92
641.543	241.84
641.741	256.18
641.938	221.31
642.136	250.76
642.333	196.9
642.531	276.72
642.728	288.34
642.925	266.45
643.123	229.64
643.32	229.06
643.517	213.36
643.715	257.15
643.912	220.73
644.109	250.18
644.306	235.84
644.504	190.7
644.701	239.91
644.898	262.38
645.095	201.93
645.293	224.21
645.49	242.43
645.687	237.58
645.884	280.4
646.081	181.59
646.278	199.22
646.475	237.2
646.672	200
646.87	246.11
647.067	274.78
647.264	262.19
647.461	188.18
647.658	219.37
647.855	260.06
648.052	212.78
648.249	163.76
648.446	197.67
648.642	194.18
648.839	234.29
649.036	207.94
649.233	193.6
649.43	196.9
649.627	171.13
649.824	204.45
650.021	198.06
650.217	187.98
650.414	182.56
650.611	235.65
650.808	244.36
651.004	209.88
651.201	236.42
651.398	258.89
651.595	219.56
651.791	199.41
651.988	254.24
652.185	222.28
652.381	230.03
652.578	175.39
652.775	193.02
652.971	194.96
653.168	216.66
653.364	215.69
653.561	183.91
653.757	212.98
653.954	189.53
654.15	177.91
654.347	275.94
654.543	201.74
654.74	172.29
654.936	155.43
655.133	236.23
655.329	221.89
655.525	226.35
655.722	240.49
655.918	187.21
656.115	259.48
656.311	163.96
656.507	152.33
656.704	151.17
656.9	159.11
657.096	155.63
657.292	162.6
657.489	221.89
657.685	233.13
657.881	171.51
658.077	179.26
658.273	184.69
658.47	279.24
658.666	193.21
658.862	221.5
659.058	192.05
659.254	216.66
659.45	144.58
659.646	211.62
659.842	193.8
660.038	221.31
660.234	156.4
660.43	214.14
660.626	244.36
660.822	207.75
661.018	238.16
661.214	206.39
661.41	163.76
661.606	221.11
661.802	228.28
661.998	207.36
662.194	167.83
662.39	216.66
662.586	216.27
662.781	210.07
662.977	200.38
663.173	248.43
663.369	188.76
663.564	195.93
663.76	255.21
663.956	199.41
664.152	261.99
664.347	153.5
664.543	204.06
664.739	195.93
664.934	155.63
665.13	164.15
665.326	229.06
665.521	199.22
665.717	156.4
665.912	174.42
666.108	127.73
666.304	168.8
666.499	174.61
666.695	109.32
666.89	174.81
667.086	219.76
667.281	222.08
667.477	258.51
667.672	216.27
667.867	196.7
668.063	221.5
668.258	158.34
668.454	183.14
668.649	246.3
668.844	183.72
669.04	225.38
669.235	213.36
669.43	161.63
669.626	153.69
669.821	174.23
670.016	152.72
670.211	173.26
670.407	150.2
670.602	186.82
670.797	183.14
670.992	236.61
671.187	161.05
671.382	214.14
671.578	169
671.773	204.65
671.968	162.02
672.163	209.88
672.358	222.28
672.553	181.59
672.748	146.91
672.943	240.68
673.138	197.09
673.333	209.68
673.528	136.06
673.723	207.36
673.918	174.42
674.113	132.96
674.308	264.32
674.503	235.06
674.698	190.7
674.892	227.51
675.087	204.06
675.282	206.2
675.477	188.56
675.672	205.03
675.867	169.96
676.061	158.34
676.256	137.42
676.451	173.06
676.646	199.8
676.84	146.33
677.035	110.68
677.23	159.11
677.424	201.55
677.619	212.78
677.814	203.1
678.008	200.19
678.203	121.33
678.397	151.56
678.592	165.12
678.787	226.15
678.981	195.73
679.176	181.01
679.37	181.4
679.565	143.42
679.759	182.75
679.954	211.81
680.148	233.13
680.342	236.03
680.537	220.34
680.731	187.21
680.926	201.55
681.12	210.85
681.314	148.85
681.509	153.5
681.703	197.86
681.897	206
682.092	199.03
682.286	147.88
682.48	265.09
682.674	234.1
682.869	200.96
683.063	183.14
683.257	251.53
683.451	182.56
683.645	176.16
683.839	193.41
684.034	159.5
684.228	211.43
684.422	142.84
684.616	154.08
684.81	187.6
685.004	192.05
685.198	169
685.392	205.61
685.586	147.3
685.78	174.81
685.974	211.81
686.168	202.9
686.362	236.23
686.556	144.97
686.75	163.38
686.944	167.25
687.138	237.2
687.331	150.2
687.525	183.33
687.719	126.18
687.913	203.87
688.107	170.55
688.301	123.85
688.494	210.85
688.688	146.33
688.882	115.52
689.076	122.3
689.269	167.45
689.463	223.05
689.657	164.15
689.85	146.72
690.044	182.17
690.238	163.96
690.431	136.25
690.625	125.79
690.818	170.35
691.012	161.25
691.205	148.46
691.399	132.18
691.593	168.61
691.786	220.73
691.98	192.44
692.173	215.3
692.366	182.56
692.56	175.2
692.753	234.1
692.947	179.26
693.14	223.05
693.333	228.09
693.527	134.7
693.72	211.81
693.914	180.23
694.107	167.64
694.3	197.48
694.493	183.53
694.687	227.51
694.88	150.98
695.073	232.74
695.266	231.58
695.46	188.95
695.653	228.86
695.846	232.16
696.039	133.15
696.232	197.48
696.425	220.73
696.618	226.54
696.812	214.53
697.005	241.26
697.198	330.39
697.391	239.71
697.584	280.01
697.777	269.74
697.97	254.63
698.163	262.58
698.356	260.44
698.549	332.13
698.742	286.21
698.935	226.93
699.127	263.16
699.32	220.15
699.513	217.63
699.706	268.58
699.899	268.58
700.092	237.39
700.285	279.82
700.477	225.18
700.67	274.98
700.863	291.83
701.056	368.17
701.248	303.07
701.441	332.91
701.634	251.53
701.826	368.56
702.019	256.38
702.212	340.85
702.404	247.27
702.597	261.22
702.79	289.89
702.982	288.34
703.175	314.5
703.367	330.58
703.56	332.32
703.752	424.35
703.945	361.19
704.137	367.78
704.33	356.54
704.522	350.73
704.715	368.94
704.907	350.34
705.1	383.67
705.292	355.77
705.484	363.71
705.677	436.75
705.869	409.63
706.061	422.8
706.254	448.96
706.446	379.21
706.638	378.63
706.831	450.9
707.023	397.42
707.215	467.37
707.407	459.42
707.599	452.64
707.792	481.9
707.984	454
708.176	489.45
708.368	445.09
708.56	463.1
708.752	430.55
708.944	427.84
709.136	467.75
709.329	456.13
709.521	561.92
709.713	531.5
709.905	518.52
710.097	525.88
710.289	472.6
710.481	510.96
710.672	533.82
710.864	498.75
711.056	584.78
711.248	559.2
711.44	548.74
711.632	504.18
711.824	544.67
712.016	628.76
712.207	578.19
712.399	572.38
712.591	642.13
712.783	607.06
712.975	620.43
713.166	550.1
713.358	594.85
713.55	664.6
713.741	668.86
713.933	640.38
714.125	633.99
714.316	579.35
714.508	681.65
714.7	681.84
714.891	683.01
715.083	742.29
715.274	666.73
715.466	692.69
715.657	730.86
715.849	603.38
716.04	691.53
716.232	645.42
716.423	749.85
716.615	658.98
716.806	679.13
716.998	656.27
717.189	656.85
717.381	569.86
717.572	600.47
717.763	617.33
717.955	627.21
718.146	622.17
718.337	564.24
718.528	575.87
718.72	510.96
718.911	571.8
719.102	557.07
719.293	633.02
719.485	569.67
719.676	570.05
719.867	541.96
720.058	570.25
720.249	589.82
720.44	584.2
720.632	593.3
720.823	614.23
721.014	672.74
721.205	659.37
721.396	671.38
721.587	768.06
721.778	726.99
721.969	750.63
722.16	782.01
722.351	764.57
722.542	837.04
722.733	848.08
722.924	783.95
723.115	838.01
723.305	838.01
723.496	839.36
723.687	812.43
723.878	813.21
724.069	806.42
724.26	815.92
724.45	754.5
724.641	745.59
724.832	801.58
725.023	791.7
725.213	789.57
725.404	817.08
725.595	789.18
725.785	758.38
725.976	798.09
726.167	841.49
726.357	782.01
726.548	875.79
726.739	818.05
726.929	884.89
727.12	901.36
727.31	920.15
727.501	871.52
727.691	911.44
727.882	911.44
728.072	921.9
728.263	899.42
728.453	953.28
728.644	920.15
728.834	931.2
729.024	900.2
729.215	888.96
729.405	930.23
729.596	1011.02
729.786	997.27
729.976	989.52
730.167	1024.58
730.357	946.7
730.547	973.05
730.737	996.1
730.928	1040.28
731.118	1079.41
731.308	1000.56
731.498	990.29
731.688	1088.33
731.879	1068.76
732.069	1123.98
732.259	1095.88
732.449	1109.45
732.639	1162.14
732.829	1156.91
733.019	1181.13
733.209	1216.01
733.399	1191.79
733.589	1252.62
733.779	1254.76
733.969	1232.09
734.159	1281.49
734.349	1296.22
734.539	1318.89
734.729	1319.27
734.919	1382.43
735.109	1372.36
735.299	1354.54
735.488	1367.71
735.678	1353.18
735.868	1369.07
736.058	1362.09
736.248	1349.69
736.437	1360.35
736.627	1342.72
736.817	1437.85
737.007	1353.76
737.196	1401.62
737.386	1372.17
737.576	1360.93
737.765	1433.2
737.955	1382.24
738.144	1462.84
738.334	1451.8
738.524	1404.33
738.713	1453.93
738.903	1437.46
739.092	1465.75
739.282	1481.44
739.471	1495.78
739.661	1458.19
739.85	1448.7
740.04	1499.46
740.229	1514.57
740.419	1535.69
740.608	1542.08
740.797	1555.06
740.987	1568.82
741.176	1593.04
741.365	1504.3
741.555	1496.36
741.744	1584.32
741.933	1509.15
742.123	1555.84
742.312	1613.19
742.501	1604.66
742.69	1629.08
742.88	1551.19
743.069	1645.35
743.258	1543.63
743.447	1651.16
743.636	1657.17
743.825	1611.83
744.014	1613.38
744.204	1632.76
744.393	1570.76
744.582	1631.98
744.771	1671.7
744.96	1596.33
745.149	1658.72
745.338	1605.24
745.527	1665.89
745.716	1650
745.905	1618.03
746.094	1634.69
746.283	1662.59
746.471	1690.88
746.66	1704.83
746.849	1668.6
747.038	1705.02
747.227	1625.98
747.416	1721.49
747.604	1636.05
747.793	1665.69
747.982	1660.85
748.171	1654.46
748.359	1711.22
748.548	1736.41
748.737	1685.26
748.926	1661.43
749.114	1626.75
749.303	1686.81
749.491	1686.23
749.68	1627.72
749.869	1740.87
750.057	1681
750.246	1677.32
750.434	1649.42
750.623	1698.82
750.811	1675.96
751	1704.83
751.188	1699.41
751.377	1674.61
751.565	1677.71
751.754	1637.21
751.942	1649.42
752.131	1695.14
752.319	1640.12
752.507	1618.42
752.696	1654.65
752.884	1690.11
753.072	1663.37
753.261	1660.07
753.449	1687.2
753.637	1647.29
753.825	1707.93
754.014	1657.56
754.202	1689.33
754.39	1719.75
754.578	1679.45
754.766	1645.74
754.955	1668.41
755.143	1748.42
755.331	1661.04
755.519	1638.96
755.707	1674.41
755.895	1640.51
756.083	1647.67
756.271	1656.2
756.459	1621.52
756.647	1699.6
756.835	1679.26
757.023	1655.04
757.211	1675.96
757.399	1600.01
757.587	1591.68
757.775	1606.41
757.963	1611.44
758.151	1614.93
758.339	1613.38
758.526	1588.58
758.714	1671.12
758.902	1578.89
759.09	1512.63
759.278	1435.72
759.465	1305.71
759.653	1132.31
759.841	1069.15
760.028	876.56
760.216	768.64
760.404	778.52
760.591	594.85
760.779	513.87
760.967	450.51
761.154	367.97
761.342	417.77
761.529	393.16
761.717	425.71
761.905	389.67
762.092	429.59
762.28	372.82
762.467	403.04
762.655	363.13
762.842	406.92
763.029	442.57
763.217	407.69
763.404	404.4
763.592	400.72
763.779	373.01
763.966	427.84
764.154	448.57
764.341	462.52
764.528	465.43
764.716	509.22
764.903	512.51
765.09	538.47
765.277	592.33
765.465	679.71
765.652	699.86
765.839	712.65
766.026	799.26
766.213	783.56
766.4	868.62
766.588	999.98
766.775	968.59
766.962	1052.48
767.149	1036.98
767.336	1165.63
767.523	1073.21
767.71	1197.79
767.897	1227.05
768.084	1301.84
768.271	1297.96
768.458	1306.68
768.645	1377.2
768.832	1280.91
769.019	1325.28
769.206	1372.36
769.392	1389.02
769.579	1474.27
769.766	1442.88
769.953	1398.32
770.14	1461.1
770.327	1438.82
770.513	1495.58
770.7	1553.13
770.887	1428.55
771.073	1503.72
771.26	1463.81
771.447	1468.85
771.634	1462.65
771.82	1559.33
772.007	1460.32
772.193	1462.45
772.38	1497.91
772.567	1480.08
772.753	1506.43
772.94	1512.83
773.126	1506.63
773.313	1516.51
773.499	1520.96
773.686	1518.06
773.872	1485.7
774.059	1488.03
774.245	1433.78
774.432	1472.72
774.618	1407.04
774.804	1488.61
774.991	1412.66
775.177	1491.13
775.363	1464.58
775.55	1503.91
775.736	1446.57
775.922	1437.85
776.109	1482.99
776.295	1489
776.481	1480.86
776.667	1518.25
776.853	1459.16
777.04	1422.35
777.226	1437.07
777.412	1526
777.598	1441.14
777.784	1441.33
777.97	1411.11
778.156	1462.84
778.342	1395.22
778.528	1460.32
778.715	1389.22
778.901	1409.56
779.087	1473.3
779.272	1404.33
779.458	1389.99
779.644	1457.22
779.83	1399.29
780.016	1511.66
780.202	1414.02
780.388	1400.26
780.574	1371.78
780.76	1386.12
780.946	1424.48
781.131	1401.23
781.317	1419.63
781.503	1403.75
781.689	1351.05
781.874	1489.96
782.06	1392.9
782.246	1374.49
782.432	1376.04
782.617	1388.05
782.803	1429.9
782.989	1342.33
783.174	1369.26
783.36	1334.58
783.545	1354.54
783.731	1365
783.916	1285.37
784.102	1371.39
784.288	1291.76
784.473	1361.51
784.659	1355.12
784.844	1432.23
785.029	1318.89
785.215	1322.18
785.4	1239.45
785.586	1378.17
785.771	1278.59
785.956	1340.59
786.142	1327.6
786.327	1299.9
786.512	1301.25
786.698	1290.99
786.883	1286.92
787.068	1307.07
787.254	1315.4
787.439	1267.93
787.624	1308.04
787.809	1276.84
787.994	1314.43
788.18	1363.06
788.365	1229.96
788.55	1277.04
788.735	1263.67
788.92	1278.59
789.105	1300.87
789.29	1299.32
789.475	1227.82
789.66	1229.96
789.845	1254.56
790.03	1211.74
790.215	1294.86
790.4	1299.7
790.585	1300.67
790.77	1258.05
790.955	1170.09
791.14	1241.97
791.325	1286.53
791.51	1123.78
791.695	1219.69
791.879	1200.31
792.064	1148.19
792.249	1286.53
792.434	1202.83
792.618	1199.93
792.803	1229.76
792.988	1211.94
793.173	1216.2
793.357	1235.38
793.542	1187.33
793.727	1210.58
793.911	1210
794.096	1209.61
794.281	1261.92
794.465	1303.77
794.65	1230.15
794.834	1226.47
795.019	1258.05
795.203	1276.26
795.388	1253.01
795.572	1256.89
795.757	1198.38
795.941	1250.69
796.126	1279.17
796.31	1162.34
796.494	1226.66
796.679	1204.96
796.863	1168.93
797.048	1287.5
797.232	1231.51
797.416	1233.64
797.601	1188.3
797.785	1285.95
797.969	1275.1
798.153	1237.12
798.338	1242.94
798.522	1267.54
798.706	1256.69
798.89	1248.36
799.074	1325.28
799.258	1309
799.443	1237.51
799.627	1231.12
799.811	1299.7
799.995	1236.54
800.179	1221.62
800.363	1260.57
800.547	1288.86
800.731	1289.05
800.915	1189.66
801.099	1205.54
801.283	1256.11
801.467	1223.76
801.651	1223.37
801.835	1299.12
802.019	1257.47
802.202	1284.21
802.386	1201.67
802.57	1213.1
802.754	1241
802.938	1242.36
803.121	1214.84
803.305	1303.58
803.489	1225.31
803.673	1224.92
803.856	1277.23
804.04	1256.5
804.224	1240.22
804.407	1226.08
804.591	1217.17
804.775	1242.74
804.958	1238.48
805.142	1327.22
805.326	1212.91
805.509	1252.82
805.693	1267.93
805.876	1283.82
806.06	1234.22
806.243	1275.29
806.427	1271.22
806.61	1283.62
806.794	1227.82
806.977	1333.42
807.16	1272.39
807.344	1277.42
807.527	1252.82
807.71	1241.97
807.894	1237.71
808.077	1293.7
808.26	1191.01
808.444	1223.76
808.627	1301.84
808.81	1215.81
808.993	1197.41
809.177	1216.78
809.36	1221.82
809.543	1227.24
809.726	1164.47
809.909	1171.83
810.092	1152.07
810.276	1157.88
810.459	1163.5
810.642	1138.31
810.825	1122.81
811.008	1171.64
811.191	1113.71
811.374	1094.72
811.557	1145.48
811.74	1222.79
811.923	1111.58
812.106	1064.3
812.289	1074.76
812.472	1100.53
812.654	1088.13
812.837	1059.46
813.02	1057.91
813.203	1075.54
813.386	953.87
813.569	971.88
813.751	943.98
813.934	1006.76
814.117	983.51
814.3	938.56
814.482	920.93
814.665	929.84
814.848	909.3
815.03	829.67
815.213	866.68
815.396	873.65
815.578	844.21
815.761	832.97
815.943	895.74
816.126	800.42
816.309	802.94
816.491	760.89
816.674	745.78
816.856	784.14
817.039	748.3
817.221	799.26
817.403	779.88
817.586	804.49
817.768	807.39
817.951	722.53
818.133	755.66
818.315	763.03
818.498	773.68
818.68	872.1
818.862	818.24
819.045	832.58
819.227	810.69
819.409	776.2
819.591	832.97
819.774	815.34
819.956	740.94
820.138	818.05
820.32	814.76
820.502	852.15
820.684	853.31
820.866	855.83
821.048	880.24
821.231	907.56
821.413	887.8
821.595	876.95
821.777	877.34
821.959	882.37
822.141	915.31
822.323	838.78
822.505	813.01
822.686	839.17
822.868	761.28
823.05	708.78
823.232	711.29
823.414	666.73
823.596	708
823.778	705.68
823.96	690.95
824.141	701.22
824.323	683.78
824.505	795.19
824.687	775.81
824.868	795.19
825.05	860.09
825.232	856.02
825.413	938.37
825.595	874.82
825.777	839.36
825.958	866.49
826.14	829.67
826.321	886.83
826.503	852.15
826.685	884.5
826.866	903.69
827.048	877.72
827.229	841.3
827.411	866.49
827.592	775.81
827.773	808.56
827.955	798.09
828.136	779.11
828.318	772.91
828.499	795.57
828.68	783.37
828.862	779.88
829.043	817.47
829.224	807.2
829.406	776.39
829.587	769.22
829.768	740.55
829.949	812.82
830.131	761.67
830.312	863.58
830.493	795.19
830.674	828.32
830.855	777.94
831.036	776.59
831.218	800.42
831.399	825.02
831.58	776.2
831.761	812.82
831.942	804.68
832.123	767.87
832.304	737.06
832.485	758.96
832.666	758.38
832.847	788.99
833.028	789.96
833.209	793.44
833.389	775.04
833.57	734.54
833.751	750.63
833.932	795.19
834.113	777.56
834.294	739.97
834.475	814.37
834.655	816.5
834.836	822.31
835.017	798.29
835.198	731.64
835.378	785.31
835.559	805.26
835.74	781.24
835.92	744.62
836.101	750.82
836.281	824.44
836.462	788.99
836.643	845.76
836.823	846.72
837.004	833.94
837.184	879.47
837.365	814.95
837.545	856.8
837.726	822.51
837.906	861.45
838.087	807.2
838.267	838.78
838.448	767.09
838.628	833.36
838.808	819.02
838.989	876.75
839.169	790.92
839.349	825.61
839.53	828.12
839.71	858.35
839.89	790.92
840.07	862.03
840.251	785.31
840.431	862.8
840.611	876.56
840.791	786.47
840.971	833.55
841.151	778.14
841.332	801.77
841.512	847.11
841.692	745.98
841.872	836.65
842.052	797.51
842.232	837.42
842.412	746.94
842.592	803.91
842.772	830.84
842.952	830.06
843.132	777.17
843.312	775.81
843.492	750.04
843.672	812.24
843.851	748.88
844.031	799.64
844.211	787.63
844.391	763.61
844.571	810.88
844.751	806.04
844.93	818.63
845.11	781.24
845.29	761.28
845.47	830.06
845.649	785.89
845.829	804.1
846.009	746.36
846.188	790.15
846.368	789.18
846.547	776.39
846.727	835.1
846.907	749.66
847.086	771.16
847.266	840.52
847.445	770.58
847.625	750.43
847.804	760.89
847.984	783.95
848.163	772.91
848.343	742.1
848.522	775.42
848.701	801.58
848.881	736.68
849.06	772.13
849.239	793.06
849.419	789.96
849.598	728.15
849.777	738.42
849.957	758.38
850.136	677.39
850.315	695.41
850.494	680.29
850.674	683.59
850.853	778.91
851.032	745.39
851.211	804.49
851.39	706.84
851.569	678.36
851.748	702.38
851.927	697.73
852.107	725.83
852.286	679.13
852.465	675.45
852.644	738.61
852.823	726.21
853.002	718.66
853.181	692.5
853.359	709.74
853.538	645.03
853.717	740.16
853.896	669.45
854.075	631.66
854.254	649.88
854.433	586.52
854.611	689.79
854.79	596.21
854.969	658.4
855.148	644.06
855.327	622.75
855.505	649.49
855.684	613.26
855.863	635.35
856.041	593.5
856.22	628.95
856.399	609.38
856.577	699.09
856.756	662.47
856.934	776.01
857.113	770.39
857.291	691.14
857.47	681.26
857.648	671.96
857.827	678.94
858.005	712.84
858.184	656.08
858.362	725.44
858.541	718.08
858.719	717.49
858.898	658.21
859.076	685.14
859.254	741.91
859.433	671.19
859.611	647.75
859.789	631.47
859.967	713.62
860.146	734.93
860.324	670.41
860.502	660.53
860.68	631.08
860.859	639.41
861.037	655.69
861.215	687.85
861.393	648.91
861.571	670.03
861.749	622.95
861.927	674.87
862.105	651.43
862.283	626.24
862.461	625.66
862.639	589.23
862.817	626.05
862.995	640.96
863.173	633.99
863.351	596.21
863.529	664.8
863.707	702.58
863.885	665.57
864.063	563.85
864.241	614.42
864.418	657.24
864.596	610.35
864.774	589.43
864.952	632.25
865.129	649.3
865.307	598.92
865.485	564.63
865.663	674.1
865.84	582.07
866.018	596.4
866.196	524.13
866.373	568.89
866.551	569.86
866.728	493.52
866.906	542.35
867.084	526.85
867.261	589.04
867.439	573.73
867.616	616.55
867.794	583.62
867.971	578.77
868.149	593.88
868.326	639.61
868.503	635.93
868.681	599.7
868.858	550.1
869.035	551.65
869.213	598.92
869.39	546.22
869.567	633.99
869.745	560.17
869.922	580.9
870.099	615.78
870.276	614.61
870.454	599.31
870.631	623.91
870.808	565.98
870.985	598.73
871.162	657.82
871.339	623.14
871.517	571.8
871.694	559.2
871.871	554.17
872.048	584.97
872.225	537.31
872.402	556.3
872.579	532.85
872.756	571.99
872.933	531.5
873.11	556.88
873.287	601.44
873.463	547
873.64	538.67
873.817	593.11
873.994	556.88
874.171	526.85
874.348	579.55
874.524	483.64
874.701	545.45
874.878	495.07
875.055	554.36
875.231	552.03
875.408	563.27
875.585	486.94
875.762	549.9
875.938	567.34
876.115	533.82
876.291	510.96
876.468	527.23
876.645	522.58
876.821	530.53
876.998	522.78
877.174	542.15
877.351	532.08
877.527	506.5
877.704	539.63
877.88	517.55
878.057	506.31
878.233	551.45
878.409	517.74
878.586	541.38
878.762	508.83
878.938	514.06
879.115	448.38
879.291	491.39
879.467	485.58
879.644	497.01
879.82	519.48
879.996	488.29
880.172	447.02
880.349	485
880.525	497.2
880.701	477.64
880.877	455.55
881.053	506.7
881.229	496.82
881.405	515.8
881.581	460.59
881.757	486.55
881.933	466.4
882.109	522.58
882.285	484.22
882.461	463.3
882.637	512.7
882.813	474.92
882.989	484.8
883.165	502.63
883.341	477.25
883.517	519.48
883.693	498.95
883.869	520.84
884.044	441.02
884.22	486.74
884.396	537.89
884.572	499.53
884.747	527.82
884.923	534.98
885.099	478.41
885.275	531.11
885.45	476.28
885.626	500.5
885.801	445.86
885.977	469.69
886.153	430.55
886.328	474.73
886.504	460.59
886.679	498.75
886.855	464.85
887.03	507.28
887.206	532.08
887.381	496.24
887.557	514.45
887.732	514.06
887.908	507.86
888.083	503.98
888.258	483.25
888.434	479.77
888.609	498.75
888.784	532.66
888.96	443.92
889.135	454.39
889.31	462.14
889.485	482.48
889.661	454.58
889.836	518.13
890.011	508.25
890.186	499.72
890.361	442.37
890.537	476.28
890.712	486.55
890.887	479.96
891.062	479.38
891.237	525.49
891.412	415.64
891.587	467.56
891.762	504.18
891.937	521.23
892.112	437.72
892.287	473.37
892.462	423.77
892.637	449.35
892.812	417.96
892.987	443.15
893.161	446.44
893.336	454.77
893.511	459.42
893.686	440.44
893.861	432.69
894.035	444.31
894.21	450.9
894.385	386.19
894.56	444.5
894.734	378.24
894.909	427.45
895.084	402.46
895.258	381.73
895.433	412.15
895.608	398.01
895.782	360.61
895.957	425.13
896.131	385.8
896.306	336.97
896.48	338.72
896.655	357.71
896.829	315.86
897.004	326.9
897.178	339.49
897.353	295.71
897.527	347.05
897.701	357.71
897.876	282.92
898.05	363.52
898.224	346.86
898.399	352.09
898.573	330
898.747	258.7
898.921	326.9
899.096	239.13
899.27	262.19
899.444	268.78
899.618	268.78
899.792	280.79
899.967	255.6
900.141	313.14
900.315	263.93
900.489	283.89
900.663	311.79
900.837	304.81
901.011	251.14
901.185	363.13
901.359	302.68
901.533	276.33
901.707	292.22
901.881	300.16
902.055	251.92
902.229	285.05
902.403	333.87
902.576	295.51
902.75	291.06
902.924	372.24
903.098	316.63
903.272	330.19
903.446	382.7
903.619	356.93
903.793	344.14
903.967	299.39
904.14	374.56
904.314	343.76
904.488	343.95
904.661	392.77
904.835	366.04
905.009	395.1
905.182	426.1
905.356	375.14
905.529	372.43
905.703	339.69
905.876	367.78
906.05	316.83
906.223	320.89
906.397	255.21
906.57	274.2
906.744	234.1
906.917	276.53
907.09	283.69
907.264	292.99
907.437	260.44
907.61	229.06
907.784	248.43
907.957	285.05
908.13	243.78
908.304	297.26
908.477	258.12
908.65	262.96
908.823	225.96
908.996	313.92
909.17	271.1
909.343	255.6
909.516	262.38
909.689	262.77
909.862	255.6
910.035	256.76
910.208	219.95
910.381	238.75
910.554	339.11
910.727	252.31
910.9	245.14
911.073	221.31
911.246	299
911.419	294.93
911.592	257.73
911.765	249.4
911.938	232.93
912.11	237.2
912.283	265.29
912.456	275.36
912.629	287.57
912.802	247.27
912.974	248.43
913.147	238.55
913.32	192.63
913.493	225.38
913.665	231
913.838	233.51
914.01	209.88
914.183	218.4
914.356	201.74
914.528	241.65
914.701	288.54
914.873	264.71
915.046	216.85
915.218	225.76
915.391	133.73
915.563	178.68
915.736	246.49
915.908	270.91
916.081	204.65
916.253	178.49
916.425	238.36
916.598	219.95
916.77	225.76
916.942	177.33
917.115	138.38
917.287	226.93
917.459	221.5
917.632	189.34
917.804	135.67
917.976	204.84
918.148	218.21
918.32	200
918.493	202.71
918.665	262.58
918.837	227.12
919.009	255.79
919.181	248.43
919.353	214.53
919.525	211.81
919.697	202.71
919.869	212.78
920.041	252.5
920.213	338.33
920.385	235.45
920.557	219.76
920.729	238.55
920.901	237.39
921.073	234.48
921.244	206.97
921.416	274.59
921.588	235.84
921.76	213.56
921.932	308.69
922.103	212.01
922.275	210.65
922.447	206.78
922.619	158.15
922.79	220.53
922.962	189.34
923.134	238.94
923.305	192.05
923.477	164.35
923.648	165.7
923.82	208.52
923.991	160.08
924.163	158.34
924.335	212.59
924.506	171.51
924.677	237.2
924.849	160.08
925.02	191.66
925.192	225.57
925.363	176.94
925.535	212.01
925.706	148.07
925.877	235.06
926.049	154.08
926.22	199.61
926.391	197.67
926.562	193.6
926.734	153.11
926.905	227.31
927.076	137.8
927.247	190.5
927.419	152.33
927.59	154.85
927.761	180.62
927.932	155.43
928.103	197.09
928.274	165.7
928.445	115.72
928.616	156.4
928.787	162.02
928.958	183.72
929.129	181.59
929.3	143.62
929.471	135.67
929.642	92.66
929.813	84.33
929.984	160.86
930.155	91.3
930.326	159.31
930.496	108.16
930.667	42.09
930.838	90.72
931.009	86.65
931.18	90.53
931.35	65.53
931.521	115.72
931.692	60.11
931.863	24.46
932.033	73.48
932.204	47.52
932.374	93.05
932.545	68.05
932.716	102.15
932.886	86.46
933.057	19.23
933.227	7.8
933.398	107.58
933.568	49.26
933.739	-7.31
933.909	4.12
934.08	85.49
934.25	-8.86
934.421	-5.38
934.591	82.2
934.761	10.32
934.932	-10.8
935.102	48.87
935.272	27.17
935.443	8.77
935.613	8.96
935.783	30.27
935.953	-5.96
936.123	180.23
936.294	2.37
936.464	18.26
936.634	32.99
936.804	-11.96
936.974	-8.67
937.144	46.74
937.314	29.3
937.484	23.69
937.655	-8.48
937.825	59.14
937.995	10.9
938.165	69.6
938.334	8.38
938.504	21.94
938.674	0.82
938.844	9.35
939.014	46.74
939.184	44.03
939.354	67.86
939.524	90.33
939.694	57.79
939.863	11.67
940.033	75.22
940.203	75.03
940.373	74.83
940.542	79.87
940.712	52.55
940.882	64.57
941.051	86.65
941.221	70.77
941.391	86.65
941.56	26.79
941.73	12.84
941.899	148.65
942.069	34.92
942.238	83.55
942.408	47.9
942.577	75.03
942.747	34.92
942.916	20.39
943.086	19.04
943.255	123.47
943.425	59.92
943.594	26.4
943.763	-12.35
943.933	26.98
944.102	-19.71
944.271	60.89
944.441	65.92
944.61	8.38
944.779	11.09
944.948	126.37
945.117	-14.29
945.287	11.09
945.456	-19.13
945.625	9.35
945.794	36.86
945.963	35.5
946.132	39.96
946.301	24.65
946.47	72.7
946.639	-18.16
946.808	3.73
946.977	44.8
947.146	90.33
947.315	19.42
947.484	37.44
947.653	38.41
947.822	17.1
947.991	-1.89
948.16	112.23
948.329	54.1
948.498	31.63
948.666	56.62
948.835	76.58
949.004	-20.88
949.173	11.48
949.341	43.06
949.51	65.34
949.679	84.52
949.847	62.44
950.016	110.29
950.185	82.2
950.353	21.36
950.522	31.05
950.69	91.11
950.859	34.15
951.028	78.9
951.196	51.2
951.365	6.64
951.533	32.21
951.701	90.14
951.87	64.95
952.038	35.12
952.207	34.34
952.375	119.2
952.543	27.56
952.712	60.69
952.88	18.07
953.048	71.93
953.217	56.82
953.385	23.49
953.553	83.36
953.721	24.07
953.89	34.54
954.058	-11.19
954.226	12.25
954.394	56.24
954.562	-18.55
954.73	30.47
954.898	24.85
955.067	86.46
955.235	5.67
955.403	63.02
955.571	99.44
955.739	96.73
955.907	-5.38
956.075	7.02
956.243	2.57
956.41	69.8
956.578	-1.11
956.746	-29.59
956.914	53.14
957.082	60.5
957.25	62.24
957.418	-12.16
957.585	21.55
957.753	96.53
957.921	-10.22
958.089	31.82
958.256	48.87
958.424	35.7
958.592	60.11
958.759	-11.58
958.927	69.41
959.095	13.8
959.262	33.95
959.43	48.87
959.597	8.77
959.765	37.44
959.932	-14.29
960.1	66.7
960.267	36.09
960.435	39.57
960.602	75.22
960.77	-3.44
960.937	-3.44
961.104	44.8
961.272	-20.3
961.439	9.15
961.606	57.01
961.774	83.94
961.941	7.41
962.108	67.67
962.275	48.49
962.443	57.79
962.61	59.72
962.777	114.94
962.944	61.08
963.111	20.2
963.278	68.25
963.446	53.52
963.613	49.26
963.78	51.39
963.947	29.3
964.114	31.44
964.281	118.23
964.448	96.92
964.615	39.57
964.782	61.85
964.949	63.4
965.116	59.92
965.282	113
965.449	35.31
965.616	11.09
965.783	73.48
965.95	69.99
966.117	13.61
966.283	8.38
966.45	59.92
966.617	25.04
966.784	102.35
966.95	68.83
967.117	61.85
967.284	-0.73
967.45	13.8
967.617	104.87
967.784	71.73
967.95	87.43
968.117	42.09
968.283	110.87
968.45	116.49
968.616	52.55
968.783	77.74
968.949	41.51
969.116	82
969.282	48.1
969.449	55.07
969.615	45.58
969.781	13.8
969.948	27.17
970.114	5.47
970.28	106.42
970.447	47.13
970.613	100.41
970.779	30.66
970.945	65.53
971.112	57.01
971.278	23.3
971.444	36.86
971.61	61.66
971.776	17.87
971.942	74.45
972.108	57.79
972.275	29.5
972.441	79.68
972.607	128.89
972.773	42.29
972.939	78.52
973.105	37.25
973.271	20.97
973.437	61.85
973.602	26.01
973.768	80.84
973.934	50.81
974.1	61.47
974.266	-25.53
974.432	72.7
974.598	29.3
974.763	54.69
974.929	42.67
975.095	130.63
975.261	46.94
975.426	21.75
975.592	38.8
975.758	115.13
975.923	0.82
976.089	34.73
976.255	74.64
976.42	76.38
976.586	69.02
976.751	70.38
976.917	123.27
977.082	63.6
977.248	5.09
977.413	-22.62
977.579	18.45
977.744	45.97
977.91	-0.92
978.075	22.33
978.24	80.65
978.406	48.1
978.571	34.73
978.736	38.22
978.902	93.82
979.067	-2.28
979.232	-13.9
979.397	53.91
979.563	98.47
979.728	-5.57
979.893	75.8
980.058	32.99
980.223	65.34
980.388	62.05
980.554	47.71
980.719	15.16
980.884	39.77
981.049	66.5
981.214	45.97
981.379	74.64
981.544	43.06
981.709	37.25
981.874	34.34
982.039	36.28
982.204	66.31
982.368	58.75
982.533	21.36
982.698	71.54
982.863	62.63
983.028	7.8
983.193	73.67
983.357	34.73
983.522	61.85
983.687	43.45
983.852	40.35
984.016	30.47
984.181	35.31
984.346	51.78
984.51	73.48
984.675	35.89
984.839	62.63
985.004	62.05
985.168	86.65
985.333	51.39
985.498	48.49
985.662	44.42
985.827	77.93
985.991	66.31
986.155	32.4
986.32	75.03
986.484	125.21
986.649	71.35
986.813	3.73
986.977	64.37
987.142	47.13
987.306	22.52
987.47	13.8
987.634	20.59
987.799	36.47
987.963	65.34
988.127	71.73
988.291	115.72
988.455	62.44
988.62	49.07
988.784	69.8
988.948	74.45
989.112	37.25
989.276	58.95
989.44	29.69
989.604	35.31
989.768	26.01
989.932	114.94
990.096	10.12
990.26	-4.8
990.424	28.34
990.588	26.79
990.752	105.64
990.915	85.1
991.079	44.42
991.243	24.65
991.407	63.99
991.571	21.75
991.734	62.44
991.898	71.54
992.062	127.34
992.226	35.5
992.389	20
992.553	2.76
992.717	6.44
992.88	23.69
993.044	47.9
993.207	25.62
993.371	71.35
993.535	77.55
993.698	37.64
993.862	66.12
994.025	73.09
994.189	63.6
994.352	45.39
994.515	42.09
994.679	88.2
994.842	42.29
995.006	82
995.169	26.98
995.332	22.33
995.496	62.63
995.659	-0.15
995.822	50.62
995.985	29.5
996.149	64.95
996.312	30.27
996.475	116.49
996.638	26.98
996.801	78.9
996.964	88.4
997.128	41.7
997.291	45.39
997.454	63.02
997.617	16.52
997.78	74.83
997.943	3.34
998.106	86.46
998.269	-12.55
998.432	40.35
998.595	46.94
998.758	26.01
998.92	-10.61
999.083	-8.86
999.246	27.95
999.409	-7.7
999.572	-29.59
999.735	8.19
999.897	49.07
1000.06	29.3
1000.223	20.2
1000.386	54.88
1000.548	56.82
1000.711	43.06
1000.874	58.75
1001.036	3.73
1001.199	48.49
1001.361	27.95
1001.524	36.47
1001.687	55.27
1001.849	28.53
1002.012	37.83
1002.174	30.66
1002.337	56.43
1002.499	26.2
1002.661	73.28
1002.824	0.82
1002.986	21.17
1003.149	48.29
1003.311	2.76
1003.473	85.1
1003.636	34.15
1003.798	82.97
1003.96	20.59
1004.123	64.37
1004.285	20.59
1004.447	25.62
1004.609	37.25
1004.771	112.42
1004.933	-24.56
1005.096	7.22
1005.258	-5.96
1005.42	9.54
1005.582	68.05
1005.744	51.39
1005.906	9.74
1006.068	27.17
1006.23	-1.89
1006.392	0.24
1006.554	13.61
1006.716	54.1
1006.878	68.25
1007.04	-13.13
1007.202	31.24
1007.363	62.44
1007.525	40.54
1007.687	32.6
1007.849	75.61
1008.011	0.82
1008.172	-6.93
1008.334	12.06
1008.496	54.88
1008.658	-28.43
1008.819	-3.25
1008.981	-5.76
1009.143	-1.11
1009.304	17.49
1009.466	39.77
1009.627	73.48
1009.789	102.15
1009.95	73.87
1010.112	24.07
1010.273	44.03
1010.435	29.3
1010.596	10.12
1010.758	24.85
1010.919	24.46
1011.081	-7.12
1011.242	24.27
1011.403	35.31
1011.565	-0.15
1011.726	78.71
1011.887	-4.21
1012.049	14.97
1012.21	65.73
1012.371	83.94
1012.532	-30.76
1012.693	17.68
1012.855	20.39
1013.016	7.22
1013.177	84.33
1013.338	39.77
1013.499	80.65
1013.66	43.25
1013.821	72.12
1013.982	36.09
1014.143	29.11
1014.304	21.94
1014.465	31.24
1014.626	56.43
1014.787	1.4
1014.948	98.86
1015.109	-53.04
1015.27	75.8
1015.431	19.04
1015.592	10.51
1015.752	75.42
1015.913	6.05
1016.074	33.76
1016.235	30.66
1016.395	30.66
1016.556	36.47
1016.717	46.16
1016.877	70.18
1017.038	-9.83
1017.199	51.97
1017.359	11.09
1017.52	53.14
1017.681	2.95
1017.841	2.18
1018.002	18.84
1018.162	-3.25
1018.323	98.47
1018.483	20.39
1018.644	25.04
1018.804	-29.01
1018.964	10.51
1019.125	2.37
1019.285	22.91
1019.446	2.18
1019.606	-6.93
1019.766	-24.56
1019.926	40.15
1020.087	12.45
1020.247	-22.04
1020.407	46.55
1020.567	43.25
1020.728	9.74
1020.888	-2.08
1021.048	-8.67
1021.208	23.88
1021.368	-20.88
1021.528	60.69
1021.688	73.67
1021.848	49.07
1022.008	5.86
1022.168	27.56
1022.328	5.09
1022.488	53.72
1022.648	-23.01
1022.808	17.1
1022.968	61.85
1023.128	-15.45
1023.288	18.45
1023.448	17.1
1023.608	55.85
1023.767	40.15
1023.927	-4.41
1024.087	-19.52
1024.247	-22.81
1024.406	-7.51
1024.566	-17.78
1024.726	-15.65
1024.885	-2.08
1025.045	46.16
1025.205	-7.9
1025.364	-4.02
1025.524	8.38
1025.683	10.12
1025.843	31.63
1026.003	26.98
1026.162	57.59
1026.321	45.39
1026.481	35.7
1026.64	7.6
1026.8	18.07
1026.959	8.77
1027.119	33.76
1027.278	-8.48
1027.437	0.63
1027.597	27.37
1027.756	46.74
1027.915	35.7
1028.074	30.47
1028.234	-17.58
1028.393	3.92
1028.552	-2.66
1028.711	-50.33
1028.87	42.29
1029.03	-17.2
1029.189	13.8
1029.348	-37.15
1029.507	14.39
1029.666	20.39
1029.825	-19.52
1029.984	6.83
1030.143	13.22
1030.302	1.79
1030.461	-38.12
1030.62	25.82
1030.779	37.05
1030.938	-23.98
1031.097	-20.68
1031.255	32.4
1031.414	71.15
1031.573	51.59
1031.732	-32.11
1031.891	-4.21
1032.049	33.18
1032.208	67.67
1032.367	-10.41
1032.525	16.13
1032.684	12.64
1032.843	20.97
1033.001	-35.02
1033.16	140.32
1033.319	66.89
1033.477	58.75
1033.636	19.62
1033.794	-13.51
1033.953	17.1
1034.111	46.35
1034.27	-7.31
1034.428	33.18
1034.587	-0.73
1034.745	7.41
1034.903	36.28
1035.062	61.47
1035.22	-24.17
1035.378	33.57
1035.537	-3.63
1035.695	57.98
1035.853	-6.54
1036.011	27.95
1036.17	22.91
1036.328	-57.3
1036.486	21.36
1036.644	21.55
1036.802	-78.42
1036.96	-18.16
1037.119	8.38
1037.277	9.93
1037.435	-21.46
1037.593	-1.11
1037.751	-5.76
1037.909	46.35
1038.067	46.35
