Data from pine_FLMT105791__110__17-22-09-076.txt Node

Date: Mon Mar 20 17:22:09 GMT 2023
User: antho
Spectrometer: FLMT10579
Trigger mode: 0
Integration Time (sec): 1.000000E-1
Scans to average: 10
Electric dark correction enabled: true
Nonlinearity correction enabled: false
Boxcar width: 0
XAxis mode: Wavelengths
Number of Pixels in Spectrum: 3648
>>>>>Begin Spectral Data<<<<<
345.248	-145.2
345.464	-145.2
345.681	-145.2
345.898	-165.54
346.114	-169.61
346.331	-39.22
346.548	24.33
346.764	-0.66
346.981	-11.71
347.197	-24.3
347.414	25.49
347.631	-28.76
347.847	74.51
348.064	-0.66
348.28	31.11
348.497	-45.22
348.713	-4.92
348.93	9.41
349.146	8.83
349.363	-6.09
349.579	21.43
349.796	-10.54
350.012	-8.61
350.229	19.1
350.445	-44.64
350.661	-27.01
350.878	-6.47
351.094	28.79
351.311	12.71
351.527	20.07
351.743	-10.93
351.96	16.78
352.176	37.31
352.392	25.11
352.609	34.02
352.825	-16.94
353.041	7.48
353.257	8.06
353.474	9.22
353.69	3.41
353.906	-16.16
354.122	-17.52
354.339	38.67
354.555	16.97
354.771	-23.14
354.987	70.83
355.203	34.41
355.42	-11.12
355.636	-4.73
355.852	-16.55
356.068	0.89
356.284	-33.99
356.5	48.94
356.716	17.55
356.932	-2.99
357.148	29.76
357.364	18.33
357.58	32.47
357.796	21.04
358.012	39.06
358.228	19.49
358.444	-14.22
358.66	70.64
358.876	26.27
359.092	-37.28
359.308	7.48
359.524	22.59
359.74	13.09
359.956	-3.57
360.172	-2.02
360.388	52.62
360.604	-11.9
360.819	67.73
361.035	19.1
361.251	15.42
361.467	-29.14
361.683	42.16
361.898	45.06
362.114	23.17
362.33	45.84
362.546	50.87
362.762	-3.76
362.977	14.84
363.193	-43.48
363.409	47
363.624	-36.7
363.84	-28.17
364.056	-1.24
364.271	6.7
364.487	22.78
364.703	-5.7
364.918	-32.82
365.134	-14.81
365.35	2.05
365.565	73.93
365.781	23.36
365.996	40.8
366.212	63.08
366.427	48.94
366.643	-4.92
366.858	-7.44
367.074	-26.24
367.289	52.62
367.505	106.29
367.72	-49.68
367.936	-4.54
368.151	59.59
368.367	18.91
368.582	11.35
368.798	0.5
369.013	35.18
369.228	12.51
369.444	-12.67
369.659	63.08
369.874	32.08
370.09	56.88
370.305	-45.61
370.52	-13.06
370.736	35.18
370.951	27.04
371.166	44.87
371.381	80.52
371.597	54.94
371.812	-19.46
372.027	-10.74
372.242	-2.99
372.458	98.15
372.673	-1.82
372.888	-8.02
373.103	15.03
373.318	99.12
373.533	18.33
373.749	35.57
373.964	-54.33
374.179	42.54
374.394	-1.24
374.609	57.46
374.824	-9.57
375.039	55.52
375.254	1.66
375.469	69.28
375.684	30.73
375.899	58.62
376.114	15.81
376.329	51.84
376.544	34.02
376.759	72.57
376.974	-18.87
377.189	2.83
377.404	22.39
377.619	26.27
377.834	-24.69
378.049	-42.12
378.264	-29.53
378.478	29.37
378.693	-3.18
378.908	53.2
379.123	3.02
379.338	49.32
379.553	34.21
379.767	18.33
379.982	27.43
380.197	51.65
380.412	4.18
380.626	37.89
380.841	84.01
381.056	34.6
381.271	63.27
381.485	-23.52
381.7	-15.39
381.915	33.05
382.129	-11.9
382.344	18.33
382.559	24.72
382.773	34.21
382.988	-14.81
383.202	19.88
383.417	-22.75
383.632	87.3
383.846	13.48
384.061	10.96
384.275	1.86
384.49	38.09
384.704	59.79
384.919	24.72
385.133	22.98
385.348	28.59
385.562	-18.87
385.777	38.47
385.991	8.64
386.206	-23.91
386.42	-16.74
386.634	38.28
386.849	22.01
387.063	22.39
387.277	-25.85
387.492	-5.12
387.706	-14.22
387.92	5.93
388.135	78.19
388.349	28.79
388.563	27.24
388.778	29.76
388.992	33.83
389.206	42.35
389.42	90.21
389.635	28.59
389.849	65.41
390.063	64.44
390.277	36.92
390.491	63.47
390.706	31.89
390.92	59.21
391.134	8.25
391.348	51.26
391.562	-54.52
391.776	29.76
391.99	-23.52
392.205	37.89
392.419	-3.37
392.633	27.04
392.847	83.23
393.061	3.02
393.275	79.74
393.489	1.86
393.703	28.98
393.917	69.67
394.131	28.98
394.345	48.16
394.559	66.37
394.773	17.94
394.986	33.44
395.2	30.92
395.414	47.58
395.628	9.03
395.842	28.4
396.056	-1.24
396.27	-16.55
396.484	44.29
396.697	24.33
396.911	78.77
397.125	56.69
397.339	72.57
397.553	40.22
397.766	71.8
397.98	85.56
398.194	78.97
398.408	-4.34
398.621	60.37
398.835	67.34
399.049	48.16
399.262	84.2
399.476	37.7
399.69	61.14
399.903	118.3
400.117	30.73
400.331	62.69
400.544	32.28
400.758	121.21
400.971	51.07
401.185	62.69
401.398	34.41
401.612	93.31
401.826	65.79
402.039	78.77
402.253	33.05
402.466	66.18
402.68	27.24
402.893	89.04
403.106	39.64
403.32	43.32
403.533	63.86
403.747	39.25
403.96	40.41
404.174	71.02
404.387	11.35
404.6	37.89
404.814	75.09
405.027	27.82
405.24	66.57
405.454	51.26
405.667	59.21
405.88	-5.7
406.094	72.77
406.307	75.48
406.52	50.68
406.733	12.9
406.947	-39.8
407.16	78.97
407.373	94.86
407.586	26.85
407.799	42.35
408.012	74.12
408.226	67.73
408.439	103.77
408.652	-2.21
408.865	86.14
409.078	78.97
409.291	67.92
409.504	35.76
409.717	63.27
409.93	86.33
410.143	63.27
410.357	-9.38
410.57	8.25
410.783	42.35
410.996	53.78
411.209	48.94
411.421	86.14
411.634	62.11
411.847	20.46
412.06	44.29
412.273	49.13
412.486	64.05
412.699	141.94
412.912	57.07
413.125	98.54
413.338	64.63
413.55	83.81
413.763	44.87
413.976	88.27
414.189	65.79
414.402	77.22
414.615	99.7
414.827	47.19
415.04	131.47
415.253	81.49
415.466	82.84
415.678	149.1
415.891	74.32
416.104	64.63
416.316	67.15
416.529	49.32
416.742	91.76
416.954	105.9
417.167	88.46
417.38	51.46
417.592	119.46
417.805	36.34
418.017	19.49
418.23	90.59
418.442	73.74
418.655	61.53
418.868	81.49
419.08	115.97
419.293	112.49
419.505	111.91
419.718	111.13
419.93	137.48
420.142	73.93
420.355	122.17
420.567	133.8
420.78	111.13
420.992	93.89
421.205	152.79
421.417	38.67
421.629	50.68
421.842	49.13
422.054	66.18
422.266	98.34
422.479	125.66
422.691	55.91
422.903	111.71
423.115	76.06
423.328	86.14
423.54	100.86
423.752	100.67
423.964	85.75
424.177	113.26
424.389	98.92
424.601	199.67
424.813	115.01
425.025	131.09
425.238	148.14
425.45	107.26
425.662	86.72
425.874	395.94
426.086	109.97
426.298	134.19
426.51	122.17
426.722	113.07
426.934	87.49
427.146	142.32
427.358	28.79
427.57	124.5
427.782	114.23
427.994	90.98
428.206	86.72
428.418	76.06
428.63	113.07
428.842	133.6
429.054	120.24
429.266	135.15
429.478	89.24
429.69	114.62
429.902	28.98
430.114	135.54
430.325	106.67
430.537	88.46
430.749	90.21
430.961	68.7
431.173	105.9
431.384	113.46
431.596	37.31
431.808	97.96
432.02	132.25
432.231	156.27
432.443	157.82
432.655	121.01
432.867	100.86
433.078	146.97
433.29	177.39
433.502	149.49
433.713	180.88
433.925	152.59
434.136	165.57
434.348	103.19
434.56	85.17
434.771	233.77
434.983	81.1
435.194	102.41
435.406	112.68
435.617	187.08
435.829	224.28
436.04	201.03
436.252	178.94
436.463	217.11
436.675	172.16
436.886	150.27
437.098	177.97
437.309	208.39
437.521	191.34
437.732	195.22
437.943	189.6
438.155	170.22
438.366	123.72
438.578	212.65
438.789	178.36
439	195.41
439.211	159.18
439.423	147.17
439.634	209.55
439.845	213.62
440.057	196.57
440.268	211.68
440.479	164.8
440.69	171.97
440.902	180.49
441.113	178.36
441.324	163.64
441.535	214.98
441.746	252.95
441.957	174.49
442.168	164.22
442.38	221.37
442.591	228.73
442.802	179.52
443.013	199.29
443.224	219.43
443.435	182.82
443.646	202.97
443.857	205.68
444.068	166.35
444.279	191.54
444.49	276.01
444.701	225.63
444.912	305.85
445.123	245.98
445.334	230.67
445.545	236.1
445.756	229.7
445.967	201.22
446.178	226.99
446.388	250.05
446.599	233.19
446.81	237.84
447.021	204.32
447.232	283.18
447.443	294.61
447.653	201.8
447.864	309.14
448.075	228.73
448.286	274.85
448.496	232.22
448.707	282.21
448.918	262.83
449.129	342.27
449.339	230.87
449.55	264.19
449.761	244.62
449.971	285.12
450.182	254.12
450.393	257.99
450.603	233.97
450.814	301.58
451.024	284.92
451.235	291.51
451.446	307.59
451.656	309.14
451.867	247.14
452.077	274.46
452.288	354.28
452.498	304.88
452.709	288.99
452.919	281.82
453.13	251.21
453.34	297.9
453.55	215.75
453.761	288.99
453.971	291.12
454.182	307.4
454.392	289.77
454.602	356.41
454.813	267.68
455.023	300.42
455.233	254.12
455.444	285.7
455.654	205.49
455.864	306.62
456.075	278.72
456.285	249.27
456.495	272.91
456.705	301.2
456.916	358.93
457.126	345.56
457.336	312.05
457.546	245.2
457.756	305.85
457.967	326.96
458.177	276.4
458.387	298.1
458.597	253.53
458.807	277.95
459.017	309.91
459.227	290.73
459.437	309.72
459.647	324.45
459.857	318.05
460.068	273.3
460.278	335.1
460.488	337.62
460.698	379.28
460.908	306.81
461.117	273.1
461.327	288.99
461.537	338.2
461.747	342.27
461.957	306.04
462.167	407.37
462.377	362.03
462.587	334.91
462.797	370.17
463.007	353.7
463.216	358.93
463.426	366.88
463.636	401.56
463.846	274.65
464.056	321.93
464.265	357
464.475	303.91
464.685	342.85
464.895	348.86
465.104	298.1
465.314	350.8
465.524	315.73
465.733	300.03
465.943	406.4
466.153	412.6
466.362	351.57
466.572	346.34
466.782	332.97
466.991	343.24
467.201	426.74
467.41	308.75
467.62	367.85
467.829	336.26
468.039	386.44
468.249	362.81
468.458	359.32
468.668	388.96
468.877	373.08
469.086	421.71
469.296	388.96
469.505	345.56
469.715	419.96
469.924	389.16
470.134	426.36
470.343	420.35
470.552	371.72
470.762	388.19
470.971	368.04
471.18	387.8
471.39	370.17
471.599	383.73
471.808	426.74
472.018	395.74
472.227	410.86
472.436	417.06
472.645	417.44
472.855	389.74
473.064	466.66
473.273	427.91
473.482	402.72
473.691	467.63
473.901	429.26
474.11	421.9
474.319	524.01
474.528	438.76
474.737	476.73
474.946	425
475.155	433.91
475.364	465.88
475.573	459.1
475.783	474.02
475.992	473.63
476.201	510.83
476.41	448.06
476.619	439.34
476.828	484.29
477.037	423.84
477.245	452.13
477.454	491.46
477.663	457.94
477.872	466.46
478.081	524.01
478.29	448.44
478.499	557.72
478.708	511.99
478.917	559.27
479.125	520.91
479.334	517.42
479.543	482.16
479.752	481.38
479.961	482.74
480.169	544.74
480.378	496.11
480.587	628.82
480.796	572.05
481.004	548.22
481.213	545.71
481.422	555.01
481.63	537.57
481.839	577.67
482.048	645.68
482.256	549.39
482.465	576.12
482.674	599.37
482.882	579.8
483.091	635.6
483.299	592.01
483.508	602.09
483.716	582.71
483.925	610.61
484.134	563.34
484.342	561.01
484.551	606.15
484.759	608.48
484.967	642.39
485.176	623.4
485.384	621.27
485.593	652.65
485.801	622.82
486.01	593.56
486.218	576.32
486.426	497.27
486.635	549
486.843	536.02
487.051	581.16
487.26	514.32
487.468	594.14
487.676	630.57
487.885	575.74
488.093	623.2
488.301	617.39
488.509	632.7
488.717	642.77
488.926	635.41
489.134	623.59
489.342	643.74
489.55	601.7
489.758	632.5
489.967	631.54
490.175	735.96
490.383	644.9
490.591	726.67
490.799	613.32
491.007	736.55
491.215	685.01
491.423	680.36
491.631	660.4
491.839	698.38
492.047	704.77
492.255	630.95
492.463	617
492.671	676.1
492.879	702.83
493.087	688.11
493.295	708.45
493.503	724.34
493.711	728.99
493.919	756.11
494.127	775.3
494.334	717.95
494.542	702.25
494.75	720.08
494.958	752.43
495.166	804.16
495.374	729.77
495.581	721.63
495.789	751.85
495.997	795.45
496.205	718.14
496.412	753.79
496.62	745.85
496.828	779.17
497.035	763.67
497.243	787.31
497.451	746.43
497.658	773.94
497.866	785.95
498.074	832.06
498.281	751.46
498.489	814.82
498.696	776.65
498.904	758.83
499.112	747.01
499.319	859.58
499.527	767.93
499.734	862.48
499.942	738.1
500.149	762.31
500.357	794.28
500.564	752.24
500.771	774.91
500.979	735.77
501.186	767.55
501.394	784.4
501.601	756.5
501.808	808.62
502.016	775.49
502.223	787.11
502.43	775.88
502.638	748.95
502.845	770.26
503.052	858.8
503.26	792.35
503.467	868.68
503.674	792.35
503.881	812.88
504.089	875.85
504.296	834.19
504.503	773.55
504.71	798.74
504.917	770.26
505.125	819.28
505.332	840.98
505.539	808.23
505.746	914.21
505.953	868.88
506.16	873.91
506.367	912.08
506.574	935.72
506.781	935.72
506.988	843.69
507.195	877.01
507.402	861.9
507.609	912.86
507.816	877.59
508.023	848.53
508.23	847.95
508.437	819.86
508.644	882.83
508.851	926.42
509.058	927.77
509.265	916.34
509.472	914.02
509.679	1005.85
509.885	922.16
510.092	904.33
510.299	928.36
510.506	905.49
510.713	914.21
510.92	923.51
511.126	943.66
511.333	987.45
511.54	963.81
511.746	982.41
511.953	980.09
512.16	1035.11
512.367	966.91
512.573	966.14
512.78	968.07
512.987	944.63
513.193	999.46
513.4	942.5
513.606	974.66
513.813	986.29
514.02	963.62
514.226	1052.16
514.433	1031.04
514.639	975.24
514.846	993.84
515.052	957.03
515.259	975.44
515.465	1003.72
515.672	1001.01
515.878	1082.97
516.085	1010.5
516.291	1029.49
516.497	999.27
516.704	992.68
516.91	960.13
517.117	924.48
517.323	890.38
517.529	954.12
517.736	898.52
517.942	967.88
518.148	947.15
518.354	996.56
518.561	979.7
518.767	1014.77
518.973	1022.71
519.179	1031.04
519.386	994.04
519.592	1007.02
519.798	997.14
520.004	1108.35
520.21	1063.4
520.417	1119.97
520.623	1131.21
520.829	1121.91
521.035	1119.39
521.241	1124.43
521.447	1148.07
521.653	1254.63
521.859	1152.33
522.065	1164.53
522.271	1251.91
522.477	1194.56
522.683	1230.99
522.889	1171.32
523.095	1199.8
523.301	1211.03
523.507	1174.61
523.713	1200.18
523.919	1143.22
524.125	1237
524.331	1213.36
524.537	1284.46
524.742	1283.11
524.948	1258.5
525.154	1323.99
525.36	1381.72
525.566	1302.48
525.772	1335.81
525.977	1239.71
526.183	1296.86
526.389	1330.96
526.595	1261.41
526.8	1230.21
527.006	1219.75
527.212	1157.56
527.417	1182.55
527.623	1165.31
527.829	1212.2
528.034	1268.38
528.24	1272.45
528.446	1279.04
528.651	1300.74
528.857	1341.81
529.062	1393.16
529.268	1346.08
529.473	1361.38
529.679	1341.81
529.884	1426.09
530.09	1380.37
530.295	1409.43
530.501	1436.17
530.706	1380.76
530.912	1379.98
531.117	1388.31
531.323	1398
531.528	1421.64
531.733	1417.37
531.939	1408.46
532.144	1421.06
532.35	1430.16
532.555	1436.55
532.76	1447.4
532.966	1431.91
533.171	1438.49
533.376	1375.91
533.581	1317.21
533.787	1387.92
533.992	1430.36
534.197	1459.8
534.402	1379.59
534.607	1478.21
534.813	1532.27
535.018	1438.3
535.223	1440.24
535.428	1447.99
535.633	1501.65
535.838	1510.95
536.043	1517.15
536.249	1559.58
536.454	1496.42
536.659	1504.75
536.864	1472.4
537.069	1456.32
537.274	1510.37
537.479	1468.33
537.684	1465.04
537.889	1428.42
538.094	1578.18
538.299	1488.09
538.504	1495.45
538.708	1486.74
538.913	1534.2
539.118	1554.74
539.323	1530.13
539.528	1476.47
539.733	1499.91
539.938	1509.79
540.142	1523.35
540.347	1493.13
540.552	1477.24
540.757	1502.04
540.962	1497
541.166	1421.64
541.371	1427.06
541.576	1516.77
541.781	1384.24
541.985	1500.1
542.19	1504.75
542.395	1567.14
542.599	1629.53
542.804	1546.22
543.008	1603.76
543.213	1545.25
543.418	1489.45
543.622	1544.86
543.827	1453.8
544.031	1583.22
544.236	1571.02
544.44	1565.2
544.645	1670.8
544.849	1509.02
545.054	1550.67
545.258	1659.95
545.463	1606.86
545.667	1534.2
545.872	1569.08
546.076	1582.83
546.281	1595.04
546.485	1522.58
546.689	1594.46
546.894	1637.08
547.098	1596.78
547.302	1541.76
547.507	1570.24
547.711	1552.42
547.915	1630.69
548.119	1565.78
548.324	1599.5
548.528	1617.32
548.732	1546.22
548.936	1578.38
549.141	1627.01
549.345	1586.32
549.549	1578.38
549.753	1588.65
549.957	1661.69
550.161	1684.16
550.366	1605.12
550.57	1575.08
550.774	1588.65
550.978	1598.72
551.182	1637.86
551.386	1598.92
551.59	1580.7
551.794	1611.9
551.998	1596.98
552.202	1596.2
552.406	1560.17
552.61	1616.74
552.814	1602.02
553.018	1682.23
553.222	1649.29
553.426	1592.72
553.63	1709.16
553.833	1626.81
554.037	1590.2
554.241	1643.67
554.445	1616.35
554.649	1612.28
554.853	1604.73
555.056	1663.24
555.26	1679.51
555.464	1646.96
555.668	1669.63
555.871	1667.5
556.075	1650.84
556.279	1594.85
556.483	1589.42
556.686	1635.15
556.89	1577.6
557.094	1642.51
557.297	1555.32
557.501	1643.28
557.704	1545.25
557.908	1629.72
558.112	1551.64
558.315	1651.03
558.519	1566.37
558.722	1560.75
558.926	1559.2
559.129	1525.87
559.333	1504.75
559.536	1489.06
559.74	1517.15
559.943	1492.55
560.147	1469.1
560.35	1478.21
560.553	1497.97
560.757	1469.69
560.96	1594.65
561.164	1551.25
561.367	1592.72
561.57	1524.32
561.774	1503.4
561.977	1523.74
562.18	1524.71
562.384	1580.12
562.587	1522.19
562.79	1506.11
562.993	1516.38
563.197	1531.1
563.4	1603.76
563.603	1557.45
563.806	1624.88
564.009	1494.87
564.212	1548.54
564.416	1466.78
564.619	1526.45
564.822	1491.58
565.025	1547.96
565.228	1476.08
565.431	1514.05
565.634	1440.43
565.837	1469.88
566.04	1404.78
566.243	1433.46
566.446	1355.76
566.649	1477.05
566.852	1387.54
567.055	1434.81
567.258	1476.66
567.461	1508.63
567.664	1499.14
567.867	1368.94
568.07	1453.02
568.273	1439.46
568.475	1459.61
568.678	1409.24
568.881	1409.24
569.084	1390.44
569.287	1327.86
569.489	1360.61
569.692	1425.9
569.895	1413.11
570.098	1342.01
570.3	1370.49
570.503	1266.25
570.706	1296.09
570.909	1360.99
571.111	1273.03
571.314	1277.68
571.516	1322.44
571.719	1297.64
571.922	1305.58
572.124	1296.48
572.327	1275.55
572.529	1238.93
572.732	1272.06
572.935	1292.6
573.137	1388.31
573.34	1277.49
573.542	1361.77
573.745	1310.04
573.947	1310.62
574.15	1300.16
574.352	1282.53
574.554	1366.22
574.757	1299.96
574.959	1269.74
575.162	1281.56
575.364	1276.52
575.566	1370.68
575.769	1257.92
575.971	1274.19
576.173	1169.18
576.376	1235.64
576.578	1295.31
576.78	1284.85
576.982	1165.12
577.185	1210.84
577.387	1177.51
577.589	1212.97
577.791	1245.33
577.993	1303.64
578.196	1263.54
578.398	1254.82
578.6	1253.46
578.802	1176.35
579.004	1174.22
579.206	1232.73
579.408	1214.71
579.61	1183.13
579.812	1256.76
580.014	1216.46
580.216	1180.23
580.418	1210.06
580.62	1201.54
580.822	1169.96
581.024	1221.11
581.226	1267.22
581.428	1193.79
581.63	1274.78
581.832	1204.64
582.034	1281.94
582.236	1226.34
582.438	1254.43
582.64	1257.92
582.841	1298.99
583.043	1346.27
583.245	1248.43
583.447	1279.43
583.649	1217.62
583.85	1232.15
584.052	1256.56
584.254	1217.43
584.456	1276.13
584.657	1223.05
584.859	1204.83
585.061	1192.43
585.262	1214.91
585.464	1142.45
585.666	1212.2
585.867	1178.48
586.069	1243.58
586.27	1212.97
586.472	1215.68
586.674	1172.86
586.875	1180.03
587.077	1176.35
587.278	1198.63
587.48	1187.2
587.681	1305.19
587.883	1196.7
588.084	1125.59
588.285	1160.47
588.487	1164.73
588.688	1149.81
588.89	1078.12
589.091	1094.01
589.292	1080.45
589.494	1050.8
589.695	1023.29
589.896	976.79
590.098	1013.6
590.299	1045.77
590.5	1011.67
590.702	1050.8
590.903	1086.45
591.104	1120.75
591.305	1080.64
591.507	1171.12
591.708	1119.2
591.909	1075.41
592.11	1131.6
592.311	1093.82
592.512	1113.97
592.714	1043.64
592.915	1081.22
593.116	1089.36
593.317	1109.51
593.518	1099.05
593.719	1066.69
593.92	1156.78
594.121	1150.97
594.322	1088.97
594.523	1104.28
594.724	1059.72
594.925	1070.95
595.126	1086.07
595.327	1089.94
595.528	1110.67
595.729	1110.09
595.929	1083.16
596.13	1077.54
596.331	1087.03
596.532	1086.84
596.733	1128.5
596.934	1130.82
597.135	1133.73
597.335	1123.85
597.536	1080.45
597.737	1074.44
597.938	1034.14
598.138	1083.55
598.339	1095.37
598.54	1076.77
598.74	1075.02
598.941	1090.91
599.142	1133.53
599.342	1106.41
599.543	1060.1
599.744	1101.18
599.944	1101.76
600.145	1089.55
600.345	1099.05
600.546	1153.3
600.746	1162.21
600.947	1182.36
601.147	1126.17
601.348	1120.55
601.548	1100.02
601.749	1120.55
601.949	1064.37
602.15	1053.52
602.35	1048.67
602.551	1095.37
602.751	1031.82
602.951	1087.62
603.152	1011.28
603.352	1090.13
603.552	1068.82
603.753	1098.85
603.953	1147.1
604.153	1066.5
604.354	1082.97
604.554	1096.92
604.754	1093.62
604.954	1029.88
605.155	1107.96
605.355	1063.59
605.555	1124.43
605.755	1150.97
605.955	1073.86
606.155	1095.17
606.356	1090.72
606.556	1106.99
606.756	1072.7
606.956	1034.53
607.156	1150.39
607.356	1045.96
607.556	1072.89
607.756	1077.74
607.956	1129.66
608.156	1094.2
608.356	1045.77
608.556	1098.08
608.756	1087.62
608.956	1005.27
609.156	1050.42
609.356	996.56
609.556	1034.34
609.755	1081.61
609.955	1027.17
610.155	1025.62
610.355	1040.92
610.555	1017.67
610.755	1046.74
610.954	982.8
611.154	1043.05
611.354	1085.68
611.554	997.33
611.753	1023.29
611.953	969.04
612.153	1075.02
612.352	1039.57
612.552	960.91
612.752	975.44
612.951	1025.04
613.151	984.54
613.351	970.01
613.55	1011.28
613.75	1026.78
613.949	994.62
614.149	1016.51
614.348	989.58
614.548	984.35
614.747	914.79
614.947	983.19
615.146	914.21
615.346	987.26
615.545	1014.96
615.745	979.7
615.944	1037.82
616.144	973.31
616.343	1000.82
616.542	951.41
616.742	961.68
616.941	963.23
617.14	893.87
617.34	946.37
617.539	944.63
617.738	929.52
617.938	1033.56
618.137	977.18
618.336	924.29
618.535	972.34
618.734	945.02
618.934	1006.05
619.133	949.09
619.332	996.75
619.531	906.66
619.73	950.83
619.929	995.78
620.128	971.37
620.328	1027.36
620.527	942.89
620.726	945.6
620.925	967.49
621.124	924.87
621.323	977.18
621.522	902.59
621.721	892.51
621.92	946.18
622.119	975.63
622.318	921.38
622.517	937.66
622.715	927.39
622.914	870.62
623.113	891.54
623.312	887.28
623.511	946.96
623.71	904.14
623.909	901.04
624.107	981.25
624.306	858.8
624.505	913.24
624.704	918.09
624.902	896
625.101	949.86
625.3	929.32
625.499	877.4
625.697	883.6
625.896	877.4
626.095	902.2
626.293	852.41
626.492	883.21
626.69	897.16
626.889	851.63
627.088	929.71
627.286	866.36
627.485	850.86
627.683	862.29
627.882	871.39
628.08	789.83
628.279	871.59
628.477	909.18
628.676	825.28
628.874	849.11
629.073	844.27
629.271	798.16
629.469	889.41
629.668	824.89
629.866	831.87
630.065	836.91
630.263	865.58
630.461	814.05
630.66	834
630.858	852.79
631.056	884.18
631.254	884.18
631.453	831.09
631.651	855.7
631.849	860.93
632.047	856.28
632.245	845.04
632.444	860.74
632.642	858.99
632.84	839.81
633.038	835.94
633.236	796.22
633.434	828.96
633.632	822.18
633.83	835.36
634.028	852.02
634.227	843.11
634.425	880.11
634.623	848.53
634.821	839.23
635.019	879.73
635.216	841.94
635.414	876.82
635.612	840.98
635.81	825.28
636.008	918.09
636.206	823.34
636.404	837.68
636.602	849.11
636.8	820.05
636.997	870.23
637.195	865.78
637.393	819.86
637.591	934.56
637.789	852.79
637.986	857.25
638.184	853.18
638.382	890.96
638.58	886.51
638.777	910.72
638.975	848.92
639.173	879.14
639.37	875.27
639.568	857.44
639.765	871.01
639.963	809.01
640.161	910.14
640.358	868.1
640.556	831.68
640.753	821.8
640.951	813.66
641.148	834.39
641.346	816.37
641.543	834.97
641.741	835.55
641.938	791.96
642.136	844.08
642.333	772
642.531	848.53
642.728	897.55
642.925	791.76
643.123	807.26
643.32	828.96
643.517	803.97
643.715	841.75
643.912	810.17
644.109	844.66
644.306	803.2
644.504	773.75
644.701	819.28
644.898	847.56
645.095	787.31
645.293	799.51
645.49	814.82
645.687	811.72
645.884	856.28
646.081	735
646.278	783.82
646.475	744.49
646.672	750.5
646.87	778.78
647.067	773.36
647.264	771.42
647.461	741
647.658	733.45
647.855	782.85
648.052	744.68
648.249	674.74
648.446	723.76
648.642	728.22
648.839	688.11
649.036	718.14
649.233	693.34
649.43	708.26
649.627	665.63
649.824	717.75
650.021	705.16
650.217	680.17
650.414	690.43
650.611	743.91
650.808	736.74
651.004	727.25
651.201	765.22
651.398	773.55
651.595	730.73
651.791	710.39
651.988	740.81
652.185	687.92
652.381	739.06
652.578	644.13
652.775	706.9
652.971	734.8
653.168	714.27
653.364	694.5
653.561	633.09
653.757	727.63
653.954	723.57
654.15	681.52
654.347	765.61
654.543	723.57
654.74	650.33
654.936	670.28
655.133	706.71
655.329	710.58
655.525	713.3
655.722	713.68
655.918	676.87
656.115	678.62
656.311	608.87
656.507	595.3
656.704	569.92
656.9	600.73
657.096	603.64
657.292	593.95
657.489	679.58
657.685	666.02
657.881	653.82
658.077	638.32
658.273	631.92
658.47	702.06
658.666	666.8
658.862	670.28
659.058	650.33
659.254	728.8
659.45	667.77
659.646	707.68
659.842	653.62
660.038	732.67
660.234	658.27
660.43	660.4
660.626	710.78
660.822	700.7
661.018	698.77
661.214	682.3
661.41	630.18
661.606	674.55
661.802	683.65
661.998	683.85
662.194	637.15
662.39	700.32
662.586	675.71
662.781	680.55
662.977	685.98
663.173	680.75
663.369	663.12
663.564	690.82
663.76	690.24
663.956	647.42
664.152	712.91
664.347	610.42
664.543	672.03
664.739	664.28
664.934	615.45
665.13	592.2
665.326	683.46
665.521	664.67
665.717	588.52
665.912	591.82
666.108	580.97
666.304	620.88
666.499	642.97
666.695	564.11
666.89	643.94
667.086	674.55
667.281	666.41
667.477	690.43
667.672	656.72
667.867	638.7
668.063	658.85
668.258	594.14
668.454	631.54
668.649	686.17
668.844	672.42
669.04	667.38
669.235	629.6
669.43	585.81
669.626	594.92
669.821	605.19
670.016	596.85
670.211	607.7
670.407	608.67
670.602	626.69
670.797	616.81
670.992	640.64
671.187	625.14
671.382	602.67
671.578	601.31
671.773	645.49
671.968	586.2
672.163	611.97
672.358	644.9
672.553	581.74
672.748	581.74
672.943	674.74
673.138	612.94
673.333	642.97
673.528	554.81
673.723	606.15
673.918	593.95
674.113	599.76
674.308	698.77
674.503	640.06
674.698	640.45
674.892	604.02
675.087	648.78
675.282	623.2
675.477	595.11
675.672	613.13
675.867	587.55
676.061	570.89
676.256	550.74
676.451	573.22
676.646	585.23
676.84	558.88
677.035	549
677.23	528.46
677.424	621.65
677.619	621.46
677.814	634.44
678.008	651.1
678.203	553.07
678.397	560.24
678.592	577.67
678.787	638.12
678.981	573.41
679.176	591.43
679.37	578.25
679.565	556.17
679.759	594.34
679.954	602.47
680.148	643.55
680.342	636.38
680.537	611.39
680.731	579.61
680.926	644.32
681.12	619.14
681.314	569.34
681.509	582.13
681.703	635.02
681.897	635.02
682.092	603.83
682.286	559.85
682.48	697.22
682.674	617
682.869	567.79
683.063	586.78
683.257	628.44
683.451	546.48
683.645	611.97
683.839	603.05
684.034	581.74
684.228	608.09
684.422	528.66
684.616	566.63
684.81	592.79
685.004	564.11
685.198	577.09
685.392	643.55
685.586	555.01
685.78	619.72
685.974	623.4
686.168	619.33
686.362	633.86
686.556	539.7
686.75	517.81
686.944	516.06
687.138	551.91
687.331	442.44
687.525	485.26
687.719	431.2
687.913	470.34
688.107	467.82
688.301	477.7
688.494	521.49
688.688	469.95
688.882	452.9
689.076	441.08
689.269	480.22
689.463	552.1
689.657	478.09
689.85	497.66
690.044	508.31
690.238	504.05
690.431	490.87
690.625	485.64
690.818	538.92
691.012	544.35
691.205	548.61
691.399	500.37
691.593	565.47
691.786	608.48
691.98	624.37
692.173	636.96
692.366	580.77
692.56	612.16
692.753	698.18
692.947	573.99
693.14	655.95
693.333	665.44
693.527	593.37
693.72	650.52
693.914	619.33
694.107	632.31
694.3	629.6
694.493	635.8
694.687	670.48
694.88	644.52
695.073	696.25
695.266	697.02
695.46	673.19
695.653	739.84
695.846	721.24
696.039	648
696.232	709.03
696.425	740.23
696.618	751.46
696.812	719.3
697.005	833.81
697.198	876.63
697.391	810.17
697.584	804.55
697.777	857.44
697.97	862.87
698.163	826.44
698.356	854.54
698.549	919.06
698.742	890.19
698.935	825.09
699.127	873.53
699.32	829.54
699.513	856.09
699.706	881.08
699.899	913.82
700.092	865.78
700.285	898.91
700.477	856.09
700.67	919.06
700.863	927.19
701.056	1009.92
701.248	955.29
701.441	1007.79
701.634	948.7
701.826	1083.55
702.019	916.92
702.212	1041.12
702.404	957.61
702.597	976.99
702.79	996.17
702.982	1038.21
703.175	1078.32
703.367	1082
703.56	1100.6
703.752	1190.3
703.945	1113
704.137	1154.85
704.33	1131.02
704.522	1168.22
704.715	1142.25
704.907	1165.31
705.1	1229.44
705.292	1218.2
705.484	1192.05
705.677	1256.95
705.869	1248.43
706.061	1260.05
706.254	1281.56
706.446	1267.61
706.638	1251.91
706.831	1306.94
707.023	1306.55
707.215	1403.81
707.407	1328.83
707.599	1361.38
707.792	1385.21
707.984	1380.95
708.176	1439.46
708.368	1394.9
708.56	1415.05
708.752	1410.59
708.944	1409.82
709.136	1468.33
709.329	1441.4
709.521	1549.12
709.713	1504.56
709.905	1522
710.097	1540.21
710.289	1505.53
710.481	1511.73
710.672	1563.27
710.864	1544.08
711.056	1638.83
711.248	1587.68
711.44	1594.85
711.632	1585.35
711.824	1687.26
712.016	1717.29
712.207	1700.83
712.399	1686.88
712.591	1733.57
712.783	1699.08
712.975	1755.85
713.166	1709.35
713.358	1726.79
713.55	1782.2
713.741	1801.19
713.933	1778.33
714.125	1767.67
714.316	1773.48
714.508	1855.44
714.7	1845.36
714.891	1808.94
715.083	1852.72
715.274	1809.52
715.466	1828.89
715.657	1891.67
715.849	1783.94
716.04	1845.56
716.232	1797.12
716.423	1845.94
716.615	1764.57
716.806	1750.62
716.998	1723.69
717.189	1645.22
717.381	1574.5
717.572	1535.75
717.763	1576.63
717.955	1538.27
718.146	1547.96
718.337	1505.14
718.528	1447.4
718.72	1412.72
718.911	1462.52
719.102	1426.87
719.293	1523.93
719.485	1445.47
719.676	1434.23
719.867	1426.09
720.058	1410.4
720.249	1436.36
720.44	1468.14
720.632	1467.75
720.823	1509.99
721.014	1631.27
721.205	1624.1
721.396	1710.71
721.587	1808.16
721.778	1806.81
721.969	1847.49
722.16	1882.56
722.351	1876.75
722.542	2030.97
722.733	2036.4
722.924	1917.24
723.115	1977.3
723.305	1938.55
723.496	1940.88
723.687	1840.52
723.878	1862.61
724.069	1857.37
724.26	1898.84
724.45	1840.32
724.641	1827.92
724.832	1849.82
725.023	1802.93
725.213	1816.88
725.404	1798.86
725.595	1825.41
725.785	1805.84
725.976	1858.92
726.167	1882.37
726.357	1840.13
726.548	1977.88
726.739	1837.61
726.929	1899.42
727.12	1938.36
727.31	1956.19
727.501	1934.1
727.691	1924.22
727.882	1945.53
728.072	1967.62
728.263	1934.1
728.453	2003.85
728.644	2012.76
728.834	2037.75
729.024	1991.45
729.215	1994.16
729.405	2022.45
729.596	2082.51
729.786	2078.83
729.976	2078.63
730.167	2094.71
730.357	2041.24
730.547	2105.37
730.737	2119.9
730.928	2122.42
731.118	2160.59
731.308	2141.21
731.498	2160.2
731.688	2204.18
731.879	2203.79
732.069	2287.11
732.259	2285.56
732.449	2288.66
732.639	2386.69
732.829	2377.78
733.019	2412.65
733.209	2477.56
733.399	2504.68
733.589	2515.34
733.779	2571.72
733.969	2543.63
734.159	2587.22
734.349	2646.31
734.539	2663.56
734.729	2644.18
734.919	2677.89
735.109	2719.16
735.299	2633.53
735.488	2682.16
735.678	2698.62
735.868	2708.7
736.058	2673.82
736.248	2672.27
736.437	2594.58
736.627	2591.48
736.817	2780.58
737.007	2702.69
737.196	2763.53
737.386	2754.04
737.576	2690.1
737.765	2770.12
737.955	2677.12
738.144	2792.79
738.334	2797.05
738.524	2741.64
738.713	2781.94
738.903	2768.95
739.092	2804.41
739.282	2817.59
739.471	2809.45
739.661	2813.52
739.85	2860.02
740.04	2845.68
740.229	2880.36
740.419	2894.12
740.608	2877.26
740.797	2871.83
740.987	2974.91
741.176	2922.01
741.365	2891.4
741.555	2825.72
741.744	2955.53
741.933	2873.97
742.123	2964.45
742.312	2944.1
742.501	2980.33
742.69	3027.99
742.88	2940.23
743.069	3050.86
743.258	2994.09
743.447	3006.88
743.636	3005.52
743.825	3004.75
744.014	3001.65
744.204	3014.82
744.393	2955.15
744.582	3033.23
744.771	3058.99
744.96	3011.53
745.149	3034.97
745.338	2986.92
745.527	3048.14
745.716	3026.25
745.905	3021.02
746.094	3084.76
746.283	3057.64
746.471	3052.79
746.66	3093.87
746.849	3108.79
747.038	3125.06
747.227	3002.23
747.416	3072.94
747.604	3034.78
747.793	3052.21
747.982	3076.04
748.171	3069.84
748.359	3057.25
748.548	3029.35
748.737	3043.49
748.926	3052.99
749.114	2980.33
749.303	3062.48
749.491	3003.39
749.68	2997.77
749.869	3091.16
750.057	2985.95
750.246	2962.9
750.434	2974.71
750.623	3000.68
750.811	3002.42
751	3056.48
751.188	3043.88
751.377	3043.49
751.565	3010.94
751.754	2962.31
751.942	2949.14
752.131	3044.08
752.319	2978.01
752.507	2973.16
752.696	2999.32
752.884	3015.79
753.072	2966.19
753.261	2971.42
753.449	2959.6
753.637	2961.54
753.825	3015.01
754.014	2910.39
754.202	2966.58
754.39	3060.35
754.578	3011.33
754.766	2958.83
754.955	2930.93
755.143	3021.21
755.331	2940.03
755.519	2955.73
755.707	2962.9
755.895	2917.17
756.083	2946.62
756.271	2888.5
756.459	2948.17
756.647	2972.39
756.835	2888.11
757.023	2849.36
757.211	2928.99
757.399	2932.09
757.587	2890.24
757.775	2848.39
757.963	2873.77
758.151	2855.37
758.339	2803.05
758.526	2870.09
758.714	2850.52
758.902	2746.48
759.09	2725.94
759.278	2537.81
759.465	2323.14
759.653	2023.42
759.841	1877.52
760.028	1568.88
760.216	1354.79
760.404	1283.69
760.591	1086.07
760.779	878.18
760.967	802.81
761.154	660.6
761.342	696.63
761.529	706.13
761.717	743.71
761.905	732.67
762.092	805.33
762.28	741.97
762.467	754.76
762.655	650.33
762.842	725.89
763.029	725.7
763.217	730.35
763.404	732.28
763.592	772.39
763.779	745.07
763.966	766
764.154	787.5
764.341	840.98
764.528	830.13
764.716	927.58
764.903	972.92
765.09	992.29
765.277	1049.25
765.465	1209.1
765.652	1244.75
765.839	1292.41
766.026	1449.92
766.213	1444.89
766.4	1513.28
766.588	1686.3
766.775	1689.78
766.962	1769.41
767.149	1861.83
767.336	1975.95
767.523	1925.19
767.71	2049.57
767.897	2146.64
768.084	2227.24
768.271	2254.75
768.458	2297.18
768.645	2377.78
768.832	2330.5
769.019	2322.75
769.206	2379.72
769.392	2443.85
769.579	2523.86
769.766	2454.89
769.953	2464.58
770.14	2511.08
770.327	2467.68
770.513	2577.14
770.7	2611.24
770.887	2512.43
771.073	2577.92
771.26	2604.66
771.447	2494.8
771.634	2528.71
771.82	2647.48
772.007	2518.05
772.193	2568.43
772.38	2575.01
772.567	2566.1
772.753	2571.14
772.94	2605.24
773.126	2628.29
773.313	2651.16
773.499	2637.79
773.686	2595.74
773.872	2530.65
774.059	2609.11
774.245	2570.17
774.432	2579.47
774.618	2488.99
774.804	2563.39
774.991	2525.8
775.177	2570.94
775.363	2551.96
775.55	2570.36
775.736	2503.91
775.922	2554.86
776.109	2539.95
776.295	2523.48
776.481	2552.73
776.667	2552.73
776.853	2542.27
777.04	2482.98
777.226	2515.73
777.412	2595.16
777.598	2474.85
777.784	2521.35
777.97	2484.15
778.156	2518.25
778.342	2453.53
778.528	2486.47
778.715	2386.11
778.901	2427.38
779.087	2475.04
779.272	2453.73
779.458	2429.7
779.644	2465.93
779.83	2398.12
780.016	2497.9
780.202	2459.15
780.388	2403.74
780.574	2350.27
780.76	2400.83
780.946	2478.53
781.131	2434.55
781.317	2404.13
781.503	2400.25
781.689	2394.64
781.874	2530.06
782.06	2403.35
782.246	2414.4
782.432	2369.84
782.617	2391.54
782.803	2417.11
782.989	2317.33
783.174	2349.1
783.36	2306.48
783.545	2351.24
783.731	2335.15
783.916	2306.09
784.102	2333.02
784.288	2330.12
784.473	2311.13
784.659	2279.94
784.844	2312.68
785.029	2315.97
785.215	2293.69
785.4	2265.41
785.586	2337.67
785.771	2231.11
785.956	2243.9
786.142	2268.31
786.327	2246.61
786.512	2254.56
786.698	2234.41
786.883	2173.38
787.068	2201.86
787.254	2220.84
787.439	2215.81
787.624	2203.41
787.809	2174.93
787.994	2208.25
788.18	2265.21
788.365	2155.55
788.55	2188.49
788.735	2172.99
788.92	2177.25
789.105	2118.93
789.29	2193.33
789.475	2136.95
789.66	2138.89
789.845	2115.06
790.03	2084.83
790.215	2139.66
790.4	2131.14
790.585	2177.44
790.77	2099.56
790.955	2048.6
791.14	2102.08
791.325	2164.85
791.51	1998.03
791.695	2083.09
791.879	2052.67
792.064	1999.58
792.249	2138.31
792.434	2079.99
792.618	2045.5
792.803	2102.08
792.988	2086.58
793.173	2098.01
793.357	2120.1
793.542	2045.89
793.727	2077.08
793.911	2101.3
794.096	2058.48
794.281	2127.26
794.465	2184.03
794.65	2097.04
794.834	2153.03
795.019	2164.85
795.203	2152.64
795.388	2152.26
795.572	2180.93
795.757	2133.85
795.941	2107.7
796.126	2138.89
796.31	2076.31
796.494	2130.95
796.679	2117
796.863	2053.06
797.048	2155.94
797.232	2117.38
797.416	2121.65
797.601	2115.25
797.785	2132.69
797.969	2157.29
798.153	2085.61
798.338	2116.22
798.522	2161.56
798.706	2160.39
798.89	2200.31
799.074	2237.12
799.258	2233.24
799.443	2147.8
799.627	2177.83
799.811	2171.24
799.995	2132.69
800.179	2122.42
800.363	2094.13
800.547	2147.03
800.731	2137.92
800.915	2093.16
801.099	2135.59
801.283	2140.83
801.467	2176.86
801.651	2122.23
801.835	2180.16
802.019	2181.13
802.202	2142.57
802.386	2110.02
802.57	2085.41
802.754	2116.03
802.938	2094.33
803.121	2088.51
803.305	2152.84
803.489	2092.2
803.673	2124.16
803.856	2148.96
804.04	2114.09
804.224	2097.43
804.407	2057.9
804.591	2107.11
804.775	2093.94
804.958	2130.17
805.142	2218.91
805.326	2123.58
805.509	2128.04
805.693	2128.62
805.876	2130.95
806.06	2146.64
806.243	2191.78
806.427	2176.09
806.61	2188.49
806.794	2113.12
806.977	2172.41
807.16	2135.4
807.344	2148.19
807.527	2093.36
807.71	2119.51
807.894	2158.65
808.077	2168.53
808.26	2126.1
808.444	2099.36
808.627	2147.41
808.81	2062.16
808.993	2041.05
809.177	2008.88
809.36	2028.65
809.543	2098.4
809.726	2007.53
809.909	2002.49
810.092	2002.1
810.276	2001.72
810.459	1969.36
810.642	1962.58
810.825	1974.2
811.008	1996.1
811.191	1887.4
811.374	1891.86
811.557	1909.49
811.74	1959.87
811.923	1868.42
812.106	1845.56
812.289	1823.08
812.472	1827.34
812.654	1869.39
812.837	1813.01
813.02	1813.97
813.203	1781.81
813.386	1670.99
813.569	1639.8
813.751	1619.45
813.934	1677.19
814.117	1658.59
814.3	1627.01
814.482	1552.8
814.665	1512.31
814.848	1514.64
815.03	1440.62
815.213	1467.36
815.396	1447.79
815.578	1404.78
815.761	1373.97
815.943	1469.49
816.126	1372.81
816.309	1367.39
816.491	1290.28
816.674	1232.35
816.856	1307.71
817.039	1307.13
817.221	1370.49
817.403	1331.16
817.586	1342.01
817.768	1346.85
817.951	1229.44
818.133	1258.7
818.315	1295.12
818.498	1298.41
818.68	1402.46
818.862	1346.46
819.045	1398.19
819.227	1345.3
819.409	1355.57
819.591	1359.83
819.774	1344.53
819.956	1298.8
820.138	1399.36
820.32	1387.15
820.502	1415.63
820.684	1479.18
820.866	1466.97
821.048	1559.78
821.231	1554.35
821.413	1541.95
821.595	1507.66
821.777	1490.61
821.959	1514.05
822.141	1571.98
822.323	1449.73
822.505	1373.59
822.686	1370.87
822.868	1297.06
823.05	1201.35
823.232	1229.25
823.414	1126.17
823.596	1216.65
823.778	1172.09
823.96	1215.68
824.141	1201.54
824.323	1216.65
824.505	1269.54
824.687	1312.75
824.868	1384.05
825.05	1441.4
825.232	1487.12
825.413	1556.29
825.595	1445.85
825.777	1413.31
825.958	1465.81
826.14	1436.36
826.321	1502.43
826.503	1446.24
826.685	1473.95
826.866	1497.2
827.048	1509.02
827.229	1462.52
827.411	1415.05
827.592	1355.57
827.773	1381.92
827.955	1322.83
828.136	1332.51
828.318	1314.3
828.499	1357.31
828.68	1303.06
828.862	1304.61
829.043	1335.03
829.224	1323.21
829.406	1316.82
829.587	1321.08
829.768	1280.39
829.949	1327.67
830.131	1337.74
830.312	1404.2
830.493	1317.98
830.674	1312.75
830.855	1315.27
831.036	1298.03
831.218	1369.52
831.399	1389.09
831.58	1366.22
831.761	1315.08
831.942	1364.67
832.123	1319.14
832.304	1299.77
832.485	1306.55
832.666	1305.39
832.847	1339.49
833.028	1354.02
833.209	1328.64
833.389	1318.76
833.57	1259.28
833.751	1287.37
833.932	1337.55
834.113	1351.89
834.294	1278.07
834.475	1345.69
834.655	1389.67
834.836	1371.46
835.017	1371.07
835.198	1281.56
835.378	1345.11
835.559	1353.82
835.74	1353.63
835.92	1319.73
836.101	1289.69
836.281	1352.47
836.462	1370.1
836.643	1397.42
836.823	1392.77
837.004	1350.14
837.184	1420.47
837.365	1418.34
837.545	1368.36
837.726	1367.97
837.906	1426.48
838.087	1372.04
838.267	1385.6
838.448	1336
838.628	1415.63
838.808	1362.74
838.989	1417.96
839.169	1355.37
839.349	1378.62
839.53	1391.99
839.71	1404.97
839.89	1345.49
840.07	1410.21
840.251	1346.08
840.431	1415.82
840.611	1375.91
840.791	1360.41
840.971	1399.74
841.151	1345.88
841.332	1316.24
841.512	1355.76
841.692	1298.99
841.872	1364.67
842.052	1347.04
842.232	1386.96
842.412	1310.62
842.592	1368.74
842.772	1367.39
842.952	1382.31
843.132	1331.93
843.312	1375.52
843.492	1322.83
843.672	1394.51
843.851	1266.06
844.031	1361.57
844.211	1342.98
844.391	1306.36
844.571	1342.01
844.751	1357.31
844.93	1352.86
845.11	1295.51
845.29	1361.57
845.47	1360.61
845.649	1350.72
845.829	1384.44
846.009	1317.21
846.188	1348.4
846.368	1318.76
846.547	1353.05
846.727	1352.08
846.907	1260.05
847.086	1351.5
847.266	1378.24
847.445	1338.13
847.625	1352.08
847.804	1284.27
847.984	1317.01
848.163	1272.45
848.343	1304.23
848.522	1330.77
848.701	1311.98
848.881	1280.59
849.06	1278.65
849.239	1309.65
849.419	1317.79
849.598	1213.36
849.777	1253.08
849.957	1220.91
850.136	1168.99
850.315	1179.65
850.494	1188.56
850.674	1204.45
850.853	1239.71
851.032	1193.4
851.211	1274.97
851.39	1213.75
851.569	1183.91
851.748	1171.9
851.927	1240.48
852.107	1173.45
852.286	1180.42
852.465	1151.75
852.644	1227.11
852.823	1184.49
853.002	1211.03
853.181	1229.44
853.359	1201.15
853.538	1144
853.717	1220.91
853.896	1125.2
854.075	1073.09
854.254	1092.85
854.433	1001.01
854.611	1034.34
854.79	999.27
854.969	1028.52
855.148	1096.92
855.327	1033.75
855.505	1105.25
855.684	1086.07
855.863	1108.54
856.041	1086.84
856.22	1106.6
856.399	1063.98
856.577	1144
856.756	1180.42
856.934	1261.99
857.113	1268.19
857.291	1153.1
857.47	1117.45
857.648	1135.67
857.827	1149.62
858.005	1198.05
858.184	1112.22
858.362	1230.8
858.541	1139.54
858.719	1173.06
858.898	1134.89
859.076	1148.26
859.254	1211.23
859.433	1108.15
859.611	1141.09
859.789	1052.35
859.967	1196.7
860.146	1210.45
860.324	1072.5
860.502	1107.96
860.68	1079.29
860.859	1082.58
861.037	1107.57
861.215	1129.27
861.393	1131.79
861.571	1118.62
861.749	1059.72
861.927	1123.27
862.105	1128.11
862.283	1116.48
862.461	1095.75
862.639	1038.02
862.817	1077.35
862.995	1088.58
863.173	1078.51
863.351	1091.1
863.529	1110.28
863.707	1130.24
863.885	1108.73
864.063	1023.29
864.241	1029.49
864.418	1109.32
864.596	1057.2
864.774	1017.48
864.952	1051.19
865.129	1075.99
865.307	1013.99
865.485	991.32
865.663	1071.54
865.84	995.78
866.018	1026.97
866.196	889.03
866.373	871.78
866.551	914.6
866.728	838.84
866.906	886.7
867.084	931.65
867.261	950.64
867.439	955.48
867.616	1002.17
867.794	978.54
867.971	968.85
868.149	962.07
868.326	1015.35
868.503	1020
868.681	974.08
868.858	970.21
869.035	941.34
869.213	988.42
869.39	983.96
869.567	1063.4
869.745	961.29
869.922	988.81
870.099	1000.04
870.276	996.94
870.454	986.87
870.631	997.14
870.808	994.04
870.985	1016.7
871.162	1072.31
871.339	1001.79
871.517	939.21
871.694	957.03
871.871	952.57
872.048	959.16
872.225	945.02
872.402	987.64
872.579	900.46
872.756	970.01
872.933	943.86
873.11	932.62
873.287	944.44
873.463	929.13
873.64	908.98
873.817	976.6
873.994	947.15
874.171	922.93
874.348	936.88
874.524	871.2
874.701	939.01
874.878	881.86
875.055	947.73
875.231	932.23
875.408	920.99
875.585	881.28
875.762	925.64
875.938	881.28
876.115	891.16
876.291	893.68
876.468	901.04
876.645	849.11
876.821	879.14
876.998	884.96
877.174	880.69
877.351	891.16
877.527	865.58
877.704	907.82
877.88	912.27
878.057	861.71
878.233	939.79
878.409	870.62
878.586	892.51
878.762	893.48
878.938	886.31
879.115	833.23
879.291	889.61
879.467	835.55
879.644	830.71
879.82	868.49
879.996	869.65
880.172	802.61
880.349	860.93
880.525	887.09
880.701	805.71
880.877	825.09
881.053	828.58
881.229	843.11
881.405	890.38
881.581	787.7
881.757	821.99
881.933	832.26
882.109	865.78
882.285	838.26
882.461	751.08
882.637	834
882.813	820.83
882.989	828.38
883.165	867.52
883.341	790.8
883.517	863.06
883.693	821.99
883.869	896.19
884.044	828.58
884.22	852.6
884.396	867.13
884.572	848.53
884.747	878.18
884.923	861.32
885.099	894.84
885.275	873.91
885.45	797.58
885.626	799.13
885.801	803.2
885.977	805.33
886.153	781.5
886.328	840.98
886.504	804.75
886.679	863.26
886.855	792.15
887.03	835.55
887.206	860.35
887.381	825.86
887.557	832.06
887.732	859.77
887.908	864.03
888.083	869.07
888.258	823.73
888.434	801.06
888.609	816.37
888.784	866.74
888.96	819.28
889.135	806.68
889.31	818.11
889.485	821.8
889.661	813.85
889.836	898.13
890.011	865.39
890.186	788.66
890.361	784.01
890.537	812.5
890.712	819.08
890.887	808.43
891.062	818.89
891.237	869.07
891.412	806.3
891.587	836.33
891.762	821.21
891.937	837.49
892.112	796.61
892.287	791.38
892.462	770.65
892.637	740.42
892.812	778.78
892.987	768.32
893.161	750.3
893.336	735.58
893.511	740.61
893.686	741
893.861	728.22
894.035	735
894.21	749.14
894.385	692.95
894.56	704.97
894.734	660.21
894.909	685.98
895.084	655.17
895.258	656.53
895.433	684.62
895.608	648
895.782	626.69
895.957	666.22
896.131	616.42
896.306	585.23
896.48	569.54
896.655	610.8
896.829	517.22
897.004	530.98
897.178	551.52
897.353	529.04
897.527	611.39
897.701	524.59
897.876	486.42
898.05	601.31
898.224	556.75
898.399	622.04
898.573	559.27
898.747	435.46
898.921	526.33
899.096	420.16
899.27	467.43
899.444	454.64
899.618	483.12
899.792	477.12
899.967	468.59
900.141	538.54
900.315	467.82
900.489	487.19
900.663	494.94
900.837	500.37
901.011	406.4
901.185	555.78
901.359	471.69
901.533	483.71
901.707	473.44
901.881	493.97
902.055	450.19
902.229	480.02
902.403	525.94
902.576	531.56
902.75	468.4
902.924	583.1
903.098	535.63
903.272	569.92
903.446	603.83
903.619	573.41
903.793	594.34
903.967	583.49
904.14	650.91
904.314	634.64
904.488	587.55
904.661	641.22
904.835	609.64
905.009	659.43
905.182	684.62
905.356	621.65
905.529	584.07
905.703	582.13
905.876	593.37
906.05	549.77
906.223	542.22
906.397	518.77
906.57	492.42
906.744	488.36
906.917	477.12
907.09	482.74
907.264	481.38
907.437	442.24
907.61	430.04
907.784	456.97
907.957	433.14
908.13	430.04
908.304	458.91
908.477	414.93
908.65	454.26
908.823	380.25
908.996	487
909.17	440.5
909.343	438.76
909.516	430.62
909.689	420.35
909.862	406.59
910.035	421.9
910.208	371.33
910.381	405.63
910.554	483.9
910.727	416.28
910.9	418.03
911.073	392.84
911.246	491.26
911.419	479.25
911.592	449.41
911.765	387.61
911.938	402.91
912.11	416.09
912.283	426.55
912.456	459.68
912.629	414.93
912.802	400.98
912.974	357.77
913.147	350.6
913.32	318.25
913.493	339.36
913.665	364.55
913.838	334.13
914.01	334.52
914.183	357.77
914.356	356.03
914.528	405.63
914.701	463.36
914.873	423.84
915.046	365.13
915.218	321.54
915.391	284.73
915.563	315.15
915.736	381.99
915.908	387.8
916.081	365.91
916.253	349.63
916.425	363.39
916.598	389.35
916.77	362.23
916.942	326.58
917.115	269.42
917.287	385.28
917.459	301.39
917.632	320.76
917.804	277.56
917.976	357
918.148	322.51
918.32	358.16
918.493	402.33
918.665	428.88
918.837	371.72
919.009	446.7
919.181	439.73
919.353	390.51
919.525	381.21
919.697	372.3
919.869	369.2
920.041	439.92
920.213	505.21
920.385	415.89
920.557	375.21
920.729	413.76
920.901	401.17
921.073	391.87
921.244	371.91
921.416	423.64
921.588	400.98
921.76	372.11
921.932	488.74
922.103	371.91
922.275	378.5
922.447	362.81
922.619	351.38
922.79	360.48
922.962	361.06
923.134	386.83
923.305	317.66
923.477	302.16
923.648	349.83
923.82	361.65
923.991	270.78
924.163	305.46
924.335	329.29
924.506	307.2
924.677	375.4
924.849	303.71
925.02	322.7
925.192	346.34
925.363	312.05
925.535	353.9
925.706	327.35
925.877	362.61
926.049	323.67
926.22	342.08
926.391	348.28
926.562	368.62
926.734	309.72
926.905	358.16
927.076	299.26
927.247	297.52
927.419	254.7
927.59	254.7
927.761	255.67
927.932	270.2
928.103	309.33
928.274	222.34
928.445	255.08
928.616	216.53
928.787	232.8
928.958	248.3
929.129	242.3
929.3	229.51
929.471	197.93
929.642	171.39
929.813	102.22
929.984	192.5
930.155	128.95
930.326	200.64
930.496	166.35
930.667	100.09
930.838	143.68
931.009	113.26
931.18	129.34
931.35	130.12
931.521	156.47
931.692	68.51
931.863	39.44
932.033	126.63
932.204	107.26
932.374	108.61
932.545	68.51
932.716	125.27
932.886	112.1
933.057	39.25
933.227	51.84
933.398	123.53
933.568	42.35
933.739	-2.41
933.909	40.02
934.08	62.31
934.25	9.03
934.421	19.88
934.591	47.97
934.761	38.28
934.932	-3.37
935.102	56.11
935.272	20.26
935.443	35.57
935.613	26.66
935.783	39.83
935.953	-6.67
936.123	194.25
936.294	12.32
936.464	4.76
936.634	30.14
936.804	-10.35
936.974	24.91
937.144	63.27
937.314	74.32
937.484	15.81
937.655	0.5
937.825	62.11
937.995	-16.16
938.165	72.77
938.334	10.38
938.504	51.65
938.674	13.09
938.844	39.06
939.014	79.55
939.184	98.92
939.354	127.4
939.524	104.74
939.694	77.03
939.863	82.26
940.033	116.94
940.203	112.87
940.373	95.05
940.542	88.85
940.712	73.16
940.882	112.87
941.051	109.39
941.221	105.9
941.391	119.66
941.56	73.74
941.73	34.99
941.899	157.44
942.069	66.76
942.238	110.74
942.408	54.56
942.577	101.83
942.747	90.21
942.916	9.41
943.086	30.92
943.255	123.92
943.425	45.84
943.594	58.24
943.763	-5.31
943.933	-9.57
944.102	0.31
944.271	40.41
944.441	52.04
944.61	36.34
944.779	46.03
944.948	137.29
945.117	-28.17
945.287	42.16
945.456	-3.18
945.625	29.95
945.794	61.14
945.963	40.02
946.132	56.3
946.301	26.46
946.47	96.02
946.639	-10.35
946.808	3.79
946.977	62.69
947.146	122.76
947.315	28.01
947.484	76.84
947.653	59.21
947.822	36.92
947.991	1.08
948.16	124.69
948.329	103.77
948.498	28.01
948.666	58.82
948.835	82.65
949.004	36.73
949.173	12.13
949.341	67.73
949.51	82.46
949.679	76.84
949.847	88.27
950.016	115.59
950.185	83.42
950.353	41.38
950.522	59.01
950.69	108.03
950.859	42.74
951.028	103.57
951.196	66.37
951.365	20.46
951.533	46.42
951.701	70.25
951.87	76.26
952.038	36.54
952.207	64.44
952.375	108.03
952.543	37.31
952.712	62.5
952.88	61.72
953.048	103.19
953.217	54.17
953.385	38.28
953.553	92.53
953.721	20.26
953.89	75.48
954.058	14.64
954.226	21.62
954.394	43.9
954.562	7.86
954.73	66.96
954.898	57.85
955.067	78.39
955.235	22.59
955.403	109.58
955.571	105.32
955.739	84.2
955.907	22.01
956.075	7.67
956.243	13.48
956.41	56.88
956.578	-12.29
956.746	-3.96
956.914	34.21
957.082	52.42
957.25	100.86
957.418	27.63
957.585	71.22
957.753	104.16
957.921	22.2
958.089	64.05
958.256	34.99
958.424	68.51
958.592	83.62
958.759	37.51
958.927	82.26
959.095	43.12
959.262	21.43
959.43	77.03
959.597	24.72
959.765	62.69
959.932	47.39
960.1	71.99
960.267	22.2
960.435	47.19
960.602	67.15
960.77	66.57
960.937	13.68
961.104	41.38
961.272	-10.35
961.439	42.35
961.606	53.78
961.774	82.65
961.941	46.61
962.108	58.62
962.275	68.31
962.443	86.14
962.61	73.74
962.777	116.75
962.944	61.72
963.111	89.24
963.278	81.87
963.446	47.39
963.613	40.8
963.78	88.66
963.947	71.41
964.114	74.12
964.281	126.05
964.448	86.14
964.615	64.05
964.782	69.09
964.949	68.7
965.116	109.58
965.282	126.63
965.449	59.59
965.616	37.12
965.783	84.2
965.95	61.92
966.117	42.93
966.283	73.54
966.45	43.71
966.617	64.63
966.784	110.36
966.95	77.81
967.117	90.98
967.284	40.22
967.45	41.19
967.617	117.72
967.784	97.96
967.95	105.51
968.117	66.18
968.283	135.93
968.45	170.42
968.616	65.79
968.783	127.6
968.949	95.44
969.116	120.24
969.282	55.33
969.449	88.85
969.615	80.13
969.781	27.43
969.948	65.21
970.114	17.36
970.28	143.68
970.447	81.29
970.613	130.89
970.779	47.97
970.945	90.21
971.112	81.87
971.278	74.71
971.444	71.99
971.61	123.92
971.776	85.56
971.942	104.93
972.108	120.62
972.275	70.06
972.441	107.84
972.607	157.44
972.773	67.15
972.939	118.69
973.105	53.78
973.271	42.74
973.437	63.08
973.602	33.63
973.768	63.86
973.934	84.78
974.1	74.51
974.266	2.63
974.432	74.71
974.598	63.86
974.763	105.51
974.929	61.14
975.095	115.39
975.261	34.99
975.426	26.66
975.592	71.22
975.758	110.94
975.923	20.07
976.089	63.27
976.255	89.43
976.42	100.47
976.586	73.93
976.751	103.96
976.917	173.13
977.082	110.55
977.248	21.23
977.413	21.43
977.579	67.73
977.744	93.89
977.91	40.99
978.075	36.73
978.24	102.41
978.406	72.19
978.571	55.33
978.736	24.72
978.902	91.37
979.067	31.31
979.232	23.17
979.397	63.47
979.563	109.19
979.728	44.67
979.893	70.25
980.058	54.36
980.223	109
980.388	69.86
980.554	69.86
980.719	41.57
980.884	60.56
981.049	84.2
981.214	45.84
981.379	70.64
981.544	35.38
981.709	58.04
981.874	45.26
982.039	65.21
982.204	55.72
982.368	70.25
982.533	65.21
982.698	82.84
982.863	89.82
983.028	51.07
983.193	93.69
983.357	64.44
983.522	63.66
983.687	76.06
983.852	45.64
984.016	49.91
984.181	90.21
984.346	71.61
984.51	79.74
984.675	75.87
984.839	101.06
985.004	104.93
985.168	113.07
985.333	73.35
985.498	70.25
985.662	78.97
985.827	80.13
985.991	52.42
986.155	38.67
986.32	81.68
986.484	127.99
986.649	89.62
986.813	32.47
986.977	97.37
987.142	72.19
987.306	26.46
987.47	33.83
987.634	64.82
987.799	82.65
987.963	70.06
988.127	104.16
988.291	127.4
988.455	75.09
988.62	37.89
988.784	70.44
988.948	52.42
989.112	35.38
989.276	83.23
989.44	74.51
989.604	18.91
989.768	60.76
989.932	142.9
990.096	37.51
990.26	28.79
990.424	24.33
990.588	55.72
990.752	118.49
990.915	89.62
991.079	45.26
991.243	22.78
991.407	94.86
991.571	31.11
991.734	76.06
991.898	57.07
992.062	132.05
992.226	46.81
992.389	20.46
992.553	20.65
992.717	48.55
992.88	54.56
993.044	41.38
993.207	49.32
993.371	75.87
993.535	77.61
993.698	67.34
993.862	104.74
994.025	101.06
994.189	58.43
994.352	51.65
994.515	74.9
994.679	119.27
994.842	37.51
995.006	84.2
995.169	33.44
995.332	67.54
995.496	107.84
995.659	7.86
995.822	61.34
995.985	69.86
996.149	112.87
996.312	72.96
996.475	133.22
996.638	46.61
996.801	117.33
996.964	143.29
997.128	33.05
997.291	90.4
997.454	58.62
997.617	-0.66
997.78	87.88
997.943	33.24
998.106	91.56
998.269	44.87
998.432	37.31
998.595	61.92
998.758	2.83
998.92	9.41
999.083	-12.09
999.246	44.09
999.409	23.17
999.572	-0.86
999.735	37.12
999.897	66.96
1000.06	9.8
1000.223	34.79
1000.386	59.4
1000.548	49.91
1000.711	46.81
1000.874	55.52
1001.036	13.68
1001.199	61.14
1001.361	29.18
1001.524	48.94
1001.687	57.27
1001.849	27.43
1002.012	47
1002.174	25.3
1002.337	69.09
1002.499	29.37
1002.661	58.43
1002.824	23.75
1002.986	18.71
1003.149	58.04
1003.311	18.91
1003.473	110.36
1003.636	-3.76
1003.798	49.91
1003.96	69.47
1004.123	38.86
1004.285	36.34
1004.447	28.21
1004.609	22.59
1004.771	82.07
1004.933	-12.87
1005.096	15.03
1005.258	-39.22
1005.42	25.3
1005.582	84.78
1005.744	36.92
1005.906	-30.11
1006.068	49.71
1006.23	14.06
1006.392	-8.99
1006.554	-6.47
1006.716	76.26
1006.878	61.34
1007.04	-11.9
1007.202	41.96
1007.363	70.44
1007.525	44.67
1007.687	45.64
1007.849	78.97
1008.011	-16.16
1008.172	28.98
1008.334	17.74
1008.496	59.21
1008.658	-21.2
1008.819	35.18
1008.981	-27.01
1009.143	1.86
1009.304	2.05
1009.466	34.41
1009.627	75.67
1009.789	115.78
1009.95	49.32
1010.112	17.74
1010.273	40.02
1010.435	5.54
1010.596	11.16
1010.758	0.89
1010.919	31.5
1011.081	-38.83
1011.242	34.99
1011.403	29.76
1011.565	-1.24
1011.726	41.77
1011.887	6.12
1012.049	1.66
1012.21	40.02
1012.371	80.52
1012.532	-36.7
1012.693	43.51
1012.855	11.74
1013.016	25.69
1013.177	37.7
1013.338	16.78
1013.499	90.4
1013.66	60.95
1013.821	45.45
1013.982	29.37
1014.143	46.81
1014.304	-0.08
1014.465	36.34
1014.626	44.87
1014.787	4.96
1014.948	103.96
1015.109	-48.52
1015.27	79.16
1015.431	2.63
1015.592	-8.41
1015.752	77.22
1015.913	35.57
1016.074	53.78
1016.235	29.37
1016.395	10.96
1016.556	4.57
1016.717	18.13
1016.877	56.11
1017.038	-11.71
1017.199	39.83
1017.359	-1.24
1017.52	29.95
1017.681	-4.54
1017.841	-2.21
1018.002	16.58
1018.162	20.07
1018.323	70.44
1018.483	7.09
1018.644	22.01
1018.804	-11.51
1018.964	-22.75
1019.125	-1.82
1019.285	9.99
1019.446	-35.73
1019.606	-26.24
1019.766	-29.72
1019.926	45.06
1020.087	36.34
1020.247	-19.07
1020.407	47.77
1020.567	46.42
1020.728	-2.02
1020.888	-11.71
1021.048	-6.09
1021.208	-6.86
1021.368	4.38
1021.528	54.75
1021.688	41.96
1021.848	33.83
1022.008	4.38
1022.168	9.61
1022.328	19.49
1022.488	2.63
1022.648	-11.12
1022.808	5.54
1022.968	31.89
1023.128	-28.37
1023.288	-1.44
1023.448	39.25
1023.608	29.18
1023.767	7.86
1023.927	-28.37
1024.087	-29.53
1024.247	-34.18
1024.406	-6.47
1024.566	-9.57
1024.726	-32.44
1024.885	32.28
1025.045	28.59
1025.205	11.16
1025.364	15.03
1025.524	15.81
1025.683	3.21
1025.843	10.38
1026.003	31.89
1026.162	94.27
1026.321	56.88
1026.481	23.36
1026.64	-26.62
1026.8	17.74
1026.959	28.21
1027.119	32.28
1027.278	-25.66
1027.437	-45.61
1027.597	24.14
1027.756	55.14
1027.915	48.16
1028.074	36.54
1028.234	-5.7
1028.393	16.19
1028.552	4.76
1028.711	-73.51
1028.87	50.87
1029.03	-29.53
1029.189	19.49
1029.348	-61.3
1029.507	-15.39
1029.666	6.89
1029.825	-48.91
1029.984	-24.49
1030.143	22.01
1030.302	-19.84
1030.461	-36.7
1030.62	5.34
1030.779	48.74
1030.938	-24.69
1031.097	-15.19
1031.255	27.24
1031.414	62.69
1031.573	54.17
1031.732	-46.97
1031.891	0.5
1032.049	63.47
1032.208	20.46
1032.367	-32.44
1032.525	-14.22
1032.684	-1.24
1032.843	0.89
1033.001	-28.56
1033.16	150.07
1033.319	40.99
1033.477	34.21
1033.636	15.03
1033.794	-53.55
1033.953	29.18
1034.111	46.42
1034.27	-18.29
1034.428	44.09
1034.587	-22.17
1034.745	7.86
1034.903	7.09
1035.062	31.31
1035.22	-38.25
1035.378	22.59
1035.537	-42.71
1035.695	13.48
1035.853	-0.86
1036.011	44.67
1036.17	22.78
1036.328	-49.29
1036.486	0.69
1036.644	16
1036.802	-83.2
1036.96	-8.61
1037.119	11.35
1037.277	-26.43
1037.435	-46.19
1037.593	-25.27
1037.751	-6.67
1037.909	8.25
1038.067	8.25
