Data from pine_FLMT105791__79__17-21-19-077.txt Node

Date: Mon Mar 20 17:21:19 GMT 2023
User: antho
Spectrometer: FLMT10579
Trigger mode: 0
Integration Time (sec): 1.000000E-1
Scans to average: 10
Electric dark correction enabled: true
Nonlinearity correction enabled: false
Boxcar width: 0
XAxis mode: Wavelengths
Number of Pixels in Spectrum: 3648
>>>>>Begin Spectral Data<<<<<
345.248	-168.25
345.464	-168.25
345.681	-168.25
345.898	-169.42
346.114	-151.78
346.331	-48.52
346.548	52.81
346.764	16.97
346.981	-1.44
347.197	-9.77
347.414	12.13
347.631	-18.68
347.847	37.7
348.064	-23.91
348.28	28.21
348.497	-32.24
348.713	-13.26
348.93	37.12
349.146	35.57
349.363	14.26
349.579	25.3
349.796	-0.08
350.012	-10.35
350.229	26.66
350.445	12.13
350.661	-24.3
350.878	-3.57
351.094	-0.27
351.311	1.47
351.527	1.47
351.743	-15.97
351.96	49.52
352.176	39.06
352.392	3.41
352.609	47.97
352.825	-11.51
353.041	31.5
353.257	18.13
353.474	-1.24
353.69	-1.05
353.906	7.48
354.122	-16.16
354.339	58.82
354.555	-18.49
354.771	-8.22
354.987	59.98
355.203	59.59
355.42	-9.96
355.636	-2.21
355.852	-21.97
356.068	5.73
356.284	-16.55
356.5	65.02
356.716	11.35
356.932	29.56
357.148	28.01
357.364	0.5
357.58	37.12
357.796	75.87
358.012	55.91
358.228	38.28
358.444	-38.25
358.66	65.79
358.876	4.57
359.092	-6.67
359.308	21.43
359.524	28.98
359.74	11.74
359.956	1.08
360.172	16.97
360.388	53.78
360.604	-0.86
360.819	68.12
361.035	5.54
361.251	28.59
361.467	-43.87
361.683	49.71
361.898	48.36
362.114	42.74
362.33	16.19
362.546	58.43
362.762	10.96
362.977	-2.99
363.193	-22.17
363.409	58.04
363.624	-28.17
363.84	-9.77
364.056	-2.79
364.271	12.51
364.487	20.46
364.703	-27.21
364.918	-1.82
365.134	5.73
365.35	9.41
365.565	112.1
365.781	1.08
365.996	55.14
366.212	56.69
366.427	7.86
366.643	2.05
366.858	12.32
367.074	-23.72
367.289	56.3
367.505	118.3
367.72	-37.67
367.936	-1.44
368.151	40.99
368.367	42.35
368.582	17.16
368.798	17.94
369.013	62.89
369.228	7.09
369.444	1.66
369.659	65.6
369.874	14.84
370.09	68.12
370.305	-46.39
370.52	-28.95
370.736	55.91
370.951	-2.99
371.166	70.83
371.381	78.39
371.597	35.18
371.812	-20.62
372.027	-41.35
372.242	18.91
372.458	76.45
372.673	-8.41
372.888	28.98
373.103	22.78
373.318	105.12
373.533	27.82
373.749	28.01
373.964	-28.95
374.179	46.22
374.394	-10.74
374.609	73.74
374.824	-23.72
375.039	56.3
375.254	-2.21
375.469	76.64
375.684	32.28
375.899	87.11
376.114	5.54
376.329	24.33
376.544	58.62
376.759	24.14
376.974	-8.8
377.189	20.46
377.404	5.93
377.619	54.75
377.834	-7.06
378.049	-22.36
378.264	-18.1
378.478	18.13
378.693	-14.61
378.908	52.23
379.123	-16.16
379.338	48.16
379.553	14.26
379.767	28.01
379.982	41.19
380.197	28.79
380.412	25.69
380.626	8.44
380.841	76.26
381.056	36.73
381.271	85.56
381.485	-9.57
381.7	-34.96
381.915	39.44
382.129	-9.96
382.344	41.19
382.559	9.8
382.773	48.94
382.988	-42.12
383.202	22.2
383.417	-9.57
383.632	108.81
383.846	28.21
384.061	30.73
384.275	10.19
384.49	51.26
384.704	48.16
384.919	17.74
385.133	7.48
385.348	54.17
385.562	-2.79
385.777	61.14
385.991	22.98
386.206	-12.87
386.42	-19.26
386.634	43.9
386.849	50.1
387.063	47.97
387.277	-17.13
387.492	2.05
387.706	-33.21
387.92	-20.04
388.135	60.56
388.349	30.92
388.563	-4.73
388.778	29.95
388.992	44.09
389.206	31.69
389.42	88.07
389.635	12.71
389.849	40.02
390.063	54.56
390.277	12.51
390.491	51.84
390.706	47.97
390.92	61.34
391.134	48.36
391.348	48.16
391.562	-34.96
391.776	18.13
391.99	-14.42
392.205	36.92
392.419	-19.07
392.633	25.11
392.847	48.16
393.061	0.31
393.275	97.57
393.489	23.36
393.703	32.66
393.917	74.9
394.131	2.83
394.345	44.67
394.559	39.06
394.773	14.26
394.986	43.71
395.2	25.11
395.414	49.32
395.628	8.25
395.842	21.81
396.056	-6.67
396.27	-48.52
396.484	46.22
396.697	22.78
396.911	79.36
397.125	43.12
397.339	72.19
397.553	53.2
397.766	80.71
397.98	53.2
398.194	67.54
398.408	13.48
398.621	30.14
398.835	38.47
399.049	23.36
399.262	57.27
399.476	64.63
399.69	77.03
399.903	112.87
400.117	8.83
400.331	56.11
400.544	-2.79
400.758	151.04
400.971	33.24
401.185	66.37
401.398	19.1
401.612	77.61
401.826	72.57
402.039	66.57
402.253	3.41
402.466	60.56
402.68	5.15
402.893	36.92
403.106	31.31
403.32	25.49
403.533	35.38
403.747	54.94
403.96	26.85
404.174	64.24
404.387	7.28
404.6	54.17
404.814	74.51
405.027	58.24
405.24	40.61
405.454	39.64
405.667	60.95
405.88	-1.63
406.094	49.91
406.307	67.34
406.52	40.41
406.733	30.14
406.947	-8.61
407.16	98.54
407.373	74.71
407.586	16.58
407.799	1.47
408.012	49.13
408.226	59.01
408.439	88.07
408.652	-23.33
408.865	66.18
409.078	83.04
409.291	56.49
409.504	-23.72
409.717	65.41
409.93	24.91
410.143	20.65
410.357	0.5
410.57	-8.8
410.783	6.89
410.996	43.32
411.209	26.66
411.421	68.7
411.634	31.5
411.847	-0.66
412.06	46.61
412.273	41.19
412.486	44.87
412.699	119.85
412.912	21.23
413.125	49.52
413.338	21.04
413.55	65.41
413.763	49.32
413.976	52.42
414.189	43.51
414.402	20.07
414.615	78.97
414.827	25.11
415.04	73.16
415.253	75.67
415.466	77.03
415.678	84.01
415.891	49.52
416.104	64.24
416.316	20.84
416.529	25.49
416.742	96.99
416.954	84.59
417.167	42.54
417.38	34.21
417.592	86.72
417.805	20.26
418.017	-9.19
418.23	90.01
418.442	16.19
418.655	41.96
418.868	76.26
419.08	80.13
419.293	98.73
419.505	66.96
419.718	78.39
419.93	94.47
420.142	33.05
420.355	85.75
420.567	101.06
420.78	72.96
420.992	52.81
421.205	111.71
421.417	-3.18
421.629	28.98
421.842	25.3
422.054	16
422.266	66.18
422.479	70.06
422.691	32.28
422.903	95.24
423.115	51.46
423.328	53.59
423.54	73.16
423.752	47.39
423.964	60.37
424.177	53.97
424.389	63.86
424.601	181.46
424.813	59.98
425.025	100.09
425.238	113.65
425.45	69.09
425.662	43.51
425.874	354.48
426.086	82.46
426.298	89.43
426.51	86.91
426.722	59.21
426.934	26.46
427.146	94.47
427.358	43.9
427.57	106.67
427.782	61.72
427.994	56.3
428.206	65.99
428.418	20.46
428.63	81.68
428.842	105.71
429.054	86.33
429.266	86.33
429.478	75.09
429.69	69.28
429.902	42.74
430.114	116.56
430.325	101.25
430.537	48.74
430.749	83.62
430.961	28.59
431.173	66.96
431.384	63.27
431.596	-0.47
431.808	66.96
432.02	70.06
432.231	98.54
432.443	99.89
432.655	78.39
432.867	63.66
433.078	95.24
433.29	121.98
433.502	131.28
433.713	127.6
433.925	108.61
434.136	131.09
434.348	42.35
434.56	55.33
434.771	209.75
434.983	43.32
435.194	96.02
435.406	76.84
435.617	129.34
435.829	152.79
436.04	112.29
436.252	140
436.463	141.55
436.675	127.4
436.886	135.15
437.098	126.05
437.309	162.67
437.521	110.94
437.732	140
437.943	111.52
438.155	125.47
438.366	63.86
438.578	174.68
438.789	113.07
439	130.7
439.211	118.11
439.423	143.49
439.634	135.54
439.845	159.76
440.057	132.64
440.268	154.72
440.479	98.34
440.69	121.59
440.902	130.5
441.113	110.94
441.324	135.35
441.535	137.09
441.746	192.7
441.957	100.47
442.168	115.39
442.38	165.19
442.591	162.86
442.802	115.01
443.013	144.07
443.224	157.05
443.435	131.09
443.646	140.97
443.857	145.42
444.068	117.72
444.279	130.12
444.49	212.65
444.701	172.94
444.912	244.82
445.123	193.67
445.334	196.77
445.545	180.49
445.756	171.58
445.967	142.52
446.178	163.25
446.388	210.52
446.599	184.56
446.81	222.92
447.021	132.64
447.232	207.42
447.443	234.16
447.653	140.19
447.864	193.09
448.075	173.9
448.286	197.35
448.496	204.32
448.707	205.68
448.918	183.79
449.129	268.84
449.339	166.93
449.55	191.15
449.761	182.62
449.971	258.38
450.182	181.85
450.393	211.68
450.603	172.94
450.814	204.52
451.024	220.4
451.235	235.9
451.446	241.13
451.656	232.22
451.867	178.75
452.077	207.81
452.288	244.04
452.498	265.55
452.709	193.67
452.919	239
453.13	166.35
453.34	294.22
453.55	173.71
453.761	228.93
453.971	249.66
454.182	240.36
454.392	255.28
454.602	287.25
454.813	245.4
455.023	266.71
455.233	182.04
455.444	237.84
455.654	159.57
455.864	253.34
456.075	211.88
456.285	214.98
456.495	222.34
456.705	247.72
456.916	292.09
457.126	297.32
457.336	235.13
457.546	144.65
457.756	209.36
457.967	283.18
458.177	229.7
458.387	240.55
458.597	200.06
458.807	213.23
459.017	211.3
459.227	225.63
459.437	219.82
459.647	273.49
459.857	277.37
460.068	232.03
460.278	284.73
460.488	249.66
460.698	312.43
460.908	217.88
461.117	184.56
461.327	225.05
461.537	232.61
461.747	257.99
461.957	257.6
462.167	369.59
462.377	286.86
462.587	227.96
462.797	292.87
463.007	274.65
463.216	282.4
463.426	324.25
463.636	266.9
463.846	230.67
464.056	237.26
464.265	318.05
464.475	225.05
464.685	262.25
464.895	292.28
465.104	254.89
465.314	316.5
465.524	266.52
465.733	234.55
465.943	349.83
466.153	312.82
466.362	318.05
466.572	315.53
466.782	289.38
466.991	282.79
467.201	364.55
467.41	253.15
467.62	282.02
467.829	277.75
468.039	303.91
468.249	274.07
468.458	280.85
468.668	325.8
468.877	317.08
469.086	320.38
469.296	341.3
469.505	307.59
469.715	350.02
469.924	293.83
470.134	345.56
470.343	339.36
470.552	300.81
470.762	300.61
470.971	263.42
471.18	304.88
471.39	308.36
471.599	302.75
471.808	327.35
472.018	283.18
472.227	341.5
472.436	361.65
472.645	313.21
472.855	314.18
473.064	382.57
473.273	352.54
473.482	381.02
473.691	385.67
473.901	374.05
474.11	314.95
474.319	426.94
474.528	360.29
474.737	399.23
474.946	390.13
475.155	382.96
475.364	413.18
475.573	382.18
475.783	384.7
475.992	388.38
476.201	430.43
476.41	362.03
476.619	339.56
476.828	362.42
477.037	385.86
477.245	380.05
477.454	432.75
477.663	383.73
477.872	389.74
478.081	446.31
478.29	371.33
478.499	443.21
478.708	407.95
478.917	482.74
479.125	407.56
479.334	402.91
479.543	397.68
479.752	425
479.961	415.51
480.169	462.59
480.378	407.56
480.587	541.83
480.796	439.34
481.004	428.88
481.213	463.94
481.422	448.25
481.63	449.8
481.839	465.69
482.048	525.75
482.256	449.8
482.465	470.92
482.674	471.69
482.882	492.62
483.091	546.09
483.299	479.06
483.508	504.05
483.716	463.94
483.925	504.63
484.134	471.89
484.342	505.02
484.551	527.3
484.759	518.39
484.967	531.37
485.176	548.81
485.384	527.88
485.593	531.76
485.801	497.66
486.01	493.39
486.218	516.64
486.426	426.55
486.635	439.92
486.843	452.71
487.051	471.5
487.26	464.91
487.468	498.62
487.676	543.38
487.885	473.63
488.093	476.15
488.301	509.67
488.509	533.31
488.717	573.99
488.926	507.73
489.134	517.61
489.342	503.08
489.55	501.53
489.758	552.87
489.967	535.05
490.175	639.09
490.383	531.76
490.591	622.04
490.799	506.96
491.007	604.41
491.215	583.29
491.423	545.71
491.631	580.19
491.839	567.6
492.047	615.26
492.255	531.56
492.463	531.17
492.671	572.83
492.879	587.94
493.087	566.24
493.295	626.89
493.503	596.08
493.711	612.16
493.919	631.73
494.127	624.37
494.334	651.88
494.542	581.16
494.75	641.42
494.958	594.34
495.166	655.17
495.374	663.5
495.581	645.87
495.789	658.85
495.997	700.7
496.205	617.59
496.412	627.27
496.62	639.67
496.828	650.52
497.035	632.89
497.243	675.71
497.451	646.65
497.658	643.55
497.866	633.09
498.074	694.5
498.281	670.67
498.489	721.82
498.696	664.67
498.904	655.56
499.112	612.16
499.319	692.18
499.527	651.68
499.734	708.45
499.942	611.19
500.149	660.02
500.357	666.02
500.564	633.67
500.771	694.12
500.979	654.4
501.186	607.12
501.394	693.34
501.601	706.71
501.808	685.59
502.016	636.77
502.223	664.47
502.43	679.39
502.638	667.57
502.845	642.58
503.052	740.61
503.26	664.67
503.467	769.68
503.674	694.12
503.881	697.99
504.089	766.96
504.296	736.55
504.503	660.79
504.71	680.36
504.917	658.66
505.125	723.18
505.332	723.18
505.539	723.18
505.746	777.23
505.953	760.76
506.16	735.19
506.367	803.58
506.574	785.56
506.781	817.34
506.988	706.52
507.195	777.23
507.402	741.97
507.609	784.79
507.816	748.17
508.023	738.68
508.23	738.68
508.437	697.6
508.644	760.38
508.851	831.87
509.058	799.9
509.265	798.16
509.472	778.59
509.679	882.05
509.885	778.4
510.092	801.26
510.299	773.36
510.506	807.65
510.713	803.78
510.92	787.11
511.126	848.73
511.333	832.06
511.54	860.54
511.746	852.41
511.953	880.31
512.16	900.65
512.367	801.84
512.573	835.74
512.78	815.01
512.987	822.57
513.193	809.2
513.4	784.6
513.606	832.84
513.813	852.02
514.02	830.71
514.226	909.18
514.433	913.82
514.639	826.83
514.846	842.72
515.052	843.11
515.259	884.96
515.465	894.64
515.672	873.91
515.878	940.17
516.085	863.26
516.291	886.12
516.497	859.38
516.704	857.44
516.91	821.02
517.117	810.75
517.323	775.1
517.529	796.22
517.736	810.56
517.942	809.4
518.148	806.3
518.354	826.44
518.561	872.75
518.767	845.63
518.973	864.42
519.179	905.69
519.386	881.86
519.592	848.14
519.798	865.39
520.004	970.01
520.21	916.34
520.417	969.82
520.623	978.54
520.829	977.18
521.035	972.92
521.241	934.36
521.447	1006.82
521.653	1060.49
521.859	963.62
522.065	1013.41
522.271	1119
522.477	1054.29
522.683	1072.31
522.889	1008.76
523.095	1034.92
523.301	1027.17
523.507	1039.76
523.713	1024.26
523.919	1008.95
524.125	1066.5
524.331	1046.74
524.537	1106.22
524.742	1069.6
524.948	1091.1
525.154	1096.33
525.36	1183.52
525.566	1093.62
525.772	1178.1
525.977	1081.42
526.183	1113.38
526.389	1141.48
526.595	1104.08
526.8	1085.1
527.006	1035.5
527.212	997.52
527.417	1001.2
527.623	1021.94
527.829	1070.57
528.034	1083.94
528.24	1067.47
528.446	1058.75
528.651	1170.73
528.857	1161.05
529.062	1205.22
529.268	1156.01
529.473	1191.85
529.679	1137.99
529.884	1216.07
530.09	1179.06
530.295	1233.51
530.501	1207.74
530.706	1217.23
530.912	1148.84
531.117	1229.44
531.323	1229.25
531.528	1256.56
531.733	1220.72
531.939	1189.91
532.144	1221.5
532.35	1208.13
532.555	1237.58
532.76	1232.15
532.966	1228.28
533.171	1233.51
533.376	1174.8
533.581	1193.98
533.787	1195.92
533.992	1274.39
534.197	1270.51
534.402	1221.5
534.607	1231.18
534.813	1344.53
535.018	1227.89
535.223	1260.44
535.428	1272.45
535.633	1290.08
535.838	1273.81
536.043	1264.12
536.249	1373.59
536.454	1255.79
536.659	1313.14
536.864	1249.98
537.069	1273.81
537.274	1288.34
537.479	1304.81
537.684	1286.01
537.889	1250.17
538.094	1387.92
538.299	1290.08
538.504	1309.07
538.708	1308.49
538.913	1361.38
539.118	1299.96
539.323	1294.34
539.528	1291.44
539.733	1296.86
539.938	1322.24
540.142	1318.18
540.347	1296.86
540.552	1230.99
540.757	1307.33
540.962	1260.05
541.166	1221.3
541.371	1250.17
541.576	1318.56
541.781	1176.93
541.985	1296.09
542.19	1297.25
542.395	1358.47
542.599	1416.21
542.804	1340.65
543.008	1367.19
543.213	1315.66
543.418	1263.73
543.622	1311.98
543.827	1281.75
544.031	1386.37
544.236	1371.84
544.44	1355.96
544.645	1401.68
544.849	1350.14
545.054	1396.45
545.258	1437.72
545.463	1397.03
545.667	1312.56
545.872	1382.89
546.076	1384.24
546.281	1357.7
546.485	1353.05
546.689	1398.97
546.894	1395.67
547.098	1381.14
547.302	1342.39
547.507	1373.2
547.711	1401.1
547.915	1432.49
548.119	1354.99
548.324	1372.04
548.528	1461.55
548.732	1365.45
548.936	1413.89
549.141	1417.76
549.345	1401.29
549.549	1416.6
549.753	1377.27
549.957	1472.2
550.161	1437.14
550.366	1406.91
550.57	1386.57
550.774	1420.86
550.978	1382.31
551.182	1395.87
551.386	1397.42
551.59	1379.01
551.794	1383.86
551.998	1418.73
552.202	1424.74
552.406	1384.44
552.61	1427.64
552.814	1442.37
553.018	1471.43
553.222	1418.34
553.426	1412.92
553.63	1487.32
553.833	1404.97
554.037	1353.63
554.241	1392.96
554.445	1414.86
554.649	1422.61
554.853	1399.16
555.056	1461.74
555.26	1457.09
555.464	1441.79
555.668	1455.54
555.871	1430.16
556.075	1454.19
556.279	1385.02
556.483	1351.31
556.686	1385.02
556.89	1403.42
557.094	1412.53
557.297	1365.06
557.501	1451.09
557.704	1320.69
557.908	1388.51
558.112	1355.57
558.315	1439.46
558.519	1384.24
558.722	1363.9
558.926	1356.15
559.129	1315.66
559.333	1258.31
559.536	1292.79
559.74	1307.91
559.943	1283.11
560.147	1303.64
560.35	1334.84
560.553	1326.12
560.757	1267.99
560.96	1411.56
561.164	1326.7
561.367	1395.29
561.57	1318.37
561.774	1344.53
561.977	1331.93
562.18	1324.57
562.384	1398
562.587	1337.16
562.79	1316.63
562.993	1333.48
563.197	1348.4
563.4	1418.73
563.603	1389.28
563.806	1418.54
564.009	1324.76
564.212	1347.04
564.416	1311.78
564.619	1365.26
564.822	1297.64
565.025	1366.81
565.228	1305.19
565.431	1325.34
565.634	1227.89
565.837	1281.36
566.04	1256.95
566.243	1276.13
566.446	1198.83
566.649	1315.27
566.852	1251.33
567.055	1265.48
567.258	1306.94
567.461	1345.3
567.664	1360.22
567.867	1224.01
568.07	1277.29
568.273	1293.18
568.475	1316.24
568.678	1249.78
568.881	1214.71
569.084	1227.11
569.287	1180.23
569.489	1206
569.692	1268.77
569.895	1282.53
570.098	1162.4
570.3	1178.68
570.503	1125.2
570.706	1150
570.909	1185.46
571.111	1123.27
571.314	1129.27
571.516	1170.73
571.719	1175.58
571.922	1146.13
572.124	1185.65
572.327	1181.58
572.529	1144.58
572.732	1140.12
572.935	1192.43
573.137	1256.37
573.34	1151.55
573.542	1198.25
573.745	1205.03
573.947	1209.68
574.15	1148.84
574.352	1085.87
574.554	1200.76
574.757	1109.32
574.959	1135.08
575.162	1109.9
575.364	1113.58
575.566	1253.66
575.769	1071.73
575.971	1149.81
576.173	1020.77
576.376	1097.69
576.578	1140.7
576.78	1207.74
576.982	1046.74
577.185	1094.2
577.387	1065.72
577.589	1073.67
577.791	1170.15
577.993	1102.92
578.196	1095.75
578.398	1137.8
578.6	1134.12
578.802	1058.17
579.004	1053.32
579.206	1075.02
579.408	1094.4
579.61	1068.24
579.812	1104.86
580.014	1085.87
580.216	1089.94
580.418	1077.54
580.62	1054.1
580.822	1046.74
581.024	1101.18
581.226	1116.29
581.428	1101.95
581.63	1168.8
581.832	1107.77
582.034	1153.1
582.236	1094.4
582.438	1131.21
582.64	1142.45
582.841	1156.59
583.043	1199.99
583.245	1130.43
583.447	1149.03
583.649	1115.13
583.85	1104.67
584.052	1137.99
584.254	1065.34
584.456	1144
584.657	1093.62
584.859	1139.54
585.061	1109.12
585.262	1121.72
585.464	1046.74
585.666	1138.77
585.867	1060.49
586.069	1148.45
586.27	1106.02
586.472	1107.18
586.674	1058.36
586.875	1067.08
587.077	1060.1
587.278	1096.92
587.48	1077.93
587.681	1198.63
587.883	1105.83
588.084	1031.62
588.285	1064.37
588.487	1025.23
588.688	1043.05
588.89	975.63
589.091	969.04
589.292	968.66
589.494	983.96
589.695	960.52
589.896	894.64
590.098	881.86
590.299	959.94
590.5	899.68
590.702	931.07
590.903	983.77
591.104	1048.09
591.305	1006.24
591.507	1060.49
591.708	1032.59
591.909	986.29
592.11	1037.63
592.311	1031.24
592.512	1004.69
592.714	957.81
592.915	974.27
593.116	948.51
593.317	997.14
593.518	1007.6
593.719	975.05
593.92	1028.72
594.121	1066.11
594.322	1011.47
594.523	976.79
594.724	964.39
594.925	975.05
595.126	1007.99
595.327	976.02
595.528	998.3
595.729	1004.5
595.929	999.85
596.13	945.99
596.331	1005.47
596.532	1005.66
596.733	1051.58
596.934	1015.15
597.135	1042.47
597.335	980.09
597.536	968.46
597.737	1020.97
597.938	948.7
598.138	988.81
598.339	967.88
598.54	994.42
598.74	991.32
598.941	979.31
599.142	1040.34
599.342	985.12
599.543	950.06
599.744	1006.05
599.944	988.22
600.145	950.25
600.345	997.72
600.546	1071.15
600.746	1032.59
600.947	1075.41
601.147	1016.32
601.348	1029.69
601.548	941.72
601.749	1011.28
601.949	982.22
602.15	972.14
602.35	970.79
602.551	1003.92
602.751	940.95
602.951	985.12
603.152	926.03
603.352	1018.64
603.552	999.27
603.753	1032.01
603.953	1007.4
604.153	1022.52
604.354	994.42
604.554	974.47
604.754	964.01
604.954	952.19
605.155	1017.87
605.355	966.33
605.555	1010.5
605.755	1036.85
605.955	1015.74
606.155	1032.4
606.356	1002.37
606.556	1004.3
606.756	973.31
606.956	917.31
607.156	1022.9
607.356	954.12
607.556	960.71
607.756	959.36
607.956	1011.67
608.156	997.72
608.356	941.72
608.556	1025.42
608.756	981.64
608.956	936.3
609.156	957.61
609.356	917.7
609.556	894.45
609.755	954.12
609.955	952.38
610.155	937.85
610.355	978.73
610.555	961.29
610.755	932.04
610.954	882.24
611.154	970.59
611.354	954.32
611.554	939.01
611.753	912.86
611.953	875.85
612.153	961.1
612.352	979.12
612.552	880.31
612.752	858.22
612.951	927.97
613.151	915.96
613.351	890.58
613.55	918.86
613.75	946.76
613.949	882.05
614.149	912.27
614.348	893.09
614.548	868.88
614.747	835.36
614.947	877.01
615.146	789.44
615.346	929.32
615.545	877.79
615.745	919.83
615.944	902.39
616.144	858.8
616.343	894.64
616.542	866.94
616.742	876.24
616.941	831.09
617.14	793.9
617.34	830.9
617.539	818.89
617.738	861.71
617.938	919.44
618.137	865.97
618.336	844.46
618.535	885.54
618.734	878.37
618.934	886.7
619.133	845.43
619.332	888.44
619.531	823.54
619.73	879.92
619.929	884.38
620.128	898.91
620.328	926.42
620.527	825.09
620.726	843.3
620.925	878.76
621.124	867.71
621.323	906.08
621.522	835.36
621.721	852.21
621.92	838.46
622.119	866.94
622.318	832.64
622.517	871.01
622.715	856.28
622.914	798.16
623.113	812.69
623.312	778.2
623.511	861.32
623.71	839.04
623.909	827.41
624.107	883.21
624.306	789.25
624.505	810.95
624.704	822.38
624.902	809.59
625.101	883.41
625.3	832.06
625.499	809.59
625.697	775.1
625.896	790.21
626.095	832.45
626.293	753.21
626.492	792.35
626.69	817.92
626.889	785.18
627.088	860.54
627.286	788.66
627.485	773.36
627.683	788.08
627.882	801.06
628.08	732.87
628.279	753.4
628.477	838.84
628.676	758.25
628.874	789.25
629.073	772.78
629.271	762.9
629.469	787.11
629.668	772.39
629.866	755.34
630.065	725.7
630.263	792.15
630.461	735.96
630.66	785.37
630.858	792.73
631.056	806.3
631.254	824.51
631.453	737.9
631.651	767.16
631.849	768.71
632.047	789.83
632.245	770.06
632.444	790.02
632.642	786.92
632.84	814.82
633.038	762.51
633.236	725.7
633.434	730.35
633.632	718.14
633.83	719.11
634.028	762.7
634.227	761.35
634.425	830.71
634.623	762.7
634.821	763.09
635.019	780.91
635.216	734.61
635.414	766
635.612	764.25
635.81	738.1
636.008	830.51
636.206	753.01
636.404	768.9
636.602	743.91
636.8	734.42
636.997	763.67
637.195	796.22
637.393	764.64
637.591	825.86
637.789	766.19
637.986	749.33
638.184	802.23
638.382	821.02
638.58	815.98
638.777	837.1
638.975	773.55
639.173	785.76
639.37	794.67
639.568	795.06
639.765	805.52
639.963	758.83
640.161	799.9
640.358	800.1
640.556	744.1
640.753	768.71
640.951	756.31
641.148	798.74
641.346	761.73
641.543	735.19
641.741	776.26
641.938	735.77
642.136	767.16
642.333	736.93
642.531	814.63
642.728	810.56
642.925	727.83
643.123	747.2
643.32	755.15
643.517	770.84
643.715	770.26
643.912	726.08
644.109	740.61
644.306	746.62
644.504	707.1
644.701	756.89
644.898	784.01
645.095	752.05
645.293	736.74
645.49	767.35
645.687	725.5
645.884	774.52
646.081	668.54
646.278	684.82
646.475	692.37
646.672	736.93
646.87	739.26
647.067	747.98
647.264	729.57
647.461	663.89
647.658	647.23
647.855	713.88
648.052	671.06
648.249	620.88
648.446	658.47
648.642	648.78
648.839	691.4
649.036	646.45
649.233	614.49
649.43	655.75
649.627	634.05
649.824	641.03
650.021	649.75
650.217	642
650.414	664.28
650.611	663.89
650.808	692.95
651.004	662.92
651.201	704.38
651.398	699.73
651.595	660.02
651.791	638.9
651.988	699.15
652.185	662.15
652.381	680.36
652.578	599.57
652.775	651.88
652.971	636.19
653.168	639.48
653.364	689.08
653.561	619.14
653.757	657.3
653.954	666.22
654.15	643.16
654.347	705.93
654.543	646.26
654.74	559.66
654.936	609.06
655.133	637.35
655.329	619.14
655.525	621.46
655.722	670.67
655.918	574.19
656.115	623.2
656.311	568.76
656.507	539.7
656.704	505.41
656.9	548.81
657.096	570.7
657.292	528.66
657.489	613.52
657.685	596.47
657.881	565.85
658.077	584.45
658.273	583.29
658.47	637.93
658.666	579.61
658.862	650.91
659.058	624.17
659.254	636.38
659.45	573.99
659.646	626.89
659.842	615.84
660.038	658.47
660.234	568.18
660.43	635.02
660.626	683.65
660.822	648
661.018	646.45
661.214	633.86
661.41	591.82
661.606	665.83
661.802	653.04
661.998	629.21
662.194	617.39
662.39	653.04
662.586	621.65
662.781	632.5
662.977	631.54
663.173	638.9
663.369	595.11
663.564	600.54
663.76	635.02
663.956	615.84
664.152	687.92
664.347	585.23
664.543	601.31
664.739	616.81
664.934	560.04
665.13	546.48
665.326	627.66
665.521	627.27
665.717	573.22
665.912	569.73
666.108	495.91
666.304	557.52
666.499	579.03
666.695	509.28
666.89	601.31
667.086	595.69
667.281	590.85
667.477	612.16
667.672	602.09
667.867	576.7
668.063	570.5
668.258	557.52
668.454	563.34
668.649	662.92
668.844	595.89
669.04	586.59
669.235	550.74
669.43	561.4
669.626	539.89
669.821	535.82
670.016	523.62
670.211	537.37
670.407	533.69
670.602	552.87
670.797	538.34
670.992	595.89
671.187	537.96
671.382	589.1
671.578	496.69
671.773	585.23
671.968	519.16
672.163	547.45
672.358	575.35
672.553	527.11
672.748	524.97
672.943	628.44
673.138	548.42
673.333	600.34
673.528	515.67
673.723	553.46
673.918	548.61
674.113	508.7
674.308	612.55
674.503	538.92
674.698	597.05
674.892	568.37
675.087	576.12
675.282	601.7
675.477	529.62
675.672	574.77
675.867	553.07
676.061	512.77
676.256	484.29
676.451	510.83
676.646	537.37
676.84	473.05
677.035	511.99
677.23	514.32
677.424	545.32
677.619	573.41
677.814	569.73
678.008	554.23
678.203	503.27
678.397	519.36
678.592	552.87
678.787	574.38
678.981	530.98
679.176	539.89
679.37	525.56
679.565	507.73
679.759	495.72
679.954	533.11
680.148	598.99
680.342	609.06
680.537	568.76
680.731	535.24
680.926	557.14
681.12	565.08
681.314	488.36
681.509	524.59
681.703	530.01
681.897	582.71
682.092	533.31
682.286	515.48
682.48	601.12
682.674	563.14
682.869	555.97
683.063	554.42
683.257	582.52
683.451	500.17
683.645	558.88
683.839	519.74
684.034	553.46
684.228	584.65
684.422	487
684.616	487.77
684.81	571.28
685.004	528.85
685.198	539.12
685.392	571.86
685.586	528.27
685.78	537.96
685.974	579.22
686.168	566.82
686.362	596.27
686.556	508.31
686.75	476.54
686.944	467.43
687.138	480.02
687.331	382.76
687.525	415.51
687.719	376.37
687.913	438.95
688.107	454.64
688.301	414.93
688.494	449.41
688.688	426.16
688.882	400.2
689.076	404.08
689.269	460.46
689.463	531.56
689.657	441.66
689.85	429.26
690.044	454.26
690.238	476.73
690.431	406.79
690.625	473.44
690.818	479.06
691.012	454.64
691.205	526.14
691.399	438.37
691.593	532.14
691.786	545.71
691.98	578.84
692.173	575.15
692.366	542.22
692.56	547.06
692.753	599.18
692.947	519.55
693.14	614.68
693.333	582.9
693.527	532.34
693.72	572.44
693.914	555.78
694.107	564.5
694.3	573.02
694.493	569.92
694.687	606.93
694.88	570.31
695.073	642.19
695.266	603.25
695.46	605.38
695.653	675.52
695.846	657.3
696.039	556.75
696.232	593.95
696.425	640.25
696.618	679.78
696.812	651.88
697.005	724.73
697.198	786.53
697.391	697.02
697.584	710.78
697.777	778.98
697.97	725.12
698.163	736.35
698.356	721.63
698.549	842.72
698.742	778.4
698.935	722.21
699.127	771.23
699.32	740.81
699.513	698.57
699.706	760.96
699.899	817.34
700.092	755.92
700.285	791.96
700.477	738.48
700.67	807.26
700.863	814.82
701.056	891.93
701.248	861.13
701.441	856.28
701.634	825.28
701.826	912.27
702.019	818.31
702.212	856.67
702.404	806.49
702.597	852.99
702.79	847.76
702.982	896.97
703.175	927.58
703.367	891.93
703.56	910.72
703.752	999.85
703.945	939.21
704.137	957.03
704.33	964.97
704.522	1013.02
704.715	1008.18
704.907	1005.08
705.1	1047.51
705.292	1061.07
705.484	1047.51
705.677	1060.69
705.869	1030.46
706.061	1079.29
706.254	1100.98
706.446	1081.22
706.638	1050.61
706.831	1143.42
707.023	1072.31
707.215	1201.54
707.407	1151.55
707.599	1153.68
707.792	1206.58
707.984	1210.84
708.176	1217.23
708.368	1199.21
708.56	1234.67
708.752	1184.88
708.944	1212.2
709.136	1219.36
709.329	1208.71
709.521	1317.79
709.713	1313.53
709.905	1290.86
710.097	1320.69
710.289	1283.11
710.481	1279.62
710.672	1331.16
710.864	1350.14
711.056	1375.91
711.248	1357.51
711.44	1350.72
711.632	1347.43
711.824	1370.68
712.016	1453.6
712.207	1428.03
712.399	1431.91
712.591	1476.47
712.783	1460
712.975	1492.55
713.166	1403.81
713.358	1439.46
713.55	1509.21
713.741	1490.22
713.933	1524.52
714.125	1502.82
714.316	1493.71
714.508	1509.99
714.7	1525.29
714.891	1499.72
715.083	1593.49
715.274	1530.52
715.466	1541.18
715.657	1534.78
715.849	1508.82
716.04	1529.94
716.232	1479.76
716.423	1561.33
716.615	1433.84
716.806	1464.45
716.998	1417.37
717.189	1388.7
717.381	1298.41
717.572	1266.44
717.763	1320.69
717.955	1304.81
718.146	1291.83
718.337	1216.65
718.528	1231.18
718.72	1136.05
718.911	1238.55
719.102	1191.08
719.293	1282.91
719.485	1211.61
719.676	1219.95
719.867	1181
720.058	1171.9
720.249	1184.68
720.44	1216.07
720.632	1277.1
720.823	1334.26
721.014	1363.12
721.205	1387.92
721.396	1438.69
721.587	1553.77
721.778	1519.29
721.969	1552.61
722.16	1601.43
722.351	1591.36
722.542	1701.79
722.733	1705.09
722.924	1620.61
723.115	1670.41
723.305	1647.16
723.496	1686.1
723.687	1587.87
723.878	1590.97
724.069	1571.4
724.26	1601.82
724.45	1528.78
724.641	1562.68
724.832	1564.62
725.023	1580.7
725.213	1568.5
725.404	1552.42
725.595	1516.96
725.785	1513.28
725.976	1583.42
726.167	1602.4
726.357	1593.1
726.548	1722.91
726.739	1591.55
726.929	1692.11
727.12	1694.43
727.31	1699.66
727.501	1620.42
727.691	1655.1
727.882	1662.46
728.072	1726.4
728.263	1758.18
728.453	1709.74
728.644	1749.07
728.834	1725.43
729.024	1721.36
729.215	1706.25
729.405	1731.05
729.596	1806.03
729.786	1825.41
729.976	1814.94
730.167	1847.69
730.357	1768.83
730.547	1796.54
730.737	1834.51
730.928	1891.47
731.118	1923.83
731.308	1844.39
731.498	1869
731.688	1969.36
731.879	1929.25
732.069	1992.22
732.259	1969.17
732.449	2023.61
732.639	2098.4
732.829	2105.18
733.019	2110.21
733.209	2175.12
733.399	2159.04
733.589	2236.92
733.779	2248.16
733.969	2211.35
734.159	2259.01
734.349	2327.21
734.539	2335.15
734.729	2324.5
734.919	2320.43
735.109	2369.06
735.299	2316.36
735.488	2343.87
735.678	2366.15
735.868	2357.44
736.058	2375.07
736.248	2311.13
736.437	2340.39
736.627	2258.62
736.817	2389.02
737.007	2366.15
737.196	2458.57
737.386	2351.04
737.576	2374.29
737.765	2447.92
737.955	2454.7
738.144	2498.68
738.334	2477.37
738.524	2415.37
738.713	2436.87
738.903	2475.43
739.092	2514.37
739.282	2483.76
739.471	2488.99
739.661	2499.65
739.85	2549.25
740.04	2471.17
740.229	2529.1
740.419	2559.9
740.608	2570.75
740.797	2552.35
740.987	2606.79
741.176	2565.52
741.365	2539.75
741.555	2514.95
741.744	2587.41
741.933	2577.14
742.123	2580.24
742.312	2574.24
742.501	2652.51
742.69	2669.37
742.88	2575.98
743.069	2690.49
743.258	2634.49
743.447	2705.21
743.636	2671.89
743.825	2667.62
744.014	2668.4
744.204	2667.62
744.393	2649.41
744.582	2688.36
744.771	2723.81
744.96	2628.88
745.149	2716.84
745.338	2638.76
745.527	2673.63
745.716	2681.96
745.905	2659.68
746.094	2691.07
746.283	2691.46
746.471	2722.65
746.66	2778.64
746.849	2737.76
747.038	2718.58
747.227	2745.12
747.416	2736.6
747.604	2665.11
747.793	2693.59
747.982	2772.44
748.171	2724.2
748.359	2762.95
748.548	2702.5
748.737	2713.16
748.926	2690.1
749.114	2609.5
749.303	2676.73
749.491	2723.62
749.68	2641.08
749.869	2699.01
750.057	2694.75
750.246	2669.56
750.434	2693.01
750.623	2711.99
750.811	2693.59
751	2694.94
751.188	2691.84
751.377	2670.14
751.565	2673.44
751.754	2639.73
751.942	2655.61
752.131	2685.26
752.319	2648.44
752.507	2603.69
752.696	2670.92
752.884	2690.29
753.072	2644.38
753.261	2633.91
753.449	2696.3
753.637	2605.04
753.825	2775.93
754.014	2623.26
754.202	2663.56
754.39	2722.84
754.578	2681.77
754.766	2645.34
754.955	2600.59
755.143	2695.52
755.331	2642.05
755.519	2620.54
755.707	2638.76
755.895	2620.54
756.083	2617.06
756.271	2584.89
756.459	2561.65
756.647	2659.49
756.835	2620.35
757.023	2595.55
757.211	2583.15
757.399	2565.52
757.587	2586.44
757.775	2524.06
757.963	2555.83
758.151	2573.66
758.339	2535.88
758.526	2514.95
758.714	2554.09
758.902	2450.63
759.09	2365.57
759.278	2236.92
759.465	2064.49
759.653	1782.01
759.841	1655.68
760.028	1373.97
760.216	1195.53
760.404	1128.88
760.591	960.32
760.779	780.33
760.967	678.03
761.154	557.14
761.342	590.65
761.529	595.89
761.717	668.73
761.905	614.49
762.092	695.28
762.28	683.27
762.467	662.15
762.655	616.81
762.842	646.26
763.029	641.42
763.217	642
763.404	671.45
763.592	653.62
763.779	616.23
763.966	654.2
764.154	694.12
764.341	750.88
764.528	775.3
764.716	790.8
764.903	867.52
765.09	898.52
765.277	920.99
765.465	1079.09
765.652	1111.06
765.839	1152.91
766.026	1279.43
766.213	1312.36
766.4	1384.44
766.588	1562.49
766.775	1523.93
766.962	1608.41
767.149	1663.43
767.336	1781.04
767.523	1755.85
767.71	1845.94
767.897	1942.04
768.084	1982.73
768.271	2029.62
768.458	2083.86
768.645	2112.15
768.832	2085.03
769.019	2080.18
769.206	2113.12
769.392	2180.93
769.579	2302.22
769.766	2226.46
769.953	2200.89
770.14	2273.93
770.327	2244.29
770.513	2307.45
770.7	2355.89
770.887	2256.88
771.073	2326.24
771.26	2309.77
771.447	2307.84
771.634	2276.45
771.82	2375.84
772.007	2312.1
772.193	2310.55
772.38	2363.83
772.567	2309.19
772.753	2322.37
772.94	2360.73
773.126	2345.42
773.313	2365.96
773.499	2364.8
773.686	2377.78
773.872	2309.77
774.059	2341.94
774.245	2268.12
774.432	2308.8
774.618	2256.88
774.804	2325.66
774.991	2276.45
775.177	2318.69
775.363	2273.16
775.55	2327.6
775.736	2234.21
775.922	2289.24
776.109	2259.59
776.295	2297.18
776.481	2308.03
776.667	2301.25
776.853	2251.26
777.04	2266.18
777.226	2280.71
777.412	2350.46
777.598	2241.96
777.784	2219.88
777.97	2222.39
778.156	2235.57
778.342	2237.12
778.528	2231.89
778.715	2151.68
778.901	2197.01
779.087	2231.89
779.272	2221.81
779.458	2178.03
779.644	2203.41
779.83	2159.62
780.016	2280.32
780.202	2190.81
780.388	2186.16
780.574	2114.48
780.76	2153.61
780.946	2126.1
781.131	2143.34
781.317	2181.32
781.503	2135.21
781.689	2171.83
781.874	2296.79
782.06	2141.99
782.246	2156.33
782.432	2123.39
782.617	2151.68
782.803	2193.14
782.989	2121.84
783.174	2114.28
783.36	2069.33
783.545	2084.83
783.731	2038.53
783.916	2020.32
784.102	2072.82
784.288	2069.14
784.473	2062.16
784.659	2077.86
784.844	2121.26
785.029	2039.5
785.215	2065.26
785.4	2013.34
785.586	2105.95
785.771	1994.74
785.956	2051.51
786.142	2028.07
786.327	1994.93
786.512	1972.65
786.698	2031.75
786.883	1930.61
787.068	1982.92
787.254	1999.78
787.439	1951.73
787.624	1975.75
787.809	1953.28
787.994	1963.74
788.18	2037.17
788.365	1940.3
788.55	1910.85
788.735	1909.3
788.92	1942.82
789.105	1892.05
789.29	1942.82
789.475	1879.27
789.66	1889.34
789.845	1854.27
790.03	1853.69
790.215	1893.8
790.4	1946.69
790.585	1958.32
790.77	1870.74
790.955	1815.14
791.14	1893.6
791.325	1918.4
791.51	1784.72
791.695	1862.22
791.879	1827.92
792.064	1796.54
792.249	1930.8
792.434	1825.41
792.618	1846.72
792.803	1846.52
792.988	1853.69
793.173	1815.33
793.357	1888.57
793.542	1852.72
793.727	1881.79
793.911	1884.3
794.096	1855.05
794.281	1873.45
794.465	1934.29
794.65	1860.47
794.834	1874.23
795.019	1916.85
795.203	1943.01
795.388	1915.5
795.572	1930.03
795.757	1891.47
795.941	1866.09
796.126	1914.14
796.31	1815.14
796.494	1896.32
796.679	1866.48
796.863	1857.96
797.048	1943.4
797.232	1886.05
797.416	1900.19
797.601	1884.3
797.785	1924.22
797.969	1932.55
798.153	1890.31
798.338	1914.14
798.522	1910.46
798.706	1948.05
798.89	1942.24
799.074	1993.38
799.258	1957.74
799.443	1932.74
799.627	1904.26
799.811	1970.52
799.995	1921.89
800.179	1889.92
800.363	1876.75
800.547	1932.55
800.731	1965.87
800.915	1899.8
801.099	1916.47
801.283	1906.78
801.467	1899.22
801.651	1924.6
801.835	1963.35
802.019	1911.82
802.202	1932.35
802.386	1856.99
802.57	1888.37
802.754	1903.87
802.938	1840.91
803.121	1895.74
803.305	1909.69
803.489	1936.62
803.673	1936.81
803.856	1939.14
804.04	1929.45
804.224	1910.85
804.407	1882.56
804.591	1871.52
804.775	1916.27
804.958	1877.72
805.142	1973.82
805.326	1899.8
805.509	1898.64
805.693	1972.07
805.876	1932.94
806.06	1916.47
806.243	1965.1
806.427	1949.79
806.61	1943.59
806.794	1929.25
806.977	1972.65
807.16	1919.37
807.344	1927.12
807.527	1943.01
807.71	1912.79
807.894	1929.06
808.077	1950.18
808.26	1897.67
808.444	1862.8
808.627	1951.34
808.81	1854.66
808.993	1865.32
809.177	1870.16
809.36	1864.16
809.543	1882.56
809.726	1791.31
809.909	1807.19
810.092	1786.46
810.276	1807.77
810.459	1833.54
810.642	1825.99
810.825	1785.11
811.008	1778.71
811.191	1724.27
811.374	1716.91
811.557	1719.23
811.74	1774.45
811.923	1646.96
812.106	1644.06
812.289	1610.93
812.472	1665.56
812.654	1683
812.837	1629.91
813.02	1563.07
813.203	1609.57
813.386	1522
813.569	1513.86
813.751	1421.64
813.934	1488.87
814.117	1485.77
814.3	1439.07
814.482	1409.43
814.665	1406.33
814.848	1357.31
815.03	1305.39
815.213	1312.36
815.396	1327.67
815.578	1301.13
815.761	1263.54
815.943	1320.89
816.126	1227.7
816.309	1211.42
816.491	1188.17
816.674	1129.47
816.856	1159.5
817.039	1182.16
817.221	1239.13
817.403	1170.93
817.586	1189.72
817.768	1223.43
817.951	1147.29
818.133	1120.55
818.315	1154.85
818.498	1199.02
818.68	1270.32
818.862	1174.61
819.045	1279.04
819.227	1220.14
819.409	1213.94
819.591	1261.02
819.774	1241.26
819.956	1197.28
820.138	1258.89
820.32	1214.33
820.502	1249.98
820.684	1321.28
820.866	1361.38
821.048	1404.59
821.231	1362.54
821.413	1354.21
821.595	1332.13
821.777	1364.67
821.959	1347.04
822.141	1430.16
822.323	1290.86
822.505	1243.78
822.686	1221.69
822.868	1180.03
823.05	1070.57
823.232	1042.67
823.414	1019.42
823.596	1085.68
823.778	1056.23
823.96	1099.05
824.141	1084.52
824.323	1099.24
824.505	1150.97
824.687	1189.72
824.868	1244.94
825.05	1312.94
825.232	1349.95
825.413	1408.07
825.595	1304.81
825.777	1272.06
825.958	1325.54
826.14	1273.42
826.321	1349.95
826.503	1307.33
826.685	1352.08
826.866	1372.62
827.048	1342.78
827.229	1317.59
827.411	1254.24
827.592	1232.35
827.773	1262.96
827.955	1168.22
828.136	1218.01
828.318	1193.21
828.499	1234.28
828.68	1155.04
828.862	1178.87
829.043	1219.56
829.224	1159.69
829.406	1144.77
829.587	1159.88
829.768	1171.51
829.949	1201.35
830.131	1186.62
830.312	1286.59
830.493	1213.36
830.674	1202.9
830.855	1187.59
831.036	1194.56
831.218	1228.08
831.399	1272.84
831.58	1189.33
831.761	1182.36
831.942	1219.95
832.123	1178.48
832.304	1145.55
832.485	1181
832.666	1184.1
832.847	1207.93
833.028	1205.22
833.209	1211.42
833.389	1196.7
833.57	1142.45
833.751	1183.71
833.932	1216.85
834.113	1217.62
834.294	1157.56
834.475	1211.81
834.655	1278.46
834.836	1281.75
835.017	1236.8
835.198	1183.52
835.378	1224.98
835.559	1263.93
835.74	1180.03
835.92	1201.15
836.101	1156.01
836.281	1214.13
836.462	1215.88
836.643	1246.1
836.823	1259.86
837.004	1256.18
837.184	1304.23
837.365	1257.53
837.545	1281.17
837.726	1268.58
837.906	1263.73
838.087	1232.73
838.267	1247.65
838.448	1206.77
838.628	1256.76
838.808	1226.34
838.989	1305.39
839.169	1187.01
839.349	1273.23
839.53	1278.07
839.71	1247.46
839.89	1224.01
840.07	1296.09
840.251	1209.1
840.431	1312.94
840.611	1239.13
840.791	1186.62
840.971	1241.65
841.151	1227.31
841.332	1245.52
841.512	1242.61
841.692	1136.63
841.872	1254.43
842.052	1240.48
842.232	1271.48
842.412	1196.31
842.592	1202.51
842.772	1264.51
842.952	1224.4
843.132	1204.06
843.312	1216.46
843.492	1184.49
843.672	1211.42
843.851	1148.26
844.031	1203.09
844.211	1199.8
844.391	1178.68
844.571	1226.15
844.751	1237.77
844.93	1199.8
845.11	1148.84
845.29	1173.83
845.47	1244.94
845.649	1167.63
845.829	1218.78
846.009	1176.74
846.188	1209.1
846.368	1202.51
846.547	1187.4
846.727	1239.32
846.907	1127.92
847.086	1188.17
847.266	1214.13
847.445	1198.63
847.625	1191.27
847.804	1162.21
847.984	1169.96
848.163	1156.01
848.343	1162.79
848.522	1202.31
848.701	1151.36
848.881	1119
849.06	1151.17
849.239	1171.9
849.419	1160.85
849.598	1089.17
849.777	1108.73
849.957	1152.13
850.136	1028.91
850.315	1050.61
850.494	1055.84
850.674	1049.06
850.853	1124.82
851.032	1080.45
851.211	1085.87
851.39	1100.4
851.569	1056.04
851.748	1052.94
851.927	1085.1
852.107	1104.86
852.286	1041.5
852.465	1041.89
852.644	1075.02
852.823	1056.42
853.002	1107.18
853.181	1099.82
853.359	1100.98
853.538	1026.2
853.717	1091.68
853.896	1006.63
854.075	968.66
854.254	961.1
854.433	899.29
854.611	946.37
854.79	908.59
854.969	993.46
855.148	970.01
855.327	908.4
855.505	957.22
855.684	939.01
855.863	950.83
856.041	940.56
856.22	989.19
856.399	955.09
856.577	1033.17
856.756	1032.98
856.934	1128.69
857.113	1142.06
857.291	1035.5
857.47	1047.9
857.648	1057.59
857.827	1077.93
858.005	1089.55
858.184	1016.9
858.362	1097.88
858.541	1019.03
858.719	1005.47
858.898	1026.97
859.076	998.3
859.254	1072.5
859.433	1027.55
859.611	995.59
859.789	984.16
859.967	1041.31
860.146	1086.45
860.324	988.61
860.502	994.04
860.68	920.41
860.859	990.94
861.037	990.16
861.215	1015.54
861.393	997.33
861.571	988.22
861.749	951.99
861.927	987.26
862.105	1016.9
862.283	1027.17
862.461	947.15
862.639	922.16
862.817	959.55
862.995	964.39
863.173	925.06
863.351	955.09
863.529	978.15
863.707	1008.76
863.885	982.22
864.063	913.63
864.241	921.38
864.418	1008.37
864.596	934.94
864.774	905.69
864.952	960.71
865.129	958.19
865.307	902.78
865.485	896.78
865.663	961.1
865.84	898.33
866.018	914.21
866.196	819.28
866.373	837.68
866.551	820.63
866.728	773.36
866.906	798.16
867.084	838.46
867.261	846.21
867.439	873.33
867.616	882.05
867.794	894.06
867.971	898.91
868.149	845.82
868.326	950.44
868.503	935.52
868.681	920.99
868.858	859.58
869.035	880.11
869.213	905.49
869.39	858.03
869.567	957.81
869.745	869.46
869.922	887.48
870.099	900.65
870.276	926.42
870.454	900.46
870.631	886.51
870.808	856.86
870.985	898.71
871.162	932.81
871.339	901.04
871.517	846.98
871.694	828.38
871.871	857.25
872.048	865.58
872.225	836.13
872.402	874.11
872.579	796.41
872.756	877.59
872.933	851.05
873.11	868.49
873.287	859.96
873.463	810.17
873.64	829.35
873.817	882.83
873.994	849.69
874.171	834.39
874.348	859.77
874.524	791.96
874.701	835.36
874.878	795.06
875.055	857.06
875.231	841.36
875.408	842.72
875.585	803.2
875.762	847.18
875.938	797.96
876.115	810.75
876.291	814.82
876.468	802.42
876.645	736.35
876.821	786.92
876.998	790.21
877.174	804.36
877.351	768.32
877.527	784.79
877.704	819.66
877.88	835.16
878.057	765.8
878.233	809.01
878.409	756.5
878.586	781.5
878.762	811.53
878.938	769.29
879.115	722.98
879.291	773.55
879.467	727.05
879.644	758.05
879.82	799.32
879.996	722.21
880.172	719.88
880.349	740.42
880.525	797.58
880.701	712.33
880.877	759.8
881.053	757.86
881.229	744.88
881.405	784.79
881.581	727.63
881.757	730.73
881.933	746.04
882.109	771.03
882.285	739.45
882.461	721.05
882.637	719.88
882.813	737.13
882.989	763.09
883.165	817.34
883.341	712.33
883.517	794.67
883.693	748.56
883.869	770.26
884.044	723.76
884.22	743.33
884.396	779.17
884.572	784.6
884.747	793.31
884.923	768.71
885.099	746.81
885.275	784.98
885.45	745.65
885.626	762.12
885.801	704.19
885.977	742.55
886.153	678.42
886.328	743.13
886.504	734.03
886.679	738.68
886.855	700.51
887.03	779.56
887.206	761.93
887.381	746.62
887.557	768.32
887.732	755.15
887.908	771.61
888.083	784.98
888.258	720.47
888.434	735.19
888.609	727.05
888.784	768.51
888.96	720.66
889.135	709.42
889.31	689.27
889.485	761.73
889.661	739.65
889.836	778.59
890.011	742.94
890.186	743.52
890.361	725.12
890.537	730.35
890.712	723.18
890.887	727.25
891.062	727.05
891.237	754.95
891.412	705.35
891.587	768.71
891.762	776.85
891.937	794.09
892.112	719.88
892.287	725.12
892.462	690.43
892.637	664.28
892.812	645.49
892.987	663.31
893.161	642
893.336	670.87
893.511	702.25
893.686	673
893.861	680.36
894.035	667.38
894.21	686.37
894.385	635.02
894.56	656.72
894.734	595.89
894.909	630.76
895.084	618.94
895.258	631.92
895.433	616.42
895.608	607.12
895.782	579.03
895.957	585.62
896.131	534.66
896.306	511.02
896.48	515.29
896.655	548.61
896.829	464.33
897.004	492.04
897.178	506.37
897.353	488.16
897.527	541.83
897.701	492.42
897.876	422.09
898.05	551.32
898.224	545.32
898.399	548.61
898.573	521.1
898.747	401.17
898.921	493.97
899.096	383.73
899.27	401.94
899.444	409.5
899.618	412.99
899.792	441.66
899.967	433.33
900.141	478.47
900.315	385.09
900.489	415.51
900.663	466.85
900.837	465.11
901.011	391.09
901.185	513.74
901.359	425.39
901.533	454.26
901.707	460.26
901.881	439.73
902.055	373.46
902.229	426.55
902.403	492.23
902.576	406.59
902.75	460.07
902.924	543.19
903.098	482.93
903.272	505.79
903.446	547.84
903.619	518.77
903.793	549.39
903.967	529.04
904.14	562.37
904.314	563.14
904.488	556.94
904.661	568.37
904.835	554.23
905.009	563.92
905.182	611.77
905.356	571.67
905.529	555.78
905.703	523.62
905.876	511.8
906.05	496.11
906.223	493.97
906.397	446.7
906.57	440.5
906.744	453.68
906.917	434.49
907.09	413.57
907.264	434.49
907.437	408.73
907.61	382.76
907.784	394
907.957	394.39
908.13	377.34
908.304	451.54
908.477	394.78
908.65	409.69
908.823	360.87
908.996	443.02
909.17	382.96
909.343	373.66
909.516	375.01
909.689	380.83
909.862	367.46
910.035	366.88
910.208	348.86
910.381	342.08
910.554	465.11
910.727	368.81
910.9	377.34
911.073	337.81
911.246	437.4
911.419	421.9
911.592	430.81
911.765	342.27
911.938	355.83
912.11	387.41
912.283	354.28
912.456	438.18
912.629	420.93
912.802	350.21
912.974	326.77
913.147	303.91
913.32	269.23
913.493	294.03
913.665	331.81
913.838	352.35
914.01	329.29
914.183	336.26
914.356	305.65
914.528	340.14
914.701	415.12
914.873	384.7
915.046	344.6
915.218	319.02
915.391	249.66
915.563	295.19
915.736	334.71
915.908	376.37
916.081	308.17
916.253	323.86
916.425	328.9
916.598	366.1
916.77	330.84
916.942	312.05
917.115	245.78
917.287	326.58
917.459	294.22
917.632	269.62
917.804	240.36
917.976	323.86
918.148	307.2
918.32	306.23
918.493	362.23
918.665	376.76
918.837	336.26
919.009	370.17
919.181	368.81
919.353	362.61
919.525	342.85
919.697	321.35
919.869	323.86
920.041	398.46
920.213	450.19
920.385	369.98
920.557	345.76
920.729	357.58
920.901	342.46
921.073	346.53
921.244	352.73
921.416	369.59
921.588	355.25
921.76	319.99
921.932	402.33
922.103	353.9
922.275	323.28
922.447	352.15
922.619	281.24
922.79	325.8
922.962	315.34
923.134	353.12
923.305	300.23
923.477	280.47
923.648	267.87
923.82	289.77
923.991	280.08
924.163	231.83
924.335	275.23
924.506	267.48
924.677	344.21
924.849	257.02
925.02	309.53
925.192	304.68
925.363	272.72
925.535	279.69
925.706	254.89
925.877	336.26
926.049	253.34
926.22	282.79
926.391	291.7
926.562	345.56
926.734	275.23
926.905	340.91
927.076	232.61
927.247	274.46
927.419	237.65
927.59	223.31
927.761	276.78
927.932	205.87
928.103	278.14
928.274	195.22
928.445	204.32
928.616	200.45
928.787	246.37
928.958	251.21
929.129	222.34
929.3	207.81
929.471	170.8
929.642	156.27
929.813	95.05
929.984	204.32
930.155	136.9
930.326	195.02
930.496	146
930.667	84.59
930.838	177.78
931.009	108.22
931.18	109.97
931.35	124.11
931.521	122.56
931.692	78
931.863	51.84
932.033	96.41
932.204	86.91
932.374	70.83
932.545	52.42
932.716	140.39
932.886	120.43
933.057	31.31
933.227	44.87
933.398	120.82
933.568	20.65
933.739	21.62
933.909	39.25
934.08	51.26
934.25	11.54
934.421	9.8
934.591	65.02
934.761	22.01
934.932	-8.61
935.102	32.47
935.272	22.98
935.443	11.54
935.613	36.73
935.783	39.44
935.953	-0.66
936.123	156.27
936.294	6.89
936.464	22.2
936.634	23.75
936.804	11.54
936.974	-9.77
937.144	52.42
937.314	26.66
937.484	51.65
937.655	34.41
937.825	59.79
937.995	-5.7
938.165	83.04
938.334	21.62
938.504	40.02
938.674	18.52
938.844	19.1
939.014	100.28
939.184	76.06
939.354	109
939.524	100.28
939.694	60.37
939.863	47.97
940.033	122.95
940.203	103.57
940.373	91.17
940.542	103.57
940.712	54.94
940.882	100.09
941.051	122.95
941.221	116.94
941.391	99.89
941.56	43.71
941.73	36.92
941.899	162.28
942.069	45.64
942.238	80.32
942.408	78.19
942.577	109.97
942.747	68.51
942.916	27.43
943.086	45.45
943.255	110.16
943.425	64.63
943.594	24.72
943.763	4.18
943.933	15.42
944.102	20.07
944.271	36.54
944.441	89.43
944.61	36.15
944.779	50.1
944.948	127.21
945.117	7.28
945.287	24.33
945.456	-21.39
945.625	44.67
945.794	55.52
945.963	41.57
946.132	69.09
946.301	8.25
946.47	53.01
946.639	-20.42
946.808	28.59
946.977	90.98
947.146	82.26
947.315	28.59
947.484	84.01
947.653	65.99
947.822	35.38
947.991	22.39
948.16	119.46
948.329	109.58
948.498	33.83
948.666	48.36
948.835	71.22
949.004	9.99
949.173	20.84
949.341	32.47
949.51	61.53
949.679	83.62
949.847	71.8
950.016	127.21
950.185	92.14
950.353	37.31
950.522	46.81
950.69	95.82
950.859	29.95
951.028	52.42
951.196	58.24
951.365	31.11
951.533	58.43
951.701	84.97
951.87	75.67
952.038	24.33
952.207	39.44
952.375	123.53
952.543	15.23
952.712	55.33
952.88	39.25
953.048	101.25
953.217	71.02
953.385	49.32
953.553	87.88
953.721	15.81
953.89	50.87
954.058	17.94
954.226	47.97
954.394	65.41
954.562	17.16
954.73	46.81
954.898	27.63
955.067	60.95
955.235	16.19
955.403	81.87
955.571	111.71
955.739	78
955.907	-4.73
956.075	25.49
956.243	2.63
956.41	67.92
956.578	-4.73
956.746	0.89
956.914	31.69
957.082	58.62
957.25	77.81
957.418	32.86
957.585	51.26
957.753	96.02
957.921	25.3
958.089	23.56
958.256	65.21
958.424	73.74
958.592	53.01
958.759	33.05
958.927	77.22
959.095	28.79
959.262	38.47
959.43	66.57
959.597	12.32
959.765	41.77
959.932	20.46
960.1	90.59
960.267	30.34
960.435	46.03
960.602	70.44
960.77	30.92
960.937	-3.96
961.104	68.7
961.272	24.14
961.439	26.08
961.606	56.11
961.774	84.78
961.941	25.49
962.108	38.86
962.275	63.66
962.443	108.61
962.61	79.16
962.777	125.08
962.944	76.06
963.111	71.61
963.278	66.96
963.446	56.88
963.613	64.44
963.78	56.69
963.947	58.82
964.114	59.79
964.281	115.59
964.448	66.18
964.615	54.36
964.782	81.29
964.949	106.09
965.116	92.14
965.282	89.43
965.449	34.41
965.616	25.11
965.783	83.23
965.95	75.09
966.117	13.87
966.283	65.99
966.45	90.98
966.617	57.85
966.784	116.94
966.95	90.4
967.117	108.03
967.284	22.39
967.45	49.13
967.617	107.06
967.784	80.32
967.95	141.94
968.117	62.11
968.283	125.66
968.45	159.95
968.616	74.12
968.783	123.14
968.949	62.5
969.116	113.26
969.282	66.37
969.449	100.47
969.615	104.74
969.781	24.14
969.948	65.02
970.114	25.3
970.28	139.42
970.447	53.01
970.613	87.88
970.779	57.27
970.945	95.82
971.112	79.36
971.278	69.67
971.444	90.98
971.61	111.52
971.776	31.89
971.942	41.96
972.108	80.91
972.275	65.99
972.441	91.37
972.607	139.03
972.773	48.94
972.939	70.83
973.105	51.65
973.271	50.1
973.437	49.71
973.602	30.92
973.768	106.29
973.934	71.99
974.1	104.74
974.266	28.59
974.432	62.11
974.598	80.91
974.763	101.25
974.929	54.36
975.095	138.25
975.261	43.51
975.426	53.01
975.592	54.94
975.758	138.84
975.923	17.55
976.089	41.77
976.255	86.52
976.42	63.27
976.586	99.7
976.751	100.28
976.917	127.21
977.082	80.52
977.248	16.97
977.413	25.69
977.579	52.62
977.744	71.99
977.91	10.38
978.075	42.16
978.24	68.51
978.406	74.32
978.571	42.35
978.736	24.53
978.902	83.81
979.067	16.97
979.232	6.7
979.397	54.36
979.563	87.49
979.728	20.65
979.893	48.16
980.058	26.85
980.223	66.96
980.388	81.68
980.554	52.81
980.719	41.77
980.884	65.21
981.049	85.36
981.214	48.94
981.379	81.87
981.544	49.91
981.709	64.44
981.874	80.32
982.039	50.1
982.204	57.66
982.368	50.68
982.533	32.86
982.698	91.37
982.863	93.89
983.028	69.86
983.193	65.6
983.357	61.34
983.522	75.67
983.687	40.99
983.852	48.36
984.016	23.17
984.181	73.35
984.346	69.86
984.51	72.77
984.675	79.55
984.839	57.27
985.004	65.21
985.168	83.23
985.333	64.82
985.498	60.95
985.662	86.33
985.827	83.23
985.991	68.89
986.155	43.71
986.32	79.94
986.484	127.79
986.649	74.32
986.813	3.02
986.977	57.46
987.142	93.89
987.306	21.23
987.47	12.32
987.634	57.66
987.799	62.31
987.963	67.34
988.127	94.66
988.291	153.17
988.455	81.68
988.62	51.84
988.784	83.23
988.948	92.53
989.112	49.71
989.276	49.71
989.44	50.68
989.604	46.42
989.768	45.84
989.932	154.53
990.096	24.14
990.26	30.34
990.424	54.94
990.588	53.39
990.752	135.93
990.915	75.67
991.079	34.79
991.243	30.53
991.407	63.66
991.571	55.91
991.734	79.36
991.898	84.01
992.062	110.16
992.226	26.66
992.389	45.26
992.553	27.24
992.717	22.39
992.88	28.59
993.044	58.24
993.207	32.47
993.371	71.41
993.535	81.87
993.698	28.98
993.862	80.32
994.025	85.75
994.189	56.11
994.352	57.27
994.515	68.89
994.679	111.32
994.842	28.01
995.006	63.66
995.169	11.16
995.332	24.91
995.496	91.37
995.659	20.65
995.822	30.34
995.985	60.56
996.149	103.19
996.312	45.06
996.475	109.39
996.638	37.7
996.801	96.99
996.964	105.71
997.128	33.83
997.291	62.5
997.454	48.16
997.617	9.41
997.78	73.35
997.943	13.09
998.106	80.91
998.269	25.49
998.432	35.18
998.595	65.79
998.758	6.89
998.92	10.96
999.083	10.38
999.246	34.79
999.409	-1.44
999.572	-32.63
999.735	30.73
999.897	72.57
1000.06	6.7
1000.223	15.23
1000.386	45.45
1000.548	52.23
1000.711	53.97
1000.874	53.97
1001.036	3.41
1001.199	62.89
1001.361	29.56
1001.524	30.92
1001.687	79.74
1001.849	12.32
1002.012	41.96
1002.174	49.71
1002.337	69.47
1002.499	27.82
1002.661	86.14
1002.824	25.69
1002.986	14.06
1003.149	40.8
1003.311	18.52
1003.473	101.25
1003.636	12.32
1003.798	31.5
1003.96	72.19
1004.123	36.73
1004.285	22.59
1004.447	48.16
1004.609	22.59
1004.771	102.41
1004.933	-9.57
1005.096	23.36
1005.258	-26.43
1005.42	27.43
1005.582	58.82
1005.744	44.87
1005.906	-19.46
1006.068	22.78
1006.23	-14.22
1006.392	-23.91
1006.554	1.08
1006.716	55.91
1006.878	74.32
1007.04	-31.27
1007.202	28.98
1007.363	39.44
1007.525	32.28
1007.687	39.64
1007.849	53.2
1008.011	-6.86
1008.172	1.08
1008.334	24.53
1008.496	39.64
1008.658	-13.06
1008.819	-2.41
1008.981	-3.18
1009.143	-0.86
1009.304	10.58
1009.466	57.07
1009.627	74.12
1009.789	114.62
1009.95	38.28
1010.112	30.73
1010.273	41.96
1010.435	7.67
1010.596	9.22
1010.758	9.99
1010.919	52.04
1011.081	2.05
1011.242	13.48
1011.403	28.59
1011.565	29.18
1011.726	63.86
1011.887	-12.29
1012.049	19.88
1012.21	37.51
1012.371	71.61
1012.532	-44.26
1012.693	47.97
1012.855	14.64
1013.016	18.52
1013.177	56.88
1013.338	27.43
1013.499	81.68
1013.66	52.04
1013.821	29.37
1013.982	29.95
1014.143	19.68
1014.304	-1.24
1014.465	43.32
1014.626	49.52
1014.787	11.74
1014.948	112.29
1015.109	-35.92
1015.27	71.41
1015.431	-17.13
1015.592	0.89
1015.752	83.42
1015.913	26.27
1016.074	17.36
1016.235	31.11
1016.395	13.29
1016.556	18.71
1016.717	13.29
1016.877	83.42
1017.038	-6.86
1017.199	18.91
1017.359	-4.54
1017.52	31.69
1017.681	-11.32
1017.841	14.45
1018.002	6.12
1018.162	-12.29
1018.323	58.43
1018.483	8.25
1018.644	8.06
1018.804	-39.41
1018.964	-21.59
1019.125	-11.12
1019.285	19.49
1019.446	-4.92
1019.606	-16.36
1019.766	-57.62
1019.926	35.18
1020.087	7.28
1020.247	-8.02
1020.407	29.95
1020.567	54.75
1020.728	-4.34
1020.888	-8.8
1021.048	11.16
1021.208	-11.12
1021.368	-19.65
1021.528	55.91
1021.688	48.36
1021.848	54.17
1022.008	15.81
1022.168	6.89
1022.328	28.59
1022.488	36.15
1022.648	16.58
1022.808	20.65
1022.968	24.14
1023.128	23.94
1023.288	-4.54
1023.448	16.19
1023.608	54.36
1023.767	53.2
1023.927	-18.29
1024.087	-4.34
1024.247	-20.23
1024.406	-9.57
1024.566	-4.73
1024.726	-39.22
1024.885	46.22
1025.045	43.71
1025.205	2.24
1025.364	14.26
1025.524	17.74
1025.683	6.31
1025.843	21.04
1026.003	4.96
1026.162	67.54
1026.321	42.54
1026.481	42.74
1026.64	17.94
1026.8	16
1026.959	19.29
1027.119	-7.06
1027.278	0.5
1027.437	-18.1
1027.597	24.72
1027.756	28.21
1027.915	39.83
1028.074	34.6
1028.234	-15
1028.393	35.76
1028.552	0.5
1028.711	-67.31
1028.87	46.42
1029.03	-41.74
1029.189	-8.61
1029.348	-41.54
1029.507	-7.25
1029.666	16.78
1029.825	-44.26
1029.984	16.58
1030.143	27.63
1030.302	-6.28
1030.461	-54.33
1030.62	29.37
1030.779	60.17
1030.938	-10.54
1031.097	-16.94
1031.255	11.93
1031.414	53.78
1031.573	39.06
1031.732	-14.81
1031.891	6.12
1032.049	63.27
1032.208	15.61
1032.367	7.67
1032.525	-12.29
1032.684	3.02
1032.843	5.15
1033.001	-18.1
1033.16	159.18
1033.319	56.3
1033.477	38.28
1033.636	10.58
1033.794	-20.81
1033.953	36.54
1034.111	56.11
1034.27	0.69
1034.428	32.28
1034.587	-3.57
1034.745	31.69
1034.903	15.23
1035.062	36.73
1035.22	-25.85
1035.378	18.33
1035.537	-12.87
1035.695	19.68
1035.853	-0.27
1036.011	54.75
1036.17	11.54
1036.328	-59.75
1036.486	31.11
1036.644	3.6
1036.802	-77.77
1036.96	-10.54
1037.119	-23.72
1037.277	-19.26
1037.435	-31.08
1037.593	-33.41
1037.751	-2.41
1037.909	19.1
1038.067	19.1
