Data from pine_FLMT105791__140__17-22-39-075.txt Node

Date: Mon Mar 20 17:22:39 GMT 2023
User: antho
Spectrometer: FLMT10579
Trigger mode: 0
Integration Time (sec): 1.000000E-1
Scans to average: 10
Electric dark correction enabled: true
Nonlinearity correction enabled: false
Boxcar width: 0
XAxis mode: Wavelengths
Number of Pixels in Spectrum: 3648
>>>>>Begin Spectral Data<<<<<
345.248	-155.77
345.464	-155.77
345.681	-155.77
345.898	-185.03
346.114	-188.71
346.331	-41.85
346.548	56.19
346.764	-2.32
346.981	-13.37
347.197	-29.84
347.414	7.17
347.631	-24.22
347.847	54.25
348.064	7.75
348.28	41.07
348.497	-60.06
348.713	5.23
348.93	56.38
349.146	34.1
349.363	0.97
349.579	17.24
349.796	3.68
350.012	-2.13
350.229	25.38
350.445	-4.07
350.661	-21.12
350.878	31.77
351.094	22.67
351.311	8.91
351.527	51.73
351.743	-1.16
351.96	62.58
352.176	41.07
352.392	32.74
352.609	34.29
352.825	14.72
353.041	-21.7
353.257	8.33
353.474	3.49
353.69	8.52
353.906	15.69
354.122	7.94
354.339	50.96
354.555	9.3
354.771	-14.53
354.987	72.27
355.203	71.88
355.42	-11.43
355.636	4.65
355.852	-11.04
356.068	17.05
356.284	-18.21
356.5	62.77
356.716	36.04
356.932	22.09
357.148	37.97
357.364	5.23
357.58	38.94
357.796	72.46
358.012	62.19
358.228	38.17
358.444	-26.54
358.66	47.86
358.876	21.7
359.092	7.75
359.308	15.89
359.524	40.88
359.74	16.47
359.956	-10.07
360.172	2.91
360.388	78.66
360.604	-6.78
360.819	70.91
361.035	26.93
361.251	12.4
361.467	-15.69
361.683	42.43
361.898	43.21
362.114	41.46
362.33	34.1
362.546	43.98
362.762	19.57
362.977	17.24
363.193	-50.76
363.409	40.11
363.624	5.42
363.84	-8.91
364.056	-16.27
364.271	68.59
364.487	29.06
364.703	-14.14
364.918	-4.46
365.134	-0.39
365.35	1.55
365.565	105.4
365.781	15.89
365.996	18.21
366.212	85.25
366.427	24.22
366.643	-1.16
366.858	-13.17
367.074	-24.41
367.289	73.04
367.505	114.31
367.72	-18.99
367.936	14.34
368.151	60.26
368.367	31.39
368.582	10.66
368.798	2.32
369.013	43.98
369.228	26.54
369.444	29.45
369.659	77.5
369.874	23.44
370.09	63.94
370.305	-69.75
370.52	3.29
370.736	66.07
370.951	18.79
371.166	36.42
371.381	93.58
371.597	56.38
371.812	-11.24
372.027	-14.34
372.242	7.17
372.458	97.84
372.673	0.77
372.888	6.97
373.103	50.57
373.318	100.75
373.533	48.05
373.749	26.35
373.964	-35.84
374.179	75.37
374.394	5.04
374.609	53.28
374.824	-39.33
375.039	51.34
375.254	1.74
375.469	78.27
375.684	28.29
375.899	63.94
376.114	28.48
376.329	40.88
376.544	49.02
376.759	70.14
376.974	11.43
377.189	0
377.404	23.83
377.619	66.26
377.834	-9.88
378.049	7.56
378.264	-13.37
378.478	13.95
378.693	-2.32
378.908	23.25
379.123	37.78
379.338	46.69
379.553	37.01
379.767	45.72
379.982	54.06
380.197	37.97
380.412	34.1
380.626	30.61
380.841	94.16
381.056	24.8
381.271	91.06
381.485	11.62
381.7	-18.41
381.915	32.16
382.129	0.39
382.344	27.51
382.559	18.21
382.773	78.86
382.988	-27.12
383.202	55.8
383.417	6.2
383.632	125.16
383.846	0
384.061	32.16
384.275	28.29
384.49	32.94
384.704	59.09
384.919	49.99
385.133	63.36
385.348	57.74
385.562	9.11
385.777	57.93
385.991	21.89
386.206	18.02
386.42	19.37
386.634	62.97
386.849	33.91
387.063	43.79
387.277	17.63
387.492	12.4
387.706	22.28
387.92	-32.36
388.135	91.84
388.349	39.33
388.563	45.92
388.778	31.97
388.992	56.77
389.206	79.63
389.42	82.92
389.635	29.26
389.849	52.7
390.063	76.34
390.277	32.55
390.491	117.6
390.706	55.8
390.92	54.83
391.134	53.09
391.348	47.08
391.562	-25.38
391.776	52.51
391.99	8.33
392.205	70.52
392.419	-3.87
392.633	27.32
392.847	75.37
393.061	2.52
393.275	109.47
393.489	43.79
393.703	62.97
393.917	72.66
394.131	19.37
394.345	37.01
394.559	52.31
394.773	20.34
394.986	57.35
395.2	61.61
395.414	64.13
395.628	1.55
395.842	28.29
396.056	38.36
396.27	3.68
396.484	54.25
396.697	55.99
396.911	76.72
397.125	46.11
397.339	65.29
397.553	52.31
397.766	117.02
397.98	66.46
398.194	94.16
398.408	33.13
398.621	34.68
398.835	76.53
399.049	49.79
399.262	92.22
399.476	82.15
399.69	37.2
399.903	128.84
400.117	44.76
400.331	65.29
400.544	33.13
400.758	156.94
400.971	49.21
401.185	99.39
401.398	40.3
401.612	112.37
401.826	94.35
402.039	81.96
402.253	61.81
402.466	68.01
402.68	42.82
402.893	65.29
403.106	80.21
403.32	74.98
403.533	42.62
403.747	75.76
403.96	62
404.174	86.8
404.387	14.72
404.6	83.7
404.814	107.72
405.027	63.55
405.24	52.12
405.454	47.66
405.667	119.74
405.88	1.74
406.094	90.87
406.307	59.87
406.52	106.75
406.733	56.57
406.947	24.41
407.16	121.87
407.373	128.45
407.586	47.86
407.799	33.71
408.012	105.98
408.226	56.19
408.439	105.4
408.652	36.04
408.865	95.9
409.078	117.41
409.291	100.55
409.504	35.46
409.717	86.22
409.93	91.06
410.143	92.42
410.357	8.33
410.57	40.11
410.783	70.52
410.996	92.22
411.209	76.92
411.421	105.4
411.634	82.54
411.847	34.29
412.06	75.56
412.273	58.9
412.486	75.17
412.699	190.45
412.912	78.66
413.125	100.55
413.338	77.11
413.55	81.76
413.763	100.55
413.976	68.2
414.189	64.13
414.402	77.89
414.615	132.52
414.827	68.01
415.04	99.39
415.253	90.29
415.466	125.16
415.678	146.09
415.891	73.43
416.104	55.61
416.316	82.73
416.529	78.47
416.742	118.77
416.954	108.69
417.167	56.57
417.38	54.25
417.592	93.97
417.805	68.97
418.017	55.41
418.23	124.19
418.442	57.16
418.655	69.56
418.868	127.87
419.08	122.84
419.293	147.83
419.505	91.25
419.718	130.59
419.93	122.64
420.142	58.12
420.355	125.55
420.567	129.81
420.78	127.49
420.992	104.24
421.205	151.32
421.417	66.84
421.629	63.74
421.842	94.55
422.054	53.47
422.266	131.55
422.479	103.27
422.691	94.74
422.903	122.25
423.115	80.99
423.328	108.11
423.54	130.97
423.752	91.45
423.964	99.39
424.177	140.27
424.389	104.82
424.601	203.63
424.813	126.32
425.025	159.84
425.238	155.39
425.45	90.48
425.662	86.22
425.874	407.26
426.086	77.11
426.298	134.07
426.51	129.04
426.722	111.6
426.934	84.28
427.146	167.01
427.358	77.5
427.57	153.25
427.782	98.81
427.994	115.86
428.206	109.27
428.418	85.44
428.63	132.52
428.842	162.17
429.054	141.44
429.266	132.33
429.478	97.45
429.69	140.08
429.902	80.21
430.114	146.09
430.325	124.58
430.537	92.03
430.749	108.11
430.961	44.95
431.173	81.18
431.384	132.33
431.596	48.05
431.808	110.63
432.02	137.75
432.231	159.07
432.443	167.98
432.655	151.32
432.867	94.55
433.078	173.6
433.29	185.8
433.502	172.44
433.713	165.07
433.925	165.07
434.136	187.74
434.348	103.07
434.56	120.12
434.771	244.9
434.983	92.03
435.194	99.59
435.406	132.72
435.617	189.1
435.829	229.2
436.04	185.61
436.252	206.34
436.463	205.95
436.675	201.3
436.886	166.62
437.098	202.47
437.309	228.82
437.521	176.31
437.732	184.45
437.943	184.25
438.155	207.12
438.366	106.75
438.578	244.51
438.789	191.42
439	183.48
439.211	160.62
439.423	194.13
439.634	197.23
439.845	206.73
440.057	198.78
440.268	230.95
440.479	150.35
440.69	174.76
440.902	182.9
441.113	199.75
441.324	179.41
441.535	225.91
441.746	265.63
441.957	172.63
442.168	164.49
442.38	251.87
442.591	246.64
442.802	191.42
443.013	201.5
443.224	214.67
443.435	203.05
443.646	193.17
443.857	215.83
444.068	182.32
444.279	181.73
444.49	284.61
444.701	239.28
444.912	302.83
445.123	267.37
445.334	242.38
445.545	245.48
445.756	230.56
445.967	188.13
446.178	220.68
446.388	250.9
446.599	251.48
446.81	268.53
447.021	219.32
447.232	279.19
447.443	260.4
447.653	209.05
447.864	268.15
448.075	239.28
448.286	272.41
448.496	234.63
448.707	290.23
448.918	252.65
449.129	330.15
449.339	224.55
449.55	266.6
449.761	238.31
449.971	302.05
450.182	252.45
450.393	288.49
450.603	224.94
450.814	276.86
451.024	272.02
451.235	321.23
451.446	357.27
451.656	318.91
451.867	259.62
452.077	283.84
452.288	344.48
452.498	333.63
452.709	299.53
452.919	290.62
453.13	267.37
453.34	322.78
453.55	260.98
453.761	306.12
453.971	309.22
454.182	314.06
454.392	285
454.602	336.54
454.813	327.43
455.023	334.02
455.233	262.14
455.444	293.14
455.654	245.28
455.864	296.82
456.075	309.61
456.285	250.13
456.495	312.13
456.705	304.18
456.916	377.23
457.126	359.01
457.336	296.43
457.546	221.07
457.756	291.98
457.967	355.14
458.177	273.96
458.387	311.35
458.597	307.48
458.807	293.14
459.017	280.16
459.227	288.68
459.437	285.58
459.647	322.78
459.857	341.96
460.068	268.53
460.278	327.24
460.488	341.38
460.698	365.79
460.908	302.25
461.117	282.1
461.327	285.39
461.537	296.24
461.747	334.6
461.957	331.11
462.167	432.64
462.377	372.19
462.587	343.71
462.797	363.47
463.007	321.43
463.216	347
463.426	387.88
463.636	372.38
463.846	300.31
464.056	308.06
464.265	375.29
464.475	316.58
464.685	333.83
464.895	375.09
465.104	336.73
465.314	352.81
465.524	330.53
465.733	304.76
465.943	409.58
466.153	442.13
466.362	370.06
466.572	347.39
466.782	331.89
466.991	359.79
467.201	419.66
467.41	319.3
467.62	374.13
467.829	318.91
468.039	409.78
468.249	359.21
468.458	379.36
468.668	399.7
468.877	417.33
469.086	417.91
469.296	415.39
469.505	348.75
469.715	409
469.924	385.75
470.134	446.2
470.343	425.08
470.552	344.1
470.762	359.4
470.971	339.45
471.18	384.39
471.39	411.13
471.599	379.36
471.808	414.23
472.018	370.06
472.227	438.84
472.436	413.65
472.645	422.76
472.855	383.62
473.064	451.62
473.273	428.76
473.482	444.65
473.691	453.37
473.901	420.82
474.11	417.14
474.319	505.49
474.528	449.88
474.737	487.47
474.946	475.07
475.155	455.31
475.364	490.76
475.573	467.9
475.783	469.06
475.992	476.23
476.201	490.76
476.41	425.66
476.619	446.2
476.828	458.02
477.037	427.79
477.245	472.94
477.454	492.12
477.663	489.99
477.872	480.88
478.081	517.69
478.29	446.01
478.499	552.95
478.708	519.82
478.917	564.19
479.125	508.59
479.334	542.88
479.543	505.68
479.752	531.06
479.961	524.67
480.169	543.27
480.378	496.38
480.587	644.4
480.796	555.86
481.004	531.45
481.213	557.99
481.422	549.08
481.63	535.9
481.839	566.32
482.048	599.65
482.256	566.52
482.465	588.22
482.674	600.04
482.882	585.12
483.091	616.7
483.299	565.35
483.508	611.66
483.716	591.32
483.925	582.4
484.134	602.75
484.342	577.95
484.551	641.11
484.759	609.34
484.967	616.5
485.176	628.71
485.384	627.74
485.593	642.08
485.801	622.12
486.01	607.59
486.218	561.48
486.426	492.89
486.635	522.73
486.843	551.99
487.051	569.23
487.26	558.57
487.468	594.61
487.676	612.24
487.885	589.38
488.093	614.18
488.301	623.48
488.509	611.66
488.717	650.02
488.926	614.18
489.134	647.12
489.342	638.01
489.55	627.35
489.758	657.38
489.967	646.34
490.175	727.91
490.383	665.52
490.591	719.77
490.799	637.62
491.007	736.63
491.215	689.55
491.423	687.8
491.631	670.95
491.839	697.88
492.047	731.78
492.255	626.38
492.463	641.69
492.671	659.13
492.879	728.68
493.087	651.38
493.295	756.78
493.503	696.13
493.711	735.08
493.919	751.16
494.127	753.1
494.334	799.01
494.542	696.33
494.75	721.51
494.958	695.36
495.166	780.03
495.374	738.76
495.581	759.88
495.789	747.28
495.997	813.74
496.205	750.96
496.412	739.73
496.62	751.74
496.828	800.76
497.035	760.46
497.243	788.94
497.451	766.66
497.658	772.86
497.866	729.85
498.074	820.52
498.281	752.71
498.489	849.78
498.696	782.16
498.904	756.2
499.112	748.64
499.319	830.01
499.527	790.49
499.734	811.61
499.942	761.04
500.149	780.03
500.357	757.16
500.564	749.8
500.771	811.61
500.979	748.25
501.186	751.16
501.394	774.21
501.601	781.96
501.808	797.27
502.016	799.98
502.223	779.45
502.43	799.01
502.638	773.25
502.845	759.68
503.052	864.11
503.26	770.15
503.467	861.21
503.674	808.89
503.881	862.56
504.089	882.32
504.296	864.89
504.503	753.87
504.71	809.67
504.917	754.06
505.125	846.48
505.332	839.31
505.539	842.99
505.746	934.25
505.953	896.27
506.16	871.28
506.367	903.06
506.574	892.79
506.781	911.77
506.988	870.7
507.195	901.89
507.402	851.13
507.609	918.56
507.816	853.46
508.023	865.47
508.23	863.73
508.437	804.44
508.644	878.06
508.851	916.81
509.058	894.34
509.265	930.37
509.472	931.34
509.679	999.93
509.885	915.65
510.092	928.44
510.299	923.4
510.506	929.79
510.713	910.03
510.92	937.35
511.126	959.63
511.333	988.5
511.54	967.19
511.746	1002.06
511.953	1022.99
512.16	1024.15
512.367	965.05
512.573	940.64
512.78	959.44
512.987	955.17
513.193	938.9
513.4	888.72
513.606	971.25
513.813	1007.29
514.02	974.16
514.226	1005.55
514.433	1056.89
514.639	943.94
514.846	970.67
515.052	942.39
515.259	984.24
515.465	990.24
515.672	973.97
515.878	1072.2
516.085	1010
516.291	1060.96
516.497	1000.32
516.704	977.07
516.91	962.54
517.117	922.62
517.323	895.31
517.529	942.39
517.736	923.4
517.942	921.07
518.148	962.54
518.354	956.34
518.561	976.1
518.767	948.2
518.973	1017.37
519.179	1036.74
519.386	978.23
519.592	986.17
519.798	986.37
520.004	1078.78
520.21	1044.69
520.417	1071.23
520.623	1105.72
520.829	1119.08
521.035	1112.5
521.241	1127.8
521.447	1136.33
521.653	1221
521.859	1139.81
522.065	1155.7
522.271	1254.9
522.477	1172.17
522.683	1240.95
522.889	1148.34
523.095	1179.34
523.301	1180.89
523.507	1144.27
523.713	1148.15
523.919	1134.2
524.125	1208.21
524.331	1168.1
524.537	1276.41
524.742	1223.9
524.948	1256.45
525.154	1240.76
525.36	1349.84
525.566	1253.93
525.772	1280.09
525.977	1241.53
526.183	1269.24
526.389	1307.6
526.595	1208.4
526.8	1216.35
527.006	1142.72
527.212	1139.43
527.417	1083.63
527.623	1140.78
527.829	1245.6
528.034	1219.83
528.24	1254.71
528.446	1217.51
528.651	1330.85
528.857	1291.52
529.062	1374.64
529.268	1302.76
529.473	1319.61
529.679	1318.45
529.884	1398.27
530.09	1361.66
530.295	1360.11
530.501	1374.06
530.706	1350.81
530.912	1333.95
531.117	1330.66
531.323	1343.06
531.528	1396.53
531.733	1387.42
531.939	1370.57
532.144	1374.64
532.35	1390.91
532.555	1413.58
532.76	1383.16
532.966	1363.98
533.171	1383.36
533.376	1334.34
533.581	1284.16
533.787	1338.41
533.992	1389.56
534.197	1426.56
534.402	1380.64
534.607	1363.98
534.813	1485.65
535.018	1382.97
535.223	1406.02
535.428	1427.53
535.633	1466.09
535.838	1457.95
536.043	1431.79
536.249	1532.15
536.454	1454.46
536.659	1485.65
536.864	1406.8
537.069	1436.25
537.274	1421.52
537.479	1478.29
537.684	1447.87
537.889	1411.06
538.094	1525.37
538.299	1473.45
538.504	1471.7
538.708	1462.4
538.913	1480.04
539.118	1485.85
539.323	1489.92
539.528	1399.44
539.733	1443.03
539.938	1471.51
540.142	1488.75
540.347	1457.56
540.552	1408.35
540.757	1446.9
540.962	1435.86
541.166	1384.71
541.371	1389.17
541.576	1413
541.781	1347.32
541.985	1462.4
542.19	1461.05
542.395	1490.88
542.599	1536.8
542.804	1510.26
543.008	1530.6
543.213	1429.08
543.418	1438.19
543.622	1494.57
543.827	1463.37
544.031	1546.68
544.236	1529.83
544.44	1503.09
544.645	1569.35
544.849	1474.8
545.054	1520.33
545.258	1619.15
545.463	1594.35
545.667	1483.14
545.872	1546.3
546.076	1533.12
546.281	1501.15
546.485	1477.71
546.689	1538.55
546.894	1553.85
547.098	1532.73
547.302	1473.45
547.507	1527.5
547.711	1538.16
547.915	1580.01
548.119	1502.9
548.324	1504.64
548.528	1600.55
548.732	1543.2
548.936	1566.64
549.141	1601.51
549.345	1535.45
549.549	1554.63
549.753	1566.25
549.957	1645.3
550.161	1615.66
550.366	1580.78
550.57	1523.05
550.774	1572.84
550.978	1562.96
551.182	1587.37
551.386	1517.23
551.59	1579.62
551.794	1560.63
551.998	1573.81
552.202	1548.23
552.406	1460.66
552.61	1575.55
552.814	1586.4
553.018	1646.66
553.222	1551.72
553.426	1531.57
553.63	1620.11
553.833	1538.93
554.037	1483.14
554.241	1567.22
554.445	1564.32
554.649	1566.64
554.853	1504.64
555.056	1575.16
555.26	1605.78
555.464	1578.85
555.668	1550.95
555.871	1626.31
556.075	1584.27
556.279	1524.6
556.483	1531.18
556.686	1543.2
556.89	1516.46
557.094	1546.49
557.297	1510.84
557.501	1591.63
557.704	1484.1
557.908	1554.63
558.112	1485.27
558.315	1562.18
558.519	1516.85
558.722	1512.78
558.926	1499.99
559.129	1437.6
559.333	1454.27
559.536	1470.74
559.74	1449.81
559.943	1468.99
560.147	1437.22
560.35	1468.8
560.553	1477.32
560.757	1425.79
560.96	1549.59
561.164	1434.7
561.367	1554.43
561.57	1458.92
561.774	1477.13
561.977	1442.84
562.18	1468.8
562.384	1530.41
562.587	1458.92
562.79	1458.92
562.993	1432.57
563.197	1485.46
563.4	1498.83
563.603	1558.12
563.806	1544.36
564.009	1441.09
564.212	1463.95
564.416	1373.47
564.619	1477.13
564.822	1387.04
565.025	1494.18
565.228	1415.52
565.431	1448.07
565.634	1364.17
565.837	1409.51
566.04	1387.42
566.243	1413.58
566.446	1318.45
566.649	1411.25
566.852	1358.17
567.055	1364.37
567.258	1405.83
567.461	1453.88
567.664	1442.25
567.867	1340.15
568.07	1368.05
568.273	1385.49
568.475	1419.97
568.678	1360.69
568.881	1420.75
569.084	1364.95
569.287	1325.23
569.489	1319.03
569.692	1396.72
569.895	1384.13
570.098	1338.79
570.3	1300.43
570.503	1257.03
570.706	1285.71
570.909	1277.38
571.111	1231.84
571.314	1243.66
571.516	1274.08
571.719	1271.56
571.922	1299.46
572.124	1267.3
572.327	1243.08
572.529	1208.98
572.732	1217.51
572.935	1277.76
573.137	1332.01
573.34	1259.16
573.542	1304.89
573.745	1323.29
573.947	1294.23
574.15	1262.65
574.352	1231.26
574.554	1290.55
574.757	1212.86
574.959	1232.81
575.162	1199.88
575.364	1193.48
575.566	1313.02
575.769	1175.27
575.971	1235.72
576.173	1174.88
576.376	1230.88
576.578	1217.51
576.78	1262.46
576.982	1131.87
577.185	1202.01
577.387	1157.83
577.589	1119.86
577.791	1226.42
577.993	1232.43
578.196	1183.8
578.398	1217.51
578.6	1210.73
578.802	1172.56
579.004	1148.53
579.206	1156.28
579.408	1192.51
579.61	1187.09
579.812	1222.35
580.014	1171.98
580.216	1171.4
580.418	1177.79
580.62	1141.95
580.822	1092.35
581.024	1151.44
581.226	1208.79
581.428	1157.45
581.63	1233.59
581.832	1161.51
582.034	1228.16
582.236	1189.41
582.438	1231.07
582.64	1244.83
582.841	1270.79
583.043	1268.85
583.245	1241.34
583.447	1212.66
583.649	1200.46
583.85	1235.33
584.052	1233.78
584.254	1145.05
584.456	1239.4
584.657	1188.83
584.859	1194.45
585.061	1174.5
585.262	1164.61
585.464	1120.44
585.666	1214.41
585.867	1163.45
586.069	1230.1
586.27	1172.75
586.472	1150.08
586.674	1116.57
586.875	1164.42
587.077	1162.29
587.278	1167.71
587.48	1141.17
587.681	1262.26
587.883	1167.71
588.084	1098.16
588.285	1141.95
588.487	1129.93
588.688	1168.1
588.89	1068.32
589.091	1019.69
589.292	1032.29
589.494	1064.45
589.695	1029.96
589.896	936.77
590.098	973.97
590.299	1032.09
590.5	991.79
590.702	1001.29
590.903	1067.93
591.104	1087.89
591.305	1057.08
591.507	1112.11
591.708	1100.29
591.909	1041
592.11	1148.73
592.311	1092.93
592.512	1058.05
592.714	1027.64
592.915	1036.16
593.116	1049.33
593.317	1045.27
593.518	1055.92
593.719	1077.23
593.92	1088.28
594.121	1131.87
594.322	1063.28
594.523	1097.77
594.724	1013.69
594.925	1017.75
595.126	1067.93
595.327	1087.31
595.528	1073.55
595.729	1049.53
595.929	1047.2
596.13	1103
596.331	1063.67
596.532	1080.72
596.733	1113.85
596.934	1096.42
597.135	1072.58
597.335	1108.62
597.536	1016.79
597.737	1057.08
597.938	1011.94
598.138	1079.75
598.339	1056.5
598.54	1073.17
598.74	1070.84
598.941	1048.56
599.142	1108.43
599.342	1048.95
599.543	1049.92
599.744	1035.58
599.944	1002.64
600.145	1036.55
600.345	1060.96
600.546	1137.88
600.746	1109.01
600.947	1127.22
601.147	1079.37
601.348	1099.32
601.548	1042.55
601.749	1058.25
601.949	1016.4
602.15	1011.55
602.35	1019.5
602.551	1088.86
602.751	1018.34
602.951	1028.6
603.152	952.66
603.352	1045.07
603.552	1058.44
603.753	1050.88
603.953	1055.15
604.153	1066.58
604.354	1037.71
604.554	1039.65
604.754	1049.33
604.954	983.27
605.155	1029.38
605.355	1033.64
605.555	1091.77
605.755	1106.88
605.955	1066
606.155	1081.5
606.356	1042.94
606.556	1082.08
606.756	1052.24
606.956	998.38
607.156	1070.26
607.356	1037.71
607.556	1095.83
607.756	1047.59
607.956	1108.04
608.156	1031.51
608.356	987.92
608.556	1095.64
608.756	1049.14
608.956	994.89
609.156	1030.74
609.356	977.26
609.556	964.47
609.755	998.57
609.955	987.92
610.155	1022.79
610.355	1026.47
610.555	972.22
610.755	1022.4
610.954	940.84
611.154	1004.39
611.354	1071.62
611.554	963.7
611.753	993.54
611.953	935.02
612.153	1028.8
612.352	1010.59
612.552	969.7
612.752	922.04
612.951	972.42
613.151	960.6
613.351	968.93
613.55	989.27
613.75	986.17
613.949	944.71
614.149	986.37
614.348	964.47
614.548	942.77
614.747	898.79
614.947	930.76
615.146	879.81
615.346	996.83
615.545	963.89
615.745	969.32
615.944	980.17
616.144	943.74
616.343	946.65
616.542	923.59
616.742	910.03
616.941	934.64
617.14	890.46
617.34	904.41
617.539	907.12
617.738	898.02
617.938	967.96
618.137	940.26
618.336	867.21
618.535	906.74
618.734	923.59
618.934	934.44
619.133	934.06
619.332	944.91
619.531	880
619.73	906.16
619.929	978.04
620.128	926.69
620.328	966.6
620.527	904.99
620.726	926.5
620.925	940.26
621.124	913.13
621.323	950.72
621.522	880.39
621.721	890.46
621.92	874.38
622.119	905.57
622.318	892.98
622.517	921.07
622.715	901.7
622.914	858.88
623.113	884.46
623.312	861.01
623.511	899.76
623.71	858.88
623.909	833.11
624.107	928.63
624.306	843.19
624.505	861.79
624.704	880.19
624.902	852.49
625.101	907.9
625.3	891.04
625.499	838.34
625.697	880.77
625.896	815.29
626.095	846.68
626.293	792.23
626.492	829.43
626.69	849.39
626.889	846.29
627.088	879.03
627.286	804.63
627.485	839.31
627.683	801.53
627.882	855.59
628.08	767.43
628.279	818.97
628.477	874.96
628.676	771.5
628.874	820.52
629.073	799.21
629.271	803.47
629.469	832.14
629.668	798.43
629.866	818.78
630.065	791.46
630.263	830.01
630.461	798.24
630.66	809.86
630.858	823.43
631.056	832.53
631.254	849
631.453	819.74
631.651	835.05
631.849	826.72
632.047	841.83
632.245	800.18
632.444	799.4
632.642	842.99
632.84	852.29
633.038	804.05
633.236	779.45
633.434	797.85
633.632	777.7
633.83	781.38
634.028	848.42
634.227	824.59
634.425	906.54
634.623	818.78
634.821	839.89
635.019	804.44
635.216	803.86
635.414	863.73
635.612	829.82
635.81	814.13
636.008	877.29
636.206	823.04
636.404	851.91
636.602	764.72
636.8	842.41
636.997	851.91
637.195	871.86
637.393	818.97
637.591	890.27
637.789	860.63
637.986	811.61
638.184	831.37
638.382	863.34
638.58	837.96
638.777	897.24
638.975	829.63
639.173	867.6
639.37	812.96
639.568	821.88
639.765	834.28
639.963	828.46
640.161	864.11
640.358	852.68
640.556	782.35
640.753	781.19
640.951	776.93
641.148	793.39
641.346	804.63
641.543	777.31
641.741	836.21
641.938	744.18
642.136	808.51
642.333	751.55
642.531	821.29
642.728	840.28
642.925	799.21
643.123	774.41
643.32	817.81
643.517	782.74
643.715	773.83
643.912	806.57
644.109	751.16
644.306	782.93
644.504	768.21
644.701	803.28
644.898	791.84
645.095	746.51
645.293	787.39
645.49	788.16
645.687	805.21
645.884	798.43
646.081	709.11
646.278	749.61
646.475	749.41
646.672	721.51
646.87	782.93
647.067	772.08
647.264	740.31
647.461	731.01
647.658	713.96
647.855	737.4
648.052	713.76
648.249	675.6
648.446	729.26
648.642	702.14
648.839	690.71
649.036	689.35
649.233	691.87
649.43	643.82
649.627	650.41
649.824	695.94
650.021	698.27
650.217	669.59
650.414	683.73
650.611	729.26
650.808	731.2
651.004	693.03
651.201	716.28
651.398	749.41
651.595	705.63
651.791	655.83
651.988	695.36
652.185	651.38
652.381	698.65
652.578	641.88
652.775	701.56
652.971	662.03
653.168	706.6
653.364	724.03
653.561	641.3
653.757	664.75
653.954	682.77
654.15	672.69
654.347	712.21
654.543	648.67
654.74	627.74
654.936	644.21
655.133	653.12
655.329	676.37
655.525	679.67
655.722	652.35
655.918	619.99
656.115	631.42
656.311	589.77
656.507	584.15
656.704	529.32
656.9	582.99
657.096	545.59
657.292	563.03
657.489	631.42
657.685	637.23
657.881	609.14
658.077	584.92
658.273	594.42
658.47	706.98
658.666	632.78
658.862	682.57
659.058	657.77
659.254	666.49
659.45	609.53
659.646	675.02
659.842	652.54
660.038	684.51
660.234	618.05
660.43	636.65
660.626	722.68
660.822	668.43
661.018	685.87
661.214	670.37
661.41	611.85
661.606	671.72
661.802	694.97
661.998	635.88
662.194	648.86
662.39	645.76
662.586	650.99
662.781	663.39
662.977	680.44
663.173	671.53
663.369	657
663.564	673.27
663.76	656.42
663.956	641.3
664.152	693.42
664.347	585.89
664.543	663.58
664.739	637.62
664.934	566.13
665.13	564.39
665.326	667.85
665.521	653.9
665.717	598.87
665.912	568.45
666.108	556.44
666.304	619.02
666.499	595.77
666.695	558.96
666.89	603.91
667.086	649.44
667.281	657.58
667.477	678.31
667.672	617.28
667.867	624.25
668.063	650.8
668.258	558.38
668.454	628.32
668.649	669.4
668.844	630.07
669.04	644.6
669.235	596.94
669.43	591.51
669.626	562.45
669.821	594.8
670.016	561.67
670.211	580.47
670.407	573.49
670.602	592.29
670.797	612.63
670.992	622.32
671.187	557.8
671.382	628.52
671.578	571.17
671.773	589.57
671.968	569.81
672.163	600.42
672.358	608.17
672.553	558.19
672.748	550.24
672.943	635.68
673.138	575.62
673.333	640.33
673.528	537.65
673.723	617.67
673.918	569.42
674.113	533.58
674.308	644.21
674.503	615.34
674.698	611.27
674.892	584.92
675.087	607.01
675.282	602.36
675.477	557.02
675.672	590.35
675.867	565.94
676.061	551.6
676.256	556.83
676.451	566.52
676.646	550.44
676.84	528.74
677.035	566.13
677.23	523.7
677.424	568.65
677.619	586.28
677.814	594.22
678.008	589.38
678.203	520.21
678.397	539.78
678.592	578.92
678.787	618.44
678.981	556.05
679.176	571.75
679.37	561.09
679.565	544.24
679.759	535.32
679.954	577.95
680.148	606.24
680.342	621.73
680.537	588.22
680.731	544.43
680.926	592.29
681.12	595.97
681.314	533.39
681.509	565.16
681.703	567.87
681.897	588.02
682.092	565.16
682.286	542.49
682.48	609.14
682.674	580.85
682.869	543.07
683.063	557.6
683.257	627.55
683.451	551.02
683.645	572.14
683.839	577.37
684.034	532.61
684.228	594.42
684.422	504.32
684.616	524.09
684.81	565.74
685.004	534.74
685.198	540.36
685.392	596.55
685.586	562.64
685.78	574.46
685.974	597.52
686.168	560.9
686.362	624.06
686.556	527.77
686.75	503.74
686.944	496.38
687.138	512.66
687.331	440.39
687.525	431.28
687.719	381.68
687.913	455.69
688.107	440.58
688.301	435.93
688.494	481.66
688.688	401.44
688.882	407.84
689.076	412.1
689.269	481.66
689.463	511.3
689.657	436.71
689.85	477.59
690.044	490.37
690.238	462.28
690.431	465.38
690.625	459.37
690.818	493.09
691.012	520.41
691.205	504.91
691.399	474.49
691.593	545.59
691.786	564.77
691.98	560.12
692.173	630.45
692.366	579.5
692.56	550.82
692.753	639.56
692.947	542.69
693.14	585.12
693.333	614.57
693.527	538.42
693.72	613.98
693.914	597.9
694.107	583.95
694.3	571.75
694.493	567.49
694.687	628.13
694.88	603.91
695.073	671.53
695.266	651.96
695.46	624.64
695.653	670.95
695.846	661.65
696.039	602.55
696.232	631.81
696.425	678.7
696.618	691.87
696.812	677.92
697.005	755.23
697.198	799.21
697.391	756
697.584	785.06
697.777	792.62
697.97	781.96
698.163	832.14
698.356	791.26
698.549	859.27
698.742	821.88
698.935	778.67
699.127	829.82
699.32	777.31
699.513	779.25
699.706	813.74
699.899	838.15
700.092	811.99
700.285	877.48
700.477	824.78
700.67	839.51
700.863	874.19
701.056	923.21
701.248	895.11
701.441	939.09
701.634	879.61
701.826	969.32
702.019	879.81
702.212	989.85
702.404	896.27
702.597	896.27
702.79	884.26
702.982	953.62
703.175	992.76
703.367	984.43
703.56	985.98
703.752	1085.37
703.945	1034.61
704.137	1044.88
704.33	1069.87
704.522	1066
704.715	1071.03
704.907	1124.32
705.1	1114.82
705.292	1145.63
705.484	1117.15
705.677	1124.9
705.869	1179.15
706.061	1204.72
706.254	1229.33
706.446	1190
706.638	1195.03
706.831	1232.23
707.023	1185.73
707.215	1263.43
707.407	1273.11
707.599	1263.23
707.792	1333.76
707.984	1287.45
708.176	1317.09
708.368	1275.05
708.56	1320.39
708.752	1309.15
708.944	1283.38
709.136	1336.86
709.329	1326.59
709.521	1456.98
709.713	1398.08
709.905	1411.06
710.097	1426.37
710.289	1378.51
710.481	1406.22
710.672	1416.49
710.864	1436.25
711.056	1483.72
711.248	1459.89
711.44	1469.38
711.632	1468.22
711.824	1481.97
712.016	1567.03
712.207	1519.17
712.399	1532.73
712.591	1599.96
712.783	1545.52
712.975	1565.87
713.166	1506.19
713.358	1550.75
713.55	1583.5
713.741	1589.31
713.933	1613.33
714.125	1620.31
714.316	1592.41
714.508	1655.38
714.7	1646.85
714.891	1672.81
715.083	1720.67
715.274	1643.56
715.466	1677.27
715.657	1691.03
715.849	1599.77
716.04	1678.04
716.232	1592.02
716.423	1651.11
716.615	1595.51
716.806	1592.02
716.998	1554.43
717.189	1497.67
717.381	1407.96
717.572	1427.53
717.763	1398.08
717.955	1417.84
718.146	1388.78
718.337	1340.92
718.528	1320.39
718.72	1250.83
718.911	1329.49
719.102	1290.74
719.293	1326.39
719.485	1291.13
719.676	1289.97
719.867	1267.11
720.058	1263.81
720.249	1316.9
720.44	1300.43
720.632	1362.04
720.823	1390.91
721.014	1472.67
721.205	1475.97
721.396	1554.63
721.587	1619.53
721.778	1661.96
721.969	1670.29
722.16	1715.05
722.351	1692.77
722.542	1852.22
722.733	1829.36
722.924	1758.64
723.115	1765.04
723.305	1768.14
723.496	1798.56
723.687	1653.25
723.878	1704.01
724.069	1703.23
724.26	1711.18
724.45	1632.9
724.641	1645.11
724.832	1660.03
725.023	1686.57
725.213	1635.61
725.404	1585.82
725.595	1640.65
725.785	1640.85
725.976	1669.13
726.167	1653.44
726.357	1663.51
726.548	1771.62
726.739	1671.26
726.929	1732.29
727.12	1776.08
727.31	1782.28
727.501	1709.04
727.691	1778.41
727.882	1749.54
728.072	1797.2
728.263	1784.99
728.453	1846.41
728.644	1853
728.834	1799.33
729.024	1769.11
729.215	1784.41
729.405	1825.49
729.596	1876.64
729.786	1908.02
729.976	1914.22
730.167	1891.17
730.357	1859.78
730.547	1850.67
730.737	1885.55
730.928	1927.2
731.118	1971.96
731.308	1915
731.498	1969.63
731.688	2001.22
731.879	2001.6
732.069	2061.08
732.259	2073.1
732.449	2094.6
732.639	2132.19
732.829	2163.96
733.019	2201.16
733.209	2244.76
733.399	2243.4
733.589	2261.03
733.779	2300.55
733.969	2274.01
734.159	2367.01
734.349	2340.47
734.539	2405.95
734.729	2408.47
734.919	2409.05
735.109	2461.95
735.299	2372.05
735.488	2466.21
735.678	2443.93
735.868	2430.37
736.058	2416.03
736.248	2423.2
736.437	2385.8
736.627	2324.77
736.817	2450.13
737.007	2386.97
737.196	2485.58
737.386	2457.88
737.576	2427.85
737.765	2493.91
737.955	2440.63
738.144	2567.34
738.334	2529.56
738.524	2504.18
738.713	2517.16
738.903	2511.55
739.092	2520.85
739.282	2520.65
739.471	2599.89
739.661	2526.46
739.85	2581.88
740.04	2592.73
740.229	2567.54
740.419	2610.16
740.608	2643.68
740.797	2621.01
740.987	2675.65
741.176	2659.18
741.365	2584.39
741.555	2546.42
741.744	2666.35
741.933	2620.63
742.123	2648.14
742.312	2646.78
742.501	2687.86
742.69	2689.79
742.88	2582.26
743.069	2736.1
743.258	2629.73
743.447	2725.44
743.636	2704.52
743.825	2662.47
744.014	2703.74
744.204	2693.86
744.393	2674.68
744.582	2706.07
744.771	2781.05
744.96	2713.43
745.149	2770.39
745.338	2670.03
745.527	2694.25
745.716	2709.36
745.905	2691.54
746.094	2769.42
746.283	2730.67
746.471	2741.14
746.66	2750.82
746.849	2746.95
747.038	2778.72
747.227	2717.89
747.416	2780.47
747.604	2743.46
747.793	2734.55
747.982	2719.82
748.171	2728.15
748.359	2774.85
748.548	2750.05
748.737	2747.14
748.926	2736.29
749.114	2641.74
749.303	2720.79
749.491	2738.42
749.68	2640
749.869	2772.91
750.057	2732.61
750.246	2659.18
750.434	2716.53
750.623	2761.48
750.811	2715.37
751	2684.76
751.188	2686.31
751.377	2684.37
751.565	2683.79
751.754	2675.84
751.942	2669.26
752.131	2708.59
752.319	2672.55
752.507	2624.31
752.696	2673.13
752.884	2692.51
753.072	2647.75
753.261	2691.15
753.449	2649.49
753.637	2636.12
753.825	2704.32
754.014	2657.44
754.202	2685.92
754.39	2681.85
754.578	2693.86
754.766	2619.85
754.955	2651.04
755.143	2739
755.331	2651.43
755.519	2641.74
755.707	2660.15
755.895	2665.38
756.083	2605.71
756.271	2614.62
756.459	2593.11
756.647	2656.08
756.835	2624.11
757.023	2575.29
757.211	2558.63
757.399	2589.63
757.587	2629.73
757.775	2555.72
757.963	2611.52
758.151	2586.91
758.339	2533.05
758.526	2523.56
758.714	2567.34
758.902	2468.34
759.09	2398.98
759.278	2262.97
759.465	2087.82
759.653	1764.84
759.841	1621.28
760.028	1407.19
760.216	1232.81
760.404	1165.97
760.591	954.01
760.779	805.02
760.967	706.01
761.154	579.11
761.342	599.45
761.529	602.75
761.717	657.58
761.905	649.44
762.092	687.03
762.28	630.07
762.467	674.24
762.655	567.1
762.842	619.22
763.029	655.45
763.217	650.22
763.404	652.15
763.592	667.46
763.779	649.44
763.966	679.86
764.154	718.41
764.341	755.42
764.528	760.07
764.716	810.25
764.903	842.61
765.09	874.38
765.277	892.79
765.465	1067.93
765.652	1085.76
765.839	1159
766.026	1244.44
766.213	1275.24
766.4	1338.6
766.588	1485.46
766.775	1469.38
766.962	1573.81
767.149	1623.21
767.336	1749.54
767.523	1696.64
767.71	1782.67
767.897	1899.69
768.084	1979.71
768.271	1965.37
768.458	2019.62
768.645	2104.68
768.832	2039.19
769.019	2071.35
769.206	2152.73
769.392	2167.06
769.579	2262.58
769.766	2202.13
769.953	2198.06
770.14	2238.17
770.327	2225.19
770.513	2266.46
770.7	2334.46
770.887	2243.01
771.073	2288.74
771.26	2304.43
771.447	2241.85
771.634	2264.32
771.82	2343.95
772.007	2249.02
772.193	2315.67
772.38	2300.94
772.567	2275.75
772.753	2285.05
772.94	2329.23
773.126	2347.44
773.313	2355
773.499	2321.67
773.686	2321.09
773.872	2258.32
774.059	2275.95
774.245	2248.82
774.432	2261.81
774.618	2232.36
774.804	2262.19
774.991	2169.78
775.177	2263.36
775.363	2261.03
775.55	2289.51
775.736	2234.1
775.922	2235.65
776.109	2226.54
776.295	2237.39
776.481	2299.97
776.667	2284.47
776.853	2270.91
777.04	2228.29
777.226	2230.61
777.412	2319.54
777.598	2216.47
777.784	2198.06
777.97	2191.28
778.156	2260.84
778.342	2182.76
778.528	2179.46
778.715	2156.41
778.901	2160.28
779.087	2195.16
779.272	2139.16
779.458	2163.58
779.644	2218.21
779.83	2142.46
780.016	2237.39
780.202	2168.03
780.388	2134.32
780.574	2087.63
780.76	2144.39
780.946	2165.71
781.131	2113.59
781.317	2148.85
781.503	2111.46
781.689	2103.32
781.874	2277.11
782.06	2103.9
782.246	2106.03
782.432	2104.87
782.617	2104.87
782.803	2180.04
782.989	2068.64
783.174	2083.95
783.36	2043.65
783.545	2096.73
783.731	2053.72
783.916	2011.87
784.102	2068.06
784.288	2054.5
784.473	2060.11
784.659	2054.88
784.844	2085.3
785.029	2015.16
785.215	2032.21
785.4	1999.08
785.586	2081.81
785.771	1984.75
785.956	2026.4
786.142	2002.96
786.327	1983.39
786.512	1997.92
786.698	1994.43
786.883	1920.62
787.068	1983.58
787.254	1978.74
787.439	1954.33
787.624	1958.01
787.809	1920.62
787.994	1921.78
788.18	1994.63
788.365	1898.14
788.55	1948.71
788.735	1914.8
788.92	1927.01
789.105	1918.68
789.29	1917.71
789.475	1864.62
789.66	1870.24
789.845	1881.29
790.03	1820.45
790.215	1899.5
790.4	1898.34
790.585	1927.01
790.77	1877.99
790.955	1822.97
791.14	1862.49
791.325	1915.39
791.51	1797.78
791.695	1811.34
791.879	1846.99
792.064	1782.28
792.249	1886.32
792.434	1817.93
792.618	1825.87
792.803	1882.25
792.988	1824.71
793.173	1870.44
793.357	1869.66
793.542	1812.89
793.727	1812.51
793.911	1908.6
794.096	1789.64
794.281	1892.52
794.465	1913.64
794.65	1830.33
794.834	1848.35
795.019	1905.7
795.203	1887.1
795.388	1887.87
795.572	1869.08
795.757	1884.97
795.941	1901.82
796.126	1854.35
796.31	1789.45
796.494	1841.18
796.679	1855.71
796.863	1799.91
797.048	1905.7
797.232	1886.9
797.416	1884.77
797.601	1846.41
797.785	1930.5
797.969	1908.02
798.153	1856.68
798.338	1896.01
798.522	1902.79
798.706	1900.08
798.89	1893.1
799.074	1970.41
799.258	1888.26
799.443	1896.2
799.627	1926.62
799.811	1934.37
799.995	1899.69
800.179	1837.3
800.363	1857.65
800.547	1908.8
800.731	1892.52
800.915	1795.46
801.099	1855.71
801.283	1861.14
801.467	1865.98
801.651	1857.07
801.835	1915.77
802.019	1898.14
802.202	1877.8
802.386	1815.61
802.57	1828.2
802.754	1853.19
802.938	1801.85
803.121	1821.22
803.305	1871.21
803.489	1881.87
803.673	1883.8
803.856	1866.37
804.04	1868.69
804.224	1906.09
804.407	1833.04
804.591	1843.7
804.775	1871.99
804.958	1845.25
805.142	1952.39
805.326	1877.22
805.509	1881.87
805.693	1924.68
805.876	1913.25
806.06	1884.58
806.243	1885.55
806.427	1924.3
806.61	1913.84
806.794	1883.22
806.977	1946
807.16	1873.73
807.344	1909.57
807.527	1886.32
807.71	1861.52
807.894	1878.57
808.077	1922.55
808.26	1879.74
808.444	1853.58
808.627	1903.76
808.81	1854.35
808.993	1820.45
809.177	1834.79
809.36	1848.74
809.543	1839.05
809.726	1747.21
809.909	1814.44
810.092	1753.22
810.276	1777.24
810.459	1770.46
810.642	1759.22
810.825	1714.86
811.008	1750.51
811.191	1671.26
811.374	1673.78
811.557	1692.77
811.74	1784.02
811.923	1665.64
812.106	1647.63
812.289	1627.28
812.472	1645.3
812.654	1661.96
812.837	1598.8
813.02	1579.04
813.203	1561.8
813.386	1491.08
813.569	1490.88
813.751	1387.04
813.934	1470.93
814.117	1416.29
814.3	1408.54
814.482	1391.49
814.665	1341.51
814.848	1350.61
815.03	1272.53
815.213	1297.53
815.396	1293.65
815.578	1252.19
815.761	1236.69
815.943	1326.97
816.126	1231.46
816.309	1241.14
816.491	1186.12
816.674	1101.84
816.856	1136.91
817.039	1140.98
817.221	1210.15
817.403	1166.94
817.586	1167.52
817.768	1191.74
817.951	1102.62
818.133	1107.85
818.315	1124.9
818.498	1155.31
818.68	1236.69
818.862	1233.39
819.045	1197.55
819.227	1178.76
819.409	1167.71
819.591	1238.82
819.774	1181.28
819.956	1157.64
820.138	1242.31
820.32	1189.61
820.502	1229.13
820.684	1291.13
820.866	1276.6
821.048	1341.12
821.231	1342.67
821.413	1303.14
821.595	1315.93
821.777	1323.68
821.959	1309.15
822.141	1403.31
822.323	1278.34
822.505	1222.74
822.686	1175.27
822.868	1142.53
823.05	1058.44
823.232	1044.69
823.414	994.7
823.596	1071.81
823.778	1008.26
823.96	1054.57
824.141	1059.22
824.323	1071.81
824.505	1145.82
824.687	1189.8
824.868	1204.33
825.05	1260.71
825.232	1288.23
825.413	1362.43
825.595	1301.4
825.777	1223.9
825.958	1295.78
826.14	1279.51
826.321	1312.64
826.503	1292.49
826.685	1315.16
826.866	1335.69
827.048	1316.12
827.229	1290.55
827.411	1270.98
827.592	1207.43
827.773	1210.34
827.955	1150.47
828.136	1219.83
828.318	1151.44
828.499	1197.75
828.68	1142.91
828.862	1165.39
829.043	1189.22
829.224	1170.81
829.406	1162.68
829.587	1162.68
829.768	1148.34
829.949	1196.78
830.131	1174.11
830.312	1220.41
830.493	1180.7
830.674	1200.26
830.855	1176.82
831.036	1161.51
831.218	1212.08
831.399	1219.25
831.58	1162.87
831.761	1196.78
831.942	1189.8
832.123	1147.95
832.304	1118.89
832.485	1174.69
832.666	1157.45
832.847	1185.15
833.028	1154.93
833.209	1164.23
833.389	1163.84
833.57	1117.15
833.751	1130.9
833.932	1180.5
834.113	1164.42
834.294	1134
834.475	1169.85
834.655	1198.13
834.836	1189.22
835.017	1188.45
835.198	1109.4
835.378	1145.05
835.559	1243.86
835.74	1168.3
835.92	1183.21
836.101	1151.63
836.281	1208.79
836.462	1195.61
836.643	1233.39
836.823	1255.29
837.004	1208.4
837.184	1273.31
837.365	1233.59
837.545	1253.16
837.726	1170.04
837.906	1258.78
838.087	1192.9
838.267	1245.99
838.448	1162.87
838.628	1209.18
838.808	1210.92
838.989	1282.8
839.169	1183.6
839.349	1269.63
839.53	1228.55
839.71	1260.71
839.89	1199.68
840.07	1264.59
840.251	1191.16
840.431	1240.18
840.611	1224.68
840.791	1196
840.971	1239.01
841.151	1218.48
841.332	1201.43
841.512	1233.01
841.692	1156.28
841.872	1201.81
842.052	1193.48
842.232	1260.33
842.412	1126.06
842.592	1195.61
842.772	1207.43
842.952	1212.47
843.132	1156.09
843.312	1157.06
843.492	1182.05
843.672	1238.63
843.851	1096.22
844.031	1197.55
844.211	1201.62
844.391	1137.3
844.571	1215.76
844.751	1186.51
844.93	1166.94
845.11	1140.2
845.29	1196.39
845.47	1207.05
845.649	1180.7
845.829	1195.61
846.009	1160.35
846.188	1168.68
846.368	1160.16
846.547	1144.66
846.727	1198.91
846.907	1124.32
847.086	1152.6
847.266	1230.49
847.445	1150.47
847.625	1139.04
847.804	1147.56
847.984	1146.01
848.163	1113.66
848.343	1128.58
848.522	1134.39
848.701	1175.08
848.881	1108.62
849.06	1128.97
849.239	1129.16
849.419	1158.61
849.598	1075.3
849.777	1077.04
849.957	1090.02
850.136	1037.9
850.315	1021.05
850.494	1019.11
850.674	1025.89
850.853	1111.72
851.032	1055.92
851.211	1088.86
851.39	1097.38
851.569	1044.49
851.748	1004.58
851.927	1085.37
852.107	1056.31
852.286	1033.64
852.465	1056.5
852.644	1095.06
852.823	1056.31
853.002	1034.03
853.181	1076.46
853.359	1070.84
853.538	999.74
853.717	1071.42
853.896	1001.87
854.075	946.26
854.254	936.57
854.433	891.43
854.611	938.32
854.79	875.16
854.969	939.48
855.148	938.9
855.327	918.56
855.505	1006.32
855.684	942.77
855.863	963.12
856.041	927.66
856.22	983.65
856.399	973
856.577	1023.95
856.756	995.86
856.934	1113.85
857.113	1089.83
857.291	994.31
857.47	974.16
857.648	1023.18
857.827	1023.57
858.005	1011.17
858.184	1002.64
858.362	1065.42
858.541	1022.99
858.719	997.8
858.898	1003.8
859.076	998.19
859.254	1073.17
859.433	1004
859.611	1002.25
859.789	960.02
859.967	1052.24
860.146	1060.96
860.324	917.97
860.502	952.07
860.68	948.97
860.859	977.65
861.037	982.88
861.215	997.22
861.393	971.45
861.571	983.65
861.749	947.81
861.927	955.95
862.105	956.53
862.283	969.7
862.461	956.34
862.639	923.4
862.817	923.59
862.995	948.39
863.173	945.49
863.351	943.55
863.529	951.3
863.707	986.37
863.885	959.82
864.063	901.7
864.241	918.75
864.418	986.56
864.596	898.02
864.774	904.22
864.952	953.62
865.129	933.09
865.307	917.39
865.485	848.81
865.663	975.32
865.84	862.76
866.018	890.66
866.196	778.09
866.373	796.49
866.551	829.63
866.728	767.82
866.906	795.14
867.084	828.27
867.261	829.24
867.439	870.7
867.616	872.64
867.794	855.78
867.971	860.04
868.149	854.81
868.326	925.92
868.503	877.67
868.681	874.96
868.858	828.66
869.035	819.16
869.213	883.68
869.39	839.7
869.567	927.86
869.745	818.19
869.922	883.68
870.099	865.47
870.276	908.48
870.454	892.4
870.631	890.07
870.808	841.25
870.985	883.49
871.162	920.69
871.339	876.32
871.517	791.65
871.694	809.09
871.871	862.56
872.048	846.87
872.225	852.68
872.402	863.73
872.579	800.76
872.756	871.28
872.933	797.27
873.11	825.36
873.287	877.67
873.463	808.7
873.64	805.02
873.817	855.98
873.994	792.23
874.171	762.78
874.348	840.86
874.524	736.24
874.701	812.58
874.878	770.92
875.055	789.52
875.231	799.4
875.408	837.57
875.585	770.92
875.762	805.99
875.938	792.43
876.115	746.7
876.291	774.02
876.468	784.1
876.645	738.37
876.821	762.59
876.998	789.33
877.174	783.13
877.351	768.4
877.527	754.45
877.704	790.29
877.88	757.94
878.057	765.5
878.233	781
878.409	781.58
878.586	793.2
878.762	749.03
878.938	747.86
879.115	680.25
879.291	770.92
879.467	687.61
879.644	739.15
879.82	773.05
879.996	740.89
880.172	684.7
880.349	739.73
880.525	763.75
880.701	654.87
880.877	695.94
881.053	742.05
881.229	719.77
881.405	758.91
881.581	683.15
881.757	709.7
881.933	749.8
882.109	763.17
882.285	747.28
882.461	673.85
882.637	716.09
882.813	670.56
882.989	709.5
883.165	743.21
883.341	714.54
883.517	743.8
883.693	721.9
883.869	764.53
884.044	695.55
884.22	745.73
884.396	788.36
884.572	706.6
884.747	746.9
884.923	714.73
885.099	748.25
885.275	747.86
885.45	701.17
885.626	682.18
885.801	686.64
885.977	723.45
886.153	667.85
886.328	730.23
886.504	694.78
886.679	731.78
886.855	693.81
887.03	731.4
887.206	734.3
887.381	742.05
887.557	715.12
887.732	754.26
887.908	737.79
888.083	745.93
888.258	700.2
888.434	688.58
888.609	715.12
888.784	752.71
888.96	707.95
889.135	680.44
889.31	694.97
889.485	726.94
889.661	703.11
889.836	751.74
890.011	743.8
890.186	694.39
890.361	661.26
890.537	728.68
890.712	717.45
890.887	701.75
891.062	715.7
891.237	749.03
891.412	679.47
891.587	734.69
891.762	732.17
891.937	760.26
892.112	683.93
892.287	706.21
892.462	669.98
892.637	641.69
892.812	650.8
892.987	663.39
893.161	645.37
893.336	658.16
893.511	654.87
893.686	663.78
893.861	665.72
894.035	632
894.21	669.2
894.385	639.17
894.56	626.19
894.734	584.34
894.909	597.52
895.084	614.95
895.258	614.57
895.433	618.25
895.608	571.17
895.782	530.48
895.957	569.04
896.131	557.41
896.306	483.01
896.48	520.21
896.655	496.57
896.829	489.99
897.004	473.52
897.178	479.52
897.353	485.34
897.527	523.51
897.701	517.69
897.876	470.22
898.05	532.22
898.224	498.71
898.399	534.94
898.573	527.96
898.747	383.62
898.921	452.4
899.096	398.15
899.27	410.74
899.444	353.59
899.618	413.26
899.792	407.84
899.967	392.14
900.141	458.41
900.315	405.9
900.489	419.08
900.663	414.81
900.837	407.26
901.011	376.06
901.185	473.71
901.359	436.51
901.533	430.89
901.707	429.54
901.881	432.44
902.055	381.88
902.229	418.69
902.403	490.76
902.576	404.74
902.75	411.33
902.924	536.1
903.098	476.42
903.272	505.87
903.446	520.6
903.619	501.81
903.793	541.33
903.967	466.93
904.14	548.11
904.314	530.09
904.488	502.58
904.661	549.85
904.835	526.41
905.009	557.8
905.182	573.1
905.356	531.64
905.529	491.54
905.703	482.04
905.876	484.37
906.05	467.51
906.223	487.47
906.397	448.52
906.57	443.1
906.744	390.79
906.917	407.84
907.09	387.3
907.264	405.13
907.437	408.03
907.61	363.86
907.784	373.16
907.957	375.87
908.13	363.66
908.304	417.53
908.477	359.21
908.65	395.63
908.823	351.07
908.996	433.41
909.17	362.69
909.343	374.9
909.516	414.43
909.689	379.16
909.862	337.31
910.035	386.14
910.208	348.36
910.381	358.24
910.554	444.46
910.727	371.8
910.9	364.83
911.073	372.19
911.246	404.54
911.419	408.42
911.592	399.51
911.765	361.34
911.938	357.66
912.11	363.08
912.283	403.96
912.456	389.82
912.629	328.6
912.802	331.31
912.974	309.41
913.147	276.28
913.32	275.31
913.493	292.95
913.665	342.35
913.838	319.49
914.01	300.7
914.183	319.88
914.356	297.21
914.528	359.59
914.701	410.16
914.873	366.57
915.046	301.47
915.218	292.95
915.391	246.45
915.563	265.05
915.736	311.35
915.908	361.34
916.081	309.03
916.253	297.4
916.425	302.44
916.598	331.31
916.77	336.73
916.942	307.09
917.115	227.46
917.287	306.9
917.459	290.23
917.632	254.78
917.804	230.75
917.976	298.95
918.148	292.95
918.32	316
918.493	316.39
918.665	343.13
918.837	282.68
919.009	361.92
919.181	360.18
919.353	355.53
919.525	304.96
919.697	318.91
919.869	354.17
920.041	370.25
920.213	423.34
920.385	374.71
920.557	340.22
920.729	360.56
920.901	367.15
921.073	329.18
921.244	329.37
921.416	362.31
921.588	324.72
921.76	316.2
921.932	385.17
922.103	350.88
922.275	348.94
922.447	304.57
922.619	260.98
922.79	314.65
922.962	321.43
923.134	347
923.305	306.31
923.477	271.25
923.648	272.8
923.82	300.7
923.991	230.56
924.163	240.05
924.335	291.4
924.506	249.35
924.677	323.17
924.849	294.88
925.02	297.21
925.192	294.5
925.363	307.28
925.535	291.2
925.706	284.23
925.877	320.07
926.049	271.25
926.22	285.78
926.391	283.06
926.562	310
926.734	251.1
926.905	324.91
927.076	226.68
927.247	251.87
927.419	217.77
927.59	239.47
927.761	261.37
927.932	231.33
928.103	238.12
928.274	234.82
928.445	196.85
928.616	186.19
928.787	208.08
928.958	235.02
929.129	205.57
929.3	222.03
929.471	165.85
929.642	129.23
929.813	120.12
929.984	176.89
930.155	106.95
930.326	145.89
930.496	129.04
930.667	76.92
930.838	123.8
931.009	104.82
931.18	108.11
931.35	128.07
931.521	121.67
931.692	73.82
931.863	48.05
932.033	110.44
932.204	95.9
932.374	122.25
932.545	37.39
932.716	98.04
932.886	124.97
933.057	21.12
933.227	43.4
933.398	120.32
933.568	36.62
933.739	-3.87
933.909	29.06
934.08	75.56
934.25	-19.37
934.421	14.34
934.591	19.96
934.761	27.12
934.932	-39.52
935.102	35.07
935.272	17.44
935.443	37.97
935.613	29.06
935.783	52.51
935.953	-4.07
936.123	137.56
936.294	27.9
936.464	31.77
936.634	31.58
936.804	-16.47
936.974	-12.59
937.144	64.91
937.314	31.58
937.484	21.51
937.655	-6.2
937.825	84.47
937.995	12.59
938.165	52.51
938.334	28.29
938.504	26.16
938.674	19.18
938.844	54.44
939.014	83.12
939.184	66.84
939.354	146.86
939.524	76.34
939.694	31.39
939.863	73.82
940.033	110.05
940.203	104.24
940.373	115.47
940.542	115.47
940.712	69.75
940.882	83.51
941.051	104.43
941.221	68.78
941.391	127.87
941.56	44.56
941.73	35.46
941.899	161.2
942.069	54.06
942.238	61.42
942.408	44.37
942.577	76.72
942.747	66.46
942.916	9.11
943.086	43.4
943.255	67.42
943.425	69.36
943.594	42.24
943.763	2.52
943.933	36.62
944.102	-12.4
944.271	65.68
944.441	91.64
944.61	13.95
944.779	50.37
944.948	115.86
945.117	-12.01
945.287	25.96
945.456	-30.81
945.625	25.38
945.794	62
945.963	33.52
946.132	54.25
946.301	35.65
946.47	60.26
946.639	7.56
946.808	27.71
946.977	66.26
947.146	75.95
947.315	46.69
947.484	84.09
947.653	58.51
947.822	47.47
947.991	30.03
948.16	119.15
948.329	61.81
948.498	52.31
948.666	42.24
948.835	78.08
949.004	-5.23
949.173	37.2
949.341	38.36
949.51	56.38
949.679	91.64
949.847	75.56
950.016	110.63
950.185	79.63
950.353	12.79
950.522	39.52
950.69	74.01
950.859	0.77
951.028	104.82
951.196	56.38
951.365	26.54
951.533	42.82
951.701	122.45
951.87	62.77
952.038	23.06
952.207	63.55
952.375	101.91
952.543	66.07
952.712	42.24
952.88	36.23
953.048	74.01
953.217	46.69
953.385	65.1
953.553	82.34
953.721	-12.98
953.89	57.16
954.058	5.23
954.226	27.12
954.394	46.11
954.562	21.12
954.73	48.05
954.898	26.35
955.067	77.89
955.235	40.88
955.403	73.24
955.571	90.29
955.739	74.59
955.907	7.17
956.075	5.62
956.243	37.39
956.41	67.62
956.578	-10.07
956.746	-13.95
956.914	35.26
957.082	59.29
957.25	78.27
957.418	23.06
957.585	52.31
957.753	65.29
957.921	12.79
958.089	45.34
958.256	50.96
958.424	76.53
958.592	74.98
958.759	32.16
958.927	72.85
959.095	30.42
959.262	55.22
959.43	47.86
959.597	12.79
959.765	54.25
959.932	0.58
960.1	56.77
960.267	63.94
960.435	69.36
960.602	70.91
960.77	26.16
960.937	10.27
961.104	57.35
961.272	11.43
961.439	20.54
961.606	61.22
961.774	85.06
961.941	36.23
962.108	53.86
962.275	64.71
962.443	88.35
962.61	62.39
962.777	126.9
962.944	69.75
963.111	59.67
963.278	60.84
963.446	82.15
963.613	50.96
963.78	90.67
963.947	81.57
964.114	58.12
964.281	132.52
964.448	97.26
964.615	34.87
964.782	72.66
964.949	59.09
965.116	77.89
965.282	112.95
965.449	47.86
965.616	40.3
965.783	75.76
965.95	84.86
966.117	-3.87
966.283	68.78
966.45	53.86
966.617	71.88
966.784	102.88
966.95	113.15
967.117	95.9
967.284	24.41
967.45	39.33
967.617	108.89
967.784	87.57
967.95	130
968.117	65.49
968.283	90.48
968.45	173.99
968.616	101.52
968.783	92.42
968.949	84.28
969.116	101.72
969.282	65.29
969.449	78.47
969.615	86.41
969.781	36.62
969.948	42.43
970.114	27.71
970.28	122.06
970.447	80.41
970.613	108.69
970.779	69.17
970.945	84.47
971.112	66.26
971.278	55.8
971.444	74.21
971.61	113.73
971.776	68.78
971.942	96.49
972.108	79.44
972.275	88.15
972.441	93.58
972.607	157.71
972.773	41.46
972.939	63.36
973.105	81.18
973.271	28.29
973.437	62.58
973.602	55.22
973.768	91.45
973.934	94.94
974.1	86.99
974.266	-2.52
974.432	74.4
974.598	51.92
974.763	93.39
974.929	13.56
975.095	129.04
975.261	30.61
975.426	74.01
975.592	51.15
975.758	124.77
975.923	17.63
976.089	55.8
976.255	102.88
976.42	72.07
976.586	86.99
976.751	68.2
976.917	152.48
977.082	92.42
977.248	23.06
977.413	16.08
977.579	49.21
977.744	59.48
977.91	27.12
978.075	32.74
978.24	60.84
978.406	52.7
978.571	55.99
978.736	39.33
978.902	62.97
979.067	7.17
979.232	-0.58
979.397	68.01
979.563	107.72
979.728	38.17
979.893	56.57
980.058	47.66
980.223	77.11
980.388	65.87
980.554	88.35
980.719	67.62
980.884	62.77
981.049	112.95
981.214	43.79
981.379	79.63
981.544	49.21
981.709	69.36
981.874	24.41
982.039	44.37
982.204	95.9
982.368	57.74
982.533	54.64
982.698	116.44
982.863	96.29
983.028	45.92
983.193	84.09
983.357	78.86
983.522	74.79
983.687	53.67
983.852	56.96
984.016	59.09
984.181	73.04
984.346	80.6
984.51	86.61
984.675	58.9
984.839	110.05
985.004	67.42
985.168	96.1
985.333	90.09
985.498	57.74
985.662	77.5
985.827	81.76
985.991	24.61
986.155	55.41
986.32	93.58
986.484	90.29
986.649	67.81
986.813	5.04
986.977	90.48
987.142	107.72
987.306	46.89
987.47	48.05
987.634	49.99
987.799	68.39
987.963	71.88
988.127	96.29
988.291	108.11
988.455	48.63
988.62	53.86
988.784	83.89
988.948	90.67
989.112	62.58
989.276	63.36
989.44	69.36
989.604	18.21
989.768	42.43
989.932	131.75
990.096	49.99
990.26	17.63
990.424	26.74
990.588	34.1
990.752	117.22
990.915	69.56
991.079	36.81
991.243	57.54
991.407	79.82
991.571	77.89
991.734	83.31
991.898	62
992.062	148.22
992.226	63.94
992.389	27.9
992.553	21.31
992.717	17.44
992.88	36.23
993.044	52.12
993.207	39.52
993.371	80.02
993.535	38.94
993.698	41.66
993.862	82.73
994.025	103.27
994.189	64.13
994.352	37.78
994.515	64.71
994.679	102.49
994.842	42.43
995.006	83.31
995.169	23.44
995.332	1.55
995.496	71.11
995.659	1.94
995.822	55.99
995.985	54.44
996.149	103.85
996.312	44.37
996.475	94.94
996.638	23.64
996.801	93.19
996.964	114.89
997.128	55.22
997.291	63.55
997.454	72.27
997.617	5.62
997.78	115.28
997.943	27.32
998.106	99.2
998.269	26.16
998.432	51.34
998.595	29.26
998.758	4.46
998.92	46.5
999.083	8.52
999.246	34.1
999.409	-2.71
999.572	-10.66
999.735	33.91
999.897	38.17
1000.06	51.54
1000.223	49.41
1000.386	98.23
1000.548	66.26
1000.711	40.69
1000.874	56.19
1001.036	15.31
1001.199	86.61
1001.361	51.92
1001.524	38.56
1001.687	65.87
1001.849	25.38
1002.012	58.71
1002.174	54.64
1002.337	57.54
1002.499	42.62
1002.661	73.24
1002.824	2.71
1002.986	18.79
1003.149	56.96
1003.311	14.72
1003.473	92.61
1003.636	32.55
1003.798	66.07
1003.96	63.36
1004.123	27.32
1004.285	41.07
1004.447	10.07
1004.609	11.24
1004.771	87.19
1004.933	1.36
1005.096	15.69
1005.258	-12.79
1005.42	29.45
1005.582	88.54
1005.744	43.21
1005.906	-4.84
1006.068	39.91
1006.23	16.47
1006.392	-20.54
1006.554	6.59
1006.716	56.77
1006.878	50.57
1007.04	2.71
1007.202	9.11
1007.363	34.87
1007.525	61.61
1007.687	49.21
1007.849	60.84
1008.011	-15.89
1008.172	-5.42
1008.334	28.87
1008.496	34.49
1008.658	-17.05
1008.819	4.07
1008.981	-12.4
1009.143	6.01
1009.304	15.89
1009.466	56.19
1009.627	77.5
1009.789	125.74
1009.95	39.91
1010.112	14.92
1010.273	69.56
1010.435	9.69
1010.596	11.43
1010.758	18.79
1010.919	15.5
1011.081	1.74
1011.242	15.5
1011.403	44.76
1011.565	33.52
1011.726	54.06
1011.887	-2.71
1012.049	15.69
1012.21	38.94
1012.371	88.15
1012.532	-43.21
1012.693	20.15
1012.855	-13.17
1013.016	26.93
1013.177	70.14
1013.338	16.66
1013.499	82.73
1013.66	52.7
1013.821	29.26
1013.982	62.19
1014.143	29.64
1014.304	-0.19
1014.465	50.18
1014.626	37.39
1014.787	4.65
1014.948	110.44
1015.109	-52.89
1015.27	65.1
1015.431	9.3
1015.592	8.72
1015.752	108.69
1015.913	27.51
1016.074	50.57
1016.235	8.52
1016.395	-0.39
1016.556	19.57
1016.717	28.87
1016.877	66.07
1017.038	13.76
1017.199	21.12
1017.359	18.21
1017.52	18.79
1017.681	7.36
1017.841	8.33
1018.002	41.66
1018.162	1.74
1018.323	62.39
1018.483	15.5
1018.644	38.56
1018.804	-6.78
1018.964	-10.66
1019.125	13.76
1019.285	35.26
1019.446	-0.58
1019.606	9.11
1019.766	-50.76
1019.926	45.14
1020.087	57.54
1020.247	-16.27
1020.407	31.77
1020.567	64.52
1020.728	16.08
1020.888	-22.09
1021.048	-2.13
1021.208	-1.94
1021.368	1.16
1021.528	56.38
1021.688	54.25
1021.848	48.05
1022.008	29.06
1022.168	16.47
1022.328	21.7
1022.488	48.05
1022.648	2.52
1022.808	12.4
1022.968	26.16
1023.128	-10.66
1023.288	29.26
1023.448	37.78
1023.608	37.39
1023.767	59.87
1023.927	-10.46
1024.087	-32.36
1024.247	-36.04
1024.406	0.58
1024.566	-32.74
1024.726	8.91
1024.885	23.83
1025.045	29.64
1025.205	-15.69
1025.364	14.14
1025.524	44.17
1025.683	3.49
1025.843	8.33
1026.003	5.23
1026.162	50.57
1026.321	69.94
1026.481	22.47
1026.64	-1.36
1026.8	15.11
1026.959	11.04
1027.119	35.07
1027.278	18.02
1027.437	-17.82
1027.597	16.86
1027.756	26.35
1027.915	31
1028.074	14.92
1028.234	-11.04
1028.393	21.51
1028.552	30.81
1028.711	-73.62
1028.87	55.99
1029.03	-12.4
1029.189	12.4
1029.348	-47.08
1029.507	3.1
1029.666	12.4
1029.825	-3.68
1029.984	-5.81
1030.143	24.99
1030.302	-19.76
1030.461	-36.04
1030.62	2.91
1030.779	18.99
1030.938	23.64
1031.097	-20.73
1031.255	20.15
1031.414	57.16
1031.573	52.51
1031.732	-34.49
1031.891	7.75
1032.049	68.01
1032.208	22.09
1032.367	-20.34
1032.525	8.14
1032.684	9.88
1032.843	-3.29
1033.001	-49.02
1033.16	169.53
1033.319	42.82
1033.477	38.56
1033.636	-3.87
1033.794	-30.22
1033.953	24.99
1034.111	45.14
1034.27	2.13
1034.428	28.48
1034.587	-4.84
1034.745	9.11
1034.903	-1.16
1035.062	26.16
1035.22	-15.31
1035.378	38.36
1035.537	-3.29
1035.695	45.14
1035.853	25.19
1036.011	56.57
1036.17	34.87
1036.328	-59.48
1036.486	17.05
1036.644	14.14
1036.802	-72.66
1036.96	-24.22
1037.119	-29.45
1037.277	-6.59
1037.435	-31.97
1037.593	-30.22
1037.751	-2.32
1037.909	35.07
1038.067	35.07
