Data from pine_FLMT105791__50__17-20-50-078.txt Node

Date: Mon Mar 20 17:20:50 GMT 2023
User: antho
Spectrometer: FLMT10579
Trigger mode: 0
Integration Time (sec): 1.000000E-1
Scans to average: 10
Electric dark correction enabled: true
Nonlinearity correction enabled: false
Boxcar width: 0
XAxis mode: Wavelengths
Number of Pixels in Spectrum: 3648
>>>>>Begin Spectral Data<<<<<
345.248	-148.06
345.464	-148.06
345.681	-148.06
345.898	-156.39
346.114	-158.32
346.331	-32.39
346.548	16.63
346.764	7.72
346.981	-0.42
347.197	-18.63
347.414	34.84
347.631	-36.26
347.847	43.95
348.064	1.32
348.28	26.51
348.497	-30.64
348.713	-12.63
348.93	29.42
349.146	47.82
349.363	22.44
349.579	10.82
349.796	-6.23
350.012	-1.78
350.229	37.75
350.445	13.14
350.661	-4.49
350.878	16.82
351.094	21.67
351.311	7.33
351.527	16.63
351.743	-13.59
351.96	33.49
352.176	32.32
352.392	17.79
352.609	46.08
352.825	-11.27
353.041	25.35
353.257	-15.92
353.474	19.15
353.69	34.07
353.906	30.97
354.122	-8.56
354.339	62.55
354.555	-3.13
354.771	12.76
354.987	76.3
355.203	76.89
355.42	24.19
355.636	-0.23
355.852	-5.26
356.068	4.62
356.284	-5.07
356.5	63.71
356.716	7.72
356.932	4.23
357.148	34.26
357.364	15.08
357.58	39.49
357.796	65.45
358.012	56.74
358.228	23.6
358.444	-63.19
358.66	49.76
358.876	37.94
359.092	-27.16
359.308	32.32
359.524	47.44
359.74	11.59
359.956	-1.58
360.172	29.03
360.388	60.8
360.604	19.15
360.819	87.54
361.035	37.55
361.251	38.14
361.467	12.56
361.683	57.12
361.898	20.31
362.114	37.75
362.33	12.95
362.546	68.17
362.762	13.14
362.977	17.21
363.193	28.84
363.409	62.16
363.624	-16.11
363.84	-15.34
364.056	13.72
364.271	36.39
364.487	51.7
364.703	-0.81
364.918	-8.17
365.134	15.66
365.35	23.6
365.565	122.61
365.781	31.16
365.996	26.51
366.212	83.28
366.427	31.35
366.643	-10.3
366.858	-15.34
367.074	0.16
367.289	82.12
367.505	95.29
367.72	-34.71
367.936	-7.39
368.151	48.79
368.367	35.04
368.582	41.24
368.798	10.62
369.013	79.02
369.228	19.92
369.444	21.28
369.659	87.74
369.874	28.45
370.09	107.11
370.305	-32.19
370.52	29.61
370.736	78.24
370.951	21.28
371.166	74.75
371.381	85.41
371.597	53.44
371.812	3.84
372.027	10.43
372.242	11.98
372.458	87.74
372.673	22.25
372.888	29.61
373.103	63.71
373.318	95.68
373.533	60.42
373.749	63.52
373.964	-31.23
374.179	49.18
374.394	18.57
374.609	80.76
374.824	21.67
375.039	40.65
375.254	-18.83
375.469	62.35
375.684	31.16
375.899	54.99
376.114	20.12
376.329	30.39
376.544	75.34
376.759	19.34
376.974	1.32
377.189	7.72
377.404	19.73
377.619	63.9
377.834	-23.86
378.049	-31.03
378.264	-2.36
378.478	18.57
378.693	-4.29
378.908	47.05
379.123	27.67
379.338	70.69
379.553	14.5
379.767	28.45
379.982	42.4
380.197	57.51
380.412	36
380.626	41.04
380.841	92.77
381.056	39.69
381.271	99.55
381.485	1.32
381.7	-10.3
381.915	28.64
382.129	19.15
382.344	34.84
382.559	10.43
382.773	65.26
382.988	-38.2
383.202	37.55
383.417	-8.75
383.632	116.99
383.846	43.37
384.061	28.64
384.275	8.69
384.49	21.86
384.704	54.8
384.919	59.45
385.133	33.29
385.348	38.72
385.562	-8.75
385.777	79.02
385.991	28.06
386.206	26.9
386.42	-1.39
386.634	60.22
386.849	37.75
387.063	44.53
387.277	14.11
387.492	-3.33
387.706	-0.03
387.92	4.42
388.135	52.09
388.349	18.95
388.563	42.4
388.778	54.6
388.992	48.4
389.206	41.43
389.42	96.84
389.635	45.5
389.849	52.28
390.063	53.44
390.277	37.75
390.491	85.02
390.706	51.89
390.92	52.09
391.134	25.93
391.348	54.02
391.562	-0.61
391.776	23.22
391.99	19.54
392.205	67.59
392.419	9.46
392.633	11.01
392.847	84.64
393.061	11.79
393.275	100.14
393.489	8.11
393.703	12.56
393.917	73.2
394.131	23.8
394.345	52.67
394.559	74.95
394.773	18.37
394.986	36.59
395.2	0.36
395.414	56.35
395.628	-7.98
395.842	29.8
396.056	29.03
396.27	-2.16
396.484	26.12
396.697	43.95
396.911	76.11
397.125	64.29
397.339	90.06
397.553	68.36
397.766	107.88
397.98	70.69
398.194	78.63
398.408	9.46
398.621	44.53
398.835	59.64
399.049	61.97
399.262	89.09
399.476	77.66
399.69	61.58
399.903	116.22
400.117	34.65
400.331	52.09
400.544	11.4
400.758	159.62
400.971	55.19
401.185	85.22
401.398	39.88
401.612	99.36
401.826	84.05
402.039	96.26
402.253	39.3
402.466	89.48
402.68	30
402.893	61.58
403.106	71.07
403.32	43.75
403.533	59.45
403.747	70.1
403.96	42.01
404.174	93.35
404.387	1.71
404.6	54.8
404.814	78.82
405.027	65.84
405.24	67
405.454	15.47
405.667	78.05
405.88	-0.03
406.094	59.84
406.307	88.12
406.52	70.3
406.733	10.82
406.947	0.16
407.16	129.58
407.373	101.69
407.586	53.05
407.799	40.27
408.012	92.58
408.226	62.74
408.439	87.15
408.652	6.94
408.865	72.43
409.078	105.37
409.291	74.95
409.504	3.46
409.717	90.25
409.93	51.89
410.143	63.9
410.357	3.46
410.57	19.92
410.783	29.03
410.996	64.1
411.209	57.7
411.421	99.55
411.634	62.16
411.847	24.96
412.06	72.82
412.273	70.1
412.486	74.75
412.699	138.69
412.912	48.99
413.125	116.8
413.338	62.16
413.55	82.7
413.763	67.59
413.976	84.05
414.189	50.54
414.402	59.84
414.615	103.43
414.827	58.29
415.04	117.18
415.253	91.03
415.466	83.09
415.678	115.44
415.891	45.3
416.104	66.42
416.316	76.11
416.529	24.77
416.742	81.92
416.954	93.74
417.167	57.32
417.38	79.6
417.592	109.63
417.805	37.94
418.017	21.67
418.23	102.46
418.442	66.04
418.655	74.75
418.868	73.4
419.08	91.22
419.293	116.8
419.505	89.67
419.718	78.05
419.93	95.49
420.142	32.71
420.355	112.34
420.567	139.27
420.78	80.37
420.992	49.95
421.205	130.75
421.417	0.55
421.629	72.43
421.842	48.21
422.054	36.59
422.266	107.88
422.479	110.21
422.691	94.13
422.903	118.15
423.115	69.33
423.328	68.75
423.54	100.14
423.752	73.01
423.964	38.33
424.177	115.63
424.389	59.45
424.601	174.92
424.813	80.76
425.025	124.74
425.238	124.93
425.45	89.67
425.662	91.61
425.874	414.78
426.086	77.66
426.298	90.84
426.51	111.37
426.722	74.56
426.934	63.9
427.146	129.58
427.358	77.85
427.57	115.83
427.782	95.29
427.994	98
428.206	65.45
428.418	44.14
428.63	113.12
428.842	120.67
429.054	129.2
429.266	139.08
429.478	67.2
429.69	111.57
429.902	54.41
430.114	124.55
430.325	120.87
430.537	98.59
430.749	98.97
430.961	24.57
431.173	89.67
431.384	113.31
431.596	38.72
431.808	71.07
432.02	119.32
432.231	129.97
432.443	163.88
432.655	143.15
432.867	104.4
433.078	109.43
433.29	181.51
433.502	127.45
433.713	157.29
433.925	135.78
434.136	156.32
434.348	111.18
434.56	64.68
434.771	209.41
434.983	95.87
435.194	147.41
435.406	108.27
435.617	182.48
435.829	198.17
436.04	172.21
436.252	155.35
436.463	161.36
436.675	185.58
436.886	175.5
437.098	161.94
437.309	206.5
437.521	142.76
437.732	159.62
437.943	151.67
438.155	145.67
438.366	94.9
438.578	244.67
438.789	174.73
439	177.63
439.211	133.27
439.423	157.48
439.634	190.61
439.845	197.59
440.057	183.45
440.268	211.93
440.479	169.11
440.69	177.63
440.902	183.45
441.113	192.36
441.324	145.28
441.535	205.53
441.746	232.46
441.957	152.83
442.168	187.52
442.38	197.78
442.591	214.64
442.802	145.67
443.013	176.08
443.224	199.72
443.435	190.81
443.646	212.7
443.857	196.81
444.068	204.18
444.279	157.29
444.49	271.02
444.701	216
444.912	306.67
445.123	263.85
445.334	221.03
445.545	204.56
445.756	200.11
445.967	184.8
446.178	234.98
446.388	253
446.599	228.59
446.81	261.53
447.021	241.38
447.232	274.31
447.443	284.19
447.653	199.33
447.864	278.96
448.075	215.8
448.286	282.45
448.496	253
448.707	295.24
448.918	197.4
449.129	362.66
449.339	237.89
449.55	270.05
449.761	258.81
449.971	312.87
450.182	226.65
450.393	287.88
450.603	254.16
450.814	293.69
451.024	279.35
451.235	297.76
451.446	320.81
451.656	326.04
451.867	281.87
452.077	283.61
452.288	314.61
452.498	334.18
452.709	273.15
452.919	278.19
453.13	240.41
453.34	312.09
453.55	199.53
453.761	313.26
453.971	312.09
454.182	294.85
454.392	296.21
454.602	335.54
454.813	302.41
455.023	317.52
455.233	237.89
455.444	277.22
455.654	236.15
455.864	330.11
456.075	287.29
456.285	268.5
456.495	288.46
456.705	317.13
456.916	364.21
457.126	364.41
457.336	315.58
457.546	230.72
457.756	271.41
457.967	353.36
458.177	282.64
458.387	323.33
458.597	286.13
458.807	314.42
459.017	313.26
459.227	298.73
459.437	308.41
459.647	347.74
459.857	345.42
460.068	306.67
460.278	353.17
460.488	347.36
460.698	390.76
460.908	347.94
461.117	301.05
461.327	300.08
461.537	348.52
461.747	357.04
461.957	327.59
462.167	418.85
462.377	384.17
462.587	357.63
462.797	369.83
463.007	341.16
463.216	381.65
463.426	405.09
463.636	375.64
463.846	312.29
464.056	316.55
464.265	390.37
464.475	323.91
464.685	357.63
464.895	379.52
465.104	332.63
465.314	369.83
465.524	358.01
465.733	326.24
465.943	434.16
466.153	414.59
466.362	394.05
466.572	376.42
466.782	364.99
466.991	376.03
467.201	427.76
467.41	335.54
467.62	389.59
467.829	360.92
468.039	385.72
468.249	378.36
468.458	356.27
468.668	402.96
468.877	404.71
469.086	433.77
469.296	427.96
469.505	383.01
469.715	448.3
469.924	408.39
470.134	458.37
470.343	453.72
470.552	419.82
470.762	397.34
470.971	385.33
471.18	387.66
471.39	419.04
471.599	383.97
471.808	423.5
472.018	381.46
472.227	460.89
472.436	464.19
472.645	439
472.855	420.98
473.064	511.27
473.273	440.55
473.482	473.29
473.691	486.47
473.901	486.27
474.11	434.93
474.319	540.13
474.528	465.74
474.737	499.84
474.946	510.49
475.155	498.67
475.364	542.85
475.573	496.35
475.783	506.23
475.992	505.84
476.201	559.51
476.41	478.91
476.619	474.07
476.828	491.31
477.037	472.13
477.245	489.37
477.454	538.39
477.663	503.32
477.872	512.43
478.081	596.9
478.29	485.69
478.499	594.19
478.708	552.73
478.917	606.78
479.125	540.72
479.334	580.05
479.543	547.88
479.752	584.12
479.961	572.88
480.169	603.68
480.378	555.25
480.587	681.57
480.796	602.33
481.004	584.7
481.213	629.45
481.422	587.6
481.63	573.07
481.839	621.51
482.048	682.35
482.256	621.9
482.465	629.65
482.674	658.13
482.882	644.37
483.091	713.93
483.299	667.43
483.508	658.32
483.716	641.08
483.925	651.35
484.134	631.39
484.342	643.4
484.551	674.6
484.759	678.28
484.967	694.75
485.176	680.8
485.384	685.45
485.593	712.76
485.801	699.78
486.01	651.54
486.218	626.74
486.426	563.77
486.635	590.12
486.843	610.85
487.051	625.97
487.26	599.03
487.468	655.41
487.676	681.18
487.885	655.03
488.093	676.73
488.301	684.86
488.509	715.28
488.717	743.18
488.926	705.4
489.134	694.55
489.342	725.55
489.55	682.73
489.758	726.71
489.967	716.83
490.175	797.04
490.383	753.06
490.591	823.01
490.799	729.43
491.007	810.41
491.215	783.48
491.423	771.28
491.631	771.86
491.839	777.09
492.047	801.5
492.255	719.54
492.463	711.8
492.671	743.76
492.879	823.78
493.087	779.22
493.295	778.06
493.503	799.18
493.711	833.08
493.919	856.33
494.127	829.98
494.334	833.66
494.542	781.16
494.75	794.91
494.958	831.34
495.166	872.41
495.374	831.53
495.581	852.65
495.789	832.11
495.997	882.87
496.205	832.31
496.412	833.08
496.62	827.07
496.828	854.97
497.035	844.71
497.243	909.61
497.451	853.04
497.658	862.72
497.866	866.02
498.074	929.95
498.281	839.09
498.489	931.31
498.696	849.74
498.904	847.42
499.112	846.45
499.319	948.55
499.527	859.62
499.734	909.42
499.942	844.32
500.149	878.61
500.357	891.4
500.564	851.29
500.771	897.79
500.979	839.67
501.186	853.04
501.394	900.89
501.601	893.34
501.808	889.85
502.016	899.15
502.223	885.39
502.43	911.35
502.638	902.83
502.845	863.89
503.052	938.87
503.26	881.32
503.467	1007.07
503.674	906.12
503.881	938.67
504.089	996.22
504.296	949.72
504.503	877.06
504.71	926.27
504.917	936.93
505.125	934.8
505.332	948.55
505.539	955.53
505.746	1025.67
505.953	1024.7
506.16	995.05
506.367	1058.02
506.574	1037.68
506.781	1008.62
506.988	993.89
507.195	993.12
507.402	993.12
507.609	1030.12
507.816	959.4
508.023	981.1
508.23	967.54
508.437	949.52
508.644	1029.73
508.851	1055.12
509.058	1069.26
509.265	1030.32
509.472	1088.25
509.679	1120.02
509.885	1050.08
510.092	1022.37
510.299	1034.97
510.506	1066.74
510.713	1080.11
510.92	1072.16
511.126	1108.2
511.333	1132.42
511.54	1135.71
511.746	1152.57
511.953	1144.05
512.16	1149.28
512.367	1096.77
512.573	1097.93
512.78	1094.64
512.987	1088.44
513.193	1120.21
513.4	1029.73
513.606	1119.25
513.813	1131.45
514.02	1114.4
514.226	1157.61
514.433	1172.33
514.639	1077.78
514.846	1124.86
515.052	1090.96
515.259	1088.25
515.465	1127.38
515.672	1182.79
515.878	1224.26
516.085	1137.07
516.291	1210.11
516.497	1131.65
516.704	1140.95
516.91	1101.81
517.117	1070.42
517.323	999.9
517.529	1058.99
517.736	1054.73
517.942	1058.99
518.148	1100.06
518.354	1064.22
518.561	1114.79
518.767	1120.02
518.973	1169.04
519.179	1143.85
519.386	1122.54
519.592	1140.56
519.798	1141.72
520.004	1221.74
520.21	1166.13
520.417	1220.77
520.623	1291.29
520.829	1289.55
521.035	1273.08
521.241	1299.04
521.447	1256.22
521.653	1376.15
521.859	1285.48
522.065	1304.27
522.271	1398.44
522.477	1320.94
522.683	1388.55
522.889	1335.66
523.095	1324.23
523.301	1319.77
523.507	1306.6
523.713	1305.63
523.919	1287.61
524.125	1381.77
524.331	1359.69
524.537	1450.55
524.742	1427.69
524.948	1410.25
525.154	1396.5
525.36	1514.3
525.566	1426.92
525.772	1482.72
525.977	1385.45
526.183	1447.84
526.389	1478.07
526.595	1397.08
526.8	1389.91
527.006	1319.77
527.212	1281.8
527.417	1310.67
527.623	1293.81
527.829	1393.01
528.034	1357.17
528.24	1386.62
528.446	1400.18
528.651	1500.54
528.857	1460.82
529.062	1519.72
529.268	1488.72
529.473	1484.46
529.679	1454.62
529.884	1535.22
530.09	1509.06
530.295	1539.1
530.501	1544.13
530.706	1564.48
530.912	1533.09
531.117	1535.03
531.323	1541.81
531.528	1571.26
531.733	1595.28
531.939	1557.31
532.144	1587.34
532.35	1586.56
532.555	1597.41
532.76	1541.03
532.966	1550.33
533.171	1544.33
533.376	1545.3
533.581	1496.08
533.787	1547.62
533.992	1583.46
534.197	1566.03
534.402	1546.26
534.607	1583.66
534.813	1688.47
535.018	1557.11
535.223	1573.39
535.428	1582.88
535.633	1644.49
535.838	1645.27
536.043	1665.42
536.249	1703.39
536.454	1619.5
536.659	1655.34
536.864	1625.51
537.069	1626.28
537.274	1613.11
537.479	1639.84
537.684	1653.6
537.889	1572.23
538.094	1727.61
538.299	1596.83
538.504	1675.49
538.708	1637.52
538.913	1713.47
539.118	1661.54
539.323	1672.98
539.528	1633.45
539.733	1658.83
539.938	1689.44
540.142	1678.59
540.347	1642.56
540.552	1597.03
540.757	1629.19
540.962	1639.07
541.166	1602.84
541.371	1567.58
541.576	1627.06
541.781	1535.03
541.985	1636.94
542.19	1671.23
542.395	1748.34
542.599	1734.78
542.804	1717.73
543.008	1725.48
543.213	1664.64
543.418	1612.53
543.622	1725.29
543.827	1617.37
544.031	1734.01
544.236	1730.71
544.44	1723.93
544.645	1790.19
544.849	1686.54
545.054	1739.43
545.258	1828.55
545.463	1802.01
545.667	1706.3
545.872	1764.04
546.076	1766.36
546.281	1740.01
546.485	1702.81
546.689	1747.37
546.894	1759.19
547.098	1724.32
547.302	1688.47
547.507	1772.95
547.711	1771.79
547.915	1772.37
548.119	1709.21
548.324	1712.11
548.528	1782.05
548.732	1767.91
548.936	1800.07
549.141	1804.34
549.345	1737.3
549.549	1762.49
549.753	1748.54
549.957	1838.44
550.161	1875.83
550.366	1754.16
550.57	1781.86
550.774	1771.4
550.978	1740.01
551.182	1777.99
551.386	1718.89
551.59	1740.59
551.794	1746.21
551.998	1802.59
552.202	1778.95
552.406	1726.64
552.61	1790.58
552.814	1801.62
553.018	1858.58
553.222	1765
553.426	1740.4
553.63	1839.02
553.833	1756.29
554.037	1740.4
554.241	1831.07
554.445	1770.24
554.649	1767.72
554.853	1771.59
555.056	1799.3
555.26	1803.37
555.464	1793.68
555.668	1771.79
555.871	1850.25
556.075	1826.62
556.279	1740.01
556.483	1747.76
556.686	1727.22
556.89	1759.97
557.094	1765.2
557.297	1718.51
557.501	1786.32
557.704	1726.06
557.908	1795.81
558.112	1720.83
558.315	1785.93
558.519	1732.26
558.722	1737.49
558.926	1728.77
559.129	1664.26
559.333	1659.99
559.536	1635.39
559.74	1639.26
559.943	1636.94
560.147	1618.34
560.35	1674.53
560.553	1695.84
560.757	1629.19
560.96	1714.63
561.164	1678.21
561.367	1756.48
561.57	1689.25
561.774	1691.77
561.977	1687.7
562.18	1642.36
562.384	1789.03
562.587	1707.46
562.79	1670.84
562.993	1695.84
563.197	1726.06
563.4	1759.58
563.603	1736.33
563.806	1781.09
564.009	1645.85
564.212	1707.66
564.416	1608.46
564.619	1701.26
564.822	1621.83
565.025	1688.09
565.228	1643.91
565.431	1689.44
565.634	1570.48
565.837	1594.89
566.04	1587.15
566.243	1600.9
566.446	1544.13
566.649	1628.03
566.852	1555.18
567.055	1595.48
567.258	1623.96
567.461	1665.81
567.664	1665.61
567.867	1562.15
568.07	1614.66
568.273	1598.96
568.475	1640.62
568.678	1579.59
568.881	1536.77
569.084	1586.56
569.287	1469.73
569.489	1484.85
569.692	1590.05
569.895	1554.98
570.098	1491.43
570.3	1524.37
570.503	1404.83
570.706	1482.91
570.909	1466.44
571.111	1442.22
571.314	1419.55
571.516	1448.42
571.719	1485.62
571.922	1433.31
572.124	1452.88
572.327	1475.55
572.529	1409.48
572.732	1427.69
572.935	1499.96
573.137	1532.51
573.34	1421.3
573.542	1490.27
573.745	1508.87
573.947	1474.97
574.15	1472.25
574.352	1425.37
574.554	1527.28
574.757	1418.97
574.959	1443.77
575.162	1419.94
575.364	1407.74
575.566	1540.26
575.769	1391.07
575.971	1425.95
576.173	1335.47
576.376	1417.03
576.578	1437.18
576.78	1507.51
576.982	1330.24
577.185	1408.7
577.387	1371.5
577.589	1388.36
577.791	1399.21
577.993	1432.73
578.196	1355.23
578.398	1411.61
578.6	1420.91
578.802	1313.96
579.004	1340.89
579.206	1374.41
579.408	1421.3
579.61	1388.17
579.812	1413.35
580.014	1365.69
580.216	1376.74
580.418	1350.19
580.62	1351.16
580.822	1304.08
581.024	1383.9
581.226	1403.67
581.428	1337.4
581.63	1465.47
581.832	1385.45
582.034	1448.23
582.236	1417.03
582.438	1449.78
582.64	1455.01
582.841	1480
583.043	1495.7
583.245	1401.54
583.447	1441.83
583.649	1433.5
583.85	1412.58
584.052	1470.7
584.254	1336.05
584.456	1453.85
584.657	1360.07
584.859	1443.19
585.061	1374.8
585.262	1370.15
585.464	1365.69
585.666	1412
585.867	1364.14
586.069	1424.01
586.27	1381.19
586.472	1366.08
586.674	1342.44
586.875	1350.97
587.077	1344.19
587.278	1431.37
587.48	1348.06
587.681	1449.78
587.883	1375.19
588.084	1318.61
588.285	1358.14
588.487	1318.22
588.688	1345.74
588.89	1224.06
589.091	1244.21
589.292	1248.86
589.494	1225.03
589.695	1211.86
589.896	1096
590.098	1147.92
590.299	1201.2
590.5	1177.56
590.702	1179.89
590.903	1188.22
591.104	1284.9
591.305	1237.82
591.507	1302.72
591.708	1263.2
591.909	1270.17
592.11	1348.45
592.311	1263.01
592.512	1246.73
592.714	1206.63
592.915	1239.76
593.116	1230.07
593.317	1256.81
593.518	1245.96
593.719	1269.59
593.92	1297.69
594.121	1308.92
594.322	1260.87
594.523	1261.84
594.724	1174.08
594.925	1240.34
595.126	1252.35
595.327	1287.22
595.528	1250.61
595.729	1273.27
595.929	1236.08
596.13	1253.71
596.331	1269.4
596.532	1255.26
596.733	1329.07
596.934	1326.75
597.135	1293.62
597.335	1322.29
597.536	1224.26
597.737	1252.74
597.938	1250.61
598.138	1288.19
598.339	1227.94
598.54	1246.54
598.74	1241.5
598.941	1213.21
599.142	1325.39
599.342	1324.23
599.543	1234.14
599.744	1248.67
599.944	1246.15
600.145	1231.23
600.345	1251.38
600.546	1337.79
600.746	1288.97
600.947	1363.17
601.147	1275.6
601.348	1305.63
601.548	1222.32
601.749	1278.31
601.949	1195
602.15	1210.11
602.35	1228.13
602.551	1290.52
602.751	1207.98
602.951	1251.57
603.152	1165.55
603.352	1247.89
603.552	1245.37
603.753	1298.46
603.953	1289.74
604.153	1269.21
604.354	1233.36
604.554	1253.12
604.754	1263.01
604.954	1191.9
605.155	1252.16
605.355	1266.3
605.555	1283.35
605.755	1306.02
605.955	1238.4
606.155	1286.64
606.356	1261.26
606.556	1258.94
606.756	1279.47
606.956	1211.66
607.156	1285.67
607.356	1208.95
607.556	1274.44
607.756	1248.28
607.956	1259.52
608.156	1220.38
608.356	1198.68
608.556	1301.56
608.756	1228.52
608.956	1221.35
609.156	1215.73
609.356	1178.92
609.556	1198.1
609.755	1223.29
609.955	1158.77
610.155	1206.82
610.355	1216.12
610.555	1157.03
610.755	1209.34
610.954	1161.87
611.154	1218.25
611.354	1208.37
611.554	1161.09
611.753	1152.96
611.953	1132.03
612.153	1207.79
612.352	1220.58
612.552	1162.45
612.752	1095.22
612.951	1167.88
613.151	1200.62
613.351	1103.94
613.55	1148.11
613.75	1183.96
613.949	1154.12
614.149	1170.59
614.348	1135.13
614.548	1135.71
614.747	1094.64
614.947	1107.04
615.146	1066.74
615.346	1162.26
615.545	1139.01
615.745	1148.89
615.944	1179.69
616.144	1119.83
616.343	1159.54
616.542	1140.36
616.742	1119.05
616.941	1092.31
617.14	1063.25
617.34	1057.25
617.539	1094.25
617.738	1079.14
617.938	1172.72
618.137	1099.1
618.336	1086.11
618.535	1108.78
618.734	1090.96
618.934	1125.25
619.133	1113.43
619.332	1117.11
619.531	1120.8
619.73	1096.19
619.929	1179.5
620.128	1148.7
620.328	1183.96
620.527	1088.05
620.726	1083.01
620.925	1117.11
621.124	1087.86
621.323	1110.53
621.522	1036.71
621.721	1045.82
621.92	1067.32
622.119	1133.97
622.318	1052.21
622.517	1084.18
622.715	1067.32
622.914	1019.27
623.113	1092.12
623.312	1009.97
623.511	1094.45
623.71	1064.8
623.909	1040.78
624.107	1113.63
624.306	1004.55
624.505	1038.65
624.704	1011.33
624.902	996.8
625.101	1113.24
625.3	1047.37
625.499	1021.79
625.697	1039.03
625.896	996.22
626.095	1033.03
626.293	966.38
626.492	975.1
626.69	1037.68
626.889	986.14
627.088	1048.33
627.286	1021.6
627.485	990.4
627.683	1001.06
627.882	1013.07
628.08	936.93
628.279	955.53
628.477	1081.08
628.676	935.38
628.874	1004.35
629.073	928.21
629.271	960.76
629.469	990.02
629.668	958.44
629.866	954.75
630.065	947.39
630.263	1008.81
630.461	926.27
630.66	968.7
630.858	1003.97
631.056	1004.55
631.254	1018.11
631.453	958.82
631.651	1041.17
631.849	994.08
632.047	944.87
632.245	975.49
632.444	989.05
632.642	973.74
632.84	1044.27
633.038	999.12
633.236	963.47
633.434	959.4
633.632	935.77
633.83	960.76
634.028	1004.55
634.227	959.02
634.425	1021.21
634.623	984.4
634.821	1003.19
635.019	1013.46
635.216	952.04
635.414	1009.97
635.612	1028.38
635.81	967.54
636.008	1037.68
636.206	964.25
636.404	1018.11
636.602	959.79
636.8	981.68
636.997	1012.49
637.195	1012.88
637.393	985.17
637.591	1045.82
637.789	990.98
637.986	988.08
638.184	989.43
638.382	1021.4
638.58	1032.06
638.777	1066.93
638.975	1003.77
639.173	996.41
639.37	1000.28
639.568	996.22
639.765	1015.2
639.963	994.28
640.161	1030.9
640.358	1009.39
640.556	947
640.753	943.13
640.951	935.57
641.148	962.7
641.346	934.6
641.543	963.47
641.741	1005.32
641.938	934.02
642.136	934.6
642.333	906.32
642.531	996.99
642.728	1003.58
642.925	977.62
643.123	956.89
643.32	972.97
643.517	937.9
643.715	958.05
643.912	925.3
644.109	949.33
644.306	940.42
644.504	898.95
644.701	932.47
644.898	997.96
645.095	917.17
645.293	928.79
645.49	979.17
645.687	891.4
645.884	970.84
646.081	893.34
646.278	886.17
646.475	878.81
646.672	882.29
646.87	896.63
647.067	887.91
647.264	902.25
647.461	821.84
647.658	837.92
647.855	906.32
648.052	821.65
648.249	779.03
648.446	873.38
648.642	865.24
648.839	823.59
649.036	843.16
649.233	807.51
649.43	807.31
649.627	798.21
649.824	811.38
650.021	838.51
650.217	829.21
650.414	804.41
650.611	866.02
650.808	868.73
651.004	854.01
651.201	862.34
651.398	876.87
651.595	865.63
651.791	814.67
651.988	851.49
652.185	803.63
652.381	825.33
652.578	795.69
652.775	820.87
652.971	854.39
653.168	810.41
653.364	865.82
653.561	790.26
653.757	832.5
653.954	871.25
654.15	812.74
654.347	915.23
654.543	837.54
654.74	773.6
654.936	779.03
655.133	806.15
655.329	824.75
655.525	797.43
655.722	837.15
655.918	744.93
656.115	806.54
656.311	710.63
656.507	679.44
656.704	666.46
656.9	697.65
657.096	702.5
657.292	699.2
657.489	756.16
657.685	772.05
657.881	756.36
658.077	748.03
658.273	756.55
658.47	832.11
658.666	768.76
658.862	810.02
659.058	744.93
659.254	821.46
659.45	790.26
659.646	812.35
659.842	766.04
660.038	821.65
660.234	735.63
660.43	775.73
660.626	830.37
660.822	820.49
661.018	844.32
661.214	788.52
661.41	754.42
661.606	835.79
661.802	792.59
661.998	774.18
662.194	731.94
662.39	798.79
662.586	810.02
662.781	818.74
662.977	815.26
663.173	830.56
663.369	790.65
663.564	771.28
663.76	806.15
663.956	780.58
664.152	812.35
664.347	718.58
664.543	782.51
664.739	764.69
664.934	712.96
665.13	705.79
665.326	777.86
665.521	785.61
665.717	743.57
665.912	737.56
666.108	661.81
666.304	730.59
666.499	730.59
666.695	683.7
666.89	723.42
667.086	801.11
667.281	761.78
667.477	820.1
667.672	760.23
667.867	778.06
668.063	741.05
668.258	704.63
668.454	744.15
668.649	815.45
668.844	725.55
669.04	749.96
669.235	716.83
669.43	721.68
669.626	680.21
669.821	726.52
670.016	694.36
670.211	738.73
670.407	697.46
670.602	714.12
670.797	714.31
670.992	731.94
671.187	702.88
671.382	762.75
671.578	694.75
671.773	726.91
671.968	659.87
672.163	719.74
672.358	730.98
672.553	710.63
672.748	742.02
672.943	782.13
673.138	693.39
673.333	727.49
673.528	685.06
673.723	706.56
673.918	683.31
674.113	643.79
674.308	773.02
674.503	748.8
674.698	723.23
674.892	720.13
675.087	729.43
675.282	696.88
675.477	685.25
675.672	718.96
675.867	704.63
676.061	648.05
676.256	654.45
676.451	659.48
676.646	703.27
676.84	656.96
677.035	643.98
677.23	653.09
677.424	717.61
677.619	724.19
677.814	744.73
678.008	741.44
678.203	625.19
678.397	652.51
678.592	697.46
678.787	742.99
678.981	679.44
679.176	686.61
679.37	670.14
679.565	667.04
679.759	674.79
679.954	720.13
680.148	732.53
680.342	741.44
680.537	697.46
680.731	696.3
680.926	691.26
681.12	702.88
681.314	657.74
681.509	669.17
681.703	682.73
681.897	690.29
682.092	652.9
682.286	688.16
682.48	743.96
682.674	735.63
682.869	669.95
683.063	694.94
683.257	746.28
683.451	641.08
683.645	698.43
683.839	658.9
684.034	672.66
684.228	714.7
684.422	644.95
684.616	653.09
684.81	682.35
685.004	679.25
685.198	685.83
685.392	712.76
685.586	656.38
685.78	695.71
685.974	706.95
686.168	693.78
686.362	744.93
686.556	645.73
686.75	638.56
686.944	597.48
687.138	611.24
687.331	537.42
687.525	540.52
687.719	459.15
687.913	538.78
688.107	550.6
688.301	525.8
688.494	579.47
688.688	508.94
688.882	512.62
689.076	524.25
689.269	549.05
689.463	623.83
689.657	549.43
689.85	539.55
690.044	564.55
690.238	544.59
690.431	575.4
690.625	607.75
690.818	587.99
691.012	605.23
691.205	650.57
691.399	627.13
691.593	648.05
691.786	679.44
691.98	684.67
692.173	732.33
692.366	680.6
692.56	714.31
692.753	777.86
692.947	688.16
693.14	755
693.333	752.48
693.527	685.83
693.72	731.75
693.914	711.99
694.107	721.48
694.3	727.49
694.493	719.93
694.687	767.21
694.88	711.8
695.073	793.75
695.266	780.96
695.46	757.52
695.653	819.71
695.846	822.23
696.039	731.17
696.232	759.07
696.425	813.71
696.618	854.97
696.812	832.31
697.005	888.11
697.198	956.3
697.391	872.41
697.584	901.67
697.777	952.24
697.97	961.15
698.163	929.18
698.356	916.2
698.549	981.3
698.742	988.85
698.935	910.39
699.127	972.19
699.32	933.05
699.513	903.99
699.706	982.07
699.899	991.76
700.092	969.87
700.285	1029.35
700.477	930.73
700.67	1016.17
700.863	997.38
701.056	1104.52
701.248	1061.12
701.441	1060.15
701.634	1015.98
701.826	1096.38
702.019	1009.39
702.212	1104.13
702.404	1028.57
702.597	1066.93
702.79	1105.68
702.982	1113.43
703.175	1125.06
703.367	1152.38
703.56	1161.09
703.752	1221.74
703.945	1192.68
704.137	1196.94
704.33	1234.72
704.522	1206.04
704.715	1208.18
704.907	1227.16
705.1	1256.22
705.292	1287.61
705.484	1235.49
705.677	1305.24
705.869	1323.26
706.061	1319.58
706.254	1391.65
706.446	1318.61
706.638	1324.62
706.831	1424.4
707.023	1354.84
707.215	1456.37
707.407	1438.93
707.599	1431.37
707.792	1466.05
707.984	1418.2
708.176	1475.35
708.368	1461.98
708.56	1436.02
708.752	1464.31
708.944	1438.54
709.136	1508.48
709.329	1492.21
709.521	1625.31
709.713	1576.3
709.905	1559.25
710.097	1597.03
710.289	1535.8
710.481	1598.19
710.672	1601.68
710.864	1574.16
711.056	1651.86
711.248	1649.53
711.44	1659.41
711.632	1609.62
711.824	1677.04
712.016	1728
712.207	1748.34
712.399	1701.07
712.591	1786.32
712.783	1763.26
712.975	1763.07
713.166	1707.27
713.358	1747.76
713.55	1802.01
713.741	1800.85
713.933	1815.19
714.125	1799.69
714.316	1824.49
714.508	1857.23
714.7	1862.27
714.891	1824.49
715.083	1888.81
715.274	1835.92
715.466	1836.3
715.657	1882.61
715.849	1795.81
716.04	1833.01
716.232	1748.15
716.423	1898.11
716.615	1781.09
716.806	1747.18
716.998	1721.99
717.189	1688.09
717.381	1573.39
717.572	1559.44
717.763	1585.98
717.955	1567.77
718.146	1548.2
718.337	1497.05
718.528	1499.38
718.72	1406.57
718.911	1486.4
719.102	1422.27
719.293	1471.28
719.485	1445.13
719.676	1464.31
719.867	1423.82
720.058	1428.66
720.249	1447.65
720.44	1460.24
720.632	1512.16
720.823	1545.49
721.014	1651.47
721.205	1643.33
721.396	1756.29
721.587	1787.09
721.778	1843.28
721.969	1886.29
722.16	1942.09
722.351	1898.88
722.542	2021.14
722.733	2064.54
722.924	1914.58
723.115	2011.84
723.305	1979.1
723.496	2027.14
723.687	1910.7
723.878	1879.32
724.069	1894.82
724.26	1891.72
724.45	1842.7
724.641	1834.56
724.832	1863.04
725.023	1854.13
725.213	1826.62
725.404	1804.53
725.595	1844.64
725.785	1811.7
725.976	1852
726.167	1871.57
726.357	1865.56
726.548	1952.16
726.739	1884.55
726.929	1953.52
727.12	1979.68
727.31	1995.37
727.501	1965.34
727.691	1953.33
727.882	1984.13
728.072	2018.04
728.263	1963.79
728.453	2046.52
728.644	2094.76
728.834	1995.18
729.024	1994.6
729.215	1994.79
729.405	2051.36
729.596	2073.26
729.786	2137
729.976	2105.61
730.167	2140.1
730.357	2057.18
730.547	2091.86
730.737	2140.49
730.928	2174.59
731.118	2199.19
731.308	2148.43
731.498	2146.88
731.688	2246.27
731.879	2204.62
732.069	2299.17
732.259	2294.52
732.449	2308.08
732.639	2366.98
732.829	2389.84
733.019	2454.94
733.209	2509.19
733.399	2499.11
733.589	2556.07
733.779	2562.66
733.969	2586.69
734.159	2642.1
734.349	2678.72
734.539	2702.16
734.729	2694.22
734.919	2719.6
735.109	2724.25
735.299	2721.92
735.488	2705.45
735.678	2707.39
735.868	2713.98
736.058	2707.2
736.248	2716.5
736.437	2692.67
736.627	2666.51
736.817	2757.57
737.007	2733.93
737.196	2772.3
737.386	2760.67
737.576	2711.07
737.765	2797.48
737.955	2757.96
738.144	2875.37
738.334	2809.11
738.524	2801.17
738.713	2821.9
738.903	2826.35
739.092	2817.83
739.282	2870.33
739.471	2865.49
739.661	2806.2
739.85	2890.29
740.04	2878.66
740.229	2888.74
740.419	2942.99
740.608	2921.09
740.797	2910.24
740.987	2986.19
741.176	2973.21
741.365	2914.12
741.555	2902.11
741.744	2952.09
741.933	2938.14
742.123	2974.96
742.312	2987.74
742.501	3019.91
742.69	3028.24
742.88	2944.34
743.069	3032.5
743.258	2979.22
743.447	3011.77
743.636	3047.03
743.825	2997.82
744.014	3003.44
744.204	3038.12
744.393	2953.26
744.582	3064.08
744.771	3088.69
744.96	2989.49
745.149	3065.82
745.338	2989.87
745.527	3074.15
745.716	2996.66
745.905	3023.59
746.094	3038.89
746.283	3075.32
746.471	3054.01
746.66	3121.82
746.849	3099.54
747.038	3098.95
747.227	3075.12
747.416	3141.77
747.604	3065.63
747.793	3087.91
747.982	3084.62
748.171	3089.07
748.359	3059.82
748.548	3069.51
748.737	3067.37
748.926	3041.41
749.114	2992.97
749.303	3068.15
749.491	3095.85
749.68	2984.45
749.869	3066.99
750.057	3041.22
750.246	2998.21
750.434	3033.47
750.623	3045.29
750.811	3018.74
751	3045.29
751.188	3020.29
751.377	3046.84
751.565	3001.31
751.754	2970.69
751.942	2993.56
752.131	3051.49
752.319	3010.02
752.507	2949.58
752.696	3013.32
752.884	3055.94
753.072	3002.27
753.261	2987.94
753.449	2981.16
753.637	2946.86
753.825	3029.21
754.014	3010.22
754.202	2969.14
754.39	3039.86
754.578	3030.95
754.766	2993.75
754.955	2931.17
755.143	3054.2
755.331	2958.49
755.519	2994.52
755.707	2944.93
755.895	2928.84
756.083	2953.06
756.271	2922.45
756.459	2964.69
756.647	3015.06
756.835	2912.38
757.023	2899.2
757.211	2944.34
757.399	2903.85
757.587	2921.48
757.775	2872.66
757.963	2900.75
758.151	2887
758.339	2845.73
758.526	2827.13
758.714	2857.74
758.902	2778.3
759.09	2667.48
759.278	2528.95
759.465	2357.29
759.653	2025.4
759.841	1838.05
760.028	1590.63
760.216	1365.3
760.404	1280.83
760.591	1074.88
760.779	875.9
760.967	789.49
761.154	663.55
761.342	672.27
761.529	680.21
761.717	747.44
761.905	720.9
762.092	793.36
762.28	725.16
762.467	759.84
762.655	670.91
762.842	704.43
763.029	718.58
763.217	766.63
763.404	744.34
763.592	763.72
763.779	722.84
763.966	756.94
764.154	802.47
764.341	830.37
764.528	813.12
764.716	902.64
764.903	930.54
765.09	993.7
765.277	1062.48
765.465	1205.85
765.652	1250.61
765.839	1293.42
766.026	1406.96
766.213	1442.03
766.4	1526.7
766.588	1711.53
766.775	1704.36
766.962	1832.43
767.149	1853.74
767.336	1998.08
767.523	1952.75
767.71	2052.91
767.897	2158.89
768.084	2242.01
768.271	2243.75
768.458	2291.61
768.645	2343.34
768.832	2295.48
769.019	2350.12
769.206	2422.39
769.392	2451.26
769.579	2573.71
769.766	2514.61
769.953	2475.09
770.14	2533.99
770.327	2516.55
770.513	2565.76
770.7	2587.85
770.887	2526.24
771.073	2598.7
771.26	2556.46
771.447	2549.49
771.634	2546.97
771.82	2656.82
772.007	2554.52
772.193	2570.61
772.38	2598.89
772.567	2586.49
772.753	2601.99
772.94	2629.12
773.126	2612.26
773.313	2580.49
773.499	2633.96
773.686	2606.06
773.872	2553.36
774.059	2586.88
774.245	2538.06
774.432	2571.19
774.618	2503.38
774.804	2574.29
774.991	2515.78
775.177	2587.07
775.363	2536.31
775.55	2575.45
775.736	2524.11
775.922	2527.4
776.109	2539.41
776.295	2513.45
776.481	2552.01
776.667	2562.86
776.853	2527.4
777.04	2499.89
777.226	2522.94
777.412	2577.58
777.598	2476.44
777.784	2477.41
777.97	2442.93
778.156	2564.79
778.342	2508.61
778.528	2492.53
778.715	2425.68
778.901	2424.52
779.087	2469.28
779.272	2422.78
779.458	2413.48
779.644	2459.2
779.83	2419.48
780.016	2528.95
780.202	2450.68
780.388	2441.18
780.574	2349.73
780.76	2345.47
780.946	2447.58
781.131	2398.95
781.317	2423.94
781.503	2383.83
781.689	2391.97
781.874	2498.14
782.06	2374.15
782.246	2385.96
782.432	2400.5
782.617	2395.26
782.803	2435.95
782.989	2339.08
783.174	2349.15
783.36	2321.45
783.545	2305.56
783.731	2325.9
783.916	2262.55
784.102	2358.45
784.288	2289.48
784.473	2351.87
784.659	2293.93
784.844	2337.72
785.029	2279.6
785.215	2240.27
785.4	2211.01
785.586	2345.47
785.771	2232.13
785.956	2290.45
786.142	2220.12
786.327	2211.01
786.512	2244.14
786.698	2251.31
786.883	2161.22
787.068	2218.37
787.254	2240.27
787.439	2228.84
787.624	2205.59
787.809	2207.33
787.994	2160.44
788.18	2240.07
788.365	2134.87
788.55	2166.06
788.735	2177.3
788.92	2145.52
789.105	2135.84
789.29	2183.11
789.475	2105.81
789.66	2097.28
789.845	2062.02
790.03	2115.11
790.215	2161.41
790.4	2175.36
790.585	2183.5
790.77	2120.34
790.955	2026.18
791.14	2111.81
791.325	2180.4
791.51	2047.1
791.695	2073.26
791.879	2090.69
792.064	2018.81
792.249	2100.38
792.434	2080.62
792.618	2078.88
792.803	2093.41
792.988	2054.46
793.173	2070.93
793.357	2105.03
793.542	2046.71
793.727	2105.23
793.911	2126.54
794.096	2115.49
794.281	2145.52
794.465	2169.55
794.65	2106.39
794.834	2121.31
795.019	2143.39
795.203	2115.88
795.388	2156.57
795.572	2163.54
795.757	2136.61
795.941	2108.71
796.126	2121.69
796.31	2074.81
796.494	2141.84
796.679	2067.83
796.863	2072.09
797.048	2133.51
797.232	2099.41
797.416	2099.22
797.601	2088.37
797.785	2206.75
797.969	2141.65
798.153	2083.14
798.338	2149.98
798.522	2174.01
798.706	2178.07
798.89	2139.71
799.074	2223.02
799.258	2177.69
799.443	2165.87
799.627	2133.71
799.811	2200.16
799.995	2134.67
800.179	2112.01
800.363	2093.21
800.547	2147.07
800.731	2150.76
800.915	2068.22
801.099	2104.45
801.283	2071.51
801.467	2117.43
801.651	2108.71
801.835	2190.67
802.019	2115.69
802.202	2132.74
802.386	2067.25
802.57	2085.85
802.754	2086.82
802.938	2086.24
803.121	2085.08
803.305	2174.78
803.489	2111.81
803.673	2112.59
803.856	2121.69
804.04	2085.85
804.224	2120.53
804.407	2098.44
804.591	2065.89
804.775	2132.16
804.958	2119.17
805.142	2223.6
805.326	2144.36
805.509	2123.24
805.693	2174.39
805.876	2203.26
806.06	2141.65
806.243	2147.66
806.427	2206.36
806.61	2191.44
806.794	2138.94
806.977	2210.43
807.16	2157.73
807.344	2179.82
807.527	2171.68
807.71	2102.32
807.894	2167.42
808.077	2164.71
808.26	2124.99
808.444	2094.96
808.627	2142.42
808.81	2099.61
808.993	2038.96
809.177	2016.68
809.36	2090.11
809.543	2086.63
809.726	2018.23
809.909	2034.12
810.092	1992.08
810.276	1988.4
810.459	2024.43
810.642	1988.59
810.825	1993.63
811.008	1988.59
811.191	1901.98
811.374	1889.39
811.557	1943.45
811.74	1964.37
811.923	1815.19
812.106	1874.47
812.289	1844.05
812.472	1852.77
812.654	1864.2
812.837	1827.78
813.02	1796
813.203	1774.3
813.386	1646.43
813.569	1690.02
813.751	1633.06
813.934	1701.07
814.117	1656.31
814.3	1591.99
814.482	1533.09
814.665	1531.93
814.848	1488.72
815.03	1474
815.213	1467.41
815.396	1433.12
815.578	1446.1
815.761	1402.89
815.943	1484.07
816.126	1364.14
816.309	1332.56
816.491	1292.84
816.674	1257.39
816.856	1281.22
817.039	1321.32
817.221	1377.32
817.403	1328.49
817.586	1335.66
817.768	1348.06
817.951	1262.23
818.133	1270.76
818.315	1315.71
818.498	1316.67
818.68	1414.9
818.862	1351.94
819.045	1403.47
819.227	1373.64
819.409	1331.79
819.591	1342.83
819.774	1356.2
819.956	1323.65
820.138	1377.12
820.32	1394.56
820.502	1407.74
820.684	1478.26
820.866	1486.4
821.048	1529.8
821.231	1494.53
821.413	1515.26
821.595	1501.31
821.777	1503.45
821.959	1462.18
822.141	1597.61
822.323	1461.6
822.505	1352.71
822.686	1331.2
822.868	1316.67
823.05	1193.64
823.232	1192.29
823.414	1106.07
823.596	1191.51
823.778	1163.42
823.96	1195.19
824.141	1191.9
824.323	1225.81
824.505	1282.38
824.687	1342.83
824.868	1388.94
825.05	1445.9
825.232	1445.9
825.413	1571.26
825.595	1476.32
825.777	1412.19
825.958	1475.74
826.14	1443.77
826.321	1513.33
826.503	1452.3
826.685	1502.67
826.866	1486.98
827.048	1530.57
827.229	1435.25
827.411	1429.82
827.592	1342.25
827.773	1377.12
827.955	1307.96
828.136	1317.64
828.318	1298.27
828.499	1336.24
828.68	1258.94
828.862	1329.65
829.043	1381.58
829.224	1367.24
829.406	1285.67
829.587	1305.44
829.768	1322.68
829.949	1341.47
830.131	1317.64
830.312	1395.92
830.493	1322.1
830.674	1358.33
830.855	1280.44
831.036	1305.24
831.218	1325.01
831.399	1372.86
831.58	1335.85
831.761	1354.45
831.942	1356.59
832.123	1340.7
832.304	1270.56
832.485	1310.67
832.666	1292.65
832.847	1352.52
833.028	1303.31
833.209	1315.51
833.389	1282.19
833.57	1258.55
833.751	1272.31
833.932	1330.82
834.113	1313.19
834.294	1313.38
834.475	1337.4
834.655	1378.48
834.836	1359.49
835.017	1382.55
835.198	1278.51
835.378	1348.45
835.559	1361.43
835.74	1347.87
835.92	1306.02
836.101	1327.91
836.281	1374.41
836.462	1340.31
836.643	1384.29
836.823	1406.57
837.004	1398.24
837.184	1410.64
837.365	1395.72
837.545	1390.69
837.726	1365.5
837.906	1425.95
838.087	1350.58
838.267	1377.7
838.448	1327.33
838.628	1397.27
838.808	1374.6
838.989	1443
839.169	1326.94
839.349	1391.85
839.53	1393.01
839.71	1390.49
839.89	1339.15
840.07	1453.07
840.251	1378.67
840.431	1417.03
840.611	1377.9
840.791	1378.48
840.971	1388.75
841.151	1371.89
841.332	1350.97
841.512	1387.59
841.692	1312.02
841.872	1344.38
842.052	1356.97
842.232	1399.6
842.412	1288.39
842.592	1378.29
842.772	1349.8
842.952	1374.02
843.132	1358.52
843.312	1325.59
843.492	1318.03
843.672	1389.33
843.851	1264.94
844.031	1332.37
844.211	1324.04
844.391	1304.86
844.571	1344.77
844.751	1294.2
844.93	1362.2
845.11	1339.15
845.29	1321.91
845.47	1337.02
845.649	1334.89
845.829	1365.69
846.009	1269.59
846.188	1358.33
846.368	1324.81
846.547	1329.65
846.727	1375.57
846.907	1309.89
847.086	1323.46
847.266	1384.49
847.445	1320.55
847.625	1288.39
847.804	1272.89
847.984	1300.21
848.163	1304.27
848.343	1291.68
848.522	1308.34
848.701	1299.04
848.881	1251.38
849.06	1272.11
849.239	1311.25
849.419	1312.22
849.598	1246.34
849.777	1210.31
849.957	1192.48
850.136	1177.18
850.315	1166.33
850.494	1175.43
850.674	1178.34
850.853	1232.2
851.032	1211.86
851.211	1257.58
851.39	1218.25
851.569	1161.68
851.748	1178.14
851.927	1208.95
852.107	1218.44
852.286	1153.93
852.465	1178.92
852.644	1208.18
852.823	1232.39
853.002	1197.33
853.181	1183.76
853.359	1203.33
853.538	1153.54
853.717	1215.93
853.896	1099.87
854.075	1068.29
854.254	1053.57
854.433	1013.07
854.611	1042.52
854.79	999.9
854.969	1056.86
855.148	1116.73
855.327	1053.37
855.505	1099.68
855.684	1062.67
855.863	1090.96
856.041	1062.09
856.22	1109.36
856.399	1095.41
856.577	1173.69
856.756	1130.29
856.934	1249.64
857.113	1232.78
857.291	1184.34
857.47	1126.22
857.648	1122.73
857.827	1155.67
858.005	1187.83
858.184	1127.77
858.362	1232.78
858.541	1151.6
858.719	1123.7
858.898	1130.87
859.076	1137.26
859.254	1173.88
859.433	1109.75
859.611	1103.94
859.789	1088.63
859.967	1184.34
860.146	1179.89
860.324	1076.81
860.502	1104.91
860.68	1066.55
860.859	1094.06
861.037	1089.21
861.215	1103.55
861.393	1112.46
861.571	1097.16
861.749	1094.45
861.927	1144.43
862.105	1113.05
862.283	1062.67
862.461	1052.79
862.639	1028.38
862.817	1076.62
862.995	1053.76
863.173	1030.32
863.351	1086.89
863.529	1137.07
863.707	1140.95
863.885	1114.01
864.063	1019.27
864.241	1049.69
864.418	1140.56
864.596	1028.77
864.774	1025.67
864.952	1029.93
865.129	1055.12
865.307	1049.69
865.485	988.08
865.663	1076.43
865.84	956.3
866.018	999.51
866.196	895.66
866.373	905.93
866.551	900.89
866.728	858.85
866.906	922.59
867.084	937.9
867.261	964.44
867.439	981.3
867.616	978.78
867.794	979.75
867.971	997.18
868.149	991.57
868.326	1022.95
868.503	992.34
868.681	982.85
868.858	970.25
869.035	964.25
869.213	1005.32
869.39	978.58
869.567	1050.66
869.745	958.82
869.922	957.08
870.099	996.99
870.276	1022.37
870.454	991.57
870.631	1000.67
870.808	954.17
870.985	1018.3
871.162	1060.93
871.339	986.14
871.517	910.58
871.694	933.05
871.871	994.08
872.048	954.56
872.225	933.44
872.402	957.47
872.579	900.89
872.756	978.58
872.933	925.3
873.11	970.45
873.287	944.68
873.463	937.12
873.64	931.7
873.817	970.25
873.994	921.82
874.171	902.25
874.348	957.27
874.524	891.2
874.701	886.75
874.878	849.94
875.055	929.18
875.231	906.32
875.408	921.62
875.585	857.3
875.762	925.3
875.938	913.29
876.115	928.21
876.291	880.74
876.468	881.13
876.645	840.83
876.821	872.02
876.998	882.68
877.174	898.95
877.351	865.63
877.527	842.57
877.704	865.82
877.88	873.38
878.057	862.72
878.233	902.83
878.409	833.66
878.586	853.42
878.762	879.77
878.938	838.7
879.115	821.84
879.291	850.32
879.467	792.01
879.644	836.76
879.82	841.99
879.996	809.64
880.172	782.13
880.349	828.24
880.525	862.14
880.701	815.64
880.877	798.4
881.053	837.54
881.229	829.59
881.405	844.32
881.581	798.98
881.757	809.64
881.933	841.02
882.109	845.09
882.285	837.73
882.461	767.4
882.637	846.64
882.813	786.78
882.989	823.01
883.165	854.97
883.341	799.37
883.517	860.98
883.693	848.19
883.869	838.89
884.044	784.45
884.22	861.37
884.396	860.98
884.572	878.81
884.747	854.97
884.923	849.36
885.099	853.81
885.275	900.5
885.45	798.59
885.626	778.06
885.801	793.94
885.977	796.46
886.153	749.38
886.328	810.8
886.504	810.41
886.679	826.49
886.855	792.39
887.03	826.49
887.206	861.37
887.381	850.71
887.557	847.42
887.732	832.11
887.908	846.26
888.083	869.7
888.258	813.51
888.434	806.73
888.609	802.86
888.784	825.91
888.96	814.09
889.135	786.58
889.31	781.35
889.485	809.44
889.661	795.69
889.836	847.81
890.011	840.25
890.186	798.21
890.361	783.68
890.537	815.84
890.712	848.97
890.887	783.87
891.062	806.92
891.237	848.58
891.412	768.95
891.587	795.11
891.762	865.63
891.937	868.34
892.112	789.1
892.287	818.16
892.462	763.33
892.637	725.16
892.812	732.14
892.987	726.71
893.161	716.25
893.336	753.45
893.511	740.08
893.686	737.37
893.861	750.93
894.035	738.53
894.21	742.41
894.385	696.88
894.56	728.65
894.734	671.11
894.909	673.24
895.084	687.19
895.258	657.16
895.433	669.95
895.608	645.73
895.782	596.32
895.957	619.96
896.131	592.83
896.306	570.94
896.48	577.53
896.655	581.79
896.829	534.32
897.004	525.6
897.178	552.73
897.353	526.57
897.527	590.9
897.701	554.86
897.876	514.37
898.05	607.75
898.224	568.81
898.399	601.75
898.573	540.33
898.747	474.07
898.921	542.65
899.096	419.04
899.27	459.54
899.444	428.73
899.618	440.74
899.792	497.7
899.967	487.44
900.141	509.52
900.315	455.66
900.489	459.92
900.663	475.42
900.837	481.43
901.011	449.27
901.185	531.03
901.359	514.17
901.533	484.34
901.707	478.14
901.881	480.46
902.055	429.89
902.229	484.72
902.403	527.15
902.576	483.95
902.75	510.3
902.924	586.05
903.098	540.13
903.272	556.22
903.446	591.87
903.619	544.4
903.793	604.46
903.967	556.8
904.14	584.31
904.314	609.3
904.488	567.07
904.661	626.93
904.835	581.21
905.009	646.7
905.182	677.31
905.356	605.62
905.529	590.12
905.703	582.95
905.876	586.25
906.05	561.64
906.223	524.25
906.397	490.92
906.57	472.9
906.744	462.83
906.917	485.3
907.09	485.11
907.264	479.49
907.437	451.59
907.61	430.09
907.784	439.77
907.957	450.82
908.13	417.3
908.304	447.91
908.477	422.14
908.65	441.71
908.823	382.04
908.996	485.3
909.17	415.17
909.343	421.76
909.516	435.12
909.689	436.87
909.862	401.41
910.035	432.02
910.208	423.31
910.381	385.33
910.554	485.89
910.727	422.72
910.9	375.84
911.073	412.07
911.246	489.95
911.419	474.84
911.592	439.77
911.765	390.37
911.938	403.93
912.11	405.87
912.283	412.07
912.456	467.09
912.629	427.18
912.802	408.97
912.974	375.45
913.147	323.53
913.32	299.5
913.493	352.39
913.665	339.03
913.838	360.14
914.01	350.07
914.183	377.39
914.356	339.61
914.528	359.95
914.701	449.46
914.873	413.42
915.046	334.38
915.218	333.21
915.391	300.66
915.563	283.81
915.736	352.78
915.908	365.37
916.081	369.06
916.253	343.87
916.425	349.68
916.598	387.66
916.77	335.93
916.942	340.19
917.115	271.99
917.287	350.26
917.459	335.73
917.632	305.7
917.804	259.4
917.976	346.97
918.148	319.46
918.32	346.39
918.493	353.94
918.665	388.62
918.837	377.97
919.009	428.34
919.181	391.14
919.353	409.55
919.525	361.89
919.697	348.13
919.869	347.36
920.041	425.24
920.213	471.94
920.385	404.71
920.557	390.95
920.729	401.8
920.901	409.94
921.073	372.93
921.244	375.45
921.416	414.39
921.588	368.47
921.76	350.84
921.932	434.35
922.103	394.05
922.275	374.09
922.447	372.35
922.619	314.61
922.79	316.74
922.962	315.78
923.134	419.24
923.305	328.56
923.477	294.66
923.648	304.54
923.82	343.68
923.991	298.34
924.163	262.11
924.335	348.71
924.506	301.24
924.677	354.53
924.849	293.3
925.02	317.13
925.192	340.58
925.363	337.86
925.535	353.75
925.706	282.84
925.877	366.73
926.049	298.53
926.22	328.37
926.391	325.27
926.562	346.19
926.734	306.67
926.905	346.97
927.076	266.18
927.247	282.84
927.419	265.21
927.59	253.58
927.761	247.58
927.932	271.21
928.103	282.64
928.274	228.2
928.445	207.66
928.616	244.67
928.787	227.23
928.958	243.9
929.129	279.16
929.3	238.66
929.471	188.48
929.642	170.47
929.813	105.37
929.984	198.75
930.155	135.4
930.326	197.01
930.496	162.91
930.667	88.51
930.838	156.52
931.009	97.62
931.18	135.78
931.35	142.18
931.521	130.36
931.692	109.63
931.863	46.27
932.033	109.05
932.204	89.67
932.374	122.22
932.545	66.23
932.716	126.29
932.886	111.76
933.057	34.45
933.227	55.96
933.398	144.12
933.568	47.82
933.739	21.28
933.909	34.07
934.08	96.84
934.25	7.72
934.421	27.67
934.591	62.74
934.761	48.02
934.932	-5.65
935.102	32.71
935.272	12.76
935.443	26.7
935.613	23.6
935.783	38.14
935.953	11.98
936.123	160.2
936.294	33.29
936.464	41.43
936.634	50.54
936.804	-5.26
936.974	-21.73
937.144	48.4
937.314	29.42
937.484	23.22
937.655	3.26
937.825	69.72
937.995	20.7
938.165	69.72
938.334	39.69
938.504	33.1
938.674	24.96
938.844	46.08
939.014	66.42
939.184	93.74
939.354	123.58
939.524	89.09
939.694	40.07
939.863	58.48
940.033	112.73
940.203	104.4
940.373	89.67
940.542	108.08
940.712	82.7
940.882	87.54
941.051	115.83
941.221	79.99
941.391	91.8
941.56	55.96
941.73	48.4
941.899	172.02
942.069	58.87
942.238	85.02
942.408	42.98
942.577	104.59
942.747	52.09
942.916	25.93
943.086	40.85
943.255	88.32
943.425	75.14
943.594	44.34
943.763	-23.09
943.933	11.01
944.102	-0.42
944.271	57.9
944.441	74.17
944.61	27.87
944.779	34.26
944.948	126.48
945.117	12.95
945.287	40.65
945.456	-18.24
945.625	30.77
945.794	65.07
945.963	32.13
946.132	50.92
946.301	17.6
946.47	79.21
946.639	-11.08
946.808	37.17
946.977	85.99
947.146	83.47
947.315	9.85
947.484	64.29
947.653	45.69
947.822	54.6
947.991	25.74
948.16	139.66
948.329	98.59
948.498	38.91
948.666	46.27
948.835	94.9
949.004	4.62
949.173	23.6
949.341	59.84
949.51	71.46
949.679	91.61
949.847	76.89
950.016	160.39
950.185	94.52
950.353	30.77
950.522	32.9
950.69	87.93
950.859	57.51
951.028	103.04
951.196	66.42
951.365	13.53
951.533	33.68
951.701	69.72
951.87	85.22
952.038	36.39
952.207	30
952.375	94.71
952.543	39.88
952.712	69.72
952.88	45.69
953.048	110.4
953.217	56.93
953.385	69.72
953.553	91.22
953.721	11.59
953.89	53.44
954.058	14.11
954.226	28.84
954.394	66.04
954.562	17.6
954.73	44.72
954.898	40.27
955.067	96.45
955.235	23.02
955.403	93.35
955.571	83.47
955.739	80.37
955.907	38.33
956.075	30.19
956.243	50.15
956.41	58.09
956.578	13.53
956.746	16.82
956.914	21.86
957.082	114.08
957.25	69.33
957.418	2.87
957.585	64.49
957.753	91.61
957.921	37.94
958.089	16.24
958.256	63.71
958.424	39.69
958.592	58.09
958.759	44.53
958.927	52.47
959.095	27.29
959.262	39.88
959.43	58.67
959.597	43.56
959.765	34.84
959.932	12.56
960.1	74.95
960.267	67.2
960.435	35.81
960.602	83.28
960.77	52.28
960.937	15.08
961.104	50.54
961.272	2.1
961.439	18.95
961.606	84.44
961.774	53.44
961.941	44.34
962.108	82.12
962.275	69.91
962.443	103.82
962.61	72.24
962.777	132.49
962.944	67.59
963.111	75.34
963.278	79.99
963.446	68.36
963.613	61.39
963.78	94.32
963.947	75.53
964.114	73.79
964.281	143.73
964.448	61.97
964.615	60.8
964.782	70.49
964.949	84.05
965.116	102.07
965.282	131.33
965.449	61.19
965.616	28.64
965.783	69.14
965.95	83.28
966.117	15.85
966.283	75.14
966.45	104.2
966.617	83.28
966.784	121.06
966.95	122.42
967.117	98.59
967.284	47.82
967.45	68.36
967.617	102.27
967.784	82.7
967.95	120.87
968.117	68.36
968.283	108.08
968.45	159.03
968.616	85.41
968.783	90.64
968.949	92.77
969.116	116.41
969.282	70.88
969.449	89.87
969.615	96.65
969.781	40.46
969.948	54.22
970.114	43.17
970.28	134.62
970.447	77.85
970.613	128.03
970.779	81.34
970.945	98.59
971.112	88.32
971.278	79.02
971.444	78.44
971.61	107.3
971.776	61.19
971.942	92.19
972.108	106.92
972.275	70.3
972.441	76.11
972.607	131.91
972.773	50.92
972.939	100.52
973.105	71.65
973.271	38.91
973.437	65.45
973.602	43.95
973.768	113.31
973.934	66.81
974.1	90.06
974.266	-0.23
974.432	88.7
974.598	66.23
974.763	91.42
974.929	66.04
975.095	139.66
975.261	50.15
975.426	30
975.592	42.59
975.758	132.68
975.923	32.9
976.089	40.65
976.255	111.95
976.42	108.66
976.586	91.61
976.751	72.04
976.917	179.96
977.082	88.32
977.248	48.02
977.413	30.39
977.579	47.63
977.744	88.9
977.91	15.27
978.075	63.9
978.24	86.38
978.406	43.37
978.571	75.14
978.736	43.37
978.902	87.54
979.067	30.39
979.232	-15.14
979.397	64.49
979.563	100.72
979.728	40.46
979.893	42.59
980.058	66.23
980.223	111.95
980.388	72.62
980.554	79.6
980.719	48.02
980.884	79.21
981.049	123.38
981.214	50.15
981.379	79.4
981.544	53.64
981.709	47.05
981.874	67.78
982.039	85.6
982.204	100.91
982.368	53.64
982.533	48.6
982.698	94.13
982.863	113.7
983.028	45.3
983.193	43.75
983.357	54.22
983.522	75.53
983.687	52.09
983.852	60.03
984.016	32.52
984.181	68.94
984.346	89.29
984.51	117.57
984.675	59.84
984.839	73.2
985.004	73.59
985.168	116.02
985.333	62.16
985.498	40.07
985.662	85.99
985.827	82.7
985.991	72.04
986.155	36.39
986.32	84.83
986.484	128.42
986.649	81.34
986.813	9.07
986.977	61.19
987.142	81.92
987.306	18.95
987.47	43.56
987.634	59.45
987.799	82.12
987.963	53.44
988.127	115.44
988.291	132.1
988.455	89.09
988.62	54.99
988.784	88.51
988.948	76.69
989.112	28.64
989.276	76.69
989.44	45.11
989.604	49.18
989.768	31.94
989.932	155.74
990.096	30.19
990.26	0.16
990.424	51.5
990.588	59.25
990.752	123.19
990.915	78.63
991.079	60.42
991.243	42.4
991.407	90.84
991.571	37.94
991.734	70.88
991.898	81.15
992.062	141.6
992.226	59.06
992.389	30.97
992.553	-13.01
992.717	48.21
992.88	63.13
993.044	72.43
993.207	58.67
993.371	81.34
993.535	72.04
993.698	57.12
993.862	80.37
994.025	64.87
994.189	60.22
994.352	78.24
994.515	82.7
994.679	97.04
994.842	59.25
995.006	89.09
995.169	22.64
995.332	23.99
995.496	85.41
995.659	41.04
995.822	64.29
995.985	48.4
996.149	116.41
996.312	83.09
996.475	112.92
996.638	33.68
996.801	126.87
996.964	131.52
997.128	12.17
997.291	59.84
997.454	80.18
997.617	6.56
997.78	83.47
997.943	30.19
998.106	54.41
998.269	33.87
998.432	85.41
998.595	53.44
998.758	26.51
998.92	52.86
999.083	-4.68
999.246	34.45
999.409	2.49
999.572	-17.47
999.735	40.27
999.897	74.75
1000.06	33.29
1000.223	31.74
1000.386	69.52
1000.548	67.2
1000.711	78.24
1000.874	76.89
1001.036	4.23
1001.199	68.94
1001.361	13.34
1001.524	49.76
1001.687	81.73
1001.849	0.55
1002.012	52.28
1002.174	64.29
1002.337	74.56
1002.499	45.5
1002.661	59.45
1002.824	5.39
1002.986	14.89
1003.149	45.89
1003.311	17.21
1003.473	110.4
1003.636	23.02
1003.798	85.41
1003.96	70.88
1004.123	38.33
1004.285	42.79
1004.447	42.01
1004.609	53.44
1004.771	99.36
1004.933	11.4
1005.096	4.62
1005.258	-9.91
1005.42	12.95
1005.582	73.59
1005.744	60.61
1005.906	14.5
1006.068	33.29
1006.23	10.43
1006.392	-12.82
1006.554	30.77
1006.716	104.4
1006.878	57.7
1007.04	-25.99
1007.202	8.3
1007.363	35.42
1007.525	48.99
1007.687	71.27
1007.849	49.37
1008.011	-24.83
1008.172	1.71
1008.334	24.96
1008.496	57.9
1008.658	-26.58
1008.819	-7.98
1008.981	-13.01
1009.143	32.32
1009.304	8.69
1009.466	67.97
1009.627	93.16
1009.789	140.24
1009.95	44.14
1010.112	-7.78
1010.273	36.39
1010.435	35.04
1010.596	22.83
1010.758	24.96
1010.919	20.89
1011.081	-8.17
1011.242	16.63
1011.403	33.87
1011.565	6.56
1011.726	42.98
1011.887	18.37
1012.049	21.28
1012.21	82.7
1012.371	63.32
1012.532	-6.43
1012.693	36.2
1012.855	11.4
1013.016	38.52
1013.177	69.91
1013.338	32.52
1013.499	102.65
1013.66	54.99
1013.821	68.75
1013.982	51.89
1014.143	39.69
1014.304	17.79
1014.465	26.7
1014.626	54.8
1014.787	7.72
1014.948	100.33
1015.109	-24.64
1015.27	83.47
1015.431	-7.2
1015.592	-24.25
1015.752	85.99
1015.913	22.25
1016.074	34.84
1016.235	16.05
1016.395	16.05
1016.556	7.14
1016.717	28.06
1016.877	70.49
1017.038	5.39
1017.199	26.32
1017.359	32.13
1017.52	24.96
1017.681	22.05
1017.841	7.72
1018.002	38.14
1018.162	-5.26
1018.323	79.6
1018.483	22.25
1018.644	20.31
1018.804	-24.06
1018.964	-20.18
1019.125	14.5
1019.285	34.84
1019.446	20.7
1019.606	-23.67
1019.766	-3.91
1019.926	24.19
1020.087	40.27
1020.247	-18.05
1020.407	13.53
1020.567	82.12
1020.728	42.59
1020.888	-19.6
1021.048	33.68
1021.208	-3.33
1021.368	4.42
1021.528	64.1
1021.688	17.4
1021.848	41.82
1022.008	-6.43
1022.168	-0.61
1022.328	40.27
1022.488	49.57
1022.648	5.97
1022.808	23.8
1022.968	30.19
1023.128	17.4
1023.288	-16.89
1023.448	18.37
1023.608	39.3
1023.767	60.42
1023.927	-31.81
1024.087	24.96
1024.247	-24.06
1024.406	-0.81
1024.566	12.56
1024.726	6.94
1024.885	28.45
1025.045	65.07
1025.205	24.77
1025.364	15.47
1025.524	5.59
1025.683	10.04
1025.843	17.6
1026.003	30.19
1026.162	36.2
1026.321	75.53
1026.481	23.8
1026.64	36.39
1026.8	27.67
1026.959	23.99
1027.119	-0.81
1027.278	-5.84
1027.437	-6.23
1027.597	43.17
1027.756	30
1027.915	35.04
1028.074	35.42
1028.234	-15.73
1028.393	37.17
1028.552	33.29
1028.711	-70.75
1028.87	46.47
1029.03	-26.38
1029.189	24.19
1029.348	-18.63
1029.507	8.88
1029.666	-7.01
1029.825	-26.38
1029.984	6.56
1030.143	13.53
1030.302	-15.14
1030.461	-50.79
1030.62	6.75
1030.779	49.18
1030.938	2.87
1031.097	-12.43
1031.255	42.59
1031.414	80.95
1031.573	62.94
1031.732	-35.49
1031.891	10.04
1032.049	69.72
1032.208	6.36
1032.367	1.71
1032.525	-12.63
1032.684	-3.71
1032.843	35.42
1033.001	-52.15
1033.16	158.45
1033.319	49.76
1033.477	49.37
1033.636	-4.88
1033.794	-41.3
1033.953	65.26
1034.111	24.38
1034.27	-23.86
1034.428	14.31
1034.587	6.94
1034.745	28.45
1034.903	35.62
1035.062	60.03
1035.22	-28.32
1035.378	66.81
1035.537	-35.68
1035.695	54.02
1035.853	16.63
1036.011	51.89
1036.17	21.86
1036.328	-28.13
1036.486	5.2
1036.644	37.17
1036.802	-83.15
1036.96	7.14
1037.119	-13.59
1037.277	-2.94
1037.435	-47.5
1037.593	-22.51
1037.751	0.55
1037.909	46.85
1038.067	46.85
