Data from pine_FLMT105791__150__17-23-04-074.txt Node

Date: Mon Mar 20 17:23:04 GMT 2023
User: antho
Spectrometer: FLMT10579
Trigger mode: 0
Integration Time (sec): 1.000000E-1
Scans to average: 10
Electric dark correction enabled: true
Nonlinearity correction enabled: false
Boxcar width: 0
XAxis mode: Wavelengths
Number of Pixels in Spectrum: 3648
>>>>>Begin Spectral Data<<<<<
345.248	-171.79
345.464	-171.79
345.681	-171.79
345.898	-178.18
346.114	-155.71
346.331	-29.97
346.548	21.96
346.764	2
346.981	-9.43
347.197	-14.85
347.414	8.59
347.631	-26.09
347.847	63.03
348.064	16.73
348.28	16.92
348.497	-46.43
348.713	-2.45
348.93	-0.71
349.146	36.68
349.363	23.7
349.579	12.66
349.796	-1.29
350.012	0.45
350.229	55.28
350.445	9.75
350.661	-11.56
350.878	14.4
351.094	16.34
351.311	18.47
351.527	17.5
351.743	-10.79
351.96	48.89
352.176	26.03
352.392	26.03
352.609	33.39
352.825	-4.59
353.041	3.16
353.257	33.2
353.474	23.9
353.69	2.58
353.906	11.11
354.122	-16.02
354.339	52.57
354.555	-3.81
354.771	-0.71
354.987	69.04
355.203	49.86
355.42	7.04
355.636	9.56
355.852	-6.52
356.068	21.18
356.284	-5.36
356.5	68.65
356.716	16.53
356.932	22.54
357.148	32.61
357.364	2.78
357.58	33.78
357.796	76.01
358.012	31.26
358.228	23.12
358.444	-36.17
358.66	71.75
358.876	30.68
359.092	11.3
359.308	42.5
359.524	17.7
359.74	40.95
359.956	-14.08
360.172	9.36
360.388	26.22
360.604	19.63
360.819	80.86
361.035	22.35
361.251	35.71
361.467	-23.57
361.683	53.54
361.898	15.18
362.114	65.74
362.33	32.23
362.546	43.85
362.762	12.27
362.977	22.35
363.193	-24.54
363.409	41.33
363.624	-5.17
363.84	-19.5
364.056	2.58
364.271	32.81
364.487	11.88
364.703	3.55
364.918	-12.92
365.134	15.95
365.35	-25.9
365.565	95.97
365.781	16.73
365.996	34.75
366.212	68.07
366.427	33.58
366.643	-31.32
366.858	19.63
367.074	-23.96
367.289	67.49
367.505	107.79
367.72	-40.43
367.936	-19.5
368.151	53.54
368.367	58.58
368.582	38.81
368.798	11.3
369.013	67.49
369.228	25.64
369.444	28.16
369.659	46.56
369.874	51.8
370.09	69.04
370.305	-40.62
370.52	-8.07
370.736	56.06
370.951	14.01
371.166	66.13
371.381	96.74
371.597	43.08
371.812	-8.27
372.027	-13.89
372.242	-13.3
372.458	63.42
372.673	-0.9
372.888	12.46
373.103	24.67
373.318	94.03
373.533	17.5
373.749	33
373.964	-19.7
374.179	30.1
374.394	14.4
374.609	42.88
374.824	-17.57
375.039	48.5
375.254	13.43
375.469	78.53
375.684	38.04
375.899	55.67
376.114	22.15
376.329	35.33
376.544	55.48
376.759	51.41
376.974	3.36
377.189	10.91
377.404	0.65
377.619	44.82
377.834	-34.81
378.049	-15.82
378.264	-29.77
378.478	-2.45
378.693	-17.57
378.908	41.33
379.123	18.66
379.338	71.17
379.553	52.76
379.767	35.71
379.982	52.38
380.197	29.51
380.412	43.08
380.626	52.76
380.841	86.67
381.056	44.63
381.271	90.54
381.485	-0.52
381.7	-2.45
381.915	35.33
382.129	22.93
382.344	22.93
382.559	15.56
382.773	66.52
382.988	-36.94
383.202	20.8
383.417	-18.73
383.632	109.14
383.846	2.58
384.061	33.39
384.275	13.43
384.49	9.75
384.704	31.65
384.919	41.53
385.133	7.43
385.348	28.74
385.562	-39.65
385.777	33.39
385.991	16.15
386.206	17.5
386.42	14.21
386.634	73.88
386.849	22.73
387.063	37.85
387.277	-4.59
387.492	0.65
387.706	-7.49
387.92	-8.65
388.135	38.04
388.349	36.1
388.563	40.75
388.778	44.43
388.992	45.79
389.206	42.88
389.42	93.64
389.635	39.4
389.849	72.91
390.063	35.91
390.277	28.16
390.491	93.45
390.706	40.17
390.92	47.15
391.134	41.33
391.348	57.41
391.562	-37.72
391.776	21.38
391.99	-2.45
392.205	60.51
392.419	2
392.633	9.56
392.847	59.93
393.061	23.9
393.275	91.71
393.489	50.25
393.703	41.14
393.917	79.69
394.131	-4.97
394.345	67.68
394.559	99.07
394.773	11.69
394.986	46.18
395.2	22.15
395.414	58.96
395.628	-13.5
395.842	40.17
396.056	2.97
396.27	-13.11
396.484	20.8
396.697	33.97
396.911	63.81
397.125	45.4
397.339	60.9
397.553	47.15
397.766	106.04
397.98	30.68
398.194	84.93
398.408	11.5
398.621	41.53
398.835	63.03
399.049	42.88
399.262	75.24
399.476	82.99
399.69	50.25
399.903	106.04
400.117	39.59
400.331	68.65
400.544	24.67
400.758	166.49
400.971	69.04
401.185	73.3
401.398	7.04
401.612	107.98
401.826	82.41
402.039	82.41
402.253	26.03
402.466	40.56
402.68	34.16
402.893	49.08
403.106	52.38
403.32	50.83
403.533	79.31
403.747	81.83
403.96	52.38
404.174	85.12
404.387	-9.24
404.6	68.46
404.814	88.03
405.027	32.42
405.24	37.65
405.454	48.31
405.667	81.83
405.88	4.91
406.094	44.43
406.307	106.04
406.52	76.98
406.733	13.43
406.947	-12.53
407.16	94.23
407.373	95.97
407.586	34.75
407.799	9.95
408.012	91.13
408.226	72.14
408.439	101.59
408.652	20.99
408.865	70.59
409.078	83.38
409.291	40.56
409.504	12.27
409.717	70.01
409.93	83.57
410.143	64.19
410.357	25.45
410.57	8.4
410.783	50.44
410.996	63.42
411.209	59.35
411.421	67.88
411.634	58.19
411.847	42.11
412.06	27.58
412.273	44.24
412.486	71.56
412.699	135.11
412.912	28.55
413.125	90.16
413.338	62.45
413.55	62.84
413.763	79.11
413.976	66.13
414.189	39.78
414.402	61.87
414.615	115.54
414.827	25.64
415.04	66.71
415.253	80.66
415.466	95.19
415.678	113.6
415.891	54.9
416.104	82.21
416.316	49.47
416.529	34.75
416.742	98.88
416.954	111.66
417.167	51.21
417.38	55.67
417.592	101.39
417.805	40.75
418.017	36.3
418.23	106.82
418.442	54.51
418.655	52.57
418.868	70.39
419.08	107.21
419.293	90.54
419.505	93.64
419.718	70.39
419.93	108.18
420.142	45.6
420.355	111.66
420.567	114.96
420.78	81.24
420.992	68.46
421.205	115.93
421.417	42.69
421.629	37.46
421.842	60.32
422.054	26.22
422.266	108.76
422.479	96.94
422.691	68.65
422.903	101.98
423.115	22.73
423.328	59.35
423.54	97.33
423.752	69.04
423.964	52.38
424.177	69.43
424.389	44.24
424.601	194.39
424.813	77.18
425.025	103.72
425.238	84.73
425.45	56.64
425.662	62.26
425.874	414.49
426.086	92.48
426.298	105.85
426.51	102.56
426.722	80.47
426.934	70.2
427.146	129.29
427.358	47.53
427.57	121.54
427.782	84.34
427.994	81.05
428.206	71.75
428.418	47.53
428.63	122.9
428.842	126.39
429.054	87.25
429.266	109.92
429.478	78.73
429.69	89.38
429.902	39.98
430.114	138.4
430.325	98.49
430.537	82.21
430.749	91.71
430.961	9.56
431.173	84.15
431.384	119.8
431.596	7.81
431.808	73.3
432.02	102.36
432.231	145.96
432.443	152.74
432.655	116.51
432.867	65.74
433.078	106.63
433.29	145.76
433.502	138.01
433.713	164.17
433.925	104.11
434.136	156.22
434.348	92.87
434.56	54.9
434.771	207.76
434.983	74.27
435.194	72.91
435.406	116.12
435.617	151.38
435.829	198.85
436.04	165.33
436.252	162.23
436.463	186.84
436.675	156.22
436.886	149.06
437.098	150.8
437.309	206.79
437.521	121.74
437.732	149.25
437.943	147.12
438.155	141.69
438.366	84.73
438.578	201.76
438.789	146.15
439	182.96
439.211	125.23
439.423	167.07
439.634	155.45
439.845	174.24
440.057	168.04
440.268	202.72
440.479	126.39
440.69	175.21
440.902	155.45
441.113	152.74
441.324	130.07
441.535	183.35
441.746	239.92
441.957	130.07
442.168	140.92
442.38	185.67
442.591	234.11
442.802	147.51
443.013	165.33
443.224	180.25
443.435	176.96
443.646	171.92
443.857	172.31
444.068	163.59
444.279	159.32
444.49	255.23
444.701	191.29
444.912	303.86
445.123	209.89
445.334	202.92
445.545	212.41
445.756	186.06
445.967	166.49
446.178	191.49
446.388	233.72
446.599	237.6
446.81	213.77
447.021	175.21
447.232	247.48
447.443	261.24
447.653	176.57
447.864	262.79
448.075	204.27
448.286	261.62
448.496	228.88
448.707	270.34
448.918	225.01
449.129	296.11
449.339	230.04
449.55	248.06
449.761	187.22
449.971	269.76
450.182	210.86
450.393	235.47
450.603	220.94
450.814	270.54
451.024	256.97
451.235	278.87
451.446	300.57
451.656	282.16
451.867	232.76
452.077	308.7
452.288	303.28
452.498	317.62
452.709	240.31
452.919	289.33
453.13	226.17
453.34	285.07
453.55	215.32
453.761	288.94
453.971	262.79
454.182	291.65
454.392	266.27
454.602	317.62
454.813	267.44
455.023	279.25
455.233	231.79
455.444	250
455.654	196.72
455.864	278.48
456.075	251.74
456.285	272.09
456.495	253.1
456.705	278.29
456.916	316.45
457.126	320.52
457.336	274.22
457.546	188
457.756	242.64
457.967	340.09
458.177	262.4
458.387	284.49
458.597	275.38
458.807	282.16
459.017	265.69
459.227	263.75
459.437	238.57
459.647	328.85
459.857	305.6
460.068	267.82
460.278	320.14
460.488	287.39
460.698	357.14
460.908	307.93
461.117	250.97
461.327	279.25
461.537	325.37
461.747	330.98
461.957	307.54
462.167	380
462.377	325.95
462.587	319.75
462.797	336.02
463.007	310.84
463.216	350.36
463.426	379.81
463.636	331.95
463.846	280.61
464.056	294.75
464.265	351.13
464.475	314.32
464.685	326.92
464.895	314.13
465.104	311.22
465.314	348.62
465.524	318.78
465.733	283.71
465.943	406.55
466.153	386.01
466.362	361.02
466.572	343.38
466.782	326.33
466.991	333.7
467.201	398.99
467.41	262.59
467.62	344.55
467.829	337.18
468.039	372.83
468.249	338.15
468.458	346.48
468.668	352.49
468.877	364.12
469.086	432.9
469.296	382.13
469.505	378.07
469.715	415.46
469.924	374
470.134	417.4
470.343	412.36
470.552	342.03
470.762	367.6
470.971	367.99
471.18	375.55
471.39	375.16
471.599	347.45
471.808	418.75
472.018	344.35
472.227	412.36
472.436	440.06
472.645	397.05
472.855	364.12
473.064	472.03
473.273	444.71
473.482	430.57
473.691	439.87
473.901	436.96
474.11	429.02
474.319	537.13
474.528	417.4
474.737	488.11
474.946	452.27
475.155	454.4
475.364	488.5
475.573	442.39
475.783	441.61
475.992	465.25
476.201	514.66
476.41	456.34
476.619	412.94
476.828	443.55
477.037	437.55
477.245	487.15
477.454	503.23
477.663	453.24
477.872	459.63
478.081	523.38
478.29	473.97
478.499	592.16
478.708	496.83
478.917	549.92
479.125	524.54
479.334	518.73
479.543	504.97
479.752	505.94
479.961	499.54
480.169	583.44
480.378	506.52
480.587	642.53
480.796	574.53
481.004	532.48
481.213	587.12
481.422	546.24
481.63	538.49
481.839	592.35
482.048	614.24
482.256	562.9
482.465	600.68
482.674	604.17
482.882	581.89
483.091	688.64
483.299	603.97
483.508	599.52
483.716	578.4
483.925	636.52
484.134	558.44
484.342	598.36
484.551	621.41
484.759	621.02
484.967	621.8
485.176	637.49
485.384	651.06
485.593	660.74
485.801	639.82
486.01	611.53
486.218	584.6
486.426	540.43
486.635	573.75
486.843	519.69
487.051	557.86
487.26	580.14
487.468	613.08
487.676	665.39
487.885	585.76
488.093	623.74
488.301	655.51
488.509	654.16
488.717	687.87
488.926	674.11
489.134	652.99
489.342	651.64
489.55	630.32
489.758	689.61
489.967	666.75
490.175	761.68
490.383	656.48
490.591	770.4
490.799	689.61
491.007	777.96
491.215	741.92
491.423	714.8
491.631	681.67
491.839	686.51
492.047	743.28
492.255	667.14
492.463	651.25
492.671	699.3
492.879	753.55
493.087	700.46
493.295	736.5
493.503	758
493.711	781.25
493.919	782.22
494.127	786.29
494.334	812.06
494.542	715.38
494.75	745.6
494.958	746.57
495.166	805.08
495.374	760.72
495.581	792.3
495.789	769.82
495.997	840.54
496.205	757.04
496.412	783.58
496.62	765.17
496.828	784.16
497.035	809.93
497.243	813.22
497.451	818.07
497.658	815.74
497.866	784.35
498.074	866.31
498.281	788.81
498.489	886.65
498.696	828.14
498.904	785.71
499.112	822.91
499.319	871.54
499.527	814.97
499.734	853.52
499.942	788.23
500.149	818.45
500.357	800.63
500.564	796.75
500.771	828.53
500.979	755.87
501.186	787.65
501.394	842.48
501.601	805.67
501.808	830.08
502.016	797.33
502.223	806.83
502.43	800.05
502.638	801.21
502.845	778.73
503.052	885.49
503.26	814
503.467	930.83
503.674	796.95
503.881	862.24
504.089	909.71
504.296	881.61
504.503	812.64
504.71	826.2
504.917	810.9
505.125	852.55
505.332	845.58
505.539	858.56
505.746	941.87
505.953	923.46
506.16	915.52
506.367	951.56
506.574	960.86
506.781	931.21
506.988	874.06
507.195	925.79
507.402	878.71
507.609	958.92
507.816	887.04
508.023	877.93
508.23	881.42
508.437	849.26
508.644	929.86
508.851	953.88
509.058	929.28
509.265	909.71
509.472	953.88
509.679	1054.44
509.885	954.85
510.092	947.88
510.299	941.48
510.506	950.2
510.713	964.54
510.92	958.73
511.126	943.81
511.333	995.73
511.54	1017.63
511.746	1020.92
511.953	1005.03
512.16	1059.86
512.367	973.84
512.573	1006.39
512.78	1015.3
512.987	963.96
513.193	1005.61
513.4	936.25
513.606	929.86
513.813	1007.94
514.02	1005.61
514.226	1055.99
514.433	1014.33
514.639	965.89
514.846	989.92
515.052	965.7
515.259	986.24
515.465	981.39
515.672	998.44
515.878	1112.75
516.085	989.73
516.291	1029.64
516.497	1007.55
516.704	1017.24
516.91	930.25
517.117	906.61
517.323	891.69
517.529	937.61
517.736	911.45
517.942	923.85
518.148	942.84
518.354	973.84
518.561	982.75
518.767	934.89
518.973	1038.74
519.179	1015.88
519.386	975.19
519.592	953.88
519.798	997.67
520.004	1085.44
520.21	1012.78
520.417	1056.18
520.623	1098.03
520.829	1110.04
521.035	1088.73
521.241	1097.06
521.447	1094.16
521.653	1209.24
521.859	1095.9
522.065	1119.15
522.271	1199.17
522.477	1154.02
522.683	1180.57
522.889	1121.86
523.095	1183.09
523.301	1139.88
523.507	1111.59
523.713	1174.37
523.919	1117.99
524.125	1223.77
524.331	1189.29
524.537	1274.34
524.742	1241.6
524.948	1267.56
525.154	1205.75
525.36	1317.16
525.566	1204.78
525.772	1288.29
525.977	1188.12
526.183	1238.88
526.389	1278.8
526.595	1186.38
526.8	1166.81
527.006	1153.64
527.212	1083.69
527.417	1093.38
527.623	1122.64
527.829	1185.41
528.034	1188.32
528.24	1214.67
528.446	1157.7
528.651	1282.09
528.857	1261.17
529.062	1324.33
529.268	1251.67
529.473	1296.62
529.679	1293.52
529.884	1336.53
530.09	1341.57
530.295	1329.56
530.501	1366.76
530.706	1342.73
530.912	1268.53
531.117	1337.11
531.323	1319.87
531.528	1342.73
531.733	1366.37
531.939	1321.23
532.144	1330.33
532.35	1332.08
532.555	1353.2
532.76	1347.19
532.966	1373.93
533.171	1308.25
533.376	1280.73
533.581	1276.08
533.787	1300.3
533.992	1353.39
534.197	1359.2
534.402	1322.97
534.607	1325.3
534.813	1423.33
535.018	1337.7
535.223	1326.07
535.428	1388.65
535.633	1414.61
535.838	1396.21
536.043	1415
536.249	1470.02
536.454	1369.28
536.659	1428.76
536.864	1371.21
537.069	1334.01
537.274	1397.18
537.479	1393.49
537.684	1390.01
537.889	1361.14
538.094	1501.41
538.299	1402.6
538.504	1387.1
538.708	1399.11
538.913	1426.24
539.118	1419.26
539.323	1397.95
539.528	1400.08
539.733	1377.99
539.938	1402.99
540.142	1438.25
540.347	1378.77
540.552	1357.07
540.757	1362.11
540.962	1362.69
541.166	1329.75
541.371	1369.08
541.576	1370.63
541.781	1310.38
541.985	1400.66
542.19	1425.46
542.395	1433.02
542.599	1438.25
542.804	1436.7
543.008	1472.54
543.213	1398.14
543.418	1342.35
543.622	1427.98
543.827	1363.27
544.031	1450.26
544.236	1457.24
544.44	1410.54
544.645	1495.21
544.849	1442.32
545.054	1458.4
545.258	1521.95
545.463	1487.07
545.667	1399.5
545.872	1471.38
546.076	1466.15
546.281	1455.88
546.485	1420.43
546.689	1468.47
546.894	1497.92
547.098	1446.19
547.302	1432.24
547.507	1436.89
547.711	1460.72
547.915	1508
548.119	1422.17
548.324	1421.01
548.528	1493.66
548.732	1447.55
548.936	1483.01
549.141	1499.28
549.345	1452.2
549.549	1443.68
549.753	1455.49
549.957	1529.7
550.161	1513.62
550.366	1469.64
550.57	1443.09
550.774	1472.74
550.978	1483.97
551.182	1482.23
551.386	1447.94
551.59	1459.56
551.794	1466.92
551.998	1501.41
552.202	1495.6
552.406	1431.28
552.61	1448.13
552.814	1487.07
553.018	1551.98
553.222	1467.7
553.426	1463.24
553.63	1559.92
553.833	1503.93
554.037	1447.94
554.241	1475.26
554.445	1514.39
554.649	1499.86
554.853	1465.37
555.056	1524.27
555.26	1532.02
555.464	1489.98
555.668	1512.07
555.871	1542.68
556.075	1543.46
556.279	1477
556.483	1439.22
556.686	1481.07
556.89	1467.51
557.094	1480.1
557.297	1409.77
557.501	1526.6
557.704	1405.7
557.908	1480.49
558.112	1431.28
558.315	1498.31
558.519	1430.89
558.722	1440.58
558.926	1454.33
559.129	1407.44
559.333	1359.98
559.536	1395.63
559.74	1372.18
559.943	1380.13
560.147	1327.81
560.35	1378.58
560.553	1395.82
560.757	1364.63
560.96	1459.37
561.164	1417.52
561.367	1492.11
561.57	1416.16
561.774	1414.42
561.977	1416.16
562.18	1374.89
562.384	1490.95
562.587	1435.73
562.79	1394.66
562.993	1385.74
563.197	1453.56
563.4	1459.95
563.603	1465.76
563.806	1505.87
564.009	1382.45
564.212	1441.16
564.416	1361.72
564.619	1431.08
564.822	1341.38
565.025	1406.86
565.228	1352.81
565.431	1394.08
565.634	1280.35
565.837	1378.38
566.04	1345.25
566.243	1313.28
566.446	1264.46
566.649	1371.21
566.852	1312.31
567.055	1315.8
567.258	1360.95
567.461	1431.28
567.664	1388.84
567.867	1315.41
568.07	1337.89
568.273	1350.87
568.475	1372.18
568.678	1344.86
568.881	1312.12
569.084	1329.75
569.287	1220.87
569.489	1251.09
569.692	1324.52
569.895	1306.7
570.098	1256.52
570.3	1225.32
570.503	1194.32
570.706	1240.82
570.909	1241.21
571.111	1175.72
571.314	1175.53
571.516	1223.97
571.719	1224.35
571.922	1217.18
572.124	1216.6
572.327	1229
572.529	1200.13
572.732	1196.26
572.935	1228.62
573.137	1311.73
573.34	1206.33
573.542	1257.29
573.745	1267.56
573.947	1244.89
574.15	1210.79
574.352	1204.2
574.554	1323.36
574.757	1193.16
574.959	1191.22
575.162	1165.84
575.364	1175.34
575.566	1281.51
575.769	1163.13
575.971	1180.18
576.173	1099.58
576.376	1161.19
576.578	1212.92
576.78	1246.63
576.982	1113.72
577.185	1162.74
577.387	1143.17
577.589	1149.76
577.791	1220.28
577.993	1213.7
578.196	1171.85
578.398	1205.75
578.6	1209.05
578.802	1122.44
579.004	1136.78
579.206	1137.55
579.408	1167.39
579.61	1126.7
579.812	1211.76
580.014	1158.67
580.216	1122.25
580.418	1164.68
580.62	1136
580.822	1071.49
581.024	1168.17
581.226	1180.18
581.428	1121.67
581.63	1224.35
581.832	1126.12
582.034	1218.35
582.236	1141.43
582.438	1195.1
582.64	1224.16
582.841	1258.07
583.043	1255.93
583.245	1213.5
583.447	1197.42
583.649	1170.1
583.85	1204.01
584.052	1231.52
584.254	1145.69
584.456	1219.7
584.657	1129.8
584.859	1168.17
585.061	1157.7
585.262	1155.19
585.464	1109.46
585.666	1186.57
585.867	1130.58
586.069	1188.9
586.27	1146.08
586.472	1127.87
586.674	1112.56
586.875	1135.04
587.077	1105.2
587.278	1138.91
587.48	1104.81
587.681	1243.34
587.883	1146.08
588.084	1085.63
588.285	1106.56
588.487	1114.89
588.688	1121.86
588.89	1042.23
589.091	1027.12
589.292	1021.89
589.494	980.04
589.695	979.84
589.896	915.52
590.098	948.07
590.299	989.92
590.5	961.44
590.702	986.82
590.903	997.09
591.104	1046.69
591.305	1045.33
591.507	1116.24
591.708	1073.42
591.909	1042.81
592.11	1144.14
592.311	1053.86
592.512	1042.62
592.714	1005.61
592.915	1039.13
593.116	1001.93
593.317	1039.71
593.518	1037.19
593.719	1045.14
593.92	1089.89
594.121	1058.7
594.322	1070.91
594.523	1067.03
594.724	1011.43
594.925	1049.98
595.126	1007.16
595.327	1044.17
595.528	1049.79
595.729	1052.11
595.929	1029.44
596.13	1037.77
596.331	1053.47
596.532	1056.76
596.733	1086.79
596.934	1085.63
597.135	1091.06
597.335	1093.19
597.536	1002.51
597.737	1076.52
597.938	1015.69
598.138	1077.49
598.339	1070.13
598.54	1068.97
598.74	1026.73
598.941	1061.02
599.142	1106.36
599.342	1087.76
599.543	1027.89
599.744	1046.11
599.944	1012.78
600.145	1074.2
600.345	1073.04
600.546	1157.12
600.746	1100.74
600.947	1130.58
601.147	1044.17
601.348	1092.41
601.548	1005.42
601.749	1058.51
601.949	1013.17
602.15	1004.64
602.35	1043.2
602.551	1054.63
602.751	992.24
602.951	1019.37
603.152	952.53
603.352	1096.87
603.552	1020.92
603.753	1071.29
603.953	1056.57
604.153	1040.29
604.354	1041.07
604.554	1012.01
604.754	1041.07
604.954	1018.98
605.155	1061.99
605.355	1036.81
605.555	1092.61
605.755	1114.3
605.955	1059.09
606.155	1067.61
606.356	1025.18
606.556	1051.34
606.756	1059.67
606.956	1016.46
607.156	1094.74
607.356	1030.22
607.556	1082.14
607.756	1045.91
607.956	1105.97
608.156	1072.07
608.356	1008.33
608.556	1087.37
608.756	1031.19
608.956	997.09
609.156	1048.24
609.356	1003.29
609.556	961.83
609.755	1036.61
609.955	988.95
610.155	1014.91
610.355	1038.36
610.555	1013.56
610.755	1017.63
610.954	942.84
611.154	1031.77
611.354	1074.01
611.554	986.24
611.753	983.53
611.953	950.39
612.153	1024.21
612.352	1010.07
612.552	942.06
612.752	916.49
612.951	982.75
613.151	994.57
613.351	944.78
613.55	992.83
613.75	1019.56
613.949	997.48
614.149	971.51
614.348	979.26
614.548	974.23
614.747	895.76
614.947	944.19
615.146	881.23
615.346	977.52
615.545	980.81
615.745	986.43
615.944	990.89
616.144	951.56
616.343	989.73
616.542	943.23
616.742	964.73
616.941	942.64
617.14	856.04
617.34	937.61
617.539	946.91
617.738	904.86
617.938	1019.95
618.137	939.54
618.336	894.4
618.535	983.14
618.734	947.49
618.934	971.13
619.133	957.76
619.332	934.51
619.531	925.01
619.73	926.56
619.929	979.07
620.128	995.73
620.328	987.59
620.527	911.26
620.726	908.16
620.925	943.23
621.124	903.7
621.323	960.47
621.522	908.74
621.721	915.71
621.92	916.88
622.119	947.88
622.318	871.35
622.517	928.5
622.715	896.73
622.914	887.81
623.113	889.56
623.312	876.58
623.511	914.75
623.71	889.95
623.909	887.43
624.107	951.17
624.306	832.02
624.505	846.93
624.704	877.93
624.902	887.04
625.101	957.56
625.3	883.36
625.499	839.57
625.697	820.78
625.896	842.09
626.095	888.98
626.293	845.38
626.492	837.44
626.69	891.88
626.889	882.78
627.088	900.21
627.286	847.71
627.485	829.11
627.683	841.7
627.882	881.03
628.08	770.79
628.279	815.74
628.477	893.24
628.676	795.4
628.874	861.66
629.073	803.73
629.271	763.04
629.469	836.86
629.668	810.32
629.866	845.77
630.065	807.99
630.263	837.63
630.461	796.17
630.66	805.47
630.858	836.28
631.056	845.77
631.254	881.81
631.453	788.23
631.651	866.5
631.849	841.9
632.047	840.93
632.245	846.35
632.444	858.95
632.642	823.88
632.84	859.72
633.038	803.92
633.236	810.12
633.434	803.34
633.632	770.21
633.83	814.58
634.028	862.24
634.227	823.3
634.425	874.06
634.623	825.23
634.821	811.48
635.019	839.18
635.216	814.38
635.414	856.81
635.612	823.49
635.81	821.55
636.008	894.6
636.206	813.03
636.404	843.64
636.602	785.13
636.8	833.95
636.997	872.7
637.195	872.51
637.393	841.7
637.591	882.97
637.789	840.35
637.986	840.93
638.184	826.01
638.382	856.04
638.58	862.63
638.777	897.31
638.975	850.81
639.173	872.12
639.37	847.13
639.568	858.75
639.765	868.05
639.963	838.02
640.161	879.87
640.358	869.8
640.556	792.1
640.753	796.75
640.951	781.45
641.148	832.02
641.346	777.38
641.543	814
641.741	809.93
641.938	771.76
642.136	805.67
642.333	792.49
642.531	849.06
642.728	891.11
642.925	802.18
643.123	800.63
643.32	807.41
643.517	801.98
643.715	812.45
643.912	787.65
644.109	799.66
644.306	822.91
644.504	778.35
644.701	794.23
644.898	834.15
645.095	778.73
645.293	813.8
645.49	807.99
645.687	802.18
645.884	826.98
646.081	745.22
646.278	764.78
646.475	717.9
646.672	783.19
646.87	799.27
647.067	784.55
647.264	778.15
647.461	741.34
647.658	728.17
647.855	770.6
648.052	753.55
648.249	658.42
648.446	710.73
648.642	719.64
648.839	720.8
649.036	727.39
649.233	677.79
649.43	729.33
649.627	680.31
649.824	702.01
650.021	695.04
650.217	672.37
650.414	716.15
650.611	729.91
650.808	723.32
651.004	712.28
651.201	742.12
651.398	769.24
651.595	720.8
651.791	707.05
651.988	722.94
652.185	683.02
652.381	758.58
652.578	653.38
652.775	691.55
652.971	684.19
653.168	708.02
653.364	734.75
653.561	686.32
653.757	687.87
653.954	710.54
654.15	690
654.347	768.66
654.543	733.4
654.74	659
654.936	645.24
655.133	710.15
655.329	738.63
655.525	686.9
655.722	710.92
655.918	657.64
656.115	683.02
656.311	577.63
656.507	608.24
656.704	539.84
656.9	586.92
657.096	597.58
657.292	603.01
657.489	672.37
657.685	648.54
657.881	629.16
658.077	656.09
658.273	640.4
658.47	704.34
658.666	665.59
658.862	690.97
659.058	649.12
659.254	708.99
659.45	652.22
659.646	700.85
659.842	655.12
660.038	698.33
660.234	644.47
660.43	658.81
660.626	714.6
660.822	701.62
661.018	727.59
661.214	662.29
661.41	629.16
661.606	701.82
661.802	709.76
661.998	673.72
662.194	663.26
662.39	690.97
662.586	690.97
662.781	714.22
662.977	694.26
663.173	698.52
663.369	678.37
663.564	693.68
663.76	730.1
663.956	652.02
664.152	702.98
664.347	618.89
664.543	684.96
664.739	666.75
664.934	619.28
665.13	585.76
665.326	679.15
665.521	651.06
665.717	590.22
665.912	638.85
666.108	587.7
666.304	638.27
666.499	624.9
666.695	574.14
666.89	629.94
667.086	665.97
667.281	653.57
667.477	702.4
667.672	673.72
667.867	638.46
668.063	662.49
668.258	621.22
668.454	651.06
668.649	671.2
668.844	658.42
669.04	687.67
669.235	656.09
669.43	621.99
669.626	574.33
669.821	627.42
670.016	584.6
670.211	646.79
670.407	587.7
670.602	617.34
670.797	651.83
670.992	672.75
671.187	608.24
671.382	644.08
671.578	586.34
671.773	633.23
671.968	591.77
672.163	628.58
672.358	617.73
672.553	598.55
672.748	587.7
672.943	646.6
673.138	597.97
673.333	652.02
673.528	563.87
673.723	597.58
673.918	605.91
674.113	551.86
674.308	677.6
674.503	615.41
674.698	626.84
674.892	606.3
675.087	639.82
675.282	610.95
675.477	558.25
675.672	612.31
675.867	568.52
676.061	558.64
676.256	530.16
676.451	581.69
676.646	584.41
676.84	574.53
677.035	564.45
677.23	529.96
677.424	616.76
677.619	649.51
677.814	627.61
678.008	631.29
678.203	547.59
678.397	569.29
678.592	583.44
678.787	651.64
678.981	585.37
679.176	597.58
679.37	600.68
679.565	548.37
679.759	571.23
679.954	603.01
680.148	628.77
680.342	624.32
680.537	628.97
680.731	582.86
680.926	616.37
681.12	615.21
681.314	554.38
681.509	586.92
681.703	604.56
681.897	629.55
682.092	579.37
682.286	572.2
682.48	652.22
682.674	642.34
682.869	596.61
683.063	598.55
683.257	669.07
683.451	559.41
683.645	588.86
683.839	593.12
684.034	572.01
684.228	632.84
684.422	527.64
684.616	523.18
684.81	589.44
685.004	587.31
685.198	565.61
685.392	614.05
685.586	530.35
685.78	616.96
685.974	593.51
686.168	597.97
686.362	614.82
686.556	497.03
686.75	507.88
686.944	502.06
687.138	521.24
687.331	408.68
687.525	450.72
687.719	391.43
687.913	458.86
688.107	451.88
688.301	416.43
688.494	471.06
688.688	434.45
688.882	415.46
689.076	407.71
689.269	462.35
689.463	531.9
689.657	465.25
689.85	449.95
690.044	496.25
690.238	486.76
690.431	473.39
690.625	477.26
690.818	527.44
691.012	542.75
691.205	523.96
691.399	478.04
691.593	534.03
691.786	550.89
691.98	547.59
692.173	595.84
692.366	574.72
692.56	548.56
692.753	634.59
692.947	536.74
693.14	626.84
693.333	591.57
693.527	529.77
693.72	571.43
693.914	564.45
694.107	558.83
694.3	583.24
694.493	553.6
694.687	611.34
694.88	566.58
695.073	646.79
695.266	629.36
695.46	612.11
695.653	683.02
695.846	643.5
696.039	579.56
696.232	623.35
696.425	658.61
696.618	659.39
696.812	671.4
697.005	733.2
697.198	799.85
697.391	725.84
697.584	745.22
697.777	759.17
697.97	756.45
698.163	756.45
698.356	739.79
698.549	834.92
698.742	800.24
698.935	743.86
699.127	768.47
699.32	729.14
699.513	733.4
699.706	772.53
699.899	794.62
700.092	756.26
700.285	826.98
700.477	735.53
700.67	811.09
700.863	823.88
701.056	909.9
701.248	865.92
701.441	865.53
701.634	807.8
701.826	905.64
702.019	814.97
702.212	874.64
702.404	828.92
702.597	826.98
702.79	831.43
702.982	873.86
703.175	920.56
703.367	922.88
703.56	919.78
703.752	1002.51
703.945	925.6
704.137	952.53
704.33	999.8
704.522	994.57
704.715	988.37
704.907	992.63
705.1	1031.57
705.292	1035.84
705.484	1011.23
705.677	1048.43
705.869	1052.31
706.061	1103.07
706.254	1117.4
706.446	1041.46
706.638	1080.01
706.831	1113.34
707.023	1089.12
707.215	1181.92
707.407	1146.85
707.599	1121.09
707.792	1202.65
707.984	1175.92
708.176	1236.17
708.368	1142.2
708.56	1197.81
708.752	1153.64
708.944	1160.8
709.136	1193.74
709.329	1182.5
709.521	1308.83
709.713	1260.97
709.905	1271.63
710.097	1305.73
710.289	1247.02
710.481	1259.81
710.672	1309.8
710.864	1303.4
711.056	1356.1
711.248	1328.01
711.44	1330.72
711.632	1346.03
711.824	1378.19
712.016	1394.46
712.207	1375.67
712.399	1430.31
712.591	1462.47
712.783	1397.95
712.975	1428.37
713.166	1393.49
713.358	1399.89
713.55	1512.26
713.741	1447.74
713.933	1420.04
714.125	1440.77
714.316	1415.97
714.508	1497.73
714.7	1511.1
714.891	1484.75
715.083	1533.96
715.274	1462.27
715.466	1474.87
715.657	1533.96
715.849	1403.96
716.04	1477.39
716.232	1423.53
716.423	1494.05
716.615	1437.86
716.806	1408.8
716.998	1364.63
717.189	1324.52
717.381	1235.4
717.572	1246.25
717.763	1284.8
717.955	1266.01
718.146	1195.87
718.337	1192.58
718.528	1182.31
718.72	1139.49
718.911	1184.44
719.102	1146.08
719.293	1171.27
719.485	1175.72
719.676	1181.34
719.867	1091.64
720.058	1117.4
720.249	1118.95
720.44	1153.25
720.632	1182.12
720.823	1187.74
721.014	1300.5
721.205	1309.02
721.396	1378.19
721.587	1402.21
721.778	1432.05
721.969	1429.73
722.16	1505.87
722.351	1489.98
722.542	1609.33
722.733	1624.83
722.924	1549.07
723.115	1544.62
723.305	1544.81
723.496	1538.03
723.687	1455.69
723.878	1491.53
724.069	1478.55
724.26	1466.54
724.45	1407.83
724.641	1415.19
724.832	1438.06
725.023	1418.88
725.213	1417.13
725.404	1427.4
725.595	1421.98
725.785	1373.15
725.976	1415
726.167	1424.11
726.357	1421.98
726.548	1560.31
726.739	1468.09
726.929	1467.89
727.12	1526.6
727.31	1508.58
727.501	1482.04
727.691	1513.42
727.882	1543.26
728.072	1558.76
728.263	1509.16
728.453	1588.02
728.644	1565.93
728.834	1566.12
729.024	1537.84
729.215	1507.22
729.405	1545
729.596	1633.16
729.786	1617.08
729.976	1611.07
730.167	1627.15
730.357	1565.74
730.547	1616.3
730.737	1634.13
730.928	1691.67
731.118	1720.35
731.308	1635.29
731.498	1639.36
731.688	1737.78
731.879	1710.85
732.069	1799.01
732.259	1797.26
732.449	1774.01
732.639	1835.43
732.829	1860.23
733.019	1856.16
733.209	1901.31
733.399	1893.56
733.589	1949.74
733.779	1954.97
733.969	1939.28
734.159	2010.19
734.349	2045.45
734.539	2068.32
734.729	2047.78
734.919	2020.85
735.109	2092.92
735.299	2035.77
735.488	2074.32
735.678	2095.63
735.868	2057.66
736.058	2073.93
736.248	2029.76
736.437	2003.22
736.627	1999.92
736.817	2089.05
737.007	2103.19
737.196	2130.51
737.386	2082.85
737.576	2030.54
737.765	2105.9
737.955	2063.67
738.144	2190.57
738.334	2161.51
738.524	2086.92
738.713	2121.6
738.903	2142.52
739.092	2171.39
739.282	2177.2
739.471	2198.71
739.661	2128.57
739.85	2171.97
740.04	2203.16
740.229	2231.65
740.419	2216.92
740.608	2257.8
740.797	2185.53
740.987	2260.71
741.176	2274.66
741.365	2202.58
741.555	2204.13
741.744	2248.89
741.933	2227.58
742.123	2253.15
742.312	2300.62
742.501	2270.59
742.69	2282.02
742.88	2254.51
743.069	2333.94
743.258	2243.27
743.447	2310.11
743.636	2334.72
743.825	2260.51
744.014	2326
744.204	2311.66
744.393	2276.21
744.582	2332.39
744.771	2349.83
744.96	2325.42
745.149	2323.87
745.338	2286.48
745.527	2313.79
745.716	2311.86
745.905	2314.76
746.094	2325.23
746.283	2332.59
746.471	2353.51
746.66	2405.24
746.849	2330.26
747.038	2414.54
747.227	2319.41
747.416	2321.16
747.604	2315.54
747.793	2358.36
747.982	2370.95
748.171	2384.32
748.359	2386.45
748.548	2348.09
748.737	2344.6
748.926	2350.02
749.114	2291.32
749.303	2337.04
749.491	2293.45
749.68	2274.66
749.869	2337.04
750.057	2282.79
750.246	2334.52
750.434	2288.41
750.623	2321.93
750.811	2281.44
751	2330.07
751.188	2258.96
751.377	2308.95
751.565	2320.58
751.754	2259.74
751.942	2262.06
752.131	2327.94
752.319	2263.61
752.507	2212.46
752.696	2275.04
752.884	2348.47
753.072	2279.31
753.261	2279.11
753.449	2298.88
753.637	2223.12
753.825	2333.56
754.014	2274.66
754.202	2272.53
754.39	2342.27
754.578	2351.57
754.766	2275.43
754.955	2264.58
755.143	2321.74
755.331	2257.8
755.519	2270.78
755.707	2248.11
755.895	2248.69
756.083	2226.61
756.271	2213.43
756.459	2221.57
756.647	2230.1
756.835	2206.26
757.023	2175.07
757.211	2190.76
757.399	2192.31
757.587	2206.07
757.775	2166.93
757.963	2204.71
758.151	2187.66
758.339	2150.47
758.526	2186.89
758.714	2183.4
758.902	2114.43
759.09	2029.57
759.278	1903.82
759.465	1761.81
759.653	1537.64
759.841	1421.39
760.028	1185.22
760.216	1059.47
760.404	968.22
760.591	811.87
760.779	662.29
760.967	624.12
761.154	457.31
761.342	510.59
761.529	526.67
761.717	574.33
761.905	536.94
762.092	619.28
762.28	533.06
762.467	578.4
762.655	522.79
762.842	538.29
763.029	544.49
763.217	567.36
763.404	541.59
763.592	575.88
763.779	526.48
763.966	572.78
764.154	590.61
764.341	656.48
764.528	646.99
764.716	658.61
764.903	716.54
765.09	760.72
765.277	775.05
765.465	911.65
765.652	924.43
765.839	1006.78
766.026	1073.42
766.213	1113.34
766.4	1150.73
766.588	1338.08
766.775	1314.06
766.962	1372.38
767.149	1413.45
767.336	1517.49
767.523	1463.05
767.71	1561.28
767.897	1649.43
768.084	1699.81
768.271	1703.49
768.458	1771.88
768.645	1802.11
768.832	1745.92
769.019	1737.59
769.206	1828.46
769.392	1846.67
769.579	1969.12
769.766	1880.38
769.953	1887.55
770.14	1936.18
770.327	1904.02
770.513	1950.13
770.7	1963.11
770.887	1892.59
771.073	1972.8
771.26	1967.57
771.447	1926.3
771.634	1934.44
771.82	2045.45
772.007	1904.41
772.193	1960.4
772.38	1973.96
772.567	1938.31
772.753	1967.37
772.94	1976.48
773.126	1995.08
773.313	1999.92
773.499	1992.56
773.686	1973.38
773.872	1948
774.059	1988.49
774.245	1967.37
774.432	1977.84
774.618	1873.79
774.804	1963.31
774.991	1889.68
775.177	1999.73
775.363	1907.51
775.55	1991.01
775.736	1907.31
775.922	1939.47
776.109	1972.22
776.295	1964.66
776.481	1954.01
776.667	1926.88
776.853	1879.41
777.04	1913.32
777.226	1897.04
777.412	1979
777.598	1883.48
777.784	1891.43
777.97	1908.09
778.156	1895.88
778.342	1884.64
778.528	1895.3
778.715	1843.38
778.901	1845.89
779.087	1897.82
779.272	1835.24
779.458	1854.61
779.644	1878.44
779.83	1831.56
780.016	1938.89
780.202	1850.54
780.388	1852.68
780.574	1801.72
780.76	1819.74
780.946	1858.49
781.131	1841.83
781.317	1801.53
781.503	1773.63
781.689	1806.56
781.874	1919.91
782.06	1813.15
782.246	1811.6
782.432	1801.33
782.617	1832.91
782.803	1889.68
782.989	1750.76
783.174	1789.71
783.36	1717.05
783.545	1780.8
783.731	1768.98
783.916	1703.3
784.102	1819.16
784.288	1733.33
784.473	1780.02
784.659	1760.06
784.844	1761.03
785.029	1729.45
785.215	1726.55
785.4	1677.92
785.586	1773.63
785.771	1691.09
785.956	1721.9
786.142	1763.16
786.327	1719.76
786.512	1739.91
786.698	1700
786.883	1678.5
787.068	1713.37
787.254	1666.1
787.439	1687.41
787.624	1681.98
787.809	1644.01
787.994	1647.5
788.18	1733.33
788.365	1603.13
788.55	1684.89
788.735	1650.21
788.92	1649.82
789.105	1640.52
789.29	1678.11
789.475	1572.71
789.66	1633.74
789.845	1594.8
790.03	1555.27
790.215	1631.42
790.4	1648.08
790.585	1635.1
790.77	1615.53
790.955	1504.9
791.14	1587.44
791.325	1682.37
791.51	1517.11
791.695	1622.5
791.879	1544.23
792.064	1524.08
792.249	1595.57
792.434	1542.49
792.618	1593.64
792.803	1620.37
792.988	1571.16
793.173	1556.05
793.357	1624.05
793.542	1518.66
793.727	1573.49
793.911	1579.49
794.096	1570.97
794.281	1605.07
794.465	1681.21
794.65	1581.43
794.834	1598.48
795.019	1651.76
795.203	1627.93
795.388	1618.44
795.572	1686.63
795.757	1623.47
795.941	1628.51
796.126	1615.53
796.31	1581.24
796.494	1590.92
796.679	1589.37
796.863	1560.89
797.048	1632.19
797.232	1637.62
797.416	1582.79
797.601	1610.69
797.785	1650.4
797.969	1614.75
798.153	1565.54
798.338	1587.82
798.522	1658.35
798.706	1644.98
798.89	1650.4
799.074	1719.38
799.258	1644.59
799.443	1621.92
799.627	1619.02
799.811	1669.97
799.995	1629.09
800.179	1597.51
800.363	1625.22
800.547	1622.89
800.731	1673.07
800.915	1571.55
801.099	1602.94
801.283	1613.4
801.467	1623.09
801.651	1639.75
801.835	1660.09
802.019	1610.3
802.202	1664.16
802.386	1579.3
802.57	1553.34
802.754	1629.48
802.938	1576.2
803.121	1585.89
803.305	1660.48
803.489	1630.06
803.673	1639.17
803.856	1647.5
804.04	1595.19
804.224	1647.88
804.407	1599.84
804.591	1594.22
804.775	1577.17
804.958	1605.26
805.142	1688.96
805.326	1625.22
805.509	1599.64
805.693	1629.48
805.876	1648.27
806.06	1645.37
806.243	1623.28
806.427	1664.16
806.61	1669
806.794	1616.5
806.977	1658.93
807.16	1627.54
807.344	1610.1
807.527	1628.32
807.71	1601
807.894	1638.58
808.077	1646.92
808.26	1601
808.444	1610.49
808.627	1634.32
808.81	1569.61
808.993	1534.16
809.177	1534.74
809.36	1574.07
809.543	1599.06
809.726	1512.26
809.909	1510.32
810.092	1503.16
810.276	1488.04
810.459	1522.92
810.642	1483.01
810.825	1474.29
811.008	1491.72
811.191	1428.76
811.374	1413.45
811.557	1443.09
811.74	1512.65
811.923	1379.74
812.106	1401.24
812.289	1373.73
812.472	1388.65
812.654	1446.78
812.837	1381.48
813.02	1370.63
813.203	1307.86
813.386	1240.24
813.569	1240.24
813.751	1197.81
813.934	1249.93
814.117	1229.78
814.3	1179.02
814.482	1168.17
814.665	1149.76
814.848	1145.69
815.03	1085.63
815.213	1082.34
815.396	1089.7
815.578	1072.07
815.761	1053.86
815.943	1126.51
816.126	1029.25
816.309	1023.63
816.491	983.14
816.674	928.31
816.856	995.54
817.039	986.43
817.221	1046.49
817.403	992.24
817.586	1001.16
817.768	1032.74
817.951	964.93
818.133	954.85
818.315	993.41
818.498	1021.11
818.68	1082.92
818.862	1016.46
819.045	1058.31
819.227	1052.5
819.409	1032.16
819.591	1037.39
819.774	1043.78
819.956	984.69
820.138	1080.59
820.32	1074.97
820.502	1080.01
820.684	1119.73
820.866	1119.34
821.048	1192.19
821.231	1173.79
821.413	1165.84
821.595	1124.57
821.777	1117.79
821.959	1146.85
822.141	1194.52
822.323	1065.09
822.505	1040.87
822.686	1043.01
822.868	980.62
823.05	879.29
823.232	907
823.414	850.03
823.596	930.44
823.778	888.4
823.96	936.83
824.141	895.76
824.323	892.66
824.505	990.89
824.687	997.86
824.868	1038.36
825.05	1105.78
825.232	1184.83
825.413	1211.76
825.595	1133.29
825.777	1070.52
825.958	1131.55
826.14	1117.02
826.321	1147.05
826.503	1081.37
826.685	1123.8
826.866	1166.04
827.048	1138.52
827.229	1075.36
827.411	1078.85
827.592	1020.72
827.773	1039.32
827.955	998.64
828.136	1000.38
828.318	981.98
828.499	1044.17
828.68	980.62
828.862	995.15
829.043	1009.29
829.224	1025.18
829.406	962.41
829.587	1000.19
829.768	980.81
829.949	989.34
830.131	995.93
830.312	1057.73
830.493	1003.48
830.674	1020.92
830.855	983.53
831.036	983.72
831.218	1055.99
831.399	1077.3
831.58	990.11
831.761	991.28
831.942	1035.84
832.123	980.23
832.304	981.98
832.485	965.51
832.666	985.85
832.847	988.56
833.028	1011.81
833.209	1019.56
833.389	999.22
833.57	948.84
833.751	977.13
833.932	1021.31
834.113	1009.1
834.294	971.71
834.475	1013.17
834.655	1051.53
834.836	1048.82
835.017	1061.02
835.198	977.13
835.378	984.69
835.559	1064.32
835.74	1022.66
835.92	995.15
836.101	986.43
836.281	1048.24
836.462	1022.86
836.643	1065.09
836.823	1067.22
837.004	1039.52
837.184	1098.61
837.365	1053.86
837.545	1053.86
837.726	1036.81
837.906	1090.09
838.087	1032.16
838.267	1036.22
838.448	1003.68
838.628	1027.89
838.808	1042.42
838.989	1099.19
839.169	997.48
839.349	1074.01
839.53	1047.27
839.71	1073.23
839.89	1018.4
840.07	1095.51
840.251	1018.01
840.431	1067.03
840.611	1040.49
840.791	1006
840.971	1048.24
841.151	1024.02
841.332	1014.33
841.512	1024.99
841.692	955.82
841.872	1027.89
842.052	1026.92
842.232	1074.01
842.412	956.79
842.592	1030.41
842.772	1036.22
842.952	1013.94
843.132	994.57
843.312	1035.26
843.492	981.2
843.672	1055.79
843.851	999.22
844.031	1008.13
844.211	980.23
844.391	1017.43
844.571	1016.08
844.751	1002.51
844.93	1021.31
845.11	973.64
845.29	996.89
845.47	996.7
845.649	1042.04
845.829	1043.97
846.009	973.06
846.188	1020.34
846.368	974.81
846.547	1006.39
846.727	1052.31
846.907	981.78
847.086	1035.64
847.266	1022.86
847.445	989.92
847.625	987.01
847.804	963.76
847.984	986.82
848.163	981.2
848.343	966.48
848.522	1014.33
848.701	984.11
848.881	948.65
849.06	1006.97
849.239	1003.48
849.419	1001.93
849.598	926.37
849.777	918.62
849.957	945.16
850.136	872.7
850.315	888.01
850.494	890.14
850.674	903.51
850.853	966.48
851.032	920.17
851.211	961.44
851.39	909.9
851.569	848.1
851.748	900.8
851.927	938.96
852.107	901.76
852.286	875.03
852.465	879.68
852.644	931.8
852.823	928.11
853.002	908.74
853.181	900.6
853.359	920.17
853.538	873.09
853.717	931.6
853.896	856.23
854.075	837.63
854.254	801.02
854.433	766.92
854.611	832.21
854.79	749.29
854.969	791.91
855.148	849.65
855.327	807.22
855.505	828.53
855.684	817.1
855.863	854.49
856.041	797.33
856.22	857.78
856.399	786.68
856.577	902.73
856.756	884.71
856.934	968.03
857.113	944.97
857.291	850.42
857.47	866.11
857.648	860.69
857.827	894.79
858.005	917.07
858.184	839.38
858.362	942.26
858.541	885.49
858.719	839.96
858.898	867.47
859.076	870.76
859.254	925.6
859.433	876
859.611	827.37
859.789	810.32
859.967	902.35
860.146	914.55
860.324	828.14
860.502	811.09
860.68	775.25
860.859	810.32
861.037	830.08
861.215	835.7
861.393	882.39
861.571	827.17
861.749	794.62
861.927	832.98
862.105	858.75
862.283	854.68
862.461	790.75
862.639	779.12
862.817	820
862.995	819.62
863.173	811.48
863.351	807.22
863.529	825.82
863.707	868.63
863.885	819.23
864.063	749.09
864.241	796.37
864.418	845.38
864.596	774.47
864.774	747.54
864.952	816.52
865.129	826.98
865.307	741.34
865.485	746.57
865.663	829.3
865.84	732.24
866.018	763.62
866.196	650.28
866.373	691.74
866.551	679.92
866.728	632.26
866.906	679.54
867.084	684.96
867.261	708.4
867.439	725.07
867.616	763.62
867.794	740.57
867.971	732.82
868.149	740.76
868.326	768.66
868.503	769.82
868.681	761.49
868.858	734.56
869.035	693.87
869.213	761.88
869.39	743.47
869.567	818.07
869.745	736.11
869.922	730.88
870.099	752.97
870.276	738.05
870.454	770.02
870.631	745.8
870.808	743.86
870.985	771.18
871.162	792.3
871.339	749.67
871.517	691.35
871.694	663.84
871.871	740.95
872.048	697.17
872.225	734.56
872.402	712.09
872.579	673.72
872.756	709.95
872.933	666.56
873.11	706.47
873.287	735.53
873.463	707.44
873.64	658.22
873.817	723.71
873.994	708.79
874.171	659.19
874.348	705.69
874.524	649.7
874.701	672.75
874.878	657.64
875.055	686.7
875.231	699.49
875.408	728.17
875.585	608.62
875.762	683.41
875.938	690.97
876.115	665.2
876.291	666.36
876.468	672.17
876.645	627.61
876.821	660.94
876.998	640.4
877.174	682.83
877.351	663.65
877.527	625.29
877.704	691.16
877.88	693.87
878.057	653.19
878.233	727.2
878.409	665.97
878.586	656.48
878.762	660.36
878.938	637.69
879.115	590.99
879.291	654.93
879.467	607.07
879.644	592.35
879.82	638.27
879.996	631.68
880.172	592.93
880.349	620.25
880.525	662.29
880.701	596.03
880.877	603.78
881.053	647.76
881.229	626.64
881.405	652.99
881.581	608.62
881.757	628.19
881.933	647.96
882.109	655.71
882.285	643.69
882.461	587.7
882.637	610.95
882.813	601.07
882.989	612.31
883.165	641.37
883.341	616.96
883.517	664.81
883.693	637.11
883.869	649.7
884.044	595.84
884.22	655.9
884.396	662.68
884.572	654.93
884.747	658.22
884.923	645.82
885.099	652.61
885.275	687.48
885.45	611.53
885.626	594.87
885.801	588.67
885.977	608.24
886.153	556.89
886.328	626.45
886.504	599.71
886.679	627.42
886.855	615.21
887.03	634.59
887.206	650.67
887.381	621.02
887.557	643.69
887.732	629.55
887.908	644.86
888.083	641.17
888.258	594.29
888.434	590.41
888.609	600.29
888.784	653.96
888.96	595.64
889.135	598.55
889.31	570.65
889.485	630.52
889.661	581.69
889.836	655.51
890.011	642.14
890.186	612.11
890.361	588.28
890.537	605.33
890.712	620.44
890.887	621.99
891.062	631.29
891.237	669.27
891.412	596.61
891.587	617.92
891.762	629.55
891.937	669.85
892.112	576.66
892.287	605.14
892.462	573.75
892.637	548.76
892.812	565.23
892.987	538.49
893.161	540.62
893.336	582.47
893.511	573.36
893.686	549.53
893.861	576.27
894.035	561.35
894.21	566
894.385	480.17
894.56	555.93
894.734	515.82
894.909	497.61
895.084	529.77
895.258	498.58
895.433	536.55
895.608	495.09
895.782	476.3
895.957	452.08
896.131	482.88
896.306	414.3
896.48	428.63
896.655	424.76
896.829	380.2
897.004	401.51
897.178	421.08
897.353	402.67
897.527	435.61
897.701	434.83
897.876	382.13
898.05	430.38
898.224	417.78
898.399	471.26
898.573	400.15
898.747	336.41
898.921	390.85
899.096	319.94
899.27	333.12
899.444	334.28
899.618	340.09
899.792	345.32
899.967	361.79
900.141	372.06
900.315	322.27
900.489	349.2
900.663	395.31
900.837	357.33
901.011	304.05
901.185	437.16
901.359	374.38
901.533	377.68
901.707	390.27
901.881	352.1
902.055	316.65
902.229	346.1
902.403	417.4
902.576	374.38
902.75	372.25
902.924	468.93
903.098	387.37
903.272	426.7
903.446	476.68
903.619	424.95
903.793	446.07
903.967	432.7
904.14	469.51
904.314	477.65
904.488	463.51
904.661	459.05
904.835	430.38
905.009	496.44
905.182	516.59
905.356	477.07
905.529	453.43
905.703	432.31
905.876	425.34
906.05	396.86
906.223	411.78
906.397	343.77
906.57	346.68
906.744	330.6
906.917	363.34
907.09	374.58
907.264	350.75
907.437	333.31
907.61	305.41
907.784	321.49
907.957	328.66
908.13	303.67
908.304	353.65
908.477	316.26
908.65	355.01
908.823	272.47
908.996	393.18
909.17	293.59
909.343	303.47
909.516	342.42
909.689	319.55
909.862	276.35
910.035	307.74
910.208	279.64
910.381	320.72
910.554	374.97
910.727	295.14
910.9	283.71
911.073	281.77
911.246	358.69
911.419	341.64
911.592	319.17
911.765	313.55
911.938	278.09
912.11	305.41
912.283	287.59
912.456	327.3
912.629	305.99
912.802	305.22
912.974	227.72
913.147	267.44
913.32	201.95
913.493	217.84
913.665	276.74
913.838	266.47
914.01	234.11
914.183	288.55
914.356	221.52
914.528	298.44
914.701	338.15
914.873	319.94
915.046	256.59
915.218	238.95
915.391	184.71
915.563	225.78
915.736	274.41
915.908	287.39
916.081	262.01
916.253	252.32
916.425	250.97
916.598	261.43
916.77	239.15
916.942	261.82
917.115	169.21
917.287	273.83
917.459	254.65
917.632	205.24
917.804	184.12
917.976	254.84
918.148	261.24
918.32	230.62
918.493	286.81
918.665	284.49
918.837	257.36
919.009	317.42
919.181	311.61
919.353	266.47
919.525	280.42
919.697	287.2
919.869	264.53
920.041	308.12
920.213	370.9
920.385	295.53
920.557	281.39
920.729	293.79
920.901	295.72
921.073	287
921.244	273.83
921.416	303.47
921.588	298.63
921.76	288.94
921.932	335.44
922.103	280.22
922.275	280.03
922.447	289.52
922.619	208.54
922.79	284.87
922.962	234.11
923.134	273.44
923.305	236.24
923.477	241.09
923.648	219.77
923.82	242.83
923.991	193.04
924.163	188
924.335	237.6
924.506	237.21
924.677	278.87
924.849	185.48
925.02	250.19
925.192	274.02
925.363	212.02
925.535	231.4
925.706	202.92
925.877	267.63
926.049	223.26
926.22	269.18
926.391	261.24
926.562	250.97
926.734	198.85
926.905	241.67
927.076	184.71
927.247	212.02
927.419	188.19
927.59	164.36
927.761	210.09
927.932	197.69
928.103	231.98
928.274	168.24
928.445	176.96
928.616	170.37
928.787	143.63
928.958	237.4
929.129	189.74
929.3	178.12
929.471	125.03
929.642	93.64
929.813	53.15
929.984	162.04
930.155	82.41
930.326	138.21
930.496	113.79
930.667	62.26
930.838	101.59
931.009	68.26
931.18	99.65
931.35	92.87
931.521	108.95
931.692	37.46
931.863	40.95
932.033	93.84
932.204	96.74
932.374	77.95
932.545	31.26
932.716	126
932.886	89.96
933.057	18.28
933.227	44.24
933.398	92.29
933.568	21.96
933.739	-7.88
933.909	4.71
934.08	84.34
934.25	-28.03
934.421	-0.71
934.591	34.36
934.761	13.05
934.932	-26.48
935.102	18.86
935.272	-1.87
935.443	17.31
935.613	6.65
935.783	35.71
935.953	10.14
936.123	147.51
936.294	-6.72
936.464	12.27
936.634	33.39
936.804	-5.17
936.974	-1.49
937.144	30.68
937.314	42.5
937.484	0.26
937.655	-17.76
937.825	64
937.995	19.05
938.165	54.7
938.334	18.28
938.504	50.05
938.674	13.05
938.844	29.13
939.014	66.52
939.184	49.28
939.354	109.14
939.524	81.83
939.694	16.53
939.863	35.91
940.033	100.62
940.203	82.79
940.373	75.43
940.542	70.59
940.712	29.32
940.882	64.78
941.051	93.84
941.221	58.38
941.391	73.3
941.56	59.93
941.73	23.12
941.899	147.31
942.069	21.38
942.238	91.51
942.408	30.87
942.577	87.25
942.747	39.78
942.916	9.17
943.086	35.91
943.255	69.62
943.425	54.51
943.594	26.41
943.763	-33.45
943.933	-10.79
944.102	-21.25
944.271	14.98
944.441	58.96
944.61	39.01
944.779	15.18
944.948	98.88
945.117	-15.82
945.287	10.72
945.456	-19.31
945.625	20.6
945.794	61.48
945.963	0.65
946.132	40.56
946.301	15.95
946.47	64.58
946.639	-26.29
946.808	24.28
946.977	57.03
947.146	58.96
947.315	38.62
947.484	58.19
947.653	28.55
947.822	14.01
947.991	22.93
948.16	108.56
948.329	71.17
948.498	22.73
948.666	21.38
948.835	41.33
949.004	-7.1
949.173	-4.2
949.341	39.98
949.51	36.88
949.679	77.37
949.847	52.57
950.016	114.18
950.185	93.84
950.353	2.58
950.522	18.86
950.69	78.92
950.859	-14.27
951.028	79.5
951.196	47.34
951.365	27.77
951.533	27
951.701	55.09
951.87	64.19
952.038	-1.29
952.207	21.96
952.375	104.3
952.543	22.15
952.712	21.76
952.88	23.31
953.048	103.33
953.217	36.3
953.385	12.66
953.553	68.07
953.721	-8.27
953.89	49.86
954.058	-6.91
954.226	3.55
954.394	39.4
954.562	-18.34
954.73	35.13
954.898	29.71
955.067	69.62
955.235	26.22
955.403	86.09
955.571	81.83
955.739	54.31
955.907	14.98
956.075	5.3
956.243	13.05
956.41	44.43
956.578	-6.14
956.746	-18.34
956.914	31.26
957.082	50.63
957.25	50.44
957.418	18.66
957.585	26.41
957.753	88.22
957.921	-7.88
958.089	27.19
958.256	56.06
958.424	39.4
958.592	48.89
958.759	11.69
958.927	67.49
959.095	8.78
959.262	43.27
959.43	59.54
959.597	24.67
959.765	55.28
959.932	2.58
960.1	48.11
960.267	34.75
960.435	51.99
960.602	80.28
960.77	31.26
960.937	18.86
961.104	49.86
961.272	6.07
961.439	10.33
961.606	33.97
961.774	68.65
961.941	34.16
962.108	30.68
962.275	38.43
962.443	61.87
962.61	67.29
962.777	93.26
962.944	70.78
963.111	55.28
963.278	73.3
963.446	46.56
963.613	15.18
963.78	50.63
963.947	63.61
964.114	35.13
964.281	94.61
964.448	34.55
964.615	30.1
964.782	63.03
964.949	81.05
965.116	67.49
965.282	95
965.449	32.81
965.616	-20.28
965.783	47.15
965.95	41.14
966.117	18.47
966.283	43.27
966.45	55.28
966.617	33.78
966.784	114.38
966.95	76.21
967.117	66.91
967.284	-3.23
967.45	9.17
967.617	94.23
967.784	66.13
967.95	88.22
968.117	20.6
968.283	87.64
968.45	133.56
968.616	36.1
968.783	73.88
968.949	60.71
969.116	76.98
969.282	47.15
969.449	49.86
969.615	63.81
969.781	-8.07
969.948	30.68
970.114	5.3
970.28	101.78
970.447	48.31
970.613	91.13
970.779	43.66
970.945	75.43
971.112	58.58
971.278	28.93
971.444	57.8
971.61	94.23
971.776	20.21
971.942	60.71
972.108	52.76
972.275	23.7
972.441	84.34
972.607	136.46
972.773	13.05
972.939	71.36
973.105	60.51
973.271	25.64
973.437	50.25
973.602	42.5
973.768	77.18
973.934	-4.39
974.1	76.21
974.266	-19.89
974.432	50.44
974.598	26.03
974.763	50.83
974.929	26.03
975.095	107.59
975.261	20.6
975.426	29.32
975.592	53.35
975.758	105.08
975.923	-0.32
976.089	20.21
976.255	82.21
976.42	37.85
976.586	62.64
976.751	60.51
976.917	122.32
977.082	78.14
977.248	7.62
977.413	-1.1
977.579	47.73
977.744	73.69
977.91	-0.13
978.075	28.16
978.24	82.02
978.406	51.41
978.571	13.24
978.736	27.38
978.902	83.38
979.067	18.47
979.232	2.39
979.397	45.4
979.563	111.86
979.728	-13.69
979.893	50.83
980.058	6.07
980.223	80.08
980.388	45.4
980.554	18.66
980.719	27.58
980.884	54.12
981.049	66.52
981.214	46.76
981.379	65.36
981.544	9.56
981.709	25.45
981.874	21.18
982.039	27.19
982.204	90.16
982.368	45.79
982.533	6.85
982.698	72.33
982.863	64.97
983.028	13.63
983.193	77.18
983.357	32.81
983.522	65.55
983.687	29.13
983.852	31.45
984.016	40.36
984.181	49.08
984.346	59.93
984.51	43.66
984.675	46.76
984.839	57.22
985.004	57.41
985.168	79.89
985.333	57.8
985.498	34.16
985.662	84.34
985.827	69.04
985.991	46.76
986.155	35.52
986.32	87.25
986.484	74.27
986.649	54.9
986.813	-1.29
986.977	49.28
987.142	80.28
987.306	8.2
987.47	-7.1
987.634	18.28
987.799	41.72
987.963	58
988.127	54.51
988.291	132.2
988.455	37.65
988.62	5.3
988.784	50.63
988.948	76.98
989.112	17.89
989.276	32.42
989.44	38.81
989.604	18.47
989.768	27.58
989.932	129.49
990.096	-6.52
990.26	3.55
990.424	11.11
990.588	45.98
990.752	101.78
990.915	71.94
991.079	18.86
991.243	23.7
991.407	85.89
991.571	43.08
991.734	56.45
991.898	68.84
992.062	121.93
992.226	9.36
992.389	22.73
992.553	-19.12
992.717	5.68
992.88	32.61
993.044	56.06
993.207	47.53
993.371	63.42
993.535	60.51
993.698	47.53
993.862	71.75
994.025	61.87
994.189	62.64
994.352	42.11
994.515	53.93
994.679	98.88
994.842	6.07
995.006	45.4
995.169	35.91
995.332	15.76
995.496	52.76
995.659	-17.18
995.822	39.4
995.985	35.71
996.149	67.88
996.312	0.65
996.475	126.97
996.638	15.95
996.801	91.51
996.964	105.27
997.128	13.43
997.291	7.43
997.454	31.65
997.617	1.03
997.78	78.34
997.943	27.38
998.106	61.48
998.269	17.7
998.432	23.31
998.595	59.35
998.758	-5.17
998.92	0.84
999.083	3.55
999.246	20.6
999.409	-21.25
999.572	-26.29
999.735	8.4
999.897	57.03
1000.06	-3.23
1000.223	20.99
1000.386	58.77
1000.548	59.35
1000.711	59.16
1000.874	55.86
1001.036	13.24
1001.199	60.51
1001.361	24.09
1001.524	53.93
1001.687	76.4
1001.849	-13.3
1002.012	47.92
1002.174	47.53
1002.337	29.51
1002.499	41.91
1002.661	79.11
1002.824	8.01
1002.986	2.78
1003.149	39.98
1003.311	-8.27
1003.473	96.55
1003.636	18.86
1003.798	50.63
1003.96	41.72
1004.123	30.1
1004.285	7.23
1004.447	22.35
1004.609	32.23
1004.771	83.18
1004.933	-26.67
1005.096	-13.89
1005.258	-8.07
1005.42	8.4
1005.582	65.36
1005.744	49.08
1005.906	-15.24
1006.068	54.9
1006.23	-5.17
1006.392	-28.03
1006.554	-14.27
1006.716	58.96
1006.878	29.9
1007.04	-0.71
1007.202	8.78
1007.363	39.59
1007.525	60.71
1007.687	51.21
1007.849	75.63
1008.011	-13.5
1008.172	-8.65
1008.334	34.16
1008.496	45.98
1008.658	2
1008.819	-13.3
1008.981	-21.05
1009.143	-14.85
1009.304	4.13
1009.466	51.21
1009.627	86.48
1009.789	132.2
1009.95	32.61
1010.112	-6.72
1010.273	44.05
1010.435	-13.69
1010.596	8.2
1010.758	-2.07
1010.919	-0.32
1011.081	0.26
1011.242	16.53
1011.403	49.28
1011.565	36.68
1011.726	31.65
1011.887	-22.8
1012.049	32.81
1012.21	48.7
1012.371	76.98
1012.532	-66.58
1012.693	16.92
1012.855	-1.87
1013.016	23.9
1013.177	64.58
1013.338	20.02
1013.499	79.5
1013.66	50.63
1013.821	62.26
1013.982	29.32
1014.143	18.08
1014.304	14.79
1014.465	23.12
1014.626	34.75
1014.787	10.91
1014.948	93.84
1015.109	-39.46
1015.27	58.96
1015.431	-10.79
1015.592	-13.5
1015.752	52.76
1015.913	33.58
1016.074	30.1
1016.235	30.29
1016.395	6.46
1016.556	11.88
1016.717	0.06
1016.877	71.94
1017.038	-17.57
1017.199	20.21
1017.359	22.15
1017.52	23.9
1017.681	-12.34
1017.841	5.68
1018.002	14.01
1018.162	5.49
1018.323	63.61
1018.483	13.43
1018.644	-7.49
1018.804	-6.91
1018.964	-2.65
1019.125	1.61
1019.285	22.15
1019.446	8.78
1019.606	12.66
1019.766	-39.46
1019.926	39.59
1020.087	13.63
1020.247	-39.85
1020.407	46.56
1020.567	45.4
1020.728	20.99
1020.888	-10.98
1021.048	-25.9
1021.208	11.69
1021.368	-23.77
1021.528	86.28
1021.688	39.59
1021.848	42.88
1022.008	38.23
1022.168	4.91
1022.328	33.78
1022.488	49.47
1022.648	16.15
1022.808	32.23
1022.968	41.72
1023.128	5.3
1023.288	-1.87
1023.448	11.11
1023.608	51.8
1023.767	33.39
1023.927	-41.4
1024.087	-24.74
1024.247	-39.07
1024.406	6.46
1024.566	-23.57
1024.726	-31.32
1024.885	5.49
1025.045	46.37
1025.205	6.65
1025.364	11.3
1025.524	14.79
1025.683	15.76
1025.843	-3.62
1026.003	12.46
1026.162	56.25
1026.321	63.23
1026.481	27.58
1026.64	-18.15
1026.8	23.7
1026.959	19.44
1027.119	2
1027.278	12.85
1027.437	-1.29
1027.597	21.57
1027.756	38.81
1027.915	27.77
1028.074	51.6
1028.234	-8.85
1028.393	30.87
1028.552	17.31
1028.711	-31.32
1028.87	47.34
1029.03	-21.05
1029.189	19.25
1029.348	-50.5
1029.507	-3.42
1029.666	26.61
1029.825	-23.38
1029.984	-15.05
1030.143	13.63
1030.302	-8.85
1030.461	-56.9
1030.62	36.49
1030.779	31.84
1030.938	-10.59
1031.097	-28.03
1031.255	51.6
1031.414	58.19
1031.573	53.73
1031.732	-42.95
1031.891	19.05
1032.049	74.27
1032.208	43.08
1032.367	-17.95
1032.525	-16.6
1032.684	9.17
1032.843	8.4
1033.001	-71.82
1033.16	160.1
1033.319	52.76
1033.477	14.01
1033.636	-18.73
1033.794	-29.58
1033.953	30.68
1034.111	58.58
1034.27	3.16
1034.428	23.12
1034.587	-33.84
1034.745	19.05
1034.903	6.46
1035.062	38.04
1035.22	-17.76
1035.378	38.43
1035.537	-20.86
1035.695	28.35
1035.853	12.66
1036.011	43.27
1036.17	40.17
1036.328	-51.08
1036.486	11.5
1036.644	23.51
1036.802	-61.35
1036.96	-17.18
1037.119	3.36
1037.277	-17.95
1037.435	-25.12
1037.593	-14.47
1037.751	15.76
1037.909	26.22
1038.067	26.22
