Data from pine_FLMT105791__27__17-20-01-070.txt Node

Date: Mon Mar 20 17:20:01 GMT 2023
User: antho
Spectrometer: FLMT10579
Trigger mode: 0
Integration Time (sec): 1.000000E-1
Scans to average: 10
Electric dark correction enabled: true
Nonlinearity correction enabled: false
Boxcar width: 0
XAxis mode: Wavelengths
Number of Pixels in Spectrum: 3648
>>>>>Begin Spectral Data<<<<<
345.248	-175.94
345.464	-175.94
345.681	-175.94
345.898	-161.41
346.114	-170.32
346.331	-31.21
346.548	33.5
346.764	-27.33
346.981	5.6
347.197	-23.65
347.414	29.05
347.631	-23.65
347.847	63.15
348.064	-6.22
348.28	26.53
348.497	-45.16
348.713	-0.6
348.93	20.91
349.146	45.51
349.363	-4.08
349.579	14.32
349.796	1.15
350.012	-0.02
350.229	19.16
350.445	13.16
350.661	-34.5
350.878	-0.21
351.094	34.28
351.311	19.36
351.527	17.42
351.743	-12.03
351.96	45.9
352.176	33.5
352.392	38.15
352.609	8.9
352.825	18.2
353.041	12.58
353.257	-10.28
353.474	2.12
353.69	4.44
353.906	13.93
354.122	-29.47
354.339	51.91
354.555	15.29
354.771	-19.58
354.987	66.05
355.203	36.8
355.42	8.9
355.636	-28.69
355.852	0.57
356.068	-18.23
356.284	-11.45
356.5	53.26
356.716	40.86
356.932	9.48
357.148	15.29
357.364	18
357.58	48.61
357.796	46.48
358.012	54.81
358.228	24.2
358.444	-62.79
358.66	43.19
358.876	19.55
359.092	-16.1
359.308	27.3
359.524	32.34
359.74	-16.48
359.956	10.64
360.172	14.51
360.388	59.08
360.604	-27.72
360.819	115.84
361.035	38.93
361.251	34.86
361.467	3.28
361.683	56.95
361.898	22.07
362.114	34.86
362.33	22.46
362.546	46.68
362.762	4.63
362.977	14.71
363.193	-1.57
363.409	55.01
363.624	-10.48
363.84	-6.41
364.056	6.96
364.271	56.17
364.487	33.7
364.703	2.31
364.918	-10.09
365.134	12.38
365.35	13.55
365.565	92.79
365.781	6.18
365.996	31.95
366.212	74.58
366.427	24.59
366.643	35.63
366.858	-6.8
367.074	-10.09
367.289	77.29
367.505	102.67
367.72	-29.47
367.936	8.7
368.151	34.86
368.367	48.03
368.582	31.18
368.798	5.41
369.013	49.97
369.228	31.95
369.444	41.06
369.659	90.27
369.874	49.2
370.09	74
370.305	-39.73
370.52	2.31
370.736	59.46
370.951	25.17
371.166	64.11
371.381	75.35
371.597	63.53
371.812	-19.58
372.027	-21.13
372.242	10.64
372.458	82.52
372.673	18.2
372.888	10.06
373.103	42.22
373.318	98.02
373.533	30.6
373.749	28.27
373.964	-20.55
374.179	62.37
374.394	-24.04
374.609	47.84
374.824	-3.89
375.039	49
375.254	-17.07
375.469	43.58
375.684	50.55
375.899	46.29
376.114	-1.57
376.329	13.16
376.544	44.55
376.759	39.12
376.974	19.16
377.189	20.33
377.404	32.34
377.619	47.06
377.834	-35.67
378.049	-11.25
378.264	-25.59
378.478	3.08
378.693	-19.39
378.908	58.88
379.123	7.73
379.338	59.85
379.553	28.27
379.767	36.6
379.982	66.05
380.197	52.1
380.412	15.87
380.626	60.63
380.841	99.76
381.056	35.44
381.271	87.36
381.485	15.87
381.7	-2.92
381.915	40.86
382.129	11.03
382.344	66.63
382.559	30.4
382.773	59.08
382.988	-5.63
383.202	42.22
383.417	-28.3
383.632	111.97
383.846	18.2
384.061	30.01
384.275	17.03
384.49	46.29
384.704	51.91
384.919	20.71
385.133	19.16
385.348	31.37
385.562	-12.03
385.777	48.23
385.991	8.12
386.206	14.13
386.42	-5.83
386.634	73.61
386.849	35.05
387.063	28.08
387.277	-8.93
387.492	13.55
387.706	-0.21
387.92	1.34
388.135	67.6
388.349	31.95
388.563	59.27
388.778	30.4
388.992	55.01
389.206	38.54
389.42	120.69
389.635	4.44
389.849	72.45
390.063	65.86
390.277	23.04
390.491	98.41
390.706	48.42
390.92	64.89
391.134	19.55
391.348	61.98
391.562	-37.6
391.776	35.05
391.99	2.31
392.205	66.05
392.419	11.61
392.633	31.56
392.847	85.43
393.061	6.18
393.275	84.26
393.489	20.52
393.703	30.01
393.917	73.41
394.131	16.26
394.345	51.71
394.559	65.28
394.773	31.18
394.986	37.18
395.2	42.61
395.414	70.12
395.628	-3.89
395.842	40.09
396.056	27.11
396.27	-12.22
396.484	42.22
396.697	63.15
396.911	59.46
397.125	70.31
397.339	78.84
397.553	53.07
397.766	108.09
397.98	70.51
398.194	51.71
398.408	17.61
398.621	34.86
398.835	70.51
399.049	46.1
399.262	68.96
399.476	75.35
399.69	88.14
399.903	115.65
400.117	54.04
400.331	68.57
400.544	43.19
400.758	175.13
400.971	77.29
401.185	71.86
401.398	24.78
401.612	114.29
401.826	83.88
402.039	85.04
402.253	18.39
402.466	73.41
402.68	61.4
402.893	69.15
403.106	64.11
403.32	59.66
403.533	89.3
403.747	85.43
403.96	80.2
404.174	84.65
404.387	26.53
404.6	56.36
404.814	115.07
405.027	51.71
405.24	88.72
405.454	46.29
405.667	100.15
405.88	7.35
406.094	77.87
406.307	90.46
406.52	57.33
406.733	37.38
406.947	36.6
407.16	122.82
407.373	96.08
407.586	68.57
407.799	21.3
408.012	89.3
408.226	76.71
408.439	105.38
408.652	26.72
408.865	58.88
409.078	132.51
409.291	83.1
409.504	14.51
409.717	47.26
409.93	82.71
410.143	83.1
410.357	25.95
410.57	32.92
410.783	80
410.996	82.13
411.209	76.32
411.421	127.28
411.634	55.01
411.847	80.58
412.06	80.78
412.273	67.21
412.486	54.23
412.699	151.69
412.912	72.45
413.125	70.51
413.338	63.73
413.55	123.98
413.763	59.27
413.976	107.51
414.189	28.46
414.402	87.17
414.615	121.27
414.827	32.15
415.04	123.21
415.253	85.04
415.466	110.81
415.678	150.72
415.891	54.62
416.104	97.63
416.316	65.86
416.529	60.43
416.742	124.37
416.954	104.03
417.167	104.61
417.38	58.88
417.592	124.18
417.805	38.73
418.017	22.46
418.23	121.27
418.442	66.63
418.655	68.57
418.868	106.74
419.08	115.84
419.293	137.35
419.505	108.68
419.718	103.44
419.93	125.34
420.142	81.75
420.355	130.96
420.567	135.03
420.78	121.66
420.992	96.47
421.205	180.94
421.417	59.66
421.629	88.91
421.842	81.36
422.054	43.38
422.266	139.48
422.479	117.78
422.691	101.89
422.903	141.61
423.115	98.79
423.328	85.62
423.54	152.46
423.752	98.79
423.964	76.9
424.177	110.42
424.389	109.64
424.601	211.94
424.813	125.34
425.025	117.39
425.238	144.13
425.45	111.58
425.662	112.36
425.874	395.42
426.086	103.44
426.298	125.34
426.51	135.61
426.722	120.49
426.934	104.8
427.146	125.92
427.358	79.81
427.57	132.7
427.782	117.78
427.994	125.92
428.206	115.84
428.418	73.61
428.63	119.91
428.842	156.73
429.054	143.74
429.266	171.45
429.478	92.4
429.69	127.86
429.902	93.76
430.114	138.9
430.325	141.42
430.537	103.64
430.749	100.73
430.961	74.19
431.173	129.21
431.384	141.81
431.596	36.8
431.808	101.51
432.02	128.24
432.231	152.66
432.443	180.94
432.655	137.93
432.867	135.41
433.078	161.18
433.29	188.5
433.502	180.36
433.713	182.49
433.925	180.17
434.136	194.12
434.348	122.04
434.56	107.13
434.771	236.36
434.983	110.03
435.194	136.58
435.406	143.55
435.617	182.69
435.829	230.16
436.04	200.71
436.252	204
436.463	196.25
436.675	186.37
436.886	213.49
437.098	203.42
437.309	233.64
437.521	194.31
437.732	189.08
437.943	197.8
438.155	157.31
438.366	130.18
438.578	255.54
438.789	213.69
439	195.67
439.211	191.6
439.423	197.99
439.634	233.26
439.845	227.06
440.057	200.9
440.268	249.34
440.479	173.39
440.69	198.57
440.902	188.69
441.113	224.15
441.324	166.99
441.535	205.16
441.746	276.85
441.957	173.58
442.168	213.69
442.38	226.28
442.591	227.64
442.802	214.85
443.013	202.26
443.224	222.02
443.435	216.4
443.646	218.53
443.857	246.82
444.068	222.99
444.279	210.78
444.49	298.16
444.701	228.02
444.912	313.27
445.123	284.21
445.334	255.73
445.545	244.3
445.756	247.21
445.967	196.64
446.178	261.74
446.388	284.79
446.599	285.95
446.81	275.1
447.021	238.49
447.232	306.3
447.443	294.09
447.653	211.17
447.864	280.34
448.075	266.97
448.286	304.17
448.496	270.45
448.707	312.3
448.918	254.18
449.129	329.16
449.339	230.16
449.55	288.09
449.761	259.99
449.971	312.11
450.182	265.81
450.393	297
450.603	252.82
450.814	341.75
451.024	299.13
451.235	318.31
451.446	352.02
451.656	354.74
451.867	270.65
452.077	323.15
452.288	355.9
452.498	381.28
452.709	282.08
452.919	316.57
453.13	279.17
453.34	315.02
453.55	227.06
453.761	320.64
453.971	296.42
454.182	340.4
454.392	347.37
454.602	381.86
454.813	296.61
455.023	334.59
455.233	274.72
455.444	297.97
455.654	216.4
455.864	325.87
456.075	280.72
456.285	297
456.495	321.99
456.705	325.29
456.916	372.75
457.126	340.79
457.336	319.67
457.546	269.87
457.756	278.79
457.967	371.2
458.177	326.64
458.387	333.62
458.597	305.72
458.807	321.02
459.017	301.45
459.227	304.36
459.437	285.95
459.647	350.67
459.857	368.68
460.068	280.34
460.278	366.94
460.488	346.79
460.698	411.31
460.908	329.74
461.117	304.55
461.327	302.23
461.537	341.17
461.747	336.14
461.957	348.54
462.167	456.26
462.377	369.65
462.587	359.19
462.797	394.65
463.007	336.91
463.216	383.22
463.426	421.38
463.636	377.79
463.846	284.6
464.056	339.24
464.265	398.33
464.475	334.39
464.685	367.91
464.895	387.87
465.104	358.22
465.314	396.39
465.524	340.59
465.733	331.68
465.943	428.36
466.153	435.33
466.362	413.63
466.572	360.93
466.782	353.77
466.991	380.31
467.201	427.97
467.41	303
467.62	405.5
467.829	382.83
468.039	368.1
468.249	359
468.458	387.28
468.668	429.33
468.877	430.88
469.086	443.47
469.296	433.59
469.505	388.25
469.715	457.81
469.924	397.75
470.134	463.43
470.343	458.97
470.552	413.25
470.762	393.1
470.971	367.13
471.18	429.72
471.39	408.21
471.599	357.25
471.808	444.44
472.018	394.84
472.227	466.91
472.436	455.1
472.645	444.83
472.855	396.78
473.064	470.6
473.273	440.18
473.482	484.55
473.691	490.55
473.901	484.35
474.11	448.7
474.319	528.14
474.528	478.73
474.737	499.08
474.946	482.03
475.155	499.08
475.364	502.76
475.573	471.18
475.783	490.36
475.992	507.6
476.201	532.98
476.41	488.23
476.619	442.31
476.828	489
477.037	480.67
477.245	462.26
477.454	545.58
477.663	484.35
477.872	507.6
478.081	567.86
478.29	495.01
478.499	599.44
478.708	548.48
478.917	597.11
479.125	544.99
479.334	555.26
479.543	538.6
479.752	548.87
479.961	561.66
480.169	599.05
480.378	539.57
480.587	658.53
480.796	591.49
481.004	604.67
481.213	585.29
481.422	615.13
481.63	576.38
481.839	599.24
482.048	649.42
482.256	604.67
482.465	589.36
482.674	586.84
482.882	640.32
483.091	703.29
483.299	627.72
483.508	636.06
483.716	678.29
483.925	674.81
484.134	605.25
484.342	620.36
484.551	657.37
484.759	659.89
484.967	656.79
485.176	696.31
485.384	709.68
485.593	676.94
485.801	659.5
486.01	636.25
486.218	625.79
486.426	527.75
486.635	575.61
486.843	583.55
487.051	606.99
487.26	593.04
487.468	629.66
487.676	664.92
487.885	606.22
488.093	656.79
488.301	660.86
488.509	674.03
488.717	724.4
488.926	677.91
489.134	678.49
489.342	669.19
489.55	671.12
489.758	706.97
489.967	648.84
490.175	787.37
490.383	688.56
490.591	777.1
490.799	695.15
491.007	752.89
491.215	737.97
491.423	730.02
491.631	727.12
491.839	737
492.047	775.75
492.255	707.74
492.463	690.11
492.671	686.24
492.879	743
493.087	736.22
493.295	773.62
493.503	750.17
493.711	801.52
493.919	779.04
494.127	789.12
494.334	823.99
494.542	765.87
494.75	777.69
494.958	788.73
495.166	857.9
495.374	842.78
495.581	816.05
495.789	812.95
495.997	844.33
496.205	785.63
496.412	783.3
496.62	802.1
496.828	846.66
497.035	808.68
497.243	855.96
497.451	817.6
497.658	819.53
497.866	810.43
498.074	885.21
498.281	780.98
498.489	879.98
498.696	845.3
498.904	822.25
499.112	799.38
499.319	900.33
499.527	842.78
499.734	884.83
499.942	769.94
500.149	804.23
500.357	845.11
500.564	804.03
500.771	868.55
500.979	827.87
501.186	819.92
501.394	847.63
501.601	830.58
501.808	844.72
502.016	854.41
502.223	793.19
502.43	861.58
502.638	841.04
502.845	824.77
503.052	908.46
503.26	869.52
503.467	942.18
503.674	887.35
503.881	889.28
504.089	953.22
504.296	908.46
504.503	849.95
504.71	898.78
504.917	841.43
505.125	909.05
505.332	864.87
505.539	905.36
505.746	974.14
505.953	972.98
506.16	916.41
506.367	967.95
506.574	975.5
506.781	982.09
506.988	887.54
507.195	945.28
507.402	925.51
507.609	992.36
507.816	922.03
508.023	909.05
508.23	901.49
508.437	885.02
508.644	966.2
508.851	1014.64
509.058	1007.28
509.265	956.9
509.472	984.99
509.679	1085.16
509.885	949.15
510.092	967.17
510.299	972.21
510.506	996.23
510.713	997.98
510.92	982.67
511.126	1025.1
511.333	1061.52
511.54	1023.16
511.746	1078.38
511.953	1071.02
512.16	1085.16
512.367	1020.64
512.573	1001.08
512.78	1013.86
512.987	999.91
513.193	1063.07
513.4	966.78
513.606	1000.69
513.813	1042.34
514.02	1013.09
514.226	1089.23
514.433	1065.59
514.639	992.74
514.846	1046.8
515.052	1018.51
515.259	1051.84
515.465	1030.72
515.672	1019.29
515.878	1126.82
516.085	1075.47
516.291	1132.44
516.497	1054.16
516.704	1064.43
516.91	969.88
517.117	950.7
517.323	907.5
517.529	957.68
517.736	975.31
517.942	985.96
518.148	988.87
518.354	1025.1
518.561	1020.84
518.767	1039.05
518.973	1066.76
519.179	1088.65
519.386	1038.66
519.592	1007.66
519.798	1044.86
520.004	1164.6
520.21	1097.37
520.417	1131.66
520.623	1160.34
520.829	1141.93
521.035	1171.57
521.241	1139.02
521.447	1161.89
521.653	1266.7
521.859	1170.99
522.065	1214.59
522.271	1274.26
522.477	1211.49
522.683	1282.4
522.889	1229.31
523.095	1212.07
523.301	1230.09
523.507	1205.67
523.713	1244.62
523.919	1214
524.125	1251.4
524.331	1238.03
524.537	1315.92
524.742	1286.27
524.948	1289.57
525.154	1282.59
525.36	1387.99
525.566	1296.15
525.772	1368.23
525.977	1253.33
526.183	1306.03
526.389	1352.92
526.595	1262.44
526.8	1262.63
527.006	1169.64
527.212	1160.53
527.417	1168.28
527.623	1175.45
527.829	1255.47
528.034	1279.49
528.24	1281.43
528.446	1254.88
528.651	1347.69
528.857	1341.1
529.062	1394.58
529.268	1324.05
529.473	1373.65
529.679	1368.23
529.884	1412.59
530.09	1434.1
530.295	1448.05
530.501	1430.81
530.706	1390.12
530.912	1356.8
531.117	1408.72
531.323	1406.2
531.528	1404.26
531.733	1426.35
531.939	1425.38
532.144	1430.23
532.35	1402.33
532.555	1462.39
532.76	1459.09
532.966	1432.36
533.171	1407.36
533.376	1373.65
533.581	1338.97
533.787	1399.23
533.992	1411.24
534.197	1427.51
534.402	1399.03
534.607	1415.5
534.813	1493
535.018	1405.81
535.223	1432.74
535.428	1443.98
535.633	1493.39
535.838	1497.46
536.043	1474.59
536.249	1574.57
536.454	1486.22
536.659	1507.34
536.864	1472.08
537.069	1457.54
537.274	1476.53
537.479	1483.89
537.684	1492.23
537.889	1429.26
538.094	1547.64
538.299	1494.94
538.504	1525.16
538.708	1497.07
538.913	1553.26
539.118	1472.46
539.323	1521.67
539.528	1473.43
539.733	1479.63
539.938	1532.72
540.142	1512.37
540.347	1518.96
540.552	1472.46
540.757	1501.72
540.962	1460.84
541.166	1423.44
541.371	1419.18
541.576	1448.83
541.781	1394.38
541.985	1480.79
542.19	1472.27
542.395	1560.42
542.599	1553.26
542.804	1529.42
543.008	1560.62
543.213	1485.44
543.418	1468.78
543.622	1541.44
543.827	1468.39
544.031	1564.69
544.236	1604.4
544.44	1554.81
544.645	1619.13
544.849	1498.62
545.054	1567.98
545.258	1639.28
545.463	1570.11
545.667	1512.96
545.872	1556.16
546.076	1542.99
546.281	1559.26
546.485	1524.77
546.689	1593.17
546.894	1575.34
547.098	1550.35
547.302	1517.99
547.507	1559.46
547.711	1573.21
547.915	1610.22
548.119	1539.69
548.324	1560.81
548.528	1607.12
548.732	1564.11
548.936	1637.15
549.141	1646.64
549.345	1575.54
549.549	1594.52
549.753	1592.97
549.957	1649.74
550.161	1670.08
550.366	1621.07
550.57	1576.7
550.774	1585.03
550.978	1593.36
551.182	1588.9
551.386	1569.14
551.59	1580.96
551.794	1546.86
551.998	1619.71
552.202	1602.66
552.406	1584.84
552.61	1601.89
552.814	1620.1
553.018	1628.62
553.222	1608.47
553.426	1575.54
553.63	1707.28
553.833	1607.5
554.037	1520.51
554.241	1610.6
554.445	1631.53
554.649	1602.27
554.853	1561.39
555.056	1628.43
555.26	1645.87
555.464	1585.42
555.668	1634.24
555.871	1644.9
556.075	1647.22
556.279	1588.52
556.483	1565.66
556.686	1587.55
556.89	1573.99
557.094	1603.44
557.297	1518.57
557.501	1614.29
557.704	1518.57
557.908	1591.81
558.112	1546.47
558.315	1599.37
558.519	1548.41
558.722	1542.79
558.926	1517.02
559.129	1462.39
559.333	1436.81
559.536	1484.86
559.74	1431.19
559.943	1451.54
560.147	1477.89
560.35	1484.28
560.553	1454.44
560.757	1405.04
560.96	1584.64
561.164	1485.64
561.367	1586.97
561.57	1527.29
561.774	1544.92
561.977	1513.15
562.18	1457.74
562.384	1570.5
562.587	1511.99
562.79	1521.09
562.993	1493.77
563.197	1502.11
563.4	1561.78
563.603	1554.61
563.806	1600.14
564.009	1481.76
564.212	1515.67
564.416	1494.16
564.619	1501.52
564.822	1467.04
565.025	1542.79
565.228	1492.23
565.431	1483.31
565.634	1403.68
565.837	1457.54
566.04	1395.74
566.243	1439.53
566.446	1399.42
566.649	1489.32
566.852	1407.75
567.055	1459.29
567.258	1481.57
567.461	1493
567.664	1500.56
567.867	1413.18
568.07	1476.34
568.273	1471.69
568.475	1480.79
568.678	1406.78
568.881	1431.58
569.084	1397.29
569.287	1324.63
569.489	1333.93
569.692	1416.66
569.895	1388.38
570.098	1359.7
570.3	1329.28
570.503	1300.8
570.706	1363
570.909	1337.61
571.111	1308.36
571.314	1302.74
571.516	1321.92
571.719	1350.79
571.922	1313.98
572.124	1299.06
572.327	1313.78
572.529	1260.5
572.732	1307.58
572.935	1354.86
573.137	1402.91
573.34	1311.85
573.542	1361.45
573.745	1352.73
573.947	1355.05
574.15	1314.37
574.352	1289.76
574.554	1366.48
574.757	1257.98
574.959	1250.82
575.162	1262.25
575.364	1235.12
575.566	1384.31
575.769	1247.13
575.971	1292.47
576.173	1157.62
576.376	1279.1
576.578	1308.55
576.78	1316.88
576.982	1210.13
577.185	1277.17
577.387	1230.28
577.589	1210.71
577.791	1279.88
577.993	1285.3
578.196	1221.56
578.398	1252.95
578.6	1257.98
578.802	1186.3
579.004	1197.54
579.206	1220.01
579.408	1280.46
579.61	1200.05
579.812	1255.47
580.014	1205.29
580.216	1230.67
580.418	1253.53
580.62	1221.75
580.822	1173.12
581.024	1236.28
581.226	1273.29
581.428	1249.27
581.63	1315.14
581.832	1216.52
582.034	1295.57
582.236	1262.05
582.438	1252.37
582.64	1291.12
582.841	1289.37
583.043	1353.7
583.245	1279.88
583.447	1267.09
583.649	1303.52
583.85	1315.14
584.052	1305.65
584.254	1237.83
584.456	1322.11
584.657	1212.84
584.859	1293.05
585.061	1218.07
585.262	1183.2
585.464	1186.69
585.666	1233.38
585.867	1214.97
586.069	1252.17
586.27	1255.27
586.472	1257.6
586.674	1235.7
586.875	1194.05
587.077	1210.71
587.278	1228.15
587.48	1190.95
587.681	1316.69
587.883	1242.1
588.084	1173.9
588.285	1195.4
588.487	1185.52
588.688	1210.32
588.89	1116.36
589.091	1100.27
589.292	1106.86
589.494	1104.92
589.695	1069.66
589.896	1021.23
590.098	996.43
590.299	1063.66
590.5	1079.54
590.702	1069.27
590.903	1071.02
591.104	1175.06
591.305	1136.89
591.507	1187.27
591.708	1180.1
591.909	1109.77
592.11	1204.12
592.311	1163.63
592.512	1094.66
592.714	1048.54
592.915	1087.29
593.116	1094.27
593.317	1113.26
593.518	1138.06
593.719	1110.16
593.92	1149.49
594.121	1158.98
594.322	1141.93
594.523	1140.38
594.724	1091.75
594.925	1098.72
595.126	1135.34
595.327	1090.78
595.528	1127.79
595.729	1132.82
595.929	1127.59
596.13	1114.42
596.331	1142.32
596.532	1109.57
596.733	1183.2
596.934	1173.7
597.135	1177
597.335	1153.17
597.536	1064.43
597.737	1105.89
597.938	1096.21
598.138	1164.02
598.339	1087.49
598.54	1141.16
598.74	1121.01
598.941	1113.45
599.142	1165.76
599.342	1139.41
599.543	1089.23
599.744	1153.36
599.944	1099.69
600.145	1102.21
600.345	1129.14
600.546	1189.01
600.746	1176.22
600.947	1201.8
601.147	1155.3
601.348	1170.99
601.548	1099.69
601.749	1127.01
601.949	1069.86
602.15	1097.17
602.35	1101.24
602.551	1121.01
602.751	1087.1
602.951	1058.62
603.152	1037.69
603.352	1138.06
603.552	1101.44
603.753	1112.29
603.953	1171.19
604.153	1103.57
604.354	1080.12
604.554	1119.65
604.754	1118.49
604.954	1077.8
605.155	1137.28
605.355	1099.11
605.555	1159.37
605.755	1205.29
605.955	1128.17
606.155	1141.54
606.356	1141.16
606.556	1151.81
606.756	1141.74
606.956	1087.68
607.156	1148.9
607.356	1071.02
607.556	1119.46
607.756	1106.86
607.956	1156.46
608.156	1114.61
608.356	1060.36
608.556	1119.26
608.756	1114.42
608.956	1060.94
609.156	1102.6
609.356	1043.12
609.556	1068.5
609.755	1095.04
609.955	1055.71
610.155	1069.27
610.355	1074.89
610.555	1059.39
610.755	1055.33
610.954	1004.76
611.154	1062.3
611.354	1106.28
611.554	1044.86
611.753	1074.31
611.953	1021.81
612.153	1063.07
612.352	1072.76
612.552	996.81
612.752	977.63
612.951	1063.66
613.151	1009.21
613.351	987.9
613.55	1016.77
613.75	1016.77
613.949	1006.11
614.149	1075.47
614.348	1025.88
614.548	985.77
614.747	955.55
614.947	1008.05
615.146	943.53
615.346	1055.52
615.545	1025.1
615.745	1059.59
615.944	1081.29
616.144	985.77
616.343	1024.91
616.542	993.13
616.742	989.26
616.941	1007.28
617.14	948.76
617.34	987.13
617.539	965.23
617.738	957.68
617.938	1064.43
618.137	985.58
618.336	952.83
618.535	1008.83
618.734	992.16
618.934	1027.81
619.133	986.35
619.332	1007.86
619.531	957.87
619.73	996.62
619.929	1036.53
620.128	1018.13
620.328	1047.19
620.527	940.63
620.726	996.04
620.925	1018.9
621.124	954
621.323	1015.41
621.522	959.23
621.721	929.39
621.92	957.29
622.119	1028.01
622.318	972.01
622.517	972.4
622.715	952.64
622.914	924.74
623.113	945.86
623.312	957.68
623.511	978.02
623.71	933.26
623.909	934.81
624.107	1010.38
624.306	907.88
624.505	946.44
624.704	907.69
624.902	937.53
625.101	947.41
625.3	934.62
625.499	903.43
625.697	945.08
625.896	929.58
626.095	985.58
626.293	875.72
626.492	897.23
626.69	917.18
626.889	881.92
627.088	965.04
627.286	873.4
627.485	864.29
627.683	886.18
627.882	904.98
628.08	846.85
628.279	887.73
628.477	918.15
628.676	871.65
628.874	921.45
629.073	872.62
629.271	860.03
629.469	897.23
629.668	872.04
629.866	859.45
630.065	854.02
630.263	891.22
630.461	827.67
630.66	873.4
630.858	867.78
631.056	925.51
631.254	918.73
631.453	859.83
631.651	929.97
631.849	853.44
632.047	883.28
632.245	885.6
632.444	900.52
632.642	903.62
632.84	916.02
633.038	862.16
633.236	869.91
633.434	840.65
633.632	839.68
633.83	878.63
634.028	917.76
634.227	877.47
634.425	962.33
634.623	906.14
634.821	868.36
635.019	891.61
635.216	851.89
635.414	920.86
635.612	870.3
635.81	881.34
636.008	917.38
636.206	874.37
636.404	929
636.602	868.17
636.8	871.65
636.997	905.75
637.195	947.99
637.393	899.36
637.591	947.02
637.789	876.3
637.986	850.15
638.184	894.51
638.382	934.23
638.58	921.25
638.777	965.23
638.975	839.68
639.173	908.85
639.37	895.68
639.568	897.03
639.765	908.85
639.963	865.26
640.161	912.92
640.358	933.07
640.556	851.5
640.753	828.83
640.951	833.87
641.148	874.95
641.346	838.91
641.543	867.58
641.741	884.05
641.938	848.79
642.136	858.67
642.333	819.53
642.531	905.36
642.728	929
642.925	853.83
643.123	864.68
643.32	874.17
643.517	848.6
643.715	860.8
643.912	827.67
644.109	866.81
644.306	853.44
644.504	802.87
644.701	867.78
644.898	890.25
645.095	823.02
645.293	809.85
645.49	863.9
645.687	859.06
645.884	868.75
646.081	771.68
646.278	808.49
646.475	818.37
646.672	806.17
646.87	860.22
647.067	811.98
647.264	831.35
647.461	768.39
647.658	769.35
647.855	819.34
648.052	764.51
648.249	716.07
648.446	777.69
648.642	786.21
648.839	727.31
649.036	740.68
649.233	721.89
649.43	734.29
649.627	703.87
649.824	730.41
650.021	729.25
650.217	708.71
650.414	748.24
650.611	784.47
650.808	775.75
651.004	788.15
651.201	755.79
651.398	837.94
651.595	797.06
651.791	746.3
651.988	797.06
652.185	721.5
652.381	755.99
652.578	701.16
652.775	768.19
652.971	762.96
653.168	774.2
653.364	735.25
653.561	687.01
653.757	736.22
653.954	744.36
654.15	724.99
654.347	813.33
654.543	750.75
654.74	728.09
654.936	683.33
655.133	725.76
655.329	757.54
655.525	707.55
655.722	727.5
655.918	699.02
656.115	735.64
656.311	662.02
656.507	629.66
656.704	578.51
656.9	653.49
657.096	629.08
657.292	650.59
657.489	667.44
657.685	665.7
657.881	672.29
658.077	709.49
658.273	676.74
658.47	755.99
658.666	723.82
658.862	714.72
659.058	655.24
659.254	734.48
659.45	662.02
659.646	714.14
659.842	665.89
660.038	736.42
660.234	709.87
660.43	719.75
660.626	795.9
660.822	764.51
661.018	780.2
661.214	714.14
661.41	712.39
661.606	714.52
661.802	773.81
661.998	704.26
662.194	705.22
662.39	749.98
662.586	736.42
662.781	734.67
662.977	738.55
663.173	744.36
663.369	723.05
663.564	728.67
663.76	745.52
663.956	701.35
664.152	750.17
664.347	652.14
664.543	733.12
664.739	693.6
664.934	641.48
665.13	616.88
665.326	729.64
665.521	735.06
665.717	661.63
665.912	681.39
666.108	618.04
666.304	689.72
666.499	703.29
666.695	601.18
666.89	654.46
667.086	726.54
667.281	687.98
667.477	743.78
667.672	714.52
667.867	677.91
668.063	694.76
668.258	623.07
668.454	679.07
668.649	759.86
668.844	641.67
669.04	713.75
669.235	661.63
669.43	650.59
669.626	628.89
669.821	621.33
670.016	616.68
670.211	667.83
670.407	615.33
670.602	634.51
670.797	651.56
670.992	693.02
671.187	636.64
671.382	683.14
671.578	628.89
671.773	694.18
671.968	606.41
672.163	669.57
672.358	660.47
672.553	624.24
672.748	631.99
672.943	727.7
673.138	614.16
673.333	685.27
673.528	638.77
673.723	677.32
673.918	669.96
674.113	610.29
674.308	739.13
674.503	649.62
674.698	679.07
674.892	652.91
675.087	686.24
675.282	662.41
675.477	636.06
675.672	665.89
675.867	657.37
676.061	623.27
676.256	604.48
676.451	631.99
676.646	635.09
676.84	627.34
677.035	625.01
677.23	625.21
677.424	664.54
677.619	676.36
677.814	684.49
678.008	646.32
678.203	584.13
678.397	614.36
678.592	657.37
678.787	689.92
678.981	626.37
679.176	662.79
679.37	640.71
679.565	592.85
679.759	614.74
679.954	650.01
680.148	676.94
680.342	709.1
680.537	655.04
680.731	630.63
680.926	660.47
681.12	678.1
681.314	649.04
681.509	660.47
681.703	627.34
681.897	665.12
682.092	631.6
682.286	618.43
682.48	700.57
682.674	678.49
682.869	670.16
683.063	616.88
683.257	698.64
683.451	638.57
683.645	649.04
683.839	661.63
684.034	653.3
684.228	675.39
684.422	593.24
684.616	609.71
684.81	681.97
685.004	649.23
685.198	650.39
685.392	703.87
685.586	631.79
685.78	647.87
685.974	655.62
686.168	667.83
686.362	699.99
686.556	623.85
686.75	560.49
686.944	574.25
687.138	589.94
687.331	501.4
687.525	514.96
687.719	446.96
687.913	506.05
688.107	512.45
688.301	507.6
688.494	536.28
688.688	525.23
688.882	488.03
689.076	473.11
689.269	512.83
689.463	607.96
689.657	534.14
689.85	557.98
690.044	541.89
690.238	531.05
690.431	544.03
690.625	557.78
690.818	560.3
691.012	565.34
691.205	588.01
691.399	567.86
691.593	592.27
691.786	634.7
691.98	652.52
692.173	687.01
692.366	648.07
692.56	656.98
692.753	697.86
692.947	615.33
693.14	718.59
693.333	709.49
693.527	635.47
693.72	682.17
693.914	661.63
694.107	670.16
694.3	673.64
694.493	672.29
694.687	701.35
694.88	676.55
695.073	741.84
695.266	749.4
695.46	708.71
695.653	753.47
695.846	786.02
696.039	705.42
696.232	711.62
696.425	776.72
696.618	813.53
696.812	763.15
697.005	834.65
697.198	916.21
697.391	823.8
697.584	830.38
697.777	903.62
697.97	864.48
698.163	884.83
698.356	853.44
698.549	939.27
698.742	911.56
698.935	854.6
699.127	883.66
699.32	853.83
699.513	867.58
699.706	914.86
699.899	931.91
700.092	885.21
700.285	919.31
700.477	868.36
700.67	900.13
700.863	937.72
701.056	1010.96
701.248	976.28
701.441	969.49
701.634	944.5
701.826	1053.19
702.019	923.58
702.212	1007.08
702.404	968.53
702.597	974.34
702.79	986.54
702.982	1033.04
703.175	1043.12
703.367	1104.15
703.56	1070.24
703.752	1153.36
703.945	1123.91
704.137	1118.49
704.33	1149.49
704.522	1147.16
704.715	1128.76
704.907	1171.96
705.1	1213.42
705.292	1212.84
705.484	1170.8
705.677	1212.84
705.869	1234.35
706.061	1246.75
706.254	1254.88
706.446	1251.4
706.638	1209.16
706.831	1312.82
707.023	1234.54
707.215	1340.52
707.407	1304.1
707.599	1294.02
707.792	1375.59
707.984	1351.76
708.176	1363.19
708.368	1360.28
708.56	1380.24
708.752	1375.2
708.944	1343.62
709.136	1381.4
709.329	1366.29
709.521	1490.29
709.713	1444.95
709.905	1465.68
710.097	1471.11
710.289	1452.7
710.481	1452.89
710.672	1469.36
710.864	1487.96
711.056	1558.68
711.248	1525.36
711.44	1526.71
711.632	1494.74
711.824	1553.26
712.016	1613.32
712.207	1568.17
712.399	1621.84
712.591	1634.63
712.783	1610.99
712.975	1646.06
713.166	1606.54
713.358	1603.44
713.55	1662.34
713.741	1683.84
713.933	1662.72
714.125	1678.42
714.316	1636.18
714.508	1717.75
714.7	1720.85
714.891	1708.64
715.083	1797.96
715.274	1691.4
715.466	1688.88
715.657	1775.87
715.849	1661.56
716.04	1759.98
716.232	1652.07
716.423	1716.78
716.615	1621.65
716.806	1607.7
716.998	1606.34
717.189	1572.63
717.381	1487.38
717.572	1446.69
717.763	1457.35
717.955	1449.79
718.146	1458.13
718.337	1361.83
718.528	1346.91
718.72	1282.98
718.911	1342.46
719.102	1322.89
719.293	1351.95
719.485	1343.04
719.676	1362.8
719.867	1305.45
720.058	1305.45
720.249	1362.22
720.44	1339.36
720.632	1355.25
720.823	1425.19
721.014	1511.41
721.205	1527.87
721.396	1614.48
721.587	1665.63
721.778	1691.78
721.969	1753.59
722.16	1766.96
722.351	1767.54
722.542	1929.13
722.733	1864.41
722.924	1786.33
723.115	1858.79
723.305	1855.31
723.496	1835.93
723.687	1774.9
723.878	1735.18
724.069	1770.83
724.26	1747.2
724.45	1691.2
724.641	1726.08
724.832	1750.49
725.023	1744.29
725.213	1684.42
725.404	1708.64
725.595	1678.42
725.785	1642.19
725.976	1782.85
726.167	1700.31
726.357	1768.31
726.548	1837.29
726.739	1739.06
726.929	1813.65
727.12	1824.11
727.31	1852.01
727.501	1775.29
727.691	1818.11
727.882	1810.94
728.072	1852.59
728.263	1844.07
728.453	1874.1
728.644	1911.3
728.834	1902.39
729.024	1856.28
729.215	1863.06
729.405	1875.26
729.596	1945.59
729.786	1972.72
729.976	1983.18
730.167	1975.62
730.357	1907.43
730.547	1923.7
730.737	1970.2
730.928	2021.15
731.118	2078.12
731.308	1984.34
731.498	1998.1
731.688	2096.33
731.879	2090.71
732.069	2143.99
732.259	2152.71
732.449	2151.74
732.639	2219.16
732.829	2236.41
733.019	2303.44
733.209	2289.3
733.399	2332.89
733.589	2378.42
733.779	2406.91
733.969	2379.2
734.159	2501.07
734.349	2451.08
734.539	2522.38
734.729	2460.38
734.919	2498.94
735.109	2534.39
735.299	2532.07
735.488	2525.09
735.678	2499.52
735.868	2527.22
736.058	2473.94
736.248	2472.78
736.437	2486.34
736.627	2463.09
736.817	2561.32
737.007	2545.82
737.196	2603.37
737.386	2559
737.576	2554.73
737.765	2588.64
737.955	2583.6
738.144	2659.94
738.334	2635.14
738.524	2565.97
738.713	2636.3
738.903	2620.22
739.092	2634.36
739.282	2666.33
739.471	2661.68
739.661	2618.87
739.85	2684.16
740.04	2645.99
740.229	2677.57
740.419	2727.56
740.608	2695.98
740.797	2707.41
740.987	2769.6
741.176	2712.64
741.365	2680.28
741.555	2659.36
741.744	2745.38
741.933	2729.88
742.123	2765.73
742.312	2773.48
742.501	2758.56
742.69	2745.19
742.88	2740.73
743.069	2816.1
743.258	2741.7
743.447	2833.92
743.636	2844.97
743.825	2763.98
744.014	2784.13
744.204	2847.1
744.393	2769.21
744.582	2861.63
744.771	2857.76
744.96	2805.06
745.149	2817.26
745.338	2764.76
745.527	2846.52
745.716	2803.7
745.905	2798.66
746.094	2855.82
746.283	2847.49
746.471	2815.71
746.66	2852.33
746.849	2905.03
747.038	2876.94
747.227	2852.52
747.416	2898.05
747.604	2822.3
747.793	2852.91
747.982	2816.87
748.171	2844
748.359	2875.39
748.548	2864.54
748.737	2838.77
748.926	2838.19
749.114	2758.75
749.303	2821.14
749.491	2816.68
749.68	2766.69
749.869	2839.16
750.057	2804.86
750.246	2783.74
750.434	2797.69
750.623	2805.83
750.811	2774.83
751	2834.31
751.188	2760.11
751.377	2804.47
751.565	2798.08
751.754	2753.91
751.942	2737.63
752.131	2797.5
752.319	2733.37
752.507	2726.39
752.696	2789.56
752.884	2820.75
753.072	2740.34
753.261	2791.49
753.449	2776.96
753.637	2738.6
753.825	2838.96
754.014	2742.48
754.202	2788.2
754.39	2796.92
754.578	2795.76
754.766	2754.1
754.955	2744.99
755.143	2860.27
755.331	2779.87
755.519	2742.09
755.707	2724.26
755.895	2734.53
756.083	2748.68
756.271	2683.19
756.459	2729.11
756.647	2770.96
756.835	2676.6
757.023	2686.29
757.211	2679.9
757.399	2717.87
757.587	2689.97
757.775	2640.18
757.963	2641.34
758.151	2659.36
758.339	2603.56
758.526	2628.55
758.714	2635.91
758.902	2532.26
759.09	2488.86
759.278	2346.07
759.465	2160.46
759.653	1830.31
759.841	1699.53
760.028	1444.18
760.216	1272.13
760.404	1207.8
760.591	953.22
760.779	806.94
760.967	738.55
761.154	595.76
761.342	641.29
761.529	653.88
761.717	694.96
761.905	660.47
762.092	750.75
762.28	676.94
762.467	689.53
762.655	630.05
762.842	670.93
763.029	678.87
763.217	692.63
763.404	653.69
763.592	719.75
763.779	655.04
763.966	723.63
764.154	739.13
764.341	774.39
764.528	761.8
764.716	860.61
764.903	889.86
765.09	946.63
765.277	975.89
765.465	1121.59
765.652	1183.59
765.839	1213.23
766.026	1321.53
766.213	1372.88
766.4	1465.68
766.588	1603.05
766.775	1571.08
766.962	1695.47
767.149	1734.99
767.336	1852.4
767.523	1804.74
767.71	1906.65
767.897	2027.35
768.084	2027.16
768.271	2105.63
768.458	2123.84
768.645	2157.75
768.832	2153.48
769.019	2147.87
769.206	2204.83
769.392	2237.96
769.579	2374.16
769.766	2329.41
769.953	2296.47
770.14	2347.81
770.327	2348.39
770.513	2372.81
770.7	2432.48
770.887	2325.53
771.073	2422.99
771.26	2366.22
771.447	2347.43
771.634	2391.21
771.82	2385.79
772.007	2296.47
772.193	2384.24
772.38	2449.14
772.567	2376.49
772.753	2382.3
772.94	2376.68
773.126	2439.26
773.313	2406.91
773.499	2443.52
773.686	2411.75
773.872	2349.56
774.059	2440.42
774.245	2359.44
774.432	2390.82
774.618	2315.26
774.804	2361.18
774.991	2338.51
775.177	2401.09
775.363	2367.96
775.55	2394.12
775.736	2314.88
775.922	2312.36
776.109	2346.84
776.295	2347.43
776.481	2351.11
776.667	2368.54
776.853	2319.14
777.04	2305.96
777.226	2291.24
777.412	2413.88
777.598	2300.73
777.784	2310.23
777.97	2317.59
778.156	2314.49
778.342	2293.95
778.528	2301.51
778.715	2237.38
778.901	2266.25
779.087	2308.29
779.272	2263.15
779.458	2273.22
779.644	2277.87
779.83	2249.97
780.016	2332.51
780.202	2272.64
780.388	2214.13
780.574	2210.64
780.76	2243.58
780.946	2286.98
781.131	2261.98
781.317	2253.07
781.503	2185.26
781.689	2181.77
781.874	2340.06
782.06	2224.01
782.246	2197.27
782.432	2211.41
782.617	2213.93
782.803	2273.41
782.989	2137.6
783.174	2158.52
783.36	2104.66
783.545	2149.42
783.731	2143.41
783.916	2054.48
784.102	2171.5
784.288	2139.53
784.473	2146.51
784.659	2127.91
784.844	2140.12
785.029	2113.38
785.215	2113.18
785.4	2095.36
785.586	2177.51
785.771	2075.4
785.956	2116.67
786.142	2129.27
786.327	2038.2
786.512	2033.94
786.698	2043.63
786.883	2008.95
787.068	2069.4
787.254	2026.97
787.439	2031.42
787.624	2027.94
787.809	2014.96
787.994	1993.84
788.18	2040.53
788.365	1961.87
788.55	2003.91
788.735	2023.29
788.92	1999.65
789.105	1979.11
789.29	2035.1
789.475	1948.11
789.66	1991.12
789.845	1917.5
790.03	1916.53
790.215	1974.85
790.4	2002.94
790.585	2001.59
790.77	1946.37
790.955	1893.48
791.14	1900.06
791.325	2004.49
791.51	1837.87
791.695	1932.03
791.879	1912.27
792.064	1876.23
792.249	1998.1
792.434	1907.62
792.618	1895.22
792.803	1924.86
792.988	1919.05
793.173	1903.74
793.357	1953.54
793.542	1883.59
793.727	1895.99
793.911	1935.71
794.096	1886.5
794.281	1968.84
794.465	2056.61
794.65	1907.04
794.834	1931.06
795.019	1984.15
795.203	1980.47
795.388	1945.98
795.572	2001.2
795.757	1959.35
795.941	1975.43
796.126	1958.77
796.31	1896.19
796.494	1948.31
796.679	1894.44
796.863	1889.02
797.048	1999.65
797.232	1947.14
797.416	1971.17
797.601	1917.89
797.785	2004.88
797.969	1986.67
798.153	1897.35
798.338	1987.83
798.522	1974.66
798.706	2022.32
798.89	2009.34
799.074	2068.82
799.258	2033.36
799.443	1964.77
799.627	1955.28
799.811	2007.4
799.995	1990.93
800.179	1941.14
800.363	1951.41
800.547	1950.24
800.731	2009.92
800.915	1902.78
801.099	1932.61
801.283	1964.58
801.467	1964.19
801.651	1921.18
801.835	2011.08
802.019	1969.23
802.202	1978.92
802.386	1900.64
802.57	1916.53
802.754	1905.88
802.938	1909.36
803.121	1911.49
803.305	1977.56
803.489	1973.11
803.673	1944.82
803.856	1979.31
804.04	1935.71
804.224	1930.29
804.407	1960.12
804.591	1885.92
804.775	1955.86
804.958	1960.9
805.142	2034.91
805.326	1971.94
805.509	1960.51
805.693	2001.2
805.876	2018.83
806.06	1949.08
806.243	1978.14
806.427	1990.93
806.61	2002.94
806.794	1943.07
806.977	2007.79
807.16	1961.09
807.344	1983.96
807.527	1964
807.71	1944.43
807.894	1969.42
808.077	1991.9
808.26	1936.87
808.444	1919.05
808.627	1990.74
808.81	1935.91
808.993	1927.77
809.177	1885.73
809.36	1907.04
809.543	1916.53
809.726	1813.46
809.909	1866.16
810.092	1808.61
810.276	1809
810.459	1863.06
810.642	1831.28
810.825	1804.35
811.008	1829.15
811.191	1739.45
811.374	1743.52
811.557	1790.21
811.74	1845.23
811.923	1703.22
812.106	1743.71
812.289	1650.13
812.472	1709.22
812.654	1727.82
812.837	1694.3
813.02	1610.6
813.203	1632.11
813.386	1538.14
813.569	1569.34
813.751	1468.01
813.934	1554.03
814.117	1499.78
814.3	1452.12
814.482	1434.49
814.665	1454.06
814.848	1364.74
815.03	1343.23
815.213	1373.65
815.396	1325.6
815.578	1298.28
815.761	1296.15
815.943	1358.15
816.126	1270.19
816.309	1273.48
816.491	1218.85
816.674	1151.62
816.856	1194.24
817.039	1187.85
817.221	1262.44
817.403	1223.69
817.586	1200.25
817.768	1232.02
817.951	1146.97
818.133	1182.42
818.315	1177.97
818.498	1225.82
818.68	1305.84
818.862	1213.81
819.045	1278.13
819.227	1256.05
819.409	1254.3
819.591	1236.09
819.774	1231.05
819.956	1210.9
820.138	1292.08
820.32	1260.7
820.502	1300.22
820.684	1367.45
820.866	1358.73
821.048	1408.53
821.231	1393.03
821.413	1397.29
821.595	1365.51
821.777	1363.38
821.959	1379.85
822.141	1421.7
822.323	1325.02
822.505	1254.88
822.686	1228.54
822.868	1221.17
823.05	1104.34
823.232	1118.49
823.414	1033.24
823.596	1102.99
823.778	1068.11
823.96	1118.29
824.141	1078.57
824.323	1119.26
824.505	1182.42
824.687	1263.8
824.868	1308.17
825.05	1353.31
825.232	1356.99
825.413	1404.07
825.595	1380.24
825.777	1305.26
825.958	1360.09
826.14	1336.84
826.321	1392.25
826.503	1333.55
826.685	1344.78
826.866	1380.63
827.048	1397.87
827.229	1336.06
827.411	1307.39
827.592	1273.1
827.773	1256.63
827.955	1211.1
828.136	1202.38
828.318	1204.32
828.499	1236.28
828.68	1182.62
828.862	1220.4
829.043	1265.54
829.224	1225.44
829.406	1173.12
829.587	1178.55
829.768	1193.66
829.949	1241.71
830.131	1206.64
830.312	1279.3
830.493	1201.41
830.674	1254.88
830.855	1225.24
831.036	1195.4
831.218	1270
831.399	1303.13
831.58	1260.12
831.761	1245
831.942	1239.77
832.123	1193.66
832.304	1151.62
832.485	1174.87
832.666	1206.64
832.847	1215.36
833.028	1194.44
833.209	1220.79
833.389	1198.89
833.57	1166.15
833.751	1190.75
833.932	1216.72
834.113	1230.09
834.294	1219.43
834.475	1236.09
834.655	1238.61
834.836	1247.13
835.017	1247.13
835.198	1185.72
835.378	1258.57
835.559	1283.75
835.74	1236.67
835.92	1233.57
836.101	1189.79
836.281	1277.94
836.462	1280.46
836.643	1265.73
836.823	1311.46
837.004	1297.9
837.184	1337.03
837.365	1308.36
837.545	1275.62
837.726	1254.11
837.906	1293.44
838.087	1255.85
838.267	1268.25
838.448	1224.85
838.628	1307.78
838.808	1264.57
838.989	1329.67
839.169	1227.37
839.349	1301.38
839.53	1277.75
839.71	1299.06
839.89	1272.71
840.07	1323.08
840.251	1239.38
840.431	1317.47
840.611	1256.24
840.791	1201.41
840.971	1293.05
841.151	1255.47
841.332	1246.55
841.512	1311.46
841.692	1202.38
841.872	1294.8
842.052	1267.87
842.232	1283.95
842.412	1193.47
842.592	1262.44
842.772	1255.66
842.952	1244.03
843.132	1212.65
843.312	1232.22
843.492	1190.37
843.672	1239.97
843.851	1177.97
844.031	1238.42
844.211	1203.93
844.391	1190.95
844.571	1256.82
844.751	1253.92
844.93	1227.95
845.11	1203.54
845.29	1230.47
845.47	1283.56
845.649	1215.94
845.829	1247.91
846.009	1196.76
846.188	1229.7
846.368	1193.27
846.547	1254.69
846.727	1269.8
846.907	1191.72
847.086	1221.95
847.266	1225.44
847.445	1175.06
847.625	1195.6
847.804	1184.55
847.984	1222.14
848.163	1168.67
848.343	1196.37
848.522	1182.81
848.701	1186.49
848.881	1181.65
849.06	1199.09
849.239	1177.77
849.419	1166.15
849.598	1142.32
849.777	1114.03
849.957	1113.64
850.136	1054.94
850.315	1074.12
850.494	1090.59
850.674	1083.22
850.853	1152
851.032	1126.62
851.211	1142.9
851.39	1108.99
851.569	1050.87
851.748	1080.51
851.927	1132.44
852.107	1126.62
852.286	1073.15
852.465	1052.23
852.644	1123.72
852.823	1095.04
853.002	1103.96
853.181	1075.86
853.359	1126.82
853.538	1061.91
853.717	1130.89
853.896	1004.18
854.075	1006.89
854.254	981.12
854.433	904.98
854.611	975.69
854.79	896.26
854.969	976.47
855.148	955.55
855.327	918.73
855.505	987.9
855.684	977.24
855.863	997.59
856.041	967.75
856.22	1038.08
856.399	976.08
856.577	1054.16
856.756	1027.81
856.934	1144.06
857.113	1166.15
857.291	1072.57
857.47	1023.55
857.648	1037.31
857.827	1039.83
858.005	1081.09
858.184	1022
858.362	1148.52
858.541	1053.39
858.719	1052.03
858.898	1043.31
859.076	1023.74
859.254	1094.66
859.433	1014.25
859.611	1011.34
859.789	975.11
859.967	1074.51
860.146	1107.44
860.324	972.01
860.502	1005.14
860.68	963.88
860.859	1024.71
861.037	1042.34
861.215	1021.23
861.393	1007.86
861.571	1002.24
861.749	992.94
861.927	1016.96
862.105	1013.09
862.283	985.19
862.461	981.31
862.639	943.73
862.817	960.39
862.995	1021.61
863.173	1010.57
863.351	990.03
863.529	1007.86
863.707	1006.11
863.885	1012.31
864.063	907.11
864.241	968.72
864.418	1002.43
864.596	962.33
864.774	941.98
864.952	966.78
865.129	975.69
865.307	916.6
865.485	885.21
865.663	998.56
865.84	887.54
866.018	926.1
866.196	794.73
866.373	862.93
866.551	863.71
866.728	748.62
866.906	822.25
867.084	829.8
867.261	849.57
867.439	870.1
867.616	901.49
867.794	868.17
867.971	910.98
868.149	894.9
868.326	937.14
868.503	912.73
868.681	907.11
868.858	892
869.035	849.95
869.213	918.93
869.39	865.45
869.567	953.22
869.745	890.45
869.922	901.49
870.099	902.07
870.276	885.6
870.454	904.4
870.631	909.43
870.808	889.67
870.985	935.98
871.162	942.95
871.339	883.66
871.517	849.37
871.694	858.67
871.871	887.54
872.048	859.45
872.225	869.52
872.402	890.25
872.579	813.14
872.756	901.1
872.933	828.45
873.11	830.97
873.287	900.71
873.463	864.68
873.64	816.24
873.817	869.91
873.994	859.06
874.171	828.64
874.348	877.47
874.524	792.02
874.701	836.78
874.878	792.6
875.055	846.08
875.231	839.49
875.408	841.04
875.585	780.59
875.762	843.56
875.938	817.21
876.115	839.68
876.291	800.93
876.468	805
876.645	765.87
876.821	788.34
876.998	792.8
877.174	808.68
877.351	789.12
877.527	789.31
877.704	827.48
877.88	803.84
878.057	795.12
878.233	830.58
878.409	795.51
878.586	836.97
878.762	790.86
878.938	790.28
879.115	753.27
879.291	770.32
879.467	746.3
879.644	743.78
879.82	775.94
879.996	761.99
880.172	740.1
880.349	764.7
880.525	790.28
880.701	711.23
880.877	725.18
881.053	780.59
881.229	742.42
881.405	775.36
881.581	769.74
881.757	763.35
881.933	775.75
882.109	790.86
882.285	729.44
882.461	696.7
882.637	757.73
882.813	688.76
882.989	756.37
883.165	796.67
883.341	737.58
883.517	794.15
883.693	758.12
883.869	774.78
884.044	740.68
884.22	771.1
884.396	776.14
884.572	789.89
884.747	775.36
884.923	771.87
885.099	801.13
885.275	818.95
885.45	718.01
885.626	729.25
885.801	743.59
885.977	737.19
886.153	706.58
886.328	764.51
886.504	742.62
886.679	751.72
886.855	704.06
887.03	755.4
887.206	784.27
887.381	757.73
887.557	747.27
887.732	766.06
887.908	799.38
888.083	756.18
888.258	728.67
888.434	723.05
888.609	709.87
888.784	761.8
888.96	740.1
889.135	728.28
889.31	730.41
889.485	752.3
889.661	741.45
889.836	791.05
890.011	752.69
890.186	720.34
890.361	718.4
890.537	742.23
890.712	723.82
890.887	735.06
891.062	769.16
891.237	799.97
891.412	712.59
891.587	749.4
891.762	760.44
891.937	786.6
892.112	691.47
892.287	726.92
892.462	692.24
892.637	658.53
892.812	656.01
892.987	694.18
893.161	663.37
893.336	672.87
893.511	681.97
893.686	682.94
893.861	664.54
894.035	699.22
894.21	703.09
894.385	628.89
894.56	673.06
894.734	622.3
894.909	613.58
895.084	630.24
895.258	630.44
895.433	650.59
895.608	603.31
895.782	557.2
895.957	570.18
896.131	617.84
896.306	520.2
896.48	512.25
896.655	544.03
896.829	495.59
897.004	489.97
897.178	503.15
897.353	485.32
897.527	548.87
897.701	497.72
897.876	429.52
898.05	553.33
898.224	509.93
898.399	546.93
898.573	552.74
898.747	433.01
898.921	448.9
899.096	390.97
899.27	405.5
899.444	419.06
899.618	432.43
899.792	467.88
899.967	450.06
900.141	472.15
900.315	401.62
900.489	420.22
900.663	429.91
900.837	452.38
901.011	372.95
901.185	472.92
901.359	473.5
901.533	466.53
901.707	454.9
901.881	450.06
902.055	377.98
902.229	412.28
902.403	489.58
902.576	452.77
902.75	450.25
902.924	570.57
903.098	494.81
903.272	538.99
903.446	538.6
903.619	502.95
903.793	547.9
903.967	528.72
904.14	554.49
904.314	555.26
904.488	526.2
904.661	548.68
904.835	557.98
905.009	602.54
905.182	617.84
905.356	581.03
905.529	564.76
905.703	526.4
905.876	525.62
906.05	511.86
906.223	495.2
906.397	442.89
906.57	444.05
906.744	440.18
906.917	423.32
907.09	464.98
907.264	463.23
907.437	416.93
907.61	404.92
907.784	428.75
907.957	422.35
908.13	375.85
908.304	419.83
908.477	387.48
908.65	390.58
908.823	354.15
908.996	462.07
909.17	368.3
909.343	396.58
909.516	413.44
909.689	391.74
909.862	369.46
910.035	384.57
910.208	343.5
910.381	349.5
910.554	451.41
910.727	367.91
910.9	373.14
911.073	339.24
911.246	434.95
911.419	424.68
911.592	399.49
911.765	354.15
911.938	370.43
912.11	370.82
912.283	377.4
912.456	429.72
912.629	398.13
912.802	383.41
912.974	330.32
913.147	312.89
913.32	297.77
913.493	306.69
913.665	326.25
913.838	337.3
914.01	314.82
914.183	334.97
914.356	314.82
914.528	362.68
914.701	415.77
914.873	396.58
915.046	347.95
915.218	322.38
915.391	252.82
915.563	277.24
915.736	323.54
915.908	347.18
916.081	328.19
916.253	293.7
916.425	321.41
916.598	340.79
916.77	342.34
916.942	309.98
917.115	257.67
917.287	359.97
917.459	296.61
917.632	297.19
917.804	245.66
917.976	324.51
918.148	282.47
918.32	288.09
918.493	359.38
918.665	370.82
918.837	357.25
919.009	424.68
919.181	396.39
919.353	377.21
919.525	367.72
919.697	335.36
919.869	333.04
920.041	395.62
920.213	449.67
920.385	379.92
920.557	333.81
920.729	367.13
920.901	359.38
921.073	341.95
921.244	333.81
921.416	384.77
921.588	360.35
921.76	330.13
921.932	387.09
922.103	346.6
922.275	347.95
922.447	376.24
922.619	279.17
922.79	348.92
922.962	323.54
923.134	390
923.305	296.03
923.477	272.2
923.648	282.85
923.82	310.75
923.991	259.22
924.163	256.51
924.335	297
924.506	265.03
924.677	361.52
924.849	228.22
925.02	289.83
925.192	313.27
925.363	290.02
925.535	291.96
925.706	274.72
925.877	341.56
926.049	296.8
926.22	314.63
926.391	305.33
926.562	329.94
926.734	270.45
926.905	312.3
927.076	233.84
927.247	281.5
927.419	198.57
927.59	225.12
927.761	269.87
927.932	249.92
928.103	221.82
928.274	206.52
928.445	211.56
928.616	227.25
928.787	208.46
928.958	237.71
929.129	228.41
929.3	209.81
929.471	179.59
929.642	144.13
929.813	126.11
929.984	177.07
930.155	126.11
930.326	173
930.496	144.91
930.667	107.71
930.838	136.38
931.009	100.15
931.18	102.48
931.35	141.61
931.521	113.52
931.692	73.41
931.863	61.01
932.033	94.34
932.204	108.87
932.374	131.73
932.545	45.32
932.716	117.59
932.886	77.1
933.057	36.99
933.227	42.61
933.398	128.83
933.568	52.3
933.739	-14.55
933.909	35.44
934.08	94.53
934.25	-17.07
934.421	0.18
934.591	75.74
934.761	-13.38
934.932	-23.85
935.102	24.2
935.272	48.61
935.443	21.3
935.613	30.21
935.783	31.56
935.953	-14.16
936.123	173.78
936.294	20.33
936.464	17.61
936.634	37.57
936.804	24.59
936.974	-9.51
937.144	48.61
937.314	49.39
937.484	-6.02
937.655	-1.57
937.825	58.11
937.995	35.05
938.165	53.85
938.334	0.95
938.504	43.58
938.674	9.67
938.844	22.46
939.014	89.11
939.184	59.85
939.354	102.86
939.524	98.41
939.694	39.31
939.863	47.45
940.033	132.89
940.203	95.31
940.373	100.54
940.542	84.85
940.712	65.08
940.882	99.38
941.051	116.62
941.221	98.41
941.391	114.49
941.56	56.36
941.73	36.02
941.899	151.49
942.069	48.61
942.238	72.83
942.408	61.98
942.577	109.45
942.747	58.69
942.916	36.21
943.086	28.46
943.255	99.96
943.425	71.28
943.594	40.67
943.763	-24.04
943.933	8.31
944.102	-20.94
944.271	29.82
944.441	72.83
944.61	14.71
944.779	63.53
944.948	147.23
945.117	10.83
945.287	26.91
945.456	-19
945.625	31.56
945.794	59.66
945.963	18.2
946.132	90.66
946.301	29.82
946.47	76.51
946.639	-4.86
946.808	56.56
946.977	73.41
947.146	98.21
947.315	50.55
947.484	79.03
947.653	27.69
947.822	48.03
947.991	20.52
948.16	115.26
948.329	70.51
948.498	43.38
948.666	41.06
948.835	86.01
949.004	0.95
949.173	-1.95
949.341	34.28
949.51	60.63
949.679	89.11
949.847	57.91
950.016	115.46
950.185	119.14
950.353	15.68
950.522	47.26
950.69	67.8
950.859	18.97
951.028	95.5
951.196	59.08
951.365	54.62
951.533	54.43
951.701	92.98
951.87	58.11
952.038	23.23
952.207	52.68
952.375	95.89
952.543	17.03
952.712	70.7
952.88	31.76
953.048	127.28
953.217	65.86
953.385	44.55
953.553	99.96
953.721	21.1
953.89	41.64
954.058	5.02
954.226	8.12
954.394	55.59
954.562	15.29
954.73	43.58
954.898	21.49
955.067	103.83
955.235	4.25
955.403	80
955.571	104.99
955.739	54.43
955.907	15.48
956.075	19.94
956.243	12
956.41	74.19
956.578	-4.08
956.746	9.86
956.914	60.24
957.082	67.41
957.25	85.04
957.418	38.93
957.585	57.91
957.753	83.3
957.921	20.33
958.089	69.73
958.256	66.44
958.424	73.8
958.592	51.13
958.759	31.56
958.927	40.86
959.095	27.5
959.262	61.6
959.43	54.43
959.597	11.8
959.765	47.06
959.932	28.85
960.1	91.24
960.267	51.91
960.435	51.71
960.602	88.72
960.77	54.43
960.937	-6.22
961.104	61.98
961.272	-7.96
961.439	36.21
961.606	68.96
961.774	67.21
961.941	31.18
962.108	74.77
962.275	38.35
962.443	64.7
962.61	82.52
962.777	117.39
962.944	80.39
963.111	38.73
963.278	76.13
963.446	55.98
963.613	80.97
963.78	84.85
963.947	103.25
964.114	54.23
964.281	127.28
964.448	67.6
964.615	50.55
964.782	56.56
964.949	84.85
965.116	86.2
965.282	106.16
965.449	43.38
965.616	16.26
965.783	81.75
965.95	73.41
966.117	37.38
966.283	61.21
966.45	69.35
966.617	70.7
966.784	107.71
966.95	83.1
967.117	75.55
967.284	57.72
967.45	38.54
967.617	105.38
967.784	60.82
967.95	129.6
968.117	64.7
968.283	120.69
968.45	187.72
968.616	99.76
968.783	98.02
968.949	95.31
969.116	102.28
969.282	61.79
969.449	67.8
969.615	66.44
969.781	28.08
969.948	30.98
970.114	30.4
970.28	135.22
970.447	67.02
970.613	125.73
970.779	50.94
970.945	102.67
971.112	75.16
971.278	82.91
971.444	65.47
971.61	99.96
971.776	45.71
971.942	85.81
972.108	75.55
972.275	59.85
972.441	82.71
972.607	131.15
972.773	12.96
972.939	80.39
973.105	65.86
973.271	25.75
973.437	75.55
973.602	58.5
973.768	81.75
973.934	61.01
974.1	99.96
974.266	2.31
974.432	88.91
974.598	41.45
974.763	86.98
974.929	58.3
975.095	106.93
975.261	40.28
975.426	18.58
975.592	67.99
975.758	135.22
975.923	-4.47
976.089	50.75
976.255	122.24
976.42	69.73
976.586	96.47
976.751	90.85
976.917	173.97
977.082	78.45
977.248	3.86
977.413	6.77
977.579	63.34
977.744	61.21
977.91	46.87
978.075	40.67
978.24	103.44
978.406	46.68
978.571	58.88
978.736	56.95
978.902	75.74
979.067	47.84
979.232	1.73
979.397	105.77
979.563	114.88
979.728	47.06
979.893	48.61
980.058	62.18
980.223	103.83
980.388	85.62
980.554	86.4
980.719	28.08
980.884	80.78
981.049	102.09
981.214	21.68
981.379	95.31
981.544	40.09
981.709	83.1
981.874	69.35
982.039	41.25
982.204	62.76
982.368	58.5
982.533	22.46
982.698	78.06
982.863	92.79
983.028	54.43
983.193	58.11
983.357	66.63
983.522	81.55
983.687	42.22
983.852	36.21
984.016	32.73
984.181	63.73
984.346	81.55
984.51	98.6
984.675	50.94
984.839	79.61
985.004	74.19
985.168	115.46
985.333	62.18
985.498	63.92
985.662	76.71
985.827	97.05
985.991	36.41
986.155	68.76
986.32	75.74
986.484	117.98
986.649	82.71
986.813	5.99
986.977	73.03
987.142	55.78
987.306	6.18
987.47	26.53
987.634	67.02
987.799	62.95
987.963	82.52
988.127	82.52
988.291	126.31
988.455	55.78
988.62	34.47
988.784	101.7
988.948	91.43
989.112	31.18
989.276	98.02
989.44	52.68
989.604	28.66
989.768	26.91
989.932	148.01
990.096	31.56
990.26	15.48
990.424	14.32
990.588	75.93
990.752	103.25
990.915	87.36
991.079	20.91
991.243	40.67
991.407	93.95
991.571	50.94
991.734	71.67
991.898	64.11
992.062	145.29
992.226	44.93
992.389	21.49
992.553	7.35
992.717	27.3
992.88	45.13
993.044	76.32
993.207	29.63
993.371	58.3
993.535	74.38
993.698	64.5
993.862	85.04
994.025	101.51
994.189	58.3
994.352	72.25
994.515	61.4
994.679	90.66
994.842	48.23
995.006	100.34
995.169	15.68
995.332	30.21
995.496	75.93
995.659	-6.8
995.822	46.87
995.985	51.13
996.149	87.17
996.312	59.46
996.475	116.62
996.638	48.03
996.801	101.51
996.964	110.03
997.128	14.71
997.291	43.77
997.454	69.35
997.617	-9.32
997.78	94.92
997.943	34.86
998.106	78.06
998.269	41.64
998.432	37.96
998.595	44.35
998.758	-17.26
998.92	1.73
999.083	-12.8
999.246	59.27
999.409	-24.43
999.572	-20.55
999.735	33.89
999.897	60.24
1000.06	25.17
1000.223	20.13
1000.386	59.85
1000.548	57.33
1000.711	76.71
1000.874	46.87
1001.036	1.92
1001.199	63.53
1001.361	21.3
1001.524	42.61
1001.687	50.16
1001.849	6.77
1002.012	45.71
1002.174	49.58
1002.337	46.87
1002.499	45.13
1002.661	68.38
1002.824	4.83
1002.986	27.69
1003.149	42.61
1003.311	14.9
1003.473	104.03
1003.636	26.33
1003.798	40.86
1003.96	37.96
1004.123	50.36
1004.285	29.82
1004.447	55.59
1004.609	29.05
1004.771	82.13
1004.933	-22.1
1005.096	10.45
1005.258	-8.73
1005.42	22.26
1005.582	38.35
1005.744	24.59
1005.906	11.8
1006.068	34.66
1006.23	-4.86
1006.392	-23.85
1006.554	26.33
1006.716	61.79
1006.878	46.48
1007.04	-4.67
1007.202	27.11
1007.363	32.92
1007.525	39.7
1007.687	66.25
1007.849	47.84
1008.011	-2.15
1008.172	-3.89
1008.334	9.28
1008.496	65.28
1008.658	-25.59
1008.819	7.54
1008.981	-8.73
1009.143	12.38
1009.304	20.52
1009.466	38.35
1009.627	109.06
1009.789	123.98
1009.95	43.77
1010.112	5.6
1010.273	61.21
1010.435	-29.66
1010.596	45.71
1010.758	20.33
1010.919	13.16
1011.081	1.73
1011.242	3.47
1011.403	45.51
1011.565	34.86
1011.726	40.28
1011.887	-13
1012.049	13.93
1012.21	46.87
1012.371	67.99
1012.532	-49.23
1012.693	23.62
1012.855	5.6
1013.016	37.76
1013.177	65.66
1013.338	19.75
1013.499	85.62
1013.66	37.57
1013.821	68.18
1013.982	64.5
1014.143	27.3
1014.304	0.18
1014.465	48.23
1014.626	56.36
1014.787	8.31
1014.948	88.53
1015.109	-52.91
1015.27	60.05
1015.431	19.36
1015.592	-10.09
1015.752	89.5
1015.913	47.26
1016.074	45.71
1016.235	9.67
1016.395	-3.89
1016.556	23.43
1016.717	5.22
1016.877	62.95
1017.038	-8.73
1017.199	56.75
1017.359	27.11
1017.52	7.93
1017.681	19.94
1017.841	20.33
1018.002	15.87
1018.162	4.63
1018.323	58.11
1018.483	13.93
1018.644	17.81
1018.804	-19.2
1018.964	-45.16
1019.125	12.58
1019.285	39.12
1019.446	-9.32
1019.606	-9.32
1019.766	-26.75
1019.926	34.08
1020.087	35.05
1020.247	1.34
1020.407	21.49
1020.567	57.72
1020.728	22.85
1020.888	-25.78
1021.048	6.57
1021.208	-6.6
1021.368	-44.77
1021.528	54.04
1021.688	47.45
1021.848	49.39
1022.008	35.25
1022.168	11.22
1022.328	23.81
1022.488	46.29
1022.648	-11.45
1022.808	14.13
1022.968	40.86
1023.128	10.64
1023.288	-25.59
1023.448	13.16
1023.608	18.78
1023.767	36.21
1023.927	-8.35
1024.087	-13.38
1024.247	-23.46
1024.406	-18.23
1024.566	-22.1
1024.726	-22.49
1024.885	15.48
1025.045	30.01
1025.205	2.89
1025.364	7.73
1025.524	-0.21
1025.683	12.96
1025.843	30.21
1026.003	37.76
1026.162	56.36
1026.321	43.77
1026.481	39.51
1026.64	-11.25
1026.8	36.99
1026.959	8.31
1027.119	3.47
1027.278	-7.18
1027.437	-28.88
1027.597	12
1027.756	32.15
1027.915	36.21
1028.074	57.91
1028.234	-15.32
1028.393	21.3
1028.552	10.64
1028.711	-81.2
1028.87	41.06
1029.03	-12.8
1029.189	-1.57
1029.348	-44.97
1029.507	6.18
1029.666	-10.09
1029.825	-37.99
1029.984	-17.65
1030.143	13.74
1030.302	-23.46
1030.461	-59.11
1030.62	-10.09
1030.779	15.1
1030.938	-21.33
1031.097	-21.72
1031.255	14.51
1031.414	55.4
1031.573	47.06
1031.732	-50.97
1031.891	11.8
1032.049	40.67
1032.208	13.55
1032.367	-24.43
1032.525	-11.83
1032.684	19.16
1032.843	4.63
1033.001	-58.14
1033.16	149.17
1033.319	58.88
1033.477	13.35
1033.636	-40.51
1033.794	-28.88
1033.953	45.71
1034.111	26.14
1034.27	-7.57
1034.428	31.95
1034.587	2.31
1034.745	10.25
1034.903	17.03
1035.062	0.18
1035.22	-53.49
1035.378	23.43
1035.537	-14.16
1035.695	14.13
1035.853	14.51
1036.011	33.11
1036.17	15.68
1036.328	-32.95
1036.486	19.94
1036.644	4.83
1036.802	-77.52
1036.96	-7.18
1037.119	-29.27
1037.277	-7.18
1037.435	-44
1037.593	-18.62
1037.751	25.17
1037.909	45.9
1038.067	45.9
