Data from pine_FLMT105791__21__17-19-55-080.txt Node

Date: Mon Mar 20 17:19:55 GMT 2023
User: antho
Spectrometer: FLMT10579
Trigger mode: 0
Integration Time (sec): 1.000000E-1
Scans to average: 10
Electric dark correction enabled: true
Nonlinearity correction enabled: false
Boxcar width: 0
XAxis mode: Wavelengths
Number of Pixels in Spectrum: 3648
>>>>>Begin Spectral Data<<<<<
345.248	-151.59
345.464	-151.59
345.681	-151.59
345.898	-174.65
346.114	-128.54
346.331	-35.34
346.548	-0.47
346.764	1.28
346.981	-29.34
347.197	-18.1
347.414	42.35
347.631	-15.77
347.847	57.66
348.064	-9.57
348.28	28.4
348.497	-28.95
348.713	7.86
348.93	16
349.146	42.74
349.363	-1.24
349.579	37.12
349.796	20.07
350.012	-21.01
350.229	16.78
350.445	1.66
350.661	-21.2
350.878	34.79
351.094	3.79
351.311	10.96
351.527	21.23
351.743	9.8
351.96	37.7
352.176	45.26
352.392	23.56
352.609	31.11
352.825	6.12
353.041	33.24
353.257	1.28
353.474	10.38
353.69	15.42
353.906	11.93
354.122	-16.16
354.339	59.4
354.555	12.51
354.771	0.69
354.987	39.64
355.203	61.34
355.42	10.58
355.636	-10.35
355.852	-7.25
356.068	12.71
356.284	-39.61
356.5	98.54
356.716	22.78
356.932	2.63
357.148	49.32
357.364	19.29
357.58	39.06
357.796	44.87
358.012	35.96
358.228	50.68
358.444	-58.98
358.66	59.4
358.876	39.25
359.092	-19.26
359.308	20.65
359.524	20.26
359.74	1.08
359.956	-17.52
360.172	4.76
360.388	65.41
360.604	-17.13
360.819	69.47
361.035	37.31
361.251	40.61
361.467	-38.83
361.683	44.48
361.898	39.83
362.114	18.91
362.33	14.64
362.546	47
362.762	21.62
362.977	20.46
363.193	0.69
363.409	31.11
363.624	-9.96
363.84	-30.89
364.056	-0.47
364.271	52.62
364.487	41.96
364.703	9.03
364.918	-4.73
365.134	1.08
365.35	2.63
365.565	118.49
365.781	37.31
365.996	34.41
366.212	69.09
366.427	30.34
366.643	-3.18
366.858	22.78
367.074	-10.54
367.289	64.82
367.505	101.06
367.72	-8.99
367.936	17.16
368.151	49.32
368.367	33.44
368.582	32.28
368.798	12.13
369.013	43.9
369.228	7.28
369.444	31.11
369.659	70.06
369.874	32.66
370.09	90.01
370.305	-34.18
370.52	6.31
370.736	75.48
370.951	45.84
371.166	56.11
371.381	92.53
371.597	26.08
371.812	-18.1
372.027	3.99
372.242	20.84
372.458	86.33
372.673	13.48
372.888	23.36
373.103	53.2
373.318	121.21
373.533	34.79
373.749	52.62
373.964	-35.54
374.179	61.14
374.394	38.47
374.609	76.06
374.824	1.86
375.039	59.59
375.254	15.03
375.469	74.9
375.684	40.02
375.899	57.85
376.114	16.19
376.329	39.06
376.544	78.39
376.759	49.32
376.974	7.48
377.189	20.26
377.404	11.35
377.619	45.45
377.834	-37.09
378.049	-25.66
378.264	11.35
378.478	33.05
378.693	-9.57
378.908	48.36
379.123	20.26
379.338	56.88
379.553	31.69
379.767	38.86
379.982	34.21
380.197	65.21
380.412	44.29
380.626	52.42
380.841	115.97
381.056	45.06
381.271	84.39
381.485	2.44
381.7	9.03
381.915	41.77
382.129	1.86
382.344	67.73
382.559	10.77
382.773	67.15
382.988	-43.87
383.202	29.76
383.417	-3.76
383.632	141.16
383.846	26.27
384.061	32.66
384.275	7.67
384.49	28.59
384.704	42.74
384.919	41.57
385.133	25.49
385.348	60.76
385.562	-24.11
385.777	73.93
385.991	16.78
386.206	27.43
386.42	-3.18
386.634	77.42
386.849	38.86
387.063	47.39
387.277	-10.93
387.492	-0.27
387.706	-10.93
387.92	6.89
388.135	38.28
388.349	46.22
388.563	17.36
388.778	45.26
388.992	72.57
389.206	57.66
389.42	103.38
389.635	14.84
389.849	71.99
390.063	77.22
390.277	42.35
390.491	71.99
390.706	53.59
390.92	80.13
391.134	37.12
391.348	65.6
391.562	-8.41
391.776	24.91
391.99	4.18
392.205	57.66
392.419	26.46
392.633	16.19
392.847	87.69
393.061	30.34
393.275	96.41
393.489	52.62
393.703	75.48
393.917	51.46
394.131	10.77
394.345	56.49
394.559	81.29
394.773	32.66
394.986	56.49
395.2	33.63
395.414	62.69
395.628	35.76
395.842	28.21
396.056	14.64
396.27	-22.75
396.484	61.72
396.697	47.39
396.911	94.27
397.125	70.83
397.339	87.11
397.553	50.49
397.766	121.21
397.98	70.06
398.194	60.17
398.408	41.57
398.621	48.36
398.835	84.01
399.049	51.46
399.262	96.02
399.476	76.06
399.69	64.63
399.903	137.09
400.117	43.12
400.331	60.17
400.544	36.73
400.758	152.2
400.971	68.12
401.185	77.22
401.398	34.21
401.612	84.01
401.826	88.46
402.039	58.62
402.253	54.56
402.466	73.16
402.68	67.73
402.893	49.13
403.106	40.41
403.32	56.49
403.533	78.77
403.747	45.06
403.96	71.61
404.174	102.8
404.387	16.58
404.6	69.67
404.814	116.94
405.027	60.95
405.24	39.06
405.454	67.15
405.667	107.84
405.88	3.99
406.094	46.22
406.307	90.98
406.52	82.07
406.733	43.32
406.947	22.78
407.16	127.6
407.373	103.57
407.586	17.74
407.799	12.9
408.012	101.44
408.226	56.69
408.439	97.96
408.652	10.38
408.865	76.64
409.078	96.21
409.291	88.66
409.504	42.74
409.717	93.89
409.93	58.43
410.143	67.92
410.357	35.57
410.57	27.24
410.783	67.73
410.996	81.49
411.209	60.56
411.421	110.55
411.634	41.77
411.847	46.61
412.06	78
412.273	69.67
412.486	68.51
412.699	159.76
412.912	90.4
413.125	119.07
413.338	81.68
413.55	80.71
413.763	83.04
413.976	77.42
414.189	68.7
414.402	40.99
414.615	110.36
414.827	53.01
415.04	135.74
415.253	77.22
415.466	105.51
415.678	161.7
415.891	93.31
416.104	76.45
416.316	96.21
416.529	72.38
416.742	96.02
416.954	123.92
417.167	97.76
417.38	60.76
417.592	125.27
417.805	41.19
418.017	43.9
418.23	111.52
418.442	71.22
418.655	71.22
418.868	119.27
419.08	81.87
419.293	112.68
419.505	70.64
419.718	107.45
419.93	114.04
420.142	101.25
420.355	140.97
420.567	131.09
420.78	118.11
420.992	65.02
421.205	180.1
421.417	23.75
421.629	74.51
421.842	43.9
422.054	47.97
422.266	106.29
422.479	149.88
422.691	56.69
422.903	144.26
423.115	91.95
423.328	87.3
423.54	116.56
423.752	131.09
423.964	89.82
424.177	108.61
424.389	107.64
424.601	180.3
424.813	113.07
425.025	126.44
425.238	113.84
425.45	106.29
425.662	97.18
425.874	387.61
426.086	81.1
426.298	133.41
426.51	112.1
426.722	94.66
426.934	79.74
427.146	97.37
427.358	69.47
427.57	153.75
427.782	97.76
427.994	98.73
428.206	83.81
428.418	60.76
428.63	125.66
428.842	143.1
429.054	140.39
429.266	147.36
429.478	102.41
429.69	126.44
429.902	55.14
430.114	141.94
430.325	163.64
430.537	121.79
430.749	137.87
430.961	55.91
431.173	115.01
431.384	147.94
431.596	60.56
431.808	101.44
432.02	123.53
432.231	145.23
432.443	169.25
432.655	149.69
432.867	103.57
433.078	171.39
433.29	208.2
433.502	157.63
433.713	155.5
433.925	156.08
434.136	180.49
434.348	109.19
434.56	105.32
434.771	211.88
434.983	96.41
435.194	118.88
435.406	121.4
435.617	173.13
435.829	214.78
436.04	178.94
436.252	194.05
436.463	208.78
436.675	188.24
436.886	174.49
437.098	176.62
437.309	206.26
437.521	142.32
437.732	184.56
437.943	184.75
438.155	146.59
438.366	121.98
438.578	230.67
438.789	177.39
439	187.27
439.211	155.69
439.423	208.78
439.634	222.73
439.845	199.87
440.057	192.31
440.268	206.07
440.479	162.86
440.69	199.67
440.902	170.8
441.113	190.76
441.324	168.48
441.535	211.68
441.746	256.83
441.957	172.55
442.168	168.87
442.38	196.57
442.591	217.11
442.802	176.62
443.013	153.56
443.224	211.68
443.435	188.05
443.646	202.77
443.857	191.92
444.068	192.12
444.279	186.89
444.49	254.12
444.701	218.66
444.912	297.13
445.123	257.02
445.334	237.84
445.545	222.34
445.756	193.28
445.967	190.76
446.178	199.67
446.388	267.48
446.599	240.36
446.81	232.61
447.021	175.65
447.232	284.73
447.443	275.43
447.653	217.69
447.864	261.48
448.075	253.92
448.286	244.43
448.496	236.68
448.707	286.47
448.918	219.24
449.129	315.53
449.339	237.65
449.55	240.36
449.761	245.4
449.971	292.67
450.182	230.09
450.393	296.16
450.603	219.82
450.814	273.68
451.024	275.62
451.235	276.98
451.446	314.56
451.656	317.28
451.867	248.5
452.077	274.46
452.288	340.33
452.498	331.23
452.709	257.8
452.919	287.83
453.13	240.94
453.34	299.06
453.55	195.99
453.761	273.68
453.971	293.64
454.182	289.57
454.392	276.59
454.602	332.78
454.813	270.97
455.023	285.12
455.233	233.97
455.444	273.68
455.654	218.47
455.864	254.31
456.075	259.35
456.285	267.48
456.495	284.15
456.705	310.5
456.916	321.35
457.126	334.91
457.336	302.16
457.546	241.13
457.756	228.93
457.967	329.1
458.177	276.98
458.387	295.38
458.597	258.38
458.807	255.08
459.017	277.17
459.227	276.2
459.437	307.59
459.647	316.89
459.857	279.69
460.068	277.75
460.278	322.7
460.488	321.73
460.698	380.83
460.908	306.23
461.117	253.73
461.327	260.32
461.537	288.99
461.747	294.8
461.957	272.91
462.167	419.19
462.377	347.7
462.587	311.66
462.797	363.2
463.007	299.26
463.216	323.67
463.426	370.17
463.636	344.4
463.846	282.02
464.056	307.78
464.265	361.26
464.475	317.66
464.685	308.36
464.895	330.06
465.104	309.33
465.314	356.41
465.524	313.98
465.733	270.58
465.943	405.24
466.153	380.25
466.362	398.26
466.572	341.88
466.782	334.33
466.991	301.97
467.201	384.7
467.41	291.12
467.62	326.58
467.829	330.84
468.039	328.9
468.249	315.92
468.458	361.26
468.668	349.05
468.877	361.65
469.086	376.18
469.296	389.16
469.505	335.3
469.715	412.41
469.924	371.91
470.134	396.52
470.343	408.34
470.552	357.19
470.762	363
470.971	334.52
471.18	381.02
471.39	375.98
471.599	356.22
471.808	390.32
472.018	367.07
472.227	417.83
472.436	438.18
472.645	360.87
472.855	369.78
473.064	426.74
473.273	411.05
473.482	402.91
473.691	445.73
473.901	412.79
474.11	361.45
474.319	479.44
474.528	437.59
474.737	474.21
474.946	415.51
475.155	400.98
475.364	443.02
475.573	458.52
475.783	437.59
475.992	459.68
476.201	476.54
476.41	429.65
476.619	411.05
476.828	456
477.037	390.71
477.245	425
477.454	500.56
477.663	417.06
477.872	415.89
478.081	529.43
478.29	397.88
478.499	553.46
478.708	490.87
478.917	548.61
479.125	476.92
479.334	482.35
479.543	456
479.752	527.11
479.961	495.72
480.169	539.7
480.378	474.02
480.587	593.56
480.796	507.73
481.004	508.12
481.213	509.28
481.422	538.15
481.63	531.37
481.839	542.02
482.048	568.37
482.256	559.07
482.465	541.06
482.674	595.69
482.882	578.25
483.091	637.74
483.299	583.29
483.508	602.47
483.716	577.09
483.925	564.89
484.134	519.94
484.342	551.13
484.551	601.5
484.759	590.07
484.967	599.37
485.176	604.22
485.384	610.42
485.593	598.21
485.801	594.53
486.01	539.51
486.218	538.92
486.426	465.49
486.635	533.11
486.843	489.13
487.051	539.51
487.26	535.24
487.468	548.42
487.676	582.13
487.885	533.11
488.093	591.43
488.301	621.65
488.509	617.78
488.717	634.64
488.926	584.26
489.134	599.18
489.342	614.87
489.55	547.26
489.758	597.44
489.967	599.57
490.175	731.9
490.383	605.96
490.591	701.28
490.799	585.81
491.007	691.21
491.215	641.03
491.423	647.23
491.631	641.22
491.839	663.5
492.047	711.36
492.255	612.16
492.463	593.37
492.671	636.96
492.879	691.6
493.087	672.03
493.295	646.84
493.503	684.43
493.711	691.98
493.919	684.62
494.127	710.78
494.334	728.22
494.542	664.28
494.75	684.04
494.958	660.21
495.166	741.78
495.374	719.5
495.581	691.21
495.789	714.65
495.997	769.29
496.205	690.05
496.412	685.78
496.62	735.58
496.828	735.77
497.035	703.61
497.243	788.47
497.451	747.4
497.658	733.83
497.866	741.39
498.074	793.31
498.281	700.7
498.489	779.36
498.696	734.22
498.904	725.12
499.112	731.32
499.319	811.72
499.527	755.34
499.734	796.22
499.942	701.87
500.149	726.47
500.357	777.62
500.564	710
500.771	771.81
500.979	709.62
501.186	714.07
501.394	762.12
501.601	710.58
501.808	766.96
502.016	738.87
502.223	745.46
502.43	768.51
502.638	750.69
502.845	732.87
503.052	822.96
503.26	761.15
503.467	838.46
503.674	773.36
503.881	793.12
504.089	871.39
504.296	785.95
504.503	742.16
504.71	784.4
504.917	747.78
505.125	781.11
505.332	766
505.539	821.21
505.746	865.39
505.953	857.83
506.16	834.78
506.367	889.8
506.574	841.94
506.781	860.93
506.988	786.53
507.195	807.26
507.402	828.96
507.609	843.3
507.816	812.11
508.023	804.94
508.23	841.94
508.437	787.89
508.644	855.51
508.851	897.55
509.058	861.51
509.265	837.88
509.472	904.53
509.679	946.37
509.885	867.33
510.092	866.94
510.299	844.08
510.506	880.31
510.713	882.24
510.92	876.82
511.126	882.24
511.333	934.36
511.54	925.45
511.746	936.69
511.953	948.31
512.16	951.41
512.367	878.18
512.573	913.24
512.78	909.18
512.987	916.92
513.193	916.54
513.4	866.16
513.606	887.67
513.813	913.05
514.02	904.33
514.226	970.98
514.433	984.16
514.639	864.42
514.846	912.08
515.052	917.7
515.259	938.62
515.465	912.66
515.672	943.47
515.878	1009.15
516.085	942.11
516.291	980.09
516.497	933.39
516.704	883.41
516.91	844.66
517.117	849.5
517.323	826.06
517.529	875.66
517.736	832.84
517.942	843.11
518.148	887.09
518.354	900.07
518.561	921.57
518.767	877.59
518.973	955.29
519.179	968.27
519.386	908.98
519.592	895.61
519.798	913.05
520.004	1025.81
520.21	983.96
520.417	1009.34
520.623	1034.53
520.829	1011.86
521.035	1053.32
521.241	1030.85
521.447	1059.91
521.653	1149.42
521.859	1006.24
522.065	1041.12
522.271	1120.17
522.477	1053.9
522.683	1099.05
522.889	1068.05
523.095	1075.02
523.301	1053.32
523.507	1038.99
523.713	1035.89
523.919	1041.5
524.125	1130.24
524.331	1088.97
524.537	1181.2
524.742	1120.55
524.948	1116.48
525.154	1159.11
525.36	1227.11
525.566	1130.82
525.772	1185.46
525.977	1090.72
526.183	1161.63
526.389	1186.23
526.595	1101.37
526.8	1106.8
527.006	1077.93
527.212	1044.41
527.417	1028.52
527.623	1032.01
527.829	1092.65
528.034	1133.73
528.24	1131.4
528.446	1093.23
528.651	1183.91
528.857	1197.28
529.062	1286.21
529.268	1195.34
529.473	1224.01
529.679	1205.8
529.884	1249.98
530.09	1242.61
530.295	1274.78
530.501	1250.36
530.706	1266.44
530.912	1200.76
531.117	1226.92
531.323	1248.23
531.528	1248.23
531.733	1237.19
531.939	1241.84
532.144	1271.48
532.35	1241.26
532.555	1290.08
532.76	1259.47
532.966	1271.48
533.171	1240.87
533.376	1235.64
533.581	1176.74
533.787	1251.33
533.992	1267.03
534.197	1302.09
534.402	1232.54
534.607	1239.51
534.813	1344.91
535.018	1255.01
535.223	1262.96
535.428	1280.2
535.633	1329.99
535.838	1290.66
536.043	1323.41
536.249	1383.47
536.454	1298.22
536.659	1333.68
536.864	1285.82
537.069	1305.58
537.274	1312.75
537.479	1308.49
537.684	1322.83
537.889	1296.67
538.094	1402.84
538.299	1318.95
538.504	1353.82
538.708	1336.97
538.913	1374.17
539.118	1334.45
539.323	1354.41
539.528	1301.51
539.733	1312.94
539.938	1358.86
540.142	1369.13
540.347	1325.34
540.552	1335.42
540.757	1322.83
540.962	1337.74
541.166	1276.52
541.371	1216.65
541.576	1330.58
541.781	1233.31
541.985	1308.29
542.19	1314.49
542.395	1388.51
542.599	1419.89
542.804	1401.49
543.008	1390.44
543.213	1304.61
543.418	1293.57
543.622	1366.61
543.827	1298.41
544.031	1404.78
544.236	1434.23
544.44	1369.52
544.645	1472.59
544.849	1378.24
545.054	1414.08
545.258	1475.3
545.463	1483.25
545.667	1356.92
545.872	1387.92
546.076	1382.69
546.281	1366.81
546.485	1385.41
546.689	1407.11
546.894	1420.28
547.098	1384.05
547.302	1367.97
547.507	1372.04
547.711	1397.81
547.915	1448.95
548.119	1375.33
548.324	1388.7
548.528	1420.86
548.732	1419.89
548.936	1466.78
549.141	1437.91
549.345	1407.49
549.549	1424.74
549.753	1387.92
549.957	1489.06
550.161	1478.02
550.366	1415.63
550.57	1386.57
550.774	1391.99
550.978	1401.29
551.182	1410.4
551.386	1408.85
551.59	1422.61
551.794	1428.61
551.998	1417.57
552.202	1397.03
552.406	1403.42
552.61	1447.4
552.814	1426.09
553.018	1510.95
553.222	1407.3
553.426	1404.78
553.63	1522.77
553.833	1399.55
554.037	1363.32
554.241	1439.85
554.445	1425.32
554.649	1406.33
554.853	1401.68
555.056	1467.94
555.26	1447.99
555.464	1453.41
555.668	1478.79
555.871	1475.3
556.075	1428.61
556.279	1419.31
556.483	1372.23
556.686	1421.25
556.89	1398.77
557.094	1436.36
557.297	1353.05
557.501	1478.79
557.704	1324.96
557.908	1434.42
558.112	1365.64
558.315	1447.6
558.519	1389.86
558.722	1356.15
558.926	1364.09
559.129	1308.1
559.333	1348.21
559.536	1313.53
559.74	1299.77
559.943	1300.54
560.147	1290.28
560.35	1331.16
560.553	1329.8
560.757	1262.57
560.96	1414.66
561.164	1336.78
561.367	1389.47
561.57	1350.14
561.774	1383.27
561.977	1311.78
562.18	1292.41
562.384	1430.55
562.587	1317.4
562.79	1323.41
562.993	1325.15
563.197	1359.44
563.4	1406.72
563.603	1387.15
563.806	1436.17
564.009	1342.01
564.212	1356.73
564.416	1267.03
564.619	1365.45
564.822	1280.59
565.025	1324.18
565.228	1335.81
565.431	1347.04
565.634	1271.29
565.837	1271.87
566.04	1250.56
566.243	1253.85
566.446	1195.53
566.649	1311.2
566.852	1236.03
567.055	1254.43
567.258	1293.76
567.461	1358.09
567.664	1338.91
567.867	1218.59
568.07	1280.2
568.273	1282.53
568.475	1328.25
568.678	1236.22
568.881	1261.41
569.084	1278.07
569.287	1203.67
569.489	1176.93
569.692	1286.21
569.895	1270.71
570.098	1189.33
570.3	1187.2
570.503	1130.63
570.706	1171.7
570.909	1179.06
571.111	1177.32
571.314	1150.39
571.516	1147.68
571.719	1189.91
571.922	1170.54
572.124	1159.3
572.327	1199.6
572.529	1144.58
572.732	1134.7
572.935	1186.04
573.137	1251.72
573.34	1184.68
573.542	1217.23
573.745	1168.99
573.947	1199.21
574.15	1182.16
574.352	1137.6
574.554	1215.49
574.757	1133.53
574.959	1142.45
575.162	1131.21
575.364	1114.74
575.566	1251.33
575.769	1103.89
575.971	1149.62
576.173	1049.45
576.376	1142.25
576.578	1147.68
576.78	1206.58
576.982	1085.68
577.185	1109.9
577.387	1080.64
577.589	1066.11
577.791	1128.69
577.993	1156.4
578.196	1088.58
578.398	1114.93
578.6	1157.17
578.802	1068.24
579.004	1062.04
579.206	1064.17
579.408	1097.11
579.61	1066.5
579.812	1128.88
580.014	1062.04
580.216	1088.2
580.418	1084.52
580.62	1089.17
580.822	1039.95
581.024	1072.89
581.226	1145.93
581.428	1072.5
581.63	1162.6
581.832	1086.45
582.034	1149.42
582.236	1102.15
582.438	1123.07
582.64	1141.48
582.841	1180.03
583.043	1180.61
583.245	1137.41
583.447	1168.02
583.649	1102.73
583.85	1147.48
584.052	1176.16
584.254	1091.88
584.456	1188.17
584.657	1074.44
584.859	1095.56
585.061	1086.45
585.262	1079.67
585.464	1063.2
585.666	1150.2
585.867	1088.78
586.069	1162.98
586.27	1141.28
586.472	1103.7
586.674	1077.15
586.875	1080.84
587.077	1104.86
587.278	1105.05
587.48	1065.72
587.681	1218.4
587.883	1122.1
588.084	1065.92
588.285	1064.75
588.487	1082.19
588.688	1074.05
588.89	1024.07
589.091	976.6
589.292	1010.7
589.494	983.19
589.695	969.24
589.896	904.53
590.098	921.96
590.299	999.46
590.5	941.34
590.702	950.44
590.903	958.77
591.104	1038.21
591.305	1010.12
591.507	1055.84
591.708	1065.92
591.909	1013.6
592.11	1044.6
592.311	1036.85
592.512	994.42
592.714	947.92
592.915	1000.43
593.116	1023.29
593.317	1001.59
593.518	1020.77
593.719	995.2
593.92	1021.55
594.121	1084.9
594.322	1024.45
594.523	992.29
594.724	976.41
594.925	1034.14
595.126	1036.27
595.327	1072.5
595.528	1018.64
595.729	980.67
595.929	1007.99
596.13	1012.64
596.331	1049.64
596.532	1040.34
596.733	1086.07
596.934	1075.41
597.135	1043.64
597.335	1041.89
597.536	951.8
597.737	1033.17
597.938	980.47
598.138	1095.56
598.339	1014.19
598.54	1040.92
598.74	1051
598.941	1015.35
599.142	1052.35
599.342	1015.15
599.543	981.64
599.744	1002.37
599.944	983.38
600.145	983.19
600.345	1013.02
600.546	1089.36
600.746	1059.72
600.947	1085.48
601.147	1049.06
601.348	1093.23
601.548	1018.45
601.749	1009.34
601.949	982.22
602.15	1004.3
602.35	1001.01
602.551	1049.64
602.751	988.42
602.951	982.99
603.152	917.89
603.352	1041.89
603.552	1018.45
603.753	1036.66
603.953	1044.99
604.153	996.94
604.354	1016.32
604.554	1014.38
604.754	1021.94
604.954	946.76
605.155	1031.62
605.355	1022.9
605.555	1033.37
605.755	1045.19
605.955	1008.95
606.155	1049.45
606.356	1016.9
606.556	1036.66
606.756	1012.64
606.956	927.58
607.156	1029.49
607.356	981.25
607.556	1020.58
607.756	999.27
607.956	1064.17
608.156	1016.51
608.356	967.11
608.556	1021.94
608.756	987.06
608.956	946.57
609.156	1001.79
609.356	943.27
609.556	940.17
609.755	964.59
609.955	949.47
610.155	981.44
610.355	994.23
610.555	956.84
610.755	970.98
610.954	903.75
611.154	933.39
611.354	951.41
611.554	954.12
611.753	952.38
611.953	889.61
612.153	979.89
612.352	955.48
612.552	885.93
612.752	888.44
612.951	941.92
613.151	950.06
613.351	934.94
613.55	918.67
613.75	951.22
613.949	939.01
614.149	948.51
614.348	908.98
614.548	904.53
614.747	871.59
614.947	900.84
615.146	868.29
615.346	940.56
615.545	924.67
615.745	929.32
615.944	959.74
616.144	936.88
616.343	935.91
616.542	907.63
616.742	936.49
616.941	895.23
617.14	840.01
617.34	898.91
617.539	905.69
617.738	862.87
617.938	955.87
618.137	900.46
618.336	878.95
618.535	917.51
618.734	899.68
618.934	914.41
619.133	902.59
619.332	900.84
619.531	862.29
619.73	884.96
619.929	925.45
620.128	910.34
620.328	966.52
620.527	903.36
620.726	888.83
620.925	906.46
621.124	868.68
621.323	880.31
621.522	824.31
621.721	835.36
621.92	840.78
622.119	922.93
622.318	848.14
622.517	893.68
622.715	895.61
622.914	841.17
623.113	846.21
623.312	804.94
623.511	871.98
623.71	843.11
623.909	832.06
624.107	937.07
624.306	820.44
624.505	838.84
624.704	823.93
624.902	837.68
625.101	891.74
625.3	849.69
625.499	804.94
625.697	831.09
625.896	804.75
626.095	874.49
626.293	809.4
626.492	808.04
626.69	847.37
626.889	802.61
627.088	894.84
627.286	794.67
627.485	825.86
627.683	801.65
627.882	837.88
628.08	766.77
628.279	806.68
628.477	849.69
628.676	775.88
628.874	813.08
629.073	781.11
629.271	750.3
629.469	770.84
629.668	782.85
629.866	769.68
630.065	745.65
630.263	834.97
630.461	763.09
630.66	807.07
630.858	837.1
631.056	840.78
631.254	829.35
631.453	754.76
631.651	835.36
631.849	796.61
632.047	818.89
632.245	790.6
632.444	791.38
632.642	800.1
632.84	834.78
633.038	789.05
633.236	777.04
633.434	762.9
633.632	773.36
633.83	776.85
634.028	836.71
634.227	828.38
634.425	872.56
634.623	794.86
634.821	818.7
635.019	820.44
635.216	770.45
635.414	833.23
635.612	822.76
635.81	770.45
636.008	865.58
636.206	781.69
636.404	825.48
636.602	764.25
636.8	787.11
636.997	865.39
637.195	824.51
637.393	821.02
637.591	828.96
637.789	828.19
637.986	772.78
638.184	766.96
638.382	847.18
638.58	801.26
638.777	835.74
638.975	786.53
639.173	785.37
639.37	785.18
639.568	799.32
639.765	831.29
639.963	781.88
640.161	813.66
640.358	825.86
640.556	744.68
640.753	733.06
640.951	758.83
641.148	779.95
641.346	727.25
641.543	784.01
641.741	812.3
641.938	778.78
642.136	784.01
642.333	744.1
642.531	842.72
642.728	812.11
642.925	765.03
643.123	768.51
643.32	764.64
643.517	754.76
643.715	774.33
643.912	750.5
644.109	787.11
644.306	766.19
644.504	751.66
644.701	775.3
644.898	803.97
645.095	719.11
645.293	760.18
645.49	745.07
645.687	762.12
645.884	742.75
646.081	710
646.278	708.65
646.475	730.35
646.672	712.52
646.87	746.23
647.067	724.34
647.264	729.96
647.461	703.8
647.658	671.64
647.855	762.7
648.052	720.27
648.249	614.68
648.446	710.39
648.642	710.58
648.839	642
649.036	666.6
649.233	647.62
649.43	655.17
649.627	671.45
649.824	687.72
650.021	667.96
650.217	650.91
650.414	661.18
650.611	676.48
650.808	710.97
651.004	692.57
651.201	708.65
651.398	714.27
651.595	688.88
651.791	654.98
651.988	671.83
652.185	645.68
652.381	730.54
652.578	647.04
652.775	692.76
652.971	670.67
653.168	670.87
653.364	672.61
653.561	633.28
653.757	658.27
653.954	679.78
654.15	625.53
654.347	751.27
654.543	689.27
654.74	625.53
654.936	645.49
655.133	652.07
655.329	659.82
655.525	665.63
655.722	730.93
655.918	639.48
656.115	674.35
656.311	579.03
656.507	551.13
656.704	548.22
656.9	561.4
657.096	573.6
657.292	585.62
657.489	670.87
657.685	629.21
657.881	627.47
658.077	627.08
658.273	616.23
658.47	693.53
658.666	621.85
658.862	666.99
659.058	629.21
659.254	664.86
659.45	641.61
659.646	649.55
659.842	647.04
660.038	681.33
660.234	608.87
660.43	650.33
660.626	711.75
660.822	682.68
661.018	652.65
661.214	639.09
661.41	603.25
661.606	708.84
661.802	700.7
661.998	650.33
662.194	618.36
662.39	667.96
662.586	658.08
662.781	668.93
662.977	694.12
663.173	649.36
663.369	653.23
663.564	658.27
663.76	677.07
663.956	636.38
664.152	702.45
664.347	611.58
664.543	652.07
664.739	640.64
664.934	586
665.13	598.79
665.326	649.36
665.521	654.59
665.717	623.79
665.912	605.96
666.108	558.69
666.304	635.99
666.499	604.6
666.695	547.26
666.89	621.07
667.086	651.49
667.281	651.49
667.477	701.48
667.672	648
667.867	639.09
668.063	638.7
668.258	564.69
668.454	602.47
668.649	670.28
668.844	635.22
669.04	634.05
669.235	630.37
669.43	605.38
669.626	577.09
669.821	596.66
670.016	581.74
670.211	616.04
670.407	555.39
670.602	598.02
670.797	599.57
670.992	641.8
671.187	585.23
671.382	620.3
671.578	598.99
671.773	620.88
671.968	569.54
672.163	609.84
672.358	646.26
672.553	588.14
672.748	617
672.943	677.84
673.138	606.74
673.333	646.45
673.528	578.45
673.723	629.6
673.918	606.74
674.113	545.9
674.308	676.1
674.503	608.48
674.698	640.64
674.892	602.86
675.087	654.2
675.282	634.25
675.477	563.34
675.672	609.64
675.867	591.04
676.061	596.66
676.256	535.82
676.451	579.22
676.646	579.03
676.84	548.61
677.035	564.3
677.23	537.96
677.424	603.25
677.619	602.47
677.814	652.27
678.008	624.56
678.203	536.41
678.397	537.37
678.592	593.17
678.787	633.28
678.981	578.25
679.176	602.86
679.37	592.01
679.565	556.56
679.759	557.52
679.954	611.39
680.148	623.59
680.342	626.89
680.537	634.05
680.731	549.97
680.926	602.67
681.12	604.8
681.314	592.98
681.509	550.94
681.703	571.09
681.897	613.9
682.092	567.21
682.286	564.11
682.48	647.23
682.674	636.38
682.869	566.05
683.063	584.65
683.257	623.98
683.451	547.06
683.645	576.32
683.839	611
684.034	573.41
684.228	618.36
684.422	540.47
684.616	555.59
684.81	596.47
685.004	598.99
685.198	585.23
685.392	617.78
685.586	578.45
685.78	610.03
685.974	624.56
686.168	614.1
686.362	644.71
686.556	554.04
686.75	532.34
686.944	543.38
687.138	557.52
687.331	468.98
687.525	471.89
687.719	430.43
687.913	496.49
688.107	502.69
688.301	473.05
688.494	503.47
688.688	468.4
688.882	453.29
689.076	436.04
689.269	474.21
689.463	553.46
689.657	481.19
689.85	459.88
690.044	500.95
690.238	495.72
690.431	476.92
690.625	489.52
690.818	530.4
691.012	504.05
691.205	566.24
691.399	517.22
691.593	547.26
691.786	606.15
691.98	607.51
692.173	664.08
692.366	581.74
692.56	622.62
692.753	648.2
692.947	570.12
693.14	647.04
693.333	650.13
693.527	568.37
693.72	611.58
693.914	616.23
694.107	623.4
694.3	633.67
694.493	634.83
694.687	652.46
694.88	611.58
695.073	682.88
695.266	691.98
695.46	664.47
695.653	668.73
695.846	680.17
696.039	617.59
696.232	647.81
696.425	716.98
696.618	697.41
696.812	709.03
697.005	782.27
697.198	826.44
697.391	771.42
697.584	773.36
697.777	856.48
697.97	778.59
698.163	782.08
698.356	788.86
698.549	883.79
698.742	844.27
698.935	776.85
699.127	831.87
699.32	765.22
699.513	783.43
699.706	824.31
699.899	836.71
700.092	810.75
700.285	847.76
700.477	792.35
700.67	852.79
700.863	848.53
701.056	962.46
701.248	928.55
701.441	907.82
701.634	875.27
701.826	999.65
702.019	863.45
702.212	938.62
702.404	877.79
702.597	875.85
702.79	932.81
702.982	957.22
703.175	952.77
703.367	960.52
703.56	988.03
703.752	1032.59
703.945	1004.5
704.137	1028.91
704.33	1043.25
704.522	1040.92
704.715	1056.04
704.907	1071.54
705.1	1083.35
705.292	1133.73
705.484	1069.21
705.677	1103.12
705.869	1107.77
706.061	1159.5
706.254	1135.47
706.446	1123.46
706.638	1095.17
706.831	1225.95
707.023	1121.72
707.215	1231.38
707.407	1242.81
707.599	1165.7
707.792	1243.97
707.984	1230.21
708.176	1228.08
708.368	1259.08
708.56	1292.02
708.752	1263.93
708.944	1234.09
709.136	1305.78
709.329	1248.62
709.521	1397.81
709.713	1341.04
709.905	1345.3
710.097	1391.02
710.289	1341.43
710.481	1386.96
710.672	1366.42
710.864	1375.52
711.056	1444.3
711.248	1428.42
711.44	1450.89
711.632	1424.93
711.824	1431.52
712.016	1492.35
712.207	1489.64
712.399	1491
712.591	1524.32
712.783	1510.57
712.975	1548.93
713.166	1462.52
713.358	1522.19
713.55	1549.7
713.741	1608.6
713.933	1566.56
714.125	1550.87
714.316	1517.54
714.508	1606.86
714.7	1611.31
714.891	1600.47
715.083	1672.73
715.274	1647.93
715.466	1605.7
715.657	1618.29
715.849	1614.22
716.04	1629.72
716.232	1554.93
716.423	1657.62
716.615	1549.7
716.806	1524.9
716.998	1492.16
717.189	1453.22
717.381	1420.28
717.572	1368.55
717.763	1396.45
717.955	1364.29
718.146	1353.63
718.337	1308.88
718.528	1281.36
718.72	1226.34
718.911	1284.85
719.102	1265.86
719.293	1330.96
719.485	1292.41
719.676	1269.93
719.867	1257.15
720.058	1268.58
720.249	1279.81
720.44	1251.72
720.632	1282.53
720.823	1355.96
721.014	1493.52
721.205	1461.55
721.396	1520.06
721.587	1572.76
721.778	1594.85
721.969	1633.4
722.16	1683.78
722.351	1677.58
722.542	1782.78
722.733	1815.33
722.924	1708.96
723.115	1749.84
723.305	1747.13
723.496	1749.07
723.687	1658.59
723.878	1648.13
724.069	1687.65
724.26	1704.31
724.45	1614.41
724.641	1610.35
724.832	1645.22
725.023	1636.11
725.213	1606.86
725.404	1575.86
725.595	1612.48
725.785	1610.93
725.976	1690.17
726.167	1663.63
726.357	1665.56
726.548	1745.39
726.739	1652.39
726.929	1733.76
727.12	1776.19
727.31	1796.34
727.501	1696.76
727.691	1771.74
727.882	1741.13
728.072	1770.96
728.263	1761.66
728.453	1847.11
728.644	1836.26
728.834	1832.57
729.024	1786.07
729.215	1788.98
729.405	1813.78
729.596	1894.77
729.786	1872.68
729.976	1894.19
730.167	1917.63
730.357	1867.26
730.547	1886.24
730.737	1902.32
730.928	1910.65
731.118	1990.48
731.308	1927.12
731.498	1927.9
731.688	2030.2
731.879	2016.63
732.069	2095.3
732.259	2089.87
732.449	2064.1
732.639	2137.92
732.829	2165.82
733.019	2185.78
733.209	2237.89
733.399	2250.49
733.589	2311.9
733.779	2337.48
733.969	2295.44
734.159	2337.48
734.349	2396.57
734.539	2408.2
734.729	2387.08
734.919	2480.47
735.109	2477.17
735.299	2450.05
735.488	2465.93
735.678	2452.95
735.868	2468.07
736.058	2461.67
736.248	2428.35
736.437	2415.95
736.627	2405.68
736.817	2551.96
737.007	2476.78
737.196	2508.56
737.386	2455.08
737.576	2484.73
737.765	2512.63
737.955	2547.31
738.144	2598.07
738.334	2595.36
738.524	2506.81
738.713	2530.26
738.903	2563.97
739.092	2592.45
739.282	2600.39
739.471	2568.04
739.661	2605.24
739.85	2603.3
740.04	2631.59
740.229	2630.23
740.419	2683.9
740.608	2666.46
740.797	2659.87
740.987	2704.63
741.176	2699.59
741.365	2628.1
741.555	2648.83
741.744	2718
741.933	2691.26
742.123	2671.69
742.312	2746.67
742.501	2711.02
742.69	2725.36
742.88	2669.37
743.069	2779.03
743.258	2690.29
743.447	2752.29
743.636	2788.52
743.825	2735.24
744.014	2710.64
744.204	2765.85
744.393	2680.8
744.582	2811.19
744.771	2794.92
744.96	2779.61
745.149	2788.91
745.338	2762.95
745.527	2745.32
745.716	2767.02
745.905	2742.02
746.094	2773.6
746.283	2802.67
746.471	2806.93
746.66	2846.45
746.849	2813.32
747.038	2819.14
747.227	2782.71
747.416	2825.34
747.604	2784.45
747.793	2798.21
747.982	2790.27
748.171	2790.46
748.359	2850.52
748.548	2800.92
748.737	2774.57
748.926	2784.84
749.114	2700.37
749.303	2803.25
749.491	2785.04
749.68	2747.45
749.869	2846.26
750.057	2759.65
750.246	2765.08
750.434	2757.33
750.623	2750.16
750.811	2735.63
751	2823.4
751.188	2747.06
751.377	2740.86
751.565	2720.91
751.754	2719.55
751.942	2714.71
752.131	2752.1
752.319	2697.07
752.507	2699.98
752.696	2743.57
752.884	2787.94
753.072	2727.3
753.261	2763.34
753.449	2765.08
753.637	2718
753.825	2823.79
754.014	2763.53
754.202	2712.19
754.39	2791.62
754.578	2743.96
754.766	2701.34
754.955	2734.47
755.143	2827.27
755.331	2736.02
755.519	2730.79
755.707	2704.82
755.895	2701.92
756.083	2723.04
756.271	2678.86
756.459	2707.73
756.647	2702.69
756.835	2689.91
757.023	2666.46
757.211	2651.74
757.399	2645.73
757.587	2663.56
757.775	2599.23
757.963	2651.16
758.151	2613.96
758.339	2628.68
758.526	2610.08
758.714	2598.65
758.902	2536.85
759.09	2447.14
759.278	2324.89
759.465	2158.84
759.653	1875.97
759.841	1730.08
760.028	1472.79
760.216	1280.59
760.404	1234.86
760.591	986.48
760.779	835.94
760.967	753.01
761.154	614.68
761.342	677.84
761.529	660.98
761.717	679.78
761.905	675.52
762.092	709.81
762.28	683.85
762.467	689.66
762.655	606.74
762.842	657.69
763.029	635.8
763.217	679.39
763.404	673.58
763.592	713.49
763.779	633.86
763.966	688.11
764.154	724.73
764.341	796.03
764.528	776.85
764.716	852.79
764.903	881.66
765.09	913.05
765.277	975.82
765.465	1088.78
765.652	1109.9
765.839	1212
766.026	1287.56
766.213	1289.11
766.4	1386.96
766.588	1569.08
766.775	1528.2
766.962	1647.35
767.149	1704.12
767.336	1817.07
767.523	1763.79
767.71	1898.06
767.897	1966.65
768.084	2048.8
768.271	2029.62
768.458	2099.95
768.645	2159.81
768.832	2128.62
769.019	2127.26
769.206	2176.28
769.392	2230.53
769.579	2361.5
769.766	2265.6
769.953	2259.21
770.14	2310.55
770.327	2296.41
770.513	2339.8
770.7	2426.22
770.887	2302.41
771.073	2410.91
771.26	2394.05
771.447	2314.23
771.634	2328.57
771.82	2426.99
772.007	2314.81
772.193	2383.2
772.38	2379.33
772.567	2367.12
772.753	2369.64
772.94	2384.75
773.126	2416.92
773.313	2432.03
773.499	2431.45
773.686	2371.19
773.872	2363.44
774.059	2396.57
774.245	2302.99
774.432	2352.98
774.618	2287.3
774.804	2399.48
774.991	2306.48
775.177	2411.49
775.363	2345.04
775.55	2378.94
775.736	2276.26
775.922	2324.11
776.109	2299.12
776.295	2329.54
776.481	2326.05
776.667	2349.3
776.853	2270.25
777.04	2274.12
777.226	2315.39
777.412	2386.5
777.598	2284.39
777.784	2279.16
777.97	2248.55
778.156	2331.86
778.342	2294.27
778.528	2276.06
778.715	2229.56
778.901	2268.7
779.087	2291.17
779.272	2250.29
779.458	2232.08
779.644	2235.37
779.83	2216.39
780.016	2332.64
780.202	2247.39
780.388	2205.73
780.574	2177.64
780.76	2243.71
780.946	2286.91
781.131	2217.55
781.317	2215.42
781.503	2159.04
781.689	2162.33
781.874	2299.89
782.06	2170.28
782.246	2234.79
782.432	2189.26
782.617	2202.44
782.803	2203.21
782.989	2099.75
783.174	2149.74
783.36	2142.57
783.545	2126.68
783.731	2157.88
783.916	2093.75
784.102	2142.57
784.288	2116.41
784.473	2136.76
784.659	2119.9
784.844	2189.84
785.029	2082.51
785.215	2111.38
785.4	2052.86
785.586	2171.05
785.771	2038.33
785.956	2102.85
786.142	2106.73
786.327	2069.14
786.512	2053.06
786.698	2072.24
786.883	2012.37
787.068	2012.57
787.254	2050.93
787.439	2041.43
787.624	2017.02
787.809	2038.53
787.994	2020.32
788.18	2070.69
788.365	1990.48
788.55	1996.68
788.735	1969.36
788.92	1980.6
789.105	1988.93
789.29	2016.05
789.475	1954.25
789.66	1958.51
789.845	1935.26
790.03	1908.72
790.215	1953.67
790.4	1987.96
790.585	1995.71
790.77	1926.15
790.955	1869
791.14	1915.5
791.325	1990.48
791.51	1892.83
791.695	1935.26
791.879	1924.6
792.064	1847.3
792.249	1964.32
792.434	1928.09
792.618	1916.08
792.803	1922.47
792.988	1893.02
793.173	1891.28
793.357	1958.9
793.542	1893.6
793.727	1871.32
793.911	1938.75
794.096	1903.49
794.281	1969.36
794.465	1977.69
794.65	1953.86
794.834	1940.49
795.019	1975.75
795.203	1954.83
795.388	1949.02
795.572	1996.87
795.757	1938.17
795.941	1980.02
796.126	1949.21
796.31	1924.6
796.494	1909.1
796.679	1953.47
796.863	1886.24
797.048	1981.76
797.232	1970.33
797.416	1938.55
797.601	1920.15
797.785	1981.76
797.969	1999.39
798.153	1903.87
798.338	1972.27
798.522	1952.31
798.706	1960.25
798.89	1954.64
799.074	2061.78
799.258	1993.77
799.443	1925.38
799.627	1908.52
799.811	2000.94
799.995	1931.19
800.179	1927.7
800.363	1942.04
800.547	1982.73
800.731	1977.3
800.915	1916.85
801.099	1908.14
801.283	1935.65
801.467	1917.24
801.651	1915.3
801.835	1962.38
802.019	1938.94
802.202	1930.42
802.386	1911.62
802.57	1913.95
802.754	1934.87
802.938	1928.29
803.121	1927.9
803.305	2003.07
803.489	1931.39
803.673	1951.92
803.856	1945.34
804.04	1926.15
804.224	1975.56
804.407	1939.72
804.591	1923.44
804.775	1915.69
804.958	1944.75
805.142	2021.28
805.326	1922.09
805.509	2009.08
805.693	1983.31
805.876	2002.88
806.06	1955.99
806.243	1978.85
806.427	2011.4
806.61	1988.35
806.794	1979.05
806.977	2042.4
807.16	2000.94
807.344	1996.29
807.527	1962.58
807.71	1977.69
807.894	1963.74
808.077	1998.81
808.26	1916.08
808.444	1948.05
808.627	2000.55
808.81	1913.17
808.993	1852.14
809.177	1852.34
809.36	1890.7
809.543	1909.88
809.726	1796.73
809.909	1834.12
810.092	1843.23
810.276	1856.99
810.459	1850.59
810.642	1860.47
810.825	1791.89
811.008	1784.72
811.191	1731.05
811.374	1747.71
811.557	1769.99
811.74	1834.71
811.923	1711.09
812.106	1671.38
812.289	1683.2
812.472	1686.88
812.654	1718.26
812.837	1672.15
813.02	1669.05
813.203	1631.46
813.386	1527.42
813.569	1528.58
813.751	1511.34
813.934	1518.9
814.117	1525.87
814.3	1466.78
814.482	1454.38
814.665	1408.27
814.848	1396.84
815.03	1316.24
815.213	1353.05
815.396	1339.88
815.578	1311.2
815.761	1265.28
815.943	1351.69
816.126	1257.15
816.309	1264.7
816.491	1195.15
816.674	1131.79
816.856	1173.83
817.039	1167.44
817.221	1298.41
817.403	1252.11
817.586	1233.51
817.768	1196.5
817.951	1182.55
818.133	1152.72
818.315	1167.05
818.498	1225.37
818.68	1300.93
818.862	1224.98
819.045	1282.33
819.227	1298.99
819.409	1231.76
819.591	1263.15
819.774	1211.81
819.956	1194.76
820.138	1270.71
820.32	1287.76
820.502	1323.6
820.684	1361.77
820.866	1360.99
821.048	1407.88
821.231	1381.34
821.413	1401.87
821.595	1393.54
821.777	1394.51
821.959	1350.14
822.141	1434.62
822.323	1296.09
822.505	1299.77
822.686	1233.51
822.868	1194.37
823.05	1111.64
823.232	1100.4
823.414	1026.2
823.596	1119.58
823.778	1093.04
823.96	1126.17
824.141	1113.77
824.323	1131.4
824.505	1202.9
824.687	1219.75
824.868	1231.76
825.05	1350.53
825.232	1332.71
825.413	1407.49
825.595	1345.69
825.777	1300.74
825.958	1382.69
826.14	1305.39
826.321	1332.9
826.503	1368.94
826.685	1376.69
826.866	1404.39
827.048	1350.53
827.229	1329.99
827.411	1317.01
827.592	1262.18
827.773	1260.83
827.955	1216.65
828.136	1233.31
828.318	1176.35
828.499	1219.75
828.68	1174.22
828.862	1226.34
829.043	1242.23
829.224	1233.12
829.406	1197.08
829.587	1195.15
829.768	1205.61
829.949	1225.95
830.131	1217.43
830.312	1255.4
830.493	1229.25
830.674	1216.26
830.855	1211.81
831.036	1224.21
831.218	1233.12
831.399	1306.74
831.58	1249.59
831.761	1183.13
831.942	1232.54
832.123	1216.85
832.304	1177.9
832.485	1167.83
832.666	1203.67
832.847	1215.88
833.028	1205.03
833.209	1220.91
833.389	1200.96
833.57	1151.36
833.751	1148.45
833.932	1257.53
834.113	1245.91
834.294	1209.48
834.475	1276.91
834.655	1265.09
834.836	1264.51
835.017	1252.3
835.198	1184.68
835.378	1215.88
835.559	1250.17
835.74	1210.84
835.92	1234.67
836.101	1193.98
836.281	1278.84
836.462	1276.71
836.643	1277.88
836.823	1287.18
837.004	1263.54
837.184	1317.59
837.365	1307.13
837.545	1325.34
837.726	1245.33
837.906	1302.68
838.087	1260.44
838.267	1283.11
838.448	1252.69
838.628	1298.61
838.808	1242.61
838.989	1344.33
839.169	1233.12
839.349	1314.49
839.53	1312.56
839.71	1303.64
839.89	1258.7
840.07	1332.13
840.251	1231.18
840.431	1285.82
840.611	1299.77
840.791	1216.46
840.971	1305.78
841.151	1283.11
841.332	1246.68
841.512	1306.36
841.692	1206.77
841.872	1257.92
842.052	1214.13
842.232	1288.53
842.412	1195.34
842.592	1261.41
842.772	1284.27
842.952	1265.67
843.132	1241.45
843.312	1203.67
843.492	1205.8
843.672	1253.46
843.851	1195.34
844.031	1248.62
844.211	1229.83
844.391	1212.78
844.571	1222.27
844.751	1231.76
844.93	1228.08
845.11	1182.55
845.29	1263.93
845.47	1254.05
845.649	1224.4
845.829	1251.91
846.009	1194.18
846.188	1203.86
846.368	1228.08
846.547	1220.91
846.727	1272.06
846.907	1197.08
847.086	1235.06
847.266	1265.48
847.445	1211.42
847.625	1208.9
847.804	1151.36
847.984	1224.98
848.163	1166.28
848.343	1181.78
848.522	1196.5
848.701	1205.8
848.881	1162.21
849.06	1208.71
849.239	1174.8
849.419	1181
849.598	1153.88
849.777	1133.34
849.957	1115.71
850.136	1075.99
850.315	1082.77
850.494	1081.03
850.674	1074.83
850.853	1159.3
851.032	1118.81
851.211	1164.34
851.39	1120.55
851.569	1082.39
851.748	1073.47
851.927	1129.47
852.107	1123.27
852.286	1063.79
852.465	1065.34
852.644	1116.29
852.823	1142.83
853.002	1104.86
853.181	1114.74
853.359	1123.46
853.538	1043.64
853.717	1137.99
853.896	1039.76
854.075	976.79
854.254	980.86
854.433	919.64
854.611	980.28
854.79	930.87
854.969	973.11
855.148	990.74
855.327	923.71
855.505	976.02
855.684	969.62
855.863	1003.92
856.041	991.71
856.22	1002.37
856.399	970.4
856.577	1087.62
856.756	1040.73
856.934	1164.73
857.113	1181.78
857.291	1069.02
857.47	1028.72
857.648	1039.18
857.827	1054.68
858.005	1078.12
858.184	998.3
858.362	1142.64
858.541	1051.19
858.719	1048.09
858.898	1018.64
859.076	1018.25
859.254	1081.61
859.433	1021.94
859.611	1025.81
859.789	981.83
859.967	1087.03
860.146	1079.67
860.324	1002.56
860.502	1031.62
860.68	987.64
860.859	979.31
861.037	1012.05
861.215	1026.39
861.393	1032.98
861.571	1008.18
861.749	998.49
861.927	1018.45
862.105	1017.67
862.283	1014.38
862.461	983.57
862.639	978.15
862.817	1000.82
862.995	970.21
863.173	954.51
863.351	964.97
863.529	1018.06
863.707	1037.44
863.885	984.93
864.063	923.32
864.241	935.14
864.418	1051.19
864.596	949.86
864.774	942.31
864.952	958.39
865.129	997.72
865.307	977.76
865.485	910.14
865.663	977.18
865.84	888.25
866.018	919.64
866.196	820.25
866.373	840.01
866.551	834.19
866.728	759.41
866.906	843.3
867.084	843.88
867.261	862.29
867.439	873.14
867.616	882.63
867.794	890.96
867.971	907.24
868.149	881.86
868.326	939.21
868.503	891.35
868.681	892.9
868.858	858.41
869.035	872.75
869.213	942.89
869.39	902.98
869.567	958.97
869.745	885.73
869.922	892.13
870.099	922.54
870.276	906.46
870.454	915.76
870.631	899.29
870.808	877.01
870.985	900.46
871.162	957.22
871.339	902.01
871.517	862.09
871.694	863.26
871.871	883.41
872.048	883.02
872.225	882.83
872.402	874.88
872.579	847.18
872.756	890.19
872.933	834.97
873.11	846.98
873.287	872.56
873.463	827.41
873.64	839.43
873.817	843.88
873.994	845.04
874.171	838.65
874.348	868.68
874.524	795.06
874.701	848.14
874.878	763.86
875.055	856.09
875.231	809.98
875.408	864.03
875.585	772.78
875.762	832.64
875.938	814.05
876.115	816.18
876.291	808.62
876.468	819.28
876.645	757.47
876.821	798.55
876.998	814.24
877.174	814.63
877.351	808.43
877.527	776.26
877.704	803.58
877.88	802.23
878.057	768.32
878.233	882.63
878.409	779.56
878.586	826.25
878.762	781.69
878.938	800.29
879.115	732.48
879.291	785.56
879.467	754.37
879.644	746.81
879.82	802.42
879.996	750.5
880.172	710.97
880.349	766.58
880.525	803
880.701	723.76
880.877	768.71
881.053	748.36
881.229	737.13
881.405	821.41
881.581	763.86
881.757	744.68
881.933	757.66
882.109	810.95
882.285	740.23
882.461	723.95
882.637	725.5
882.813	700.32
882.989	731.12
883.165	781.5
883.341	719.3
883.517	809.4
883.693	773.16
883.869	765.61
884.044	712.33
884.22	768.13
884.396	776.26
884.572	745.85
884.747	759.99
884.923	745.46
885.099	772.39
885.275	838.07
885.45	731.12
885.626	713.49
885.801	722.02
885.977	750.3
886.153	654.2
886.328	766.38
886.504	714.27
886.679	728.41
886.855	704.58
887.03	762.31
887.206	777.23
887.381	750.88
887.557	746.43
887.732	772
887.908	737.9
888.083	774.52
888.258	747.2
888.434	735.96
888.609	747.01
888.784	799.9
888.96	727.44
889.135	696.05
889.31	723.37
889.485	753.6
889.661	741
889.836	780.14
890.011	740.81
890.186	726.67
890.361	700.12
890.537	751.85
890.712	767.74
890.887	762.9
891.062	731.12
891.237	773.16
891.412	696.63
891.587	745.26
891.762	785.95
891.937	775.88
892.112	695.47
892.287	743.52
892.462	670.67
892.637	663.7
892.812	667.18
892.987	682.49
893.161	661.18
893.336	685.2
893.511	689.27
893.686	685.98
893.861	666.8
894.035	670.28
894.21	668.15
894.385	634.83
894.56	681.13
894.734	601.31
894.909	623.2
895.084	641.22
895.258	622.62
895.433	637.15
895.608	600.15
895.782	569.34
895.957	606.15
896.131	581.35
896.306	561.98
896.48	509.86
896.655	556.36
896.829	487.58
897.004	471.69
897.178	498.43
897.353	470.92
897.527	529.24
897.701	525.94
897.876	462.98
898.05	551.32
898.224	529.04
898.399	550.16
898.573	498.04
898.747	402.91
898.921	503.66
899.096	437.79
899.27	403.69
899.444	406.4
899.618	428.29
899.792	459.88
899.967	428.29
900.141	469.18
900.315	418.22
900.489	422.87
900.663	435.08
900.837	471.69
901.011	414.34
901.185	488.94
901.359	459.29
901.533	414.54
901.707	447.67
901.881	445.54
902.055	423.45
902.229	437.01
902.403	496.11
902.576	441.86
902.75	443.21
902.924	549.97
903.098	503.27
903.272	501.34
903.446	548.81
903.619	528.46
903.793	544.54
903.967	507.73
904.14	589.49
904.314	569.15
904.488	528.46
904.661	602.47
904.835	553.65
905.009	587.75
905.182	604.8
905.356	576.7
905.529	549.97
905.703	518.97
905.876	540.47
906.05	509.28
906.223	511.99
906.397	448.83
906.57	447.09
906.744	413.76
906.917	443.79
907.09	435.08
907.264	414.54
907.437	419.19
907.61	390.32
907.784	413.38
907.957	421.32
908.13	391.09
908.304	455.03
908.477	400.78
908.65	397.88
908.823	355.64
908.996	468.01
909.17	390.32
909.343	398.07
909.516	405.04
909.689	408.14
909.862	383.15
910.035	390.51
910.208	351.18
910.381	344.21
910.554	467.04
910.727	404.08
910.9	385.09
911.073	371.53
911.246	439.14
911.419	442.24
911.592	437.01
911.765	359.71
911.938	360.68
912.11	376.37
912.283	400.98
912.456	417.83
912.629	385.67
912.802	377.92
912.974	347.7
913.147	320.18
913.32	288.8
913.493	325.03
913.665	350.8
913.838	330.65
914.01	323.09
914.183	324.83
914.356	338.4
914.528	356.22
914.701	385.67
914.873	375.21
915.046	328.32
915.218	329.87
915.391	259.54
915.563	279.69
915.736	350.02
915.908	342.66
916.081	317.08
916.253	310.11
916.425	372.3
916.598	364.36
916.77	343.63
916.942	347.11
917.115	257.22
917.287	329.87
917.459	312.24
917.632	278.92
917.804	250.63
917.976	311.85
918.148	317.66
918.32	306.62
918.493	356.03
918.665	361.06
918.837	333.55
919.009	401.36
919.181	355.83
919.353	342.66
919.525	352.15
919.697	326.77
919.869	338.01
920.041	381.6
920.213	465.49
920.385	385.86
920.557	325.61
920.729	374.63
920.901	358.93
921.073	365.13
921.244	355.64
921.416	399.43
921.588	335.3
921.76	361.06
921.932	392.84
922.103	320.57
922.275	346.34
922.447	327.74
922.619	269.03
922.79	325.03
922.962	326.77
923.134	347.31
923.305	310.69
923.477	302.16
923.648	290.93
923.82	297.13
923.991	257.6
924.163	242.68
924.335	312.43
924.506	260.51
924.677	342.27
924.849	271.94
925.02	281.24
925.192	313.21
925.363	292.48
925.535	323.48
925.706	309.14
925.877	342.08
926.049	270.78
926.22	333.16
926.391	301
926.562	306.04
926.734	266.71
926.905	332.78
927.076	245.2
927.247	274.46
927.419	260.51
927.59	236.68
927.761	274.65
927.932	224.47
928.103	275.62
928.274	225.63
928.445	204.52
928.616	238.03
928.787	208.97
928.958	253.34
929.129	236.29
929.3	189.02
929.471	176.42
929.642	142.52
929.813	111.91
929.984	200.25
930.155	101.83
930.326	158.02
930.496	146.97
930.667	96.41
930.838	153.37
931.009	108.42
931.18	116.75
931.35	127.79
931.521	109
931.692	78.58
931.863	44.67
932.033	120.62
932.204	132.64
932.374	110.74
932.545	53.78
932.716	134.77
932.886	117.91
933.057	37.31
933.227	69.86
933.398	122.76
933.568	37.12
933.739	7.86
933.909	47.19
934.08	34.79
934.25	3.6
934.421	17.36
934.591	76.26
934.761	12.9
934.932	-8.41
935.102	54.17
935.272	34.21
935.443	46.22
935.613	14.06
935.783	40.99
935.953	10.19
936.123	199.29
936.294	0.11
936.464	24.91
936.634	6.31
936.804	-1.44
936.974	-25.07
937.144	69.47
937.314	38.09
937.484	19.68
937.655	-11.32
937.825	69.67
937.995	22.01
938.165	52.62
938.334	22.01
938.504	54.94
938.674	11.35
938.844	49.91
939.014	77.03
939.184	56.88
939.354	120.62
939.524	125.27
939.694	50.68
939.863	38.28
940.033	110.55
940.203	111.52
940.373	103.77
940.542	117.33
940.712	64.63
940.882	103.77
941.051	115.78
941.221	82.26
941.391	129.92
941.56	57.07
941.73	48.74
941.899	199.48
942.069	80.13
942.238	92.14
942.408	74.12
942.577	96.79
942.747	59.59
942.916	30.73
943.086	36.54
943.255	83.42
943.425	65.79
943.594	23.75
943.763	1.86
943.933	27.04
944.102	-15.97
944.271	67.15
944.441	55.72
944.61	22.01
944.779	51.46
944.948	152.01
945.117	34.6
945.287	24.53
945.456	-9.19
945.625	12.9
945.794	72.57
945.963	39.83
946.132	61.34
946.301	40.99
946.47	75.09
946.639	11.54
946.808	50.87
946.977	50.1
947.146	97.76
947.315	38.67
947.484	88.07
947.653	13.09
947.822	24.91
947.991	40.02
948.16	128.18
948.329	92.53
948.498	90.79
948.666	44.29
948.835	65.6
949.004	23.36
949.173	4.18
949.341	70.83
949.51	71.99
949.679	109.77
949.847	73.93
950.016	144.26
950.185	120.43
950.353	33.05
950.522	44.67
950.69	100.09
950.859	24.53
951.028	90.79
951.196	65.41
951.365	48.55
951.533	49.71
951.701	71.99
951.87	81.68
952.038	19.88
952.207	58.04
952.375	129.15
952.543	41.96
952.712	53.39
952.88	56.3
953.048	79.16
953.217	62.11
953.385	33.44
953.553	86.72
953.721	4.76
953.89	36.54
954.058	3.6
954.226	11.93
954.394	54.75
954.562	-5.12
954.73	46.03
954.898	54.75
955.067	75.48
955.235	32.86
955.403	68.89
955.571	110.55
955.739	65.79
955.907	28.21
956.075	34.99
956.243	40.22
956.41	68.89
956.578	6.89
956.746	-4.73
956.914	24.53
957.082	35.96
957.25	68.31
957.418	33.24
957.585	48.74
957.753	105.51
957.921	26.08
958.089	37.12
958.256	62.11
958.424	91.76
958.592	44.09
958.759	9.22
958.927	88.27
959.095	26.85
959.262	57.85
959.43	58.04
959.597	8.83
959.765	46.42
959.932	16.97
960.1	69.28
960.267	63.66
960.435	31.31
960.602	86.91
960.77	43.32
960.937	24.53
961.104	62.11
961.272	10.38
961.439	39.44
961.606	62.5
961.774	91.76
961.941	65.02
962.108	73.35
962.275	67.34
962.443	92.72
962.61	66.96
962.777	117.91
962.944	72.57
963.111	42.93
963.278	76.45
963.446	83.42
963.613	84.39
963.78	99.89
963.947	87.69
964.114	87.49
964.281	128.37
964.448	93.89
964.615	28.4
964.782	84.39
964.949	113.46
965.116	64.05
965.282	103.38
965.449	46.42
965.616	28.59
965.783	96.79
965.95	70.83
966.117	26.46
966.283	88.46
966.45	83.04
966.617	77.42
966.784	104.54
966.95	96.02
967.117	92.14
967.284	39.06
967.45	48.16
967.617	135.15
967.784	75.48
967.95	114.81
968.117	72.77
968.283	122.95
968.45	174.1
968.616	90.01
968.783	126.63
968.949	92.53
969.116	106.48
969.282	67.54
969.449	119.27
969.615	83.23
969.781	37.31
969.948	52.81
970.114	35.38
970.28	135.35
970.447	76.84
970.613	93.11
970.779	44.09
970.945	103.77
971.112	88.07
971.278	72.38
971.444	58.43
971.61	89.04
971.776	68.12
971.942	89.62
972.108	89.82
972.275	82.65
972.441	103.96
972.607	144.26
972.773	68.7
972.939	90.4
973.105	71.61
973.271	35.57
973.437	73.16
973.602	23.36
973.768	81.1
973.934	54.17
974.1	100.67
974.266	11.54
974.432	68.31
974.598	67.54
974.763	104.16
974.929	66.18
975.095	135.15
975.261	43.51
975.426	43.71
975.592	65.6
975.758	146
975.923	43.12
976.089	41.38
976.255	99.31
976.42	108.42
976.586	105.32
976.751	70.64
976.917	164.02
977.082	96.99
977.248	34.21
977.413	-8.8
977.579	61.14
977.744	72.96
977.91	37.7
978.075	49.71
978.24	113.65
978.406	64.24
978.571	60.95
978.736	26.85
978.902	92.34
979.067	34.41
979.232	16.78
979.397	59.79
979.563	121.4
979.728	58.62
979.893	66.37
980.058	32.66
980.223	109.97
980.388	39.44
980.554	54.36
980.719	32.28
980.884	34.02
981.049	106.87
981.214	64.82
981.379	98.34
981.544	52.62
981.709	67.92
981.874	51.07
982.039	53.97
982.204	98.73
982.368	52.23
982.533	55.91
982.698	108.61
982.863	101.44
983.028	56.49
983.193	72.96
983.357	73.93
983.522	65.41
983.687	34.41
983.852	55.52
984.016	48.55
984.181	80.13
984.346	79.16
984.51	89.04
984.675	59.79
984.839	84.01
985.004	78.58
985.168	89.43
985.333	84.78
985.498	59.21
985.662	94.66
985.827	88.46
985.991	76.26
986.155	51.84
986.32	88.07
986.484	129.73
986.649	75.29
986.813	18.52
986.977	56.11
987.142	70.44
987.306	24.91
987.47	39.25
987.634	72.96
987.799	99.12
987.963	83.23
988.127	91.17
988.291	118.3
988.455	78
988.62	47.97
988.784	73.35
988.948	89.04
989.112	42.16
989.276	57.46
989.44	74.51
989.604	15.42
989.768	39.25
989.932	153.75
990.096	33.63
990.26	26.46
990.424	17.55
990.588	44.48
990.752	134.19
990.915	76.06
991.079	51.65
991.243	37.31
991.407	77.22
991.571	56.3
991.734	105.71
991.898	81.1
992.062	187.27
992.226	50.87
992.389	17.36
992.553	-0.66
992.717	36.34
992.88	48.36
993.044	73.35
993.207	36.34
993.371	84.39
993.535	67.54
993.698	61.92
993.862	103.77
994.025	114.81
994.189	67.73
994.352	79.74
994.515	55.72
994.679	69.47
994.842	64.24
995.006	82.07
995.169	37.89
995.332	28.01
995.496	86.33
995.659	11.54
995.822	64.44
995.985	73.35
996.149	134.38
996.312	50.1
996.475	106.09
996.638	8.06
996.801	87.49
996.964	130.5
997.128	66.96
997.291	34.02
997.454	82.07
997.617	21.62
997.78	84.01
997.943	44.48
998.106	69.86
998.269	60.95
998.432	39.44
998.595	65.41
998.758	-1.05
998.92	34.99
999.083	-25.27
999.246	44.09
999.409	1.08
999.572	-4.54
999.735	41.77
999.897	61.14
1000.06	23.75
1000.223	35.96
1000.386	80.32
1000.548	73.93
1000.711	76.26
1000.874	55.33
1001.036	6.12
1001.199	66.57
1001.361	49.91
1001.524	56.49
1001.687	79.55
1001.849	14.06
1002.012	74.71
1002.174	48.55
1002.337	46.03
1002.499	51.65
1002.661	61.14
1002.824	-11.9
1002.986	5.54
1003.149	47.39
1003.311	43.32
1003.473	97.96
1003.636	34.79
1003.798	58.43
1003.96	72.96
1004.123	31.11
1004.285	41.77
1004.447	37.7
1004.609	43.32
1004.771	121.98
1004.933	9.22
1005.096	34.02
1005.258	1.66
1005.42	34.21
1005.582	74.32
1005.744	53.39
1005.906	-12.67
1006.068	35.76
1006.23	21.43
1006.392	3.21
1006.554	-2.41
1006.716	109
1006.878	55.52
1007.04	-16.16
1007.202	3.21
1007.363	47.58
1007.525	40.41
1007.687	30.34
1007.849	70.83
1008.011	-10.54
1008.172	-4.54
1008.334	28.59
1008.496	71.02
1008.658	-7.06
1008.819	10.58
1008.981	8.25
1009.143	-5.51
1009.304	26.08
1009.466	40.99
1009.627	94.27
1009.789	122.95
1009.95	32.08
1010.112	26.85
1010.273	59.59
1010.435	9.99
1010.596	2.83
1010.758	18.13
1010.919	15.23
1011.081	-8.99
1011.242	14.26
1011.403	51.46
1011.565	26.85
1011.726	50.68
1011.887	17.36
1012.049	34.6
1012.21	71.41
1012.371	59.79
1012.532	-40.38
1012.693	28.21
1012.855	10.77
1013.016	24.53
1013.177	31.11
1013.338	29.37
1013.499	100.28
1013.66	47.97
1013.821	43.51
1013.982	42.54
1014.143	39.06
1014.304	27.82
1014.465	42.35
1014.626	33.05
1014.787	35.96
1014.948	75.67
1015.109	-34.76
1015.27	42.93
1015.431	19.68
1015.592	15.03
1015.752	103.96
1015.913	43.51
1016.074	52.04
1016.235	30.73
1016.395	31.5
1016.556	9.41
1016.717	13.29
1016.877	52.62
1017.038	12.13
1017.199	26.85
1017.359	53.2
1017.52	13.09
1017.681	23.94
1017.841	18.33
1018.002	7.48
1018.162	18.71
1018.323	57.27
1018.483	39.06
1018.644	-8.22
1018.804	1.47
1018.964	2.05
1019.125	1.66
1019.285	14.06
1019.446	-18.1
1019.606	-12.29
1019.766	-50.07
1019.926	40.61
1020.087	31.31
1020.247	-31.08
1020.407	26.85
1020.567	59.59
1020.728	4.57
1020.888	-21.2
1021.048	-10.35
1021.208	22.59
1021.368	0.31
1021.528	75.29
1021.688	40.8
1021.848	41.57
1022.008	40.41
1022.168	38.09
1022.328	13.87
1022.488	30.73
1022.648	-24.69
1022.808	13.68
1022.968	9.99
1023.128	2.63
1023.288	19.49
1023.448	7.86
1023.608	52.42
1023.767	25.11
1023.927	2.44
1024.087	-18.68
1024.247	-24.11
1024.406	25.88
1024.566	-12.29
1024.726	-23.52
1024.885	18.71
1025.045	51.84
1025.205	18.52
1025.364	17.94
1025.524	23.17
1025.683	16.97
1025.843	31.5
1026.003	34.41
1026.162	95.63
1026.321	50.49
1026.481	0.5
1026.64	-1.05
1026.8	28.98
1026.959	26.08
1027.119	-0.66
1027.278	25.69
1027.437	9.61
1027.597	16.39
1027.756	25.49
1027.915	15.23
1028.074	22.59
1028.234	-1.05
1028.393	20.26
1028.552	49.32
1028.711	-78.94
1028.87	42.54
1029.03	-35.73
1029.189	20.46
1029.348	-39.99
1029.507	3.41
1029.666	1.86
1029.825	-19.84
1029.984	-18.87
1030.143	33.83
1030.302	-2.21
1030.461	-38.06
1030.62	18.91
1030.779	40.02
1030.938	-11.9
1031.097	-47.74
1031.255	33.44
1031.414	55.52
1031.573	38.28
1031.732	-44.06
1031.891	13.48
1032.049	82.07
1032.208	28.21
1032.367	-25.85
1032.525	2.83
1032.684	1.28
1032.843	8.44
1033.001	-37.67
1033.16	143.68
1033.319	57.27
1033.477	53.97
1033.636	-11.12
1033.794	-26.24
1033.953	35.38
1034.111	49.32
1034.27	-8.22
1034.428	5.15
1034.587	-39.22
1034.745	30.14
1034.903	20.46
1035.062	34.02
1035.22	-8.22
1035.378	27.24
1035.537	-47.36
1035.695	33.05
1035.853	1.28
1036.011	33.05
1036.17	13.68
1036.328	-50.65
1036.486	12.13
1036.644	31.11
1036.802	-52.78
1036.96	-10.35
1037.119	16.39
1037.277	-17.71
1037.435	-25.27
1037.593	10.38
1037.751	15.23
1037.909	40.99
1038.067	40.99
