Data from pine_FLMT105791__197__17-23-51-072.txt Node

Date: Mon Mar 20 17:23:51 GMT 2023
User: antho
Spectrometer: FLMT10579
Trigger mode: 0
Integration Time (sec): 1.000000E-1
Scans to average: 10
Electric dark correction enabled: true
Nonlinearity correction enabled: false
Boxcar width: 0
XAxis mode: Wavelengths
Number of Pixels in Spectrum: 3648
>>>>>Begin Spectral Data<<<<<
345.248	-174.94
345.464	-174.94
345.681	-174.94
345.898	-164.48
346.114	-158.28
346.331	-34.08
346.548	39.93
346.764	-6.96
346.981	-1.53
347.197	-23.04
347.414	6.8
347.631	-28.66
347.847	63.37
348.064	-2.12
348.28	14.16
348.497	-39.9
348.713	12.03
348.93	24.82
349.146	14.74
349.363	8.54
349.579	22.68
349.796	9.7
350.012	-18
350.229	25.59
350.445	0.02
350.661	-18.78
350.878	-5.41
351.094	7.77
351.311	17.07
351.527	32.95
351.743	6.41
351.96	37.99
352.176	54.27
352.392	25.4
352.609	22.68
352.825	-10.25
353.041	-1.92
353.257	-15.1
353.474	14.74
353.69	40.7
353.906	5.63
354.122	-40.09
354.339	41.09
354.555	-11.41
354.771	2.34
354.987	46.52
355.203	40.51
355.42	-7.54
355.636	-23.81
355.852	-23.81
356.068	-1.92
356.284	-33.89
356.5	49.23
356.716	14.16
356.932	1.37
357.148	52.52
357.364	-2.31
357.58	42.25
357.796	38.77
358.012	57.37
358.228	3.5
358.444	-56.75
358.66	46.52
358.876	31.4
359.092	-26.14
359.308	34.31
359.524	35.67
359.74	10.67
359.956	1.37
360.172	12.42
360.388	50.39
360.604	-18
360.819	90.69
361.035	18.03
361.251	1.18
361.467	-15.48
361.683	32.37
361.898	-8.9
362.114	16.68
362.33	17.07
362.546	50.78
362.762	0.98
362.977	10.67
363.193	-22.07
363.409	37.02
363.624	-16.84
363.84	-8.7
364.056	-10.06
364.271	10.67
364.487	33.53
364.703	-14.13
364.918	-8.31
365.134	24.04
365.35	-1.34
365.565	71.9
365.781	3.89
365.996	4.67
366.212	69.57
366.427	31.6
366.643	-11.03
366.858	-3.67
367.074	6.6
367.289	42.06
367.505	91.85
367.72	-56.95
367.936	-8.7
368.151	37.02
368.367	15.32
368.582	13.58
368.798	-17.03
369.013	61.43
369.228	40.9
369.444	13.19
369.659	46.32
369.874	25.59
370.09	39.35
370.305	-45.13
370.52	-35.44
370.736	61.63
370.951	20.36
371.166	60.85
371.381	51.55
371.597	39.73
371.812	-44.16
372.027	-19.55
372.242	-2.31
372.458	87.78
372.673	8.35
372.888	-25.95
373.103	46.9
373.318	68.22
373.533	-0.76
373.749	33.15
373.964	-37.96
374.179	70.73
374.394	-13.74
374.609	55.43
374.824	-20.52
375.039	39.73
375.254	-18.2
375.469	71.32
375.684	9.12
375.899	59.69
376.114	4.47
376.329	30.05
376.544	20.75
376.759	16.68
376.974	7.38
377.189	3.5
377.404	-2.12
377.619	41.28
377.834	-37.18
378.049	-35.63
378.264	-37.76
378.478	13.19
378.693	-28.46
378.908	36.44
379.123	-17.23
379.338	42.83
379.553	4.28
379.767	23.46
379.982	30.43
380.197	46.32
380.412	16.48
380.626	24.62
380.841	85.65
381.056	8.73
381.271	80.61
381.485	1.18
381.7	-25.56
381.915	7.77
382.129	-24.01
382.344	16.29
382.559	11.83
382.773	43.03
382.988	-47.06
383.202	25.78
383.417	-17.42
383.632	97.66
383.846	-8.51
384.061	32.37
384.275	-1.73
384.49	24.62
384.704	49.42
384.919	12.03
385.133	10.28
385.348	16.48
385.562	-32.92
385.777	47.87
385.991	12.8
386.206	4.08
386.42	9.32
386.634	30.43
386.849	13.38
387.063	4.47
387.277	-35.63
387.492	-8.7
387.706	7.38
387.92	-24.98
388.135	32.37
388.349	8.93
388.563	13.58
388.778	13.97
388.992	37.99
389.206	10.09
389.42	66.86
389.635	20.94
389.849	34.31
390.063	65.7
390.277	-6.38
390.491	71.51
390.706	16.29
390.92	34.89
391.134	8.15
391.348	42.64
391.562	-48.23
391.776	-7.73
391.99	-8.12
392.205	12.61
392.419	-10.83
392.633	-6.57
392.847	42.83
393.061	-28.08
393.275	62.79
393.489	-6.18
393.703	54.85
393.917	40.9
394.131	-12.38
394.345	32.37
394.559	48.45
394.773	32.37
394.986	24.82
395.2	5.25
395.414	32.18
395.628	-6.96
395.842	-0.37
396.056	-20.71
396.27	-40.28
396.484	27.72
396.697	37.8
396.911	60.27
397.125	49.42
397.339	54.46
397.553	37.02
397.766	61.24
397.98	29.66
398.194	51.94
398.408	-24.98
398.621	18.62
398.835	41.67
399.049	6.8
399.262	51.17
399.476	44.19
399.69	49.62
399.903	81.78
400.117	-9.67
400.331	30.05
400.544	-0.76
400.758	118.2
400.971	35.47
401.185	40.7
401.398	-20.33
401.612	58.14
401.826	60.66
402.039	30.82
402.253	11.83
402.466	65.12
402.68	-6.38
402.893	41.87
403.106	25.2
403.32	9.7
403.533	18.23
403.747	16.1
403.96	10.28
404.174	50.78
404.387	-22.46
404.6	6.41
404.814	56.4
405.027	15.13
405.24	27.72
405.454	14.55
405.667	66.08
405.88	-31.56
406.094	7.38
406.307	47.68
406.52	23.65
406.733	6.41
406.947	-23.23
407.16	66.28
407.373	55.23
407.586	11.64
407.799	-13.35
408.012	60.47
408.226	64.92
408.439	65.89
408.652	-20.91
408.865	25.01
409.078	48.84
409.291	39.35
409.504	-22.85
409.717	28.5
409.93	16.1
410.143	14.16
410.357	-10.06
410.57	-12.58
410.783	19
410.996	41.09
411.209	29.47
411.421	82.94
411.634	3.7
411.847	-9.86
412.06	32.37
412.273	6.02
412.486	29.85
412.699	131.38
412.912	14.74
413.125	47.68
413.338	-4.05
413.55	56.4
413.763	19.2
413.976	55.82
414.189	-20.52
414.402	-18.97
414.615	75
414.827	-24.78
415.04	72.09
415.253	41.28
415.466	49.23
415.678	73.45
415.891	7.77
416.104	15.71
416.316	7.38
416.529	10.09
416.742	27.92
416.954	41.28
417.167	0.02
417.38	2.34
417.592	44.58
417.805	-2.5
418.017	-31.37
418.23	46.9
418.442	-11.22
418.655	22.88
418.868	45.74
419.08	46.9
419.293	75.58
419.505	24.62
419.718	32.37
419.93	31.6
420.142	12.61
420.355	47.29
420.567	52.33
420.78	54.27
420.992	26.37
421.205	102.12
421.417	-21.68
421.629	14.74
421.842	-8.7
422.054	-7.93
422.266	38.77
422.479	71.7
422.691	-3.67
422.903	54.85
423.115	-27.5
423.328	28.5
423.54	49.42
423.752	36.63
423.964	-14.9
424.177	21.33
424.389	8.93
424.601	102.7
424.813	53.3
425.025	38.77
425.238	48.07
425.45	-5.8
425.662	3.31
425.874	329.39
426.086	43.22
426.298	33.92
426.51	42.45
426.722	17.84
426.934	7.96
427.146	49.62
427.358	-36.6
427.57	36.05
427.782	25.01
427.994	24.62
428.206	8.73
428.418	-7.35
428.63	36.63
428.842	33.34
429.054	36.05
429.266	65.89
429.478	-12.38
429.69	42.45
429.902	-3.28
430.114	58.92
430.325	56.59
430.537	9.51
430.749	54.27
430.961	0.6
431.173	24.43
431.384	42.25
431.596	-42.03
431.808	10.87
432.02	50.39
432.231	43.8
432.443	48.84
432.655	26.17
432.867	5.05
433.078	17.45
433.29	72.67
433.502	39.54
433.713	59.5
433.925	26.75
434.136	52.91
434.348	-0.37
434.56	-13.93
434.771	104.83
434.983	-22.46
435.194	4.08
435.406	3.7
435.617	32.95
435.829	59.3
436.04	28.11
436.252	25.01
436.463	47.1
436.675	23.85
436.886	37.6
437.098	13.77
437.309	58.92
437.521	11.45
437.732	51.75
437.943	39.73
438.155	27.33
438.366	-25.95
438.578	90.3
438.789	19.39
439	65.12
439.211	29.66
439.423	28.5
439.634	35.86
439.845	41.48
440.057	51.75
440.268	58.72
440.479	3.89
440.69	38.96
440.902	26.75
441.113	30.24
441.324	14.55
441.535	39.15
441.746	73.45
441.957	-1.15
442.168	21.72
442.38	42.83
442.591	56.98
442.802	-7.15
443.013	-2.31
443.224	44.19
443.435	18.23
443.646	9.12
443.857	17.84
444.068	2.34
444.279	24.43
444.49	58.92
444.701	38.96
444.912	126.15
445.123	63.76
445.334	50.97
445.545	30.63
445.756	9.12
445.967	3.31
446.178	60.27
446.388	86.81
446.599	81.78
446.81	48.26
447.021	31.21
447.232	54.07
447.443	101.54
447.653	2.34
447.864	61.05
448.075	26.37
448.286	68.6
448.496	42.45
448.707	67.63
448.918	-1.53
449.129	120.33
449.339	18.62
449.55	70.93
449.761	25.98
449.971	93.6
450.182	45.35
450.393	71.9
450.603	27.33
450.814	62.4
451.024	55.43
451.235	59.3
451.446	63.76
451.656	86.43
451.867	8.15
452.077	71.32
452.288	89.14
452.498	83.91
452.709	51.75
452.919	69.57
453.13	38.96
453.34	73.25
453.55	12.22
453.761	91.27
453.971	78.29
454.182	81.2
454.392	81
454.602	125.56
454.813	48.65
455.023	90.69
455.233	21.91
455.444	43.22
455.654	-2.7
455.864	57.75
456.075	52.33
456.285	40.9
456.495	44.77
456.705	60.85
456.916	97.08
457.126	119.75
457.336	48.45
457.546	-29.82
457.756	9.9
457.967	93.4
458.177	31.6
458.387	52.91
458.597	32.76
458.807	47.87
459.017	48.07
459.227	81.2
459.437	51.36
459.647	73.06
459.857	63.18
460.068	4.08
460.278	74.22
460.488	75.19
460.698	110.84
460.908	37.6
461.117	22.1
461.327	41.28
461.537	59.5
461.747	46.9
461.957	52.13
462.167	131.76
462.377	64.34
462.587	66.47
462.797	72.09
463.007	69.57
463.216	69.38
463.426	114.91
463.636	88.36
463.846	30.43
464.056	59.11
464.265	98.83
464.475	21.33
464.685	42.06
464.895	75
465.104	58.72
465.314	53.49
465.524	46.9
465.733	34.31
465.943	138.74
466.153	132.93
466.362	65.7
466.572	68.41
466.782	69.38
466.991	57.56
467.201	152.88
467.41	23.85
467.62	78.29
467.829	52.72
468.039	78.29
468.249	73.25
468.458	33.73
468.668	109.87
468.877	82.36
469.086	111.23
469.296	107.93
469.505	50
469.715	147.65
469.924	75.19
470.134	112
470.343	100.96
470.552	60.27
470.762	54.46
470.971	33.92
471.18	79.84
471.39	66.08
471.599	28.11
471.808	109.1
472.018	38.77
472.227	105.03
472.436	97.66
472.645	46.9
472.855	27.72
473.064	85.07
473.273	44.97
473.482	94.18
473.691	97.47
473.901	102.9
474.11	79.84
474.319	161.41
474.528	82.94
474.737	121.5
474.946	89.14
475.155	81.39
475.364	95.34
475.573	84.3
475.783	77.13
475.992	78.1
476.201	147.07
476.41	74.42
476.619	52.72
476.828	90.3
477.037	82.16
477.245	61.43
477.454	143
477.663	74.8
477.872	68.02
478.081	117.43
478.29	51.36
478.499	158.89
478.708	70.73
478.917	157.53
479.125	76.74
479.334	117.04
479.543	63.57
479.752	81.97
479.961	76.74
480.169	114.71
480.378	56.01
480.587	175.55
480.796	100.18
481.004	74.22
481.213	89.53
481.422	109.29
481.63	76.55
481.839	110.06
482.048	138.16
482.256	88.17
482.465	109.48
482.674	130.41
482.882	132.15
483.091	202.68
483.299	136.41
483.508	107.55
483.716	100.18
483.925	98.44
484.134	101.54
484.342	86.04
484.551	145.52
484.759	134.28
484.967	120.72
485.176	133.9
485.384	116.65
485.593	150.95
485.801	111.42
486.01	117.04
486.218	121.5
486.426	60.66
486.635	123.63
486.843	96.31
487.051	127.11
487.26	101.35
487.468	138.74
487.676	158.5
487.885	118.59
488.093	118.98
488.301	104.64
488.509	118.4
488.717	140.29
488.926	101.93
489.134	90.69
489.342	114.71
489.55	82.16
489.758	112.2
489.967	89.53
490.175	186.21
490.383	101.73
490.591	148.23
490.799	78.48
491.007	121.5
491.215	118.78
491.423	93.6
491.631	98.05
491.839	112
492.047	129.05
492.255	66.86
492.463	78.29
492.671	102.9
492.879	185.82
493.087	121.69
493.295	154.43
493.503	109.87
493.711	126.73
493.919	153.66
494.127	163.35
494.334	143.78
494.542	97.86
494.75	118.98
494.958	126.53
495.166	165.09
495.374	140.1
495.581	101.35
495.789	116.46
495.997	171.48
496.205	105.8
496.412	118.98
496.62	124.4
496.828	110.06
497.035	91.66
497.243	138.35
497.451	154.82
497.658	117.62
497.866	109.1
498.074	193.96
498.281	100.96
498.489	220.69
498.696	143.2
498.904	141.65
499.112	134.28
499.319	180.2
499.527	118.59
499.734	165.09
499.942	96.5
500.149	111.42
500.357	133.7
500.564	112.58
500.771	159.66
500.979	117.81
501.186	112
501.394	135.06
501.601	150.36
501.808	192.79
502.016	139.9
502.223	143.97
502.43	146.88
502.638	174.58
502.845	128.86
503.052	204.03
503.26	150.95
503.467	235.03
503.674	150.95
503.881	155.79
504.089	230.96
504.296	194.15
504.503	125.76
504.71	179.04
504.917	128.08
505.125	149.59
505.332	134.48
505.539	186.21
505.746	196.86
505.953	185.24
506.16	176.91
506.367	212.75
506.574	195.7
506.781	205.39
506.988	118.2
507.195	172.45
507.402	173.03
507.609	193.76
507.816	126.15
508.023	159.08
508.23	142.42
508.437	136.03
508.644	195.7
508.851	210.04
509.058	214.3
509.265	143.2
509.472	171.68
509.679	248.79
509.885	161.41
510.092	146.68
510.299	157.53
510.506	165.67
510.713	195.51
510.92	157.53
511.126	180.78
511.333	217.4
511.54	183.11
511.746	220.69
511.953	206.55
512.16	212.56
512.367	168.96
512.573	154.82
512.78	177.88
512.987	156.56
513.193	179.04
513.4	130.99
513.606	163.35
513.813	184.85
514.02	173.42
514.226	232.71
514.433	223.79
514.639	138.74
514.846	192.99
515.052	151.72
515.259	174.58
515.465	164.9
515.672	182.72
515.878	266.22
516.085	167.61
516.291	204.42
516.497	150.95
516.704	181.17
516.91	137.96
517.117	141.45
517.323	136.03
517.529	198.99
517.736	179.81
517.942	171.87
518.148	178.26
518.354	205.58
518.561	221.66
518.767	196.28
518.973	231.74
519.179	208.1
519.386	150.75
519.592	154.43
519.798	174.78
520.004	202.68
520.21	150.95
520.417	217.01
520.623	205.58
520.829	203.64
521.035	202.68
521.241	183.49
521.447	211.2
521.653	276.69
521.859	192.6
522.065	175.94
522.271	275.72
522.477	212.75
522.683	233.29
522.889	237.16
523.095	236.78
523.301	220.5
523.507	187.95
523.713	191.63
523.919	195.31
524.125	253.83
524.331	188.14
524.537	260.99
524.742	218.76
524.948	235.81
525.154	228.25
525.36	343.14
525.566	257.89
525.772	295.09
525.977	206.55
526.183	240.84
526.389	270.1
526.595	231.16
526.8	257.31
527.006	212.56
527.212	192.41
527.417	199.58
527.623	189.31
527.829	284.63
528.034	238.91
528.24	256.15
528.446	186.98
528.651	271.07
528.857	242.78
529.062	301.1
529.268	225.93
529.473	211.01
529.679	182.91
529.884	270.68
530.09	245.11
530.295	349.54
530.501	277.46
530.706	269.52
530.912	192.99
531.117	234.06
531.323	242.2
531.528	260.8
531.733	255.57
531.939	237.36
532.144	280.37
532.35	243.56
532.555	294.9
532.76	288.31
532.966	308.66
533.171	280.76
533.376	230.19
533.581	241.81
533.787	248.4
533.992	273.01
534.197	331.91
534.402	223.99
534.607	246.27
534.813	378.4
535.018	252.66
535.223	256.34
535.428	271.46
535.633	274.56
535.838	288.7
536.043	263.71
536.249	327.84
536.454	257.7
536.659	282.5
536.864	265.64
537.069	265.84
537.274	279.79
537.479	296.64
537.684	271.26
537.889	235.81
538.094	343.72
538.299	266.61
538.504	296.84
538.708	307.69
538.913	304.01
539.118	276.88
539.323	301.29
539.528	244.72
539.733	271.84
539.938	296.64
540.142	315.44
540.347	279.79
540.552	277.27
540.757	314.66
540.962	295.09
541.166	252.66
541.371	237.16
541.576	297.03
541.781	169.16
541.985	276.11
542.19	281.14
542.395	315.05
542.599	357.67
542.804	332.68
543.008	355.35
543.213	275.72
543.418	247.24
543.622	305.75
543.827	262.74
544.031	347.79
544.236	346.63
544.44	290.44
544.645	351.86
544.849	273.59
545.054	315.24
545.258	356.7
545.463	362.32
545.667	267
545.872	338.11
546.076	311.76
546.281	305.75
546.485	254.99
546.689	311.76
546.894	333.26
547.098	304.59
547.302	245.49
547.507	297.03
547.711	306.14
547.915	372.01
548.119	275.72
548.324	304.2
548.528	372.79
548.732	313.89
548.936	336.36
549.141	342.17
549.345	266.22
549.549	285.02
549.753	266.22
549.957	380.34
550.161	354.96
550.366	289.67
550.57	291.02
550.774	277.27
550.978	295.29
551.182	300.13
551.386	311.37
551.59	268.36
551.794	322.22
551.998	324.74
552.202	304.01
552.406	257.31
552.61	300.52
552.814	322.22
553.018	359.8
553.222	272.42
553.426	318.73
553.63	398.55
553.833	293.16
554.037	254.21
554.241	342.75
554.445	276.3
554.649	306.14
554.853	271.26
555.056	323.96
555.26	349.15
555.464	339.46
555.668	316.21
555.871	315.63
556.075	354.19
556.279	290.06
556.483	239.49
556.686	289.67
556.89	313.5
557.094	337.14
557.297	282.69
557.501	351.86
557.704	273.59
557.908	345.08
558.112	262.54
558.315	372.79
558.519	300.71
558.722	305.94
558.926	293.35
559.129	277.27
559.333	254.6
559.536	272.23
559.74	267.19
559.943	298.97
560.147	237.74
560.35	311.95
560.553	264.87
560.757	219.34
560.96	352.64
561.164	274.36
561.367	331.71
561.57	288.89
561.774	322.99
561.977	297.03
562.18	268.36
562.384	372.59
562.587	276.69
562.79	251.69
562.993	286.76
563.197	314.47
563.4	353.6
563.603	357.29
563.806	408.82
564.009	250.34
564.212	317.18
564.416	257.7
564.619	312.92
564.822	274.75
565.025	333.46
565.228	301.1
565.431	309.04
565.634	226.7
565.837	302.84
566.04	275.91
566.243	289.47
566.446	221.28
566.649	313.69
566.852	252.86
567.055	259.64
567.258	361.74
567.461	349.54
567.664	329.39
567.867	259.44
568.07	319.51
568.273	297.22
568.475	340.24
568.678	289.86
568.881	294.71
569.084	291.41
569.287	227.86
569.489	237.94
569.692	305.75
569.895	318.54
570.098	276.3
570.3	236.39
570.503	191.05
570.706	229.99
570.909	232.51
571.111	232.51
571.314	236.39
571.516	256.73
571.719	269.13
571.922	245.3
572.124	249.76
572.327	242.39
572.529	218.95
572.732	185.82
572.935	264.29
573.137	287.15
573.34	245.3
573.542	287.73
573.745	284.24
573.947	253.83
574.15	264.48
574.352	223.41
574.554	331.91
574.757	248.59
574.959	242.78
575.162	194.54
575.364	224.57
575.566	356.32
575.769	238.33
575.971	260.8
576.173	161.21
576.376	276.49
576.578	263.32
576.78	335.01
576.982	153.27
577.185	225.34
577.387	222.44
577.589	214.88
577.791	261.96
577.993	253.83
578.196	218.56
578.398	276.88
578.6	304.39
578.802	211.39
579.004	227.86
579.206	250.14
579.408	239.29
579.61	231.74
579.812	237.36
580.014	225.73
580.216	214.49
580.418	224.38
580.62	188.73
580.822	167.41
581.024	237.16
581.226	268.16
581.428	188.53
581.63	298.97
581.832	203.06
582.034	282.69
582.236	233.29
582.438	259.44
582.64	267
582.841	305.36
583.043	285.99
583.245	288.7
583.447	273.97
583.649	214.88
583.85	244.72
584.052	277.27
584.254	208.29
584.456	293.16
584.657	219.34
584.859	232.13
585.061	203.45
585.262	232.9
585.464	194.73
585.666	264.09
585.867	242.59
586.069	305.75
586.27	275.33
586.472	247.04
586.674	227.09
586.875	246.46
587.077	245.69
587.278	241.62
587.48	218.18
587.681	333.07
587.883	235.03
588.084	196.86
588.285	200.74
588.487	226.7
588.688	250.14
588.89	187.76
589.091	184.85
589.292	218.56
589.494	234.06
589.695	250.53
589.896	166.64
590.098	169.35
590.299	226.12
590.5	181.36
590.702	203.26
590.903	228.64
591.104	266.03
591.305	224.38
591.507	286.76
591.708	244.53
591.909	214.49
592.11	292.96
592.311	242.78
592.512	250.92
592.714	167.41
592.915	179.81
593.116	198.03
593.317	215.85
593.518	216.43
593.719	222.83
593.92	229.41
594.121	290.64
594.322	227.67
594.523	218.76
594.724	187.76
594.925	209.84
595.126	246.08
595.327	236.78
595.528	242.2
595.729	258.09
595.929	203.26
596.13	234.84
596.331	217.01
596.532	228.06
596.733	302.65
596.934	254.02
597.135	229.99
597.335	214.3
597.536	192.99
597.737	221.47
597.938	204.61
598.138	238.91
598.339	200.93
598.54	249.56
598.74	231.35
598.941	260.41
599.142	288.7
599.342	245.11
599.543	171.29
599.744	200.74
599.944	230.96
600.145	188.92
600.345	222.44
600.546	290.83
600.746	258.67
600.947	287.34
601.147	226.12
601.348	251.5
601.548	203.26
601.749	229.99
601.949	200.35
602.15	203.64
602.35	242.39
602.551	271.65
602.751	187.37
602.951	212.56
603.152	152.3
603.352	248.01
603.552	215.66
603.753	250.34
603.953	247.04
604.153	192.41
604.354	210.43
604.554	203.84
604.754	245.11
604.954	172.45
605.155	215.27
605.355	220.11
605.555	252.08
605.755	261.96
605.955	214.11
606.155	254.02
606.356	228.83
606.556	258.28
606.756	259.83
606.956	189.31
607.156	260.99
607.356	192.41
607.556	229.99
607.756	231.74
607.956	300.13
608.156	246.27
608.356	220.89
608.556	259.44
608.756	240.84
608.956	200.74
609.156	219.14
609.356	182.72
609.556	176.71
609.755	236.39
609.955	199.58
610.155	235.61
610.355	234.84
610.555	157.15
610.755	208.49
610.954	146.68
611.154	243.17
611.354	255.57
611.554	186.21
611.753	198.22
611.953	170.71
612.153	262.35
612.352	231.54
612.552	174.97
612.752	167.61
612.951	214.88
613.151	235.42
613.351	192.41
613.55	220.31
613.75	229.61
613.949	222.24
614.149	238.71
614.348	204.23
614.548	176.13
614.747	169.93
614.947	200.74
615.146	152.11
615.346	234.06
615.545	210.23
615.745	224.76
615.944	238.91
616.144	197.44
616.343	229.61
616.542	201.13
616.742	231.16
616.941	224.18
617.14	151.91
617.34	207.13
617.539	203.26
617.738	176.52
617.938	271.07
618.137	212.94
618.336	170.71
618.535	204.61
618.734	188.73
618.934	205.58
619.133	187.95
619.332	278.43
619.531	194.73
619.73	170.9
619.929	260.41
620.128	222.44
620.328	275.91
620.527	168.38
620.726	196.09
620.925	227.86
621.124	186.98
621.323	226.51
621.522	156.37
621.721	175.36
621.92	163.73
622.119	220.5
622.318	147.07
622.517	191.63
622.715	186.59
622.914	165.86
623.113	179.43
623.312	171.48
623.511	194.34
623.71	189.89
623.909	192.79
624.107	243.94
624.306	134.86
624.505	170.9
624.704	159.08
624.902	160.83
625.101	266.81
625.3	204.81
625.499	191.24
625.697	197.64
625.896	158.11
626.095	198.99
626.293	132.73
626.492	172.84
626.69	229.22
626.889	169.54
627.088	193.76
627.286	162.76
627.485	182.53
627.683	178.07
627.882	222.44
628.08	114.13
628.279	195.51
628.477	273.01
628.676	177.68
628.874	196.48
629.073	140.1
629.271	164.12
629.469	198.03
629.668	150.17
629.866	164.7
630.065	152.3
630.263	197.64
630.461	159.47
630.66	177.88
630.858	221.08
631.056	212.94
631.254	203.26
631.453	131.57
631.651	205
631.849	193.38
632.047	188.34
632.245	186.59
632.444	194.15
632.642	185.43
632.84	187.95
633.038	185.82
633.236	149.2
633.434	149.01
633.632	124.6
633.83	123.05
634.028	190.08
634.227	169.35
634.425	225.34
634.623	205
634.821	172.45
635.019	152.88
635.216	142.61
635.414	211.39
635.612	170.9
635.81	156.37
636.008	236.78
636.206	158.89
636.404	216.63
636.602	159.28
636.8	181.56
636.997	199.96
637.195	217.79
637.393	177.49
637.591	233.68
637.789	175.55
637.986	144.75
638.184	201.51
638.382	201.32
638.58	208.1
638.777	224.57
638.975	175.16
639.173	168.77
639.37	194.34
639.568	184.27
639.765	202.68
639.963	168.96
640.161	226.7
640.358	205.78
640.556	169.93
640.753	151.14
640.951	137.77
641.148	197.64
641.346	181.17
641.543	171.87
641.741	223.21
641.938	126.92
642.136	196.67
642.333	138.35
642.531	222.24
642.728	235.23
642.925	167.03
643.123	169.74
643.32	175.16
643.517	149.98
643.715	186.59
643.912	145.33
644.109	186.79
644.306	178.26
644.504	127.11
644.701	199.77
644.898	213.14
645.095	148.62
645.293	158.89
645.49	224.76
645.687	199.96
645.884	195.89
646.081	145.91
646.278	156.76
646.475	149.78
646.672	166.83
646.87	188.14
647.067	177.49
647.264	184.27
647.461	144.94
647.658	154.43
647.855	212.17
648.052	153.08
648.249	94.37
648.446	145.52
648.642	163.15
648.839	138.16
649.036	146.49
649.233	110.65
649.43	141.45
649.627	133.7
649.824	157.53
650.021	120.53
650.217	142.61
650.414	163.54
650.611	163.54
650.808	157.15
651.004	141.26
651.201	176.52
651.398	204.61
651.595	155.21
651.791	140.29
651.988	203.84
652.185	124.6
652.381	165.28
652.578	116.07
652.775	142.03
652.971	143.97
653.168	140.87
653.364	165.48
653.561	113.94
653.757	157.34
653.954	140.48
654.15	142.03
654.347	202.87
654.543	153.66
654.74	100.76
654.936	115.68
655.133	164.7
655.329	160.05
655.525	141.84
655.722	197.25
655.918	102.51
656.115	173.23
656.311	106.38
656.507	94.76
656.704	86.43
656.9	135.25
657.096	95.53
657.292	126.92
657.489	164.51
657.685	147.65
657.881	134.86
658.077	131.76
658.273	125.56
658.47	181.36
658.666	144.55
658.862	174.97
659.058	115.88
659.254	166.45
659.45	94.18
659.646	152.88
659.842	135.64
660.038	164.51
660.234	109.68
660.43	116.85
660.626	203.84
660.822	175.74
661.018	191.24
661.214	154.63
661.41	103.28
661.606	157.73
661.802	156.18
661.998	147.65
662.194	112.78
662.39	152.3
662.586	152.88
662.781	173.81
662.977	157.53
663.173	192.99
663.369	142.81
663.564	168.96
663.76	157.73
663.956	132.54
664.152	190.66
664.347	127.11
664.543	155.01
664.739	117.04
664.934	88.36
665.13	84.1
665.326	181.17
665.521	156.37
665.717	99.8
665.912	103.86
666.108	54.85
666.304	114.71
666.499	142.03
666.695	85.07
666.89	122.46
667.086	169.74
667.281	149.98
667.477	191.44
667.672	167.22
667.867	142.61
668.063	162.57
668.258	89.53
668.454	145.13
668.649	202.48
668.844	143.97
669.04	157.53
669.235	109.87
669.43	102.51
669.626	89.14
669.821	114.71
670.016	108.13
670.211	149.98
670.407	114.91
670.602	129.44
670.797	140.29
670.992	154.05
671.187	116.85
671.382	151.91
671.578	103.48
671.773	145.13
671.968	102.7
672.163	151.33
672.358	182.53
672.553	83.71
672.748	107.35
672.943	181.56
673.138	134.09
673.333	140.87
673.528	121.5
673.723	131.18
673.918	130.21
674.113	103.48
674.308	223.21
674.503	134.67
674.698	165.09
674.892	139.32
675.087	187.37
675.282	163.35
675.477	105.8
675.672	140.48
675.867	135.25
676.061	95.15
676.256	80.03
676.451	128.66
676.646	125.18
676.84	108.71
677.035	108.9
677.23	103.09
677.424	125.76
677.619	144.55
677.814	173.03
678.008	140.29
678.203	62.79
678.397	87.98
678.592	142.61
678.787	175.16
678.981	125.37
679.176	148.81
679.37	121.5
679.565	124.4
679.759	106.96
679.954	173.81
680.148	189.89
680.342	147.65
680.537	148.23
680.731	118.78
680.926	133.7
681.12	133.9
681.314	89.72
681.509	107.16
681.703	132.73
681.897	138.93
682.092	141.06
682.286	105.41
682.48	191.63
682.674	139.13
682.869	122.66
683.063	114.13
683.257	213.14
683.451	79.26
683.645	152.69
683.839	137.19
684.034	140.1
684.228	177.29
684.422	88.56
684.616	90.5
684.81	155.6
685.004	110.84
685.198	117.62
685.392	148.62
685.586	97.47
685.78	158.11
685.974	140.1
686.168	161.02
686.362	185.24
686.556	112.78
686.75	86.23
686.944	121.88
687.138	152.69
687.331	102.51
687.525	113.36
687.719	90.88
687.913	137.96
688.107	131.57
688.301	86.62
688.494	166.25
688.688	94.95
688.882	100.96
689.076	44
689.269	89.14
689.463	197.83
689.657	115.3
689.85	103.09
690.044	105.03
690.238	97.86
690.431	76.93
690.625	86.23
690.818	104.25
691.012	130.41
691.205	103.48
691.399	78.48
691.593	134.67
691.786	157.53
691.98	147.65
692.173	157.73
692.366	135.06
692.56	136.61
692.753	171.87
692.947	107.74
693.14	194.73
693.333	143.78
693.527	85.07
693.72	149.01
693.914	133.12
694.107	139.32
694.3	141.84
694.493	108.71
694.687	174.39
694.88	106.19
695.073	168.58
695.266	169.54
695.46	139.9
695.653	166.64
695.846	176.13
696.039	55.43
696.232	119.36
696.425	187.95
696.618	135.06
696.812	132.93
697.005	180.59
697.198	220.11
697.391	178.46
697.584	177.1
697.777	222.05
697.97	197.06
698.163	189.89
698.356	178.07
698.549	241.04
698.742	230.77
698.935	167.41
699.127	229.99
699.32	142.23
699.513	156.56
699.706	194.34
699.899	214.49
700.092	152.5
700.285	219.92
700.477	150.17
700.67	196.48
700.863	221.28
701.056	255.57
701.248	241.62
701.441	210.04
701.634	175.16
701.826	289.67
702.019	191.24
702.212	230.38
702.404	175.36
702.597	168.58
702.79	220.5
702.982	219.73
703.175	244.14
703.367	278.24
703.56	219.73
703.752	331.13
703.945	229.99
704.137	273.2
704.33	279.4
704.522	244.72
704.715	271.07
704.907	251.89
705.1	270.1
705.292	311.76
705.484	259.25
705.677	298.97
705.869	272.04
706.061	290.83
706.254	348.37
706.446	240.65
706.638	274.94
706.831	345.66
707.023	282.11
707.215	365.04
707.407	336.56
707.599	313.31
707.792	348.57
707.984	331.32
708.176	342.17
708.368	309.43
708.56	343.34
708.752	307.88
708.944	312.72
709.136	335.01
709.329	317.37
709.521	430.72
709.713	372.98
709.905	362.71
710.097	397.97
710.289	340.24
710.481	339.07
710.672	364.45
710.864	365.23
711.056	394.68
711.248	423.35
711.44	394.49
711.632	365.04
711.824	393.32
712.016	456.48
712.207	421.22
712.399	415.02
712.591	485.74
712.783	436.14
712.975	465.78
713.166	397.59
713.358	425.49
713.55	523.52
713.741	467.72
713.933	476.05
714.125	446.22
714.316	444.08
714.508	490.2
714.7	515.97
714.891	452.61
715.083	517.71
715.274	484
715.466	459
715.657	544.06
715.849	425.87
716.04	490.2
716.232	415.99
716.423	564.79
716.615	452.8
716.806	475.47
716.998	470.05
717.189	453.97
717.381	392.55
717.572	396.04
717.763	477.99
717.955	459.39
718.146	444.08
718.337	408.05
718.528	401.65
718.72	383.64
718.911	459
719.102	421.03
719.293	454.74
719.485	385.96
719.676	434.01
719.867	383.05
720.058	385.38
720.249	432.85
720.44	413.86
720.632	432.46
720.823	452.22
721.014	511.9
721.205	485.16
721.396	503.57
721.587	570.21
721.778	519.06
721.969	542.31
722.16	561.88
722.351	526.81
722.542	647.91
722.733	637.64
722.924	545.8
723.115	620.01
723.305	643.84
723.496	617.68
723.687	550.26
723.878	563.05
724.069	587.26
724.26	583.58
724.45	548.13
724.641	549.1
724.832	590.95
725.023	569.83
725.213	579.51
725.404	579.13
725.595	565.76
725.785	546.77
725.976	609.54
726.167	594.24
726.357	597.92
726.548	683.75
726.739	599.47
726.929	613.81
727.12	654.69
727.31	679.1
727.501	626.01
727.691	683.17
727.882	657.01
728.072	694.02
728.263	700.22
728.453	681.43
728.644	676.58
728.834	710.29
729.024	646.16
729.215	678.71
729.405	685.88
729.596	767.26
729.786	757.96
729.976	726.96
730.167	756.79
730.357	723.47
730.547	720.56
730.737	728.89
730.928	765.32
731.118	821.31
731.308	760.09
731.498	745.94
731.688	826.54
731.879	792.05
732.069	841.46
732.259	840.1
732.449	806.97
732.639	838.75
732.829	874.78
733.019	868.2
733.209	934.85
733.399	890.87
733.589	931.75
733.779	946.67
733.969	892.8
734.159	962.75
734.349	972.43
734.539	1020.48
734.729	997.43
734.919	1034.82
735.109	1049.54
735.299	991.03
735.488	1039.66
735.678	1047.22
735.868	1041.99
736.058	1035.4
736.248	1006.34
736.437	981.73
736.627	962.94
736.817	1088.68
737.007	1045.09
737.196	1064.66
737.386	1025.91
737.576	1022.23
737.765	1064.27
737.955	1033.08
738.144	1135.57
738.334	1100.69
738.524	1036.56
738.713	1083.06
738.903	1072.99
739.092	1139.44
739.282	1122.01
739.471	1136.92
739.661	1129.95
739.85	1152.23
740.04	1147.77
740.229	1180.52
740.419	1175.29
740.608	1191.17
740.797	1163.08
740.987	1220.24
741.176	1207.06
741.365	1149.71
741.555	1131.69
741.744	1202.61
741.933	1194.86
742.123	1227.99
742.312	1252.79
742.501	1229.73
742.69	1254.14
742.88	1206.67
743.069	1274.87
743.258	1216.75
743.447	1284.56
743.636	1233.22
743.825	1241.94
744.014	1220.04
744.204	1247.17
744.393	1213.26
744.582	1298.51
744.771	1283.59
744.96	1266.54
745.149	1301.8
745.338	1261.89
745.527	1300.84
745.716	1250.85
745.905	1271.39
746.094	1296.19
746.283	1282.62
746.471	1307.81
746.66	1347.92
746.849	1331.06
747.038	1378.14
747.227	1288.82
747.416	1329.9
747.604	1264.99
747.793	1289.21
747.982	1313.43
748.171	1308.58
748.359	1339.39
748.548	1317.69
748.737	1302.39
748.926	1311.88
749.114	1265.57
749.303	1319.05
749.491	1340.17
749.68	1262.09
749.869	1354.31
750.057	1308.97
750.246	1304.13
750.434	1285.92
750.623	1309.94
750.811	1291.54
751	1376.2
751.188	1318.66
751.377	1349.66
751.565	1289.79
751.754	1264.22
751.942	1283.98
752.131	1341.52
752.319	1279.52
752.507	1281.85
752.696	1318.08
752.884	1354.89
753.072	1325.44
753.261	1292.7
753.449	1326.22
753.637	1300.25
753.825	1420.76
754.014	1300.64
754.202	1298.12
754.39	1384.15
754.578	1348.88
754.766	1320.98
754.955	1291.15
755.143	1407.2
755.331	1319.05
755.519	1318.85
755.707	1316.14
755.895	1293.09
756.083	1296.96
756.271	1282.62
756.459	1268.29
756.647	1385.7
756.835	1305.87
757.023	1298.12
757.211	1308.58
757.399	1263.64
757.587	1290.18
757.775	1264.99
757.963	1309.36
758.151	1302.19
758.339	1288.82
758.526	1260.54
758.714	1271.39
758.902	1236.7
759.09	1209.58
759.278	1146.61
759.465	1043.34
759.653	879.24
759.841	848.05
760.028	686.46
760.216	590.95
760.404	628.53
760.591	470.63
760.779	409.79
760.967	356.7
761.154	279.59
761.342	310.98
761.529	291.61
761.717	375.5
761.905	319.31
762.092	350.12
762.28	300.52
762.467	341.79
762.655	269.13
762.842	291.02
763.029	322.8
763.217	334.04
763.404	278.43
763.592	346.24
763.779	296.45
763.966	329.77
764.154	356.32
764.341	399.72
764.528	372.01
764.716	398.55
764.903	415.02
765.09	452.61
765.277	433.82
765.465	552.39
765.652	547.74
765.839	607.22
766.026	631.24
766.213	661.28
766.4	674.64
766.588	834.49
766.775	765.51
766.962	840.1
767.149	820.92
767.336	920.7
767.523	880.02
767.71	950.54
767.897	1000.72
768.084	1017.58
768.271	1014.67
768.458	1062.14
768.645	1093.33
768.832	1035.6
769.019	1071.83
769.206	1081.71
769.392	1147.97
769.579	1176.06
769.766	1146.61
769.953	1130.34
770.14	1182.65
770.327	1194.47
770.513	1164.63
770.7	1266.74
770.887	1147.19
771.073	1216.55
771.26	1208.03
771.447	1149.32
771.634	1186.72
771.82	1261.31
772.007	1145.06
772.193	1165.02
772.38	1205.9
772.567	1203.96
772.753	1214.42
772.94	1221.59
773.126	1233.22
773.313	1226.24
773.499	1220.43
773.686	1235.93
773.872	1200.09
774.059	1207.45
774.245	1165.02
774.432	1195.05
774.618	1126.85
774.804	1227.4
774.991	1146.42
775.177	1209.19
775.363	1169.86
775.55	1215.59
775.736	1162.31
775.922	1138.86
776.109	1193.69
776.295	1166.96
776.481	1201.06
776.667	1214.62
776.853	1168.7
777.04	1165.21
777.226	1157.85
777.412	1227.21
777.598	1169.28
777.784	1171.99
777.97	1136.54
778.156	1168.31
778.342	1150.68
778.528	1134.79
778.715	1120.84
778.901	1115.81
779.087	1162.5
779.272	1129.17
779.458	1135.37
779.644	1148.94
779.83	1130.92
780.016	1230.89
780.202	1128.01
780.388	1123.94
780.574	1097.79
780.76	1092.94
780.946	1147.77
781.131	1117.55
781.317	1105.93
781.503	1118.13
781.689	1105.15
781.874	1244.26
782.06	1130.53
782.246	1124.14
782.432	1106.51
782.617	1159.01
782.803	1183.04
782.989	1025.52
783.174	1085.39
783.36	1059.43
783.545	1117.16
783.731	1087.52
783.916	1035.01
784.102	1140.8
784.288	1075.89
784.473	1109.61
784.659	1081.51
784.844	1109.03
785.029	1074.15
785.215	1079.77
785.4	1033.46
785.586	1129.17
785.771	1055.36
785.956	1084.81
786.142	1067.76
786.327	1068.14
786.512	1044.7
786.698	1050.51
786.883	1020.87
787.068	1003.43
787.254	1054.19
787.439	994.52
787.624	1037.34
787.809	992.78
787.994	1046.83
788.18	1065.43
788.365	1001.5
788.55	1035.79
788.735	1046.83
788.92	1046.25
789.105	1026.88
789.29	1027.65
789.475	985.61
789.66	1006.53
789.845	993.75
790.03	1016.03
790.215	1047.8
790.4	1037.92
790.585	1052.84
790.77	1003.24
790.955	931.36
791.14	980.38
791.325	1038.11
791.51	908.11
791.695	995.88
791.879	952.48
792.064	955.77
792.249	1011.76
792.434	973.4
792.618	981.54
792.803	993.75
792.988	967.59
793.173	996.07
793.357	1035.4
793.542	922.64
793.727	971.85
793.911	992
794.096	968.36
794.281	995.88
794.465	1068.14
794.65	982.12
794.834	984.06
795.019	1041.41
795.203	1054.58
795.388	1012.73
795.572	1045.67
795.757	1042.96
795.941	1027.85
796.126	1030.56
796.31	958.1
796.494	999.56
796.679	985.8
796.863	954.41
797.048	1008.47
797.232	1021.45
797.416	1024.94
797.601	978.25
797.785	1048.58
797.969	1025.52
798.153	974.37
798.338	1013.12
798.522	996.65
798.706	1004.4
798.89	1033.85
799.074	1072.79
799.258	1051.09
799.443	1015.83
799.627	989.48
799.811	1034.82
799.995	984.45
800.179	988.32
800.363	987.16
800.547	1045.67
800.731	1038.11
800.915	942.02
801.099	1004.98
801.283	984.06
801.467	1022.81
801.651	978.63
801.835	1063.49
802.019	1030.75
802.202	1020.48
802.386	969.91
802.57	994.71
802.754	980.76
802.938	970.3
803.121	974.95
803.305	1045.48
803.489	1019.13
803.673	1031.72
803.856	1038.7
804.04	990.65
804.224	994.13
804.407	1006.92
804.591	1008.08
804.775	993.16
804.958	1022.61
805.142	1084.81
805.326	992.78
805.509	1016.41
805.693	1043.34
805.876	1060.39
806.06	992
806.243	1015.45
806.427	1054.78
806.61	1047.22
806.794	992
806.977	1072.02
807.16	1008.08
807.344	1017.38
807.527	1018.93
807.71	1010.99
807.894	1038.11
808.077	1073.38
808.26	981.35
808.444	1010.41
808.627	1026.3
808.81	1009.83
808.993	997.81
809.177	969.33
809.36	1040.63
809.543	1026.68
809.726	912.37
809.909	954.41
810.092	910.82
810.276	939.88
810.459	985.8
810.642	950.93
810.825	922.64
811.008	948.6
811.191	873.62
811.374	894.74
811.557	896.48
811.74	955.58
811.923	864.13
812.106	885.05
812.289	842.43
812.472	867.62
812.654	894.74
812.837	846.3
813.02	855.99
813.203	850.76
813.386	770.74
813.569	779.27
813.751	771.71
813.934	797.09
814.117	796.51
814.3	775.97
814.482	741.87
814.665	708.36
814.848	699.44
815.03	663.21
815.213	690.92
815.396	684.53
815.578	692.86
815.761	669.61
815.943	739.16
816.126	634.34
816.309	624.85
816.491	620.98
816.674	581.45
816.856	613.61
817.039	588.43
817.221	692.86
817.403	635.7
817.586	628.73
817.768	660.89
817.951	573.7
818.133	591.33
818.315	628.73
818.498	643.26
818.68	703.71
818.862	671.54
819.045	680.65
819.227	671.35
819.409	654.11
819.591	657.21
819.774	637.64
819.956	615.94
820.138	670.19
820.32	631.24
820.502	661.28
820.684	724.24
820.866	663.99
821.048	729.47
821.231	734.71
821.413	715.14
821.595	720.56
821.777	700.22
821.959	698.47
822.141	751.76
822.323	632.21
822.505	663.41
822.686	651.2
822.868	622.33
823.05	575.06
823.232	585.52
823.414	528.36
823.596	589.78
823.778	560.53
823.96	577
824.141	539.8
824.323	587.85
824.505	630.28
824.687	632.02
824.868	627.76
825.05	743.04
825.232	695.76
825.413	763.57
825.595	719.79
825.777	661.66
825.958	732.57
826.14	675.42
826.321	699.44
826.503	662.24
826.685	708.36
826.866	737.81
827.048	719.4
827.229	687.43
827.411	671.93
827.592	654.3
827.773	657.21
827.955	602.57
828.136	648.1
828.318	622.33
828.499	642.48
828.68	612.06
828.862	618.26
829.043	679.88
829.224	630.08
829.406	582.42
829.587	623.69
829.768	605.48
829.949	634.93
830.131	632.41
830.312	695.96
830.493	620.01
830.674	663.99
830.855	632.99
831.036	602.18
831.218	677.94
831.399	668.64
831.58	630.28
831.761	663.21
831.942	676.39
832.123	622.91
832.304	604.7
832.485	610.9
832.666	638.03
832.847	653.72
833.028	629.31
833.209	638.99
833.389	620.39
833.57	569.83
833.751	616.13
833.932	674.64
834.113	642.09
834.294	599.86
834.475	628.92
834.655	684.72
834.836	658.37
835.017	638.03
835.198	601.99
835.378	637.64
835.559	671.54
835.74	629.5
835.92	593.08
836.101	581.84
836.281	632.21
836.462	646.55
836.643	674.45
836.823	677.36
837.004	666.89
837.184	739.36
837.365	677.55
837.545	668.83
837.726	660.5
837.906	717.46
838.087	661.86
838.267	645.78
838.448	617.49
838.628	645
838.808	684.14
838.989	740.13
839.169	599.08
839.349	680.84
839.53	668.06
839.71	692.66
839.89	653.53
840.07	726.57
840.251	646.55
840.431	707.39
840.611	662.05
840.791	630.47
840.971	685.49
841.151	625.04
841.332	619.23
841.512	705.45
841.692	611.87
841.872	699.25
842.052	646.16
842.232	693.44
842.412	605.86
842.592	657.98
842.772	655.08
842.952	663.79
843.132	623.11
843.312	632.41
843.492	632.6
843.672	697.12
843.851	573.51
844.031	663.99
844.211	640.35
844.391	629.89
844.571	656.43
844.751	675.03
844.93	645.58
845.11	606.83
845.29	643.06
845.47	659.14
845.649	631.44
845.829	640.93
846.009	605.86
846.188	644.03
846.368	641.51
846.547	669.22
846.727	663.21
846.907	610.71
847.086	662.05
847.266	686.66
847.445	626.21
847.625	612.84
847.804	608.19
847.984	626.4
848.163	623.88
848.343	613.81
848.522	623.88
848.701	652.94
848.881	590.17
849.06	605.86
849.239	653.72
849.419	634.15
849.598	589.01
849.777	601.41
849.957	612.64
850.136	575.83
850.315	544.45
850.494	561.11
850.674	533.6
850.853	630.08
851.032	602.96
851.211	632.41
851.39	581.84
851.569	519.84
851.748	532.05
851.927	600.63
852.107	553.36
852.286	546
852.465	513.45
852.644	621.75
852.823	583.39
853.002	590.95
853.181	570.6
853.359	606.06
853.538	556.07
853.717	594.24
853.896	545.61
854.075	515.97
854.254	511.7
854.433	460.55
854.611	530.3
854.79	470.24
854.969	541.15
855.148	542.31
855.327	479.35
855.505	538.25
855.684	518.68
855.863	545.61
856.041	474.7
856.22	536.11
856.399	488.84
856.577	589.01
856.756	549.1
856.934	642.68
857.113	681.81
857.291	563.43
857.47	523.33
857.648	543.86
857.827	556.65
858.005	579.71
858.184	521
858.362	639.38
858.541	563.24
858.719	564.01
858.898	534.18
859.076	516.74
859.254	608.38
859.433	560.33
859.611	536.89
859.789	495.04
859.967	608.96
860.146	593.08
860.324	504.92
860.502	522.94
860.68	498.72
860.859	500.08
861.037	519.65
861.215	556.65
861.393	561.69
861.571	525.26
861.749	511.9
861.927	541.35
862.105	541.93
862.283	540.57
862.461	492.91
862.639	483.8
862.817	516.16
862.995	500.47
863.173	483.22
863.351	507.25
863.529	545.41
863.707	552.2
863.885	497.17
864.063	457.84
864.241	453.77
864.418	565.18
864.596	499.88
864.774	458.81
864.952	525.46
865.129	531.66
865.307	465.2
865.485	441.76
865.663	560.33
865.84	446.8
866.018	534.95
866.196	419.09
866.373	455.9
866.551	431.88
866.728	388.48
866.906	425.1
867.084	413.86
867.261	476.05
867.439	479.54
867.616	485.35
867.794	476.83
867.971	466.37
868.149	486.9
868.326	515.38
868.503	488.26
868.681	479.54
868.858	439.05
869.035	429.17
869.213	495.23
869.39	471.79
869.567	527.2
869.745	455.71
869.922	483.61
870.099	489.81
870.276	517.71
870.454	506.28
870.631	496.98
870.808	474.7
870.985	513.83
871.162	534.56
871.339	504.15
871.517	459.2
871.694	428.39
871.871	447.77
872.048	487.68
872.225	434.4
872.402	465.4
872.579	426.84
872.756	456.68
872.933	434.4
873.11	466.95
873.287	454.55
873.463	437.3
873.64	429.94
873.817	504.53
873.994	466.56
874.171	421.42
874.348	463.85
874.524	399.52
874.701	438.85
874.878	375.5
875.055	461.72
875.231	459.39
875.408	470.24
875.585	414.83
875.762	446.41
875.938	416.96
876.115	444.86
876.291	434.01
876.468	471.79
876.645	387.51
876.821	429.94
876.998	432.07
877.174	423.94
877.351	434.4
877.527	406.5
877.704	414.05
877.88	446.02
878.057	414.83
878.233	453.97
878.409	422.58
878.586	428
878.762	457.84
878.938	416.96
879.115	349.34
879.291	401.07
879.467	393.9
879.644	386.74
879.82	442.53
879.996	393.32
880.172	351.28
880.349	388.67
880.525	435.37
880.701	381.31
880.877	367.36
881.053	403.59
881.229	389.45
881.405	443.5
881.581	363.87
881.757	412.12
881.933	390.61
882.109	426.84
882.285	430.52
882.461	364.45
882.637	389.64
882.813	366.59
882.989	367.17
883.165	444.47
883.341	371.62
883.517	453.38
883.693	421.03
883.869	401.85
884.044	377.44
884.22	415.6
884.396	418.51
884.572	406.89
884.747	416.38
884.923	400.49
885.099	405.92
885.275	468.11
885.45	376.27
885.626	374.34
885.801	378.6
885.977	374.34
886.153	320.47
886.328	384.02
886.504	382.28
886.679	442.73
886.855	347.4
887.03	402.62
887.206	440.02
887.381	422.39
887.557	413.47
887.732	403.59
887.908	446.6
888.083	423.35
888.258	379.18
888.434	382.67
888.609	410.57
888.784	430.52
888.96	373.56
889.135	372.01
889.31	348.76
889.485	408.82
889.661	391.58
889.836	423.35
890.011	406.69
890.186	381.12
890.361	396.42
890.537	425.49
890.712	394.1
890.887	386.35
891.062	355.54
891.237	436.72
891.412	395.07
891.587	402.82
891.762	416.96
891.937	423.16
892.112	366
892.287	408.63
892.462	362.13
892.637	314.66
892.812	338.3
892.987	363.87
893.161	326.87
893.336	338.49
893.511	382.09
893.686	393.32
893.861	360.77
894.035	357.87
894.21	342.95
894.385	318.54
894.56	344.89
894.734	317.96
894.909	323.57
895.084	340.04
895.258	321.64
895.433	341.98
895.608	329.97
895.782	274.36
895.957	329.58
896.131	304.97
896.306	241.04
896.48	281.34
896.655	304.97
896.829	225.15
897.004	237.16
897.178	257.7
897.353	241.23
897.527	313.11
897.701	249.56
897.876	212.75
898.05	319.12
898.224	278.43
898.399	326.67
898.573	261.19
898.747	190.08
898.921	268.94
899.096	192.6
899.27	223.21
899.444	197.06
899.618	219.92
899.792	197.83
899.967	203.06
900.141	244.72
900.315	195.31
900.489	228.06
900.663	243.94
900.837	214.11
901.011	188.14
901.185	274.75
901.359	243.17
901.533	211.39
901.707	228.64
901.881	241.43
902.055	198.41
902.229	212.94
902.403	268.55
902.576	236.19
902.75	227.28
902.924	345.08
903.098	268.94
903.272	284.82
903.446	290.64
903.619	267
903.793	296.84
903.967	240.46
904.14	277.85
904.314	306.52
904.488	272.23
904.661	320.86
904.835	258.67
905.009	293.74
905.182	359.42
905.356	325.71
905.529	285.79
905.703	242.59
905.876	268.55
906.05	247.24
906.223	244.33
906.397	207.33
906.57	190.86
906.744	202.29
906.917	196.48
907.09	251.5
907.264	240.26
907.437	205.58
907.61	197.44
907.784	225.54
907.957	190.47
908.13	190.47
908.304	255.18
908.477	204.81
908.65	202.29
908.823	177.88
908.996	251.11
909.17	197.44
909.343	217.4
909.516	220.89
909.689	204.61
909.862	178.26
910.035	201.13
910.208	188.14
910.381	177.1
910.554	252.28
910.727	182.33
910.9	170.13
911.073	193.96
911.246	244.14
911.419	234.45
911.592	193.96
911.765	163.35
911.938	169.16
912.11	172.06
912.283	196.28
912.456	234.84
912.629	201.13
912.802	213.91
912.974	185.24
913.147	152.11
913.32	129.25
913.493	139.9
913.665	181.94
913.838	173.81
914.01	177.1
914.183	142.81
914.356	135.45
914.528	219.14
914.701	233.09
914.873	219.73
915.046	165.86
915.218	148.23
915.391	105.61
915.563	144.55
915.736	181.36
915.908	241.43
916.081	188.92
916.253	150.75
916.425	154.05
916.598	192.21
916.77	170.71
916.942	179.04
917.115	106.96
917.287	216.04
917.459	176.52
917.632	120.33
917.804	125.37
917.976	188.53
918.148	149.01
918.32	153.85
918.493	187.37
918.665	177.49
918.837	144.55
919.009	237.74
919.181	198.41
919.353	176.91
919.525	165.86
919.697	171.68
919.869	187.18
920.041	212.56
920.213	230.19
920.385	205.78
920.557	159.66
920.729	163.93
920.901	191.24
921.073	186.98
921.244	144.55
921.416	200.35
921.588	188.14
921.76	184.66
921.932	248.98
922.103	178.26
922.275	171.09
922.447	196.48
922.619	95.15
922.79	197.44
922.962	141.65
923.134	199.58
923.305	126.73
923.477	118.4
923.648	120.53
923.82	150.75
923.991	126.53
924.163	107.55
924.335	139.9
924.506	131.57
924.677	184.85
924.849	132.93
925.02	158.31
925.192	158.89
925.363	143.58
925.535	137.58
925.706	111.23
925.877	221.66
926.049	126.92
926.22	146.88
926.391	151.91
926.562	185.04
926.734	110.06
926.905	177.1
927.076	129.05
927.247	134.28
927.419	97.08
927.59	131.57
927.761	136.61
927.932	104.64
928.103	147.85
928.274	96.31
928.445	101.93
928.616	144.75
928.787	97.86
928.958	143.97
929.129	146.1
929.3	106.96
929.471	84.68
929.642	51.17
929.813	10.87
929.984	118.78
930.155	56.4
930.326	119.95
930.496	66.86
930.667	9.12
930.838	74.03
931.009	34.12
931.18	64.34
931.35	46.52
931.521	73.83
931.692	46.9
931.863	30.43
932.033	58.33
932.204	50.58
932.374	44.77
932.545	37.8
932.716	79.07
932.886	79.84
933.057	-0.76
933.227	1.37
933.398	104.06
933.568	22.3
933.739	-2.5
933.909	-1.15
934.08	58.53
934.25	-23.04
934.421	7.57
934.591	45.74
934.761	1.95
934.932	-57.72
935.102	-1.34
935.272	1.18
935.443	25.78
935.613	-0.37
935.783	13
935.953	-15.87
936.123	153.27
936.294	-23.04
936.464	17.45
936.634	-20.13
936.804	-37.57
936.974	-24.01
937.144	36.44
937.314	-3.47
937.484	-12.96
937.655	-8.9
937.825	41.87
937.995	-26.14
938.165	12.8
938.334	7.18
938.504	2.73
938.674	-20.52
938.844	-10.06
939.014	55.23
939.184	0.4
939.354	65.89
939.524	54.27
939.694	18.23
939.863	-1.92
940.033	104.83
940.203	63.37
940.373	47.68
940.542	62.79
940.712	26.95
940.882	31.98
941.051	49.81
941.221	54.27
941.391	71.12
941.56	9.9
941.73	-10.64
941.899	135.83
942.069	40.7
942.238	50.39
942.408	24.23
942.577	67.44
942.747	21.72
942.916	-5.6
943.086	-13.35
943.255	44.19
943.425	24.23
943.594	4.08
943.763	-30.6
943.933	-10.06
944.102	-39.31
944.271	27.92
944.441	41.28
944.61	-3.47
944.779	2.34
944.948	100.76
945.117	-31.56
945.287	-10.25
945.456	-50.75
945.625	-10.64
945.794	31.4
945.963	1.57
946.132	33.53
946.301	9.12
946.47	38.18
946.639	-47.06
946.808	-6.96
946.977	21.13
947.146	72.67
947.315	11.45
947.484	35.08
947.653	11.64
947.822	-28.46
947.991	19.2
948.16	78.29
948.329	40.32
948.498	19.58
948.666	-5.8
948.835	33.34
949.004	-44.93
949.173	-38.15
949.341	44
949.51	38.38
949.679	56.78
949.847	70.73
950.016	99.99
950.185	84.1
950.353	2.15
950.522	-10.45
950.69	45.16
950.859	-20.33
951.028	55.43
951.196	28.11
951.365	10.87
951.533	23.85
951.701	37.41
951.87	54.07
952.038	10.48
952.207	40.51
952.375	80.42
952.543	-8.7
952.712	7.77
952.88	3.89
953.048	82.16
953.217	36.63
953.385	-10.64
953.553	53.3
953.721	-43.58
953.89	-1.92
954.058	-5.6
954.226	-8.7
954.394	50.78
954.562	-31.95
954.73	7.18
954.898	32.37
955.067	13.58
955.235	10.48
955.403	30.82
955.571	79.45
955.739	44.58
955.907	-16.06
956.075	-3.67
956.243	-23.62
956.41	31.02
956.578	-39.12
956.746	-29.05
956.914	-6.96
957.082	31.02
957.25	23.27
957.418	-9.86
957.585	3.12
957.753	56.78
957.921	-24.98
958.089	13.77
958.256	37.02
958.424	48.65
958.592	24.04
958.759	13.19
958.927	53.1
959.095	9.9
959.262	18.42
959.43	19.2
959.597	-9.09
959.765	-1.92
959.932	-7.15
960.1	41.09
960.267	3.89
960.435	-10.25
960.602	60.27
960.77	11.45
960.937	-39.7
961.104	25.2
961.272	-34.28
961.439	8.54
961.606	33.53
961.774	24.04
961.941	-2.12
962.108	14.55
962.275	6.99
962.443	74.42
962.61	44.19
962.777	77.13
962.944	48.45
963.111	27.53
963.278	34.7
963.446	33.73
963.613	32.76
963.78	43.03
963.947	41.28
964.114	15.71
964.281	117.43
964.448	29.85
964.615	5.63
964.782	25.2
964.949	54.07
965.116	63.18
965.282	63.18
965.449	6.6
965.616	-9.67
965.783	60.27
965.95	35.47
966.117	1.18
966.283	35.67
966.45	14.55
966.617	44.38
966.784	68.8
966.95	39.54
967.117	30.43
967.284	-9.67
967.45	-4.63
967.617	88.36
967.784	37.02
967.95	88.56
968.117	59.69
968.283	61.05
968.45	126.53
968.616	69.77
968.783	68.22
968.949	42.06
969.116	80.61
969.282	4.47
969.449	46.13
969.615	31.02
969.781	-2.89
969.948	-1.92
970.114	4.08
970.28	67.05
970.447	5.83
970.613	66.67
970.779	27.72
970.945	40.7
971.112	23.85
971.278	7.38
971.444	27.92
971.61	73.64
971.776	-4.05
971.942	55.23
972.108	44.77
972.275	9.51
972.441	32.18
972.607	88.56
972.773	20.75
972.939	48.07
973.105	-2.7
973.271	11.06
973.437	9.9
973.602	7.18
973.768	65.12
973.934	20.94
974.1	51.36
974.266	-49.58
974.432	28.69
974.598	0.21
974.763	58.53
974.929	34.5
975.095	99.8
975.261	7.77
975.426	1.18
975.592	45.74
975.758	74.8
975.923	-23.04
976.089	20.94
976.255	75.77
976.42	20.75
976.586	63.76
976.751	61.63
976.917	118.78
977.082	40.32
977.248	-14.71
977.413	-15.48
977.579	30.24
977.744	33.92
977.91	-19.16
978.075	26.17
978.24	85.07
978.406	16.1
978.571	0.6
978.736	-3.67
978.902	55.62
979.067	-13.74
979.232	-19.75
979.397	51.36
979.563	92.63
979.728	-2.5
979.893	30.24
980.058	7.18
980.223	68.99
980.388	20.94
980.554	16.1
980.719	8.15
980.884	46.71
981.049	79.84
981.214	23.07
981.379	28.69
981.544	-4.25
981.709	-4.63
981.874	16.48
982.039	2.15
982.204	49.03
982.368	18.42
982.533	10.28
982.698	49.42
982.863	54.27
983.028	6.02
983.193	31.4
983.357	15.13
983.522	12.03
983.687	-4.63
983.852	4.67
984.016	-5.6
984.181	17.65
984.346	40.51
984.51	43.8
984.675	30.24
984.839	28.3
985.004	10.09
985.168	58.33
985.333	10.48
985.498	8.15
985.662	54.27
985.827	47.29
985.991	4.86
986.155	16.1
986.32	47.1
986.484	96.89
986.649	49.81
986.813	-22.46
986.977	42.06
987.142	25.2
987.306	4.47
987.47	-3.28
987.634	4.28
987.799	21.33
987.963	24.04
988.127	43.8
988.291	124.01
988.455	28.69
988.62	-13.74
988.784	58.53
988.948	36.63
989.112	20.36
989.276	36.83
989.44	28.88
989.604	13.58
989.768	11.64
989.932	74.42
990.096	-31.37
990.26	-19.16
990.424	-12.38
990.588	25.2
990.752	84.1
990.915	40.7
991.079	39.73
991.243	-7.15
991.407	28.3
991.571	31.02
991.734	36.25
991.898	66.86
992.062	111.81
992.226	14.74
992.389	2.15
992.553	-5.02
992.717	-14.13
992.88	11.83
993.044	35.47
993.207	36.05
993.371	67.63
993.535	18.62
993.698	18.42
993.862	62.4
994.025	50.97
994.189	13.38
994.352	15.52
994.515	45.55
994.679	55.43
994.842	8.54
995.006	65.31
995.169	-4.63
995.332	10.28
995.496	58.14
995.659	6.22
995.822	13.97
995.985	16.48
996.149	65.5
996.312	20.55
996.475	86.62
996.638	10.48
996.801	70.15
996.964	69.18
997.128	23.27
997.291	8.15
997.454	37.6
997.617	-28.66
997.78	47.1
997.943	-7.54
998.106	30.43
998.269	-5.41
998.432	34.7
998.595	38.96
998.758	-11.03
998.92	-18.97
999.083	-48.03
999.246	8.35
999.409	-23.62
999.572	-38.73
999.735	-7.54
999.897	44.77
1000.06	19.58
1000.223	19.58
1000.386	28.11
1000.548	46.71
1000.711	66.47
1000.874	35.86
1001.036	-30.6
1001.199	30.82
1001.361	18.23
1001.524	8.15
1001.687	38.38
1001.849	32.18
1002.012	22.68
1002.174	2.53
1002.337	41.87
1002.499	7.77
1002.661	61.24
1002.824	-29.24
1002.986	5.25
1003.149	16.87
1003.311	-19.16
1003.473	60.08
1003.636	7.38
1003.798	14.93
1003.96	35.47
1004.123	24.23
1004.285	13.38
1004.447	4.86
1004.609	8.54
1004.771	55.23
1004.933	-49.97
1005.096	0.98
1005.258	-47.65
1005.42	-12.58
1005.582	37.6
1005.744	-7.35
1005.906	-24.98
1006.068	28.69
1006.23	-24.78
1006.392	-22.85
1006.554	-15.87
1006.716	41.87
1006.878	27.33
1007.04	-13.93
1007.202	-0.76
1007.363	31.6
1007.525	20.17
1007.687	49.23
1007.849	62.98
1008.011	-26.53
1008.172	-38.35
1008.334	2.92
1008.496	39.54
1008.658	-17.42
1008.819	6.99
1008.981	-23.23
1009.143	-29.43
1009.304	-15.68
1009.466	35.86
1009.627	95.92
1009.789	112.97
1009.95	0.79
1010.112	-5.6
1010.273	35.47
1010.435	-10.45
1010.596	-0.95
1010.758	2.15
1010.919	-11.8
1011.081	-30.79
1011.242	3.31
1011.403	42.45
1011.565	3.89
1011.726	25.01
1011.887	-23.04
1012.049	-3.08
1012.21	38.57
1012.371	71.7
1012.532	-71.48
1012.693	23.46
1012.855	-29.43
1013.016	-9.28
1013.177	31.79
1013.338	-7.15
1013.499	65.5
1013.66	30.82
1013.821	27.33
1013.982	10.28
1014.143	7.96
1014.304	-15.29
1014.465	47.29
1014.626	22.3
1014.787	-17.23
1014.948	95.15
1015.109	-63.53
1015.27	22.3
1015.431	4.08
1015.592	-5.6
1015.752	58.72
1015.913	13.58
1016.074	2.34
1016.235	6.8
1016.395	-2.89
1016.556	-14.32
1016.717	19
1016.877	58.14
1017.038	-12.96
1017.199	28.3
1017.359	11.45
1017.52	9.32
1017.681	1.37
1017.841	6.02
1018.002	-9.67
1018.162	7.18
1018.323	60.66
1018.483	-17.42
1018.644	15.9
1018.804	-25.36
1018.964	-41.64
1019.125	-2.7
1019.285	14.93
1019.446	-27.11
1019.606	-23.23
1019.766	-31.95
1019.926	38.38
1020.087	23.85
1020.247	-24.4
1020.407	12.8
1020.567	55.04
1020.728	-23.43
1020.888	-20.13
1021.048	-32.53
1021.208	-20.13
1021.368	-1.34
1021.528	85.07
1021.688	9.9
1021.848	57.95
1022.008	2.92
1022.168	9.7
1022.328	9.12
1022.488	19.78
1022.648	-7.93
1022.808	-9.86
1022.968	13.19
1023.128	-13.35
1023.288	-17.23
1023.448	3.7
1023.608	18.62
1023.767	43.42
1023.927	16.48
1024.087	-6.18
1024.247	-25.95
1024.406	-8.7
1024.566	-41.64
1024.726	-34.47
1024.885	27.53
1025.045	2.73
1025.205	-0.76
1025.364	-12.19
1025.524	9.51
1025.683	13.97
1025.843	11.83
1026.003	10.09
1026.162	70.54
1026.321	35.86
1026.481	18.42
1026.64	-13.74
1026.8	40.9
1026.959	20.17
1027.119	-5.02
1027.278	-34.08
1027.437	-2.89
1027.597	14.16
1027.756	10.28
1027.915	36.63
1028.074	32.18
1028.234	-9.48
1028.393	12.42
1028.552	-19.75
1028.711	-56.75
1028.87	52.72
1029.03	-33.7
1029.189	-5.22
1029.348	-46.29
1029.507	-32.92
1029.666	-10.64
1029.825	-36.6
1029.984	-29.43
1030.143	-17.81
1030.302	-22.26
1030.461	-38.73
1030.62	24.04
1030.779	50.78
1030.938	-17.81
1031.097	-27.11
1031.255	20.94
1031.414	38.57
1031.573	33.34
1031.732	-42.41
1031.891	-27.5
1032.049	46.32
1032.208	19.58
1032.367	-28.46
1032.525	-26.53
1032.684	-7.54
1032.843	21.72
1033.001	-30.01
1033.16	134.28
1033.319	59.88
1033.477	29.27
1033.636	-11.22
1033.794	-62.95
1033.953	45.55
1034.111	23.07
1034.27	15.13
1034.428	0.6
1034.587	-49.39
1034.745	16.48
1034.903	0.79
1035.062	28.88
1035.22	-32.53
1035.378	42.64
1035.537	-10.45
1035.695	27.72
1035.853	2.34
1036.011	7.18
1036.17	24.23
1036.328	-69.73
1036.486	18.03
1036.644	14.55
1036.802	-71.67
1036.96	-1.34
1037.119	-17.42
1037.277	-15.68
1037.435	-31.56
1037.593	-41.83
1037.751	-1.53
1037.909	33.92
1038.067	33.92
