Data from pine_FLMT105791__134__17-22-33-075.txt Node

Date: Mon Mar 20 17:22:33 GMT 2023
User: antho
Spectrometer: FLMT10579
Trigger mode: 0
Integration Time (sec): 1.000000E-1
Scans to average: 10
Electric dark correction enabled: true
Nonlinearity correction enabled: false
Boxcar width: 0
XAxis mode: Wavelengths
Number of Pixels in Spectrum: 3648
>>>>>Begin Spectral Data<<<<<
345.248	-157.53
345.464	-157.53
345.681	-157.53
345.898	-181.36
346.114	-159.86
346.331	-37.99
346.548	37.96
346.764	-0.79
346.981	-14.35
347.197	11.22
347.414	7.93
347.631	-48.45
347.847	54.23
348.064	18.2
348.28	28.66
348.497	-48.65
348.713	-7.96
348.93	17.03
349.146	29.82
349.363	-8.35
349.579	21.3
349.796	-20.36
350.012	-1.18
350.229	22.07
350.445	9.86
350.661	-21.72
350.878	0.76
351.094	2.31
351.311	20.71
351.527	34.47
351.743	-3.31
351.96	64.5
352.176	29.05
352.392	23.81
352.609	26.91
352.825	6.57
353.041	-26.17
353.257	-26.37
353.474	13.93
353.69	24.98
353.906	9.28
354.122	-23.85
354.339	71.86
354.555	5.41
354.771	5.8
354.987	45.51
355.203	69.54
355.42	-17.65
355.636	-7.96
355.852	-8.54
356.068	18.2
356.284	-33.92
356.5	49.2
356.716	27.3
356.932	8.31
357.148	29.24
357.364	-2.53
357.58	53.26
357.796	54.43
358.012	82.52
358.228	28.85
358.444	-37.8
358.66	69.15
358.876	30.21
359.092	-35.86
359.308	49.78
359.524	37.18
359.74	-0.98
359.956	-12.03
360.172	34.47
360.388	59.85
360.604	32.53
360.819	96.47
361.035	26.53
361.251	33.89
361.467	1.53
361.683	50.55
361.898	48.81
362.114	38.15
362.33	12.58
362.546	57.14
362.762	32.53
362.977	36.6
363.193	1.73
363.409	48.03
363.624	-5.44
363.84	-9.12
364.056	5.6
364.271	16.84
364.487	36.21
364.703	6.18
364.918	-40.51
365.134	-12.61
365.35	9.86
365.565	95.89
365.781	35.05
365.996	29.05
366.212	80.39
366.427	14.9
366.643	-0.4
366.858	-1.18
367.074	9.48
367.289	48.03
367.505	109.26
367.72	-28.5
367.936	14.51
368.151	34.66
368.367	39.12
368.582	30.01
368.798	5.02
369.013	68.18
369.228	2.5
369.444	23.23
369.659	83.88
369.874	14.9
370.09	66.63
370.305	-41.28
370.52	-13
370.736	67.41
370.951	15.29
371.166	85.04
371.381	62.56
371.597	42.61
371.812	-26.56
372.027	4.05
372.242	30.79
372.458	99.76
372.673	5.8
372.888	5.02
373.103	53.46
373.318	100.15
373.533	36.02
373.749	29.24
373.964	-40.9
374.179	69.93
374.394	-9.32
374.609	92.79
374.824	-17.65
375.039	58.3
375.254	16.45
375.469	76.51
375.684	16.84
375.899	73.41
376.114	24.4
376.329	32.15
376.544	51.71
376.759	47.84
376.974	-13.97
377.189	24.98
377.404	10.06
377.619	56.17
377.834	-43.8
378.049	-24.43
378.264	-9.51
378.478	51.13
378.693	7.93
378.908	33.31
379.123	36.41
379.338	64.5
379.553	30.79
379.767	28.27
379.982	49.39
380.197	43.96
380.412	22.65
380.626	21.1
380.841	111.97
381.056	43.38
381.271	84.65
381.485	18.58
381.7	-6.02
381.915	14.51
382.129	6.18
382.344	30.4
382.559	27.11
382.773	81.16
382.988	-13.58
383.202	30.01
383.417	2.31
383.632	98.41
383.846	27.3
384.061	30.01
384.275	28.66
384.49	28.85
384.704	33.89
384.919	51.71
385.133	17.42
385.348	63.73
385.562	-8.15
385.777	87.17
385.991	16.84
386.206	30.01
386.42	6.96
386.634	56.36
386.849	17.23
387.063	30.01
387.277	-12.8
387.492	-6.99
387.706	-7.77
387.92	-22.49
388.135	29.05
388.349	31.95
388.563	16.84
388.778	14.32
388.992	81.55
389.206	41.25
389.42	124.95
389.635	41.45
389.849	42.22
390.063	64.89
390.277	28.27
390.491	78.06
390.706	45.51
390.92	58.88
391.134	23.04
391.348	68.38
391.562	-31.21
391.776	16.65
391.99	10.06
392.205	46.87
392.419	7.35
392.633	23.04
392.847	98.6
393.061	3.47
393.275	84.07
393.489	24.2
393.703	27.3
393.917	61.01
394.131	18.58
394.345	62.76
394.559	85.23
394.773	33.89
394.986	43.58
395.2	20.13
395.414	69.54
395.628	4.05
395.842	32.73
396.056	19.94
396.27	-15.9
396.484	51.13
396.697	33.31
396.911	81.36
397.125	45.13
397.339	75.55
397.553	13.93
397.766	86.2
397.98	79.03
398.194	72.25
398.408	23.62
398.621	49.2
398.835	70.9
399.049	29.82
399.262	81.75
399.476	59.27
399.69	87.17
399.903	112.55
400.117	51.71
400.331	76.51
400.544	13.55
400.758	147.04
400.971	67.8
401.185	68.96
401.398	11.22
401.612	110.23
401.826	83.68
402.039	76.9
402.253	14.51
402.466	85.81
402.68	50.16
402.893	59.27
403.106	69.35
403.32	88.91
403.533	80.2
403.747	46.68
403.96	70.31
404.174	94.73
404.387	36.21
404.6	43
404.814	88.72
405.027	55.4
405.24	56.17
405.454	45.9
405.667	100.34
405.88	2.89
406.094	76.32
406.307	92.6
406.52	64.11
406.733	25.56
406.947	19.94
407.16	121.27
407.373	82.33
407.586	48.03
407.799	34.86
408.012	82.33
408.226	86.59
408.439	112.74
408.652	5.99
408.865	89.88
409.078	92.4
409.291	86.78
409.504	33.31
409.717	70.12
409.93	73.03
410.143	85.23
410.357	33.5
410.57	17.03
410.783	44.93
410.996	95.11
411.209	66.05
411.421	84.65
411.634	52.3
411.847	18.58
412.06	67.8
412.273	66.63
412.486	59.46
412.699	154.79
412.912	80.2
413.125	89.3
413.338	71.48
413.55	94.15
413.763	108.87
413.976	104.61
414.189	51.71
414.402	77.1
414.615	117.01
414.827	24.98
415.04	120.49
415.253	80.58
415.466	97.05
415.678	130.76
415.891	101.89
416.104	80.97
416.316	94.92
416.529	53.46
416.742	93.37
416.954	124.95
417.167	92.6
417.38	58.5
417.592	110.23
417.805	41.25
418.017	33.11
418.23	98.6
418.442	54.62
418.655	91.43
418.868	100.73
419.08	120.69
419.293	135.41
419.505	91.63
419.718	109.45
419.93	105.19
420.142	68.38
420.355	122.82
420.567	135.41
420.78	94.92
420.992	84.46
421.205	167.58
421.417	68.76
421.629	79.42
421.842	48.61
422.054	50.94
422.266	154.4
422.479	154.21
422.691	63.53
422.903	130.38
423.115	88.72
423.328	104.99
423.54	136.38
423.752	106.16
423.964	91.43
424.177	63.53
424.389	86.59
424.601	217.56
424.813	99.76
425.025	138.32
425.238	113.33
425.45	86.4
425.662	104.8
425.874	417.9
426.086	110.81
426.298	145.49
426.51	121.46
426.722	100.54
426.934	103.06
427.146	140.26
427.358	68.96
427.57	122.24
427.782	72.64
427.994	123.4
428.206	120.88
428.418	100.54
428.63	148.2
428.842	144.33
429.054	135.22
429.266	141.42
429.478	92.6
429.69	120.49
429.902	86.2
430.114	146.46
430.325	113.52
430.537	76.51
430.749	119.91
430.961	62.95
431.173	102.09
431.384	147.62
431.596	79.81
431.808	105.38
432.02	127.86
432.231	177.46
432.443	197.99
432.655	156.92
432.867	115.46
433.078	145.1
433.29	197.02
433.502	150.72
433.713	173.19
433.925	168.93
434.136	188.69
434.348	93.95
434.56	90.27
434.771	244.69
434.983	77.68
435.194	114.88
435.406	149.56
435.617	179.78
435.829	219.5
436.04	182.11
436.252	170.87
436.463	206.91
436.675	156.73
436.886	167.58
437.098	199.35
437.309	211.75
437.521	179.59
437.732	203.42
437.943	149.17
438.155	170.68
438.366	146.07
438.578	223.57
438.789	185.01
439	223.18
439.211	163.7
439.423	194.89
439.634	213.69
439.845	195.67
440.057	192.57
440.268	222.79
440.479	150.91
440.69	180.75
440.902	182.69
441.113	219.69
441.324	196.06
441.535	189.47
441.746	272.39
441.957	202.06
442.168	202.45
442.38	216.21
442.591	244.11
442.802	185.01
443.013	200.9
443.224	219.11
443.435	209.42
443.646	190.82
443.857	227.06
444.068	206.91
444.279	172.42
444.49	276.27
444.701	221.44
444.912	334.39
445.123	273.94
445.334	258.06
445.545	251.47
445.756	219.69
445.967	205.36
446.178	239.46
446.388	272.2
446.599	273.94
446.81	258.44
447.021	230.74
447.232	280.14
447.443	305.14
447.653	231.32
447.864	284.4
448.075	223.76
448.286	279.17
448.496	268.13
448.707	273.55
448.918	232.48
449.129	333.04
449.339	218.92
449.55	262.12
449.761	243.52
449.971	290.6
450.182	247.01
450.393	283.82
450.603	234.61
450.814	316.37
451.024	299.9
451.235	322.96
451.446	327.61
451.656	332.65
451.867	248.56
452.077	311.92
452.288	351.05
452.498	325.67
452.709	270.26
452.919	294.48
453.13	231.12
453.34	313.08
453.55	215.04
453.761	318.89
453.971	294.29
454.182	297.97
454.392	309.79
454.602	374.5
454.813	302.04
455.023	315.99
455.233	270.07
455.444	290.8
455.654	226.28
455.864	327.22
456.075	288.47
456.285	290.99
456.495	311.34
456.705	312.3
456.916	377.79
457.126	368.68
457.336	306.49
457.546	240.04
457.756	304.75
457.967	355.32
458.177	285.76
458.387	326.64
458.597	290.6
458.807	325.67
459.017	296.03
459.227	292.74
459.437	315.4
459.647	343.5
459.857	314.63
460.068	300.49
460.278	362.68
460.488	339.04
460.698	379.92
460.908	321.02
461.117	290.02
461.327	277.82
461.537	340.01
461.747	325.67
461.957	365.58
462.167	429.72
462.377	372.95
462.587	338.07
462.797	362.87
463.007	351.05
463.216	381.08
463.426	403.56
463.636	384.57
463.846	313.08
464.056	306.88
464.265	378.95
464.475	302.23
464.685	358.42
464.895	373.14
465.104	346.99
465.314	377.21
465.524	340.98
465.733	313.47
465.943	415.38
466.153	442.7
466.362	405.11
466.572	364.62
466.782	349.12
466.991	364.42
467.201	437.27
467.41	313.85
467.62	377.79
467.829	346.99
468.039	397.75
468.249	365.39
468.458	356.48
468.668	406.47
468.877	397.94
469.086	447.73
469.296	450.83
469.505	362.87
469.715	459.94
469.924	417.32
470.134	452
470.343	447.15
470.552	375.47
470.762	389.8
470.971	364.23
471.18	411.7
471.39	406.47
471.599	376.82
471.808	433.2
472.018	382.25
472.227	419.64
472.436	429.52
472.645	405.69
472.855	393.48
473.064	461.49
473.273	430.1
473.482	460.91
473.691	482.8
473.901	465.75
474.11	422.74
474.319	537.05
474.528	457.23
474.737	484.16
474.946	482.61
475.155	474.86
475.364	503.73
475.573	477.96
475.783	499.08
475.992	487.65
476.201	529.69
476.41	457.23
476.619	440.57
476.828	486.29
477.037	455.29
477.245	496.75
477.454	517.29
477.663	497.14
477.872	504.31
478.081	569.02
478.29	471.37
478.499	593.82
478.708	538.99
478.917	597.31
479.125	515.55
479.334	520.39
479.543	494.81
479.752	533.18
479.961	529.3
480.169	576.38
480.378	496.36
480.587	675.39
480.796	589.75
481.004	556.62
481.213	582.39
481.422	587.23
481.63	595.37
481.839	605.44
482.048	669.38
482.256	605.06
482.465	599.83
482.674	645.16
482.882	611.84
483.091	667.44
483.299	609.51
483.508	646.13
483.716	629.86
483.925	607.77
484.134	597.5
484.342	583.16
484.551	655.04
484.759	652.52
484.967	659.69
485.176	666.28
485.384	658.72
485.593	671.12
485.801	648.84
486.01	640.12
486.218	606.61
486.426	568.83
486.635	574.83
486.843	597.31
487.051	582.78
487.26	564.56
487.468	637.02
487.676	635.09
487.885	613.19
488.093	659.5
488.301	656.59
488.509	680.04
488.717	727.7
488.926	650.97
489.134	653.49
489.342	707.74
489.55	660.66
489.758	687.59
489.967	677.13
490.175	790.86
490.383	710.07
490.591	807.33
490.799	674.22
491.007	780.01
491.215	752.11
491.423	730.99
491.631	701.93
491.839	743.59
492.047	747.85
492.255	680.23
492.463	647.1
492.671	707.35
492.879	731.57
493.087	744.75
493.295	741.84
493.503	773.81
493.711	764.12
493.919	810.23
494.127	823.6
494.334	827.48
494.542	727.12
494.75	750.75
494.958	764.7
495.166	794.93
495.374	818.18
495.581	779.24
495.789	803.65
495.997	857.9
496.205	811.4
496.412	791.05
496.62	795.9
496.828	801.52
497.035	784.08
497.243	843.95
497.451	816.05
497.658	854.22
497.866	823.22
498.074	878.24
498.281	824.38
498.489	908.27
498.696	826.12
498.904	794.73
499.112	806.36
499.319	895.29
499.527	817.79
499.734	877.47
499.942	803.07
500.149	840.07
500.357	864.1
500.564	804.03
500.771	884.83
500.979	802.1
501.186	800.35
501.394	866.81
501.601	840.65
501.808	880.57
502.016	848.6
502.223	829.03
502.43	847.43
502.638	883.86
502.845	854.22
503.052	917.18
503.26	835.42
503.467	943.53
503.674	846.85
503.881	894.32
504.089	950.9
504.296	885.8
504.503	836.78
504.71	851.7
504.917	828.06
505.125	872.62
505.332	898.58
505.539	927.84
505.746	1002.43
505.953	948.57
506.16	929.2
506.367	994.88
506.574	1007.28
506.781	1003.79
506.988	923.38
507.195	966.98
507.402	951.09
507.609	989.45
507.816	918.54
508.023	940.05
508.23	931.52
508.437	895.29
508.644	950.7
508.851	1018.32
509.058	991.19
509.265	1009.6
509.472	993.33
509.679	1065.21
509.885	1007.66
510.092	1000.11
510.299	982.48
510.506	997.98
510.713	1015.61
510.92	996.23
511.126	1050.87
511.333	1065.21
511.54	1058.23
511.746	1090.97
511.953	1091.75
512.16	1091.94
512.367	1025.1
512.573	1052.03
512.78	1067.14
512.987	1033.63
513.193	1050.09
513.4	964.26
513.606	1042.73
513.813	1052.23
514.02	1045.06
514.226	1096.01
514.433	1085.16
514.639	1060.94
514.846	1022.19
515.052	1030.53
515.259	1070.05
515.465	1091.94
515.672	1080.32
515.878	1187.07
516.085	1071.21
516.291	1118.68
516.497	1096.98
516.704	1059.59
516.91	1024.71
517.117	1009.02
517.323	947.6
517.529	1000.69
517.736	1025.1
517.942	1000.11
518.148	1018.71
518.354	1100.08
518.561	1078.77
518.767	1063.66
518.973	1129.72
519.179	1142.9
519.386	1103.96
519.592	1087.49
519.798	1104.73
520.004	1200.64
520.21	1162.47
520.417	1216.91
520.623	1254.3
520.829	1226.99
521.035	1226.79
521.241	1259.15
521.447	1242.29
521.653	1321.92
521.859	1228.15
522.065	1261.47
522.271	1347.3
522.477	1267.48
522.683	1354.28
522.889	1256.24
523.095	1274.65
523.301	1248.3
523.507	1247.72
523.713	1278.33
523.919	1263.41
524.125	1345.17
524.331	1304.68
524.537	1401.94
524.742	1400.78
524.948	1386.05
525.154	1391.48
525.36	1492.61
525.566	1397.29
525.772	1434.88
525.977	1353.11
526.183	1410.46
526.389	1414.53
526.595	1332.96
526.8	1350.01
527.006	1281.43
527.212	1276.78
527.417	1261.47
527.623	1284.14
527.829	1319.4
528.034	1363.77
528.24	1350.4
528.446	1387.8
528.651	1434.88
528.857	1431.58
529.062	1495.71
529.268	1484.48
529.473	1483.89
529.679	1442.43
529.884	1534.66
530.09	1464.13
530.295	1510.24
530.501	1540.47
530.706	1465.68
530.912	1442.63
531.117	1511.79
531.323	1503.66
531.528	1556.55
531.733	1547.44
531.939	1479.83
532.144	1560.23
532.35	1530.39
532.555	1563.72
532.76	1505.59
532.966	1555.77
533.171	1518.57
533.376	1476.73
533.581	1460.06
533.787	1523.03
533.992	1515.67
534.197	1567.01
534.402	1548.8
534.607	1532.33
534.813	1666.79
535.018	1510.63
535.223	1555.19
535.428	1567.4
535.633	1636.57
535.838	1585.42
536.043	1597.43
536.249	1671.44
536.454	1584.45
536.659	1613.9
536.864	1581.93
537.069	1572.44
537.274	1574.57
537.479	1605.76
537.684	1603.44
537.889	1523.61
538.094	1671.83
538.299	1583.29
538.504	1651.49
538.708	1638.12
538.913	1670.86
539.118	1613.32
539.323	1666.99
539.528	1624.36
539.733	1596.27
539.938	1605.37
540.142	1638.12
540.347	1586.58
540.552	1581.35
540.757	1563.72
540.962	1580.96
541.166	1555.77
541.371	1563.72
541.576	1585.42
541.781	1484.86
541.985	1631.72
542.19	1632.3
542.395	1677.06
542.599	1687.52
542.804	1652.07
543.008	1704.38
543.213	1637.73
543.418	1640.05
543.622	1638.7
543.827	1592.59
544.031	1732.67
544.236	1710.97
544.44	1653.62
544.645	1728.21
544.849	1667.57
545.054	1679.19
545.258	1761.73
545.463	1766.18
545.667	1649.35
545.872	1718.72
546.076	1701.08
546.281	1726.47
546.485	1648
546.689	1736.15
546.894	1737.7
547.098	1688.49
547.302	1645.48
547.507	1714.26
547.711	1689.85
547.915	1738.48
548.119	1672.8
548.324	1683.26
548.528	1779.55
548.732	1735.96
548.936	1725.88
549.141	1744.1
549.345	1728.79
549.549	1737.32
549.753	1726.27
549.957	1781.68
550.161	1738.87
550.366	1760.18
550.57	1730.73
550.774	1736.54
550.978	1691.01
551.182	1730.53
551.386	1705.93
551.59	1748.36
551.794	1681.52
551.998	1785.56
552.202	1706.12
552.406	1692.75
552.61	1763.66
552.814	1733.05
553.018	1807.06
553.222	1722.98
553.426	1744.68
553.63	1813.46
553.833	1712.71
554.037	1665.05
554.241	1746.23
554.445	1726.27
554.649	1750.1
554.853	1714.65
555.056	1838.65
555.26	1783.43
555.464	1746.81
555.668	1772.77
555.871	1798.93
556.075	1783.43
556.279	1711.16
556.483	1679.77
556.686	1733.05
556.89	1747
557.094	1729.37
557.297	1670.08
557.501	1775.29
557.704	1659.04
557.908	1710.19
558.112	1644.9
558.315	1742.55
558.519	1682.48
558.722	1675.51
558.926	1664.85
559.129	1596.85
559.333	1612.74
559.536	1588.9
559.74	1628.04
559.943	1622.23
560.147	1572.24
560.35	1600.92
560.553	1627.07
560.757	1601.69
560.96	1726.66
561.164	1611.38
561.367	1717.75
561.57	1633.08
561.774	1652.65
561.977	1647.42
562.18	1623.97
562.384	1667.76
562.587	1671.25
562.79	1566.24
562.993	1608.09
563.197	1661.37
563.4	1681.32
563.603	1711.35
563.806	1725.3
564.009	1593.94
564.212	1653.04
564.416	1601.5
564.619	1631.14
564.822	1531.56
565.025	1667.76
565.228	1589.68
565.431	1587.16
565.634	1515.47
565.837	1551.9
566.04	1548.41
566.243	1561.2
566.446	1455.8
566.649	1539.11
566.852	1488.93
567.055	1485.64
567.258	1571.47
567.461	1626.1
567.664	1597.62
567.867	1471.11
568.07	1529.42
568.273	1530.39
568.475	1589.1
568.678	1497.26
568.881	1493
569.084	1510.24
569.287	1391.09
569.489	1403.68
569.692	1501.33
569.895	1488.35
570.098	1419.57
570.3	1415.11
570.503	1354.47
570.706	1382.76
570.909	1404.85
571.111	1342.46
571.314	1372.88
571.516	1400.58
571.719	1402.71
571.922	1386.63
572.124	1395.93
572.327	1425.38
572.529	1367.84
572.732	1360.48
572.935	1425.58
573.137	1469.56
573.34	1337.61
573.542	1425.58
573.745	1432.36
573.947	1441.08
574.15	1395.16
574.352	1392.83
574.554	1447.47
574.757	1346.14
574.959	1339.16
575.162	1358.35
575.364	1330.64
575.566	1439.72
575.769	1312.04
575.971	1361.06
576.173	1274.45
576.376	1322.89
576.578	1373.46
576.78	1433.33
576.982	1266.7
577.185	1313.98
577.387	1289.18
577.589	1290.73
577.791	1311.85
577.993	1309.13
578.196	1319.6
578.398	1334.71
578.6	1366.29
578.802	1259.92
579.004	1267.87
579.206	1271.74
579.408	1273.68
579.61	1282.01
579.812	1334.71
580.014	1295.77
580.216	1249.27
580.418	1289.18
580.62	1245.39
580.822	1226.99
581.024	1283.95
581.226	1320.37
581.428	1260.31
581.63	1372.88
581.832	1285.11
582.034	1337.81
582.236	1296.15
582.438	1344.2
582.64	1372.1
582.841	1369.97
583.043	1396.9
583.245	1307.97
583.447	1328.31
583.649	1274.65
583.85	1325.99
584.052	1369.39
584.254	1272.52
584.456	1325.02
584.657	1272.52
584.859	1314.75
585.061	1309.13
585.262	1263.99
585.464	1244.62
585.666	1306.23
585.867	1247.91
586.069	1339.55
586.27	1272.71
586.472	1285.5
586.674	1256.82
586.875	1276.39
587.077	1230.67
587.278	1298.09
587.48	1262.25
587.681	1380.24
587.883	1272.52
588.084	1237.64
588.285	1256.24
588.487	1213.42
588.688	1239.19
588.89	1161.3
589.091	1128.56
589.292	1126.24
589.494	1118.49
589.695	1097.95
589.896	1032.08
590.098	1034.98
590.299	1126.82
590.5	1067.34
590.702	1052.03
590.903	1127.79
591.104	1176.42
591.305	1170.6
591.507	1219.82
591.708	1186.1
591.909	1146.97
592.11	1246.75
592.311	1195.21
592.512	1150.45
592.714	1137.09
592.915	1148.13
593.116	1158.4
593.317	1154.91
593.518	1158.01
593.719	1155.88
593.92	1176.03
594.121	1204.12
594.322	1166.92
594.523	1165.57
594.724	1122.94
594.925	1142.51
595.126	1145.22
595.327	1161.69
595.528	1172.54
595.729	1143.29
595.929	1145.8
596.13	1162.27
596.331	1158.4
596.532	1170.99
596.733	1209.74
596.934	1204.12
597.135	1186.69
597.335	1180.29
597.536	1097.76
597.737	1180.87
597.938	1100.47
598.138	1139.22
598.339	1126.04
598.54	1194.82
598.74	1138.44
598.941	1142.51
599.142	1198.5
599.342	1159.56
599.543	1124.11
599.744	1151.04
599.944	1141.16
600.145	1140.19
600.345	1164.99
600.546	1229.5
600.746	1206.45
600.947	1222.72
601.147	1195.79
601.348	1188.24
601.548	1160.92
601.749	1141.74
601.949	1080.71
602.15	1113.84
602.35	1142.51
602.551	1146.39
602.751	1121.78
602.951	1130.69
603.152	1058.42
603.352	1172.54
603.552	1147.35
603.753	1205.48
603.953	1177.19
604.153	1158.59
604.354	1133.02
604.554	1150.45
604.754	1156.46
604.954	1123.14
605.155	1139.8
605.355	1130.5
605.555	1163.44
605.755	1187.85
605.955	1191.53
606.155	1196.57
606.356	1160.53
606.556	1155.1
606.756	1156.07
606.956	1107.44
607.156	1201.6
607.356	1122.17
607.556	1130.89
607.756	1115.39
607.956	1210.32
608.156	1174.87
608.356	1087.87
608.556	1175.06
608.756	1107.25
608.956	1097.56
609.156	1119.46
609.356	1053.97
609.556	1065.59
609.755	1111.51
609.955	1057.26
610.155	1122.75
610.355	1117.91
610.555	1036.92
610.755	1075.28
610.954	1030.91
611.154	1101.63
611.354	1140.96
611.554	1080.12
611.753	1116.74
611.953	1042.34
612.153	1114.42
612.352	1091.94
612.552	1033.43
612.752	1012.7
612.951	1052.61
613.151	1062.49
613.351	1026.65
613.55	1070.63
613.75	1061.72
613.949	1033.04
614.149	1060.17
614.348	1043.51
614.548	1026.46
614.747	998.56
614.947	1003.21
615.146	960.2
615.346	1041.18
615.545	1056.87
615.745	1032.66
615.944	1062.69
616.144	1045.64
616.343	1054.74
616.542	1012.12
616.742	1009.21
616.941	986.35
617.14	969.11
617.34	984.61
617.539	988.29
617.738	978.21
617.938	1078.77
618.137	1028.2
618.336	986.93
618.535	1007.66
618.734	1030.14
618.934	1064.24
619.133	1027.43
619.332	1011.93
619.531	959.61
619.73	1002.63
619.929	1040.79
620.128	1061.14
620.328	1060.94
620.527	983.25
620.726	1031.3
620.925	1039.24
621.124	982.86
621.323	1028.01
621.522	961.16
621.721	949.35
621.92	986.35
622.119	1023.74
622.318	941.01
622.517	966.2
622.715	976.86
622.914	934.23
623.113	994.49
623.312	912.15
623.511	968.53
623.71	978.99
623.909	961.16
624.107	1010.38
624.306	929.58
624.505	951.86
624.704	935.78
624.902	957.1
625.101	1020.06
625.3	942.18
625.499	906.14
625.697	936.17
625.896	890.83
626.095	964.07
626.293	878.82
626.492	953.61
626.69	927.65
626.889	900.71
627.088	961.94
627.286	917.18
627.485	913.89
627.683	886.76
627.882	948.57
628.08	857.32
628.279	860.61
628.477	944.89
628.676	868.36
628.874	895.29
629.073	862.55
629.271	863.13
629.469	917.38
629.668	867.2
629.866	848.21
630.065	859.83
630.263	916.02
630.461	867.2
630.66	858.09
630.858	885.99
631.056	910.01
631.254	952.45
631.453	865.26
631.651	908.08
631.849	912.34
632.047	897.23
632.245	853.05
632.444	876.3
632.642	905.56
632.84	908.27
633.038	863.32
633.236	869.13
633.434	865.26
633.632	850.92
633.83	854.6
634.028	913.5
634.227	896.26
634.425	942.76
634.623	872.43
634.821	906.14
635.019	881.15
635.216	868.36
635.414	901.68
635.612	920.67
635.81	870.68
636.008	927.06
636.206	871.85
636.404	920.28
636.602	868.17
636.8	875.14
636.997	883.47
637.195	912.15
637.393	850.92
637.591	947.99
637.789	913.5
637.986	852.28
638.184	889.28
638.382	913.7
638.58	918.54
638.777	940.82
638.975	868.17
639.173	884.63
639.37	880.95
639.568	900.13
639.765	931.91
639.963	888.31
640.161	917.38
640.358	931.52
640.556	857.32
640.753	823.22
640.951	836.39
641.148	855.57
641.346	840.65
641.543	845.5
641.741	841.23
641.938	825.73
642.136	833.1
642.333	833.48
642.531	895.48
642.728	914.86
642.925	842.98
643.123	853.44
643.32	866.81
643.517	851.7
643.715	853.25
643.912	844.33
644.109	850.73
644.306	825.15
644.504	809.85
644.701	847.63
644.898	861.58
645.095	806.17
645.293	821.08
645.49	837.75
645.687	846.85
645.884	886.96
646.081	761.22
646.278	776.14
646.475	803.07
646.672	812.37
646.87	846.85
647.067	791.44
647.264	804.81
647.461	761.02
647.658	732.15
647.855	830
648.052	772.65
648.249	701.16
648.446	761.8
648.642	761.41
648.839	746.88
649.036	753.08
649.233	722.08
649.43	709.49
649.627	691.27
649.824	706.77
650.021	741.45
650.217	727.89
650.414	720.34
650.611	758.31
650.808	751.72
651.004	758.5
651.201	789.31
651.398	832.13
651.595	742.81
651.791	722.66
651.988	791.44
652.185	679.07
652.381	750.37
652.578	705.81
652.775	753.08
652.971	741.84
653.168	757.34
653.364	781.95
653.561	679.26
653.757	746.3
653.954	759.86
654.15	699.02
654.347	769.94
654.543	716.85
654.74	692.63
654.936	676.55
655.133	723.44
655.329	744.36
655.525	696.51
655.722	731.19
655.918	683.52
656.115	713.94
656.311	624.43
656.507	588.98
656.704	583.94
656.9	625.21
657.096	615.91
657.292	633.34
657.489	684.49
657.685	680.81
657.881	652.91
658.077	675.39
658.273	671.32
658.47	716.27
658.666	687.59
658.862	742.23
659.058	690.5
659.254	747.27
659.45	665.89
659.646	690.89
659.842	705.22
660.038	750.75
660.234	683.33
660.43	690.31
660.626	745.52
660.822	704.64
661.018	695.54
661.214	708.13
661.41	656.01
661.606	709.49
661.802	707.74
661.998	709.1
662.194	654.46
662.39	706
662.586	724.21
662.781	715.3
662.977	711.04
663.173	698.06
663.369	695.92
663.564	692.63
663.76	716.65
663.956	681.78
664.152	727.31
664.347	639.16
664.543	681.97
664.739	691.66
664.934	618.04
665.13	616.68
665.326	709.87
665.521	681.59
665.717	607.96
665.912	628.69
666.108	593.43
666.304	643.81
666.499	651.17
666.695	578.51
666.89	635.67
667.086	696.51
667.281	660.47
667.477	729.64
667.672	654.27
667.867	643.61
668.063	665.89
668.258	617.65
668.454	639.74
668.649	698.83
668.844	625.79
669.04	688.37
669.235	652.91
669.43	616.49
669.626	613.19
669.821	614.36
670.016	597.5
670.211	633.54
670.407	623.85
670.602	638.19
670.797	628.31
670.992	659.5
671.187	609.32
671.382	660.08
671.578	605.25
671.773	649.04
671.968	620.56
672.163	628.11
672.358	645.94
672.553	613.78
672.748	601.57
672.943	699.22
673.138	638.38
673.333	670.35
673.528	600.99
673.723	616.29
673.918	619.01
674.113	569.21
674.308	695.73
674.503	649.42
674.698	666.09
674.892	636.06
675.087	652.52
675.282	648.07
675.477	583.94
675.672	644.97
675.867	583.36
676.061	560.69
676.256	557.78
676.451	606.99
676.646	603.89
676.84	575.41
677.035	546.35
677.23	588.2
677.424	647.49
677.619	634.31
677.814	638.57
678.008	651.56
678.203	546.35
678.397	587.23
678.592	623.66
678.787	646.71
678.981	604.28
679.176	594.21
679.37	617.84
679.565	582.39
679.759	594.4
679.954	606.03
680.148	643.03
680.342	658.53
680.537	615.13
680.731	588.39
680.926	626.56
681.12	631.99
681.314	582.39
681.509	614.94
681.703	629.47
681.897	635.67
682.092	608.54
682.286	599.44
682.48	636.83
682.674	615.33
682.869	619.78
683.063	587.62
683.257	681.39
683.451	587.23
683.645	637.02
683.839	624.24
684.034	599.05
684.228	615.71
684.422	558.36
684.616	554.88
684.81	627.72
685.004	591.88
685.198	587.43
685.392	653.3
685.586	570.38
685.78	639.16
685.974	626.95
686.168	614.55
686.362	670.74
686.556	552.94
686.75	529.11
686.944	529.69
687.138	544.41
687.331	448.12
687.525	478.15
687.719	417.12
687.913	456.84
688.107	494.04
688.301	454.13
688.494	519.42
688.688	479.51
688.882	441.15
689.076	462.46
689.269	480.09
689.463	560.88
689.657	501.6
689.85	490.94
690.044	506.83
690.238	487.26
690.431	528.33
690.625	523.1
690.818	534.92
691.012	559.53
691.205	556.23
691.399	523.3
691.593	546.93
691.786	618.23
691.98	640.9
692.173	654.85
692.366	610.87
692.56	645.94
692.753	691.27
692.947	590.14
693.14	692.05
693.333	679.84
693.527	595.18
693.72	645.74
693.914	628.31
694.107	629.86
694.3	658.72
694.493	628.69
694.687	705.61
694.88	631.41
695.073	677.91
695.266	719.95
695.46	702.12
695.653	701.93
695.846	764.12
696.039	661.63
696.232	709.87
696.425	760.25
696.618	772.07
696.812	732.15
697.005	830.19
697.198	855.96
697.391	791.44
697.584	855.96
697.777	837.94
697.97	870.3
698.163	863.52
698.356	866.03
698.549	952.83
698.742	894.51
698.935	859.83
699.127	884.25
699.32	835.23
699.513	851.12
699.706	916.02
699.899	910.79
700.092	875.14
700.285	917.96
700.477	852.47
700.67	939.46
700.863	956.51
701.056	1041.96
701.248	1028.39
701.441	1025.29
701.634	973.18
701.826	1077.99
702.019	972.21
702.212	1041.18
702.404	1000.49
702.597	967.95
702.79	1035.95
702.982	1047.19
703.175	1066.95
703.367	1094.85
703.56	1103.37
703.752	1166.73
703.945	1144.06
704.137	1146
704.33	1167.31
704.522	1172.35
704.715	1226.79
704.907	1228.54
705.1	1252.75
705.292	1255.27
705.484	1222.14
705.677	1259.73
705.869	1304.68
706.061	1274.65
706.254	1338.58
706.446	1281.04
706.638	1303.32
706.831	1357.96
707.023	1312.43
707.215	1422.48
707.407	1419.76
707.599	1369.58
707.792	1419.96
707.984	1427.51
708.176	1441.27
708.368	1414.53
708.56	1465.49
708.752	1445.14
708.944	1444.95
709.136	1471.88
709.329	1456.96
709.521	1593.75
709.713	1541.82
709.905	1559.46
710.097	1576.7
710.289	1555
710.481	1577.09
710.672	1593.55
710.864	1604.79
711.056	1657.49
711.248	1619.13
711.44	1627.46
711.632	1650.32
711.824	1670.08
712.016	1742.55
712.207	1707.87
712.399	1676.87
712.591	1802.03
712.783	1744.68
712.975	1774.51
713.166	1697.21
713.358	1727.43
713.55	1800.67
713.741	1817.53
713.933	1803.38
714.125	1801.45
714.316	1779.55
714.508	1838.84
714.7	1873.91
714.891	1830.12
715.083	1894.06
715.274	1842.52
715.466	1862.86
715.657	1925.44
715.849	1797.18
716.04	1852.21
716.232	1788.46
716.423	1867.32
716.615	1778.97
716.806	1726.66
716.998	1700.5
717.189	1661.37
717.381	1578.64
717.572	1558.49
717.763	1600.72
717.955	1516.25
718.146	1543.57
718.337	1470.33
718.528	1462.58
718.72	1427.9
718.911	1457.16
719.102	1434.49
719.293	1522.06
719.485	1462.58
719.676	1450.76
719.867	1378.88
720.058	1384.7
720.249	1433.33
720.44	1439.14
720.632	1488.54
720.823	1524.58
721.014	1645.67
721.205	1641.8
721.396	1738.28
721.587	1798.15
721.778	1819.66
721.969	1815.78
722.16	1873.33
722.351	1879.33
722.542	1983.18
722.733	2047.89
722.924	1924.28
723.115	1972.14
723.305	1933.19
723.496	1932.22
723.687	1828.38
723.878	1859.76
724.069	1882.82
724.26	1857.44
724.45	1860.93
724.641	1820.82
724.832	1880.69
725.023	1813.07
725.213	1845.04
725.404	1780.91
725.595	1846.01
725.785	1799.9
725.976	1873.33
726.167	1850.85
726.357	1832.64
726.548	1954.7
726.739	1860.54
726.929	1931.26
727.12	1958.19
727.31	1989.77
727.501	1890.38
727.691	1915.76
727.882	1945.4
728.072	2000.23
728.263	1953.34
728.453	2051.19
728.644	2017.47
728.834	2001.59
729.024	1976.79
729.215	1956.83
729.405	1980.86
729.596	2088.58
729.786	2086.45
729.976	2060.29
730.167	2110.67
730.357	2023.87
730.547	2041.3
730.737	2096.91
730.928	2134.88
731.118	2188.94
731.308	2138.76
731.498	2125.78
731.688	2173.44
731.879	2205.6
732.069	2259.46
732.259	2290.08
732.449	2298.02
732.639	2300.34
732.829	2352.46
733.019	2369.51
733.209	2454.57
733.399	2440.04
733.589	2501.26
733.779	2531.49
733.969	2507.85
734.159	2551.44
734.349	2605.3
734.539	2617.9
734.729	2577.4
734.919	2662.07
735.109	2674.08
735.299	2597.17
735.488	2667.69
735.678	2634.17
735.868	2635.53
736.058	2630.3
736.248	2629.71
736.437	2607.24
736.627	2585.73
736.817	2742.28
737.007	2679.7
737.196	2712.45
737.386	2683.19
737.576	2683.96
737.765	2693.26
737.955	2655.1
738.144	2793.63
738.334	2759.33
738.524	2681.06
738.713	2719.61
738.903	2706.44
739.092	2760.11
739.282	2779.68
739.471	2766.5
739.661	2748.87
739.85	2783.55
740.04	2811.06
740.229	2835.67
740.419	2833.73
740.608	2856.4
740.797	2800.99
740.987	2903.87
741.176	2854.46
741.365	2803.7
741.555	2780.26
741.744	2880.42
741.933	2856.21
742.123	2831.79
742.312	2901.74
742.501	2924.02
742.69	2948.62
742.88	2837.02
743.069	2932.93
743.258	2890.89
743.447	2955.21
743.636	2956.37
743.825	2921.5
744.014	2918.79
744.204	2951.34
744.393	2928.86
744.582	2986.02
744.771	2992.02
744.96	2894.18
745.149	2986.6
745.338	2939.32
745.527	2996.28
745.716	2983.88
745.905	2932.35
746.094	2962.77
746.283	3004.81
746.471	3008.68
746.66	3023.8
746.849	3024.38
747.038	3020.31
747.227	2959.47
747.416	2998.22
747.604	2923.44
747.793	2972.45
747.982	2993.96
748.171	2975.36
748.359	3016.82
748.548	2998.61
748.737	2952.3
748.926	2953.27
749.114	2885.66
749.303	2984.85
749.491	2967.22
749.68	2901.15
749.869	2978.85
750.057	2896.7
750.246	2960.83
750.434	2902.9
750.623	2905.22
750.811	2913.94
751	2951.92
751.188	2921.11
751.377	2964.9
751.565	2910.07
751.754	2868.8
751.942	2874.03
752.131	3005.58
752.319	2878.87
752.507	2862.41
752.696	2967.22
752.884	2937.97
753.072	2890.5
753.261	2896.89
753.449	2906
753.637	2874.61
753.825	2948.62
754.014	2839.54
754.202	2859.5
754.39	2968.39
754.578	2919.95
754.766	2861.82
754.955	2864.15
755.143	2958.5
755.331	2844.77
755.519	2849.62
755.707	2860.27
755.895	2814.55
756.083	2858.92
756.271	2762.43
756.459	2808.74
756.647	2886.24
756.835	2821.52
757.023	2777.16
757.211	2795.37
757.399	2770.18
757.587	2782.97
757.775	2775.03
757.963	2782.58
758.151	2782.58
758.339	2738.6
758.526	2735.5
758.714	2789.17
758.902	2655.68
759.09	2621.58
759.278	2445.46
759.465	2251.13
759.653	1931.26
759.841	1791.76
760.028	1480.41
760.216	1288.6
760.404	1253.92
760.591	1004.56
760.779	784.27
760.967	750.17
761.154	590.14
761.342	637.41
761.529	642.06
761.717	721.3
761.905	712.97
762.092	749.98
762.28	717.43
762.467	727.5
762.655	674.61
762.842	692.24
763.029	673.26
763.217	683.72
763.404	703.87
763.592	729.44
763.779	651.36
763.966	761.99
764.154	758.12
764.341	799.77
764.528	790.67
764.716	862.74
764.903	914.86
765.09	975.89
765.277	997.78
765.465	1151.81
765.652	1175.06
765.839	1246.94
766.026	1350.98
766.213	1417.05
766.4	1471.49
766.588	1655.36
766.775	1627.07
766.962	1734.99
767.149	1786.53
767.336	1911.11
767.523	1884.56
767.71	1986.09
767.897	2085.09
768.084	2166.66
768.271	2187.58
768.458	2240.67
768.645	2270.12
768.832	2229.43
769.019	2270.51
769.206	2288.33
769.392	2360.21
769.579	2452.82
769.766	2411.56
769.953	2386.37
770.14	2489.05
770.327	2421.82
770.513	2456.31
770.7	2501.65
770.887	2448.76
771.073	2500.29
771.26	2469.1
771.447	2438.29
771.634	2480.14
771.82	2538.27
772.007	2442.94
772.193	2474.72
772.38	2545.63
772.567	2490.02
772.753	2492.54
772.94	2568.49
773.126	2535.55
773.313	2506.88
773.499	2530.71
773.686	2509.79
773.872	2530.13
774.059	2534.59
774.245	2471.81
774.432	2485.37
774.618	2393.54
774.804	2459.02
774.991	2395.09
775.177	2459.8
775.363	2453.02
775.55	2480.92
775.736	2402.64
775.922	2418.34
776.109	2468.13
776.295	2437.52
776.481	2462.7
776.667	2476.85
776.853	2449.92
777.04	2380.56
777.226	2440.42
777.412	2521.22
777.598	2401.29
777.784	2425.7
777.97	2401.48
778.156	2441.01
778.342	2396.44
778.528	2423.37
778.715	2332.89
778.901	2347.62
779.087	2370.87
779.272	2346.84
779.458	2336.19
779.644	2393.54
779.83	2319.53
780.016	2442.75
780.202	2353.82
780.388	2361.57
780.574	2258.3
780.76	2288.14
780.946	2339.09
781.131	2353.43
781.317	2309.64
781.503	2260.82
781.689	2305.96
781.874	2448.37
782.06	2301.89
782.246	2316.81
782.432	2287.36
782.617	2280.39
782.803	2379.01
782.989	2185.65
783.174	2250.16
783.36	2222.85
783.545	2253.65
783.731	2262.56
783.916	2175.77
784.102	2287.17
784.288	2199.79
784.473	2215.29
784.659	2241.83
784.844	2233.11
785.029	2189.52
785.215	2190.49
785.4	2159.49
785.586	2234.08
785.771	2110.67
785.956	2175.57
786.142	2186.81
786.327	2133.72
786.512	2177.7
786.698	2106.79
786.883	2104.08
787.068	2124.62
787.254	2176.73
787.439	2104.27
787.624	2099.04
787.809	2117.45
787.994	2065.33
788.18	2121.9
788.365	2050.02
788.55	2098.07
788.735	2094.97
788.92	2072.5
789.105	2051.77
789.29	2095.94
789.475	2014.37
789.66	2032.97
789.845	2005.07
790.03	1998.29
790.215	2059.71
790.4	2085.87
790.585	2089.74
790.77	2002.94
790.955	1970.78
791.14	1977.95
791.325	2095.94
791.51	1916.53
791.695	1979.89
791.879	1964.39
792.064	1965.74
792.249	2033.75
792.434	1979.11
792.618	1976.98
792.803	2004.88
792.988	1980.66
793.173	2011.86
793.357	2041.69
793.542	1958.57
793.727	1975.43
793.911	2028.13
794.096	2004.49
794.281	1987.25
794.465	2099.82
794.65	1992.29
794.834	2037.04
795.019	2064.36
795.203	2059.52
795.388	2037.62
795.572	2082.19
795.757	2019.8
795.941	2019.6
796.126	2050.41
796.31	1948.11
796.494	2034.52
796.679	2026
796.863	1994.81
797.048	2066.69
797.232	2045.37
797.416	2044.6
797.601	2023.29
797.785	2062.04
797.969	2082.96
798.153	1999.07
798.338	2060.29
798.522	2056.61
798.706	2056.03
798.89	2068.43
799.074	2181.19
799.258	2112.22
799.443	2088.19
799.627	2064.36
799.811	2080.83
799.995	2074.24
800.179	2012.44
800.363	2011.66
800.547	2044.79
800.731	2054.29
800.915	2016.12
801.099	2044.21
801.283	2058.94
801.467	2045.57
801.651	2022.12
801.835	2070.95
802.019	2060.87
802.202	2095.94
802.386	1992.09
802.57	1992.67
802.754	1989.57
802.938	1984.92
803.121	1991.32
803.305	2055.84
803.489	2009.34
803.673	2049.83
803.856	2083.35
804.04	2004.69
804.224	2089.55
804.407	1996.36
804.591	2005.46
804.775	1987.25
804.958	2022.7
805.142	2108.73
805.326	2030.26
805.509	2074.44
805.693	2057.39
805.876	2062.81
806.06	2048.28
806.243	2064.94
806.427	2087.42
806.61	2110.08
806.794	2044.4
806.977	2076.57
807.16	2072.69
807.344	2093.81
807.527	2074.82
807.71	2039.17
807.894	2028.71
808.077	2096.14
808.26	2021.54
808.444	2006.04
808.627	2045.37
808.81	2005.85
808.993	1974.85
809.177	2009.53
809.36	1927.58
809.543	2045.57
809.726	1926.61
809.909	1931.84
810.092	1911.11
810.276	1909.56
810.459	1917.69
810.642	1902.58
810.825	1851.63
811.008	1886.89
811.191	1794.86
811.374	1807.26
811.557	1826.63
811.74	1892.89
811.923	1800.09
812.106	1822.18
812.289	1728.21
812.472	1745.26
812.654	1800.48
812.837	1766.96
813.02	1696.82
813.203	1690.62
813.386	1613.7
813.569	1569.34
813.751	1544.34
813.934	1614.09
814.117	1568.37
814.3	1512.96
814.482	1464.71
814.665	1449.41
814.848	1418.99
815.03	1443.4
815.213	1400.97
815.396	1376.75
815.578	1373.26
815.761	1325.8
815.943	1439.91
816.126	1338.39
816.309	1287.82
816.491	1274.07
816.674	1202.96
816.856	1255.66
817.039	1248.3
817.221	1334.51
817.403	1300.42
817.586	1257.6
817.768	1276
817.951	1214.2
818.133	1187.27
818.315	1251.01
818.498	1287.63
818.68	1312.23
818.862	1300.8
819.045	1350.21
819.227	1306.81
819.409	1280.46
819.591	1321.53
819.774	1282.78
819.956	1231.63
820.138	1332
820.32	1300.61
820.502	1382.37
820.684	1420.93
820.866	1412.59
821.048	1451.54
821.231	1471.3
821.413	1429.45
821.595	1419.57
821.777	1446.31
821.959	1408.91
822.141	1481.76
822.323	1350.4
822.505	1330.25
822.686	1312.82
822.868	1215.55
823.05	1146.58
823.232	1146.39
823.414	1088.07
823.596	1159.56
823.778	1129.34
823.96	1137.86
824.141	1191.72
824.323	1171.96
824.505	1232.41
824.687	1270.97
824.868	1312.62
825.05	1389.93
825.232	1410.66
825.413	1469.36
825.595	1422.48
825.777	1342.65
825.958	1406.78
826.14	1385.66
826.321	1418.21
826.503	1381.98
826.685	1397.1
826.866	1444.37
827.048	1427.71
827.229	1370.55
827.411	1353.31
827.592	1292.28
827.773	1316.11
827.955	1269.42
828.136	1270.38
828.318	1242.1
828.499	1271.93
828.68	1204.7
828.862	1251.4
829.043	1251.98
829.224	1231.83
829.406	1224.85
829.587	1241.71
829.768	1246.17
829.949	1248.49
830.131	1257.6
830.312	1307.2
830.493	1267.67
830.674	1250.82
830.855	1243.45
831.036	1245.58
831.218	1292.28
831.399	1309.52
831.58	1288.79
831.761	1286.85
831.942	1284.14
832.123	1239.19
832.304	1220.01
832.485	1204.32
832.666	1252.37
832.847	1275.42
833.028	1282.2
833.209	1271.93
833.389	1233.77
833.57	1175.64
833.751	1255.27
833.932	1304.48
834.113	1244.81
834.294	1241.13
834.475	1284.92
834.655	1333.35
834.836	1302.74
835.017	1313.4
835.198	1203.74
835.378	1281.43
835.559	1305.84
835.74	1277.75
835.92	1268.25
836.101	1241.71
836.281	1332.19
836.462	1261.86
836.643	1313.78
836.823	1351.76
837.004	1307.97
837.184	1346.53
837.365	1320.56
837.545	1319.98
837.726	1291.7
837.906	1373.26
838.087	1335.29
838.267	1312.04
838.448	1304.29
838.628	1311.27
838.808	1288.6
838.989	1331.41
839.169	1289.18
839.349	1332.38
839.53	1307.78
839.71	1338.58
839.89	1291.31
840.07	1340.33
840.251	1294.99
840.431	1343.81
840.611	1305.26
840.791	1266.7
840.971	1290.92
841.151	1308.17
841.332	1294.6
841.512	1340.52
841.692	1238.8
841.872	1301
842.052	1295.77
842.232	1314.37
842.412	1232.8
842.592	1280.46
842.772	1326.76
842.952	1337.03
843.132	1313.4
843.312	1268.83
843.492	1214.59
843.672	1319.79
843.851	1217.3
844.031	1279.68
844.211	1265.15
844.391	1244.23
844.571	1301.58
844.751	1313.78
844.93	1294.99
845.11	1236.87
845.29	1257.98
845.47	1278.91
845.649	1291.31
845.829	1318.24
846.009	1247.72
846.188	1259.92
846.368	1282.01
846.547	1224.85
846.727	1263.8
846.907	1227.37
847.086	1251.4
847.266	1304.68
847.445	1263.02
847.625	1196.57
847.804	1225.82
847.984	1249.46
848.163	1196.76
848.343	1200.83
848.522	1264.77
848.701	1259.34
848.881	1192.89
849.06	1199.47
849.239	1203.35
849.419	1222.14
849.598	1153.17
849.777	1196.95
849.957	1208.19
850.136	1116.55
850.315	1143.87
850.494	1130.5
850.674	1095.62
850.853	1164.6
851.032	1134.18
851.211	1174.87
851.39	1150.26
851.569	1134.96
851.748	1096.98
851.927	1181.65
852.107	1138.83
852.286	1160.92
852.465	1100.08
852.644	1180.68
852.823	1177.19
853.002	1131.08
853.181	1144.25
853.359	1165.18
853.538	1095.43
853.717	1174.48
853.896	1035.18
854.075	1023.36
854.254	1018.51
854.433	948.18
854.611	1006.89
854.79	921.45
854.969	999.72
855.148	1027.23
855.327	995.26
855.505	1019.29
855.684	1019.29
855.863	1042.15
856.041	1019.29
856.22	1031.3
856.399	975.31
856.577	1130.11
856.756	1085.55
856.934	1188.62
857.113	1202.19
857.291	1092.14
857.47	1056.49
857.648	1082.06
857.827	1108.22
858.005	1118.87
858.184	1071.41
858.362	1144.64
858.541	1088.07
858.719	1043.12
858.898	1055.33
859.076	1073.34
859.254	1130.31
859.433	1049.71
859.611	1071.79
859.789	1065.01
859.967	1156.07
860.146	1140.57
860.324	1077.99
860.502	1080.9
860.68	1022
860.859	1021.81
861.037	1034.01
861.215	1072.37
861.393	1056.1
861.571	1088.65
861.749	1022.58
861.927	1056.49
862.105	1021.81
862.283	1036.73
862.461	1015.99
862.639	987.9
862.817	1024.91
862.995	1068.5
863.173	1030.53
863.351	1055.52
863.529	1035.56
863.707	1063.27
863.885	1022.97
864.063	964.46
864.241	1027.23
864.418	1077.8
864.596	980.15
864.774	995.26
864.952	973.56
865.129	1019.29
865.307	959.81
865.485	947.99
865.663	1000.49
865.84	917.76
866.018	951.67
866.196	863.71
866.373	892.77
866.551	878.43
866.728	780.4
866.906	857.51
867.084	865.07
867.261	923.96
867.439	914.28
867.616	937.72
867.794	927.84
867.971	933.46
868.149	932.1
868.326	975.31
868.503	988.48
868.681	944.7
868.858	904.59
869.035	897.23
869.213	976.08
869.39	905.75
869.567	1015.99
869.745	905.56
869.922	957.87
870.099	937.53
870.276	963.68
870.454	947.99
870.631	942.95
870.808	939.85
870.985	960.97
871.162	1000.49
871.339	947.41
871.517	870.68
871.694	864.68
871.871	935.4
872.048	919.51
872.225	937.72
872.402	933.26
872.579	887.73
872.756	933.85
872.933	872.23
873.11	900.33
873.287	906.53
873.463	855.18
873.64	867.78
873.817	909.05
873.994	886.18
874.171	868.94
874.348	893.93
874.524	846.08
874.701	878.05
874.878	813.33
875.055	901.68
875.231	869.91
875.408	897.23
875.585	830.38
875.762	865.84
875.938	827.48
876.115	857.9
876.291	843.56
876.468	842.59
876.645	803.45
876.821	842.4
876.998	847.05
877.174	860.22
877.351	858.87
877.527	805.39
877.704	835.81
877.88	841.04
878.057	823.99
878.233	859.64
878.409	824.18
878.586	864.48
878.762	830.58
878.938	799.38
879.115	750.75
879.291	818.37
879.467	765.09
879.644	793.96
879.82	814.3
879.996	765.48
880.172	756.76
880.349	787.95
880.525	852.08
880.701	789.89
880.877	783.89
881.053	782.34
881.229	786.21
881.405	823.8
881.581	728.67
881.757	775.94
881.933	772.84
882.109	821.08
882.285	811.01
882.461	751.72
882.637	758.89
882.813	738.74
882.989	802.48
883.165	818.76
883.341	758.31
883.517	819.92
883.693	764.12
883.869	796.87
884.044	756.95
884.22	816.63
884.396	839.68
884.572	806.75
884.747	830.77
884.923	794.15
885.099	819.15
885.275	850.34
885.45	779.62
885.626	805.2
885.801	752.11
885.977	768.77
886.153	718.01
886.328	811.01
886.504	755.99
886.679	762.19
886.855	763.54
887.03	792.8
887.206	803.26
887.381	793.77
887.557	808.88
887.732	802.1
887.908	777.3
888.083	830
888.258	754.82
888.434	755.21
888.609	783.89
888.784	819.15
888.96	790.67
889.135	766.45
889.31	764.9
889.485	794.15
889.661	747.85
889.836	805
890.011	794.54
890.186	779.82
890.361	743
890.537	768.97
890.712	775.36
890.887	765.87
891.062	772.45
891.237	827.09
891.412	730.41
891.587	790.67
891.762	825.35
891.937	810.62
892.112	744.94
892.287	766.25
892.462	738.74
892.637	703.87
892.812	715.69
892.987	696.51
893.161	683.72
893.336	719.37
893.511	714.72
893.686	699.8
893.861	686.43
894.035	712.59
894.21	686.43
894.385	657.76
894.56	688.17
894.734	619.78
894.909	625.21
895.084	650.2
895.258	637.8
895.433	642.26
895.608	609.51
895.782	586.07
895.957	613.97
896.131	599.44
896.306	524.65
896.48	560.49
896.655	552.94
896.829	505.47
897.004	492.68
897.178	517.29
897.353	493.07
897.527	538.21
897.701	524.46
897.876	465.75
898.05	534.34
898.224	534.53
898.399	584.91
898.573	539.57
898.747	443.86
898.921	485.32
899.096	395.62
899.27	413.63
899.444	400.46
899.618	460.33
899.792	453.93
899.967	437.27
900.141	492.88
900.315	415.96
900.489	447.73
900.663	481.25
900.837	460.52
901.011	417.9
901.185	509.73
901.359	461.1
901.533	446.76
901.707	460.71
901.881	445.02
902.055	381.08
902.229	439.02
902.403	503.73
902.576	462.85
902.75	448.12
902.924	576.58
903.098	531.43
903.272	553.52
903.446	565.14
903.619	548.87
903.793	603.51
903.967	519.81
904.14	582.97
904.314	562.04
904.488	555.46
904.661	596.92
904.835	576.38
905.009	616.1
905.182	640.12
905.356	597.5
905.529	567.28
905.703	535.89
905.876	566.89
906.05	532.21
906.223	516.13
906.397	471.76
906.57	446.38
906.744	439.21
906.917	434.17
907.09	457.81
907.264	437.85
907.437	419.45
907.61	397.36
907.784	410.53
907.957	422.16
908.13	401.23
908.304	432.23
908.477	393.48
908.65	426.03
908.823	378.57
908.996	483.96
909.17	401.04
909.343	397.36
909.516	406.66
909.689	400.46
909.862	342.14
910.035	395.42
910.208	371.98
910.381	359.58
910.554	459.94
910.727	388.45
910.9	380.89
911.073	375.47
911.246	448.9
911.419	450.83
911.592	392.9
911.765	385.73
911.938	374.5
912.11	365.97
912.283	387.67
912.456	420.22
912.629	392.52
912.802	353.38
912.974	332.07
913.147	326.64
913.32	294.87
913.493	316.18
913.665	339.04
913.838	348.92
914.01	338.27
914.183	349.31
914.356	338.65
914.528	376.63
914.701	383.8
914.873	386.9
915.046	340.4
915.218	322.77
915.391	266.39
915.563	276.85
915.736	325.67
915.908	361.52
916.081	332.26
916.253	321.8
916.425	314.24
916.598	365.39
916.77	343.69
916.942	317.15
917.115	246.62
917.287	331.49
917.459	314.82
917.632	263.48
917.804	252.05
917.976	311.92
918.148	330.9
918.32	330.71
918.493	367.91
918.665	382.83
918.837	312.69
919.009	378.57
919.181	380.31
919.353	374.5
919.525	332.45
919.697	362.29
919.869	356.67
920.041	409.37
920.213	476.41
920.385	390.58
920.557	352.99
920.729	385.54
920.901	392.52
921.073	340.98
921.244	347.37
921.416	418.87
921.588	331.1
921.76	339.43
921.932	419.83
922.103	359
922.275	365
922.447	368.68
922.619	289.05
922.79	336.72
922.962	316.18
923.134	379.73
923.305	287.7
923.477	290.6
923.648	309.79
923.82	321.22
923.991	259.99
924.163	276.65
924.335	301.45
924.506	288.28
924.677	334.97
924.849	275.69
925.02	316.18
925.192	306.69
925.363	287.5
925.535	321.6
925.706	285.18
925.877	346.6
926.049	271.04
926.22	328.39
926.391	318.89
926.562	329.16
926.734	297.58
926.905	307.85
927.076	272.78
927.247	286.54
927.419	253.02
927.59	257.28
927.761	244.69
927.932	232.09
928.103	283.82
928.274	224.54
928.445	205.74
928.616	226.28
928.787	232.29
928.958	242.36
929.129	226.28
929.3	220.66
929.471	166.22
929.642	142.97
929.813	110.81
929.984	181.33
930.155	130.57
930.326	171.45
930.496	166.22
930.667	101.12
930.838	129.79
931.009	100.73
931.18	146.07
931.35	90.46
931.521	153.63
931.692	73.41
931.863	44.55
932.033	101.31
932.204	105.19
932.374	91.05
932.545	59.08
932.716	113.13
932.886	114.49
933.057	37.76
933.227	44.93
933.398	121.08
933.568	57.33
933.739	16.84
933.909	34.28
934.08	88.72
934.25	-18.42
934.421	-8.73
934.591	39.12
934.761	31.18
934.932	-2.92
935.102	19.36
935.272	52.3
935.443	20.52
935.613	24.01
935.783	57.14
935.953	-0.98
936.123	163.7
936.294	15.29
936.464	22.85
936.634	21.68
936.804	8.7
936.974	-5.25
937.144	58.69
937.314	26.33
937.484	24.4
937.655	2.5
937.825	64.11
937.995	37.38
938.165	82.71
938.334	37.76
938.504	24.59
938.674	-19.58
938.844	40.48
939.014	66.25
939.184	80.2
939.354	138.9
939.524	112.74
939.694	51.52
939.863	68.57
940.033	100.93
940.203	111.97
940.373	91.82
940.542	110.23
940.712	70.51
940.882	128.24
941.051	130.18
941.221	86.78
941.391	106.35
941.56	61.6
941.73	52.3
941.899	180.75
942.069	61.01
942.238	92.01
942.408	46.29
942.577	83.49
942.747	63.53
942.916	5.41
943.086	28.46
943.255	106.74
943.425	71.86
943.594	56.95
943.763	-5.44
943.933	18.39
944.102	-2.92
944.271	78.45
944.441	60.63
944.61	26.14
944.779	45.71
944.948	133.86
945.117	14.71
945.287	45.13
945.456	-2.92
945.625	30.01
945.794	77.1
945.963	21.3
946.132	72.25
946.301	35.83
946.47	63.92
946.639	-5.83
946.808	22.26
946.977	40.67
947.146	82.91
947.315	24.01
947.484	58.5
947.653	45.51
947.822	19.36
947.991	35.25
948.16	113.71
948.329	71.48
948.498	40.28
948.666	40.09
948.835	84.85
949.004	5.41
949.173	30.79
949.341	82.91
949.51	64.7
949.679	90.66
949.847	88.14
950.016	120.11
950.185	93.56
950.353	22.46
950.522	56.75
950.69	92.4
950.859	36.99
951.028	83.3
951.196	58.3
951.365	40.67
951.533	56.75
951.701	74.96
951.87	69.93
952.038	19.75
952.207	49
952.375	113.71
952.543	24.4
952.712	34.66
952.88	36.99
953.048	106.74
953.217	57.53
953.385	52.68
953.553	97.24
953.721	21.1
953.89	59.27
954.058	-0.02
954.226	25.95
954.394	62.18
954.562	20.91
954.73	22.46
954.898	54.81
955.067	87.95
955.235	46.48
955.403	86.2
955.571	108.87
955.739	60.05
955.907	36.21
956.075	45.51
956.243	38.15
956.41	75.74
956.578	-9.9
956.746	-6.6
956.914	10.25
957.082	113.52
957.25	79.81
957.418	26.91
957.585	51.33
957.753	104.03
957.921	24.01
958.089	55.01
958.256	54.81
958.424	58.3
958.592	32.34
958.759	32.73
958.927	61.4
959.095	58.69
959.262	53.65
959.43	52.49
959.597	12.96
959.765	53.46
959.932	3.08
960.1	85.43
960.267	35.05
960.435	47.65
960.602	100.93
960.77	32.15
960.937	19.94
961.104	61.4
961.272	-6.6
961.439	7.73
961.606	72.06
961.774	60.82
961.941	49.78
962.108	55.78
962.275	71.67
962.443	90.08
962.61	54.04
962.777	120.69
962.944	91.24
963.111	80
963.278	70.7
963.446	59.66
963.613	60.82
963.78	71.48
963.947	62.76
964.114	64.89
964.281	146.65
964.448	69.35
964.615	23.23
964.782	46.29
964.949	103.64
965.116	86.01
965.282	132.12
965.449	59.46
965.616	27.11
965.783	88.91
965.95	95.89
966.117	50.94
966.283	63.92
966.45	70.9
966.617	45.9
966.784	122.24
966.95	120.69
967.117	87.17
967.284	49.2
967.45	18.39
967.617	113.33
967.784	78.65
967.95	119.91
968.117	58.3
968.283	83.3
968.45	177.65
968.616	99.96
968.783	109.84
968.949	72.45
969.116	103.64
969.282	51.71
969.449	85.23
969.615	70.31
969.781	51.52
969.948	45.32
970.114	34.86
970.28	141.61
970.447	65.47
970.613	107.32
970.779	56.95
970.945	104.61
971.112	50.55
971.278	62.76
971.444	76.13
971.61	112.94
971.776	71.48
971.942	67.99
972.108	83.1
972.275	64.31
972.441	101.12
972.607	147.23
972.773	67.02
972.939	89.69
973.105	84.65
973.271	39.31
973.437	37.18
973.602	52.49
973.768	78.26
973.934	51.13
974.1	105.96
974.266	-8.73
974.432	98.02
974.598	66.83
974.763	90.66
974.929	59.85
975.095	132.12
975.261	33.89
975.426	26.33
975.592	30.4
975.758	121.46
975.923	13.93
976.089	39.51
976.255	112.36
976.42	71.09
976.586	100.34
976.751	79.81
976.917	126.69
977.082	113.13
977.248	42.03
977.413	19.36
977.579	47.84
977.744	79.23
977.91	29.43
978.075	88.14
978.24	103.25
978.406	55.78
978.571	53.46
978.736	12.38
978.902	75.16
979.067	46.87
979.232	13.93
979.397	71.86
979.563	114.1
979.728	44.55
979.893	68.57
980.058	49.58
980.223	90.85
980.388	82.71
980.554	56.17
980.719	65.28
980.884	60.05
981.049	125.73
981.214	51.52
981.379	88.91
981.544	35.44
981.709	50.94
981.874	56.36
982.039	57.14
982.204	99.18
982.368	66.63
982.533	24.59
982.698	102.48
982.863	113.71
983.028	79.03
983.193	91.82
983.357	80
983.522	65.47
983.687	44.16
983.852	40.67
984.016	46.48
984.181	92.79
984.346	47.06
984.51	76.71
984.675	54.23
984.839	92.98
985.004	97.63
985.168	116.43
985.333	82.52
985.498	52.88
985.662	85.43
985.827	66.63
985.991	76.32
986.155	58.3
986.32	88.72
986.484	130.57
986.649	69.35
986.813	18.97
986.977	70.7
987.142	85.81
987.306	54.04
987.47	34.86
987.634	42.03
987.799	58.11
987.963	70.51
988.127	92.79
988.291	111.19
988.455	61.6
988.62	42.41
988.784	101.89
988.948	76.51
989.112	25.56
989.276	52.49
989.44	64.11
989.604	43.38
989.768	39.7
989.932	136.58
990.096	24.2
990.26	33.31
990.424	43.96
990.588	58.5
990.752	106.54
990.915	96.86
991.079	79.03
991.243	62.18
991.407	88.33
991.571	36.21
991.734	86.98
991.898	90.46
992.062	158.66
992.226	26.14
992.389	33.89
992.553	5.02
992.717	43.38
992.88	53.46
993.044	52.1
993.207	47.06
993.371	79.61
993.535	63.73
993.698	54.23
993.862	89.5
994.025	88.14
994.189	56.95
994.352	50.16
994.515	39.51
994.679	103.25
994.842	60.43
995.006	104.8
995.169	26.72
995.332	24.59
995.496	68.57
995.659	-12.61
995.822	38.93
995.985	47.06
996.149	115.46
996.312	56.17
996.475	110.03
996.638	33.31
996.801	84.46
996.964	118.56
997.128	35.83
997.291	31.76
997.454	41.45
997.617	4.05
997.78	73.8
997.943	24.01
998.106	89.5
998.269	24.01
998.432	60.05
998.595	75.55
998.758	15.87
998.92	20.13
999.083	-6.6
999.246	22.07
999.409	31.95
999.572	-12.03
999.735	25.56
999.897	55.01
1000.06	41.83
1000.223	26.53
1000.386	60.63
1000.548	62.95
1000.711	53.46
1000.874	47.45
1001.036	-0.6
1001.199	78.84
1001.361	21.68
1001.524	39.31
1001.687	61.21
1001.849	15.48
1002.012	49
1002.174	44.35
1002.337	61.01
1002.499	40.09
1002.661	67.99
1002.824	-8.35
1002.986	38.73
1003.149	69.15
1003.311	11.41
1003.473	107.32
1003.636	17.23
1003.798	60.43
1003.96	70.51
1004.123	33.7
1004.285	50.75
1004.447	22.65
1004.609	37.76
1004.771	90.66
1004.933	-11.25
1005.096	12.96
1005.258	-5.44
1005.42	19.55
1005.582	79.23
1005.744	44.93
1005.906	15.87
1006.068	47.84
1006.23	-7.18
1006.392	-25.4
1006.554	28.27
1006.716	69.54
1006.878	49.78
1007.04	-7.96
1007.202	19.55
1007.363	46.87
1007.525	36.21
1007.687	65.86
1007.849	74.19
1008.011	9.67
1008.172	8.9
1008.334	13.74
1008.496	48.81
1008.658	-7.18
1008.819	18.78
1008.981	19.75
1009.143	11.03
1009.304	8.31
1009.466	49.2
1009.627	87.75
1009.789	111.19
1009.95	42.61
1010.112	16.26
1010.273	16.84
1010.435	16.84
1010.596	27.11
1010.758	38.15
1010.919	8.12
1011.081	3.28
1011.242	5.02
1011.403	42.61
1011.565	2.31
1011.726	26.53
1011.887	5.22
1012.049	10.25
1012.21	43.77
1012.371	67.99
1012.532	-35.08
1012.693	12.96
1012.855	5.6
1013.016	18
1013.177	64.11
1013.338	36.02
1013.499	107.51
1013.66	67.8
1013.821	50.75
1013.982	47.65
1014.143	17.61
1014.304	6.38
1014.465	75.16
1014.626	69.35
1014.787	16.65
1014.948	117.98
1015.109	-52.72
1015.27	57.72
1015.431	2.7
1015.592	29.43
1015.752	86.4
1015.913	52.49
1016.074	56.36
1016.235	9.67
1016.395	19.16
1016.556	17.61
1016.717	35.44
1016.877	66.63
1017.038	10.25
1017.199	46.1
1017.359	4.44
1017.52	52.3
1017.681	9.67
1017.841	20.13
1018.002	-2.15
1018.162	8.51
1018.323	86.01
1018.483	15.1
1018.644	24.2
1018.804	-15.71
1018.964	-8.15
1019.125	14.13
1019.285	10.25
1019.446	0.76
1019.606	-14.35
1019.766	-18.03
1019.926	45.13
1020.087	13.74
1020.247	-12.8
1020.407	41.06
1020.567	63.34
1020.728	13.93
1020.888	-12.42
1021.048	2.7
1021.208	5.6
1021.368	-18.62
1021.528	46.48
1021.688	49
1021.848	59.08
1022.008	25.56
1022.168	10.06
1022.328	22.46
1022.488	59.08
1022.648	10.64
1022.808	-7.57
1022.968	41.64
1023.128	-17.07
1023.288	-5.63
1023.448	10.45
1023.608	58.11
1023.767	71.28
1023.927	-13.97
1024.087	-10.28
1024.247	-30.43
1024.406	8.7
1024.566	-22.1
1024.726	18.97
1024.885	25.36
1025.045	42.03
1025.205	-2.53
1025.364	-1.95
1025.524	46.68
1025.683	5.8
1025.843	38.73
1026.003	19.75
1026.162	70.51
1026.321	74.38
1026.481	22.65
1026.64	12.77
1026.8	14.9
1026.959	25.56
1027.119	33.5
1027.278	-19.39
1027.437	-4.47
1027.597	2.31
1027.756	18.2
1027.915	48.03
1028.074	29.05
1028.234	-25.98
1028.393	7.93
1028.552	-0.4
1028.711	-58.53
1028.87	82.91
1029.03	-21.91
1029.189	26.72
1029.348	-54.46
1029.507	17.81
1029.666	-3.31
1029.825	-30.82
1029.984	-1.95
1030.143	-2.15
1030.302	-10.09
1030.461	-39.15
1030.62	20.91
1030.779	40.67
1030.938	-26.37
1031.097	-21.72
1031.255	44.35
1031.414	68.96
1031.573	50.16
1031.732	-21.52
1031.891	38.35
1032.049	54.81
1032.208	43.96
1032.367	-4.67
1032.525	-17.07
1032.684	-18.03
1032.843	-14.74
1033.001	-54.65
1033.16	161.96
1033.319	53.65
1033.477	47.84
1033.636	-5.63
1033.794	-35.28
1033.953	45.51
1034.111	35.25
1034.27	9.09
1034.428	30.01
1034.587	-21.52
1034.745	30.21
1034.903	12.58
1035.062	41.83
1035.22	-39.35
1035.378	38.15
1035.537	-14.16
1035.695	13.35
1035.853	1.73
1036.011	43.77
1036.17	49.78
1036.328	-18.81
1036.486	18
1036.644	44.93
1036.802	-77.52
1036.96	-13.19
1037.119	-3.12
1037.277	-15.13
1037.435	-38.57
1037.593	-22.88
1037.751	12.38
1037.909	50.94
1038.067	50.94
