Data from pine_FLMT105791__97__17-21-37-076.txt Node

Date: Mon Mar 20 17:21:37 GMT 2023
User: antho
Spectrometer: FLMT10579
Trigger mode: 0
Integration Time (sec): 1.000000E-1
Scans to average: 10
Electric dark correction enabled: true
Nonlinearity correction enabled: false
Boxcar width: 0
XAxis mode: Wavelengths
Number of Pixels in Spectrum: 3648
>>>>>Begin Spectral Data<<<<<
345.248	-159.41
345.464	-159.41
345.681	-159.41
345.898	-158.05
346.114	-182.85
346.331	-37.54
346.548	23.1
346.764	-8.28
346.981	-9.06
347.197	-17.2
347.414	21.36
347.631	-36.76
347.847	60.5
348.064	13.22
348.28	17.68
348.497	-36.76
348.713	9.74
348.93	32.02
349.146	34.15
349.363	-6.15
349.579	30.66
349.796	10.12
350.012	-8.48
350.229	7.6
350.445	-26.3
350.661	-25.14
350.878	-24.36
351.094	23.69
351.311	6.64
351.527	34.15
351.743	-15.45
351.96	27.37
352.176	50.42
352.392	29.89
352.609	27.56
352.825	-15.26
353.041	17.49
353.257	-2.86
353.474	8.77
353.69	26.2
353.906	26.59
354.122	-22.62
354.339	41.9
354.555	11.87
354.771	-8.67
354.987	57.01
355.203	56.43
355.42	-19.91
355.636	-20.1
355.852	-9.83
356.068	5.67
356.284	-43.93
356.5	76.19
356.716	14.77
356.932	26.2
357.148	8.38
357.364	6.25
357.58	53.91
357.796	44.03
358.012	68.25
358.228	19.62
358.444	-82.1
358.66	53.72
358.876	20
359.092	-17.39
359.308	23.49
359.524	42.09
359.74	2.57
359.956	-4.02
360.172	4.12
360.388	39.38
360.604	-7.12
360.819	94.4
361.035	15.16
361.251	53.72
361.467	-25.91
361.683	34.73
361.898	21.94
362.114	18.45
362.33	11.29
362.546	68.05
362.762	19.23
362.977	22.14
363.193	-24.36
363.409	34.92
363.624	-16.03
363.84	-12.93
364.056	-17.58
364.271	26.98
364.487	31.05
364.703	2.95
364.918	-14.1
365.134	4.12
365.35	9.54
365.565	117.27
365.781	17.49
365.996	22.72
366.212	52.36
366.427	52.36
366.643	-16.03
366.858	5.09
367.074	-36.76
367.289	46.74
367.505	120.37
367.72	-45.87
367.936	-33.66
368.151	46.16
368.367	25.62
368.582	10.12
368.798	1.6
369.013	47.13
369.228	31.82
369.444	22.72
369.659	66.89
369.874	47.71
370.09	49.84
370.305	-50.13
370.52	-1.11
370.736	68.05
370.951	7.8
371.166	41.32
371.381	41.7
371.597	65.73
371.812	-27.27
372.027	-6.73
372.242	-4.99
372.458	95.37
372.673	6.25
372.888	5.86
373.103	50.81
373.318	102.93
373.533	13.03
373.749	63.99
373.964	-16.81
374.179	52.75
374.394	-13.71
374.609	60.3
374.824	-17.2
375.039	51.39
375.254	0.24
375.469	50.23
375.684	34.54
375.899	47.32
376.114	-7.9
376.329	13.61
376.544	40.93
376.759	49.45
376.974	-3.83
377.189	-26.69
377.404	7.8
377.619	40.93
377.834	-54.39
378.049	-23.2
378.264	-15.06
378.478	6.05
378.693	-13.71
378.908	20.59
379.123	-8.86
379.338	46.74
379.553	48.87
379.767	29.69
379.982	10.32
380.197	42.87
380.412	3.54
380.626	30.27
380.841	91.3
381.056	1.4
381.271	90.72
381.485	-4.8
381.7	-38.12
381.915	34.92
382.129	-12.35
382.344	56.62
382.559	18.65
382.773	62.63
382.988	-9.25
383.202	30.47
383.417	4.7
383.632	113.78
383.846	31.05
384.061	30.47
384.275	24.27
384.49	57.4
384.704	69.99
384.919	34.92
385.133	5.47
385.348	38.8
385.562	-27.27
385.777	48.87
385.991	33.18
386.206	-0.53
386.42	7.99
386.634	63.4
386.849	44.61
387.063	48.87
387.277	-11.77
387.492	1.99
387.706	-3.63
387.92	-21.65
388.135	76.38
388.349	41.12
388.563	21.36
388.778	-1.11
388.992	40.93
389.206	50.23
389.42	83.94
389.635	16.32
389.849	40.54
390.063	76.38
390.277	37.25
390.491	78.13
390.706	57.79
390.92	68.83
391.134	34.92
391.348	55.27
391.562	-43.35
391.776	34.92
391.99	-0.92
392.205	76.19
392.419	-10.41
392.633	26.01
392.847	78.9
393.061	-29.79
393.275	90.14
393.489	14.19
393.703	54.3
393.917	40.74
394.131	13.61
394.345	52.36
394.559	64.95
394.773	0.05
394.986	26.2
395.2	28.14
395.414	55.65
395.628	1.99
395.842	20.2
396.056	-4.21
396.27	-32.5
396.484	34.73
396.697	32.4
396.911	79.87
397.125	25.04
397.339	57.01
397.553	54.88
397.766	97.12
397.98	58.17
398.194	60.69
398.408	20.39
398.621	71.35
398.835	53.14
399.049	46.35
399.262	65.92
399.476	66.12
399.69	84.91
399.903	111.84
400.117	48.49
400.331	28.34
400.544	38.8
400.758	184.88
400.971	61.47
401.185	80.26
401.398	21.75
401.612	95.18
401.826	76.58
402.039	56.24
402.253	1.21
402.466	85.49
402.68	49.84
402.893	64.95
403.106	26.98
403.32	40.54
403.533	65.15
403.747	25.82
403.96	62.24
404.174	63.6
404.387	-8.86
404.6	44.22
404.814	117.85
405.027	55.65
405.24	60.11
405.454	62.24
405.667	96.53
405.88	8.38
406.094	61.85
406.307	81.62
406.52	58.95
406.733	28.92
406.947	18.65
407.16	100.99
407.373	75.22
407.586	30.27
407.799	46.74
408.012	99.44
408.226	70.96
408.439	112.62
408.652	7.99
408.865	74.25
409.078	108.93
409.291	75.22
409.504	27.75
409.717	60.89
409.93	88.2
410.143	65.92
410.357	38.02
410.57	17.87
410.783	60.69
410.996	74.83
411.209	46.16
411.421	97.12
411.634	51.59
411.847	33.37
412.06	63.6
412.273	51
412.486	45.97
412.699	142.26
412.912	61.08
413.125	91.3
413.338	54.49
413.55	75.22
413.763	58.56
413.976	62.44
414.189	47.52
414.402	40.93
414.615	121.72
414.827	35.7
415.04	88.98
415.253	73.67
415.466	98.08
415.678	144.39
415.891	72.7
416.104	76.58
416.316	61.47
416.529	48.29
416.742	102.35
416.954	103.9
417.167	102.73
417.38	83.55
417.592	132.77
417.805	27.37
418.017	16.32
418.23	93.05
418.442	58.17
418.655	65.53
418.868	71.73
419.08	126.37
419.293	107.58
419.505	94.98
419.718	109.9
419.93	109.52
420.142	90.14
420.355	129.67
420.567	143.03
420.78	87.62
420.992	72.7
421.205	154.08
421.417	37.64
421.629	76
421.842	57.4
422.054	23.69
422.266	121.72
422.479	128.31
422.691	57.4
422.903	101.18
423.115	77.55
423.328	103.32
423.54	95.18
423.752	105.64
423.964	80.65
424.177	92.08
424.389	81.42
424.601	202.51
424.813	110.48
425.025	115.72
425.238	146.91
425.45	81.42
425.662	82.39
425.874	384.83
426.086	92.08
426.298	129.47
426.51	134.51
426.722	95.57
426.934	93.24
427.146	154.08
427.358	66.12
427.57	151.75
427.782	87.82
427.994	114.75
428.206	90.72
428.418	80.65
428.63	138.38
428.842	138.97
429.054	130.25
429.266	135.28
429.478	89.95
429.69	119.78
429.902	49.65
430.114	143.23
430.325	155.63
430.537	92.08
430.749	97.31
430.961	56.24
431.173	112.62
431.384	149.43
431.596	54.3
431.808	115.52
432.02	128.12
432.231	150.2
432.443	177.71
432.655	163.18
432.867	109.32
433.078	138
433.29	195.54
433.502	205.03
433.713	195.15
433.925	160.66
434.136	203.87
434.348	85.49
434.56	106.03
434.771	265.48
434.983	110.48
435.194	139.93
435.406	151.56
435.617	192.63
435.829	242.43
436.04	187.6
436.252	200.19
436.463	231
436.675	224.21
436.886	189.53
437.098	225.96
437.309	244.17
437.521	186.05
437.732	214.72
437.943	208.91
438.155	197.09
438.366	151.56
438.578	264.51
438.789	193.99
439	224.6
439.211	172.68
439.423	223.44
439.634	207.75
439.845	236.81
440.057	233.51
440.268	255.6
440.479	166.28
440.69	230.41
440.902	196.51
441.113	200.38
441.324	200
441.535	227.12
441.746	256.76
441.957	194.96
442.168	224.21
442.38	251.73
442.591	245.53
442.802	192.63
443.013	201.74
443.224	250.37
443.435	230.41
443.646	234.87
443.857	268
444.068	218.01
444.279	220.15
444.49	327.87
444.701	260.64
444.912	358.87
445.123	276.91
445.334	283.5
445.545	265.09
445.756	269.55
445.967	207.36
446.178	261.03
446.388	295.32
446.599	305.2
446.81	314.69
447.021	251.34
447.232	301.91
447.443	339.49
447.653	259.86
447.864	302.68
448.075	280.59
448.286	331.74
448.496	293.77
448.707	326.13
448.918	264.9
449.129	383.28
449.339	278.08
449.55	302.88
449.761	274.01
449.971	359.45
450.182	305.59
450.393	342.79
450.603	286.41
450.814	337.56
451.024	339.11
451.235	368.94
451.446	383.28
451.656	399.17
451.867	312.76
452.077	355.19
452.288	392.77
452.498	376.11
452.709	307.53
452.919	340.66
453.13	312.95
453.34	355.77
453.55	265.87
453.761	358.29
453.971	333.1
454.182	373.01
454.392	357.9
454.602	391.61
454.813	339.69
455.023	368.94
455.233	313.14
455.444	327.87
455.654	298.81
455.864	321.48
456.075	336.2
456.285	323.03
456.495	359.84
456.705	384.83
456.916	384.44
457.126	393.74
457.336	369.14
457.546	291.83
457.756	314.11
457.967	399.17
458.177	331.16
458.387	355.57
458.597	358.87
458.807	332.52
459.017	354.41
459.227	362.55
459.437	349.76
459.647	401.11
459.857	385.22
460.068	346.08
460.278	421.84
460.488	387.93
460.698	411.57
460.908	365.07
461.117	356.74
461.327	355.77
461.537	401.11
461.747	383.67
461.957	400.33
462.167	490.81
462.377	447.99
462.587	375.53
462.797	415.83
463.007	390.84
463.216	428.42
463.426	432.49
463.636	434.24
463.846	346.08
464.056	388.71
464.265	427.84
464.475	386.38
464.685	408.47
464.895	456.9
465.104	422.22
465.314	433.46
465.524	391.81
465.733	373.98
465.943	495.46
466.153	479.19
466.362	471.63
466.572	437.72
466.782	420.48
466.991	430.75
467.201	486.16
467.41	393.74
467.62	432.49
467.829	415.05
468.039	456.71
468.249	435.4
468.458	454.97
468.668	479.57
468.877	437.92
469.086	507.86
469.296	494.3
469.505	399.75
469.715	492.94
469.924	496.82
470.134	490.42
470.343	532.47
470.552	468.34
470.762	489.45
470.971	441.6
471.18	460.59
471.39	461.94
471.599	457.68
471.808	492.36
472.018	451.67
472.227	532.85
472.436	536.34
472.645	491.39
472.855	476.28
473.064	553.2
473.273	520.65
473.482	532.85
473.691	561.53
473.901	555.91
474.11	518.13
474.319	605.7
474.528	524.72
474.737	580.71
474.946	581.1
475.155	562.69
475.364	592.53
475.573	547.19
475.783	568.7
475.992	593.5
476.201	620.81
476.41	553.58
476.619	558.82
476.828	583.42
477.037	560.75
477.245	592.53
477.454	594.66
477.663	584.78
477.872	596.01
478.081	656.66
478.29	582.45
478.499	688.43
478.708	587.68
478.917	669.83
479.125	622.36
479.334	650.26
479.543	608.41
479.752	633.02
479.961	611.51
480.169	676.23
480.378	649.88
480.587	764.96
480.796	657.82
481.004	679.52
481.213	692.5
481.422	685.91
481.63	688.63
481.839	711.29
482.048	746.56
482.256	671
482.465	737.64
482.674	743.07
482.882	760.51
483.091	778.52
483.299	727.57
483.508	733.58
483.716	734.35
483.925	745.98
484.134	703.35
484.342	737.45
484.551	801.19
484.759	776.78
484.967	804.87
485.176	812.04
485.384	759.93
485.593	798.29
485.801	799.64
486.01	720.01
486.218	697.54
486.426	660.73
486.635	687.85
486.843	677.78
487.051	720.21
487.26	689.98
487.468	758.18
487.676	771.16
487.885	734.54
488.093	730.48
488.301	781.43
488.509	796.74
488.717	835.68
488.926	790.73
489.134	783.17
489.342	818.05
489.55	776.78
489.758	793.06
489.967	814.56
490.175	936.04
490.383	832.97
490.591	940.3
490.799	842.27
491.007	925.39
491.215	849.63
491.423	862.8
491.631	896.71
491.839	867.26
492.047	895.16
492.255	823.09
492.463	797.71
492.671	842.85
492.879	925.77
493.087	881.99
493.295	902.52
493.503	936.82
493.711	960.45
493.919	960.65
494.127	955.03
494.334	944.76
494.542	901.94
494.75	915.5
494.958	919.77
495.166	995.52
495.374	956.58
495.581	948.63
495.789	975.57
495.997	1049.58
496.205	948.05
496.412	927.32
496.62	958.32
496.828	980.6
497.035	957.16
497.243	1003.08
497.451	989.13
497.658	997.85
497.866	984.87
498.074	1034.66
498.281	954.45
498.489	1067.79
498.696	975.18
498.904	979.63
499.112	966.85
499.319	1055.78
499.527	979.63
499.734	1042.02
499.942	997.27
500.149	966.46
500.357	1011.41
500.564	965.1
500.771	1034.66
500.979	981.96
501.186	961.03
501.394	1001.53
501.601	982.54
501.808	1019.16
502.016	994.94
502.223	983.7
502.43	1024.39
502.638	993.2
502.845	972.47
503.052	1077.48
503.26	1044.73
503.467	1089.49
503.674	1061.01
503.881	1041.83
504.089	1108.86
504.296	1092.2
504.503	985.64
504.71	1027.49
504.917	1012.77
505.125	1060.81
505.332	1060.04
505.539	1097.24
505.746	1155.94
505.953	1146.26
506.16	1104.41
506.367	1186.75
506.574	1194.5
506.781	1164.66
506.988	1113.32
507.195	1114.09
507.402	1176.68
507.609	1163.11
507.816	1131.34
508.023	1132.89
508.23	1123.78
508.437	1070.31
508.644	1148.39
508.851	1179.97
509.058	1184.81
509.265	1178.61
509.472	1209.22
509.679	1245.65
509.885	1192.56
510.092	1200.7
510.299	1177.64
510.506	1202.44
510.713	1187.33
510.92	1188.11
511.126	1205.93
511.333	1250.88
511.54	1232.28
511.746	1284.98
511.953	1263.86
512.16	1279.17
512.367	1237.32
512.573	1238.29
512.78	1244.29
512.987	1224.14
513.193	1230.54
513.4	1182.88
513.606	1226.86
513.813	1256.11
514.02	1238.48
514.226	1315.4
514.433	1317.34
514.639	1235.96
514.846	1254.37
515.052	1250.88
515.259	1288.47
515.465	1276.26
515.672	1282.07
515.878	1393.67
516.085	1323.15
516.291	1322.76
516.497	1301.64
516.704	1277.42
516.91	1211.94
517.117	1193.73
517.323	1142.19
517.529	1181.33
517.736	1187.53
517.942	1222.21
518.148	1244.87
518.354	1269.67
518.561	1221.82
518.767	1267.54
518.973	1291.76
519.179	1305.52
519.386	1286.14
519.592	1287.31
519.798	1318.69
520.004	1382.63
520.21	1325.67
520.417	1408.2
520.623	1452.18
520.829	1446.76
521.035	1446.95
521.241	1412.66
521.447	1481.25
521.653	1551.58
521.859	1456.06
522.065	1471.95
522.271	1539.76
522.477	1529.88
522.683	1560.68
522.889	1511.08
523.095	1504.5
523.301	1495.78
523.507	1461.1
523.713	1500.23
523.919	1489.38
524.125	1588
524.331	1545.57
524.537	1620.74
524.742	1593.23
524.948	1626.94
525.154	1602.73
525.36	1734.47
525.566	1633.92
525.772	1633.92
525.977	1584.32
526.183	1625.78
526.389	1655.23
526.595	1598.66
526.8	1581.03
527.006	1539.18
527.212	1478.53
527.417	1470.78
527.623	1491.9
527.829	1546.54
528.034	1558.74
528.24	1570.37
528.446	1604.28
528.651	1685.65
528.857	1700.18
529.062	1721.88
529.268	1742.22
529.473	1712.58
529.679	1716.26
529.884	1779.81
530.09	1761.02
530.295	1758.11
530.501	1765.86
530.706	1723.04
530.912	1710.26
531.117	1749
531.323	1756.17
531.528	1808.49
531.733	1803.25
531.939	1761.21
532.144	1805.97
532.35	1803.45
532.555	1823.79
532.76	1773.61
532.966	1817.59
533.171	1775.55
533.376	1704.06
533.581	1725.95
533.787	1754.82
533.992	1773.8
534.197	1790.27
534.402	1795.89
534.607	1781.55
534.813	1878.82
535.018	1797.05
535.223	1749.39
535.428	1793.37
535.633	1872.03
535.838	1896.06
536.043	1900.32
536.249	1968.33
536.454	1871.45
536.659	1897.61
536.864	1874.36
537.069	1865.06
537.274	1872.03
537.479	1880.56
537.684	1877.46
537.889	1809.26
538.094	1948.76
538.299	1904.2
538.504	1862.93
538.708	1854.79
538.913	1924.15
539.118	1914.85
539.323	1915.05
539.528	1860.99
539.733	1890.05
539.938	1883.66
540.142	1891.41
540.347	1883.27
540.552	1835.8
540.757	1837.93
540.962	1854.6
541.166	1793.18
541.371	1785.24
541.576	1856.92
541.781	1749
541.985	1933.45
542.19	1831.15
542.395	1949.34
542.599	1924.15
542.804	1917.18
543.008	1950.31
543.213	1907.68
543.418	1847.23
543.622	1912.14
543.827	1854.6
544.031	1956.31
544.236	2003.2
544.44	1957.48
544.645	1990.22
544.849	1946.05
545.054	1954.18
545.258	2045.44
545.463	1975.3
545.667	1908.65
545.872	1980.73
546.076	1972.59
546.281	1964.45
546.485	1941.01
546.689	1990.99
546.894	1994.68
547.098	1949.73
547.302	1941.59
547.507	1984.8
547.711	2002.23
547.915	1989.44
548.119	1927.83
548.324	1952.05
548.528	2028.97
548.732	1969.49
548.936	1994.09
549.141	2006.88
549.345	1983.25
549.549	1995.64
549.753	2018.51
549.957	2102.21
550.161	2079.73
550.366	2036.53
550.57	1967.55
550.774	2025.29
550.978	2032.84
551.182	2030.13
551.386	1974.14
551.59	2027.42
551.794	1990.99
551.998	2027.81
552.202	1971.62
552.406	1978.98
552.61	2030.33
552.814	2021.22
553.018	2059.78
553.222	2031.68
553.426	2039.43
553.63	2107.05
553.833	2001.07
554.037	1989.64
554.241	2047.38
554.445	2032.65
554.649	2028.78
554.853	2010.76
555.056	2056.09
555.26	2067.72
555.464	2035.94
555.668	2042.92
555.871	2055.51
556.075	2094.65
556.279	2049.31
556.483	1971.23
556.686	1995.84
556.89	2010.18
557.094	2004.17
557.297	1931.51
557.501	2015.02
557.704	1908.46
557.908	2012.11
558.112	1947.4
558.315	2036.14
558.519	1965.81
558.722	1982.28
558.926	1937.52
559.129	1902.06
559.333	1898.38
559.536	1892.18
559.74	1870.1
559.943	1906.33
560.147	1866.42
560.35	1917.37
560.553	1898.38
560.757	1856.53
560.96	1969.68
561.164	1934.23
561.367	1981.11
561.57	1937.33
561.774	1910.59
561.977	1920.08
562.18	1908.65
562.384	1988.09
562.587	1903.03
562.79	1915.43
562.993	1890.25
563.197	1934.61
563.4	1977.05
563.603	1938.3
563.806	2012.31
564.009	1901.29
564.212	1937.52
564.416	1862.73
564.619	1882.11
564.822	1854.4
565.025	1930.55
565.228	1868.93
565.431	1897.42
565.634	1778.65
565.837	1860.8
566.04	1816.23
566.243	1839.68
566.446	1737.57
566.649	1855.95
566.852	1757.53
567.055	1797.83
567.258	1842.58
567.461	1853.82
567.664	1880.56
567.867	1782.33
568.07	1853.63
568.273	1779.42
568.475	1874.36
568.678	1787.37
568.881	1812.55
569.084	1758.11
569.287	1693.79
569.489	1755.2
569.692	1782.33
569.895	1784.65
570.098	1716.07
570.3	1733.12
570.503	1689.52
570.706	1701.92
570.909	1698.63
571.111	1612.41
571.314	1649.81
571.516	1685.65
571.719	1707.35
571.922	1622.49
572.124	1677.9
572.327	1722.07
572.529	1619
572.732	1664.14
572.935	1686.42
573.137	1710.26
573.34	1657.36
573.542	1737.38
573.745	1729.05
573.947	1678.87
574.15	1667.82
574.352	1625.2
574.554	1732.34
574.757	1660.27
574.959	1617.84
575.162	1611.64
575.364	1627.72
575.566	1699.02
575.769	1569.79
575.971	1650.39
576.173	1514.57
576.376	1579.86
576.578	1653.29
576.78	1640.51
576.982	1511.86
577.185	1607.38
577.387	1546.35
577.589	1568.24
577.791	1615.51
577.993	1604.28
578.196	1579.48
578.398	1587.23
578.6	1600.01
578.802	1497.52
579.004	1507.21
579.206	1541.11
579.408	1590.52
579.61	1534.53
579.812	1646.71
580.014	1568.24
580.216	1541.7
580.418	1536.08
580.62	1577.73
580.822	1528.52
581.024	1584.9
581.226	1609.51
581.428	1541.11
581.63	1651.55
581.832	1558.36
582.034	1630.63
582.236	1551.77
582.438	1627.91
582.64	1674.99
582.841	1649.81
583.043	1684.68
583.245	1607.38
583.447	1620.16
583.649	1597.88
583.85	1585.87
584.052	1613.58
584.254	1546.15
584.456	1625.59
584.657	1538.4
584.859	1585.68
585.061	1544.6
585.262	1513.8
585.464	1545.18
585.666	1603.31
585.867	1536.85
586.069	1602.92
586.27	1571.53
586.472	1533.95
586.674	1530.65
586.875	1510.89
587.077	1552.35
587.278	1531.62
587.48	1513.99
587.681	1636.83
587.883	1538.01
588.084	1477.37
588.285	1531.43
588.487	1489
588.688	1524.06
588.89	1397.35
589.091	1389.41
589.292	1375.85
589.494	1332.06
589.695	1340.39
589.896	1272.58
590.098	1267.54
590.299	1349.69
590.5	1329.35
590.702	1386.7
590.903	1379.14
591.104	1468.65
591.305	1420.6
591.507	1465.55
591.708	1444.24
591.909	1415.76
592.11	1495.2
592.311	1470.59
592.512	1397.74
592.714	1376.23
592.915	1404.33
593.116	1402
593.317	1409.95
593.518	1417.7
593.719	1374.88
593.92	1417.89
594.121	1474.08
594.322	1419.05
594.523	1399.68
594.724	1333.22
594.925	1425.64
595.126	1410.92
595.327	1409.17
595.528	1417.5
595.729	1419.05
595.929	1387.47
596.13	1405.68
596.331	1405.88
596.532	1384.95
596.733	1456.06
596.934	1455.09
597.135	1445.98
597.335	1447.15
597.536	1361.51
597.737	1392.51
597.938	1364.03
598.138	1415.37
598.339	1424.09
598.54	1422.15
598.74	1408.4
598.941	1392.51
599.142	1475.63
599.342	1419.25
599.543	1396.38
599.744	1401.42
599.944	1406.85
600.145	1400.65
600.345	1414.98
600.546	1477.95
600.746	1423.51
600.947	1500.81
601.147	1416.15
601.348	1421.18
601.548	1373.72
601.749	1421.18
601.949	1374.88
602.15	1365.39
602.35	1380.3
602.551	1429.71
602.751	1364.8
602.951	1372.36
603.152	1286.72
603.352	1445.02
603.552	1415.76
603.753	1439.01
603.953	1414.21
604.153	1405.49
604.354	1423.9
604.554	1383.6
604.754	1406.46
604.954	1353.95
605.155	1432.81
605.355	1366.35
605.555	1438.43
605.755	1485.12
605.955	1404.91
606.155	1444.05
606.356	1400.84
606.556	1439.2
606.756	1409.75
606.956	1358.22
607.156	1456.64
607.356	1368.68
607.556	1391.73
607.756	1397.55
607.956	1447.15
608.156	1415.37
608.356	1393.87
608.556	1420.99
608.756	1394.83
608.956	1381.27
609.156	1396.19
609.356	1350.08
609.556	1349.89
609.755	1343.1
609.955	1352.6
610.155	1377.01
610.355	1349.3
610.555	1317.92
610.755	1351.24
610.954	1298.15
611.154	1358.6
611.354	1377.01
611.554	1337.49
611.753	1372.36
611.953	1300.48
612.153	1358.6
612.352	1360.93
612.552	1275.1
612.752	1280.72
612.951	1322.95
613.151	1313.85
613.351	1290.79
613.55	1316.95
613.75	1341.55
613.949	1274.32
614.149	1280.14
614.348	1309.39
614.548	1251.85
614.747	1243.71
614.947	1288.47
615.146	1226.86
615.346	1320.05
615.545	1285.95
615.745	1268.32
615.944	1295.44
616.144	1309.78
616.343	1281.11
616.542	1211.74
616.742	1242.74
616.941	1252.82
617.14	1191.01
617.34	1280.14
617.539	1250.69
617.738	1232.09
617.938	1292.34
618.137	1267.93
618.336	1222.59
618.535	1253.79
618.734	1223.17
618.934	1268.9
619.133	1270.06
619.332	1273.94
619.531	1245.07
619.73	1233.64
619.929	1275.29
620.128	1265.02
620.328	1303.19
620.527	1226.86
620.726	1263.86
620.925	1254.17
621.124	1229.37
621.323	1213.49
621.522	1248.56
621.721	1201.67
621.92	1170.67
622.119	1250.3
622.318	1200.12
622.517	1235.77
622.715	1226.08
622.914	1179.97
623.113	1215.62
623.312	1149.36
623.511	1226.66
623.71	1167.38
623.909	1196.24
624.107	1239.06
624.306	1158.27
624.505	1177.64
624.704	1184.23
624.902	1151.88
625.101	1222.4
625.3	1164.47
625.499	1135.41
625.697	1158.46
625.896	1121.07
626.095	1176.09
626.293	1121.07
626.492	1140.83
626.69	1190.63
626.889	1130.18
627.088	1179.19
627.286	1125.53
627.485	1144.9
627.683	1105.38
627.882	1157.11
628.08	1054.03
628.279	1120.1
628.477	1196.83
628.676	1071.08
628.874	1084.45
629.073	1087.36
629.271	1064.5
629.469	1130.76
629.668	1111.58
629.866	1092.01
630.065	1071.66
630.263	1103.83
630.461	1067.01
630.66	1083.48
630.858	1110.03
631.056	1163.69
631.254	1163.31
631.453	1084.06
631.651	1151.49
631.849	1122.04
632.047	1117.97
632.245	1105.96
632.444	1130.76
632.642	1144.51
632.84	1113.71
633.038	1106.93
633.236	1082.13
633.434	1061.01
633.632	1076.31
633.83	1075.35
634.028	1136.57
634.227	1091.43
634.425	1168.73
634.623	1079.03
634.821	1137.73
635.019	1133.47
635.216	1079.8
635.414	1164.47
635.612	1104.6
635.81	1123.2
636.008	1141.61
636.206	1113.32
636.404	1131.53
636.602	1075.73
636.8	1090.46
636.997	1119.91
637.195	1150.71
637.393	1143.93
637.591	1202.64
637.789	1150.33
637.986	1082.13
638.184	1127.27
638.382	1161.95
638.58	1153.81
638.777	1148.78
638.975	1145.87
639.173	1149.74
639.37	1160.4
639.568	1131.34
639.765	1161.95
639.963	1105.18
640.161	1153.04
640.358	1144.51
640.556	1100.15
640.753	1047.06
640.951	1053.84
641.148	1088.71
641.346	1131.73
641.543	1096.27
641.741	1076.7
641.938	1059.85
642.136	1092.59
642.333	1053.65
642.531	1129.21
642.728	1146.45
642.925	1113.13
643.123	1083.87
643.32	1114.87
643.517	1052.48
643.715	1106.54
643.912	1057.52
644.109	1079.61
644.306	1079.61
644.504	1043.76
644.701	1036.4
644.898	1094.14
645.095	1038.92
645.293	1068.18
645.49	1089.68
645.687	1080
645.884	1116.81
646.081	993.39
646.278	997.85
646.475	1012.57
646.672	1012.57
646.87	1025.17
647.067	1015.48
647.264	1010.63
647.461	943.79
647.658	952.12
647.855	1025.75
648.052	976.92
648.249	910.47
648.446	991.84
648.642	947.86
648.839	949.41
649.036	935.07
649.233	907.17
649.43	927.71
649.627	887.99
649.824	951.73
650.021	927.52
650.217	928.87
650.414	925.77
650.611	982.15
650.808	994.17
651.004	969.95
651.201	981.57
651.398	1012.18
651.595	939.92
651.791	924.8
651.988	968.4
652.185	928.29
652.381	968.78
652.578	898.65
652.775	967.62
652.971	929.84
653.168	934.69
653.364	962.58
653.561	914.34
653.757	922.09
653.954	956.38
654.15	929.07
654.347	1024.2
654.543	953.67
654.74	904.27
654.936	881.02
655.133	935.46
655.329	937.98
655.525	933.91
655.722	944.37
655.918	841.69
656.115	875.01
656.311	823.67
656.507	750.04
656.704	740.55
656.9	776.39
657.096	812.24
657.292	808.75
657.489	879.47
657.685	851.95
657.881	819.41
658.077	828.9
658.273	882.95
658.47	946.5
658.666	894.39
658.862	924.42
659.058	843.43
659.254	908.34
659.45	866.29
659.646	924.03
659.842	870.75
660.038	945.34
660.234	880.82
660.43	865.52
660.626	934.3
660.822	952.51
661.018	896.9
661.214	887.22
661.41	865.32
661.606	933.72
661.802	954.25
661.998	922.67
662.194	900.59
662.39	927.71
662.586	912.02
662.781	923.64
662.977	900.78
663.173	936.43
663.369	872.1
663.564	898.84
663.76	899.62
663.956	874.04
664.152	923.25
664.347	847.31
664.543	875.79
664.739	862.61
664.934	827.74
665.13	818.63
665.326	884.89
665.521	871.52
665.717	831.81
665.912	849.24
666.108	758.96
666.304	851.18
666.499	849.05
666.695	765.35
666.89	812.24
667.086	871.52
667.281	829.67
667.477	870.55
667.672	868.62
667.867	834.91
668.063	844.21
668.258	764.77
668.454	812.04
668.649	876.37
668.844	825.02
669.04	849.44
669.235	838.59
669.43	837.81
669.626	770.39
669.821	824.06
670.016	772.52
670.211	797.32
670.407	766.9
670.602	830.26
670.797	810.69
670.992	820.76
671.187	786.66
671.382	831.81
671.578	789.96
671.773	800.22
671.968	737.06
672.163	783.17
672.358	815.53
672.553	794.99
672.748	762.83
672.943	843.82
673.138	782.79
673.333	840.14
673.528	733.96
673.723	796.93
673.918	817.08
674.113	751.79
674.308	840.14
674.503	840.91
674.698	801
674.892	786.47
675.087	808.75
675.282	822.12
675.477	756.05
675.672	817.66
675.867	780.85
676.061	729.12
676.256	712.26
676.451	776.59
676.646	797.9
676.84	748.3
677.035	701.41
677.23	743.84
677.424	765.35
677.619	787.44
677.814	820.37
678.008	834.32
678.203	734.35
678.397	750.04
678.592	756.05
678.787	846.34
678.981	766.32
679.176	785.11
679.37	771.74
679.565	730.09
679.759	757.6
679.954	788.41
680.148	813.79
680.342	802.55
680.537	817.08
680.731	765.54
680.926	796.74
681.12	830.64
681.314	757.41
681.509	738.61
681.703	785.31
681.897	804.29
682.092	778.91
682.286	767.87
682.48	831.42
682.674	835.49
682.869	778.72
683.063	768.64
683.257	858.54
683.451	743.07
683.645	777.36
683.839	780.07
684.034	779.49
684.228	801.58
684.422	718.27
684.616	731.83
684.81	798.48
685.004	747.14
685.198	766.32
685.392	807.39
685.586	736.09
685.78	794.22
685.974	801.97
686.168	778.72
686.362	824.83
686.556	717.11
686.75	690.37
686.944	667.51
687.138	679.52
687.331	576.06
687.525	590.59
687.719	527.23
687.913	597.95
688.107	615
688.301	567.53
688.494	674.29
688.688	604.54
688.882	565.21
689.076	583.42
689.269	644.84
689.463	707.03
689.657	630.31
689.85	633.21
690.044	656.66
690.238	634.57
690.431	668.28
690.625	678.36
690.818	693.08
691.012	677.58
691.205	703.16
691.399	701.61
691.593	710.91
691.786	747.53
691.98	784.92
692.173	850.99
692.366	781.04
692.56	800.42
692.753	851.95
692.947	763.61
693.14	831.42
693.333	830.45
693.527	786.86
693.72	837.23
693.914	819.79
694.107	809.33
694.3	833.36
694.493	811.66
694.687	854.09
694.88	798.87
695.073	883.34
695.266	887.6
695.46	837.23
695.653	920.15
695.846	871.33
696.039	847.89
696.232	881.4
696.425	937.4
696.618	946.7
696.812	948.05
697.005	1006.76
697.198	1103.44
697.391	1007.73
697.584	1023.42
697.777	1071.28
697.97	1056.94
698.163	1045.12
698.356	1037.18
698.549	1131.34
698.742	1096.46
698.935	1058.3
699.127	1106.15
699.32	1044.93
699.513	1053.65
699.706	1088.71
699.899	1091.04
700.092	1110.41
700.285	1144.71
700.477	1068.95
700.67	1142.77
700.863	1141.8
701.056	1222.79
701.248	1201.09
701.441	1193.14
701.634	1186.75
701.826	1276.26
702.019	1168.54
702.212	1220.46
702.404	1139.86
702.597	1162.73
702.79	1199.54
702.982	1235.38
703.175	1272.19
703.367	1281.3
703.56	1293.31
703.752	1382.82
703.945	1337.87
704.137	1361.9
704.33	1416.73
704.522	1388.83
704.715	1419.25
704.907	1420.6
705.1	1448.89
705.292	1448.7
705.484	1420.22
705.677	1454.7
705.869	1465.36
706.061	1527.36
706.254	1526.39
706.446	1486.28
706.638	1526.2
706.831	1602.14
707.023	1501.01
707.215	1604.66
707.407	1634.5
707.599	1598.66
707.792	1653.1
707.984	1611.25
708.176	1630.43
708.368	1619.19
708.56	1655.42
708.752	1665.5
708.944	1681.97
709.136	1657.17
709.329	1670.73
709.521	1786.98
709.713	1752.88
709.905	1744.74
710.097	1830.38
710.289	1770.51
710.481	1787.75
710.672	1794.34
710.864	1819.53
711.056	1848.4
711.248	1866.42
711.44	1901.1
711.632	1836.77
711.824	1892.77
712.016	1977.63
712.207	1961.74
712.399	1922.99
712.591	1992.54
712.783	1988.48
712.975	1964.26
713.166	1933.84
713.358	1962.71
713.55	2058.42
713.741	2063.26
713.933	2042.34
714.125	2022.58
714.316	2009.4
714.508	2082.83
714.7	2076.05
714.891	2032.26
715.083	2124.29
715.274	2104.53
715.466	2133.79
715.657	2172.34
715.849	2039.24
716.04	2108.21
716.232	2028.58
716.423	2086.32
716.615	2029.94
716.806	1966.97
716.998	1944.69
717.189	1852.66
717.381	1791.44
717.572	1789.89
717.763	1787.75
717.955	1787.37
718.146	1746.87
718.337	1705.02
718.528	1656.39
718.72	1624.81
718.911	1653.29
719.102	1611.83
719.293	1668.02
719.485	1660.07
719.676	1631.98
719.867	1588.58
720.058	1615.51
720.249	1629.27
720.44	1649.03
720.632	1692.24
720.823	1752.88
721.014	1837.35
721.205	1880.95
721.396	1934.42
721.587	2055.9
721.778	2075.08
721.969	2107.24
722.16	2155.29
722.351	2179.12
722.542	2275.03
722.733	2304.28
722.924	2201.6
723.115	2262.63
723.305	2215.94
723.496	2232.02
723.687	2102.98
723.878	2131.85
724.069	2132.62
724.26	2142.31
724.45	2071.01
724.641	2029.55
724.832	2079.15
725.023	2086.51
725.213	2054.35
725.404	2039.63
725.595	2080.89
725.785	2050.48
725.976	2103.17
726.167	2114.02
726.357	2094.07
726.548	2194.82
726.739	2136.89
726.929	2237.83
727.12	2213.22
727.31	2239.19
727.501	2195.79
727.691	2218.07
727.882	2207.02
728.072	2227.17
728.263	2221.55
728.453	2302.54
728.644	2290.72
728.834	2270.57
729.024	2219.42
729.215	2256.23
729.405	2262.43
729.596	2352.72
729.786	2345.55
729.976	2350.01
730.167	2362.41
730.357	2354.08
730.547	2326.18
730.737	2420.34
730.928	2420.92
731.118	2441.46
731.308	2364.15
731.498	2444.56
731.688	2495.9
731.879	2469.16
732.069	2559.64
732.259	2559.26
732.449	2590.26
732.639	2681.9
732.829	2689.45
733.019	2726.85
733.209	2820.62
733.399	2773.54
733.589	2851.04
733.779	2863.83
733.969	2884.56
734.159	2916.91
734.349	2983.56
734.539	2955.66
734.729	2994.22
734.919	3005.46
735.109	3067.07
735.299	2971.36
735.488	3048.66
735.678	2973.49
735.868	3027.16
736.058	3039.36
736.248	3007.97
736.437	2995.77
736.627	2953.14
736.817	3072.88
737.007	3071.91
737.196	3098.07
737.386	3050.6
737.576	3034.71
737.765	3100
737.955	3074.04
738.144	3205.79
738.334	3145.92
738.524	3100.97
738.713	3125.97
738.903	3079.08
739.092	3153.48
739.282	3155.42
739.471	3140.11
739.661	3145.34
739.85	3167.82
740.04	3188.55
740.229	3213.35
740.419	3217.61
740.608	3298.21
740.797	3191.45
740.987	3299.95
741.176	3281.74
741.365	3214.12
741.555	3195.33
741.744	3261.01
741.933	3264.5
742.123	3287.94
742.312	3262.36
742.501	3285.61
742.69	3358.85
742.88	3259.46
743.069	3362.34
743.258	3317.78
743.447	3389.66
743.636	3383.65
743.825	3325.33
744.014	3341.22
744.204	3402.06
744.393	3285.61
744.582	3418.14
744.771	3469.48
744.96	3373.19
745.149	3380.16
745.338	3332.11
745.527	3417.36
745.716	3394.31
745.905	3385.59
746.094	3388.11
746.283	3428.02
746.471	3392.95
746.66	3461.54
746.849	3435.77
747.038	3492.92
747.227	3399.34
747.416	3482.27
747.604	3364.08
747.793	3452.04
747.982	3408.84
748.171	3413.68
748.359	3447.97
748.548	3435.57
748.737	3414.26
748.926	3445.84
749.114	3317.19
749.303	3477.62
749.491	3404.96
749.68	3356.72
749.869	3397.99
750.057	3391.59
750.246	3391.4
750.434	3345.48
750.623	3388.49
750.811	3342.96
751	3444.68
751.188	3367.57
751.377	3388.69
751.565	3338.51
751.754	3339.86
751.942	3343.16
752.131	3374.35
752.319	3309.06
752.507	3276.7
752.696	3334.63
752.884	3377.06
753.072	3311.58
753.261	3299.95
753.449	3294.14
753.637	3265.08
753.825	3391.21
754.014	3301.89
754.202	3313.51
754.39	3379
754.578	3326.3
754.766	3266.43
754.955	3302.86
755.143	3362.14
755.331	3279.61
755.519	3280.38
755.707	3310.22
755.895	3280.19
756.083	3294.91
756.271	3239.89
756.459	3247.64
756.647	3243.38
756.835	3243.38
757.023	3230.98
757.211	3220.32
757.399	3236.01
757.587	3226.91
757.775	3162.97
757.963	3208.89
758.151	3165.3
758.339	3147.86
758.526	3164.72
758.714	3204.43
758.902	3082.95
759.09	3009.72
759.278	2807.45
759.465	2576.69
759.653	2224.07
759.841	2062.88
760.028	1723.24
760.216	1484.54
760.404	1389.6
760.591	1151.88
760.779	985.25
760.967	845.37
761.154	721.37
761.342	734.35
761.529	758.18
761.717	809.14
761.905	788.41
762.092	873.27
762.28	814.76
762.467	831.42
762.655	734.93
762.842	769.03
763.029	798.29
763.217	789.57
763.404	792.47
763.592	825.41
763.779	769.61
763.966	832.39
764.154	876.56
764.341	908.34
764.528	939.33
764.716	1014.12
764.903	1038.15
765.09	1134.63
765.277	1159.24
765.465	1330.32
765.652	1385.53
765.839	1443.08
766.026	1598.08
766.213	1614.93
766.4	1693.01
766.588	1892.77
766.775	1905.55
766.962	2000.88
767.149	2073.92
767.336	2196.95
767.523	2183.58
767.71	2321.72
767.897	2382.75
768.084	2448.43
768.271	2527.48
768.458	2558.48
768.645	2596.46
768.832	2604.59
769.019	2634.04
769.206	2649.93
769.392	2708.25
769.579	2819.65
769.766	2755.52
769.953	2793.88
770.14	2832.05
770.327	2774.7
770.513	2863.83
770.7	2907.03
770.887	2823.91
771.073	2899.28
771.26	2842.71
771.447	2808.41
771.634	2825.66
771.82	2952.37
772.007	2813.26
772.193	2829.53
772.38	2878.55
772.567	2836.12
772.753	2855.3
772.94	2958.76
773.126	2899.48
773.313	2932.03
773.499	2893.86
773.686	2909.55
773.872	2832.63
774.059	2937.06
774.245	2860.73
774.432	2858.6
774.618	2754.36
774.804	2872.54
774.991	2792.14
775.177	2846.2
775.363	2804.15
775.55	2870.03
775.736	2823.53
775.922	2839.41
776.109	2820.23
776.295	2810.74
776.481	2843.48
776.667	2856.46
776.853	2806.67
777.04	2801.44
777.226	2807.83
777.412	2888.63
777.598	2786.91
777.784	2774.31
777.97	2754.75
778.156	2768.31
778.342	2734.02
778.528	2744.09
778.715	2678.41
778.901	2715.22
779.087	2735.37
779.272	2688.29
779.458	2683.45
779.644	2739.44
779.83	2686.93
780.016	2787.49
780.202	2693.91
780.388	2720.84
780.574	2633.46
780.76	2672.21
780.946	2717.55
781.131	2664.85
781.317	2671.82
781.503	2621.84
781.689	2600.91
781.874	2753.2
782.06	2638.11
782.246	2670.08
782.432	2648.38
782.617	2683.45
782.803	2712.7
782.989	2578.82
783.174	2614.47
783.36	2569.91
783.545	2575.14
783.731	2613.31
783.916	2542.01
784.102	2588.51
784.288	2535.81
784.473	2582.7
784.659	2552.47
784.844	2570.11
785.029	2506.75
785.215	2544.92
785.4	2451.53
785.586	2614.28
785.771	2445.33
785.956	2546.47
786.142	2491.44
786.327	2472.26
786.512	2516.05
786.698	2503.46
786.883	2465.09
787.068	2453.66
787.254	2474.01
787.439	2455.21
787.624	2431.58
787.809	2438.36
787.994	2412.01
788.18	2481.95
788.365	2406.97
788.55	2390.7
788.735	2440.29
788.92	2417.24
789.105	2388.76
789.29	2379.26
789.475	2306.22
789.66	2358.34
789.845	2303.9
790.03	2324.05
790.215	2376.75
790.4	2412.59
790.585	2401.74
790.77	2300.41
790.955	2286.65
791.14	2318.62
791.325	2391.08
791.51	2255.65
791.695	2319.78
791.879	2284.91
792.064	2259.92
792.249	2378.68
792.434	2286.07
792.618	2288.4
792.803	2327.73
792.988	2257.2
793.173	2311.26
793.357	2329.67
793.542	2281.23
793.727	2307.58
793.911	2296.34
794.096	2284.52
794.281	2355.63
794.465	2402.51
794.65	2313.39
794.834	2317.07
795.019	2386.43
795.203	2350.59
795.388	2353.88
795.572	2412.01
795.757	2298.47
795.941	2364.35
796.126	2351.17
796.31	2282.58
796.494	2327.15
796.679	2326.57
796.863	2268.44
797.048	2357.95
797.232	2348.07
797.416	2337.61
797.601	2350.01
797.785	2396.7
797.969	2394.18
798.153	2307.97
798.338	2346.13
798.522	2363.18
798.706	2420.73
798.89	2395.15
799.074	2445.14
799.258	2436.03
799.443	2347.68
799.627	2376.75
799.811	2417.63
799.995	2364.73
800.179	2339.55
800.363	2353.11
800.547	2368.61
800.731	2424.21
800.915	2292.08
801.099	2292.85
801.283	2356.01
801.467	2325.4
801.651	2323.85
801.835	2376.55
802.019	2367.83
802.202	2366.48
802.386	2305.25
802.57	2308.93
802.754	2336.83
802.938	2312.62
803.121	2292.85
803.305	2350.59
803.489	2349.43
803.673	2357.95
803.856	2345.55
804.04	2298.86
804.224	2376.36
804.407	2330.05
804.591	2294.6
804.775	2341.29
804.958	2365.7
805.142	2444.75
805.326	2373.26
805.509	2343.03
805.693	2365.12
805.876	2391.47
806.06	2350.59
806.243	2406.97
806.427	2431.77
806.61	2433.71
806.794	2336.64
806.977	2397.67
807.16	2385.08
807.344	2428.86
807.527	2361.25
807.71	2324.05
807.894	2372.1
808.077	2379.65
808.26	2346.71
808.444	2323.27
808.627	2369
808.81	2335.87
808.993	2276
809.177	2276.97
809.36	2276.97
809.543	2306.42
809.726	2237.05
809.909	2210.51
810.092	2239.77
810.276	2240.74
810.459	2207.8
810.642	2226.2
810.825	2140.96
811.008	2193.85
811.191	2123.91
811.374	2135.34
811.557	2103.95
811.74	2172.73
811.923	2085.54
812.106	2040.98
812.289	2037.49
812.472	2030.33
812.654	2052.99
812.837	2012.11
813.02	1939.65
813.203	1985.18
813.386	1854.79
813.569	1852.66
813.751	1795.5
813.934	1844.91
814.117	1791.63
814.3	1755.01
814.482	1731.18
814.665	1712.97
814.848	1684.87
815.03	1618.81
815.213	1622.29
815.396	1620.16
815.578	1572.31
815.761	1573.08
815.943	1611.64
816.126	1524.06
816.309	1493.65
816.491	1439.59
816.674	1420.02
816.856	1453.93
817.039	1439.4
817.221	1523.48
817.403	1452.18
817.586	1443.08
817.768	1482.21
817.951	1416.34
818.133	1376.43
818.315	1439.2
818.498	1451.99
818.68	1537.05
818.862	1473.5
819.045	1560.29
819.227	1521.93
819.409	1451.8
819.591	1500.23
819.774	1478.53
819.956	1478.15
820.138	1529.88
820.32	1546.35
820.502	1571.92
820.684	1625.59
820.866	1628.69
821.048	1702.7
821.231	1726.14
821.413	1665.89
821.595	1651.55
821.777	1703.09
821.959	1637.6
822.141	1713.74
822.323	1619.19
822.505	1559.13
822.686	1500.43
822.868	1425.25
823.05	1308.62
823.232	1317.34
823.414	1228.21
823.596	1305.32
823.778	1289.05
823.96	1316.56
824.141	1325.67
824.323	1361.9
824.505	1414.21
824.687	1484.73
824.868	1494.61
825.05	1629.08
825.232	1633.34
825.413	1700.96
825.595	1633.92
825.777	1593.81
825.958	1632.37
826.14	1638.76
826.321	1648.06
826.503	1622.1
826.685	1631.01
826.866	1621.33
827.048	1620.94
827.229	1598.46
827.411	1571.34
827.592	1452.38
827.773	1504.11
827.955	1429.71
828.136	1472.53
828.318	1390.57
828.499	1491.71
828.68	1433.39
828.862	1470.59
829.043	1465.94
829.224	1451.22
829.406	1419.05
829.587	1429.9
829.768	1457.22
829.949	1452.96
830.131	1451.22
830.312	1518.45
830.493	1484.93
830.674	1462.26
830.855	1453.35
831.036	1459.93
831.218	1496.75
831.399	1518.45
831.58	1487.83
831.761	1470.2
831.942	1503.91
832.123	1471.56
832.304	1419.25
832.485	1455.28
832.666	1441.72
832.847	1452.77
833.028	1464.39
833.209	1496.36
833.389	1452.96
833.57	1394.83
833.751	1426.8
833.932	1500.43
834.113	1433.97
834.294	1416.15
834.475	1505.85
834.655	1527.16
834.836	1542.47
835.017	1542.28
835.198	1470.78
835.378	1466.91
835.559	1518.83
835.74	1491.9
835.92	1473.3
836.101	1462.65
836.281	1513.99
836.462	1505.08
836.643	1535.11
836.823	1544.6
837.004	1495.39
837.184	1569.21
837.365	1518.25
837.545	1548.09
837.726	1517.09
837.906	1563.98
838.087	1525.81
838.267	1512.05
838.448	1466.91
838.628	1497.71
838.808	1500.62
838.989	1567.27
839.169	1463.23
839.349	1552.93
839.53	1550.03
839.71	1553.51
839.89	1521.35
840.07	1594.01
840.251	1511.08
840.431	1576.96
840.611	1540.53
840.791	1454.51
840.971	1523.48
841.151	1498.68
841.332	1465.36
841.512	1556.81
841.692	1448.89
841.872	1533.56
842.052	1516.7
842.232	1548.67
842.412	1457.42
842.592	1506.63
842.772	1508.18
842.952	1484.73
843.132	1475.05
843.312	1477.37
843.492	1456.64
843.672	1502.56
843.851	1415.95
844.031	1489.58
844.211	1449.28
844.391	1440.75
844.571	1472.33
844.751	1486.67
844.93	1485.9
845.11	1467.3
845.29	1482.02
845.47	1487.83
845.649	1442.69
845.829	1450.63
846.009	1449.67
846.188	1472.53
846.368	1440.75
846.547	1454.9
846.727	1477.95
846.907	1431.45
847.086	1447.34
847.266	1475.24
847.445	1488.41
847.625	1440.17
847.804	1437.65
847.984	1435.52
848.163	1395.03
848.343	1392.12
848.522	1466.33
848.701	1453.15
848.881	1373.72
849.06	1429.32
849.239	1419.63
849.419	1418.86
849.598	1319.47
849.777	1345.62
849.957	1353.18
850.136	1296.02
850.315	1279.56
850.494	1288.47
850.674	1281.69
850.853	1354.15
851.032	1307.84
851.211	1371.2
851.39	1341.36
851.569	1301.25
851.748	1272
851.927	1356.28
852.107	1348.92
852.286	1276.84
852.465	1298.15
852.644	1343.3
852.823	1322.57
853.002	1345.82
853.181	1291.95
853.359	1338.45
853.538	1259.79
853.717	1362.67
853.896	1252.82
854.075	1179.97
854.254	1141.61
854.433	1112.74
854.611	1137.54
854.79	1127.66
854.969	1166.6
855.148	1194.11
855.327	1168.54
855.505	1223.56
855.684	1159.24
855.863	1217.94
856.041	1175.51
856.22	1231.12
856.399	1209.61
856.577	1248.56
856.756	1275.87
856.934	1399.87
857.113	1346.59
857.291	1271.22
857.47	1233.25
857.648	1265.22
857.827	1279.75
858.005	1312.3
858.184	1230.34
858.362	1341.55
858.541	1265.61
858.719	1251.07
858.898	1213.49
859.076	1231.7
859.254	1295.05
859.433	1232.47
859.611	1261.54
859.789	1183.07
859.967	1268.9
860.146	1310.94
860.324	1218.33
860.502	1220.27
860.68	1180.36
860.859	1177.84
861.037	1191.4
861.215	1276.26
861.393	1228.6
861.571	1259.21
861.749	1199.93
861.927	1220.85
862.105	1227.44
862.283	1209.03
862.461	1185.39
862.639	1173.77
862.817	1183.07
862.995	1206.32
863.173	1182.68
863.351	1171.64
863.529	1232.09
863.707	1258.44
863.885	1221.62
864.063	1119.13
864.241	1172.03
864.418	1229.18
864.596	1190.24
864.774	1113.71
864.952	1149.74
865.129	1188.49
865.307	1158.85
865.485	1118.16
865.663	1172.03
865.84	1085.61
866.018	1113.9
866.196	973.43
866.373	1011.8
866.551	979.63
866.728	932.94
866.906	987.58
867.084	1003.85
867.261	1045.12
867.439	1060.62
867.616	1098.21
867.794	1096.85
867.971	1084.65
868.149	1076.7
868.326	1103.63
868.503	1131.14
868.681	1114.87
868.858	1084.84
869.035	1036.6
869.213	1111.77
869.39	1045.9
869.567	1174.93
869.745	1089.88
869.922	1063.53
870.099	1107.12
870.276	1105.96
870.454	1124.56
870.631	1087.75
870.808	1096.27
870.985	1139.67
871.162	1149.36
871.339	1113.71
871.517	1023.81
871.694	1026.13
871.871	1029.43
872.048	1070.7
872.225	1035.82
872.402	1059.65
872.579	1050.93
872.756	1061.78
872.933	1015.48
873.11	1030.59
873.287	1050.55
873.463	1034.85
873.64	1027.3
873.817	1038.92
873.994	1037.18
874.171	1000.95
874.348	1021.48
874.524	965.88
874.701	1032.91
874.878	970.14
875.055	1036.01
875.231	997.27
875.408	1028.26
875.585	974.79
875.762	1003.66
875.938	991.07
876.115	963.17
876.291	994.55
876.468	965.88
876.645	949.99
876.821	968.98
876.998	987.77
877.174	990.68
877.351	979.44
877.527	947.08
877.704	984.87
877.88	968.2
878.057	958.9
878.233	1017.42
878.409	965.1
878.586	990.48
878.762	973.43
878.938	948.05
879.115	882.18
879.291	961.23
879.467	890.32
879.644	928.87
879.82	945.73
879.996	933.33
880.172	890.51
880.349	887.22
880.525	931.78
880.701	891.09
880.877	864.16
881.053	926.35
881.229	928.68
881.405	941.08
881.581	898.07
881.757	882.57
881.933	919.96
882.109	945.73
882.285	948.44
882.461	860.67
882.637	885.86
882.813	879.08
882.989	914.15
883.165	944.37
883.341	862.42
883.517	963.36
883.693	923.25
883.869	905.43
884.044	869
884.22	926.35
884.396	945.73
884.572	929.65
884.747	952.51
884.923	931
885.099	958.9
885.275	942.43
885.45	897.68
885.626	897.68
885.801	866.49
885.977	902.72
886.153	849.24
886.328	918.22
886.504	856.02
886.679	912.79
886.855	875.98
887.03	924.8
887.206	912.4
887.381	908.53
887.557	924.61
887.732	912.02
887.908	918.02
888.083	926.35
888.258	900
888.434	888.57
888.609	929.65
888.784	922.87
888.96	868.81
889.135	889.93
889.31	868.23
889.485	888.77
889.661	901.55
889.836	922.87
890.011	908.92
890.186	905.24
890.361	872.3
890.537	906.2
890.712	939.53
890.887	884.7
891.062	897.68
891.237	964.33
891.412	863.39
891.587	894.97
891.762	930.42
891.937	958.71
892.112	848.86
892.287	887.22
892.462	828.12
892.637	846.92
892.812	838.78
892.987	826.57
893.161	798.09
893.336	818.82
893.511	808.56
893.686	843.04
893.861	862.03
894.035	833.55
894.21	835.1
894.385	788.79
894.56	791.7
894.734	724.47
894.909	750.82
895.084	739.19
895.258	739.58
895.433	750.43
895.608	711.1
895.782	665.57
895.957	696.18
896.131	713.81
896.306	665.57
896.48	650.07
896.655	642.32
896.829	607.83
897.004	564.05
897.178	608.41
897.353	600.66
897.527	639.22
897.701	609.96
897.876	546.42
898.05	663.44
898.224	615.97
898.399	652.78
898.573	609.58
898.747	531.11
898.921	553
899.096	472.99
899.27	450.9
899.444	468.92
899.618	507.47
899.792	515.61
899.967	523.75
900.141	569.86
900.315	515.22
900.489	508.44
900.663	524.91
900.837	530.72
901.011	475.89
901.185	630.89
901.359	545.06
901.533	548.55
901.707	531.88
901.881	522
902.055	487.52
902.229	535.18
902.403	578.77
902.576	525.68
902.75	526.27
902.924	636.31
903.098	580.71
903.272	609.38
903.446	676.03
903.619	642.71
903.793	649.1
903.967	625.66
904.14	700.06
904.314	670.41
904.488	653.56
904.661	686.88
904.835	672.55
905.009	683.59
905.182	719.43
905.356	698.7
905.529	708.78
905.703	632.05
905.876	633.6
906.05	609.96
906.223	620.43
906.397	552.23
906.57	525.3
906.744	511.15
906.917	545.45
907.09	507.28
907.264	539.44
907.437	502.82
907.61	466.2
907.784	498.95
907.957	500.5
908.13	454.39
908.304	531.5
908.477	455.94
908.65	486.74
908.823	441.4
908.996	528.4
909.17	480.93
909.343	451.67
909.516	478.99
909.689	477.25
909.862	431.14
910.035	458.26
910.208	452.06
910.381	434.43
910.554	567.15
910.727	440.24
910.9	474.34
911.073	451.67
911.246	525.3
911.419	499.72
911.592	494.88
911.765	447.41
911.938	429.78
912.11	471.44
912.283	465.62
912.456	498.75
912.629	461.17
912.802	423.77
912.974	396.65
913.147	383.67
913.32	330.97
913.493	353.83
913.665	399.75
913.838	403.82
914.01	413.7
914.183	389.87
914.356	389.29
914.528	439.85
914.701	493.52
914.873	449.74
915.046	400.72
915.218	373.98
915.391	311.59
915.563	334.26
915.736	399.17
915.908	417.38
916.081	382.31
916.253	396.65
916.425	408.86
916.598	409.82
916.77	389.87
916.942	405.95
917.115	306.94
917.287	382.51
917.459	355.77
917.632	336.97
917.804	284.86
917.976	351.12
918.148	403.04
918.32	363.91
918.493	413.12
918.665	434.62
918.837	393.16
919.009	440.24
919.181	453.8
919.353	410.02
919.525	408.27
919.697	422.22
919.869	420.67
920.041	473.57
920.213	521.03
920.385	456.32
920.557	408.86
920.729	437.53
920.901	437.92
921.073	425.32
921.244	394.52
921.416	468.92
921.588	446.64
921.76	398.2
921.932	497.2
922.103	406.72
922.275	412.92
922.447	449.15
922.619	358.09
922.79	415.64
922.962	375.53
923.134	410.79
923.305	360.03
923.477	347.63
923.648	345.31
923.82	375.92
923.991	310.24
924.163	312.56
924.335	320.31
924.506	341.43
924.677	394.52
924.849	352.28
925.02	322.25
925.192	367.59
925.363	369.91
925.535	367.78
925.706	326.13
925.877	394.32
926.049	297.84
926.22	365.65
926.391	360.03
926.562	374.17
926.734	331.55
926.905	397.42
927.076	305.78
927.247	364.49
927.419	271.88
927.59	300.16
927.761	315.47
927.932	280.98
928.103	306.17
928.274	219.76
928.445	240.3
928.616	250.37
928.787	248.82
928.958	295.32
929.129	246.49
929.3	232.55
929.471	201.35
929.642	152.14
929.813	146.52
929.984	231.58
930.155	144.2
930.326	193.21
930.496	172.68
930.667	85.68
930.838	141.87
931.009	112.62
931.18	144.39
931.35	149.23
931.521	144.2
931.692	81.42
931.863	62.05
932.033	119.2
932.204	106.42
932.374	104.48
932.545	56.82
932.716	118.82
932.886	111.07
933.057	50.23
933.227	43.84
933.398	132.57
933.568	24.27
933.739	6.05
933.909	51.97
934.08	101.57
934.25	-9.06
934.421	14.19
934.591	59.72
934.761	28.53
934.932	-1.89
935.102	30.47
935.272	45.77
935.443	14.39
935.613	37.44
935.783	60.5
935.953	-14.68
936.123	187.21
936.294	-20.3
936.464	37.83
936.634	71.15
936.804	-11.38
936.974	7.41
937.144	50.42
937.314	52.94
937.484	-1.89
937.655	10.7
937.825	73.67
937.995	11.09
938.165	70.96
938.334	47.13
938.504	36.67
938.674	29.89
938.844	61.66
939.014	93.43
939.184	82
939.354	143.23
939.524	114.55
939.694	84.72
939.863	105.83
940.033	131.8
940.203	110.48
940.373	91.88
940.542	123.47
940.712	70.18
940.882	110.1
941.051	121.53
941.221	100.99
941.391	117.46
941.56	84.52
941.73	43.45
941.899	162.02
942.069	84.91
942.238	114.17
942.408	55.27
942.577	87.62
942.747	63.99
942.916	7.8
943.086	53.91
943.255	119.01
943.425	54.88
943.594	54.69
943.763	-35.6
943.933	20.2
944.102	-5.57
944.271	32.6
944.441	79.29
944.61	46.74
944.779	69.6
944.948	140.71
945.117	7.22
945.287	38.41
945.456	3.92
945.625	16.52
945.794	66.5
945.963	24.07
946.132	91.88
946.301	50.23
946.47	77.93
946.639	15.94
946.808	37.44
946.977	69.22
947.146	94.98
947.315	57.59
947.484	51.78
947.653	47.71
947.822	32.6
947.991	11.48
948.16	119.78
948.329	95.18
948.498	67.47
948.666	71.73
948.835	81.62
949.004	20.97
949.173	23.88
949.341	49.07
949.51	99.63
949.679	83.55
949.847	71.73
950.016	137.42
950.185	97.5
950.353	35.12
950.522	34.73
950.69	111.26
950.859	61.47
951.028	86.65
951.196	46.35
951.365	34.73
951.533	47.71
951.701	81.23
951.87	83.94
952.038	29.11
952.207	58.56
952.375	124.24
952.543	31.63
952.712	60.69
952.88	60.89
953.048	117.27
953.217	93.24
953.385	58.37
953.553	86.85
953.721	48.87
953.89	62.24
954.058	6.64
954.226	35.89
954.394	52.75
954.562	17.68
954.73	40.54
954.898	63.99
955.067	81.62
955.235	54.3
955.403	94.79
955.571	128.12
955.739	76.97
955.907	32.6
956.075	30.47
956.243	37.25
956.41	69.02
956.578	18.26
956.746	4.12
956.914	45.58
957.082	112.42
957.25	72.9
957.418	15.94
957.585	82.39
957.753	86.65
957.921	47.32
958.089	31.05
958.256	92.66
958.424	39.77
958.592	53.72
958.759	44.8
958.927	89.17
959.095	38.02
959.262	59.14
959.43	60.5
959.597	31.82
959.765	44.42
959.932	17.49
960.1	97.5
960.267	78.71
960.435	63.6
960.602	74.83
960.77	57.98
960.937	12.45
961.104	66.31
961.272	-6.15
961.439	36.47
961.606	79.29
961.774	74.83
961.941	37.25
962.108	71.73
962.275	43.45
962.443	84.13
962.61	77.55
962.777	144.58
962.944	93.24
963.111	61.08
963.278	73.87
963.446	71.15
963.613	64.95
963.78	75.22
963.947	86.07
964.114	60.3
964.281	131.8
964.448	118.23
964.615	55.65
964.782	74.25
964.949	70.96
965.116	90.14
965.282	120.95
965.449	82.39
965.616	33.95
965.783	94.21
965.95	68.83
966.117	45.58
966.283	107.19
966.45	67.28
966.617	90.33
966.784	117.07
966.95	114.36
967.117	99.83
967.284	32.79
967.45	54.69
967.617	110.1
967.784	123.85
967.95	160.66
968.117	91.3
968.283	105.25
968.45	190.7
968.616	97.89
968.783	134.7
968.949	110.48
969.116	125.6
969.282	89.37
969.449	107.58
969.615	95.95
969.781	28.14
969.948	55.07
970.114	61.08
970.28	141.87
970.447	105.83
970.613	125.6
970.779	67.47
970.945	118.62
971.112	85.1
971.278	81.42
971.444	85.1
971.61	118.23
971.776	68.25
971.942	97.5
972.108	127.15
972.275	68.44
972.441	126.18
972.607	144.78
972.773	65.92
972.939	92.85
973.105	74.45
973.271	46.94
973.437	68.83
973.602	93.05
973.768	104.09
973.934	91.11
974.1	89.37
974.266	12.45
974.432	107.19
974.598	44.42
974.763	105.83
974.929	55.27
975.095	124.43
975.261	44.22
975.426	66.5
975.592	73.09
975.758	125.02
975.923	13.61
976.089	56.04
976.255	119.78
976.42	72.12
976.586	104.87
976.751	90.72
976.917	170.74
977.082	91.3
977.248	57.59
977.413	22.91
977.579	35.7
977.744	88.01
977.91	28.72
978.075	40.74
978.24	82.39
978.406	90.14
978.571	68.05
978.736	50.04
978.902	73.87
979.067	72.7
979.232	14.39
979.397	61.66
979.563	120.95
979.728	57.59
979.893	78.71
980.058	35.12
980.223	116.1
980.388	82
980.554	89.56
980.719	67.28
980.884	94.21
981.049	103.51
981.214	55.07
981.379	103.9
981.544	53.33
981.709	76.19
981.874	44.61
982.039	64.76
982.204	84.91
982.368	64.37
982.533	45.58
982.698	104.09
982.863	89.37
983.028	35.31
983.193	79.87
983.357	73.67
983.522	65.34
983.687	59.72
983.852	79.29
984.016	38.8
984.181	60.11
984.346	72.32
984.51	105.83
984.675	75.8
984.839	95.76
985.004	90.53
985.168	107.77
985.333	83.36
985.498	73.48
985.662	96.15
985.827	96.53
985.991	70.38
986.155	66.31
986.32	89.56
986.484	94.98
986.649	96.53
986.813	12.45
986.977	92.27
987.142	84.91
987.306	51
987.47	38.02
987.634	87.23
987.799	64.18
987.963	97.5
988.127	107.19
988.291	131.02
988.455	59.34
988.62	60.11
988.784	81.81
988.948	94.02
989.112	47.52
989.276	90.92
989.44	52.55
989.604	46.74
989.768	29.69
989.932	165.7
990.096	35.31
990.26	18.07
990.424	25.43
990.588	67.28
990.752	128.5
990.915	107.38
991.079	61.85
991.243	44.03
991.407	78.52
991.571	80.26
991.734	80.26
991.898	85.3
992.062	144.58
992.226	78.71
992.389	38.6
992.553	18.26
992.717	38.41
992.88	74.06
993.044	61.08
993.207	47.52
993.371	63.02
993.535	93.63
993.698	55.07
993.862	104.87
994.025	112.23
994.189	69.8
994.352	95.95
994.515	81.42
994.679	88.2
994.842	48.29
995.006	109.71
995.169	30.27
995.332	20.59
995.496	74.45
995.659	-7.12
995.822	61.47
995.985	48.87
996.149	98.28
996.312	41.32
996.475	115.91
996.638	30.66
996.801	113.2
996.964	130.63
997.128	80.84
997.291	48.49
997.454	78.13
997.617	32.02
997.78	102.15
997.943	35.89
998.106	94.21
998.269	19.81
998.432	59.92
998.595	75.03
998.758	3.54
998.92	26.01
999.083	-0.92
999.246	53.91
999.409	19.81
999.572	-5.57
999.735	48.68
999.897	55.27
1000.06	24.65
1000.223	22.52
1000.386	73.67
1000.548	66.5
1000.711	48.87
1000.874	68.83
1001.036	-13.9
1001.199	96.34
1001.361	20.59
1001.524	63.02
1001.687	88.78
1001.849	36.86
1002.012	47.13
1002.174	67.08
1002.337	74.64
1002.499	44.22
1002.661	51.39
1002.824	30.47
1002.986	27.75
1003.149	70.77
1003.311	27.56
1003.473	103.12
1003.636	27.75
1003.798	26.79
1003.96	51.97
1004.123	24.65
1004.285	51
1004.447	30.66
1004.609	38.41
1004.771	103.9
1004.933	-20.49
1005.096	-1.5
1005.258	-5.76
1005.42	9.93
1005.582	95.57
1005.744	66.5
1005.906	-4.99
1006.068	51.59
1006.23	19.04
1006.392	-4.02
1006.554	3.92
1006.716	85.49
1006.878	67.08
1007.04	-8.48
1007.202	59.14
1007.363	51
1007.525	43.64
1007.687	56.43
1007.849	91.88
1008.011	-25.33
1008.172	5.86
1008.334	24.85
1008.496	47.9
1008.658	-36.18
1008.819	2.57
1008.981	8.57
1009.143	5.09
1009.304	32.99
1009.466	33.37
1009.627	74.06
1009.789	126.37
1009.95	46.55
1010.112	38.6
1010.273	22.91
1010.435	8.19
1010.596	25.43
1010.758	35.12
1010.919	10.9
1011.081	-1.5
1011.242	9.93
1011.403	54.69
1011.565	29.3
1011.726	39.96
1011.887	14.97
1012.049	8.38
1012.21	59.72
1012.371	94.98
1012.532	-50.71
1012.693	22.91
1012.855	5.47
1013.016	26.98
1013.177	65.73
1013.338	34.34
1013.499	78.13
1013.66	56.62
1013.821	51
1013.982	42.48
1014.143	53.72
1014.304	15.55
1014.465	40.54
1014.626	46.94
1014.787	18.84
1014.948	104.87
1015.109	-62.34
1015.27	63.6
1015.431	-12.35
1015.592	1.4
1015.752	77.74
1015.913	31.82
1016.074	28.72
1016.235	-0.15
1016.395	-5.18
1016.556	13.22
1016.717	24.07
1016.877	50.04
1017.038	-6.73
1017.199	14
1017.359	21.17
1017.52	34.73
1017.681	16.32
1017.841	14.39
1018.002	7.99
1018.162	-4.21
1018.323	71.35
1018.483	23.49
1018.644	29.69
1018.804	-6.15
1018.964	-14.29
1019.125	31.05
1019.285	36.47
1019.446	-4.02
1019.606	-25.91
1019.766	-29.59
1019.926	36.86
1020.087	44.8
1020.247	-18.55
1020.407	55.85
1020.567	47.71
1020.728	8.77
1020.888	-7.7
1021.048	-14.1
1021.208	-24.94
1021.368	0.82
1021.528	27.37
1021.688	44.42
1021.848	77.74
1022.008	40.15
1022.168	16.71
1022.328	35.5
1022.488	17.87
1022.648	-25.53
1022.808	14.19
1022.968	36.47
1023.128	-12.93
1023.288	-11.96
1023.448	5.86
1023.608	70.18
1023.767	47.71
1023.927	-23.78
1024.087	-25.14
1024.247	-23.98
1024.406	9.93
1024.566	-25.53
1024.726	-2.86
1024.885	5.28
1025.045	35.89
1025.205	6.44
1025.364	28.72
1025.524	37.83
1025.683	-5.38
1025.843	22.72
1026.003	24.07
1026.162	53.33
1026.321	59.53
1026.481	25.04
1026.64	-26.69
1026.8	35.7
1026.959	18.07
1027.119	13.61
1027.278	6.05
1027.437	22.52
1027.597	22.33
1027.756	44.42
1027.915	10.7
1028.074	23.1
1028.234	5.47
1028.393	15.35
1028.552	-11.19
1028.711	-79.19
1028.87	39.96
1029.03	-31.92
1029.189	5.47
1029.348	-30.56
1029.507	7.41
1029.666	-11.19
1029.825	-19.91
1029.984	-6.93
1030.143	1.21
1030.302	-3.05
1030.461	-46.64
1030.62	-1.7
1030.779	33.76
1030.938	-15.84
1031.097	-46.06
1031.255	41.7
1031.414	50.04
1031.573	64.57
1031.732	-35.6
1031.891	0.63
1032.049	36.47
1032.208	23.3
1032.367	18.26
1032.525	-18.55
1032.684	-18.55
1032.843	15.35
1033.001	-34.05
1033.16	160.66
1033.319	36.47
1033.477	5.67
1033.636	-24.56
1033.794	-35.99
1033.953	31.05
1034.111	46.55
1034.27	-6.35
1034.428	6.25
1034.587	-36.38
1034.745	19.42
1034.903	8.38
1035.062	53.14
1035.22	-17.78
1035.378	47.32
1035.537	-25.14
1035.695	49.84
1035.853	5.86
1036.011	26.98
1036.17	-13.71
1036.328	-48
1036.486	28.53
1036.644	39.96
1036.802	-60.4
1036.96	-13.13
1037.119	-6.73
1037.277	-16.03
1037.435	-51.1
1037.593	-19.71
1037.751	15.16
1037.909	42.09
1038.067	42.09
