Data from pine_FLMT105791__14__17-19-48-080.txt Node

Date: Mon Mar 20 17:19:48 GMT 2023
User: antho
Spectrometer: FLMT10579
Trigger mode: 0
Integration Time (sec): 1.000000E-1
Scans to average: 10
Electric dark correction enabled: true
Nonlinearity correction enabled: false
Boxcar width: 0
XAxis mode: Wavelengths
Number of Pixels in Spectrum: 3648
>>>>>Begin Spectral Data<<<<<
345.248	-154.95
345.464	-154.95
345.681	-154.95
345.898	-157.47
346.114	-142.16
346.331	-31.53
346.548	11.29
346.764	-16.42
346.981	-21.85
347.197	-6.54
347.414	17.68
347.631	-31.14
347.847	72.51
348.064	5.86
348.28	31.24
348.497	-21.07
348.713	-10.03
348.93	41.12
349.146	31.05
349.363	-11.38
349.579	25.43
349.796	-0.34
350.012	-31.73
350.229	29.11
350.445	-10.03
350.661	-38.89
350.878	3.15
351.094	25.43
351.311	23.49
351.527	12.25
351.743	-11.58
351.96	2.76
352.176	56.24
352.392	32.99
352.609	30.66
352.825	18.84
353.041	-8.09
353.257	-8.67
353.474	23.3
353.69	-8.67
353.906	11.09
354.122	-36.57
354.339	63.79
354.555	26.79
354.771	-2.08
354.987	66.89
355.203	49.65
355.42	-35.02
355.636	-15.45
355.852	-32.69
356.068	10.9
356.284	-41.99
356.5	77.74
356.716	21.94
356.932	-15.65
357.148	35.31
357.364	1.6
357.58	45.97
357.796	63.99
358.012	59.14
358.228	32.4
358.444	-63.31
358.66	41.51
358.876	24.27
359.092	-8.48
359.308	25.04
359.524	38.02
359.74	-6.54
359.956	-5.76
360.172	22.52
360.388	74.64
360.604	-14.87
360.819	80.84
361.035	37.83
361.251	52.75
361.467	-10.61
361.683	40.74
361.898	9.93
362.114	29.3
362.33	15.16
362.546	40.35
362.762	-9.06
362.977	4.7
363.193	-7.12
363.409	54.88
363.624	-17
363.84	1.79
364.056	-6.73
364.271	32.4
364.487	22.52
364.703	-8.28
364.918	-1.5
365.134	9.54
365.35	25.82
365.565	107.97
365.781	14.77
365.996	30.85
366.212	70.18
366.427	31.24
366.643	-19.91
366.858	0.44
367.074	-20.88
367.289	59.14
367.505	125.6
367.72	-13.51
367.936	9.93
368.151	49.26
368.367	27.95
368.582	24.07
368.798	-10.8
369.013	74.25
369.228	40.54
369.444	5.86
369.659	63.02
369.874	28.14
370.09	55.46
370.305	-40.06
370.52	-1.31
370.736	71.35
370.951	20.78
371.166	72.32
371.381	80.26
371.597	47.32
371.812	-5.96
372.027	-15.84
372.242	14
372.458	84.52
372.673	9.74
372.888	19.04
373.103	46.16
373.318	121.14
373.533	27.17
373.749	27.37
373.964	-40.83
374.179	85.68
374.394	-1.11
374.609	84.13
374.824	-23.59
375.039	50.04
375.254	11.67
375.469	63.21
375.684	46.16
375.899	50.04
376.114	8.19
376.329	15.35
376.544	65.53
376.759	69.8
376.974	12.45
377.189	3.34
377.404	15.55
377.619	44.22
377.834	-18.94
378.049	-33.08
378.264	-1.11
378.478	32.02
378.693	21.75
378.908	43.84
379.123	-5.57
379.338	66.89
379.553	27.95
379.767	3.92
379.982	51.97
380.197	72.9
380.412	24.46
380.626	29.89
380.841	81.81
381.056	24.65
381.271	82.2
381.485	0.44
381.7	-2.86
381.915	44.8
382.129	17.49
382.344	31.05
382.559	23.88
382.773	65.34
382.988	-15.84
383.202	30.47
383.417	-11.38
383.632	117.85
383.846	38.8
384.061	53.33
384.275	12.84
384.49	54.1
384.704	50.23
384.919	39.96
385.133	26.01
385.348	14.77
385.562	14.77
385.777	92.47
385.991	9.35
386.206	23.3
386.42	14.39
386.634	83.55
386.849	40.74
387.063	35.12
387.277	-8.86
387.492	11.48
387.706	-3.05
387.92	0.05
388.135	57.4
388.349	45.39
388.563	41.32
388.778	3.15
388.992	32.21
389.206	71.54
389.42	79.1
389.635	21.75
389.849	57.2
390.063	55.27
390.277	29.11
390.491	94.02
390.706	60.5
390.92	54.3
391.134	39.38
391.348	69.6
391.562	-18.16
391.776	18.45
391.99	6.05
392.205	72.7
392.419	-3.63
392.633	30.27
392.847	71.15
393.061	17.1
393.275	80.07
393.489	39.96
393.703	43.45
393.917	59.72
394.131	12.06
394.345	49.26
394.559	74.06
394.773	2.95
394.986	50.04
395.2	51.2
395.414	71.93
395.628	-4.21
395.842	39.19
396.056	12.64
396.27	-20.49
396.484	37.64
396.697	49.26
396.911	63.4
397.125	65.53
397.339	76.58
397.553	37.25
397.766	112.62
397.98	71.15
398.194	75.03
398.408	33.37
398.621	61.85
398.835	75.61
399.049	44.22
399.262	105.83
399.476	63.79
399.69	57.01
399.903	112.81
400.117	44.22
400.331	49.65
400.544	29.5
400.758	148.07
400.971	50.42
401.185	81.42
401.398	55.27
401.612	103.32
401.826	88.4
402.039	86.65
402.253	19.62
402.466	84.72
402.68	26.79
402.893	55.27
403.106	68.83
403.32	63.6
403.533	55.27
403.747	80.65
403.96	78.9
404.174	96.34
404.387	17.49
404.6	78.32
404.814	103.7
405.027	77.55
405.24	71.35
405.454	30.27
405.667	117.46
405.88	1.99
406.094	62.63
406.307	93.63
406.52	55.46
406.733	46.94
406.947	21.75
407.16	113.39
407.373	120.37
407.586	23.3
407.799	34.54
408.012	75.61
408.226	72.51
408.439	98.67
408.652	27.37
408.865	79.87
409.078	79.87
409.291	94.02
409.504	31.44
409.717	83.36
409.93	91.5
410.143	72.7
410.357	22.14
410.57	21.75
410.783	72.7
410.996	77.35
411.209	50.04
411.421	88.2
411.634	54.1
411.847	36.28
412.06	94.79
412.273	59.72
412.486	58.75
412.699	153.3
412.912	81.03
413.125	101.38
413.338	75.42
413.55	79.1
413.763	90.53
413.976	86.46
414.189	55.07
414.402	43.84
414.615	97.89
414.827	33.57
415.04	98.08
415.253	78.32
415.466	101.18
415.678	134.7
415.891	83.75
416.104	63.6
416.316	69.02
416.529	65.73
416.742	81.03
416.954	106.03
417.167	71.35
417.38	60.89
417.592	100.41
417.805	39.96
418.017	29.11
418.23	112.42
418.442	69.8
418.655	56.82
418.868	100.41
419.08	123.47
419.293	139.35
419.505	109.13
419.718	111.65
419.93	113.78
420.142	96.73
420.355	121.92
420.567	118.62
420.78	106.22
420.992	76.19
421.205	150.59
421.417	62.44
421.629	78.52
421.842	69.22
422.054	60.5
422.266	91.69
422.479	141.48
422.691	77.93
422.903	108.93
423.115	65.15
423.328	78.9
423.54	106.22
423.752	82.78
423.964	60.11
424.177	116.49
424.389	80.45
424.601	205.03
424.813	102.73
425.025	87.82
425.238	138.19
425.45	78.9
425.662	89.56
425.874	427.65
426.086	103.12
426.298	128.7
426.51	139.55
426.722	104.28
426.934	77.16
427.146	138.19
427.358	73.67
427.57	131.22
427.782	113.97
427.994	103.32
428.206	57.79
428.418	50.62
428.63	159.89
428.842	147.49
429.054	98.86
429.266	150.78
429.478	97.89
429.69	125.6
429.902	70.77
430.114	125.02
430.325	123.08
430.537	107.77
430.749	109.52
430.961	47.71
431.173	112.62
431.384	127.15
431.596	62.44
431.808	92.47
432.02	125.98
432.231	137.03
432.443	179.65
432.655	147.49
432.867	133.54
433.078	156.4
433.29	200
433.502	162.21
433.713	181.59
433.925	142.07
434.136	182.95
434.348	105.83
434.56	101.38
434.771	227.9
434.983	91.69
435.194	121.14
435.406	143.81
435.617	180.04
435.829	210.26
436.04	187.4
436.252	169.77
436.463	203.48
436.675	198.06
436.886	187.01
437.098	189.92
437.309	231.19
437.521	189.15
437.732	186.05
437.943	173.84
438.155	179.85
438.366	113.58
438.578	223.05
438.789	182.75
439	199.41
439.211	148.85
439.423	197.28
439.634	216.08
439.845	180.62
440.057	229.45
440.268	213.95
440.479	189.15
440.69	190.5
440.902	180.43
441.113	185.08
441.324	170.74
441.535	224.6
441.746	267.81
441.957	187.4
442.168	175.39
442.38	241.46
442.591	233.32
442.802	202.32
443.013	197.67
443.224	221.7
443.435	185.08
443.646	195.54
443.857	219.95
444.068	200.19
444.279	176.75
444.49	295.71
444.701	217.82
444.912	316.83
445.123	256.18
445.334	258.7
445.545	236.61
445.756	204.84
445.967	190.31
446.178	238.36
446.388	248.63
446.599	261.22
446.81	269.74
447.021	223.25
447.232	275.36
447.443	281.18
447.653	226.35
447.864	281.76
448.075	238.55
448.286	262.19
448.496	282.34
448.707	272.84
448.918	233.13
449.129	339.3
449.339	236.23
449.55	289.7
449.761	232.16
449.971	333.1
450.182	238.36
450.393	286.99
450.603	258.31
450.814	320.31
451.024	269.74
451.235	306.17
451.446	354.61
451.656	355.96
451.867	262.19
452.077	290.48
452.288	338.33
452.498	329.61
452.709	267.03
452.919	314.11
453.13	257.54
453.34	296.68
453.55	228.67
453.761	312.76
453.971	311.79
454.182	326.71
454.392	312.18
454.602	354.61
454.813	304.43
455.023	341.62
455.233	260.44
455.444	284.28
455.654	253.66
455.864	303.26
456.075	297.06
456.285	282.73
456.495	286.21
456.705	320.7
456.916	353.64
457.126	359.64
457.336	324.96
457.546	261.03
457.756	287.18
457.967	328.45
458.177	288.54
458.387	332.32
458.597	287.18
458.807	308.49
459.017	290.09
459.227	302.88
459.437	286.99
459.647	342.59
459.857	343.37
460.068	300.74
460.278	354.99
460.488	335.42
460.698	378.63
460.908	304.62
461.117	277.11
461.327	277.88
461.537	341.82
461.747	379.99
461.957	332.91
462.167	430.17
462.377	360.81
462.587	345.31
462.797	365.46
463.007	344.34
463.216	359.84
463.426	390.06
463.636	404.98
463.846	297.06
464.056	323.03
464.265	414.09
464.475	314.11
464.685	352.86
464.895	385.22
465.104	379.99
465.314	400.72
465.524	345.69
465.733	316.44
465.943	427.84
466.153	440.63
466.362	400.52
466.572	369.72
466.782	353.06
466.991	396.65
467.201	434.04
467.41	326.71
467.62	376.11
467.829	376.11
468.039	405.56
468.249	386.96
468.458	366.62
468.668	396.07
468.877	411.76
469.086	454.19
469.296	412.34
469.505	376.89
469.715	504.95
469.924	441.6
470.134	446.83
470.343	439.85
470.552	391.42
470.762	404.59
470.971	373.21
471.18	410.02
471.39	416.99
471.599	370.49
471.808	441.02
472.018	366.23
472.227	459.62
472.436	448.96
472.645	423.39
472.855	400.72
473.064	479.19
473.273	464.46
473.482	474.34
473.691	518.52
473.901	498.37
474.11	440.63
474.319	534.4
474.528	465.24
474.737	523.36
474.946	485.97
475.155	493.52
475.364	522
475.573	485.19
475.783	499.53
475.992	526.65
476.201	533.24
476.41	481.7
476.619	458.45
476.828	487.13
477.037	483.06
477.245	478.41
477.454	535.57
477.663	478.6
477.872	504.95
478.081	587.88
478.29	507.86
478.499	623.33
478.708	543.7
478.917	620.04
479.125	545.83
479.334	538.86
479.543	551.07
479.752	589.04
479.961	558.62
480.169	587.88
480.378	531.88
480.587	706.84
480.796	596.01
481.004	601.83
481.213	589.43
481.422	610.35
481.63	600.08
481.839	608.22
482.048	667.7
482.256	626.05
482.465	644.26
482.674	630.89
482.882	642.32
483.091	684.94
483.299	668.48
483.508	682.23
483.716	629.34
483.925	649.68
484.134	640.96
484.342	628.76
484.551	695.21
484.759	680.49
484.967	678.36
485.176	691.92
485.384	682.81
485.593	700.06
485.801	658.79
486.01	664.99
486.218	594.27
486.426	550.48
486.635	605.31
486.843	577.42
487.051	642.9
487.26	592.91
487.468	650.65
487.676	690.95
487.885	637.86
488.093	650.26
488.301	705.09
488.509	731.83
488.717	725.63
488.926	679.52
489.134	701.61
489.342	707.61
489.55	685.14
489.758	705.48
489.967	681.26
490.175	797.9
490.383	708.58
490.591	804.49
490.799	699.48
491.007	806.23
491.215	747.14
491.423	737.26
491.631	761.67
491.839	778.52
492.047	757.6
492.255	703.74
492.463	695.99
492.671	744.81
492.879	803.13
493.087	757.79
493.295	784.14
493.503	782.79
493.711	820.37
493.919	822.51
494.127	832.19
494.334	844.01
494.542	733.19
494.75	810.3
494.958	794.02
495.166	866.87
495.374	854.09
495.581	830.84
495.789	822.31
495.997	901.17
496.205	823.86
496.412	830.84
496.62	835.29
496.828	860.09
497.035	829.29
497.243	905.62
497.451	846.92
497.658	872.1
497.866	819.41
498.074	931.78
498.281	826.38
498.489	930.81
498.696	828.32
498.904	842.85
499.112	823.28
499.319	926.35
499.527	846.34
499.734	914.15
499.942	810.3
500.149	832.77
500.357	858.35
500.564	844.98
500.771	845.56
500.979	797.9
501.186	855.64
501.394	868.23
501.601	842.07
501.808	899.62
502.016	867.65
502.223	824.06
502.43	844.21
502.638	857.96
502.845	859.9
503.052	952.32
503.26	827.74
503.467	960.07
503.674	888.38
503.881	917.64
504.089	966.07
504.296	908.92
504.503	835.29
504.71	888.96
504.917	853.31
505.125	912.79
505.332	906.79
505.539	915.7
505.746	989.13
505.953	982.93
506.16	958.71
506.367	1034.85
506.574	1010.05
506.781	1027.88
506.988	911.82
507.195	990.48
507.402	948.44
507.609	990.1
507.816	934.69
508.023	946.89
508.23	949.8
508.437	914.15
508.644	951.15
508.851	1005.21
509.058	1015.09
509.265	992.42
509.472	1009.28
509.679	1081.55
509.885	1016.45
510.092	1025.36
510.299	993.2
510.506	1000.75
510.713	991.26
510.92	1016.83
511.126	1036.98
511.333	1077.09
511.54	1062.75
511.746	1125.53
511.953	1083.87
512.16	1096.66
512.367	1055.97
512.573	1031.95
512.78	1040.47
512.987	1027.68
513.193	1031.95
513.4	977.7
513.606	1019.35
513.813	1053.84
514.02	1103.83
514.226	1148.39
514.433	1088.52
514.639	1032.53
514.846	1067.21
515.052	1049.96
515.259	1079.61
515.465	1075.35
515.672	1059.65
515.878	1154.2
516.085	1112.35
516.291	1116.23
516.497	1049.58
516.704	1063.91
516.91	1014.7
517.117	980.41
517.323	943.21
517.529	1026.52
517.736	1019.93
517.942	1007.92
518.148	1029.43
518.354	1036.4
518.561	1062.36
518.767	1045.9
518.973	1077.86
519.179	1086.58
519.386	1072.44
519.592	1072.44
519.798	1045.7
520.004	1171.83
520.21	1112.16
520.417	1189.08
520.623	1213.87
520.829	1200.51
521.035	1179.97
521.241	1190.82
521.447	1209.42
521.653	1303.77
521.859	1222.79
522.065	1232.09
522.271	1340.39
522.477	1250.88
522.683	1306.49
522.889	1253.01
523.095	1251.07
523.301	1248.36
523.507	1213.68
523.713	1240.22
523.919	1201.47
524.125	1306.68
524.331	1270.84
524.537	1335.16
524.742	1330.51
524.948	1346.2
525.154	1332.84
525.36	1453.54
525.566	1314.24
525.772	1382.82
525.977	1288.47
526.183	1353.37
526.389	1365.39
526.595	1279.36
526.8	1305.71
527.006	1245.65
527.212	1210.97
527.417	1213.49
527.623	1189.46
527.829	1296.6
528.034	1319.27
528.24	1337.29
528.446	1279.17
528.651	1340
528.857	1368.29
529.062	1407.43
529.268	1363.84
529.473	1410.33
529.679	1396.58
529.884	1429.71
530.09	1401.81
530.295	1459.35
530.501	1415.18
530.706	1442.69
530.912	1400.07
531.117	1441.33
531.323	1436.1
531.528	1474.08
531.733	1459.16
531.939	1448.5
532.144	1493.06
532.35	1455.09
532.555	1493.06
532.76	1443.66
532.966	1486.48
533.171	1424.67
533.376	1387.67
533.581	1376.43
533.787	1414.6
533.992	1434.75
534.197	1498.1
534.402	1453.15
534.607	1483.38
534.813	1525.61
535.018	1424.67
535.223	1458.38
535.428	1493.06
535.633	1499.85
535.838	1539.95
536.043	1540.34
536.249	1557.39
536.454	1527.55
536.659	1544.99
536.864	1499.07
537.069	1484.93
537.274	1510.7
537.479	1538.01
537.684	1491.71
537.889	1499.85
538.094	1603.5
538.299	1490.35
538.504	1551.38
538.708	1551.96
538.913	1582.38
539.118	1538.21
539.323	1536.08
539.528	1504.88
539.733	1545.96
539.938	1538.79
540.142	1546.93
540.347	1512.25
540.552	1508.56
540.757	1502.17
540.962	1512.05
541.166	1434.17
541.371	1447.53
541.576	1489.96
541.781	1414.21
541.985	1532.4
542.19	1531.23
542.395	1592.26
542.599	1623.26
542.804	1581.61
543.008	1569.79
543.213	1508.18
543.418	1504.5
543.622	1555.45
543.827	1496.16
544.031	1588
544.236	1594.98
544.44	1552.35
544.645	1637.41
544.849	1560.1
545.054	1613.19
545.258	1655.62
545.463	1628.49
545.667	1573.66
545.872	1583.35
546.076	1598.08
546.281	1596.33
546.485	1565.91
546.689	1592.46
546.894	1614.16
547.098	1580.44
547.302	1562.04
547.507	1592.26
547.711	1614.35
547.915	1656.2
548.119	1593.81
548.324	1583.74
548.528	1678.09
548.732	1615.13
548.936	1639.54
549.141	1666.86
549.345	1614.35
549.549	1614.35
549.753	1612.41
549.957	1701.73
550.161	1726.34
550.366	1681.19
550.57	1626.56
550.774	1623.46
550.978	1608.54
551.182	1638.96
551.386	1597.69
551.59	1620.74
551.794	1662.21
551.998	1619.97
552.202	1607.18
552.406	1604.28
552.61	1637.99
552.814	1648.06
553.018	1700.57
553.222	1642.64
553.426	1628.69
553.63	1708.9
553.833	1632.95
554.037	1595.75
554.241	1685.46
554.445	1640.51
554.649	1646.51
554.853	1630.43
555.056	1695.34
555.26	1675.77
555.464	1645.93
555.668	1673.64
555.871	1672.67
556.075	1699.79
556.279	1622.1
556.483	1618.42
556.686	1593.81
556.89	1608.34
557.094	1638.96
557.297	1547.12
557.501	1645.54
557.704	1539.18
557.908	1686.42
558.112	1567.66
558.315	1658.91
558.519	1570.95
558.722	1615.32
558.926	1555.64
559.129	1517.48
559.333	1486.86
559.536	1458.38
559.74	1498.68
559.943	1497.71
560.147	1496.16
560.35	1519.03
560.553	1532.98
560.757	1489.96
560.96	1636.44
561.164	1555.26
561.367	1599.04
561.57	1579.86
561.774	1618.81
561.977	1541.5
562.18	1537.82
562.384	1647.48
562.587	1531.04
562.79	1546.54
562.993	1514.76
563.197	1610.09
563.4	1599.43
563.603	1602.73
563.806	1638.96
564.009	1517.48
564.212	1553.71
564.416	1487.25
564.619	1536.66
564.822	1497.52
565.025	1589.94
565.228	1482.99
565.431	1518.64
565.634	1430.87
565.837	1497.52
566.04	1462.45
566.243	1469.81
566.446	1391.73
566.649	1526.97
566.852	1408.59
567.055	1455.48
567.258	1494.42
567.461	1548.67
567.664	1527.94
567.867	1433.97
568.07	1515.93
568.273	1506.43
568.475	1509.92
568.678	1445.21
568.881	1422.73
569.084	1432.42
569.287	1335.35
569.489	1395.42
569.692	1418.47
569.895	1441.33
570.098	1401.42
570.3	1379.33
570.503	1309.39
570.706	1330.51
570.909	1339.23
571.111	1307.26
571.314	1296.6
571.516	1324.31
571.719	1334.97
571.922	1390.18
572.124	1308.62
572.327	1381.08
572.529	1288.66
572.732	1328.57
572.935	1371.39
573.137	1432.03
573.34	1331.87
573.542	1358.22
573.745	1385.53
573.947	1354.54
574.15	1317.14
574.352	1297.96
574.554	1377.78
574.757	1289.24
574.959	1279.75
575.162	1276.46
575.364	1268.51
575.566	1421.18
575.769	1257.27
575.971	1293.7
576.173	1234.41
576.376	1294.86
576.578	1332.06
576.78	1339.62
576.982	1233.06
577.185	1288.66
577.387	1245.84
577.589	1243.13
577.791	1305.71
577.993	1305.9
578.196	1280.72
578.398	1311.91
578.6	1313.27
578.802	1238.09
579.004	1224.53
579.206	1212.91
579.408	1282.27
579.61	1261.92
579.812	1325.86
580.014	1244.29
580.216	1265.02
580.418	1281.11
580.62	1232.67
580.822	1222.21
581.024	1255.53
581.226	1318.89
581.428	1275.49
581.63	1336.9
581.832	1231.51
582.034	1311.72
582.236	1304.74
582.438	1289.24
582.64	1352.79
582.841	1338.07
583.043	1388.05
583.245	1324.12
583.447	1294.86
583.649	1275.68
583.85	1287.31
584.052	1311.52
584.254	1262.7
584.456	1337.68
584.657	1267.54
584.859	1289.82
585.061	1288.08
585.262	1250.3
585.464	1267.16
585.666	1293.31
585.867	1220.07
586.069	1321.4
586.27	1245.65
586.472	1257.27
586.674	1261.73
586.875	1222.59
587.077	1209.03
587.278	1277.62
587.48	1221.82
587.681	1346.2
587.883	1248.75
588.084	1240.03
588.285	1212.13
588.487	1200.12
588.688	1204.57
588.89	1186.17
589.091	1092.98
589.292	1154.01
589.494	1111
589.695	1076.7
589.896	1047.25
590.098	1021.68
590.299	1128.43
590.5	1062.17
590.702	1088.13
590.903	1145.87
591.104	1178.81
591.305	1151.49
591.507	1191.01
591.708	1188.88
591.909	1141.61
592.11	1225.31
592.311	1186.75
592.512	1147.03
592.714	1096.27
592.915	1142.19
593.116	1134.83
593.317	1169.89
593.518	1149.16
593.719	1158.85
593.92	1170.28
594.121	1183.07
594.322	1154.98
594.523	1142.19
594.724	1132.5
594.925	1181.71
595.126	1161.95
595.327	1133.08
595.528	1135.79
595.729	1132.11
595.929	1137.15
596.13	1124.56
596.331	1164.66
596.532	1168.15
596.733	1200.7
596.934	1167.57
597.135	1150.13
597.335	1181.91
597.536	1100.73
597.737	1139.67
597.938	1119.91
598.138	1169.12
598.339	1132.69
598.54	1167.38
598.74	1126.11
598.941	1151.49
599.142	1189.46
599.342	1154.39
599.543	1123.39
599.744	1131.34
599.944	1154.59
600.145	1137.73
600.345	1136.38
600.546	1229.57
600.746	1184.62
600.947	1191.98
601.147	1160.4
601.348	1218.52
601.548	1117
601.749	1168.15
601.949	1111.96
602.15	1140.44
602.35	1126.11
602.551	1166.6
602.751	1075.35
602.951	1128.24
603.152	1042.41
603.352	1156.14
603.552	1138.51
603.753	1146.26
603.953	1194.5
604.153	1175.32
604.354	1123.2
604.554	1139.28
604.754	1133.47
604.954	1094.53
605.155	1167.57
605.355	1141.03
605.555	1166.21
605.755	1199.54
605.955	1155.75
606.155	1183.07
606.356	1151.68
606.556	1156.53
606.756	1148.78
606.956	1076.12
607.156	1198.57
607.356	1134.05
607.556	1152.26
607.756	1156.14
607.956	1187.91
608.156	1128.04
608.356	1093.56
608.556	1143.16
608.756	1142.58
608.956	1086.39
609.156	1153.62
609.356	1092.78
609.556	1130.37
609.755	1143.74
609.955	1061.4
610.155	1133.66
610.355	1119.52
610.555	1081.35
610.755	1104.21
610.954	1041.63
611.154	1116.23
611.354	1143.16
611.554	1056.94
611.753	1097.05
611.953	1028.26
612.153	1109.64
612.352	1099.76
612.552	1034.85
612.752	999.2
612.951	1086.78
613.151	1067.79
613.351	1012.77
613.55	1040.86
613.75	1094.91
613.949	1019.35
614.149	1061.59
614.348	1052.87
614.548	1007.73
614.747	1008.89
614.947	1032.14
615.146	972.27
615.346	1108.67
615.545	1054.81
615.745	1036.01
615.944	1087.94
616.144	1062.75
616.343	1092.59
616.542	1041.63
616.742	1017.61
616.941	1002.88
617.14	951.35
617.34	1005.4
617.539	998.62
617.738	945.15
617.938	1058.49
618.137	1001.72
618.336	965.3
618.535	1027.49
618.734	1021.68
618.934	1036.6
619.133	1052.87
619.332	1031.75
619.531	1007.34
619.73	1010.44
619.929	1042.99
620.128	1017.03
620.328	1076.7
620.527	988.35
620.726	1007.53
620.925	1049.96
621.124	1005.02
621.323	1043.38
621.522	997.85
621.721	990.29
621.92	976.53
622.119	1043.57
622.318	987
622.517	973.05
622.715	989.32
622.914	928.87
623.113	1003.47
623.312	907.95
623.511	1007.34
623.71	945.15
623.909	962.39
624.107	1052.29
624.306	939.72
624.505	955.61
624.704	952.12
624.902	923.45
625.101	1015.48
625.3	993.2
625.499	942.05
625.697	954.25
625.896	922.87
626.095	952.9
626.293	924.03
626.492	922.67
626.69	975.57
626.889	927.71
627.088	983.51
627.286	924.22
627.485	941.08
627.683	930.42
627.882	951.54
628.08	836.84
628.279	914.34
628.477	937.01
628.676	857.19
628.874	922.09
629.073	885.67
629.271	885.86
629.469	912.79
629.668	901.36
629.866	893.61
630.065	891.29
630.263	913.95
630.461	860.67
630.66	871.91
630.858	910.08
631.056	923.25
631.254	940.3
631.453	868.42
631.651	946.5
631.849	895.35
632.047	892.45
632.245	871.33
632.444	918.8
632.642	914.34
632.84	912.02
633.038	889.54
633.236	860.29
633.434	875.59
633.632	861.45
633.83	864.55
634.028	949.99
634.227	886.25
634.425	957.35
634.623	881.4
634.821	911.44
635.019	915.7
635.216	902.91
635.414	912.4
635.612	912.79
635.81	874.43
636.008	981.96
636.206	887.02
636.404	914.54
636.602	884.31
636.8	888.38
636.997	924.42
637.195	928.1
637.393	911.63
637.591	979.05
637.789	906.4
637.986	916.67
638.184	925.77
638.382	949.41
638.58	930.42
638.777	980.6
638.975	909.89
639.173	911.44
639.37	929.84
639.568	933.72
639.765	932.94
639.963	875.98
640.161	946.89
640.358	936.43
640.556	863.58
640.753	842.27
640.951	868.04
641.148	905.82
641.346	875.2
641.543	885.47
641.741	885.47
641.938	845.56
642.136	897.49
642.333	854.47
642.531	936.04
642.728	944.76
642.925	887.99
643.123	905.43
643.32	877.72
643.517	876.17
643.715	899.81
643.912	864.74
644.109	885.28
644.306	869.59
644.504	857.19
644.701	887.8
644.898	899.42
645.095	835.1
645.293	885.28
645.49	873.46
645.687	896.32
645.884	878.11
646.081	820.57
646.278	846.14
646.475	820.37
646.672	861.06
646.87	839.17
647.067	879.66
647.264	836.84
647.461	778.91
647.658	780.07
647.855	825.22
648.052	802.74
648.249	741.13
648.446	801.58
648.642	806.81
648.839	805.07
649.036	788.79
649.233	768.45
649.43	723.5
649.627	748.88
649.824	765.35
650.021	776.59
650.217	761.28
650.414	767.87
650.611	805.84
650.808	788.99
651.004	830.64
651.201	842.07
651.398	871.52
651.595	790.73
651.791	762.06
651.988	829.29
652.185	751.01
652.381	787.24
652.578	744.23
652.775	773.87
652.971	800.03
653.168	790.92
653.364	809.14
653.561	730.09
653.757	760.12
653.954	778.52
654.15	723.11
654.347	856.41
654.543	779.69
654.74	727.57
654.936	753.92
655.133	744.62
655.329	760.7
655.525	726.41
655.722	763.03
655.918	695.6
656.115	727.96
656.311	661.89
656.507	624.5
656.704	609.96
656.9	625.27
657.096	643.29
657.292	615.39
657.489	750.04
657.685	732.8
657.881	701.99
658.077	731.06
658.273	761.09
658.47	800.61
658.666	716.72
658.862	749.85
659.058	730.28
659.254	782.21
659.45	691.53
659.646	751.59
659.842	716.53
660.038	787.24
660.234	725.44
660.43	762.64
660.626	813.4
660.822	782.21
661.018	775.23
661.214	758.96
661.41	687.27
661.606	782.79
661.802	791.7
661.998	726.21
662.194	743.84
662.39	759.54
662.586	768.84
662.781	785.69
662.977	763.41
663.173	765.74
663.369	729.12
663.564	765.35
663.76	770.58
663.956	718.85
664.152	772.13
664.347	695.21
664.543	751.98
664.739	715.75
664.934	673.32
665.13	672.16
665.326	748.88
665.521	731.44
665.717	682.81
665.912	702.77
666.108	619.46
666.304	700.83
666.499	700.06
666.695	660.34
666.89	690.56
667.086	724.28
667.281	724.66
667.477	779.69
667.672	716.91
667.867	708.39
668.063	728.34
668.258	662.08
668.454	696.18
668.649	762.83
668.844	698.51
669.04	723.69
669.235	698.51
669.43	680.88
669.626	645.03
669.821	680.1
670.016	652.4
670.211	687.46
670.407	664.6
670.602	676.03
670.797	682.04
670.992	768.26
671.187	679.91
671.382	721.37
671.578	704.9
671.773	720.01
671.968	645.61
672.163	678.94
672.358	702.77
672.553	654.33
672.748	677.97
672.943	749.08
673.138	695.6
673.333	721.95
673.528	629.73
673.723	746.56
673.918	699.48
674.113	617.13
674.308	754.31
674.503	685.72
674.698	703.35
674.892	689.01
675.087	702.19
675.282	710.52
675.477	627.79
675.672	731.83
675.867	689.98
676.061	653.95
676.256	663.25
676.451	671.19
676.646	705.09
676.84	653.95
677.035	622.95
677.23	645.03
677.424	687.66
677.619	716.72
677.814	717.3
678.008	718.27
678.203	633.6
678.397	669.06
678.592	711.88
678.787	734.54
678.981	664.8
679.176	699.67
679.37	676.42
679.565	658.98
679.759	667.7
679.954	702.38
680.148	727.76
680.342	739.97
680.537	701.03
680.731	669.45
680.926	687.08
681.12	709.55
681.314	667.12
681.509	673.13
681.703	686.3
681.897	727.38
682.092	664.8
682.286	685.53
682.48	749.66
682.674	717.11
682.869	672.16
683.063	670.22
683.257	778.14
683.451	650.85
683.645	734.74
683.839	673.51
684.034	707.42
684.228	752.95
684.422	653.95
684.616	673.32
684.81	705.48
685.004	697.34
685.198	715.56
685.392	726.21
685.586	682.81
685.78	746.36
685.974	713.43
686.168	712.46
686.362	779.11
686.556	672.35
686.75	634.18
686.944	573.54
687.138	627.21
687.331	522
687.525	533.43
687.719	475.5
687.913	542.73
688.107	548.74
688.301	545.64
688.494	581.68
688.688	523.36
688.882	518.13
689.076	512.9
689.269	557.27
689.463	622.75
689.657	591.17
689.85	572.18
690.044	593.11
690.238	595.63
690.431	574.12
690.625	598.15
690.818	626.24
691.012	636.7
691.205	676.03
691.399	609.38
691.593	676.81
691.786	727.96
691.98	729.51
692.173	738.03
692.366	704.71
692.56	755.66
692.753	762.44
692.947	700.06
693.14	788.99
693.333	777.56
693.527	680.68
693.72	753.73
693.914	712.65
694.107	704.71
694.3	757.41
694.493	777.56
694.687	808.75
694.88	714.2
695.073	823.86
695.266	795.38
695.46	766.12
695.653	853.89
695.846	830.26
696.039	762.64
696.232	816.89
696.425	855.25
696.618	874.24
696.812	858.93
697.005	923.84
697.198	995.91
697.391	903.3
697.584	931.59
697.777	982.35
697.97	971.11
698.163	972.47
698.356	978.86
698.549	1045.31
698.742	996.1
698.935	958.52
699.127	988.35
699.32	973.63
699.513	978.28
699.706	988.93
699.899	1008.12
700.092	977.31
700.285	1018.38
700.477	988.74
700.67	1031.75
700.863	1031.95
701.056	1099.18
701.248	1066.05
701.441	1103.63
701.634	1044.15
701.826	1152.46
702.019	1042.8
702.212	1156.33
702.404	1066.24
702.597	1047.83
702.79	1113.13
702.982	1112.55
703.175	1184.04
703.367	1191.21
703.56	1199.73
703.752	1265.22
703.945	1246.81
704.137	1253.98
704.33	1266.19
704.522	1270.26
704.715	1268.32
704.907	1306.49
705.1	1319.85
705.292	1333.03
705.484	1311.91
705.677	1368.29
705.869	1348.92
706.061	1360.15
706.254	1421.77
706.446	1356.09
706.638	1366.94
706.831	1422.54
707.023	1423.12
707.215	1482.41
707.407	1476.21
707.599	1433.58
707.792	1521.35
707.984	1502.17
708.176	1504.5
708.368	1500.43
708.56	1494.03
708.752	1520.77
708.944	1495.39
709.136	1548.09
709.329	1506.63
709.521	1652.71
709.713	1585.68
709.905	1618.61
710.097	1666.66
710.289	1585.48
710.481	1579.86
710.672	1611.83
710.864	1664.53
711.056	1710.45
711.248	1656.2
711.44	1678.67
711.632	1640.51
711.824	1712
712.016	1761.79
712.207	1736.41
712.399	1749.2
712.591	1848.78
712.783	1774.77
712.975	1784.85
713.166	1736.8
713.358	1776.52
713.55	1829.99
713.741	1844.91
713.933	1848.4
714.125	1815.46
714.316	1796.47
714.508	1860.6
714.7	1869.71
714.891	1855.95
715.083	1923.57
715.274	1863.51
715.466	1860.22
715.657	1859.05
715.849	1816.43
716.04	1904.2
716.232	1814.1
716.423	1866.8
716.615	1789.5
716.806	1768.38
716.998	1730.6
717.189	1684.49
717.381	1600.4
717.572	1569.59
717.763	1602.14
717.955	1557.39
718.146	1561.46
718.337	1495.2
718.528	1471.36
718.72	1412.27
718.911	1511.66
719.102	1462.26
719.293	1487.45
719.485	1498.88
719.676	1472.91
719.867	1423.51
720.058	1434.75
720.249	1413.43
720.44	1482.21
720.632	1503.14
720.823	1553.51
721.014	1668.99
721.205	1671.89
721.396	1743.77
721.587	1858.67
721.778	1852.47
721.969	1868.35
722.16	1939.85
722.351	1920.47
722.542	2032.84
722.733	2074.69
722.924	1952.63
723.115	2036.14
723.305	1998.16
723.496	2040.59
723.687	1903.03
723.878	1916.79
724.069	1880.56
724.26	1885.79
724.45	1807.13
724.641	1856.73
724.832	1885.4
725.023	1847.82
725.213	1837.55
725.404	1846.27
725.595	1832.9
725.785	1800.54
725.976	1897.22
726.167	1826.5
726.357	1908.65
726.548	1971.81
726.739	1921.05
726.929	1948.37
727.12	1969.68
727.31	2039.24
727.501	1921.05
727.691	1939.85
727.882	1998.55
728.072	1997.19
728.263	2018.12
728.453	2048.54
728.644	2015.02
728.834	2038.08
729.024	2018.12
729.215	2013.47
729.405	2033.43
729.596	2133.98
729.786	2108.99
729.976	2161.3
730.167	2129.14
730.357	2073.34
730.547	2115.38
730.737	2099.69
730.928	2184.35
731.118	2190.75
731.308	2126.42
731.498	2142.51
731.688	2214.39
731.879	2260.69
732.069	2285.1
732.259	2313.2
732.449	2348.26
732.639	2416.08
732.829	2418.01
733.019	2454.63
733.209	2517.41
733.399	2462.96
733.589	2577.66
733.779	2589.67
733.969	2584.83
734.159	2656.71
734.349	2677.83
734.539	2698.95
734.729	2703.02
734.919	2695.07
735.109	2742.54
735.299	2723.55
735.488	2725.68
735.678	2724.91
735.868	2747.38
736.058	2768.89
736.248	2697.4
736.437	2652.06
736.627	2647.41
736.817	2809.38
737.007	2698.37
737.196	2774.32
737.386	2765.4
737.576	2728.4
737.765	2774.31
737.955	2761.92
738.144	2849.49
738.334	2830.31
738.524	2725.1
738.713	2805.31
738.903	2818.49
739.092	2847.16
739.282	2852.2
739.471	2848.52
739.661	2838.83
739.85	2868.86
740.04	2863.44
740.229	2934.74
740.419	2923.31
740.608	2922.92
740.797	2918.08
740.987	2988.79
741.176	2959.92
741.365	2901.8
741.555	2890.56
741.744	2968.06
741.933	2899.28
742.123	2948.88
742.312	2974.65
742.501	3024.25
742.69	2985.31
742.88	2957.41
743.069	3055.25
743.258	3005.07
743.447	3013.98
743.636	3005.26
743.825	2949.08
744.014	3010.11
744.204	3008.36
744.393	2944.43
744.582	3083.92
744.771	3090.12
744.96	3018.24
745.149	3043.04
745.338	3006.04
745.527	3035.68
745.716	3022.7
745.905	3011.66
746.094	3071.91
746.283	3054.09
746.471	3045.75
746.66	3132.75
746.849	3039.17
747.038	3110.27
747.227	3048.08
747.416	3096.13
747.604	3069.78
747.793	3053.5
747.982	3060.29
748.171	3063.58
748.359	3063.58
748.548	3059.7
748.737	3056.8
748.926	3053.5
749.114	2953.34
749.303	3030.45
749.491	3010.88
749.68	2963.61
749.869	3096.71
750.057	3043.24
750.246	3030.84
750.434	3007.78
750.623	3005.46
750.811	3016.69
751	3052.54
751.188	3028.51
751.377	3018.82
751.565	2977.56
751.754	2995.57
751.942	2963.22
752.131	3061.45
752.319	2948.88
752.507	2946.56
752.696	3060.29
752.884	3039.36
753.072	2981.43
753.261	2990.54
753.449	3004.68
753.637	2952.37
753.825	3055.64
754.014	2976.39
754.202	2994.8
754.39	3011.46
754.578	3015.34
754.766	2940.94
754.955	2964.19
755.143	3056.8
755.331	2953.34
755.519	2942.1
755.707	2976.59
755.895	2924.47
756.083	2997.51
756.271	2914.98
756.459	2909.55
756.647	2957.41
756.835	2924.86
757.023	2926.99
757.211	2905.87
757.399	2893.47
757.587	2893.66
757.775	2850.85
757.963	2876.81
758.151	2901.99
758.339	2835.93
758.526	2834.18
758.714	2851.81
758.902	2749.71
759.09	2682.29
759.278	2490.09
759.465	2345.16
759.653	2038.27
759.841	1883.27
760.028	1550.22
760.216	1323.73
760.404	1268.32
760.591	1042.99
760.779	856.22
760.967	757.79
761.154	637.09
761.342	669.64
761.529	694.44
761.717	733.19
761.905	716.53
762.092	811.46
762.28	763.99
762.467	753.92
762.655	706.45
762.842	721.76
763.029	748.11
763.217	760.31
763.404	754.31
763.592	769.61
763.779	724.28
763.966	774.65
764.154	804.29
764.341	888.19
764.528	873.46
764.716	887.41
764.903	975.18
765.09	1035.24
765.277	1062.75
765.465	1196.44
765.652	1267.74
765.839	1324.12
766.026	1396.58
766.213	1404.72
766.4	1532.01
766.588	1718.01
766.775	1723.62
766.962	1839.87
767.149	1844.52
767.336	2028.58
767.523	1955.35
767.71	2049.31
767.897	2202.95
768.084	2230.27
768.271	2224.07
768.458	2304.87
768.645	2352.53
768.832	2297.7
769.019	2355.82
769.206	2391.08
769.392	2467.42
769.579	2549.76
769.766	2463.35
769.953	2483.31
770.14	2554.99
770.327	2517.79
770.513	2570.88
770.7	2608.85
770.887	2508.69
771.073	2592.58
771.26	2592.58
771.447	2566.42
771.634	2545.89
771.82	2652.64
772.007	2544.72
772.193	2599.17
772.38	2633.46
772.567	2585.41
772.753	2614.28
772.94	2633.85
773.126	2653.42
773.313	2592.97
773.499	2634.62
773.686	2627.84
773.872	2563.52
774.059	2569.52
774.245	2539.49
774.432	2562.74
774.618	2516.05
774.804	2557.12
774.991	2510.82
775.177	2565.65
775.363	2562.94
775.55	2564.1
775.736	2515.08
775.922	2504.04
776.109	2574.95
776.295	2559.26
776.481	2553.83
776.667	2580.76
776.853	2481.18
777.04	2468
777.226	2520.89
777.412	2620.67
777.598	2444.36
777.784	2498.61
777.97	2483.89
778.156	2509.46
778.342	2450.95
778.528	2482.73
778.715	2436.23
778.901	2480.21
779.087	2489.7
779.272	2455.6
779.458	2420.34
779.644	2479.43
779.83	2429.44
780.016	2508.3
780.202	2472.65
780.388	2401.35
780.574	2336.06
780.76	2437.39
780.946	2434.87
781.131	2461.99
781.317	2408.52
781.503	2387.79
781.689	2406
781.874	2467.81
782.06	2376.16
782.246	2407.55
782.432	2382.75
782.617	2410.26
782.803	2457.93
782.989	2350.4
783.174	2388.18
783.36	2300.6
783.545	2326.76
783.731	2289.56
783.916	2283.36
784.102	2332.38
784.288	2294.98
784.473	2329.86
784.659	2285.68
784.844	2352.14
785.029	2263.6
785.215	2285.88
785.4	2221.36
785.586	2343.81
785.771	2253.91
785.956	2287.82
786.142	2247.13
786.327	2224.65
786.512	2242.67
786.698	2256.82
786.883	2178.93
787.068	2202.37
787.254	2221.94
787.439	2216.52
787.624	2193.27
787.809	2188.42
787.994	2176.02
788.18	2227.56
788.365	2132.43
788.55	2164.59
788.735	2166.34
788.92	2146.96
789.105	2173.5
789.29	2179.9
789.475	2084.57
789.66	2119.64
789.845	2074.89
790.03	2060.55
790.215	2138.44
790.4	2148.51
790.585	2126.42
790.77	2084.38
790.955	2023.93
791.14	2080.12
791.325	2135.14
791.51	2004.56
791.695	2118.29
791.879	2058.61
792.064	1976.85
792.249	2107.82
792.434	2085.35
792.618	2081.09
792.803	2133.59
792.988	2058.61
793.173	2058.81
793.357	2089.03
793.542	2037.11
793.727	2068.88
793.911	2107.24
794.096	2050.67
794.281	2087.67
794.465	2164.2
794.65	2071.21
794.834	2112.86
795.019	2155.49
795.203	2175.64
795.388	2133.21
795.572	2173.5
795.757	2104.72
795.941	2104.72
796.126	2117.51
796.31	2066.94
796.494	2094.46
796.679	2069.27
796.863	2082.25
797.048	2144.06
797.232	2108.99
797.416	2091.36
797.601	2116.35
797.785	2150.26
797.969	2173.12
798.153	2106.47
798.338	2131.85
798.522	2105.69
798.706	2152.58
798.89	2129.72
799.074	2241.51
799.258	2183
799.443	2129.52
799.627	2108.6
799.811	2166.53
799.995	2103.56
800.179	2092.71
800.363	2108.99
800.547	2107.05
800.731	2196.17
800.915	2081.47
801.099	2083.61
801.283	2100.07
801.467	2114.02
801.651	2111.7
801.835	2161.69
802.019	2112.67
802.202	2110.92
802.386	2052.03
802.57	2087.87
802.754	2096.39
802.938	2046.99
803.121	2090
803.305	2166.72
803.489	2082.25
803.673	2121.58
803.856	2127.59
804.04	2117.71
804.224	2139.79
804.407	2105.11
804.591	2065.39
804.775	2058.42
804.958	2100.27
805.142	2203.92
805.326	2096.39
805.509	2123.91
805.693	2136.89
805.876	2188.62
806.06	2120.61
806.243	2132.43
806.427	2158.78
806.61	2171.18
806.794	2098.52
806.977	2152.97
807.16	2115.96
807.344	2123.32
807.527	2117.32
807.71	2112.86
807.894	2125.46
808.077	2109.37
808.26	2080.89
808.444	2064.62
808.627	2124.68
808.81	2051.44
808.993	2040.4
809.177	1996.61
809.36	2061.91
809.543	2097.94
809.726	2008.43
809.909	2018.51
810.092	1999.71
810.276	1997.39
810.459	1992.54
810.642	1966.78
810.825	1923.76
811.008	1976.27
811.191	1894.7
811.374	1892.57
811.557	1891.02
811.74	1986.73
811.923	1888.12
812.106	1828.44
812.289	1866.42
812.472	1811.2
812.654	1874.55
812.837	1816.23
813.02	1774.58
813.203	1759.47
813.386	1649.61
813.569	1687.39
813.751	1626.56
813.934	1625.98
814.117	1618.03
814.3	1573.86
814.482	1564.75
814.665	1557.78
814.848	1514.38
815.03	1452.77
815.213	1472.53
815.396	1438.23
815.578	1430.68
815.761	1404.91
815.943	1487.83
816.126	1399.48
816.309	1323.92
816.491	1288.66
816.674	1267.54
816.856	1278.97
817.039	1278.59
817.221	1371.39
817.403	1343.1
817.586	1327.6
817.768	1337.68
817.951	1272.97
818.133	1270.26
818.315	1303.97
818.498	1319.85
818.68	1403.36
818.862	1362.67
819.045	1389.22
819.227	1367.9
819.409	1346.4
819.591	1360.93
819.774	1312.3
819.956	1277.62
820.138	1394.06
820.32	1362.87
820.502	1417.5
820.684	1473.11
820.866	1471.75
821.048	1497.33
821.231	1534.53
821.413	1504.88
821.595	1478.53
821.777	1526.78
821.959	1504.3
822.141	1520.96
822.323	1419.05
822.505	1370.62
822.686	1337.1
822.868	1261.54
823.05	1209.42
823.232	1204.96
823.414	1125.33
823.596	1199.73
823.778	1169.31
823.96	1185.59
824.141	1221.62
824.323	1215.42
824.505	1266.77
824.687	1307.45
824.868	1377.2
825.05	1463.23
825.232	1454.12
825.413	1522.32
825.595	1477.37
825.777	1408.98
825.958	1466.13
826.14	1470.01
826.321	1452.77
826.503	1418.67
826.685	1449.86
826.866	1502.95
827.048	1484.15
827.229	1421.77
827.411	1369.65
827.592	1386.89
827.773	1382.24
827.955	1299.9
828.136	1324.31
828.318	1291.18
828.499	1366.94
828.68	1270.45
828.862	1325.47
829.043	1364.42
829.224	1352.99
829.406	1265.8
829.587	1304.94
829.768	1296.02
829.949	1343.49
830.131	1309.78
830.312	1365.58
830.493	1325.47
830.674	1329.15
830.855	1311.91
831.036	1270.26
831.218	1389.8
831.399	1377.98
831.58	1316.37
831.761	1344.27
831.942	1349.3
832.123	1335.94
832.304	1268.32
832.485	1288.86
832.666	1257.08
832.847	1369.26
833.028	1315.4
833.209	1321.4
833.389	1327.22
833.57	1243.71
833.751	1294.28
833.932	1329.74
834.113	1301.84
834.294	1277.04
834.475	1303
834.655	1364.8
834.836	1376.24
835.017	1361.51
835.198	1275.49
835.378	1329.74
835.559	1367.52
835.74	1341.75
835.92	1312.1
836.101	1318.5
836.281	1333.03
836.462	1348.92
836.643	1372.75
836.823	1362.67
837.004	1351.82
837.184	1406.65
837.365	1380.88
837.545	1395.03
837.726	1378.37
837.906	1399.1
838.087	1358.99
838.267	1384.76
838.448	1333.42
838.628	1357.25
838.808	1355.12
838.989	1434.55
839.169	1325.09
839.349	1355.89
839.53	1395.22
839.71	1374.88
839.89	1314.24
840.07	1405.68
840.251	1344.46
840.431	1391.15
840.611	1394.64
840.791	1340.2
840.971	1425.06
841.151	1326.25
841.332	1310.17
841.512	1367.71
841.692	1298.54
841.872	1340
842.052	1365.58
842.232	1378.17
842.412	1309.59
842.592	1338.65
842.772	1382.82
842.952	1378.75
843.132	1332.25
843.312	1325.28
843.492	1286.72
843.672	1370.81
843.851	1259.99
844.031	1337.68
844.211	1317.34
844.391	1311.91
844.571	1334.39
844.751	1367.52
844.93	1318.5
845.11	1261.54
845.29	1311.91
845.47	1379.92
845.649	1326.25
845.829	1340
846.009	1292.15
846.188	1334.77
846.368	1304.16
846.547	1320.44
846.727	1361.32
846.907	1253.4
847.086	1308.42
847.266	1370.04
847.445	1285.95
847.625	1288.66
847.804	1242.16
847.984	1313.46
848.163	1244.68
848.343	1275.29
848.522	1267.74
848.701	1287.5
848.881	1225.31
849.06	1275.68
849.239	1292.15
849.419	1299.12
849.598	1200.51
849.777	1220.85
849.957	1212.71
850.136	1147.03
850.315	1182.49
850.494	1167.96
850.674	1153.43
850.853	1216.39
851.032	1172.99
851.211	1220.46
851.39	1187.72
851.569	1118.74
851.748	1166.41
851.927	1216.78
852.107	1193.73
852.286	1175.51
852.465	1154.78
852.644	1233.25
852.823	1223.37
853.002	1197.21
853.181	1141.22
853.359	1243.71
853.538	1148.97
853.717	1208.26
853.896	1110.22
854.075	1057.91
854.254	1031.56
854.433	989.9
854.611	1037.56
854.79	992.23
854.969	1062.17
855.148	1042.02
855.327	990.48
855.505	1053.26
855.684	1081.74
855.863	1094.33
856.041	1066.63
856.22	1084.84
856.399	1081.16
856.577	1140.83
856.756	1127.46
856.934	1264.64
857.113	1232.47
857.291	1139.48
857.47	1134.05
857.648	1144.71
857.827	1149.16
858.005	1179.19
858.184	1120.29
858.362	1203.8
858.541	1136.76
858.719	1132.11
858.898	1121.26
859.076	1129.01
859.254	1163.5
859.433	1133.86
859.611	1102.66
859.789	1020.32
859.967	1173.96
860.146	1200.51
860.324	1076.9
860.502	1092.98
860.68	1041.63
860.859	1086.78
861.037	1083.68
861.215	1103.63
861.393	1102.47
861.571	1061.59
861.749	1085.81
861.927	1093.75
862.105	1074.57
862.283	1083.87
862.461	1015.87
862.639	1048.8
862.817	1044.35
862.995	1049.77
863.173	1048.61
863.351	1067.01
863.529	1103.25
863.707	1099.18
863.885	1065.85
864.063	988.74
864.241	1035.43
864.418	1117.97
864.596	1071.08
864.774	977.12
864.952	1063.72
865.129	1050.93
865.307	994.94
865.485	961.81
865.663	1058.68
865.84	982.54
866.018	1038.34
866.196	894
866.373	914.54
866.551	902.33
866.728	821.15
866.906	882.57
867.084	902.33
867.261	929.07
867.439	920.74
867.616	1006.18
867.794	949.41
867.971	959.29
868.149	926.35
868.326	1044.54
868.503	972.47
868.681	957.74
868.858	926.94
869.035	935.85
869.213	976.92
869.39	961.03
869.567	1052.1
869.745	946.7
869.922	967.82
870.099	983.51
870.276	982.93
870.454	972.66
870.631	1004.43
870.808	950.77
870.985	993.97
871.162	1029.81
871.339	977.12
871.517	962.97
871.694	918.6
871.871	963.55
872.048	952.51
872.225	931.39
872.402	952.12
872.579	885.47
872.756	958.52
872.933	907.75
873.11	921.7
873.287	938.95
873.463	928.49
873.64	902.91
873.817	932.17
873.994	933.52
874.171	912.02
874.348	931
874.524	902.14
874.701	888.19
874.878	858.74
875.055	933.33
875.231	913.76
875.408	911.44
875.585	838.2
875.762	888.96
875.938	902.91
876.115	880.05
876.291	899.62
876.468	899.42
876.645	862.61
876.821	872.49
876.998	887.99
877.174	872.1
877.351	846.53
877.527	829.09
877.704	889.54
877.88	869.97
878.057	861.25
878.233	913.76
878.409	828.9
878.586	872.49
878.762	858.15
878.938	881.4
879.115	789.37
879.291	850.21
879.467	808.17
879.644	804.49
879.82	876.95
879.996	823.09
880.172	776.39
880.349	848.27
880.525	858.74
880.701	762.25
880.877	775.23
881.053	843.82
881.229	828.9
881.405	880.44
881.581	788.21
881.757	830.64
881.933	825.8
882.109	867.84
882.285	822.31
882.461	744.04
882.637	808.17
882.813	792.67
882.989	817.08
883.165	862.03
883.341	783.17
883.517	870.75
883.693	821.15
883.869	865.13
884.044	788.41
884.22	838.97
884.396	855.25
884.572	840.72
884.747	849.24
884.923	812.04
885.099	854.86
885.275	865.13
885.45	794.22
885.626	819.79
885.801	778.52
885.977	793.44
886.153	760.12
886.328	842.46
886.504	775.42
886.679	819.79
886.855	791.51
887.03	854.86
887.206	848.08
887.381	808.94
887.557	828.71
887.732	828.32
887.908	832.19
888.083	842.07
888.258	776.01
888.434	808.36
888.609	791.89
888.784	843.04
888.96	762.83
889.135	799.84
889.31	764.96
889.485	813.59
889.661	772.13
889.836	826.19
890.011	809.14
890.186	820.76
890.361	774.84
890.537	829.67
890.712	820.96
890.887	794.41
891.062	808.36
891.237	875.79
891.412	760.51
891.587	819.99
891.762	836.26
891.937	849.63
892.112	756.05
892.287	784.53
892.462	752.37
892.637	752.95
892.812	752.37
892.987	727.96
893.161	721.76
893.336	752.95
893.511	737.64
893.686	746.36
893.861	737.64
894.035	734.16
894.21	720.21
894.385	687.85
894.56	726.41
894.734	641.55
894.909	673.13
895.084	659.76
895.258	660.92
895.433	691.73
895.608	649.49
895.782	588.65
895.957	630.5
896.131	633.8
896.306	601.05
896.48	555.33
896.655	582.45
896.829	538.67
897.004	537.31
897.178	545.06
897.353	518.52
897.527	572.96
897.701	555.91
897.876	473.18
898.05	598.92
898.224	578.38
898.399	581.29
898.573	537.5
898.747	456.52
898.921	528.59
899.096	434.43
899.27	423.19
899.444	436.17
899.618	473.76
899.792	503.4
899.967	464.07
900.141	519.29
900.315	434.82
900.489	469.89
900.663	500.3
900.837	454.77
901.011	406.72
901.185	554.17
901.359	492.17
901.533	485.97
901.707	466.2
901.881	450.7
902.055	452.64
902.229	466.59
902.403	530.33
902.576	472.99
902.75	478.99
902.924	606.09
903.098	537.89
903.272	566.37
903.446	582.26
903.619	597.95
903.793	593.3
903.967	541.57
904.14	621.2
904.314	642.9
904.488	589.43
904.661	637.67
904.835	597.95
905.009	652.59
905.182	673.71
905.356	637.28
905.529	624.69
905.703	581.29
905.876	568.12
906.05	544.87
906.223	533.05
906.397	509.02
906.57	484.03
906.744	449.74
906.917	465.24
907.09	477.25
907.264	478.8
907.437	439.08
907.61	412.15
907.784	434.43
907.957	463.49
908.13	427.07
908.304	471.44
908.477	412.54
908.65	444.89
908.823	412.34
908.996	466.98
909.17	407.11
909.343	427.07
909.516	431.91
909.689	426.1
909.862	395.68
910.035	422.61
910.208	393.94
910.381	391.81
910.554	492.94
910.727	422.8
910.9	390.84
911.073	406.53
911.246	450.9
911.419	441.79
911.592	446.25
911.765	381.34
911.938	411.76
912.11	437.34
912.283	430.36
912.456	443.73
912.629	414.86
912.802	369.52
912.974	352.47
913.147	328.26
913.32	289.31
913.493	317.02
913.665	353.44
913.838	385.22
914.01	361.19
914.183	383.67
914.356	353.64
914.528	409.05
914.701	441.21
914.873	424.35
915.046	370.69
915.218	338.52
915.391	287.76
915.563	287.38
915.736	352.47
915.908	369.33
916.081	360.22
916.253	354.41
916.425	343.76
916.598	372.82
916.77	374.95
916.942	323.8
917.115	268.97
917.287	353.64
917.459	325.93
917.632	317.99
917.804	253.86
917.976	340.66
918.148	328.06
918.32	317.21
918.493	381.15
918.665	395.87
918.837	375.53
919.009	389.48
919.181	386.57
919.353	389.87
919.525	368.94
919.697	362.94
919.869	363.91
920.041	429.78
920.213	484.8
920.385	391.22
920.557	383.67
920.729	398.59
920.901	373.98
921.073	373.98
921.244	374.56
921.416	369.52
921.588	402.85
921.76	380.96
921.932	430.94
922.103	378.44
922.275	372.24
922.447	382.12
922.619	340.46
922.79	382.31
922.962	336.01
923.134	384.44
923.305	304.23
923.477	313.14
923.648	317.41
923.82	337.56
923.991	301.71
924.163	293.19
924.335	322.83
924.506	306.36
924.677	385.02
924.849	305.78
925.02	300.36
925.192	370.69
925.363	338.91
925.535	323.41
925.706	311.4
925.877	373.59
926.049	285.05
926.22	339.49
926.391	340.66
926.562	350.73
926.734	282.14
926.905	351.7
927.076	263.35
927.247	284.47
927.419	264.71
927.59	271.29
927.761	278.08
927.932	298.61
928.103	279.04
928.274	241.07
928.445	218.21
928.616	217.05
928.787	219.18
928.958	248.82
929.129	234.29
929.3	221.5
929.471	171.71
929.642	145.55
929.813	122.88
929.984	212.98
930.155	117.07
930.326	202.13
930.496	148.85
930.667	84.72
930.838	138.97
931.009	80.65
931.18	147.88
931.35	120.75
931.521	138.58
931.692	109.13
931.863	65.15
932.033	142.45
932.204	93.24
932.374	126.76
932.545	73.48
932.716	127.53
932.886	116.1
933.057	44.61
933.227	44.22
933.398	140.32
933.568	43.25
933.739	47.13
933.909	20.39
934.08	91.3
934.25	-26.49
934.421	37.83
934.591	53.52
934.761	29.89
934.932	-25.53
935.102	62.82
935.272	47.52
935.443	44.22
935.613	17.68
935.783	54.3
935.953	0.05
936.123	170.55
936.294	4.7
936.464	20.78
936.634	32.4
936.804	13.03
936.974	-15.84
937.144	32.4
937.314	37.83
937.484	16.9
937.655	12.25
937.825	65.53
937.995	-1.5
938.165	77.16
938.334	-4.41
938.504	44.8
938.674	15.35
938.844	41.12
939.014	85.1
939.184	70.57
939.354	122.3
939.524	114.55
939.694	36.09
939.863	73.48
940.033	143.03
940.203	131.99
940.373	95.18
940.542	117.27
940.712	64.18
940.882	96.53
941.051	123.66
941.221	103.32
941.391	125.21
941.56	57.2
941.73	57.59
941.899	175
942.069	47.52
942.238	87.04
942.408	67.28
942.577	105.64
942.747	70.96
942.916	25.82
943.086	34.73
943.255	108.93
943.425	72.9
943.594	43.06
943.763	2.18
943.933	23.88
944.102	18.65
944.271	68.83
944.441	58.17
944.61	16.9
944.779	60.69
944.948	137.61
945.117	22.91
945.287	60.3
945.456	-9.64
945.625	25.43
945.794	67.08
945.963	6.64
946.132	72.12
946.301	22.52
946.47	102.54
946.639	-24.36
946.808	36.09
946.977	88.78
947.146	119.2
947.315	44.42
947.484	53.72
947.653	47.52
947.822	45.39
947.991	36.86
948.16	109.9
948.329	88.59
948.498	47.32
948.666	61.27
948.835	68.05
949.004	7.8
949.173	16.32
949.341	68.83
949.51	72.32
949.679	104.67
949.847	89.37
950.016	137.61
950.185	130.83
950.353	42.29
950.522	45
950.69	126.95
950.859	42.09
951.028	105.25
951.196	68.05
951.365	27.17
951.533	51
951.701	76.19
951.87	66.7
952.038	12.64
952.207	87.62
952.375	118.43
952.543	32.6
952.712	55.07
952.88	48.49
953.048	132.57
953.217	62.63
953.385	74.06
953.553	84.13
953.721	21.17
953.89	63.79
954.058	-1.31
954.226	40.74
954.394	41.51
954.562	33.18
954.73	61.08
954.898	52.75
955.067	95.95
955.235	20.2
955.403	77.93
955.571	138.77
955.739	86.46
955.907	9.15
956.075	27.37
956.243	28.92
956.41	104.67
956.578	5.28
956.746	7.8
956.914	38.6
957.082	76.38
957.25	51.59
957.418	32.21
957.585	59.53
957.753	92.85
957.921	13.03
958.089	73.09
958.256	98.86
958.424	89.37
958.592	69.02
958.759	36.86
958.927	61.47
959.095	22.14
959.262	51.78
959.43	69.8
959.597	11.09
959.765	39.77
959.932	24.65
960.1	97.5
960.267	36.86
960.435	71.93
960.602	89.37
960.77	62.24
960.937	23.3
961.104	75.03
961.272	4.89
961.439	54.49
961.606	84.33
961.774	97.31
961.941	36.67
962.108	59.34
962.275	54.1
962.443	115.13
962.61	66.7
962.777	122.88
962.944	90.14
963.111	66.12
963.278	81.23
963.446	62.82
963.613	44.03
963.78	76
963.947	100.22
964.114	92.66
964.281	146.52
964.448	92.08
964.615	38.22
964.782	86.85
964.949	103.9
965.116	99.05
965.282	117.07
965.449	64.18
965.616	38.8
965.783	90.92
965.95	80.84
966.117	30.85
966.283	52.75
966.45	53.72
966.617	101.38
966.784	117.65
966.95	124.24
967.117	121.92
967.284	44.61
967.45	63.79
967.617	103.32
967.784	71.93
967.95	126.76
968.117	79.87
968.283	155.63
968.45	215.5
968.616	92.47
968.783	148.46
968.949	99.63
969.116	150.98
969.282	59.14
969.449	87.43
969.615	73.28
969.781	72.32
969.948	47.52
970.114	44.61
970.28	152.33
970.447	77.35
970.613	114.36
970.779	77.16
970.945	99.44
971.112	102.73
971.278	90.33
971.444	80.45
971.61	125.79
971.776	82
971.942	127.15
972.108	96.92
972.275	80.45
972.441	119.98
972.607	156.6
972.773	65.53
972.939	98.28
973.105	82.78
973.271	29.69
973.437	46.94
973.602	50.42
973.768	95.37
973.934	85.1
974.1	89.56
974.266	4.7
974.432	88.4
974.598	23.69
974.763	98.86
974.929	56.24
975.095	146.52
975.261	38.22
975.426	38.6
975.592	68.05
975.758	140.52
975.923	24.46
976.089	61.47
976.255	118.23
976.42	76.97
976.586	90.72
976.751	87.04
976.917	171.13
977.082	105.25
977.248	28.92
977.413	6.44
977.579	53.72
977.744	91.5
977.91	42.29
978.075	54.1
978.24	110.1
978.406	77.16
978.571	52.36
978.736	45.77
978.902	69.22
979.067	35.12
979.232	19.23
979.397	82.58
979.563	119.98
979.728	29.5
979.893	67.67
980.058	59.53
980.223	109.9
980.388	86.27
980.554	79.87
980.719	56.04
980.884	47.71
981.049	108.55
981.214	60.11
981.379	76.97
981.544	41.32
981.709	52.75
981.874	77.55
982.039	57.79
982.204	100.99
982.368	79.87
982.533	56.04
982.698	115.33
982.863	97.89
983.028	46.35
983.193	84.91
983.357	82.78
983.522	73.87
983.687	68.25
983.852	52.94
984.016	66.7
984.181	88.2
984.346	91.11
984.51	90.92
984.675	72.51
984.839	90.53
985.004	92.47
985.168	90.14
985.333	81.42
985.498	61.85
985.662	114.55
985.827	99.44
985.991	57.79
986.155	102.15
986.32	125.98
986.484	125.4
986.649	101.96
986.813	27.75
986.977	52.36
987.142	74.45
987.306	22.14
987.47	58.17
987.634	39.38
987.799	90.92
987.963	82.78
988.127	95.95
988.291	152.53
988.455	71.15
988.62	29.5
988.784	91.3
988.948	89.75
989.112	49.65
989.276	57.4
989.44	65.34
989.604	42.87
989.768	52.75
989.932	139.35
990.096	42.09
990.26	15.74
990.424	2.18
990.588	54.49
990.752	134.12
990.915	116.1
991.079	47.32
991.243	32.02
991.407	83.55
991.571	40.93
991.734	107
991.898	63.21
992.062	163.57
992.226	53.33
992.389	40.74
992.553	12.45
992.717	39.57
992.88	51
993.044	69.02
993.207	45.97
993.371	96.92
993.535	69.02
993.698	73.67
993.862	98.67
994.025	119.01
994.189	63.6
994.352	55.65
994.515	72.9
994.679	81.23
994.842	48.29
995.006	88.4
995.169	28.92
995.332	48.68
995.496	96.73
995.659	6.05
995.822	44.42
995.985	48.1
996.149	108.55
996.312	47.9
996.475	114.94
996.638	52.36
996.801	112.62
996.964	100.99
997.128	43.45
997.291	75.03
997.454	35.89
997.617	10.9
997.78	85.68
997.943	46.55
998.106	96.92
998.269	41.7
998.432	47.32
998.595	59.72
998.758	18.65
998.92	40.74
999.083	35.12
999.246	43.45
999.409	11.67
999.572	5.28
999.735	23.1
999.897	72.9
1000.06	24.27
1000.223	33.37
1000.386	88.78
1000.548	79.1
1000.711	47.32
1000.874	41.51
1001.036	-3.05
1001.199	89.95
1001.361	17.68
1001.524	59.92
1001.687	81.03
1001.849	23.49
1002.012	73.28
1002.174	77.93
1002.337	54.88
1002.499	65.15
1002.661	105.25
1002.824	-11.58
1002.986	2.37
1003.149	40.74
1003.311	14.58
1003.473	129.86
1003.636	21.75
1003.798	85.49
1003.96	59.34
1004.123	50.23
1004.285	33.76
1004.447	24.07
1004.609	34.15
1004.771	89.17
1004.933	22.72
1005.096	6.44
1005.258	6.25
1005.42	53.52
1005.582	77.74
1005.744	41.12
1005.906	-11.58
1006.068	44.22
1006.23	28.92
1006.392	-2.86
1006.554	-8.86
1006.716	53.33
1006.878	59.53
1007.04	6.25
1007.202	28.34
1007.363	39.57
1007.525	35.31
1007.687	77.35
1007.849	80.45
1008.011	-8.48
1008.172	-4.41
1008.334	27.95
1008.496	37.05
1008.658	-23.01
1008.819	10.9
1008.981	-11.38
1009.143	9.74
1009.304	19.81
1009.466	68.25
1009.627	94.02
1009.789	138.97
1009.95	50.23
1010.112	9.35
1010.273	60.5
1010.435	39.19
1010.596	29.89
1010.758	-2.86
1010.919	20.39
1011.081	-5.76
1011.242	26.98
1011.403	38.6
1011.565	19.04
1011.726	48.1
1011.887	18.45
1012.049	22.72
1012.21	53.52
1012.371	85.68
1012.532	-12.35
1012.693	5.28
1012.855	27.17
1013.016	31.24
1013.177	57.59
1013.338	7.99
1013.499	102.54
1013.66	51
1013.821	58.37
1013.982	41.7
1014.143	47.32
1014.304	2.95
1014.465	36.28
1014.626	69.8
1014.787	27.56
1014.948	112.42
1015.109	-50.33
1015.27	65.73
1015.431	28.34
1015.592	-4.41
1015.752	64.76
1015.913	57.98
1016.074	33.18
1016.235	15.74
1016.395	55.07
1016.556	18.84
1016.717	47.71
1016.877	47.52
1017.038	-3.05
1017.199	27.17
1017.359	27.95
1017.52	50.42
1017.681	35.89
1017.841	8.57
1018.002	9.74
1018.162	19.04
1018.323	50.23
1018.483	13.03
1018.644	19.04
1018.804	3.34
1018.964	-15.45
1019.125	-2.47
1019.285	26.2
1019.446	-4.41
1019.606	0.05
1019.766	-16.42
1019.926	37.83
1020.087	32.6
1020.247	-14.48
1020.407	43.25
1020.567	55.27
1020.728	9.35
1020.888	-25.72
1021.048	2.37
1021.208	-12.16
1021.368	-3.44
1021.528	65.53
1021.688	71.54
1021.848	35.89
1022.008	27.75
1022.168	17.1
1022.328	26.01
1022.488	48.29
1022.648	13.42
1022.808	15.55
1022.968	12.64
1023.128	-1.31
1023.288	-12.35
1023.448	18.26
1023.608	27.95
1023.767	48.49
1023.927	-4.6
1024.087	-12.93
1024.247	-5.57
1024.406	7.8
1024.566	-7.51
1024.726	-5.96
1024.885	33.57
1025.045	44.22
1025.205	22.52
1025.364	19.23
1025.524	43.25
1025.683	-14.1
1025.843	28.92
1026.003	18.26
1026.162	65.34
1026.321	84.91
1026.481	22.91
1026.64	8.57
1026.8	20.97
1026.959	10.32
1027.119	20.39
1027.278	35.31
1027.437	-5.38
1027.597	15.74
1027.756	5.28
1027.915	42.29
1028.074	15.55
1028.234	3.54
1028.393	13.03
1028.552	-5.57
1028.711	-81.52
1028.87	36.86
1029.03	-14.1
1029.189	24.27
1029.348	-22.04
1029.507	1.79
1029.666	8.96
1029.825	-24.17
1029.984	3.15
1030.143	21.55
1030.302	-13.51
1030.461	-40.44
1030.62	28.14
1030.779	57.01
1030.938	-0.53
1031.097	-9.64
1031.255	57.59
1031.414	67.47
1031.573	88.2
1031.732	-22.62
1031.891	-8.28
1032.049	44.42
1032.208	13.03
1032.367	-7.12
1032.525	1.99
1032.684	24.07
1032.843	15.16
1033.001	-24.75
1033.16	156.79
1033.319	42.87
1033.477	17.29
1033.636	-13.71
1033.794	-31.14
1033.953	56.82
1034.111	42.67
1034.27	21.75
1034.428	13.61
1034.587	-26.11
1034.745	28.53
1034.903	-4.02
1035.062	26.98
1035.22	-17.39
1035.378	43.25
1035.537	-8.86
1035.695	37.64
1035.853	10.9
1036.011	54.88
1036.17	9.93
1036.328	-51.68
1036.486	27.56
1036.644	36.28
1036.802	-72.22
1036.96	-22.62
1037.119	-6.93
1037.277	-8.86
1037.435	-11.58
1037.593	-27.66
1037.751	15.74
1037.909	17.29
1038.067	17.29
