Data from pine_FLMT105791__16__17-19-50-080.txt Node

Date: Mon Mar 20 17:19:50 GMT 2023
User: antho
Spectrometer: FLMT10579
Trigger mode: 0
Integration Time (sec): 1.000000E-1
Scans to average: 10
Electric dark correction enabled: true
Nonlinearity correction enabled: false
Boxcar width: 0
XAxis mode: Wavelengths
Number of Pixels in Spectrum: 3648
>>>>>Begin Spectral Data<<<<<
345.248	-166.24
345.464	-166.24
345.681	-166.24
345.898	-149.19
346.114	-134.07
346.331	-29.26
346.548	12.4
346.764	20.34
346.981	11.24
347.197	-11.82
347.414	23.83
347.631	-30.81
347.847	51.54
348.064	-6.39
348.28	2.91
348.497	-39.52
348.713	-4.46
348.93	27.32
349.146	26.16
349.363	-13.37
349.579	25.96
349.796	11.04
350.012	-24.8
350.229	34.1
350.445	-7.36
350.661	-15.89
350.878	-0
351.094	-9.49
351.311	20.54
351.527	17.24
351.743	-2.91
351.96	30.03
352.176	41.46
352.392	13.37
352.609	33.91
352.825	-20.54
353.041	23.64
353.257	0.77
353.474	7.36
353.69	26.35
353.906	19.57
354.122	-28.67
354.339	54.83
354.555	6.97
354.771	-7.56
354.987	43.01
355.203	55.99
355.42	9.3
355.636	-5.42
355.852	8.33
356.068	8.91
356.284	-21.89
356.5	68.2
356.716	13.76
356.932	-5.23
357.148	36.04
357.364	3.49
357.58	55.41
357.796	53.67
358.012	29.26
358.228	46.89
358.444	-35.26
358.66	61.81
358.876	23.25
359.092	11.43
359.308	33.52
359.524	22.28
359.74	-4.07
359.956	6.78
360.172	8.33
360.388	43.01
360.604	-3.49
360.819	84.09
361.035	11.04
361.251	47.08
361.467	9.88
361.683	23.25
361.898	32.94
362.114	31.58
362.33	1.74
362.546	58.32
362.762	-8.33
362.977	28.67
363.193	-9.11
363.409	33.32
363.624	-19.37
363.84	-36.23
364.056	-6.2
364.271	30.81
364.487	22.86
364.703	8.52
364.918	-26.74
365.134	-2.13
365.35	0.58
365.565	120.7
365.781	31.19
365.996	36.23
366.212	97.84
366.427	28.09
366.643	-11.82
366.858	-10.46
367.074	-18.41
367.289	45.53
367.505	120.12
367.72	-6.39
367.936	8.52
368.151	13.76
368.367	40.3
368.582	8.14
368.798	29.06
369.013	47.86
369.228	26.54
369.444	22.09
369.659	57.93
369.874	30.03
370.09	33.52
370.305	-28.48
370.52	13.95
370.736	72.46
370.951	6.59
371.166	47.27
371.381	92.22
371.597	38.94
371.812	0.77
372.027	-26.74
372.242	31.77
372.458	84.47
372.673	11.43
372.888	12.21
373.103	14.14
373.318	103.85
373.533	43.98
373.749	35.46
373.964	6.39
374.179	63.94
374.394	-2.71
374.609	95.71
374.824	-21.89
375.039	72.85
375.254	-9.11
375.469	74.59
375.684	19.57
375.899	39.52
376.114	20.92
376.329	26.93
376.544	52.31
376.759	61.61
376.974	-12.98
377.189	6.59
377.404	11.04
377.619	66.84
377.834	-33.52
378.049	-21.51
378.264	-44.56
378.478	42.62
378.693	-13.76
378.908	47.86
379.123	7.94
379.338	50.96
379.553	47.08
379.767	21.7
379.982	54.44
380.197	63.55
380.412	9.88
380.626	52.12
380.841	82.34
381.056	42.24
381.271	86.02
381.485	-10.85
381.7	25.19
381.915	39.14
382.129	2.13
382.344	33.32
382.559	9.49
382.773	70.52
382.988	-36.62
383.202	37.78
383.417	-4.26
383.632	113.73
383.846	17.63
384.061	33.71
384.275	15.89
384.49	43.98
384.704	56.96
384.919	51.34
385.133	24.22
385.348	43.79
385.562	-2.52
385.777	73.82
385.991	25.77
386.206	27.71
386.42	23.25
386.634	94.55
386.849	11.04
387.063	47.66
387.277	13.76
387.492	6.39
387.706	10.27
387.92	-9.69
388.135	48.82
388.349	68.97
388.563	58.12
388.778	20.15
388.992	77.69
389.206	56.57
389.42	100.36
389.635	23.06
389.849	62.39
390.063	77.11
390.277	16.27
390.491	80.99
390.706	38.94
390.92	79.44
391.134	47.86
391.348	61.42
391.562	-10.85
391.776	35.26
391.99	-6.01
392.205	73.24
392.419	-9.49
392.633	35.46
392.847	73.43
393.061	6.78
393.275	101.52
393.489	36.04
393.703	41.66
393.917	81.76
394.131	10.85
394.345	52.7
394.559	53.86
394.773	10.85
394.986	38.56
395.2	30.22
395.414	68.01
395.628	7.36
395.842	54.44
396.056	34.1
396.27	-16.66
396.484	64.91
396.697	43.79
396.911	86.8
397.125	63.74
397.339	98.81
397.553	67.23
397.766	94.16
397.98	61.42
398.194	82.34
398.408	36.42
398.621	53.09
398.835	74.01
399.049	35.46
399.262	124.39
399.476	68.59
399.69	75.76
399.903	125.16
400.117	15.69
400.331	61.81
400.544	35.84
400.758	177.28
400.971	72.85
401.185	64.32
401.398	34.1
401.612	82.54
401.826	81.76
402.039	82.15
402.253	34.29
402.466	85.44
402.68	52.12
402.893	37.2
403.106	78.66
403.32	35.07
403.533	59.09
403.747	76.53
403.96	79.05
404.174	84.86
404.387	24.8
404.6	65.49
404.814	119.15
405.027	72.07
405.24	76.14
405.454	60.45
405.667	117.6
405.88	-0.58
406.094	87.38
406.307	126.32
406.52	80.6
406.733	39.52
406.947	24.61
407.16	131.17
407.373	112.18
407.586	41.66
407.799	39.33
408.012	99.2
408.226	93.58
408.439	120.7
408.652	28.48
408.865	84.28
409.078	121.48
409.291	93.39
409.504	19.57
409.717	82.54
409.93	96.68
410.143	76.14
410.357	45.14
410.57	15.11
410.783	67.62
410.996	80.79
411.209	65.68
411.421	105.59
411.634	62.19
411.847	28.48
412.06	80.41
412.273	61.61
412.486	77.89
412.699	161.39
412.912	72.46
413.125	119.35
413.338	90.09
413.55	126.71
413.763	85.64
413.976	108.69
414.189	63.55
414.402	83.51
414.615	131.55
414.827	41.85
415.04	119.54
415.253	114.5
415.466	117.02
415.678	166.24
415.891	89.7
416.104	68.59
416.316	111.21
416.529	81.76
416.742	104.24
416.954	121.87
417.167	85.44
417.38	98.42
417.592	136.4
417.805	79.44
418.017	71.69
418.23	135.62
418.442	81.76
418.655	82.54
418.868	91.06
419.08	148.99
419.293	142.6
419.505	120.9
419.718	142.21
419.93	143.76
420.142	94.16
420.355	131.94
420.567	151.9
420.78	99.2
420.992	80.6
421.205	132.33
421.417	78.66
421.629	84.28
421.842	56.77
422.054	63.16
422.266	125.35
422.479	152.87
422.691	96.1
422.903	131.75
423.115	80.99
423.328	86.8
423.54	125.94
423.752	102.49
423.964	88.35
424.177	106.17
424.389	108.69
424.601	217
424.813	119.74
425.025	151.7
425.238	149.19
425.45	99.97
425.662	105.59
425.874	415.98
426.086	125.16
426.298	148.99
426.51	150.35
426.722	122.84
426.934	129.81
427.146	156.55
427.358	105.4
427.57	162.94
427.782	118.38
427.994	107.72
428.206	107.72
428.418	112.95
428.63	149.19
428.842	187.55
429.054	145.31
429.266	138.72
429.478	121.67
429.69	150.35
429.902	85.64
430.114	163.91
430.325	136.4
430.537	111.79
430.749	120.12
430.961	87.19
431.173	119.93
431.384	143.76
431.596	81.57
431.808	144.54
432.02	154.61
432.231	183.87
432.443	218.74
432.655	167.4
432.867	114.5
433.078	172.44
433.29	246.06
433.502	169.72
433.713	195.49
433.925	153.84
434.136	213.9
434.348	120.51
434.56	91.45
434.771	247.61
434.983	151.12
435.194	164.1
435.406	134.85
435.617	220.48
435.829	261.95
436.04	210.8
436.252	228.04
436.463	242.38
436.675	235.6
436.886	190.65
437.098	193.94
437.309	256.52
437.521	186
437.732	243.54
437.943	223.97
438.155	233.08
438.366	150.93
438.578	255.75
438.789	207.31
439	230.37
439.211	198.4
439.423	240.25
439.634	220.1
439.845	234.63
440.057	214.28
440.268	243.73
440.479	197.04
440.69	225.52
440.902	209.05
441.113	216.03
441.324	211.18
441.535	233.08
441.746	294.11
441.957	224.75
442.168	196.85
442.38	217.38
442.591	255.36
442.802	209.05
443.013	225.13
443.224	237.53
443.435	235.79
443.646	232.11
443.857	232.88
444.068	228.23
444.279	221.84
444.49	299.73
444.701	263.11
444.912	341.77
445.123	292.95
445.334	270.47
445.545	260.2
445.756	257.68
445.967	233.27
446.178	261.56
446.388	304.76
446.599	275.12
446.81	260.2
447.021	256.13
447.232	288.68
447.443	330.73
447.653	240.25
447.864	339.83
448.075	294.88
448.286	305.35
448.496	303.02
448.707	312.13
448.918	271.05
449.129	369.48
449.339	252.26
449.55	314.84
449.761	296.63
449.971	356.88
450.182	289.65
450.393	323.56
450.603	293.33
450.814	334.21
451.024	314.06
451.235	340.61
451.446	361.34
451.656	378.39
451.867	332.86
452.077	307.67
452.288	344.87
452.498	346.03
452.709	303.99
452.919	344.1
453.13	298.37
453.34	345.06
453.55	266.01
453.761	359.01
453.971	331.5
454.182	350.68
454.392	329.76
454.602	386.33
454.813	377.42
455.023	347
455.233	301.08
455.444	328.21
455.654	283.06
455.864	340.22
456.075	329.76
456.285	310.38
456.495	318.91
456.705	319.49
456.916	385.36
457.126	388.27
457.336	373.74
457.546	280.55
457.756	339.83
457.967	384.39
458.177	328.01
458.387	368.7
458.597	299.53
458.807	337.31
459.017	330.73
459.227	352.04
459.437	344.48
459.647	402.41
459.857	361.53
460.068	318.13
460.278	395.24
460.488	378.58
460.698	430.12
460.908	377.61
461.117	322.01
461.327	344.68
461.537	381.88
461.747	373.16
461.957	347.97
462.167	480.69
462.377	397.57
462.587	369.09
462.797	391.56
463.007	381.1
463.216	411.52
463.426	439.03
463.636	442.13
463.846	365.21
464.056	363.28
464.265	418.88
464.475	364.83
464.685	383.23
464.895	404.74
465.104	387.88
465.314	422.37
465.524	372.96
465.733	391.37
465.943	429.93
466.153	432.44
466.362	414.62
466.572	427.21
466.782	402.22
466.991	395.63
467.201	443.1
467.41	359.59
467.62	424.11
467.829	410.16
468.039	421.79
468.249	417.14
468.458	407.06
468.668	440.77
468.877	469.64
469.086	482.43
469.296	480.3
469.505	446.97
469.715	519.44
469.924	453.37
470.134	478.17
470.343	491.73
470.552	423.73
470.762	451.62
470.971	402.61
471.18	483.98
471.39	454.14
471.599	417.72
471.808	473.52
472.018	427.79
472.227	517.11
472.436	508.78
472.645	493.86
472.855	483.21
473.064	540.94
473.273	501.42
473.482	519.82
473.691	552.76
473.901	515.76
474.11	486.11
474.319	565.16
474.528	506.65
474.737	541.14
474.946	508.97
475.155	529.51
475.364	575.62
475.573	546.37
475.783	530.29
475.992	548.5
476.201	575.43
476.41	491.34
476.619	510.72
476.828	541.52
477.037	502.58
477.245	505.49
477.454	556.64
477.663	532.42
477.872	565.94
478.081	598.87
478.29	531.84
478.499	661.07
478.708	575.43
478.917	644.02
479.125	557.02
479.334	609.53
479.543	582.4
479.752	645.18
479.961	599.84
480.169	634.52
480.378	593.25
480.587	743.6
480.796	652.54
481.004	624.83
481.213	651.18
481.422	614.76
481.63	670.75
481.839	625.61
482.048	712.6
482.256	657.58
482.465	678.12
482.674	681.22
482.882	717.06
483.091	729.85
483.299	670.56
483.508	679.86
483.716	663.2
483.925	712.6
484.134	687.42
484.342	678.31
484.551	717.25
484.759	717.45
484.967	731.98
485.176	730.43
485.384	732.95
485.593	748.45
485.801	747.67
486.01	688
486.218	670.17
486.426	622.7
486.635	627.55
486.843	618.05
487.051	672.5
487.26	632.39
487.468	702.72
487.676	735.27
487.885	679.86
488.093	740.11
488.301	729.26
488.509	727.13
488.717	756.2
488.926	724.23
489.134	747.86
489.342	743.8
489.55	712.8
489.758	773.44
489.967	757.16
490.175	862.37
490.383	760.46
490.591	862.18
490.799	787.39
491.007	856.56
491.215	802.89
491.423	798.04
491.631	805.79
491.839	803.86
492.047	861.98
492.255	757.55
492.463	728.3
492.671	788.74
492.879	823.23
493.087	805.6
493.295	832.92
493.503	861.79
493.711	867.41
493.919	895.11
494.127	882.52
494.334	896.27
494.542	820.13
494.75	846.68
494.958	870.51
495.166	909.84
495.374	884.46
495.581	885.81
495.789	881.94
495.997	921.66
496.205	864.5
496.412	880.97
496.62	857.53
496.828	865.86
497.035	860.63
497.243	915.26
497.451	883.68
497.658	878.64
497.866	904.02
498.074	984.82
498.281	866.63
498.489	968.54
498.696	912.74
498.904	866.24
499.112	866.63
499.319	988.69
499.527	917.78
499.734	969.7
499.942	871.67
500.149	914.68
500.357	911
500.564	879.61
500.771	939.67
500.979	890.66
501.186	860.43
501.394	921.27
501.601	902.28
501.808	938.51
502.016	901.7
502.223	890.27
502.43	924.56
502.638	920.3
502.845	880.77
503.052	1041
503.26	923.01
503.467	1009.04
503.674	942
503.881	972.61
504.089	1050.88
504.296	960.6
504.503	911.77
504.71	942
504.917	932.51
505.125	978.23
505.332	951.11
505.539	972.42
505.746	1030.93
505.953	1051.47
506.16	1000.12
506.367	1081.3
506.574	1075.49
506.781	1068.32
506.988	994.7
507.195	1034.22
507.402	1023.95
507.609	1037.9
507.816	1015.62
508.023	997.8
508.23	1009.62
508.437	964.86
508.644	1039.65
508.851	1090.8
509.058	1084.21
509.265	1040.81
509.472	1055.34
509.679	1138.65
509.885	1050.3
510.092	1061.35
510.299	1067.93
510.506	1072.97
510.713	1074.72
510.92	1089.25
511.126	1098.16
511.333	1147.37
511.54	1102.62
511.746	1145.63
511.953	1137.88
512.16	1152.21
512.367	1079.95
512.573	1090.99
512.78	1107.46
512.987	1066
513.193	1115.98
513.4	1048.37
513.606	1091.18
513.813	1126.06
514.02	1117.73
514.226	1182.44
514.433	1170.04
514.639	1111.14
514.846	1112.69
515.052	1103
515.259	1140.2
515.465	1142.72
515.672	1124.9
515.878	1208.4
516.085	1148.34
516.291	1176.63
516.497	1151.44
516.704	1112.11
516.91	1061.93
517.117	1065.22
517.323	1003.03
517.529	1044.69
517.736	1053.79
517.942	1037.52
518.148	1075.3
518.354	1092.73
518.561	1112.88
518.767	1096.8
518.973	1165.78
519.179	1171.01
519.386	1115.6
519.592	1113.27
519.798	1164.81
520.004	1253.35
520.21	1209.95
520.417	1240.37
520.623	1240.56
520.829	1245.6
521.035	1271.37
521.241	1276.99
521.447	1266.72
521.653	1357.2
521.859	1242.5
522.065	1290.94
522.271	1381.61
522.477	1325.62
522.683	1357.01
522.889	1295.2
523.095	1299.08
523.301	1332.4
523.507	1241.73
523.713	1350.42
523.919	1287.45
524.125	1373.47
524.331	1323.29
524.537	1424.62
524.742	1377.35
524.948	1390.72
525.154	1401.57
525.36	1512
525.566	1426.75
525.772	1430.24
525.977	1359.91
526.183	1411.45
526.389	1434.5
526.595	1347.9
526.8	1357.78
527.006	1282.03
527.212	1271.56
527.417	1225.64
527.623	1278.93
527.829	1365.72
528.034	1348.09
528.24	1351.39
528.446	1374.06
528.651	1459.3
528.857	1409.7
529.062	1496.12
529.268	1446.52
529.473	1485.27
529.679	1446.71
529.884	1518.78
530.09	1506.19
530.295	1541.07
530.501	1537
530.706	1515.3
530.912	1480.62
531.117	1487.98
531.323	1476.55
531.528	1536.61
531.733	1533.32
531.939	1497.67
532.144	1550.37
532.35	1523.24
532.555	1514.72
532.76	1530.22
532.966	1507.55
533.171	1524.79
533.376	1451.36
533.581	1471.32
533.787	1470.54
533.992	1528.67
534.197	1531.57
534.402	1554.05
534.607	1502.32
534.813	1607.52
535.018	1516.65
535.223	1553.66
535.428	1551.53
535.633	1588.15
535.838	1591.05
536.043	1616.82
536.249	1650.73
536.454	1605.58
536.659	1608.68
536.864	1543.78
537.069	1553.08
537.274	1598.8
537.479	1609.07
537.684	1587.56
537.889	1512.97
538.094	1657.12
538.299	1602.29
538.504	1643.17
538.708	1626.51
538.913	1609.85
539.118	1612.75
539.323	1617.79
539.528	1552.5
539.733	1534.28
539.938	1614.11
540.142	1635.42
540.347	1572.26
540.552	1560.25
540.757	1529.63
540.962	1548.23
541.166	1514.33
541.371	1530.22
541.576	1557.92
541.781	1478.1
541.985	1614.5
542.19	1580.59
542.395	1622.63
542.599	1679.01
542.804	1632.13
543.008	1691.8
543.213	1610.04
543.418	1562.18
543.622	1654.8
543.827	1565.28
544.031	1637.94
544.236	1705.17
544.44	1683.47
544.645	1745.66
544.849	1616.24
545.054	1684.83
545.258	1746.05
545.463	1700.71
545.667	1590.86
545.872	1671.07
546.076	1687.54
546.281	1674.56
546.485	1618.76
546.689	1667.97
546.894	1660.8
547.098	1666.81
547.302	1652.66
547.507	1662.54
547.711	1691.8
547.915	1729.19
548.119	1635.03
548.324	1664.87
548.528	1703.23
548.732	1691.03
548.936	1710.4
549.141	1745.28
549.345	1680.37
549.549	1736.94
549.753	1755.74
549.957	1789.06
550.161	1792.74
550.366	1733.07
550.57	1687.15
550.774	1698.39
550.978	1673.59
551.182	1750.89
551.386	1667.97
551.59	1703.81
551.794	1699.36
551.998	1714.47
552.202	1712.53
552.406	1690.06
552.61	1715.44
552.814	1722.61
553.018	1742.95
553.222	1722.61
553.426	1707.88
553.63	1817.54
553.833	1695.87
554.037	1650.15
554.241	1719.31
554.445	1716.41
554.649	1740.24
554.853	1706.72
555.056	1740.63
555.26	1788.09
555.464	1694.32
555.668	1731.52
555.871	1741.98
556.075	1764.26
556.279	1698
556.483	1636
556.686	1694.32
556.89	1716.99
557.094	1723.38
557.297	1634.06
557.501	1715.63
557.704	1608.3
557.908	1712.73
558.112	1600.93
558.315	1730.94
558.519	1654.6
558.722	1660.99
558.926	1629.03
559.129	1566.45
559.333	1581.56
559.536	1568.38
559.74	1555.98
559.943	1536.42
560.147	1547.46
560.35	1607.33
560.553	1569.55
560.757	1542.03
560.96	1665.26
561.164	1578.85
561.367	1660.41
561.57	1654.41
561.774	1655.96
561.977	1619.15
562.18	1578.26
562.384	1716.99
562.587	1594.54
562.79	1601.32
562.993	1627.86
563.197	1665.84
563.4	1667
563.603	1654.41
563.806	1710.79
564.009	1583.5
564.212	1610.81
564.416	1573.03
564.619	1643.75
564.822	1569.93
565.025	1631.93
565.228	1556.18
565.431	1605.97
565.634	1506.58
565.837	1545.91
566.04	1530.99
566.243	1549.59
566.446	1452.52
566.649	1588.15
566.852	1497.47
567.055	1518.4
567.258	1558.7
567.461	1601.51
567.664	1613.53
567.867	1490.11
568.07	1554.43
568.273	1552.3
568.475	1599
568.678	1514.52
568.881	1502.12
569.084	1507.93
569.287	1419.2
569.489	1490.69
569.692	1487.2
569.895	1529.44
570.098	1450.97
570.3	1429.27
570.503	1389.36
570.706	1404.28
570.909	1453.49
571.111	1361.46
571.314	1351.77
571.516	1413.19
571.719	1426.37
571.922	1428.89
572.124	1402.15
572.327	1443.8
572.529	1359.14
572.732	1356.62
572.935	1441.87
573.137	1469.38
573.34	1423.85
573.542	1444.19
573.745	1426.37
573.947	1436.64
574.15	1407.57
574.352	1385.1
574.554	1443.61
574.757	1330.85
574.959	1349.45
575.162	1322.71
575.364	1351.77
575.566	1448.45
575.769	1348.67
575.971	1388.78
576.173	1263.04
576.376	1354.29
576.578	1378.12
576.78	1428.3
576.982	1286.87
577.185	1361.85
577.387	1321.36
577.589	1301.79
577.791	1356.81
577.993	1363.59
578.196	1314.77
578.398	1341.89
578.6	1394.4
578.802	1263.43
579.004	1282.22
579.206	1336.08
579.408	1349.64
579.61	1305.47
579.812	1339.96
580.014	1280.09
580.216	1338.41
580.418	1339.76
580.62	1334.72
580.822	1284.74
581.024	1324.65
581.226	1376.57
581.428	1329.49
581.63	1397.31
581.832	1307.41
582.034	1350.61
582.236	1348.09
582.438	1366.69
582.64	1374.64
582.841	1415.71
583.043	1448.65
583.245	1328.52
583.447	1377.54
583.649	1356.42
583.85	1380.45
584.052	1418.23
584.254	1322.52
584.456	1404.47
584.657	1317.87
584.859	1357.2
585.061	1323.68
585.262	1319.61
585.464	1290.74
585.666	1386.84
585.867	1292.88
586.069	1394.79
586.27	1332.79
586.472	1312.25
586.674	1292.29
586.875	1290.74
587.077	1288.42
587.278	1328.52
587.48	1317.67
587.681	1428.69
587.883	1321.16
588.084	1240.37
588.285	1297.33
588.487	1274.08
588.688	1291.71
588.89	1207.43
589.091	1198.52
589.292	1232.81
589.494	1154.93
589.695	1147.56
589.896	1066.97
590.098	1097.77
590.299	1143.5
590.5	1095.64
590.702	1141.75
590.903	1174.5
591.104	1255.29
591.305	1239.79
591.507	1258.78
591.708	1218.48
591.909	1204.91
592.11	1290.74
592.311	1270.59
592.512	1192.9
592.714	1132.65
592.915	1194.84
593.116	1171.2
593.317	1243.47
593.518	1182.63
593.719	1188.83
593.92	1218.48
594.121	1292.88
594.322	1228.36
594.523	1189.03
594.724	1149.89
594.925	1183.8
595.126	1180.5
595.327	1203.56
595.528	1223.71
595.729	1202.78
595.929	1226.23
596.13	1188.06
596.331	1184.57
596.532	1194.45
596.733	1270.4
596.934	1241.92
597.135	1231.84
597.335	1217.7
597.536	1203.56
597.737	1192.71
597.938	1121.99
598.138	1240.56
598.339	1180.5
598.54	1208.01
598.74	1190.38
598.941	1196.58
599.142	1259.74
599.342	1235.72
599.543	1188.83
599.744	1168.49
599.944	1212.86
600.145	1201.81
600.345	1182.83
600.546	1285.32
600.746	1260.13
600.947	1304.31
601.147	1223.9
601.348	1291.91
601.548	1211.89
601.749	1214.41
601.949	1176.43
602.15	1172.56
602.35	1198.91
602.551	1237.08
602.751	1146.79
602.951	1169.46
603.152	1154.93
603.352	1224.29
603.552	1199.88
603.753	1241.53
603.953	1243.86
604.153	1229.71
604.354	1220.61
604.554	1210.34
604.754	1180.31
604.954	1191.93
605.155	1242.89
605.355	1194.84
605.555	1229.71
605.755	1241.92
605.955	1187.48
606.155	1253.74
606.356	1226.81
606.556	1217.31
606.756	1253.54
606.956	1166.55
607.156	1226.61
607.356	1203.95
607.556	1208.98
607.756	1197.75
607.956	1257.61
608.156	1180.5
608.356	1171.2
608.556	1212.47
608.756	1196.97
608.956	1128.19
609.156	1183.21
609.356	1139.23
609.556	1146.21
609.755	1187.86
609.955	1134.78
610.155	1161.51
610.355	1162.1
610.555	1145.43
610.755	1153.18
610.954	1084.6
611.154	1164.61
611.354	1186.7
611.554	1168.68
611.753	1127.61
611.953	1127.8
612.153	1176.24
612.352	1137.49
612.552	1082.47
612.752	1050.3
612.951	1119.67
613.151	1147.95
613.351	1110.17
613.55	1116.18
613.75	1143.88
613.949	1105.33
614.149	1131.87
614.348	1076.65
614.548	1092.15
614.747	1063.87
614.947	1069.68
615.146	1067.35
615.346	1128.38
615.545	1097.97
615.745	1092.93
615.944	1132.65
616.144	1096.42
616.343	1126.45
616.542	1070.07
616.742	1080.92
616.941	1065.22
617.14	996.25
617.34	1058.25
617.539	1036.55
617.738	1039.84
617.938	1111.33
618.137	1080.14
618.336	1028.22
618.535	1107.65
618.734	1063.87
618.934	1076.46
619.133	1052.63
619.332	1069.48
619.531	1021.05
619.73	1072.39
619.929	1093.12
620.128	1076.07
620.328	1155.12
620.527	1057.47
620.726	1095.25
620.925	1083.63
621.124	1041.97
621.323	1089.25
621.522	1045.27
621.721	1022.79
621.92	1043.52
622.119	1076.27
622.318	1037.71
622.517	1070.45
622.715	1043.52
622.914	1027.05
623.113	1039.65
623.312	1001.87
623.511	1061.73
623.71	1014.65
623.909	1031.12
624.107	1103.97
624.306	986.95
624.505	1004.77
624.704	1010.78
624.902	978.42
625.101	1055.34
625.3	1018.92
625.499	975.32
625.697	1007.68
625.896	971.84
626.095	1038.29
626.293	977.26
626.492	993.15
626.69	988.3
626.889	992.95
627.088	1022.79
627.286	965.83
627.485	970.09
627.683	960.79
627.882	992.18
628.08	932.12
628.279	951.49
628.477	983.07
628.676	930.96
628.874	974.55
629.073	934.44
629.271	929.99
629.469	987.92
629.668	957.11
629.866	942
630.065	961.37
630.263	971.25
630.461	927.47
630.66	964.28
630.858	991.6
631.056	994.7
631.254	1007.68
631.453	923.59
631.651	969.9
631.849	918.36
632.047	943.16
632.245	980.36
632.444	969.9
632.642	984.62
632.84	1006.9
633.038	969.51
633.236	903.06
633.434	943.36
633.632	937.93
633.83	921.66
634.028	976.68
634.227	934.64
634.425	1061.93
634.623	986.37
634.821	949.56
635.019	973.58
635.216	954.21
635.414	986.75
635.612	976.49
635.81	958.08
636.008	1022.6
636.206	962.73
636.404	975.13
636.602	935.02
636.8	974.55
636.997	998.19
637.195	985.59
637.393	967.96
637.591	1013.49
637.789	994.31
637.986	974.35
638.184	976.49
638.382	1015.62
638.58	990.24
638.777	1040.81
638.975	957.5
639.173	980.17
639.37	992.76
639.568	986.95
639.765	1012.14
639.963	965.83
640.161	984.62
640.358	992.57
640.556	961.18
640.753	934.25
640.951	908.67
641.148	966.99
641.346	931.73
641.543	899.96
641.741	960.6
641.938	923.98
642.136	945.29
642.333	913.13
642.531	992.95
642.728	1007.49
642.925	939.67
643.123	915.26
643.32	959.44
643.517	924.56
643.715	959.82
643.912	895.11
644.109	948.01
644.306	920.88
644.504	891.62
644.701	931.34
644.898	925.72
645.095	905.96
645.293	906.54
645.49	940.06
645.687	946.84
645.884	953.82
646.081	840.28
646.278	905.19
646.475	885.04
646.672	868.96
646.87	938.12
647.067	881.74
647.264	884.84
647.461	866.63
647.658	826.14
647.855	908.29
648.052	838.54
648.249	768.4
648.446	840.67
648.642	857.33
648.839	858.69
649.036	811.8
649.233	770.15
649.43	766.85
649.627	760.65
649.824	806.38
650.021	794.17
650.217	827.3
650.414	817.42
650.611	836.02
650.808	832.92
651.004	854.43
651.201	844.74
651.398	916.62
651.595	840.09
651.791	815.87
651.988	874.38
652.185	807.34
652.381	858.88
652.578	771.11
652.775	839.89
652.971	818.97
653.168	823.04
653.364	872.06
653.561	780.03
653.757	837.76
653.954	840.09
654.15	813.54
654.347	872.83
654.543	802.89
654.74	775.96
654.936	760.26
655.133	787.19
655.329	777.51
655.525	770.53
655.722	812.19
655.918	754.45
656.115	790.68
656.311	689.74
656.507	686.83
656.704	643.63
656.9	697.3
657.096	682.77
657.292	673.85
657.489	774.21
657.685	765.3
657.881	726.36
658.077	756.78
658.273	765.88
658.47	818.58
658.666	809.67
658.862	785.06
659.058	766.08
659.254	823.23
659.45	762.4
659.646	768.01
659.842	781
660.038	832.14
660.234	768.98
660.43	793.98
660.626	871.09
660.822	834.86
661.018	835.24
661.214	806.96
661.41	769.37
661.606	800.18
661.802	834.47
661.998	818
662.194	744.57
662.39	821.49
662.586	816.26
662.781	794.36
662.977	823.23
663.173	813.16
663.369	820.13
663.564	815.68
663.76	810.83
663.956	771.11
664.152	835.83
664.347	695.94
664.543	779.83
664.739	775.57
664.934	731.01
665.13	712.6
665.326	777.9
665.521	772.47
665.717	713.38
665.912	743.02
666.108	717.25
666.304	737.21
666.499	774.02
666.695	664.36
666.89	735.66
667.086	756.2
667.281	784.48
667.477	809.48
667.672	762.4
667.867	738.37
668.063	752.13
668.258	707.76
668.454	751.35
668.649	803.47
668.844	767.82
669.04	741.08
669.235	757.36
669.43	721.32
669.626	687.42
669.821	715.31
670.016	721.51
670.211	707.56
670.407	691.48
670.602	738.37
670.797	740.89
670.992	761.23
671.187	707.95
671.382	737.79
671.578	695.55
671.773	747.67
671.968	691.29
672.163	719.58
672.358	726.55
672.553	695.17
672.748	680.63
672.943	754.26
673.138	692.84
673.333	779.83
673.528	665.72
673.723	741.28
673.918	710.47
674.113	651.57
674.308	793.01
674.503	731.59
674.698	744.96
674.892	731.01
675.087	757.94
675.282	738.56
675.477	691.1
675.672	736.63
675.867	713.18
676.061	706.6
676.256	691.68
676.451	702.91
676.646	717.45
676.84	692.45
677.035	658.93
677.23	691.87
677.424	714.54
677.619	749.8
677.814	740.31
678.008	741.28
678.203	677.34
678.397	701.56
678.592	713.18
678.787	741.47
678.981	716.09
679.176	724.61
679.37	713.76
679.565	677.53
679.759	700.98
679.954	711.05
680.148	789.52
680.342	761.43
680.537	740.89
680.731	717.83
680.926	764.14
681.12	758.71
681.314	670.17
681.509	694
681.703	722.29
681.897	748.06
682.092	713.76
682.286	702.53
682.48	787
682.674	733.53
682.869	703.11
683.063	703.88
683.257	784.1
683.451	723.26
683.645	738.76
683.839	735.66
684.034	721.13
684.228	777.7
684.422	682.77
684.616	685.09
684.81	755.61
685.004	706.4
685.198	745.93
685.392	728.1
685.586	732.36
685.78	721.13
685.974	734.69
686.168	721.9
686.362	811.41
686.556	683.54
686.75	643.43
686.944	642.08
687.138	638.01
687.331	533.39
687.525	551.21
687.719	502.58
687.913	557.22
688.107	594.42
688.301	566.71
688.494	635.3
688.688	538.42
688.882	539.78
689.076	556.44
689.269	546.37
689.463	642.47
689.657	608.37
689.85	572.72
690.044	611.08
690.238	620.77
690.431	601
690.625	588.6
690.818	651.38
691.012	650.8
691.205	683.15
691.399	624.83
691.593	693.23
691.786	754.65
691.98	741.08
692.173	786.81
692.366	726.36
692.56	772.08
692.753	802.31
692.947	667.46
693.14	791.84
693.333	769.37
693.527	714.73
693.72	756.39
693.914	743.21
694.107	751.35
694.3	761.04
694.493	768.01
694.687	785.84
694.88	760.65
695.073	842.8
695.266	819.74
695.46	781.96
695.653	845.32
695.846	827.11
696.039	758.52
696.232	793.59
696.425	827.11
696.618	852.49
696.812	861.4
697.005	910.61
697.198	1000.9
697.391	931.54
697.584	970.67
697.777	996.25
697.97	971.25
698.163	978.62
698.356	958.08
698.549	1041.2
698.742	999.74
698.935	973
699.127	978.04
699.32	971.84
699.513	979
699.706	982.3
699.899	992.95
700.092	985.79
700.285	1016.98
700.477	954.98
700.67	1041.59
700.863	1023.18
701.056	1094.67
701.248	1059.6
701.441	1097.38
701.634	1069.1
701.826	1164.42
702.019	1058.25
702.212	1130.52
702.404	1059.22
702.597	1069.29
702.79	1103
702.982	1139.81
703.175	1161.51
703.367	1190
703.56	1183.8
703.752	1221.58
703.945	1213.25
704.137	1239.4
704.33	1259.94
704.522	1266.14
704.715	1257.81
704.907	1295.78
705.1	1318.64
705.292	1322.71
705.484	1283.96
705.677	1338.99
705.869	1315.54
706.061	1365.72
706.254	1356.23
706.446	1355.65
706.638	1392.85
706.831	1453.69
707.023	1389.56
707.215	1462.02
707.407	1435.28
707.599	1418.81
707.792	1500.96
707.984	1460.08
708.176	1508.9
708.368	1468.02
708.56	1521.3
708.752	1497.47
708.944	1473.45
709.136	1534.28
709.329	1504.06
709.521	1598.22
709.713	1585.05
709.905	1598.22
710.097	1648.21
710.289	1585.63
710.481	1590.47
710.672	1583.88
710.864	1614.69
711.056	1680.76
711.248	1645.88
711.44	1663.71
711.632	1650.53
711.824	1705.56
712.016	1753.61
712.207	1769.3
712.399	1705.56
712.591	1773.17
712.783	1777.44
712.975	1772.21
713.166	1716.6
713.358	1767.17
713.55	1839.44
713.741	1824.71
713.933	1813.47
714.125	1815.02
714.316	1775.89
714.508	1880.7
714.7	1884.39
714.891	1860.36
715.083	1916.16
715.274	1823.94
715.466	1844.86
715.657	1877.22
715.849	1805.72
716.04	1842.92
716.232	1811.54
716.423	1836.14
716.615	1770.07
716.806	1715.24
716.998	1697.61
717.189	1687.93
717.381	1605
717.572	1585.43
717.763	1599
717.955	1572.45
718.146	1557.53
718.337	1471.32
718.528	1443.42
718.72	1406.8
718.911	1477.52
719.102	1422.1
719.293	1465.7
719.485	1483.72
719.676	1427.53
719.867	1403.7
720.058	1430.24
720.249	1416.68
720.44	1476.94
720.632	1471.51
720.823	1531.38
721.014	1643.17
721.205	1648.6
721.396	1718.93
721.587	1841.57
721.778	1843.12
721.969	1852.03
722.16	1900.27
722.351	1953.36
722.542	2027.95
722.733	2056.82
722.924	1951.03
723.115	2039.38
723.305	1980.48
723.496	2009.55
723.687	1869.66
723.878	1873.92
724.069	1901.82
724.26	1887.87
724.45	1835.95
724.641	1814.64
724.832	1898.14
725.023	1831.69
725.213	1833.62
725.404	1807.66
725.595	1857.65
725.785	1840.6
725.976	1913.45
726.167	1928.37
726.357	1918.29
726.548	2007.8
726.739	1939.41
726.929	1964.6
727.12	2008
727.31	2002.38
727.501	1934.76
727.691	1979.32
727.882	1997.53
728.072	2001.41
728.263	1975.06
728.453	2057.21
728.644	2054.5
728.834	2027.76
729.024	1992.69
729.215	1966.15
729.405	2032.8
729.596	2124.83
729.786	2118.43
729.976	2157.18
730.167	2176.56
730.357	2062.05
730.547	2104.68
730.737	2105.45
730.928	2200
731.118	2210.46
731.308	2096.54
731.498	2183.34
731.688	2262.58
731.879	2275.37
732.069	2311.21
732.259	2309.47
732.449	2361.39
732.639	2420.29
732.829	2424.17
733.019	2479.19
733.209	2534.02
733.399	2459.81
733.589	2571.03
733.779	2579.55
733.969	2596.21
734.159	2617.14
734.349	2686.69
734.539	2707.23
734.729	2670.81
734.919	2765.35
735.109	2768.26
735.299	2731.84
735.488	2757.8
735.678	2771.75
735.868	2742.49
736.058	2723.5
736.248	2710.14
736.437	2682.62
736.627	2655.89
736.817	2796.35
737.007	2777.17
737.196	2748.89
737.386	2761.09
737.576	2754.7
737.765	2810.5
737.955	2759.54
738.144	2911.63
738.334	2820.57
738.524	2795.19
738.713	2848.28
738.903	2801.39
739.092	2865.13
739.282	2857.19
739.471	2880.05
739.661	2880.05
739.85	2853.51
740.04	2890.13
740.229	2906.01
740.419	2905.05
740.608	2964.91
740.797	2926.94
740.987	2985.45
741.176	2944.96
741.365	2899.62
741.555	2886.83
741.744	2976.34
741.933	2952.32
742.123	2980.22
742.312	2978.67
742.501	3025.56
742.69	3032.92
742.88	2916.09
743.069	3034.28
743.258	2943.21
743.447	3034.86
743.636	3039.89
743.825	2990.49
744.014	3030.01
744.204	3054.23
744.393	2991.07
744.582	3082.91
744.771	3089.11
744.96	3044.16
745.149	3086.2
745.338	3011.8
745.527	3104.41
745.716	3028.85
745.905	3055.01
746.094	3101.51
746.283	3023.23
746.471	3049.97
746.66	3117.78
746.849	3112.74
747.038	3171.45
747.227	3083.49
747.416	3082.32
747.604	3022.65
747.793	3024.2
747.982	3082.91
748.171	3090.07
748.359	3102.28
748.548	3081.55
748.737	3114.49
748.926	3068.96
749.114	2941.86
749.303	3064.89
749.491	3109.45
749.68	3024.2
749.869	3089.88
750.057	3059.07
750.246	3018
750.434	3028.08
750.623	3013.16
750.811	3017.03
751	3040.67
751.188	3040.09
751.377	3040.86
751.565	3016.45
751.754	2996.88
751.942	2946.12
752.131	3044.35
752.319	2990.29
752.507	2974.21
752.696	3011.41
752.884	3066.63
753.072	2983.71
753.261	3020.33
753.449	2988.74
753.637	2959.49
753.825	3107.51
754.014	3016.84
754.202	3040.28
754.39	3062.76
754.578	3033.89
754.766	3038.93
754.955	2969.95
755.143	3081.16
755.331	2964.53
755.519	2963.36
755.707	2937.79
755.895	2987
756.083	2965.3
756.271	2951.16
756.459	2912.8
756.647	3006.76
756.835	2951.93
757.023	2944.57
757.211	2890.51
757.399	2894.2
757.587	2926.75
757.775	2911.83
757.963	2910.86
758.151	2874.24
758.339	2851.77
758.526	2852.93
758.714	2877.53
758.902	2760.32
759.09	2680.88
759.278	2533.05
759.465	2321.48
759.653	2025.05
759.841	1825.49
760.028	1581.36
760.216	1353.91
760.404	1268.08
760.591	1051.85
760.779	890.85
760.967	764.53
761.154	621.54
761.342	705.24
761.529	691.29
761.717	753.29
761.905	742.44
762.092	780.03
762.28	740.31
762.467	770.73
762.655	700.01
762.842	715.51
763.029	743.21
763.217	740.89
763.404	744.76
763.592	765.88
763.779	727.91
763.966	766.08
764.154	798.63
764.341	849.78
764.528	854.23
764.716	927.47
764.903	974.16
765.09	1008.45
765.277	1056.5
765.465	1227.19
765.652	1248.12
765.839	1303.14
766.026	1438.77
766.213	1462.79
766.4	1548.23
766.588	1720.86
766.775	1746.24
766.962	1816.96
767.149	1881.29
767.336	2049.65
767.523	1957.43
767.71	2105.06
767.897	2171.71
768.084	2206.39
768.271	2292.61
768.458	2340.66
768.645	2362.36
768.832	2358.1
769.019	2390.84
769.206	2412.54
769.392	2450.9
769.579	2563.66
769.766	2481.71
769.953	2517.75
770.14	2572.19
770.327	2533.44
770.513	2601.83
770.7	2633.8
770.887	2498.37
771.073	2587.88
771.26	2590.79
771.447	2546.23
771.634	2596.02
771.82	2683.21
772.007	2530.73
772.193	2588.66
772.38	2633.02
772.567	2620.63
772.753	2608.03
772.94	2645.42
773.126	2625.86
773.313	2644.07
773.499	2638.26
773.686	2645.42
773.872	2596.02
774.059	2603.38
774.245	2599.31
774.432	2585.56
774.618	2541.19
774.804	2602.41
774.991	2550.29
775.177	2621.4
775.363	2552.81
775.55	2609.97
775.736	2523.75
775.922	2551.07
776.109	2558.24
776.295	2589.24
776.481	2593.69
776.667	2588.85
776.853	2488.1
777.04	2524.14
777.226	2509.61
777.412	2621.79
777.598	2537.51
777.784	2468.15
777.97	2546.61
778.156	2516.78
778.342	2495.85
778.528	2514.45
778.715	2442.18
778.901	2495.46
779.087	2520.26
779.272	2438.12
779.458	2448.19
779.644	2471.05
779.83	2446.64
780.016	2568.51
780.202	2444.51
780.388	2445.87
780.574	2389.68
780.76	2421.84
780.946	2451.68
781.131	2432.88
781.317	2446.45
781.503	2375.73
781.689	2407.7
781.874	2468.34
782.06	2393.94
782.246	2397.23
782.432	2373.98
782.617	2393.94
782.803	2412.35
782.989	2336.2
783.174	2330.39
783.36	2268.2
783.545	2356.74
783.731	2346.28
783.916	2259.09
784.102	2344.92
784.288	2280.99
784.473	2298.23
784.659	2286.8
784.844	2336.01
785.029	2286.22
785.215	2271.3
785.4	2262
785.586	2378.05
785.771	2260.26
785.956	2330.59
786.142	2276.14
786.327	2237.78
786.512	2261.61
786.698	2213.37
786.883	2210.27
787.068	2205.81
787.254	2244.37
787.439	2233.13
787.624	2199.03
787.809	2173.46
787.994	2204.65
788.18	2272.85
788.365	2150.79
788.55	2153.31
788.735	2190.51
788.92	2163.38
789.105	2175.78
789.29	2187.41
789.475	2124.24
789.66	2123.47
789.845	2098.09
790.03	2081.62
790.215	2123.47
790.4	2147.11
790.585	2183.92
790.77	2112.62
790.955	2042.1
791.14	2110.68
791.325	2177.72
791.51	2063.02
791.695	2074.45
791.879	2049.07
792.064	2027.18
792.249	2165.9
792.434	2086.46
792.618	2060.89
792.803	2085.69
792.988	2074.84
793.173	2079.3
793.357	2092.47
793.542	2041.71
793.727	2039
793.911	2118.63
794.096	2062.63
794.281	2068.45
794.465	2181.4
794.65	2121.53
794.834	2099.44
795.019	2154.08
795.203	2138.58
795.388	2152.14
795.572	2185.08
795.757	2116.3
795.941	2140.13
796.126	2133.35
796.31	2107.19
796.494	2137.23
796.679	2074.65
796.863	2046.36
797.048	2183.14
797.232	2122.5
797.416	2138.78
797.601	2134.13
797.785	2168.81
797.969	2159.7
798.153	2101.38
798.338	2145.17
798.522	2191.28
798.706	2145.56
798.89	2198.64
799.074	2255.8
799.258	2219.18
799.443	2128.51
799.627	2130.83
799.811	2155.05
799.995	2129.67
800.179	2084.53
800.363	2131.8
800.547	2136.45
800.731	2208.14
800.915	2074.65
801.099	2118.63
801.283	2144.2
801.467	2125.21
801.651	2100.03
801.835	2190.7
802.019	2101.77
802.202	2141.49
802.386	2061.86
802.57	2103.51
802.754	2061.47
802.938	2071.16
803.121	2074.45
803.305	2149.82
803.489	2099.83
803.673	2124.44
803.856	2137.23
804.04	2122.31
804.224	2182.95
804.407	2130.83
804.591	2089.56
804.775	2094.02
804.958	2129.48
805.142	2207.56
805.326	2144.78
805.509	2172.49
805.693	2141.29
805.876	2135.87
806.06	2101.19
806.243	2177.33
806.427	2192.25
806.61	2168.23
806.794	2150.79
806.977	2187.79
807.16	2151.37
807.344	2191.28
807.527	2142.84
807.71	2130.06
807.894	2147.69
808.077	2138.19
808.26	2113.01
808.444	2089.18
808.627	2169.39
808.81	2085.69
808.993	2036.48
809.177	2076.39
809.36	2044.42
809.543	2101.77
809.726	1981.65
809.909	2006.06
810.092	1982.42
810.276	1998.7
810.459	2006.64
810.642	2022.33
810.825	1953.94
811.008	1950.45
811.191	1890
811.374	1921.78
811.557	1916.94
811.74	1994.05
811.923	1874.12
812.106	1867.72
812.289	1829.36
812.472	1858.04
812.654	1912.87
812.837	1840.4
813.02	1784.8
813.203	1754.96
813.386	1659.06
813.569	1668.36
813.751	1649.76
813.934	1658.48
814.117	1653.83
814.3	1618.56
814.482	1567.22
814.665	1507.35
814.848	1520.33
815.03	1430.24
815.213	1476.16
815.396	1465.89
815.578	1432.76
815.761	1418.04
815.943	1509.29
816.126	1412.42
816.309	1372.12
816.491	1304.89
816.674	1266.14
816.856	1329.69
817.039	1298.49
817.221	1402.54
817.403	1309.73
817.586	1321.94
817.768	1365.34
817.951	1303.34
818.133	1275.83
818.315	1286.29
818.498	1338.6
818.68	1415.9
818.862	1380.45
819.045	1417.26
819.227	1376.19
819.409	1329.3
819.591	1359.14
819.774	1357.01
819.956	1314.38
820.138	1404.86
820.32	1371.15
820.502	1416.87
820.684	1480.81
820.866	1460.66
821.048	1534.28
821.231	1508.9
821.413	1488.56
821.595	1483.91
821.777	1537.19
821.959	1481.97
822.141	1558.12
822.323	1443.03
822.505	1406.22
822.686	1326.97
822.868	1305.47
823.05	1202.78
823.232	1172.75
823.414	1137.68
823.596	1231.84
823.778	1168.88
823.96	1197.55
824.141	1214.8
824.323	1244.44
824.505	1277.38
824.687	1329.49
824.868	1385.29
825.05	1454.65
825.232	1459.5
825.413	1529.05
825.595	1495.34
825.777	1400.79
825.958	1445.35
826.14	1449.42
826.321	1479.45
826.503	1457.56
826.685	1478.87
826.866	1518.59
827.048	1493.4
827.229	1458.92
827.411	1398.85
827.592	1415.13
827.773	1378.32
827.955	1357.59
828.136	1352.36
828.318	1290.36
828.499	1348.09
828.68	1288.03
828.862	1341.7
829.043	1368.05
829.224	1349.45
829.406	1280.67
829.587	1287.64
829.768	1322.71
829.949	1362.04
830.131	1330.46
830.312	1387.62
830.493	1325.81
830.674	1322.91
830.855	1319.81
831.036	1334.72
831.218	1344.02
831.399	1378.32
831.58	1329.88
831.761	1348.09
831.942	1340.92
832.123	1333.76
832.304	1267.11
832.485	1285.13
832.666	1330.66
832.847	1335.89
833.028	1344.02
833.209	1333.95
833.389	1315.35
833.57	1247.15
833.751	1296.17
833.932	1378.71
834.113	1316.12
834.294	1296.36
834.475	1342.09
834.655	1349.06
834.836	1401.57
835.017	1341.89
835.198	1306.44
835.378	1358.94
835.559	1392.07
835.74	1330.46
835.92	1308.38
836.101	1301.21
836.281	1375.22
836.462	1353.91
836.643	1396.14
836.823	1411.84
837.004	1403.12
837.184	1447.49
837.365	1418.62
837.545	1385.29
837.726	1360.3
837.906	1447.87
838.087	1412.03
838.267	1362.62
838.448	1338.99
838.628	1374.44
838.808	1378.51
838.989	1406.02
839.169	1344.99
839.349	1412.42
839.53	1407.96
839.71	1446.13
839.89	1369.99
840.07	1458.34
840.251	1363.01
840.431	1404.86
840.611	1365.92
840.791	1358.75
840.971	1374.83
841.151	1376.57
841.332	1371.15
841.512	1408.15
841.692	1319.03
841.872	1393.24
842.052	1360.11
842.232	1400.4
842.412	1336.86
842.592	1344.22
842.772	1379.09
842.952	1352.36
843.132	1368.24
843.312	1314.96
843.492	1333.76
843.672	1388.78
843.851	1283.58
844.031	1335.69
844.211	1370.76
844.391	1327.94
844.571	1335.5
844.751	1402.73
844.93	1345.96
845.11	1305.28
845.29	1343.83
845.47	1384.91
845.649	1370.76
845.829	1329.11
846.009	1313.22
846.188	1334.53
846.368	1350.22
846.547	1316.32
846.727	1367.47
846.907	1291.52
847.086	1326.01
847.266	1338.21
847.445	1315.16
847.625	1308.96
847.804	1247.34
847.984	1277.57
848.163	1285.13
848.343	1279.31
848.522	1300.63
848.701	1298.69
848.881	1264.2
849.06	1272.92
849.239	1278.34
849.419	1276.21
849.598	1222.55
849.777	1242.31
849.957	1240.76
850.136	1142.53
850.315	1160.35
850.494	1181.86
850.674	1183.02
850.853	1263.81
851.032	1193.48
851.211	1271.18
851.39	1223.32
851.569	1171.01
851.748	1154.15
851.927	1208.21
852.107	1192.51
852.286	1163.45
852.465	1134
852.644	1205.11
852.823	1191.55
853.002	1198.33
853.181	1195.61
853.359	1217.51
853.538	1134.2
853.717	1212.47
853.896	1107.65
854.075	1075.1
854.254	1059.99
854.433	993.92
854.611	1043.72
854.79	988.5
854.969	1079.56
855.148	1072.78
855.327	1039.07
855.505	1077.62
855.684	1052.43
855.863	1084.21
856.041	1078.59
856.22	1117.15
856.399	1034.03
856.577	1166.55
856.756	1127.03
856.934	1202.78
857.113	1264.98
857.291	1156.67
857.47	1134.78
857.648	1137.49
857.827	1126.25
858.005	1225.06
858.184	1134.78
858.362	1250.64
858.541	1161.71
858.719	1163.45
858.898	1155.12
859.076	1133.03
859.254	1224.68
859.433	1131.87
859.611	1110.75
859.789	1087.89
859.967	1154.93
860.146	1163.26
860.324	1084.4
860.502	1119.08
860.68	1065.42
860.859	1081.69
861.037	1118.7
861.215	1127.03
861.393	1116.95
861.571	1092.35
861.749	1043.72
861.927	1139.23
862.105	1097.77
862.283	1087.7
862.461	1047.2
862.639	1025.31
862.817	1063.48
862.995	1071.42
863.173	1032.67
863.351	1069.1
863.529	1091.38
863.707	1188.45
863.885	1071.62
864.063	1006.9
864.241	1047.79
864.418	1123.15
864.596	1035.58
864.774	1005.55
864.952	1049.72
865.129	1074.13
865.307	992.76
865.485	970.29
865.663	1084.6
865.84	1005.74
866.018	998.96
866.196	902.28
866.373	918.17
866.551	892.01
866.728	851.13
866.906	864.69
867.084	895.11
867.261	938.32
867.439	928.24
867.616	958.27
867.794	954.98
867.971	985.79
868.149	959.82
868.326	990.82
868.503	1012.52
868.681	1010.2
868.858	975.9
869.035	947.23
869.213	1009.42
869.39	965.25
869.567	1051.66
869.745	962.34
869.922	1018.72
870.099	1017.75
870.276	1007.49
870.454	971.45
870.631	991.21
870.808	990.82
870.985	1006.32
871.162	1064.83
871.339	1039.65
871.517	917.97
871.694	923.4
871.871	954.98
872.048	962.54
872.225	951.49
872.402	955.17
872.579	934.25
872.756	987.14
872.933	902.28
873.11	942.39
873.287	953.43
873.463	915.46
873.64	897.63
873.817	944.32
873.994	934.06
874.171	899.96
874.348	955.95
874.524	837.96
874.701	897.05
874.878	880
875.055	896.66
875.231	873.8
875.408	928.44
875.585	867.6
875.762	906.93
875.938	906.74
876.115	896.08
876.291	869.34
876.468	870.31
876.645	819.55
876.821	846.09
876.998	891.24
877.174	859.46
877.351	866.44
877.527	862.76
877.704	879.03
877.88	878.84
878.057	833.5
878.233	915.65
878.409	868.38
878.586	870.51
878.762	877.29
878.938	849.58
879.115	802.5
879.291	873.8
879.467	793.98
879.644	861.98
879.82	891.24
879.996	840.67
880.172	783.51
880.349	819.55
880.525	845.32
880.701	780.8
880.877	763.36
881.053	840.86
881.229	843.77
881.405	875.54
881.581	822.84
881.757	813.35
881.933	805.79
882.109	857.72
882.285	810.25
882.461	791.07
882.637	837.38
882.813	781.38
882.989	815.48
883.165	840.09
883.341	772.08
883.517	864.31
883.693	823.43
883.869	822.84
884.044	805.02
884.22	855.59
884.396	873.03
884.572	824.98
884.747	837.38
884.923	874.77
885.099	842.61
885.275	840.67
885.45	825.56
885.626	815.48
885.801	801.73
885.977	785.84
886.153	765.69
886.328	866.83
886.504	805.41
886.679	811.22
886.855	797.46
887.03	849.78
887.206	838.93
887.381	815.29
887.557	831.95
887.732	832.73
887.908	840.86
888.083	841.25
888.258	815.87
888.434	787.58
888.609	830.01
888.784	852.29
888.96	790.29
889.135	787.19
889.31	788.94
889.485	838.15
889.661	803.86
889.836	848.42
890.011	849.97
890.186	799.01
890.361	796.11
890.537	825.94
890.712	815.29
890.887	806.57
891.062	817.03
891.237	885.04
891.412	761.81
891.587	792.43
891.762	848.23
891.937	840.09
892.112	763.17
892.287	831.76
892.462	749.41
892.637	754.45
892.812	740.11
892.987	752.71
893.161	725.97
893.336	748.45
893.511	724.23
893.686	757.36
893.861	754.26
894.035	724.03
894.21	780.03
894.385	675.79
894.56	738.18
894.734	660.29
894.909	687.03
895.084	670.75
895.258	669.78
895.433	673.27
895.608	635.1
895.782	590.54
895.957	626.38
896.131	645.76
896.306	557.22
896.48	547.34
896.655	598.49
896.829	523.31
897.004	516.72
897.178	554.7
897.353	531.45
897.527	592.48
897.701	568.45
897.876	525.25
898.05	591.51
898.224	569.04
898.399	582.21
898.573	552.18
898.747	439.42
898.921	512.66
899.096	455.5
899.27	415.59
899.444	442.13
899.618	490.37
899.792	518.86
899.967	479.52
900.141	526.22
900.315	438.26
900.489	465.38
900.663	487.27
900.837	476.23
901.011	444.84
901.185	533.97
901.359	496.19
901.533	496.96
901.707	492.89
901.881	484.17
902.055	427.6
902.229	479.33
902.403	550.05
902.576	478.75
902.75	476.81
902.924	609.34
903.098	532.61
903.272	580.47
903.446	587.83
903.619	579.11
903.793	588.41
903.967	610.11
904.14	609.14
904.314	615.53
904.488	574.46
904.661	646.73
904.835	587.44
905.009	614.37
905.182	675.98
905.356	596.16
905.529	631.62
905.703	590.15
905.876	549.85
906.05	568.84
906.223	538.62
906.397	470.81
906.57	471
906.744	475.07
906.917	468.09
907.09	486.89
907.264	500.45
907.437	458.79
907.61	418.69
907.784	463.64
907.957	449.3
908.13	407.26
908.304	463.83
908.477	400.67
908.65	432.25
908.823	387.88
908.996	461.31
909.17	425.66
909.343	445.81
909.516	433.8
909.689	461.31
909.862	398.34
910.035	427.02
910.208	406.09
910.381	388.46
910.554	470.81
910.727	413.46
910.9	396.02
911.073	378.39
911.246	472.36
911.419	469.26
911.592	435.16
911.765	398.15
911.938	431.48
912.11	399.7
912.283	420.63
912.456	478.75
912.629	459.57
912.802	392.73
912.974	365.02
913.147	342.35
913.32	296.05
913.493	354.17
913.665	359.79
913.838	372.58
914.01	341.58
914.183	381.49
914.356	348.75
914.528	387.49
914.701	446.59
914.873	388.08
915.046	387.11
915.218	334.02
915.391	272.6
915.563	268.34
915.736	371.03
915.908	391.18
916.081	345.26
916.253	345.65
916.425	369.86
916.598	365.41
916.77	370.64
916.942	338.09
917.115	279.19
917.287	353.78
917.459	346.42
917.632	293.14
917.804	246.64
917.976	341.38
918.148	347.78
918.32	357.46
918.493	387.11
918.665	406.29
918.837	370.06
919.009	421.01
919.181	393.31
919.353	397.76
919.525	353.59
919.697	380.52
919.869	348.94
920.041	398.15
920.213	513.43
920.385	413.84
920.557	390.01
920.729	400.67
920.901	396.21
921.073	392.73
921.244	357.46
921.416	422.37
921.588	374.51
921.76	373.54
921.932	421.21
922.103	374.71
922.275	397.57
922.447	376.64
922.619	340.03
922.79	363.66
922.962	371.8
923.134	391.18
923.305	319.3
923.477	297.6
923.648	299.15
923.82	338.28
923.991	295.27
924.163	298.95
924.335	323.95
924.506	302.63
924.677	379.16
924.849	272.02
925.02	304.38
925.192	323.75
925.363	343.32
925.535	349.71
925.706	313.1
925.877	385.36
926.049	296.05
926.22	333.25
926.391	347
926.562	343.9
926.734	310.96
926.905	376.64
927.076	254.39
927.247	306.31
927.419	261.75
927.59	263.11
927.761	256.52
927.932	267.18
928.103	270.86
928.274	232.88
928.445	214.28
928.616	252.26
928.787	231.92
928.958	278.61
929.129	269.7
929.3	224.75
929.471	191.62
929.642	125.35
929.813	114.89
929.984	232.88
930.155	122.06
930.326	187.74
930.496	153.25
930.667	101.72
930.838	151.51
931.009	125.16
931.18	124.19
931.35	121.48
931.521	107.92
931.692	78.66
931.863	32.16
932.033	136.01
932.204	100.94
932.374	108.11
932.545	41.27
932.716	101.91
932.886	113.54
933.057	26.93
933.227	50.18
933.398	142.4
933.568	45.53
933.739	32.36
933.909	55.22
934.08	87.57
934.25	-1.74
934.421	45.53
934.591	69.94
934.761	24.22
934.932	-23.64
935.102	44.37
935.272	35.84
935.443	52.12
935.613	35.46
935.783	21.51
935.953	8.72
936.123	172.44
936.294	2.13
936.464	28.48
936.634	26.35
936.804	-2.32
936.974	-24.99
937.144	57.16
937.314	68.2
937.484	17.82
937.655	-1.55
937.825	85.44
937.995	6.59
938.165	95.32
938.334	33.91
938.504	49.99
938.674	12.98
938.844	18.99
939.014	88.74
939.184	92.03
939.354	122.45
939.524	115.47
939.694	49.6
939.863	74.21
940.033	130.59
940.203	110.82
940.373	101.14
940.542	109.47
940.712	84.86
940.882	131.17
941.051	118.96
941.221	85.06
941.391	120.7
941.56	59.48
941.73	57.35
941.899	183.67
942.069	92.22
942.238	112.76
942.408	58.71
942.577	116.83
942.747	59.67
942.916	15.89
943.086	14.34
943.255	103.85
943.425	77.31
943.594	61.81
943.763	5.81
943.933	32.16
944.102	-18.41
944.271	40.88
944.441	84.09
944.61	33.52
944.779	69.94
944.948	122.64
945.117	14.72
945.287	42.43
945.456	-0.97
945.625	-0.97
945.794	47.47
945.963	47.66
946.132	56.77
946.301	46.69
946.47	86.8
946.639	-13.76
946.808	36.62
946.977	46.11
947.146	77.31
947.315	35.46
947.484	77.5
947.653	30.42
947.822	37.97
947.991	20.34
948.16	130.59
948.329	117.41
948.498	49.6
948.666	45.92
948.835	104.82
949.004	34.87
949.173	27.9
949.341	40.11
949.51	52.7
949.679	106.37
949.847	59.67
950.016	134.46
950.185	122.84
950.353	32.16
950.522	61.22
950.69	121.29
950.859	45.34
951.028	100.75
951.196	58.51
951.365	38.36
951.533	34.29
951.701	76.92
951.87	73.82
952.038	22.47
952.207	73.43
952.375	97.84
952.543	22.28
952.712	49.21
952.88	24.22
953.048	77.11
953.217	71.69
953.385	70.72
953.553	108.69
953.721	38.36
953.89	60.26
954.058	14.34
954.226	39.91
954.394	83.31
954.562	9.69
954.73	18.6
954.898	27.9
955.067	98.42
955.235	41.66
955.403	89.7
955.571	117.6
955.739	88.54
955.907	43.79
956.075	42.62
956.243	29.64
956.41	57.16
956.578	15.5
956.746	0.19
956.914	40.3
957.082	55.41
957.25	61.81
957.418	26.35
957.585	43.79
957.753	109.47
957.921	58.12
958.089	50.57
958.256	93
958.424	63.16
958.592	82.92
958.759	34.49
958.927	73.43
959.095	38.17
959.262	60.64
959.43	64.71
959.597	35.07
959.765	52.89
959.932	34.1
960.1	104.43
960.267	38.75
960.435	51.54
960.602	100.17
960.77	53.86
960.937	24.02
961.104	67.81
961.272	1.94
961.439	50.76
961.606	79.44
961.774	54.83
961.941	66.84
962.108	67.81
962.275	70.33
962.443	102.3
962.61	89.32
962.777	119.93
962.944	103.65
963.111	73.82
963.278	96.49
963.446	59.29
963.613	82.92
963.78	88.74
963.947	95.9
964.114	60.06
964.281	142.99
964.448	58.12
964.615	47.27
964.782	71.11
964.949	100.36
965.116	85.25
965.282	128.26
965.449	74.98
965.616	44.37
965.783	102.69
965.95	77.89
966.117	28.48
966.283	40.88
966.45	80.6
966.617	83.89
966.784	127.49
966.95	114.12
967.117	124.58
967.284	47.47
967.45	60.06
967.617	122.25
967.784	86.8
967.95	124.39
968.117	84.67
968.283	131.75
968.45	179.6
968.616	111.6
968.783	107.72
968.949	78.47
969.116	105.98
969.282	85.44
969.449	90.29
969.615	71.88
969.781	53.86
969.948	78.08
970.114	37.59
970.28	118.19
970.447	69.56
970.613	117.99
970.779	95.71
970.945	108.3
971.112	80.41
971.278	55.02
971.444	80.02
971.61	95.71
971.776	77.89
971.942	97.65
972.108	99
972.275	82.34
972.441	86.8
972.607	165.46
972.773	59.87
972.939	96.68
973.105	104.04
973.271	51.92
973.437	47.47
973.602	61.42
973.768	80.79
973.934	77.11
974.1	117.02
974.266	8.72
974.432	88.74
974.598	66.65
974.763	106.17
974.929	58.12
975.095	133.69
975.261	70.72
975.426	36.42
975.592	61.81
975.758	119.15
975.923	54.83
976.089	36.04
976.255	117.22
976.42	91.84
976.586	79.24
976.751	87.77
976.917	164.88
977.082	114.7
977.248	20.92
977.413	9.49
977.579	59.87
977.744	78.86
977.91	36.81
978.075	55.02
978.24	82.15
978.406	67.23
978.571	48.44
978.736	45.34
978.902	102.1
979.067	37.2
979.232	6.39
979.397	60.45
979.563	107.14
979.728	24.61
979.893	46.89
980.058	18.79
980.223	78.08
980.388	46.11
980.554	67.62
980.719	30.42
980.884	78.47
981.049	101.52
981.214	41.27
981.379	71.11
981.544	52.89
981.709	59.48
981.874	73.43
982.039	68.78
982.204	91.45
982.368	65.87
982.533	67.81
982.698	111.21
982.863	127.68
983.028	48.24
983.193	74.98
983.357	56.19
983.522	105.79
983.687	56.57
983.852	60.06
984.016	60.45
984.181	67.42
984.346	85.25
984.51	98.62
984.675	63.36
984.839	103.46
985.004	66.26
985.168	110.63
985.333	73.24
985.498	62.39
985.662	77.11
985.827	81.96
985.991	56.38
986.155	51.34
986.32	110.82
986.484	146.28
986.649	109.47
986.813	17.63
986.977	78.86
987.142	114.5
987.306	41.27
987.47	40.69
987.634	70.52
987.799	65.49
987.963	82.15
988.127	70.72
988.291	142.79
988.455	84.47
988.62	58.32
988.784	94.94
988.948	89.9
989.112	38.36
989.276	95.13
989.44	62.58
989.604	40.49
989.768	45.14
989.932	144.34
990.096	14.72
990.26	41.07
990.424	49.41
990.588	56.19
990.752	123.22
990.915	87.96
991.079	41.27
991.243	42.82
991.407	71.49
991.571	48.44
991.734	64.91
991.898	88.15
992.062	123.61
992.226	51.92
992.389	18.41
992.553	6.59
992.717	40.11
992.88	58.71
993.044	72.66
993.207	49.79
993.371	93
993.535	86.02
993.698	59.87
993.862	81.57
994.025	127.1
994.189	91.45
994.352	81.76
994.515	73.04
994.679	102.88
994.842	46.69
995.006	99.39
995.169	14.14
995.332	47.66
995.496	75.17
995.659	1.55
995.822	49.02
995.985	79.05
996.149	113.15
996.312	54.44
996.475	131.36
996.638	38.56
996.801	117.8
996.964	132.72
997.128	49.79
997.291	67.81
997.454	55.99
997.617	22.47
997.78	67.62
997.943	30.03
998.106	103.27
998.269	43.98
998.432	42.82
998.595	60.06
998.758	-2.32
998.92	16.47
999.083	-0.19
999.246	40.49
999.409	20.73
999.572	-2.32
999.735	19.37
999.897	64.71
1000.06	25.57
1000.223	49.79
1000.386	68.01
1000.548	68.01
1000.711	62
1000.874	49.6
1001.036	8.91
1001.199	87.38
1001.361	24.22
1001.524	64.32
1001.687	55.22
1001.849	25.96
1002.012	29.06
1002.174	55.99
1002.337	51.34
1002.499	45.34
1002.661	83.51
1002.824	23.06
1002.986	25.96
1003.149	46.69
1003.311	4.07
1003.473	99
1003.636	45.72
1003.798	75.76
1003.96	65.68
1004.123	16.86
1004.285	37.01
1004.447	18.79
1004.609	45.92
1004.771	111.4
1004.933	5.23
1005.096	0.77
1005.258	13.56
1005.42	27.32
1005.582	80.6
1005.744	52.31
1005.906	5.62
1006.068	59.29
1006.23	-12.4
1006.392	-29.84
1006.554	20.54
1006.716	83.31
1006.878	61.61
1007.04	6.39
1007.202	40.88
1007.363	46.11
1007.525	27.51
1007.687	54.44
1007.849	79.44
1008.011	10.46
1008.172	-6.97
1008.334	20.54
1008.496	84.47
1008.658	-19.57
1008.819	38.94
1008.981	4.26
1009.143	18.21
1009.304	27.12
1009.466	79.44
1009.627	105.4
1009.789	98.81
1009.95	67.62
1010.112	-3.1
1010.273	70.52
1010.435	-13.17
1010.596	-9.88
1010.758	30.42
1010.919	10.46
1011.081	7.56
1011.242	45.72
1011.403	72.07
1011.565	-0
1011.726	34.29
1011.887	-11.24
1012.049	28.67
1012.21	57.16
1012.371	83.12
1012.532	-37.97
1012.693	18.79
1012.855	16.47
1013.016	23.64
1013.177	79.44
1013.338	9.69
1013.499	97.84
1013.66	71.69
1013.821	57.74
1013.982	34.68
1014.143	23.83
1014.304	-14.53
1014.465	37.59
1014.626	41.85
1014.787	4.46
1014.948	118.57
1015.109	-47.86
1015.27	70.72
1015.431	1.94
1015.592	-0.77
1015.752	67.42
1015.913	40.49
1016.074	29.84
1016.235	17.82
1016.395	31.39
1016.556	17.82
1016.717	16.08
1016.877	73.04
1017.038	-6.39
1017.199	36.04
1017.359	19.37
1017.52	17.44
1017.681	3.68
1017.841	7.17
1018.002	37.01
1018.162	12.21
1018.323	56.96
1018.483	13.95
1018.644	20.34
1018.804	-15.5
1018.964	-30.22
1019.125	6.78
1019.285	17.24
1019.446	9.11
1019.606	3.49
1019.766	-32.94
1019.926	43.21
1020.087	50.76
1020.247	-21.89
1020.407	57.54
1020.567	70.33
1020.728	33.52
1020.888	-2.91
1021.048	0.58
1021.208	2.52
1021.368	-11.04
1021.528	70.72
1021.688	82.15
1021.848	61.81
1022.008	15.69
1022.168	-15.89
1022.328	22.47
1022.488	55.02
1022.648	-8.91
1022.808	3.29
1022.968	27.32
1023.128	7.17
1023.288	-0.58
1023.448	24.02
1023.608	51.15
1023.767	27.32
1023.927	-10.85
1024.087	-21.51
1024.247	-25.57
1024.406	6.97
1024.566	-21.7
1024.726	-24.41
1024.885	-3.1
1025.045	48.82
1025.205	25.38
1025.364	-7.75
1025.524	41.07
1025.683	15.11
1025.843	43.59
1026.003	13.37
1026.162	66.26
1026.321	60.26
1026.481	25.77
1026.64	-19.18
1026.8	24.8
1026.959	6.78
1027.119	9.11
1027.278	-5.42
1027.437	-11.62
1027.597	20.34
1027.756	22.67
1027.915	41.07
1028.074	24.61
1028.234	-8.52
1028.393	14.72
1028.552	-7.75
1028.711	-76.14
1028.87	46.5
1029.03	-20.54
1029.189	21.51
1029.348	-38.56
1029.507	-2.13
1029.666	3.1
1029.825	-2.71
1029.984	-9.3
1030.143	32.74
1030.302	-27.32
1030.461	-34.87
1030.62	8.91
1030.779	10.85
1030.938	-12.21
1031.097	-15.11
1031.255	49.41
1031.414	67.42
1031.573	43.01
1031.732	-44.76
1031.891	3.1
1032.049	61.81
1032.208	43.98
1032.367	-22.09
1032.525	5.04
1032.684	-8.91
1032.843	20.34
1033.001	-24.99
1033.16	151.32
1033.319	41.27
1033.477	40.11
1033.636	-15.69
1033.794	-42.43
1033.953	53.09
1034.111	41.66
1034.27	6.39
1034.428	43.98
1034.587	-30.22
1034.745	-6.78
1034.903	12.59
1035.062	37.97
1035.22	-40.69
1035.378	44.95
1035.537	-18.79
1035.695	38.36
1035.853	1.94
1036.011	50.57
1036.17	31.97
1036.328	-55.61
1036.486	24.22
1036.644	17.24
1036.802	-77.89
1036.96	-5.04
1037.119	23.25
1037.277	-16.27
1037.435	-27.32
1037.593	-24.8
1037.751	7.36
1037.909	29.26
1038.067	29.26
