Data from pine_FLMT105791__164__17-23-18-073.txt Node

Date: Mon Mar 20 17:23:18 GMT 2023
User: antho
Spectrometer: FLMT10579
Trigger mode: 0
Integration Time (sec): 1.000000E-1
Scans to average: 10
Electric dark correction enabled: true
Nonlinearity correction enabled: false
Boxcar width: 0
XAxis mode: Wavelengths
Number of Pixels in Spectrum: 3648
>>>>>Begin Spectral Data<<<<<
345.248	-167.43
345.464	-167.43
345.681	-167.43
345.898	-166.85
346.114	-168.2
346.331	-25.99
346.548	53.25
346.764	-12.63
346.981	0.94
347.197	-3.13
347.414	29.42
347.631	-30.26
347.847	35.23
348.064	-10.88
348.28	21.28
348.497	-55.64
348.713	-1.58
348.93	12.95
349.146	16.44
349.363	-37.43
349.579	-11.27
349.796	5.97
350.012	-18.24
350.229	16.63
350.445	15.85
350.661	-7.98
350.878	-17.86
351.094	2.49
351.311	-7.2
351.527	28.64
351.743	-5.46
351.96	42.98
352.176	37.17
352.392	23.6
352.609	31.16
352.825	-21.54
353.041	3.65
353.257	6.17
353.474	9.85
353.69	6.94
353.906	8.3
354.122	-27.93
354.339	54.6
354.555	-6.81
354.771	-0.42
354.987	67.97
355.203	63.9
355.42	-10.88
355.636	-4.49
355.852	1.91
356.068	21.09
356.284	-35.49
356.5	51.89
356.716	1.13
356.932	36.59
357.148	22.25
357.364	-3.13
357.58	27.48
357.796	53.83
358.012	37.94
358.228	21.86
358.444	-39.56
358.66	35.23
358.876	16.63
359.092	-12.24
359.308	28.06
359.524	24.19
359.74	-0.42
359.956	6.56
360.172	9.07
360.388	50.15
360.604	-19.21
360.819	75.92
361.035	14.89
361.251	25.35
361.467	-31.42
361.683	17.99
361.898	7.33
362.114	23.02
362.33	14.69
362.546	35.62
362.762	9.07
362.977	30.19
363.193	-34.71
363.409	36.97
363.624	-17.08
363.84	-29.48
364.056	-15.14
364.271	27.48
364.487	27.09
364.703	-11.27
364.918	-34.33
365.134	-19.41
365.35	-5.07
365.565	77.47
365.781	29.22
365.996	20.7
366.212	77.27
366.427	9.07
366.643	-13.59
366.858	-13.21
367.074	-34.13
367.289	43.17
367.505	65.26
367.72	-25.03
367.936	-6.23
368.151	46.27
368.367	21.86
368.582	11.21
368.798	10.04
369.013	77.66
369.228	3.26
369.444	-6.43
369.659	73.98
369.874	18.76
370.09	64.87
370.305	-63.19
370.52	-25.61
370.736	57.7
370.951	-10.49
371.166	44.72
371.381	68.94
371.597	25.93
371.812	-48.47
372.027	-50.79
372.242	5.39
372.458	71.65
372.673	8.49
372.888	-14.18
373.103	19.92
373.318	83.86
373.533	20.5
373.749	-14.95
373.964	-3.13
374.179	71.65
374.394	-9.72
374.609	55.19
374.824	-18.44
375.039	26.9
375.254	4.62
375.469	66.23
375.684	20.31
375.899	38.33
376.114	4.42
376.329	15.66
376.544	50.73
376.759	61
376.974	-28.13
377.189	22.25
377.404	-7.59
377.619	45.69
377.834	-59.32
378.049	-18.24
378.264	-25.61
378.478	8.69
378.693	-0.81
378.908	27.67
379.123	5.39
379.338	55.77
379.553	24.77
379.767	10.82
379.982	5.39
380.197	32.9
380.412	6.75
380.626	11.4
380.841	83.28
381.056	27.29
381.271	64.49
381.485	-18.83
381.7	-50.21
381.915	29.42
382.129	24.96
382.344	52.28
382.559	-13.21
382.773	42.59
382.988	-29.29
383.202	28.25
383.417	-11.46
383.632	107.3
383.846	6.17
384.061	41.24
384.275	11.98
384.49	26.12
384.704	34.26
384.919	26.51
385.133	31.74
385.348	21.67
385.562	2.49
385.777	53.64
385.991	-17.28
386.206	-2.36
386.42	11.01
386.634	39.88
386.849	24.57
387.063	1.52
387.277	-37.43
387.492	-22.89
387.706	-27.93
387.92	-25.03
388.135	23.99
388.349	22.05
388.563	17.6
388.778	23.8
388.992	17.99
389.206	42.98
389.42	96.65
389.635	12.37
389.849	44.92
390.063	53.05
390.277	17.21
390.491	74.75
390.706	49.18
390.92	54.99
391.134	5.2
391.348	28.25
391.562	-23.28
391.776	15.85
391.99	-26.38
392.205	52.67
392.419	-0.23
392.633	5.2
392.847	61
393.061	1.71
393.275	66.04
393.489	25.15
393.703	4.23
393.917	76.3
394.131	-7.59
394.345	28.25
394.559	53.25
394.773	6.17
394.986	37.94
395.2	2.49
395.414	32.32
395.628	-19.79
395.842	32.52
396.056	-6.43
396.27	-33.94
396.484	39.1
396.697	35.04
396.911	76.5
397.125	45.69
397.339	44.14
397.553	43.37
397.766	97.04
397.98	44.72
398.194	63.9
398.408	-16.69
398.621	24.38
398.835	37.94
399.049	-5.26
399.262	58.87
399.476	50.34
399.69	52.86
399.903	84.25
400.117	36.39
400.331	44.34
400.544	-2.36
400.758	120.28
400.971	29.8
401.185	70.3
401.398	-14.18
401.612	74.95
401.826	40.85
402.039	47.24
402.253	15.85
402.466	52.67
402.68	8.11
402.893	12.56
403.106	23.99
403.32	13.92
403.533	35.04
403.747	18.57
403.96	22.25
404.174	45.5
404.387	-8.36
404.6	27.09
404.814	43.95
405.027	-2.94
405.24	26.32
405.454	24.38
405.667	66.62
405.88	-40.33
406.094	24.19
406.307	79.02
406.52	23.02
406.733	18.57
406.947	-39.56
407.16	84.05
407.373	48.6
407.586	-7.39
407.799	-7.2
408.012	54.8
408.226	43.56
408.439	69.14
408.652	-3.13
408.865	45.5
409.078	67.39
409.291	25.93
409.504	-26.19
409.717	26.9
409.93	43.17
410.143	34.84
410.357	-15.53
410.57	-7.2
410.783	14.69
410.996	21.47
411.209	4.23
411.421	61.97
411.634	19.54
411.847	-2.36
412.06	36.39
412.273	21.47
412.486	21.67
412.699	98.2
412.912	15.08
413.125	49.37
413.338	46.85
413.55	51.31
413.763	6.56
413.976	48.99
414.189	15.27
414.402	10.82
414.615	49.95
414.827	0.36
415.04	51.12
415.253	45.11
415.466	68.36
415.678	90.64
415.891	17.02
416.104	8.69
416.316	47.05
416.529	-19.99
416.742	56.35
416.954	82.7
417.167	38.91
417.38	18.95
417.592	81.34
417.805	7.72
418.017	-7.01
418.23	57.7
418.442	10.43
418.655	36
418.868	30.39
419.08	63.32
419.293	56.54
419.505	52.28
419.718	30.77
419.93	70.1
420.142	22.05
420.355	70.69
420.567	70.1
420.78	41.62
420.992	-5.84
421.205	79.02
421.417	-31.23
421.629	12.95
421.842	-19.21
422.054	-22.51
422.266	23.99
422.479	70.1
422.691	29.61
422.903	78.05
423.115	25.74
423.328	30.39
423.54	51.89
423.752	27.09
423.964	0.16
424.177	40.27
424.389	5.2
424.601	124.55
424.813	40.46
425.025	72.24
425.238	45.5
425.45	17.79
425.662	29.8
425.874	307.44
426.086	30.77
426.298	63.52
426.51	32.52
426.722	36.39
426.934	-7.01
427.146	51.89
427.358	4.62
427.57	60.03
427.782	38.33
427.994	23.41
428.206	14.31
428.418	-15.53
428.63	36.59
428.842	73.79
429.054	20.5
429.266	67.97
429.478	18.95
429.69	38.52
429.902	-12.24
430.114	67
430.325	53.83
430.537	20.7
430.749	31.35
430.961	-32.78
431.173	34.45
431.384	50.34
431.596	-52.93
431.808	17.99
432.02	52.09
432.231	64.49
432.443	47.05
432.655	29.8
432.867	9.07
433.078	74.56
433.29	99.36
433.502	58.87
433.713	77.27
433.925	33.49
434.136	82.5
434.348	-5.07
434.56	-37.81
434.771	127.65
434.983	7.33
435.194	42.01
435.406	21.47
435.617	64.29
435.829	102.65
436.04	69.14
436.252	56.74
436.463	114.67
436.675	80.95
436.886	57.51
437.098	28.06
437.309	76.69
437.521	33.49
437.732	41.62
437.943	61.19
438.155	55.38
438.366	8.69
438.578	101.69
438.789	81.92
439	69.72
439.211	54.8
439.423	63.52
439.634	67.59
439.845	71.07
440.057	69.91
440.268	56.74
440.479	38.33
440.69	57.51
440.902	15.08
441.113	57.51
441.324	29.42
441.535	55.96
441.746	102.27
441.957	40.46
442.168	37.75
442.38	71.85
442.591	76.11
442.802	21.67
443.013	7.52
443.224	54.6
443.435	24.77
443.646	34.07
443.857	55.96
444.068	52.28
444.279	45.69
444.49	99.36
444.701	69.72
444.912	132.3
445.123	80.57
445.334	62.55
445.545	47.24
445.756	62.74
445.967	60.42
446.178	92.97
446.388	93.35
446.599	81.73
446.81	98.2
447.021	60.8
447.232	132.68
447.443	89.48
447.653	20.31
447.864	96.45
448.075	57.51
448.286	84.83
448.496	91.8
448.707	93.94
448.918	71.46
449.129	145.08
449.339	43.17
449.55	79.02
449.761	64.29
449.971	128.23
450.182	51.89
450.393	107.11
450.603	54.99
450.814	115.25
451.024	83.86
451.235	107.88
451.446	109.63
451.656	115.63
451.867	64.29
452.077	93.35
452.288	136.75
452.498	135.2
452.709	70.88
452.919	103.82
453.13	77.66
453.34	125.32
453.55	45.3
453.761	123.97
453.971	124.93
454.182	125.52
454.392	79.02
454.602	160
454.813	123.38
455.023	112.34
455.233	54.02
455.444	93.74
455.654	44.34
455.864	68.17
456.075	99.17
456.285	72.24
456.495	72.04
456.705	116.02
456.916	169.3
457.126	131.52
457.336	111.76
457.546	14.11
457.756	52.28
457.967	130.55
458.177	78.44
458.387	88.32
458.597	66.42
458.807	61.39
459.017	61.77
459.227	99.55
459.437	75.53
459.647	116.8
459.857	98
460.068	77.08
460.278	117.77
460.488	96.07
460.698	155.93
460.908	94.71
461.117	36.2
461.327	83.28
461.537	88.7
461.747	73.2
461.957	86.19
462.167	184.42
462.377	149.15
462.587	113.5
462.797	136.56
463.007	100.91
463.216	151.87
463.426	123
463.636	142.95
463.846	53.83
464.056	80.57
464.265	152.06
464.475	80.37
464.685	113.31
464.895	95.68
465.104	123
465.314	146.44
465.524	106.53
465.733	82.89
465.943	192.55
466.153	163.49
466.362	120.09
466.572	125.9
466.782	81.54
466.991	100.14
467.201	178.22
467.41	76.69
467.62	137.14
467.829	100.52
468.039	136.17
468.249	106.53
468.458	124.55
468.668	113.89
468.877	127.45
469.086	147.6
469.296	128.23
469.505	79.4
469.715	182.28
469.924	128.62
470.134	157.87
470.343	161.17
470.552	130.75
470.762	135.01
470.971	83.47
471.18	121.45
471.39	83.28
471.599	91.8
471.808	166.4
472.018	93.35
472.227	165.04
472.436	119.32
472.645	106.92
472.855	85.8
473.064	168.33
473.273	127.07
473.482	166.4
473.691	183.25
473.901	159.42
474.11	121.06
474.319	199.91
474.528	152.06
474.737	184.03
474.946	144.12
475.155	144.89
475.364	170.66
475.573	134.04
475.783	125.32
475.992	148.77
476.201	180.15
476.41	123
476.619	95.49
476.828	151.67
477.037	103.04
477.245	141.21
477.454	184.8
477.663	129.78
477.872	114.86
478.081	187.32
478.29	87.93
478.499	220.84
478.708	139.66
478.917	189.65
479.125	167.95
479.334	154.19
479.543	109.82
479.752	166.2
479.961	133.65
480.169	201.27
480.378	112.73
480.587	247.19
480.796	162.13
481.004	142.76
481.213	180.15
481.422	142.57
481.63	152.25
481.839	187.32
482.048	208.44
482.256	136.56
482.465	176.86
482.674	185.58
482.882	190.42
483.091	234.79
483.299	191.58
483.508	185.97
483.716	161.55
483.925	161.55
484.134	163.3
484.342	134.82
484.551	210.18
484.759	191.2
484.967	174.15
485.176	210.57
485.384	226.85
485.593	210.76
485.801	220.26
486.01	175.5
486.218	197.59
486.426	133.27
486.635	177.25
486.843	158.07
487.051	180.73
487.26	147.41
487.468	180.73
487.676	202.63
487.885	151.48
488.093	162.72
488.301	177.25
488.509	185.97
488.717	213.86
488.926	172.6
489.134	157.29
489.342	182.28
489.55	161.17
489.758	193.13
489.967	171.05
490.175	259.59
490.383	175.7
490.591	228.59
490.799	150.12
491.007	203.01
491.215	191
491.423	184.22
491.631	194.49
491.839	211.73
492.047	240.21
492.255	173.18
492.463	125.9
492.671	202.24
492.879	215.41
493.087	186.93
493.295	222.2
493.503	243.51
493.711	190.81
493.919	240.6
494.127	216.96
494.334	240.6
494.542	143.92
494.75	192.36
494.958	204.37
495.166	239.83
495.374	221.23
495.581	222.78
495.789	236.53
495.997	281.09
496.205	229.56
496.412	189.45
496.62	199.91
496.828	212.9
497.035	219.29
497.243	243.51
497.451	204.76
497.658	233.24
497.866	199.14
498.074	307.25
498.281	209.41
498.489	284.39
498.696	238.28
498.904	218.9
499.112	206.5
499.319	296.01
499.527	230.53
499.734	273.15
499.942	179.38
500.149	188.68
500.357	225.49
500.564	210.38
500.771	218.9
500.979	192.55
501.186	213.09
501.394	219.48
501.601	240.8
501.808	261.91
502.016	221.03
502.223	225.68
502.43	249.13
502.638	234.4
502.845	214.25
503.052	276.45
503.26	214.06
503.467	283.61
503.674	216.77
503.881	246.61
504.089	307.44
504.296	283.03
504.503	211.35
504.71	258.23
504.917	215.22
505.125	246.61
505.332	245.45
505.539	251.65
505.746	283.81
505.953	232.85
506.16	251.45
506.367	264.43
506.574	285.36
506.781	299.31
506.988	214.83
507.195	252.23
507.402	262.3
507.609	268.11
507.816	251.84
508.023	221.81
508.23	238.08
508.437	209.41
508.644	265.79
508.851	339.61
509.058	267.15
509.265	230.33
509.472	273.35
509.679	361.31
509.885	252.81
510.092	264.82
510.299	251.26
510.506	258.04
510.713	295.24
510.92	278.77
511.126	281.29
511.333	326.24
511.54	304.73
511.746	333.6
511.953	310.35
512.16	301.83
512.367	241.18
512.573	258.43
512.78	285.16
512.987	263.46
513.193	303.76
513.4	215.61
513.606	248.16
513.813	284.78
514.02	287.29
514.226	377.97
514.433	322.17
514.639	239.25
514.846	280.71
515.052	252.23
515.259	287.49
515.465	259.4
515.672	276.83
515.878	355.11
516.085	259.01
516.291	313.64
516.497	240.02
516.704	265.79
516.91	260.36
517.117	246.61
517.323	216
517.529	275.86
517.736	290.39
517.942	275.86
518.148	272.38
518.354	283.42
518.561	286.91
518.767	279.16
518.973	326.63
519.179	322.56
519.386	271.8
519.592	279.35
519.798	252.61
520.004	317.91
520.21	274.31
520.417	297.56
520.623	334.96
520.829	353.94
521.035	310.54
521.241	329.34
521.447	346.39
521.653	403.16
521.859	297.18
522.065	331.08
522.271	414.39
522.477	342.9
522.683	357.82
522.889	341.54
523.095	337.86
523.301	326.63
523.507	299.89
523.713	354.72
523.919	298.53
524.125	371.38
524.331	315.39
524.537	372.16
524.742	345.03
524.948	368.67
525.154	352.39
525.36	443.65
525.566	361.11
525.772	387.07
525.977	323.91
526.183	374.87
526.389	361.69
526.595	354.14
526.8	367.89
527.006	332.63
527.212	357.04
527.417	324.11
527.623	306.67
527.829	351.43
528.034	362.66
528.24	364.21
528.446	330.5
528.651	403.74
528.857	373.51
529.062	399.28
529.268	331.47
529.473	377.77
529.679	335.73
529.884	425.05
530.09	405.29
530.295	430.47
530.501	395.41
530.706	399.09
530.912	343.68
531.117	344.26
531.323	355.49
531.528	384.17
531.733	408.77
531.939	351.62
532.144	382.62
532.35	400.25
532.555	432.8
532.76	438.22
532.966	435.32
533.171	403.16
533.376	379.91
533.581	356.46
533.787	373.51
533.992	390.76
534.197	460.89
534.402	389.79
534.607	393.47
534.813	466.9
535.018	387.46
535.223	383.39
535.428	444.62
535.633	432.99
535.838	414.59
536.043	401.8
536.249	488.99
536.454	373.32
536.659	419.04
536.864	384.94
537.069	373.12
537.274	421.56
537.479	438.61
537.684	432.02
537.889	373.51
538.094	497.9
538.299	423.5
538.504	436.09
538.708	429.31
538.913	448.88
539.118	408.19
539.323	419.24
539.528	379.52
539.733	427.96
539.938	436.67
540.142	445.59
540.347	414.2
540.552	402.96
540.757	427.76
540.962	413.42
541.166	382.42
541.371	390.17
541.576	414.2
541.781	315.39
541.985	418.07
542.19	431.06
542.395	451.21
542.599	472.9
542.804	452.75
543.008	462.64
543.213	403.16
543.418	396.37
543.622	452.75
543.827	378.74
544.031	489.95
544.236	480.65
544.44	390.37
544.645	505.26
544.849	434.35
545.054	464.38
545.258	500.8
545.463	491.5
545.667	423.69
545.872	420.21
546.076	451.59
546.281	459.34
546.485	431.06
546.689	471.16
546.894	464.57
547.098	428.92
547.302	371.77
547.507	431.25
547.711	447.72
547.915	511.46
548.119	412.65
548.324	435.32
548.528	502.94
548.732	469.8
548.936	465.93
549.141	485.89
549.345	426.21
549.549	411.68
549.753	433.57
549.957	521.92
550.161	520.18
550.366	429.12
550.57	422.14
550.774	431.83
550.978	418.66
551.182	449.46
551.386	424.66
551.59	418.07
551.794	440.94
551.998	444.23
552.202	418.85
552.406	397.54
552.61	420.59
552.814	451.21
553.018	506.23
553.222	480.46
553.426	441.91
553.63	517.47
553.833	422.34
554.037	403.93
554.241	497.32
554.445	448.11
554.649	471.74
554.853	402.19
555.056	474.26
555.26	473.29
555.464	445.78
555.668	470.77
555.871	503.32
556.075	479.69
556.279	441.91
556.483	406.06
556.686	486.85
556.89	475.23
557.094	461.67
557.297	417.69
557.501	473.87
557.704	391.72
557.908	494.99
558.112	384.56
558.315	496.54
558.519	439.19
558.722	438.81
558.926	425.82
559.129	416.33
559.333	385.14
559.536	417.3
559.74	393.08
559.943	412.26
560.147	407.81
560.35	443.65
560.553	392.5
560.757	370.8
560.96	476.78
561.164	423.11
561.367	483.75
561.57	418.85
561.774	450.62
561.977	430.86
562.18	416.14
562.384	514.17
562.587	433.19
562.79	417.69
562.993	445.39
563.197	457.4
563.4	488.99
563.603	501.58
563.806	532.77
564.009	435.71
564.212	449.66
564.416	403.54
564.619	455.27
564.822	395.99
565.025	470.97
565.228	427.37
565.431	415.36
565.634	368.67
565.837	404.12
566.04	384.36
566.243	411.29
566.446	330.89
566.649	459.73
566.852	369.44
567.055	432.22
567.258	427.96
567.461	483.95
567.664	470.77
567.867	368.67
568.07	456.63
568.273	435.9
568.475	447.52
568.678	410.52
568.881	399.09
569.084	412.26
569.287	369.64
569.489	357.04
569.692	434.93
569.895	434.54
570.098	385.33
570.3	386.11
570.503	338.83
570.706	350.84
570.909	354.33
571.111	364.99
571.314	352.01
571.516	392.5
571.719	406.26
571.922	388.24
572.124	355.3
572.327	400.83
572.529	339.8
572.732	333.79
572.935	366.15
573.137	445.39
573.34	353.56
573.542	388.43
573.745	408
573.947	384.36
574.15	363.05
574.352	361.5
574.554	423.69
574.757	333.02
574.959	357.82
575.162	338.83
575.364	355.11
575.566	460.7
575.769	353.56
575.971	389.79
576.173	273.54
576.376	382.04
576.578	414.39
576.78	433.77
576.982	275.28
577.185	374.29
577.387	313.06
577.589	318.49
577.791	389.21
577.993	371.96
578.196	359.18
578.398	392.89
578.6	399.47
578.802	325.27
579.004	322.75
579.206	349.88
579.408	366.92
579.61	345.81
579.812	365.96
580.014	353.75
580.216	336.89
580.418	332.83
580.62	335.73
580.822	303.76
581.024	377
581.226	375.84
581.428	352.98
581.63	386.69
581.832	309.96
582.034	380.49
582.236	340.19
582.438	367.89
582.64	378.36
582.841	377.39
583.043	446.17
583.245	359.18
583.447	376.03
583.649	346.58
583.85	372.74
584.052	387.85
584.254	322.75
584.456	418.66
584.657	322.94
584.859	330.11
585.061	332.44
585.262	310.35
585.464	307.06
585.666	375.84
585.867	341.54
586.069	396.57
586.27	360.14
586.472	375.26
586.674	348.52
586.875	332.05
587.077	353.36
587.278	372.16
587.48	340.38
587.681	434.35
587.883	335.93
588.084	289.62
588.285	337.67
588.487	339.03
588.688	361.5
588.89	317.33
589.091	304.15
589.292	333.41
589.494	344.84
589.695	322.75
589.896	285.55
590.098	258.62
590.299	325.08
590.5	261.72
590.702	277.03
590.903	300.08
591.104	354.33
591.305	318.49
591.507	351.43
591.708	351.23
591.909	308.8
592.11	386.49
592.311	344.84
592.512	333.79
592.714	273.15
592.915	264.05
593.116	319.26
593.317	303.76
593.518	338.06
593.719	299.89
593.92	340.77
594.121	347.74
594.322	315.78
594.523	361.11
594.724	287.29
594.925	317.71
595.126	359.18
595.327	359.56
595.528	324.11
595.729	369.44
595.929	310.35
596.13	320.62
596.331	333.79
596.532	325.46
596.733	382.81
596.934	362.66
597.135	342.13
597.335	352.98
597.536	280.9
597.737	365.18
597.938	308.22
598.138	356.27
598.339	299.89
598.54	339.22
598.74	330.69
598.941	329.73
599.142	367.89
599.342	358.98
599.543	301.24
599.744	315
599.944	308.8
600.145	303.38
600.345	311.71
600.546	383.78
600.746	363.63
600.947	397.34
601.147	339.03
601.348	364.6
601.548	308.61
601.749	347.36
601.949	295.43
602.15	304.54
602.35	339.8
602.551	380.1
602.751	287.88
602.951	314.03
603.152	278.77
603.352	345.81
603.552	316.74
603.753	335.34
603.953	343.68
604.153	345.23
604.354	303.76
604.554	314.61
604.754	322.75
604.954	275.48
605.155	317.33
605.355	310.93
605.555	366.92
605.755	356.85
605.955	335.34
606.155	364.6
606.356	308.03
606.556	342.9
606.756	346
606.956	304.54
607.156	385.33
607.356	299.5
607.556	339.03
607.756	313.84
607.956	389.59
608.156	339.61
608.356	304.93
608.556	372.74
608.756	345.23
608.956	300.08
609.156	318.68
609.356	301.63
609.556	303.96
609.755	347.16
609.955	319.46
610.155	336.12
610.355	329.53
610.555	315.97
610.755	332.24
610.954	260.36
611.154	318.68
611.354	393.47
611.554	299.89
611.753	286.91
611.953	265.21
612.153	356.85
612.352	349.1
612.552	294.85
612.752	269.86
612.951	312.29
613.151	311.9
613.351	265.79
613.55	302.21
613.75	318.49
613.949	323.72
614.149	324.3
614.348	309.38
614.548	305.12
614.747	271.99
614.947	284.19
615.146	237.7
615.346	313.45
615.545	314.42
615.745	317.52
615.944	335.73
616.144	320.62
616.343	341.54
616.542	270.25
616.742	301.05
616.941	298.34
617.14	252.23
617.34	324.88
617.539	276.45
617.738	272.38
617.938	388.04
618.137	317.13
618.336	272.76
618.535	307.44
618.734	310.35
618.934	313.64
619.133	325.27
619.332	317.52
619.531	284.58
619.73	300.86
619.929	327.59
620.128	315.97
620.328	368.09
620.527	283.81
620.726	256.68
620.925	320.62
621.124	276.25
621.323	298.73
621.522	255.33
621.721	268.89
621.92	270.05
622.119	318.29
622.318	267.53
622.517	274.12
622.715	273.35
622.914	231.5
623.113	287.49
623.312	222.39
623.511	293.88
623.71	244.86
623.909	255.13
624.107	333.41
624.306	236.92
624.505	288.07
624.704	266.56
624.902	247
625.101	324.88
625.3	292.91
625.499	246.03
625.697	234.4
625.896	244.48
626.095	302.41
626.293	242.35
626.492	248.74
626.69	282.84
626.889	244.86
627.088	302.41
627.286	247.77
627.485	230.91
627.683	259.2
627.882	318.29
628.08	238.08
628.279	277.8
628.477	342.32
628.676	249.51
628.874	305.12
629.073	255.33
629.271	243.9
629.469	300.47
629.668	269.86
629.866	261.14
630.065	239.83
630.263	309.77
630.461	265.01
630.66	247.58
630.858	276.83
631.056	303.76
631.254	308.41
631.453	250.29
631.651	290.98
631.849	278.38
632.047	268.11
632.245	254.75
632.444	258.81
632.642	283.03
632.84	271.8
633.038	253.39
633.236	211.93
633.434	218.9
633.632	225.49
633.83	213.28
634.028	309.96
634.227	270.44
634.425	330.89
634.623	252.03
634.821	262.11
635.019	238.86
635.216	202.43
635.414	288.07
635.612	247
635.81	220.84
636.008	308.22
636.206	256.1
636.404	270.25
636.602	242.54
636.8	257.65
636.997	266.18
637.195	291.94
637.393	246.61
637.591	304.15
637.789	275.09
637.986	224.13
638.184	293.3
638.382	300.86
638.58	283.42
638.777	302.21
638.975	293.69
639.173	252.23
639.37	273.54
639.568	298.14
639.765	310.54
639.963	262.5
640.161	308.41
640.358	321.78
640.556	240.99
640.753	244.86
640.951	201.85
641.148	285.36
641.346	269.66
641.543	260.75
641.741	280.13
641.938	265.21
642.136	259.98
642.333	216
642.531	301.24
642.728	315.39
642.925	285.36
643.123	260.56
643.32	266.95
643.517	249.13
643.715	266.37
643.912	234.4
644.109	254.94
644.306	254.94
644.504	222.78
644.701	279.16
644.898	284.39
645.095	238.08
645.293	280.51
645.49	289.43
645.687	277.22
645.884	287.29
646.081	213.86
646.278	231.3
646.475	244.67
646.672	241.76
646.87	276.06
647.067	246.61
647.264	253.2
647.461	198.95
647.658	221.03
647.855	298.34
648.052	236.53
648.249	176.86
648.446	242.35
648.642	201.46
648.839	217.16
649.036	237.11
649.233	200.11
649.43	210.38
649.627	189.84
649.824	222.58
650.021	205.53
650.217	213.09
650.414	204.37
650.611	235.95
650.808	238.86
651.004	228.78
651.201	267.73
651.398	262.88
651.595	245.64
651.791	224.91
651.988	245.83
652.185	208.05
652.381	247.38
652.578	196.62
652.775	229.75
652.971	234.4
653.168	229.56
653.364	265.01
653.561	163.49
653.757	201.85
653.954	253.2
654.15	212.9
654.347	294.46
654.543	191.58
654.74	209.02
654.936	193.33
655.133	227.43
655.329	237.31
655.525	222.97
655.722	245.83
655.918	195.65
656.115	269.28
656.311	195.46
656.507	158.65
656.704	152.83
656.9	184.61
657.096	171.43
657.292	165.04
657.489	212.9
657.685	227.62
657.881	180.73
658.077	197.2
658.273	208.05
658.47	258.04
658.666	198.56
658.862	216.77
659.058	178.02
659.254	245.45
659.45	193.71
659.646	199.72
659.842	206.11
660.038	258.04
660.234	187.13
660.43	189.84
660.626	248.55
660.822	254.16
661.018	260.36
661.214	223.36
661.41	159.81
661.606	240.99
661.802	239.25
661.998	208.25
662.194	182.09
662.39	226.65
662.586	229.36
662.781	226.65
662.977	218.9
663.173	238.28
663.369	223.94
663.564	217.16
663.76	247.19
663.956	218.71
664.152	277.03
664.347	152.06
664.543	230.53
664.739	191.58
664.934	188.68
665.13	129.58
665.326	236.53
665.521	233.05
665.717	168.53
665.912	186.16
666.108	116.41
666.304	216
666.499	198.56
666.695	136.37
666.89	210.38
667.086	219.87
667.281	202.82
667.477	268.7
667.672	214.06
667.867	193.33
668.063	198.95
668.258	166.59
668.454	202.24
668.649	290.59
668.844	196.81
669.04	214.64
669.235	219.29
669.43	175.12
669.626	171.05
669.821	168.14
670.016	168.92
670.211	186.93
670.407	170.27
670.602	210.38
670.797	197.78
670.992	248.74
671.187	168.14
671.382	233.82
671.578	204.95
671.773	232.85
671.968	148.18
672.163	207.28
672.358	228.01
672.553	185.19
672.748	181.9
672.943	267.73
673.138	180.35
673.333	224.91
673.528	164.46
673.723	214.06
673.918	202.24
674.113	175.31
674.308	292.33
674.503	215.61
674.698	218.9
674.892	205.53
675.087	231.11
675.282	244.86
675.477	174.53
675.672	208.63
675.867	169.11
676.061	147.02
676.256	155.55
676.451	177.25
676.646	204.56
676.84	177.83
677.035	164.27
677.23	147.6
677.424	235.18
677.619	201.66
677.814	232.46
678.008	232.27
678.203	134.43
678.397	160.2
678.592	186.93
678.787	232.46
678.981	183.64
679.176	196.23
679.37	188.87
679.565	169.11
679.759	165.62
679.954	203.21
680.148	257.65
680.342	226.46
680.537	201.66
680.731	192.75
680.926	211.15
681.12	222.39
681.314	169.3
681.509	181.51
681.703	214.83
681.897	232.46
682.092	166.78
682.286	156.13
682.48	234.79
682.674	215.8
682.869	183.83
683.063	187.32
683.257	255.71
683.451	159.81
683.645	182.87
683.839	198.75
684.034	173.76
684.228	253.58
684.422	143.34
684.616	139.27
684.81	219.48
685.004	174.73
685.198	147.6
685.392	249.51
685.586	145.67
685.78	211.93
685.974	202.24
686.168	210.18
686.362	222.58
686.556	174.34
686.75	145.08
686.944	182.48
687.138	236.73
687.331	137.14
687.525	188.48
687.719	120.28
687.913	174.73
688.107	185.38
688.301	143.92
688.494	209.6
688.688	144.7
688.882	123.77
689.076	110.21
689.269	116.02
689.463	209.6
689.657	156.9
689.85	166.01
690.044	163.68
690.238	157.48
690.431	126.68
690.625	155.35
690.818	152.83
691.012	162.52
691.205	191
691.399	119.12
691.593	175.89
691.786	225.88
691.98	187.9
692.173	229.17
692.366	208.25
692.56	226.07
692.753	248.55
692.947	159.42
693.14	234.98
693.333	256.88
693.527	153.22
693.72	189.45
693.914	166.98
694.107	202.43
694.3	180.15
694.493	184.42
694.687	229.36
694.88	161.55
695.073	244.28
695.266	216.58
695.46	211.73
695.653	243.12
695.846	250.29
696.039	110.21
696.232	187.52
696.425	204.18
696.618	210.76
696.812	185.97
697.005	235.76
697.198	284.97
697.391	234.98
697.584	240.21
697.777	308.61
697.97	250.29
698.163	237.7
698.356	239.25
698.549	305.89
698.742	255.13
698.935	209.6
699.127	264.82
699.32	230.91
699.513	245.06
699.706	253
699.899	269.08
700.092	247.38
700.285	288.07
700.477	220.06
700.67	284.58
700.863	291.36
701.056	360.92
701.248	323.14
701.441	319.26
701.634	280.9
701.826	355.3
702.019	260.95
702.212	351.81
702.404	278.58
702.597	223.75
702.79	241.76
702.982	304.34
703.175	335.54
703.367	329.14
703.56	333.99
703.752	390.95
703.945	316.55
704.137	342.51
704.33	355.49
704.522	333.21
704.715	336.31
704.907	353.56
705.1	377.77
705.292	383.97
705.484	323.53
705.677	357.43
705.869	345.61
706.061	363.24
706.254	400.64
706.446	376.42
706.638	364.41
706.831	414.78
707.023	365.18
707.215	423.5
707.407	382.04
707.599	392.5
707.792	423.5
707.984	395.02
708.176	433.57
708.368	385.72
708.56	410.32
708.752	380.68
708.944	386.88
709.136	423.69
709.329	391.14
709.521	522.5
709.713	476.97
709.905	439
710.097	482.98
710.289	428.92
710.481	418.46
710.672	473.1
710.864	440.74
711.056	496.35
711.248	476
711.44	471.55
711.632	456.05
711.824	485.5
712.016	541.1
712.207	525.41
712.399	498.48
712.591	580.82
712.783	531.22
712.975	550.6
713.166	489.18
713.358	519.99
713.55	575.98
713.741	545.75
713.933	517.66
714.125	553.7
714.316	511.65
714.508	569.39
714.7	589.15
714.891	594
715.083	616.08
715.274	572.1
715.466	566.1
715.657	585.86
715.849	508.17
716.04	557.96
716.232	505.65
716.423	642.63
716.615	547.88
716.806	554.47
716.998	553.89
717.189	517.66
717.381	471.16
717.572	484.53
717.763	538.59
717.955	527.15
718.146	517.85
718.337	487.82
718.528	464.38
718.72	407.61
718.911	499.84
719.102	466.12
719.293	516.11
719.485	488.79
719.676	477.17
719.867	426.02
720.058	446.94
720.249	459.73
720.44	460.89
720.632	467.09
720.823	506.62
721.014	553.89
721.205	532.58
721.396	538.39
721.587	590.7
721.778	564.35
721.969	586.83
722.16	615.31
722.351	547.3
722.542	659.29
722.733	678.66
722.924	604.07
723.115	637.98
723.305	683.9
723.496	691.84
723.687	599.42
723.878	634.68
724.069	612.98
724.26	624.42
724.45	612.4
724.641	595.35
724.832	608.53
725.023	600.39
725.213	586.83
725.404	590.32
725.595	632.94
725.785	574.43
725.976	635.65
726.167	617.83
726.357	633.52
726.548	708.11
726.739	653.86
726.929	683.9
727.12	654.45
727.31	708.11
727.501	639.72
727.691	694.75
727.882	676.15
728.072	692.23
728.263	672.66
728.453	702.88
728.644	712.18
728.834	707.92
729.024	695.33
729.215	668.98
729.405	725.94
729.596	785.61
729.786	763.91
729.976	753.84
730.167	776.7
730.357	710.05
730.547	739.69
730.737	767.4
730.928	798.4
731.118	835.21
731.308	765.27
731.498	771.28
731.688	834.05
731.879	780.19
732.069	831.92
732.259	837.34
732.449	846.06
732.639	877.06
732.829	888.11
733.019	873.96
733.209	934.6
733.399	934.22
733.589	934.22
733.779	943.71
733.969	930.15
734.159	945.65
734.349	1019.27
734.539	1017.72
734.729	1003.97
734.919	1052.21
735.109	1042.91
735.299	1014.82
735.488	1034.58
735.678	1016.95
735.868	1047.95
736.058	1064.8
736.248	1002.03
736.437	995.05
736.627	990.21
736.817	1099.29
737.007	1062.28
737.196	1093.28
737.386	1039.23
737.576	1037.1
737.765	1064.41
737.955	1036.13
738.144	1113.63
738.334	1097.74
738.524	1052.21
738.713	1080.88
738.903	1078.36
739.092	1111.11
739.282	1109.17
739.471	1114.98
739.661	1069.45
739.85	1128.55
740.04	1165.16
740.229	1154.51
740.419	1159.35
740.608	1174.08
740.797	1166.71
740.987	1196.36
741.176	1174.46
741.365	1126.61
741.555	1118.47
741.744	1188.99
741.933	1196.94
742.123	1181.63
742.312	1243.82
742.501	1227.36
742.69	1252.35
742.88	1177.56
743.069	1257.97
743.258	1154.51
743.447	1283.16
743.636	1241.11
743.825	1204.69
744.014	1212.24
744.204	1264.36
744.393	1191.13
744.582	1238.4
744.771	1294.39
744.96	1252.35
745.149	1271.72
745.338	1196.36
745.527	1246.54
745.716	1250.22
745.905	1214.38
746.094	1265.52
746.283	1273.08
746.471	1284.12
746.66	1342.64
746.849	1268.62
747.038	1321.91
747.227	1255.64
747.416	1319
747.604	1249.25
747.793	1230.65
747.982	1280.64
748.171	1266.88
748.359	1325.78
748.548	1311.44
748.737	1267.85
748.926	1248.09
749.114	1223.87
749.303	1273.08
749.491	1290.91
749.68	1204.49
749.869	1320.16
750.057	1264.75
750.246	1209.92
750.434	1251.77
750.623	1266.11
750.811	1267.66
751	1317.45
751.188	1283.35
751.377	1290.32
751.565	1292.07
751.754	1224.06
751.942	1265.14
752.131	1307.96
752.319	1249.64
752.507	1218.25
752.696	1287.22
752.884	1306.6
753.072	1269.79
753.261	1225.03
753.449	1281.41
753.637	1228.33
753.825	1325.78
754.014	1264.75
754.202	1256.61
754.39	1309.51
754.578	1305.05
754.766	1240.72
754.955	1225.42
755.143	1331.79
755.331	1266.3
755.519	1253.9
755.707	1269.01
755.895	1272.31
756.083	1264.56
756.271	1202.94
756.459	1276.96
756.647	1295.56
756.835	1269.4
757.023	1227.74
757.211	1259.13
757.399	1266.3
757.587	1247.51
757.775	1225.42
757.963	1247.89
758.151	1250.61
758.339	1223.48
758.526	1257.97
758.714	1237.04
758.902	1214.18
759.09	1168.84
759.278	1090.57
759.465	1037.1
759.653	873.77
759.841	877.84
760.028	717.61
760.216	604.85
760.404	629.65
760.591	493.83
760.779	398.51
760.967	399.86
761.154	272.96
761.342	352.39
761.529	314.42
761.717	359.37
761.905	288.07
762.092	302.99
762.28	284.19
762.467	316.74
762.655	250.87
762.842	283.42
763.029	302.79
763.217	332.24
763.404	317.13
763.592	342.32
763.779	292.91
763.966	341.54
764.154	323.53
764.341	372.54
764.528	365.37
764.716	391.72
764.903	402.19
765.09	402.77
765.277	457.02
765.465	539.55
765.652	529.29
765.839	555.44
766.026	610.08
766.213	629.26
766.4	648.05
766.588	756.55
766.775	721.48
766.962	778.25
767.149	770.5
767.336	875.9
767.523	791.04
767.71	885.2
767.897	927.63
768.084	998.73
768.271	952.04
768.458	1031.87
768.645	1057.83
768.832	976.65
769.019	1001.25
769.206	1024.89
769.392	1097.74
769.579	1140.75
769.766	1092.7
769.953	1080.11
770.14	1140.95
770.327	1108.78
770.513	1160.71
770.7	1179.31
770.887	1111.88
771.073	1179.69
771.26	1120.41
771.447	1084.95
771.634	1112.27
771.82	1204.88
772.007	1083.01
772.193	1112.27
772.38	1162.45
772.567	1175.43
772.753	1160.9
772.94	1187.25
773.126	1179.69
773.313	1174.66
773.499	1196.55
773.686	1161.87
773.872	1147.15
774.059	1192.29
774.245	1127.19
774.432	1124.86
774.618	1100.65
774.804	1144.43
774.991	1108.4
775.177	1154.51
775.363	1116.92
775.55	1189.19
775.736	1114.98
775.922	1094.06
776.109	1131.26
776.295	1124.67
776.481	1093.09
776.667	1164
776.853	1102.78
777.04	1099.87
777.226	1120.41
777.412	1188.03
777.598	1110.33
777.784	1075.07
777.97	1104.91
778.156	1130.48
778.342	1094.25
778.528	1104.33
778.715	1072.55
778.901	1104.71
779.087	1114.4
779.272	1087.08
779.458	1095.22
779.644	1125.64
779.83	1072.75
780.016	1150.63
780.202	1089.99
780.388	1065.38
780.574	1064.41
780.76	1070.23
780.946	1102.78
781.131	1071
781.317	1066.74
781.503	1030.9
781.689	1037.48
781.874	1152.18
782.06	1067.13
782.246	1067.71
782.432	1075.65
782.617	1080.69
782.803	1098.13
782.989	978.58
783.174	1070.81
783.36	1002.03
783.545	1067.13
783.731	1056.08
783.916	990.21
784.102	1074.68
784.288	1029.35
784.473	1049.88
784.659	1043.88
784.844	1082.82
785.029	1006.29
785.215	1000.28
785.4	1004.93
785.586	1067.13
785.771	1004.35
785.956	1064.41
786.142	1029.54
786.327	1009.2
786.512	1035.35
786.698	1009.2
786.883	994.28
787.068	985.37
787.254	989.24
787.439	976.26
787.624	1015.59
787.809	956.11
787.994	957.47
788.18	1010.94
788.365	957.27
788.55	950.69
788.735	948.17
788.92	949.52
789.105	970.64
789.29	997.77
789.475	964.25
789.66	971.61
789.845	952.43
790.03	940.8
790.215	999.9
790.4	996.22
790.585	1027.8
790.77	946.23
790.955	909.42
791.14	975.1
791.325	1001.25
791.51	873.77
791.695	920.07
791.879	931.89
792.064	869.51
792.249	994.08
792.434	949.14
792.618	945.07
792.803	954.17
792.988	918.91
793.173	934.22
793.357	979.75
793.542	875.51
793.727	923.37
793.911	940.22
794.096	900.12
794.281	919.69
794.465	1023.92
794.65	967.15
794.834	921.04
795.019	991.76
795.203	984.4
795.388	969.67
795.572	1003.38
795.757	934.8
795.941	941.77
796.126	965.02
796.31	903.02
796.494	958.24
796.679	956.11
796.863	920.46
797.048	972
797.232	1015.01
797.416	916.97
797.601	935.57
797.785	997.96
797.969	980.13
798.153	935.38
798.338	960.95
798.522	979.75
798.706	932.86
798.89	972.19
799.074	1053.37
799.258	993.12
799.443	971.8
799.627	954.17
799.811	999.51
799.995	987.88
800.179	934.02
800.363	956.89
800.547	964.83
800.731	992.92
800.915	913.1
801.099	960.57
801.283	946.42
801.467	972.77
801.651	931.7
801.835	1013.46
802.019	972.39
802.202	976.07
802.386	904.77
802.57	939.45
802.754	928.02
802.938	942.94
803.121	932.86
803.305	983.04
803.489	944.87
803.673	984.78
803.856	964.83
804.04	952.04
804.224	983.23
804.407	951.46
804.591	928.02
804.775	959.99
804.958	951.07
805.142	1045.23
805.326	965.02
805.509	949.91
805.693	985.75
805.876	1015.78
806.06	960.76
806.243	967.93
806.427	1014.04
806.61	987.11
806.794	941.39
806.977	984.98
807.16	954.95
807.344	1023.15
807.527	994.86
807.71	923.17
807.894	973.94
808.077	996.6
808.26	918.91
808.444	962.12
808.627	997.96
808.81	960.76
808.993	883.26
809.177	929.18
809.36	972.77
809.543	975.87
809.726	882.29
809.909	889.46
810.092	883.26
810.276	904.57
810.459	943.9
810.642	892.56
810.825	874.93
811.008	881.32
811.191	817.77
811.374	837.15
811.557	872.99
811.74	943.32
811.923	829.01
812.106	816.81
812.289	778.64
812.472	821.46
812.654	886.94
812.837	817.77
813.02	793.17
813.203	814.87
813.386	750.35
813.569	742.6
813.751	707.34
813.934	787.55
814.117	751.13
814.3	709.47
814.482	719.16
814.665	738.73
814.848	689.71
815.03	669.56
815.213	650.76
815.396	672.66
815.578	679.25
815.761	584.5
815.943	688.74
816.126	617.44
816.309	608.92
816.491	584.7
816.674	551.18
816.856	574.43
817.039	588.77
817.221	644.18
817.403	567.84
817.586	605.62
817.768	613.76
817.951	553.12
818.133	548.08
818.315	563.77
818.498	621.9
818.68	645.73
818.862	606.2
819.045	641.85
819.227	637.59
819.409	612.4
819.591	635.26
819.774	589.54
819.956	585.47
820.138	650.96
820.32	637.98
820.502	636.62
820.684	663.16
820.866	638.75
821.048	671.88
821.231	682.54
821.413	651.93
821.595	656.77
821.777	656.38
821.959	656.58
822.141	711.02
822.323	636.81
822.505	626.16
822.686	625.19
822.868	648.25
823.05	551.37
823.232	555.44
823.414	519.4
823.596	553.89
823.778	524.44
823.96	558.35
824.141	524.64
824.323	548.85
824.505	551.95
824.687	596.32
824.868	578.3
825.05	664.71
825.232	680.21
825.413	725.55
825.595	687.96
825.777	628.48
825.958	639.14
826.14	649.99
826.321	690.1
826.503	686.61
826.685	695.91
826.866	709.86
827.048	710.05
827.229	629.45
827.411	642.05
827.592	630.03
827.773	605.82
827.955	583.15
828.136	627.32
828.318	593.42
828.499	611.43
828.68	560.87
828.862	600.78
829.043	649.6
829.224	644.76
829.406	587.22
829.587	546.14
829.768	579.66
829.949	625.58
830.131	581.02
830.312	649.21
830.493	603.3
830.674	622.28
830.855	608.92
831.036	585.86
831.218	613.37
831.399	664.33
831.58	629.26
831.761	582.95
831.942	621.7
832.123	580.24
832.304	549.63
832.485	574.04
832.666	587.41
832.847	589.54
833.028	612.98
833.209	596.32
833.389	586.05
833.57	554.67
833.751	581.4
833.932	625.97
834.113	586.44
834.294	578.5
834.475	630.81
834.655	642.43
834.836	647.28
835.017	630.23
835.198	555.05
835.378	619.77
835.559	621.7
835.74	595.55
835.92	586.83
836.101	592.45
836.281	635.26
836.462	580.24
836.643	625
836.823	652.31
837.004	647.86
837.184	670.53
837.365	629.45
837.545	676.92
837.726	613.76
837.906	673.24
838.087	619.38
838.267	627.71
838.448	600.2
838.628	607.95
838.808	608.33
838.989	673.43
839.169	586.63
839.349	643.4
839.53	631
839.71	629.65
839.89	604.65
840.07	691.26
840.251	603.68
840.431	643.79
840.611	648.05
840.791	585.28
840.971	624.61
841.151	625.77
841.332	605.43
841.512	645.34
841.692	592.45
841.872	627.51
842.052	587.41
842.232	651.54
842.412	576.17
842.592	568.81
842.772	610.85
842.952	620.15
843.132	613.95
843.312	627.32
843.492	578.5
843.672	612.4
843.851	572.1
844.031	628.1
844.211	618.22
844.391	559.7
844.571	615.7
844.751	637.01
844.93	627.71
845.11	570.75
845.29	588.77
845.47	611.05
845.649	614.34
845.829	632.55
846.009	557.57
846.188	606.4
846.368	600.97
846.547	590.32
846.727	608.53
846.907	566.48
847.086	615.31
847.266	622.28
847.445	598.65
847.625	586.83
847.804	575.01
847.984	613.57
848.163	572.1
848.343	582.57
848.522	578.3
848.701	596.71
848.881	553.7
849.06	597.29
849.239	607.17
849.419	622.87
849.598	555.25
849.777	548.47
849.957	596.13
850.136	513.79
850.315	536.65
850.494	535.1
850.674	523.47
850.853	594.58
851.032	542.46
851.211	623.45
851.39	555.83
851.569	526.96
851.748	520.18
851.927	569.2
852.107	541.1
852.286	484.72
852.465	472.9
852.644	559.12
852.823	552.53
853.002	520.95
853.181	541.49
853.359	552.15
853.538	507.2
853.717	624.22
853.896	488.4
854.075	494.6
854.254	508.36
854.433	465.74
854.611	531.03
854.79	462.25
854.969	504.68
855.148	482.59
855.327	460.5
855.505	477.17
855.684	476.2
855.863	499.45
856.041	430.09
856.22	489.37
856.399	447.52
856.577	523.86
856.756	517.08
856.934	613.57
857.113	609.5
857.291	557.38
857.47	528.51
857.648	493.64
857.827	533.16
858.005	569.97
858.184	497.32
858.362	595.55
858.541	504.68
858.719	538
858.898	483.17
859.076	494.99
859.254	554.47
859.433	513.59
859.611	509.52
859.789	459.54
859.967	571.13
860.146	597.68
860.324	460.5
860.502	509.72
860.68	468.06
860.859	473.1
861.037	503.9
861.215	522.12
861.393	489.37
861.571	502.74
861.749	451.79
861.927	536.45
862.105	506.81
862.283	509.33
862.461	466.51
862.639	438.81
862.817	474.07
862.995	489.18
863.173	469.61
863.351	451.79
863.529	482.79
863.707	530.64
863.885	469.22
864.063	412.65
864.241	466.51
864.418	506.81
864.596	477.75
864.774	450.62
864.952	480.27
865.129	494.8
865.307	467.48
865.485	432.22
865.663	508.36
865.84	433.96
866.018	479.69
866.196	376.61
866.373	422.72
866.551	404.51
866.728	400.44
866.906	406.06
867.084	419.62
867.261	452.95
867.439	463.8
867.616	454.5
867.794	452.37
867.971	429.89
868.149	428.54
868.326	498.48
868.503	450.43
868.681	432.22
868.858	417.69
869.035	396.18
869.213	447.52
869.39	432.61
869.567	491.89
869.745	422.72
869.922	475.04
870.099	466.7
870.276	454.69
870.454	461.67
870.631	475.04
870.808	439.97
870.985	465.54
871.162	500.61
871.339	453.14
871.517	413.62
871.694	392.89
871.871	445.2
872.048	435.32
872.225	435.32
872.402	467.87
872.579	369.25
872.756	445.97
872.933	375.26
873.11	407.61
873.287	425.05
873.463	411.68
873.64	410.13
873.817	438.61
873.994	411.68
874.171	415.75
874.348	430.86
874.524	351.81
874.701	434.54
874.878	390.37
875.055	436.48
875.231	443.46
875.408	436.87
875.585	374.87
875.762	425.82
875.938	423.31
876.115	376.61
876.291	416.14
876.468	414.59
876.645	367.31
876.821	399.67
876.998	384.94
877.174	408.58
877.351	390.76
877.527	383.97
877.704	392.31
877.88	413.23
878.057	392.5
878.233	452.75
878.409	385.52
878.586	436.67
878.762	374.29
878.938	354.53
879.115	324.49
879.291	386.11
879.467	334.18
879.644	358.79
879.82	382.62
879.996	355.3
880.172	326.82
880.349	362.28
880.525	401.61
880.701	336.7
880.877	376.22
881.053	374.29
881.229	377.19
881.405	413.42
881.581	351.23
881.757	373.32
881.933	378.36
882.109	410.91
882.285	371.19
882.461	329.53
882.637	366.92
882.813	343.48
882.989	343.29
883.165	416.14
883.341	347.16
883.517	377.77
883.693	362.47
883.869	367.7
884.044	330.89
884.22	385.14
884.396	393.66
884.572	405.29
884.747	386.88
884.923	396.37
885.099	406.45
885.275	440.74
885.45	356.85
885.626	334.57
885.801	359.95
885.977	376.42
886.153	341.74
886.328	381.84
886.504	352.59
886.679	395.99
886.855	358.4
887.03	404.71
887.206	377.77
887.381	365.18
887.557	398.31
887.732	385.72
887.908	399.28
888.083	414.2
888.258	344.64
888.434	346.19
888.609	397.92
888.784	419.82
888.96	344.26
889.135	346.97
889.31	299.69
889.485	369.64
889.661	321.98
889.836	388.62
890.011	383.59
890.186	366.92
890.361	342.13
890.537	364.41
890.712	364.6
890.887	370.02
891.062	361.69
891.237	405.29
891.412	328.56
891.587	372.74
891.762	356.27
891.937	400.44
892.112	317.52
892.287	354.72
892.462	320.62
892.637	308.22
892.812	302.41
892.987	319.26
893.161	314.42
893.336	315.78
893.511	349.88
893.686	321.98
893.861	343.09
894.035	344.26
894.21	329.14
894.385	284
894.56	340.38
894.734	282.26
894.909	320.23
895.084	315.19
895.258	289.62
895.433	342.13
895.608	327.4
895.782	303.38
895.957	294.08
896.131	309.77
896.306	267.92
896.48	274.51
896.655	270.63
896.829	240.99
897.004	243.51
897.178	254.16
897.353	224.52
897.527	267.34
897.701	251.06
897.876	211.54
898.05	262.69
898.224	268.11
898.399	293.88
898.573	271.8
898.747	178.6
898.921	286.91
899.096	171.43
899.27	194.49
899.444	197.59
899.618	187.9
899.792	201.66
899.967	190.23
900.141	227.04
900.315	187.13
900.489	206.31
900.663	246.41
900.837	224.52
901.011	165.82
901.185	292.14
901.359	211.93
901.533	236.15
901.707	237.11
901.881	240.8
902.055	184.22
902.229	208.05
902.403	264.24
902.576	215.61
902.75	239.63
902.924	325.66
903.098	222.58
903.272	295.24
903.446	270.83
903.619	263.46
903.793	250.48
903.967	235.37
904.14	299.11
904.314	299.89
904.488	276.45
904.661	302.99
904.835	263.08
905.009	306.28
905.182	329.34
905.356	280.51
905.529	312.09
905.703	265.79
905.876	259.4
906.05	236.15
906.223	241.76
906.397	174.92
906.57	238.66
906.744	202.24
906.917	221.81
907.09	223.55
907.264	215.03
907.437	189.45
907.61	164.65
907.784	191.78
907.957	223.36
908.13	169.69
908.304	244.28
908.477	217.16
908.65	202.82
908.823	140.82
908.996	262.88
909.17	230.72
909.343	188.1
909.516	206.31
909.689	198.75
909.862	180.73
910.035	213.67
910.208	187.71
910.381	168.92
910.554	294.66
910.727	186.93
910.9	185.77
911.073	166.4
911.246	240.99
911.419	226.07
911.592	200.5
911.765	182.09
911.938	175.7
912.11	178.99
912.283	198.56
912.456	226.26
912.629	212.9
912.802	187.71
912.974	166.78
913.147	135.78
913.32	141.98
913.493	185.19
913.665	175.31
913.838	195.07
914.01	160
914.183	144.5
914.356	137.33
914.528	178.02
914.701	204.56
914.873	215.22
915.046	166.98
915.218	152.83
915.391	95.87
915.563	130.36
915.736	162.91
915.908	200.3
916.081	161.94
916.253	152.64
916.425	141.79
916.598	172.21
916.77	162.33
916.942	136.95
917.115	100.91
917.287	195.26
917.459	192.36
917.632	125.32
917.804	91.22
917.976	129
918.148	165.23
918.32	120.09
918.493	157.87
918.665	204.37
918.837	187.9
919.009	210.38
919.181	185
919.353	154.97
919.525	155.93
919.697	160.39
919.869	178.99
920.041	181.32
920.213	267.53
920.385	197.2
920.557	139.27
920.729	204.56
920.901	179.18
921.073	147.02
921.244	150.51
921.416	209.8
921.588	173.95
921.76	143.34
921.932	216.77
922.103	154.97
922.275	152.25
922.447	145.47
922.619	114.47
922.79	169.3
922.962	130.75
923.134	195.85
923.305	139.85
923.477	143.34
923.648	108.27
923.82	144.5
923.991	106.14
924.163	102.46
924.335	123.19
924.506	106.92
924.677	206.5
924.849	103.62
925.02	161.94
925.192	163.3
925.363	138.3
925.535	147.22
925.706	148.18
925.877	173.37
926.049	123.38
926.22	147.02
926.391	165.82
926.562	178.8
926.734	104.4
926.905	153.22
927.076	89.29
927.247	136.75
927.419	122.61
927.59	114.86
927.761	145.86
927.932	128.81
928.103	145.08
928.274	113.7
928.445	93.35
928.616	133.65
928.787	138.88
928.958	153.8
929.129	109.63
929.3	96.65
929.471	98.59
929.642	65.45
929.813	15.08
929.984	97.42
930.155	42.59
930.326	100.52
930.496	61.77
930.667	-0.81
930.838	69.91
931.009	19.34
931.18	89.67
931.35	58.29
931.521	54.22
931.692	23.8
931.863	-15.73
932.033	65.65
932.204	77.85
932.374	75.92
932.545	24.19
932.716	58.29
932.886	80.37
933.057	-21.54
933.227	37.55
933.398	137.72
933.568	20.89
933.739	-15.34
933.909	5.59
934.08	70.88
934.25	-28.9
934.421	-1.39
934.591	30.77
934.761	-17.47
934.932	-16.69
935.102	14.5
935.272	4.42
935.443	-10.3
935.613	-3.71
935.783	4.23
935.953	-30.26
936.123	135.98
936.294	-15.34
936.464	-13.59
936.634	42.2
936.804	-29.68
936.974	-20.18
937.144	28.06
937.314	15.08
937.484	-9.33
937.655	-22.31
937.825	51.31
937.995	-26.96
938.165	65.26
938.334	3.07
938.504	33.68
938.674	-27.16
938.844	9.85
939.014	56.15
939.184	-1.58
939.354	75.72
939.524	41.04
939.694	11.21
939.863	23.22
940.033	92.19
940.203	76.11
940.373	45.89
940.542	74.17
940.712	16.05
940.882	57.32
941.051	61.19
941.221	61.39
941.391	67.59
941.56	21.67
941.73	-3.91
941.899	135.78
942.069	3.46
942.238	39.88
942.408	23.99
942.577	55.38
942.747	22.64
942.916	5.59
943.086	-20.76
943.255	45.11
943.425	13.72
943.594	2.68
943.763	-28.13
943.933	-9.33
944.102	-19.02
944.271	15.08
944.441	15.27
944.61	8.88
944.779	20.89
944.948	95.87
945.117	-28.32
945.287	8.3
945.456	-23.67
945.625	-14.18
945.794	35.04
945.963	9.85
946.132	36.39
946.301	-2.55
946.47	44.92
946.639	-38.78
946.808	-21.34
946.977	28.45
947.146	58.29
947.315	3.07
947.484	28.06
947.653	4.62
947.822	-23.48
947.991	-18.24
948.16	108.08
948.329	50.92
948.498	-23.09
948.666	33.1
948.835	40.46
949.004	-37.23
949.173	-42.27
949.341	33.29
949.51	37.75
949.679	71.65
949.847	45.3
950.016	81.54
950.185	66.62
950.353	-11.85
950.522	8.49
950.69	35.23
950.859	-12.82
951.028	45.5
951.196	31.16
951.365	9.27
951.533	29.03
951.701	37.17
951.87	60.61
952.038	-13.01
952.207	24.38
952.375	84.05
952.543	5.2
952.712	8.11
952.88	1.52
953.048	83.28
953.217	20.12
953.385	-3.71
953.553	82.7
953.721	-13.01
953.89	12.56
954.058	-8.17
954.226	25.15
954.394	22.25
954.562	-11.27
954.73	27.48
954.898	-24.06
955.067	42.4
955.235	-0.42
955.403	68.17
955.571	122.42
955.739	32.9
955.907	7.14
956.075	-3.13
956.243	-16.89
956.41	47.82
956.578	-47.5
956.746	-22.89
956.914	-11.08
957.082	37.17
957.25	12.76
957.418	-16.69
957.585	34.65
957.753	42.59
957.921	-0.81
958.089	11.4
958.256	43.95
958.424	7.91
958.592	33.29
958.759	-5.07
958.927	54.41
959.095	18.76
959.262	32.52
959.43	17.21
959.597	-15.14
959.765	3.26
959.932	13.53
960.1	69.91
960.267	26.7
960.435	-6.62
960.602	46.66
960.77	-7.39
960.937	-12.63
961.104	3.84
961.272	-30.64
961.439	2.49
961.606	43.17
961.774	62.94
961.941	3.84
962.108	18.95
962.275	45.69
962.443	73.2
962.61	56.74
962.777	72.82
962.944	36.97
963.111	13.34
963.278	50.73
963.446	40.27
963.613	20.12
963.78	46.47
963.947	63.9
964.114	28.06
964.281	92.77
964.448	57.9
964.615	13.14
964.782	18.95
964.949	67.59
965.116	44.72
965.282	82.12
965.449	41.82
965.616	24.77
965.783	48.4
965.95	49.18
966.117	-10.69
966.283	26.7
966.45	33.87
966.617	52.28
966.784	41.24
966.95	72.62
967.117	51.5
967.284	-0.81
967.45	-5.26
967.617	59.45
967.784	30.97
967.95	68.94
968.117	24.38
968.283	59.64
968.45	92.58
968.616	46.27
968.783	80.95
968.949	32.71
969.116	66.23
969.282	12.76
969.449	38.52
969.615	50.92
969.781	-21.73
969.948	-5.65
970.114	-7.39
970.28	75.92
970.447	11.59
970.613	87.35
970.779	11.79
970.945	51.12
971.112	34.65
971.278	46.08
971.444	9.85
971.61	59.25
971.776	30.19
971.942	57.12
972.108	39.69
972.275	34.45
972.441	30
972.607	82.5
972.773	3.84
972.939	42.79
973.105	30.39
973.271	4.62
973.437	1.71
973.602	3.26
973.768	62.35
973.934	12.95
974.1	50.73
974.266	-46.14
974.432	53.05
974.598	28.06
974.763	47.44
974.929	11.59
975.095	103.04
975.261	6.17
975.426	7.52
975.592	22.64
975.758	86.77
975.923	-11.08
976.089	9.07
976.255	53.83
976.42	59.06
976.586	48.21
976.751	30.58
976.917	87.74
977.082	53.25
977.248	13.72
977.413	-33.55
977.579	8.3
977.744	69.72
977.91	-20.38
978.075	4.23
978.24	76.3
978.406	13.92
978.571	11.01
978.736	-31.81
978.902	38.72
979.067	2.68
979.232	-20.96
979.397	42.4
979.563	70.3
979.728	-21.93
979.893	21.47
980.058	-7.2
980.223	46.27
980.388	23.8
980.554	5.97
980.719	-1
980.884	3.46
981.049	64.1
981.214	1.32
981.379	28.64
981.544	-37.04
981.709	31.35
981.874	4.81
982.039	22.83
982.204	53.83
982.368	32.32
982.533	8.69
982.698	51.12
982.863	89.29
983.028	5.78
983.193	40.27
983.357	17.02
983.522	24.96
983.687	16.82
983.852	9.46
984.016	-4.49
984.181	37.36
984.346	55.19
984.51	55.77
984.675	7.52
984.839	31.94
985.004	52.09
985.168	48.21
985.333	40.27
985.498	15.85
985.662	48.79
985.827	25.74
985.991	18.37
986.155	30.19
986.32	48.21
986.484	71.07
986.649	16.63
986.813	-25.8
986.977	56.54
987.142	41.82
987.306	-19.79
987.47	3.84
987.634	21.47
987.799	12.56
987.963	17.99
988.127	58.09
988.291	113.7
988.455	21.09
988.62	26.32
988.784	45.89
988.948	32.9
989.112	-0.03
989.276	52.28
989.44	24.38
989.604	-9.72
989.768	23.41
989.932	91.61
990.096	-3.71
990.26	2.1
990.424	-16.89
990.588	17.79
990.752	99.75
990.915	62.74
991.079	23.02
991.243	-5.46
991.407	46.08
991.571	12.37
991.734	36.39
991.898	52.47
992.062	124.93
992.226	16.05
992.389	13.72
992.553	-27.16
992.717	-4.49
992.88	17.4
993.044	16.82
993.207	6.36
993.371	36
993.535	26.32
993.698	27.87
993.862	55.19
994.025	67.59
994.189	45.3
994.352	29.22
994.515	36.39
994.679	72.82
994.842	2.68
995.006	67.2
995.169	-9.72
995.332	22.64
995.496	49.57
995.659	-10.49
995.822	13.14
995.985	33.49
996.149	36
996.312	18.76
996.475	96.07
996.638	26.7
996.801	65.65
996.964	72.62
997.128	42.98
997.291	15.08
997.454	38.72
997.617	-31.81
997.78	67.59
997.943	9.85
998.106	50.73
998.269	-19.99
998.432	27.09
998.595	25.93
998.758	-18.83
998.92	-2.74
999.083	-41.49
999.246	16.82
999.409	-18.63
999.572	-27.16
999.735	-21.93
999.897	27.87
1000.06	13.92
1000.223	3.26
1000.386	39.3
1000.548	49.18
1000.711	38.91
1000.874	33.29
1001.036	-7.78
1001.199	62.55
1001.361	-0.03
1001.524	13.92
1001.687	71.46
1001.849	-12.24
1002.012	12.76
1002.174	34.65
1002.337	66.04
1002.499	0.55
1002.661	54.02
1002.824	-19.21
1002.986	0.55
1003.149	15.27
1003.311	13.72
1003.473	73.4
1003.636	3.26
1003.798	43.17
1003.96	53.05
1004.123	35.04
1004.285	-2.16
1004.447	11.98
1004.609	3.26
1004.771	77.66
1004.933	-20.38
1005.096	0.16
1005.258	-19.6
1005.42	3.07
1005.582	66.04
1005.744	24.57
1005.906	-48.66
1006.068	1.13
1006.23	-6.04
1006.392	-11.46
1006.554	-28.51
1006.716	45.89
1006.878	60.22
1007.04	-22.7
1007.202	16.05
1007.363	40.07
1007.525	21.28
1007.687	22.25
1007.849	54.8
1008.011	-19.6
1008.172	-14.95
1008.334	-12.63
1008.496	31.74
1008.658	-9.14
1008.819	-18.05
1008.981	-48.86
1009.143	-22.31
1009.304	9.07
1009.466	39.88
1009.627	61.58
1009.789	111.37
1009.95	-0.23
1010.112	-17.08
1010.273	39.3
1010.435	3.26
1010.596	-3.71
1010.758	-14.56
1010.919	-7.59
1011.081	-9.33
1011.242	21.47
1011.403	24.96
1011.565	-2.74
1011.726	48.6
1011.887	-46.73
1012.049	-25.61
1012.21	31.16
1012.371	79.99
1012.532	-49.05
1012.693	33.1
1012.855	-20.76
1013.016	15.27
1013.177	51.12
1013.338	2.1
1013.499	68.55
1013.66	17.21
1013.821	47.05
1013.982	7.52
1014.143	35.23
1014.304	-4.49
1014.465	31.16
1014.626	29.42
1014.787	18.76
1014.948	97.42
1015.109	-53.31
1015.27	46.66
1015.431	-6.43
1015.592	-14.95
1015.752	45.89
1015.913	31.94
1016.074	-2.74
1016.235	11.01
1016.395	5.2
1016.556	4.42
1016.717	12.37
1016.877	58.67
1017.038	-1.19
1017.199	12.76
1017.359	-16.89
1017.52	-1.97
1017.681	-5.07
1017.841	12.56
1018.002	15.27
1018.162	-2.16
1018.323	73.79
1018.483	22.64
1018.644	-7.39
1018.804	-30.45
1018.964	-11.08
1019.125	-21.15
1019.285	-2.94
1019.446	-2.55
1019.606	-15.92
1019.766	-51.76
1019.926	2.87
1020.087	8.49
1020.247	-29.48
1020.407	6.36
1020.567	42.2
1020.728	-10.3
1020.888	-7.2
1021.048	-34.71
1021.208	-22.7
1021.368	-9.53
1021.528	60.8
1021.688	28.25
1021.848	-6.81
1022.008	19.92
1022.168	-3.13
1022.328	24.96
1022.488	31.16
1022.648	-23.28
1022.808	-15.34
1022.968	11.4
1023.128	9.27
1023.288	-24.25
1023.448	-4.49
1023.608	39.69
1023.767	25.93
1023.927	-8.36
1024.087	-14.56
1024.247	-22.12
1024.406	-5.26
1024.566	-41.11
1024.726	-35.49
1024.885	0.16
1025.045	19.34
1025.205	13.53
1025.364	0.16
1025.524	27.09
1025.683	-32
1025.843	-2.94
1026.003	5.59
1026.162	39.3
1026.321	42.79
1026.481	12.17
1026.64	0.94
1026.8	36.59
1026.959	3.26
1027.119	-3.13
1027.278	-9.33
1027.437	-15.34
1027.597	7.52
1027.756	26.12
1027.915	9.07
1028.074	5.39
1028.234	-17.86
1028.393	7.52
1028.552	-1.39
1028.711	-48.08
1028.87	13.34
1029.03	-12.63
1029.189	8.11
1029.348	-30.45
1029.507	10.82
1029.666	1.71
1029.825	17.6
1029.984	-27.74
1030.143	35.42
1030.302	-14.18
1030.461	-38.59
1030.62	-17.08
1030.779	8.49
1030.938	-7.2
1031.097	-14.37
1031.255	22.44
1031.414	48.99
1031.573	46.08
1031.732	-60.48
1031.891	-2.55
1032.049	42.59
1032.208	22.25
1032.367	-7.98
1032.525	0.16
1032.684	-26.19
1032.843	26.51
1033.001	-53.12
1033.16	159.23
1033.319	60.22
1033.477	36.78
1033.636	-18.44
1033.794	-42.85
1033.953	30
1034.111	55.77
1034.27	-19.41
1034.428	29.61
1034.587	-33.16
1034.745	8.3
1034.903	-8.75
1035.062	16.44
1035.22	-24.64
1035.378	38.91
1035.537	-46.73
1035.695	34.45
1035.853	8.69
1036.011	37.55
1036.17	19.92
1036.328	-63.39
1036.486	2.68
1036.644	1.52
1036.802	-53.31
1036.96	-19.21
1037.119	2.68
1037.277	-16.11
1037.435	-27.93
1037.593	-48.47
1037.751	-3.52
1037.909	23.02
1038.067	23.02
