Data from pine_FLMT105791__5__17-19-39-080.txt Node

Date: Mon Mar 20 17:19:39 GMT 2023
User: antho
Spectrometer: FLMT10579
Trigger mode: 0
Integration Time (sec): 1.000000E-1
Scans to average: 10
Electric dark correction enabled: true
Nonlinearity correction enabled: false
Boxcar width: 0
XAxis mode: Wavelengths
Number of Pixels in Spectrum: 3648
>>>>>Begin Spectral Data<<<<<
345.248	-157.15
345.464	-157.15
345.681	-157.15
345.898	-173.81
346.114	-136.22
346.331	-20.75
346.548	32.53
346.764	-21.72
346.981	-17.07
347.197	-25.2
347.414	39.7
347.631	-26.56
347.847	75.74
348.064	1.34
348.28	3.08
348.497	-29.47
348.713	-11.64
348.93	41.64
349.146	30.79
349.363	-7.38
349.579	-13.38
349.796	-4.08
350.012	3.28
350.229	36.6
350.445	1.34
350.661	-23.46
350.878	-16.1
351.094	33.7
351.311	27.69
351.527	19.16
351.743	13.35
351.96	20.52
352.176	33.11
352.392	34.28
352.609	27.69
352.825	-22.1
353.041	-5.25
353.257	-0.6
353.474	2.12
353.69	-4.08
353.906	35.44
354.122	-31.4
354.339	63.53
354.555	11.22
354.771	4.05
354.987	57.72
355.203	51.13
355.42	-10.87
355.636	-12.03
355.852	-12.22
356.068	1.92
356.284	-17.45
356.5	52.1
356.716	17.61
356.932	16.26
357.148	36.8
357.364	10.25
357.58	62.18
357.796	67.8
358.012	49.97
358.228	41.64
358.444	-56.2
358.66	48.81
358.876	18.78
359.092	-13
359.308	28.85
359.524	23.81
359.74	-10.09
359.956	-19.39
360.172	9.09
360.388	34.08
360.604	-13.77
360.819	99.18
361.035	37.18
361.251	42.22
361.467	-6.8
361.683	52.3
361.898	18.39
362.114	18.2
362.33	28.85
362.546	17.81
362.762	8.31
362.977	21.68
363.193	4.63
363.409	40.28
363.624	15.48
363.84	-0.98
364.056	10.25
364.271	18.58
364.487	13.35
364.703	-4.86
364.918	-39.15
365.134	-0.02
365.35	-23.46
365.565	108.68
365.781	6.18
365.996	34.28
366.212	53.65
366.427	29.43
366.643	-27.72
366.858	10.25
367.074	-22.68
367.289	50.55
367.505	107.13
367.72	-48.65
367.936	13.16
368.151	52.88
368.367	29.43
368.582	21.49
368.798	-10.67
369.013	64.31
369.228	7.73
369.444	22.46
369.659	54.23
369.874	30.4
370.09	63.92
370.305	-29.27
370.52	-36.05
370.736	49.97
370.951	0.37
371.166	56.95
371.381	52.3
371.597	31.37
371.812	-16.48
372.027	-8.93
372.242	0.76
372.458	82.13
372.673	3.67
372.888	-12.03
373.103	50.16
373.318	100.54
373.533	52.3
373.749	47.65
373.964	-28.5
374.179	63.73
374.394	-17.84
374.609	74.19
374.824	-29.85
375.039	65.28
375.254	17.23
375.469	67.02
375.684	18
375.899	47.65
376.114	1.92
376.329	17.03
376.544	45.13
376.759	42.61
376.974	-11.25
377.189	21.88
377.404	18.78
377.619	49.97
377.834	-39.73
378.049	-23.65
378.264	-17.84
378.478	26.14
378.693	-17.07
378.908	42.8
379.123	1.53
379.338	59.66
379.553	6.77
379.767	14.51
379.982	46.48
380.197	30.6
380.412	4.63
380.626	26.53
380.841	81.75
381.056	57.53
381.271	56.36
381.485	-19.39
381.7	-20.55
381.915	14.32
382.129	11.41
382.344	21.3
382.559	13.93
382.773	60.24
382.988	-25.59
383.202	33.7
383.417	0.37
383.632	119.14
383.846	26.91
384.061	40.28
384.275	3.08
384.49	7.54
384.704	39.9
384.919	24.98
385.133	36.21
385.348	60.24
385.562	-10.48
385.777	55.2
385.991	13.55
386.206	1.92
386.42	-0.6
386.634	64.11
386.849	34.66
387.063	28.66
387.277	-19.78
387.492	5.8
387.706	-9.7
387.92	-18.62
388.135	49.39
388.349	50.55
388.563	31.56
388.778	38.73
388.992	37.76
389.206	54.62
389.42	122.04
389.635	3.67
389.849	65.86
390.063	36.99
390.277	16.06
390.491	78.26
390.706	41.25
390.92	47.65
391.134	32.92
391.348	49.39
391.562	-38.57
391.776	8.7
391.99	-15.32
392.205	53.65
392.419	5.02
392.633	6.18
392.847	52.88
393.061	-16.1
393.275	94.34
393.489	36.6
393.703	51.13
393.917	56.36
394.131	11.61
394.345	49.58
394.559	60.43
394.773	28.85
394.986	-5.05
395.2	46.1
395.414	50.75
395.628	-14.93
395.842	29.82
396.056	-20.55
396.27	-44.38
396.484	23.81
396.697	48.03
396.911	61.21
397.125	29.24
397.339	61.79
397.553	45.32
397.766	123.4
397.98	53.26
398.194	64.31
398.408	14.9
398.621	68.57
398.835	61.79
399.049	37.18
399.262	81.16
399.476	71.48
399.69	50.36
399.903	104.61
400.117	28.85
400.331	52.49
400.544	2.7
400.758	138.32
400.971	52.68
401.185	69.15
401.398	8.9
401.612	76.51
401.826	40.67
402.039	84.26
402.253	36.41
402.466	63.92
402.68	28.27
402.893	45.32
403.106	46.1
403.32	29.63
403.533	56.36
403.747	6.77
403.96	39.31
404.174	73.61
404.387	5.8
404.6	33.89
404.814	60.43
405.027	43.19
405.24	33.7
405.454	43.96
405.667	90.46
405.88	3.67
406.094	46.48
406.307	52.88
406.52	64.11
406.733	16.06
406.947	-19.2
407.16	109.64
407.373	99.38
407.586	26.33
407.799	15.87
408.012	80
408.226	52.88
408.439	94.73
408.652	-3.5
408.865	33.11
409.078	54.43
409.291	70.12
409.504	2.31
409.717	42.8
409.93	75.35
410.143	42.03
410.357	-33.73
410.57	2.5
410.783	55.2
410.996	60.05
411.209	49.97
411.421	67.99
411.634	67.41
411.847	30.79
412.06	55.01
412.273	39.31
412.486	52.68
412.699	132.12
412.912	37.76
413.125	74.58
413.338	52.88
413.55	85.23
413.763	48.03
413.976	67.8
414.189	35.83
414.402	13.93
414.615	85.43
414.827	21.49
415.04	76.51
415.253	59.66
415.466	73.22
415.678	110.81
415.891	57.53
416.104	50.36
416.316	32.15
416.529	43.58
416.742	67.21
416.954	98.99
417.167	81.16
417.38	51.91
417.592	79.81
417.805	33.11
418.017	18.39
418.23	75.74
418.442	57.91
418.655	28.85
418.868	74.19
419.08	76.32
419.293	84.26
419.505	51.52
419.718	78.84
419.93	72.25
420.142	24.98
420.355	85.04
420.567	102.09
420.78	70.51
420.992	53.85
421.205	121.27
421.417	11.03
421.629	29.63
421.842	24.4
422.054	16.45
422.266	101.7
422.479	84.85
422.691	28.85
422.903	89.69
423.115	56.95
423.328	47.26
423.54	60.43
423.752	75.74
423.964	37.57
424.177	53.26
424.389	66.44
424.601	157.69
424.813	86.59
425.025	104.22
425.238	99.57
425.45	56.75
425.662	45.13
425.874	350.09
426.086	66.83
426.298	86.59
426.51	93.37
426.722	98.41
426.934	76.32
427.146	110.03
427.358	46.87
427.57	112.36
427.782	70.12
427.994	91.63
428.206	107.9
428.418	41.64
428.63	101.12
428.842	125.34
429.054	64.31
429.266	120.11
429.478	37.18
429.69	73.41
429.902	36.02
430.114	112.36
430.325	138.51
430.537	75.74
430.749	82.13
430.961	37.96
431.173	71.86
431.384	104.8
431.596	36.99
431.808	75.16
432.02	78.65
432.231	78.65
432.443	116.23
432.655	107.51
432.867	71.09
433.078	102.48
433.29	169.13
433.502	129.41
433.713	123.4
433.925	103.83
434.136	133.86
434.348	60.24
434.56	47.26
434.771	193.34
434.983	58.5
435.194	70.7
435.406	108.87
435.617	148.98
435.829	180.56
436.04	127.66
436.252	155.56
436.463	150.91
436.675	145.88
436.886	152.85
437.098	113.52
437.309	175.71
437.521	108.29
437.732	125.34
437.943	109.26
438.155	109.45
438.366	50.36
438.578	178.81
438.789	129.6
439	153.43
439.211	104.61
439.423	159.44
439.634	150.53
439.845	134.64
440.057	134.44
440.268	175.71
440.479	130.76
440.69	177.26
440.902	132.12
441.113	131.54
441.324	108.87
441.535	147.62
441.746	187.34
441.957	118.17
442.168	122.82
442.38	172.23
442.591	150.91
442.802	114.29
443.013	117.2
443.224	155.18
443.435	139.48
443.646	139.09
443.857	125.34
444.068	106.16
444.279	125.34
444.49	208.26
444.701	175.71
444.912	270.84
445.123	189.86
445.334	167.96
445.545	174.94
445.756	175.52
445.967	135.03
446.178	192.96
446.388	209.23
446.599	198.77
446.81	171.26
447.021	156.53
447.232	203.61
447.443	198.38
447.653	130.57
447.864	191.41
448.075	173.19
448.286	207.87
448.496	188.31
448.707	209.62
448.918	142
449.129	273.17
449.339	140.45
449.55	208.65
449.761	172.23
449.971	252.63
450.182	177.26
450.393	213.88
450.603	192.57
450.814	235.39
451.024	179.39
451.235	228.41
451.446	252.63
451.656	251.47
451.867	178.43
452.077	241.78
452.288	258.06
452.498	262.12
452.709	182.11
452.919	228.41
453.13	163.89
453.34	240.62
453.55	160.02
453.761	207.68
453.971	230.35
454.182	216.59
454.392	234.22
454.602	247.79
454.813	202.64
455.023	271.42
455.233	162.73
455.444	201.48
455.654	151.49
455.864	217.95
456.075	170.68
456.285	215.04
456.495	226.28
456.705	229.77
456.916	267.74
457.126	272.78
457.336	237.13
457.546	171.45
457.756	192.37
457.967	252.24
458.177	220.27
458.387	251.86
458.597	197.8
458.807	246.04
459.017	190.44
459.227	212.33
459.437	231.32
459.647	257.67
459.857	235.39
460.068	222.02
460.278	267.94
460.488	262.51
460.698	297
460.908	229.38
461.117	187.34
461.327	190.44
461.537	230.16
461.747	263.09
461.957	227.44
462.167	361.71
462.377	265.22
462.587	252.24
462.797	279.75
463.007	252.44
463.216	256.7
463.426	294.67
463.636	273.75
463.846	218.34
464.056	255.34
464.265	304.75
464.475	215.24
464.685	285.95
464.895	271.42
465.104	279.37
465.314	257.47
465.524	252.82
465.733	231.71
465.943	323.15
466.153	318.12
466.362	286.54
466.572	269.49
466.782	247.01
466.991	269.87
467.201	328.97
467.41	212.52
467.62	298.74
467.829	255.92
468.039	290.8
468.249	249.53
468.458	241.39
468.668	306.69
468.877	295.25
469.086	301.45
469.296	313.85
469.505	272
469.715	370.23
469.924	297.77
470.134	331.68
470.343	359.58
470.552	281.89
470.762	269.49
470.971	275.3
471.18	278.79
471.39	283.05
471.599	284.02
471.808	305.14
472.018	260.38
472.227	347.37
472.436	335.75
472.645	302.62
472.855	296.8
473.064	353.96
473.273	351.83
473.482	358.03
473.691	344.85
473.901	346.21
474.11	329.35
474.319	391.55
474.528	341.95
474.737	375.08
474.946	347.37
475.155	352.22
475.364	406.27
475.573	325.29
475.783	362.29
475.992	368.49
476.201	373.33
476.41	351.44
476.619	316.37
476.828	358.22
477.037	320.05
477.245	341.37
477.454	379.92
477.663	370.82
477.872	349.5
478.081	413.05
478.29	342.72
478.499	460.13
478.708	383.6
478.917	432.23
479.125	386.32
479.334	401.82
479.543	365.39
479.752	380.31
479.961	388.83
480.169	403.37
480.378	375.08
480.587	513.61
480.796	432.04
481.004	396.39
481.213	436.11
481.422	434.37
481.63	361.13
481.839	438.05
482.048	479.7
482.256	427.78
482.465	433.98
482.674	456.26
482.882	435.72
483.091	521.75
483.299	441.34
483.508	458
483.716	438.82
483.925	442.5
484.134	436.5
484.342	441.53
484.551	467.11
484.759	466.91
484.967	474.47
485.176	459.55
485.384	498.3
485.593	497.53
485.801	458.78
486.01	451.8
486.218	453.35
486.426	399.88
486.635	420.42
486.843	427.78
487.051	445.8
487.26	416.35
487.468	457.03
487.676	510.9
487.885	440.76
488.093	483
488.301	485.9
488.509	489.78
488.717	512.06
488.926	514.58
489.134	480.28
489.342	498.11
489.55	459.16
489.758	505.86
489.967	489
490.175	600.79
490.383	482.8
490.591	591.69
490.799	509.15
491.007	588.98
491.215	548.68
491.423	533.95
491.631	539.18
491.839	520.58
492.047	557.01
492.255	486.68
492.463	466.91
492.671	523.1
492.879	565.92
493.087	521.36
493.295	585.88
493.503	559.91
493.711	538.02
493.919	611.84
494.127	576.58
494.334	598.66
494.542	528.33
494.75	567.86
494.958	553.91
495.166	609.51
495.374	588.01
495.581	563.4
495.789	577.74
495.997	605.64
496.205	548.48
496.412	556.23
496.62	553.13
496.828	572.51
497.035	568.63
497.243	605.06
497.451	574.44
497.658	600.79
497.866	580.45
498.074	644.58
498.281	579.29
498.489	672.29
498.696	599.83
498.904	570.18
499.112	578.71
499.319	651.94
499.527	586.07
499.734	640.71
499.942	556.81
500.149	582.19
500.357	582
500.564	577.93
500.771	588.39
500.979	563.21
501.186	594.59
501.394	607.58
501.601	593.24
501.808	619.2
502.016	573.86
502.223	588.98
502.43	596.53
502.638	606.03
502.845	566.69
503.052	635.47
503.26	605.06
503.467	715.49
503.674	646.52
503.881	627.53
504.089	739.71
504.296	662.99
504.503	585.29
504.71	640.51
504.917	605.06
505.125	631.79
505.332	645.16
505.539	665.89
505.746	710.26
505.953	651.17
506.16	687.21
506.367	722.08
506.574	780.01
506.781	737
506.988	671.71
507.195	687.01
507.402	672.87
507.609	708.52
507.816	671.32
508.023	659.11
508.23	678.68
508.437	634.31
508.644	705.03
508.851	732.54
509.058	715.3
509.265	744.75
509.472	729.44
509.679	797.06
509.885	717.24
510.092	701.74
510.299	707.74
510.506	720.92
510.713	700.19
510.92	724.4
511.126	733.32
511.333	767.42
511.54	764.9
511.746	774.2
511.953	796.87
512.16	807.52
512.367	728.28
512.573	744.94
512.78	741.65
512.987	749.98
513.193	754.24
513.4	661.82
513.606	717.62
513.813	758.12
514.02	736.61
514.226	813.72
514.433	838.52
514.639	716.27
514.846	800.35
515.052	762.38
515.259	754.82
515.465	742.04
515.672	768.77
515.878	848.02
516.085	747.65
516.291	827.87
516.497	752.5
516.704	766.84
516.91	714.72
517.117	669.96
517.323	664.54
517.529	702.9
517.736	707.94
517.942	781.95
518.148	730.22
518.354	757.92
518.561	757.15
518.767	740.1
518.973	784.47
519.179	796.48
519.386	743
519.592	763.93
519.798	772.84
520.004	846.08
520.21	819.34
520.417	843.37
520.623	856.54
520.829	849.18
521.035	859.25
521.241	831.35
521.447	876.88
521.653	936.17
521.859	865.26
522.065	870.1
522.271	976.47
522.477	910.6
522.683	923.96
522.889	909.82
523.095	911.76
523.301	904.59
523.507	890.64
523.713	924.74
523.919	849.57
524.125	955.55
524.331	904.4
524.537	1009.79
524.742	979.57
524.948	1011.73
525.154	931.91
525.36	1070.63
525.566	956.71
525.772	1030.33
525.977	896.45
526.183	991
526.389	1000.3
526.595	927.84
526.8	941.6
527.006	878.82
527.212	869.91
527.417	860.22
527.623	862.16
527.829	971.43
528.034	970.85
528.24	937.53
528.446	905.17
528.651	1020.84
528.857	1006.5
529.062	1042.54
529.268	984.99
529.473	1037.69
529.679	1016.77
529.884	1077.99
530.09	1044.67
530.295	1073.34
530.501	1041.38
530.706	1011.93
530.912	981.31
531.117	1052.42
531.323	1027.43
531.528	1072.76
531.733	1093.3
531.939	1018.71
532.144	1077.99
532.35	1059.01
532.555	1075.09
532.76	1063.07
532.966	1055.91
533.171	1032.66
533.376	999.72
533.581	974.34
533.787	1063.07
533.992	1054.55
534.197	1133.6
534.402	1031.49
534.607	1069.86
534.813	1138.83
535.018	1039.44
535.223	1040.6
535.428	1079.74
535.633	1140.96
535.838	1117.13
536.043	1108.99
536.249	1208.39
536.454	1128.95
536.659	1155.69
536.864	1102.99
537.069	1087.49
537.274	1099.5
537.479	1096.59
537.684	1134.37
537.889	1078.96
538.094	1215.36
538.299	1101.44
538.504	1133.6
538.708	1137.67
538.913	1209.55
539.118	1163.82
539.323	1111.12
539.528	1108.8
539.733	1141.74
539.938	1139.8
540.142	1141.16
540.347	1103.37
540.552	1093.3
540.757	1123.33
540.962	1129.72
541.166	1089.04
541.371	1081.09
541.576	1128.76
541.781	1026.84
541.985	1121.97
542.19	1131.86
542.395	1179.13
542.599	1207.22
542.804	1176.03
543.008	1203.15
543.213	1119.26
543.418	1118.29
543.622	1177.19
543.827	1082.84
544.031	1201.99
544.236	1205.48
544.44	1168.28
544.645	1240.55
544.849	1140.77
545.054	1175.64
545.258	1261.28
545.463	1244.62
545.667	1150.07
545.872	1208.97
546.076	1180.1
546.281	1201.02
546.485	1144.06
546.689	1181.84
546.894	1255.85
547.098	1201.6
547.302	1152
547.507	1184.94
547.711	1192.69
547.915	1249.27
548.119	1150.45
548.324	1193.47
548.528	1248.88
548.732	1207.8
548.936	1225.05
549.141	1241.32
549.345	1190.37
549.549	1212.45
549.753	1213.42
549.957	1292.67
550.161	1291.12
550.366	1221.75
550.57	1184.75
550.774	1196.37
550.978	1192.5
551.182	1264.18
551.386	1203.35
551.59	1189.79
551.794	1205.87
551.998	1227.18
552.202	1219.43
552.406	1157.04
552.61	1232.6
552.814	1239.19
553.018	1283.75
553.222	1225.24
553.426	1185.91
553.63	1285.5
553.833	1227.57
554.037	1194.82
554.241	1251.2
554.445	1238.8
554.649	1204.32
554.853	1229.31
555.056	1274.65
555.26	1248.3
555.464	1249.46
555.668	1234.54
555.871	1262.44
556.075	1269.8
556.279	1191.72
556.483	1159.17
556.686	1223.11
556.89	1219.04
557.094	1260.89
557.297	1155.49
557.501	1258.95
557.704	1115.58
557.908	1232.02
558.112	1184.75
558.315	1269.03
558.519	1212.07
558.722	1200.64
558.926	1177.58
559.129	1137.09
559.333	1132.05
559.536	1168.86
559.74	1130.11
559.943	1152
560.147	1130.5
560.35	1176.61
560.553	1168.86
560.757	1123.52
560.96	1229.7
561.164	1142.51
561.367	1228.92
561.57	1128.56
561.774	1150.65
561.977	1158.98
562.18	1125.27
562.384	1247.91
562.587	1149.87
562.79	1138.06
562.993	1124.3
563.197	1213.23
563.4	1228.34
563.603	1230.86
563.806	1224.85
564.009	1134.37
564.212	1170.99
564.416	1098.34
564.619	1174.87
564.822	1115.97
565.025	1199.47
565.228	1116.74
565.431	1145.8
565.634	1043.12
565.837	1103.96
566.04	1088.46
566.243	1105.51
566.446	1016.96
566.649	1115.39
566.852	1055.91
567.055	1070.05
567.258	1106.67
567.461	1183.78
567.664	1148.32
567.867	1054.36
568.07	1133.02
568.273	1117.91
568.475	1175.84
568.678	1095.24
568.881	1084.39
569.084	1085.55
569.287	1025.68
569.489	1026.07
569.692	1074.12
569.895	1064.04
570.098	1046.8
570.3	1029.56
570.503	995.07
570.706	992.36
570.909	1002.24
571.111	1000.3
571.314	987.71
571.516	1043.89
571.719	1032.85
571.922	1000.49
572.124	1008.24
572.327	1029.56
572.529	949.35
572.732	963.88
572.935	998.75
573.137	1055.71
573.34	987.9
573.542	1014.83
573.745	1010.76
573.947	1016.58
574.15	983.64
574.352	975.69
574.554	1071.21
574.757	990.03
574.959	991.58
575.162	967.75
575.364	977.83
575.566	1059.59
575.769	952.45
575.971	958.84
576.173	871.85
576.376	950.51
576.578	984.99
576.78	1065.4
576.982	913.7
577.185	955.35
577.387	903.81
577.589	934.04
577.791	948.18
577.993	963.88
578.196	961.36
578.398	1012.89
578.6	975.89
578.802	890.25
579.004	886.96
579.206	924.74
579.408	996.23
579.61	944.31
579.812	953.41
580.014	919.31
580.216	930.55
580.418	944.31
580.62	941.4
580.822	869.52
581.024	964.65
581.226	976.28
581.428	932.3
581.63	1006.89
581.832	935.4
582.034	1017.74
582.236	953.41
582.438	971.04
582.64	1011.15
582.841	1026.07
583.043	1042.73
583.245	994.1
583.447	1012.12
583.649	957.1
583.85	965.81
584.052	1026.46
584.254	946.63
584.456	1002.24
584.657	896.45
584.859	971.24
585.061	966.78
585.262	952.25
585.464	908.85
585.666	973.76
585.867	930.36
586.069	996.62
586.27	916.21
586.472	948.38
586.674	904.4
586.875	907.5
587.077	929.2
587.278	912.34
587.48	905.95
587.681	1021.81
587.883	959.03
588.084	882.31
588.285	911.76
588.487	895.48
588.688	919.51
588.89	839.3
589.091	810.04
589.292	837.55
589.494	807.72
589.695	840.07
589.896	748.62
590.098	762.57
590.299	824.77
590.5	782.53
590.702	793.77
590.903	834.45
591.104	907.5
591.305	878.63
591.507	917.76
591.708	893.74
591.909	898.58
592.11	934.62
592.311	913.5
592.512	848.21
592.714	828.83
592.915	839.3
593.116	856.73
593.317	870.68
593.518	848.79
593.719	849.18
593.92	900.71
594.121	923.19
594.322	899.16
594.523	873.98
594.724	823.6
594.925	858.09
595.126	867
595.327	862.93
595.528	868.94
595.729	851.7
595.929	882.7
596.13	871.65
596.331	868.17
596.532	858.09
596.733	936.95
596.934	876.88
597.135	910.98
597.335	935.98
597.536	820.31
597.737	889.28
597.938	831.74
598.138	859.25
598.339	863.13
598.54	864.48
598.74	857.9
598.941	838.52
599.142	905.56
599.342	875.33
599.543	826.12
599.744	867.39
599.944	834.26
600.145	811.59
600.345	877.27
600.546	932.68
600.746	915.05
600.947	941.4
601.147	868.17
601.348	909.24
601.548	818.18
601.749	855.77
601.949	814.11
602.15	820.7
602.35	836.2
602.551	887.54
602.751	818.95
602.951	838.33
603.152	793.77
603.352	856.93
603.552	857.12
603.753	905.17
603.953	878.43
604.153	887.93
604.354	850.92
604.554	841.04
604.754	853.44
604.954	824.96
605.155	879.21
605.355	841.04
605.555	906.91
605.755	898.97
605.955	861
606.155	914.08
606.356	858.09
606.556	875.14
606.756	856.93
606.956	814.3
607.156	908.46
607.356	806.94
607.556	865.26
607.756	862.55
607.956	900.33
608.156	896.06
608.356	858.09
608.556	901.49
608.756	837.36
608.956	836
609.156	866.81
609.356	850.15
609.556	800.74
609.755	857.9
609.955	819.34
610.155	826.51
610.355	829.8
610.555	802.29
610.755	834.45
610.954	785.24
611.154	863.13
611.354	891.61
611.554	805.58
611.753	823.02
611.953	750.37
612.153	850.73
612.352	839.68
612.552	770.52
612.752	767.8
612.951	814.88
613.151	806.94
613.351	775.36
613.55	800.35
613.75	819.53
613.949	802.48
614.149	806.36
614.348	818.57
614.548	792.22
614.747	751.14
614.947	769.55
615.146	711.23
615.346	814.5
615.545	832.32
615.745	791.44
615.944	798.42
616.144	786.79
616.343	802.68
616.542	773.23
616.742	755.21
616.941	767.61
617.14	732.35
617.34	766.06
617.539	761.8
617.738	781.37
617.938	823.6
618.137	767.8
618.336	718.79
618.535	804.62
618.734	765.48
618.934	784.85
619.133	793.77
619.332	825.54
619.531	733.12
619.73	746.49
619.929	824.96
620.128	803.26
620.328	839.1
620.527	793.38
620.726	782.34
620.925	780.79
621.124	756.95
621.323	784.47
621.522	736.8
621.721	731.19
621.92	701.74
622.119	767.03
622.318	699.22
622.517	778.65
622.715	774.39
622.914	700.96
623.113	734.29
623.312	693.79
623.511	751.72
623.71	735.84
623.909	711.62
624.107	801.32
624.306	693.41
624.505	703.29
624.704	724.6
624.902	693.41
625.101	776.52
625.3	717.43
625.499	676.16
625.697	708.13
625.896	708.13
626.095	737.97
626.293	672.48
626.492	700.19
626.69	734.09
626.889	689.92
627.088	776.14
627.286	693.02
627.485	687.21
627.683	671.51
627.882	707.94
628.08	625.01
628.279	700.96
628.477	747.46
628.676	656.98
628.874	709.68
629.073	679.65
629.271	666.47
629.469	702.12
629.668	675.97
629.866	681.39
630.065	642.64
630.263	682.36
630.461	634.51
630.66	671.12
630.858	721.69
631.056	739.71
631.254	722.66
631.453	629.27
631.651	715.69
631.849	668.41
632.047	692.82
632.245	659.69
632.444	689.53
632.642	696.7
632.84	706
633.038	685.66
633.236	624.04
633.434	646.32
633.632	653.11
633.83	626.76
634.028	727.89
634.227	699.99
634.425	734.09
634.623	699.22
634.821	679.26
635.019	727.5
635.216	663.96
635.414	718.98
635.612	696.7
635.81	661.24
636.008	735.06
636.206	679.26
636.404	699.02
636.602	667.06
636.8	683.72
636.997	718.79
637.195	696.51
637.393	721.89
637.591	747.65
637.789	694.76
637.986	707.55
638.184	698.64
638.382	753.47
638.58	712.97
638.777	777.69
638.975	693.21
639.173	711.62
639.37	720.72
639.568	731.57
639.765	715.49
639.963	691.47
640.161	717.24
640.358	729.83
640.556	632.76
640.753	667.83
640.951	646.52
641.148	665.51
641.346	675
641.543	692.44
641.741	679.46
641.938	643.81
642.136	655.04
642.333	644.39
642.531	716.65
642.728	710.45
642.925	681.59
643.123	655.62
643.32	689.53
643.517	655.43
643.715	668.8
643.912	654.07
644.109	669.96
644.306	654.27
644.504	649.42
644.701	663.37
644.898	690.69
645.095	654.27
645.293	660.66
645.49	693.02
645.687	658.14
645.884	711.23
646.081	592.08
646.278	641.48
646.475	659.31
646.672	632.57
646.87	690.11
647.067	638.19
647.264	661.44
647.461	592.27
647.658	600.21
647.855	642.64
648.052	602.54
648.249	555.07
648.446	608.16
648.642	568.24
648.839	594.79
649.036	602.15
649.233	568.44
649.43	572.51
649.627	538.21
649.824	575.03
650.021	568.05
650.217	572.89
650.414	576.77
650.611	639.35
650.808	638.57
651.004	619.01
651.201	609.32
651.398	693.41
651.595	605.06
651.791	578.71
651.988	639.35
652.185	571.34
652.381	627.53
652.578	545.38
652.775	607.96
652.971	589.94
653.168	582.97
653.364	639.16
653.561	534.53
653.757	565.53
653.954	580.84
654.15	552.94
654.347	631.79
654.543	577.93
654.74	553.91
654.936	526.98
655.133	597.31
655.329	585.1
655.525	558.94
655.722	610.48
655.918	552.55
656.115	603.31
656.311	510.51
656.507	476.99
656.704	451.03
656.9	507.8
657.096	481.45
657.292	471.95
657.489	548.29
657.685	535.69
657.881	530.46
658.077	489
658.273	544.22
658.47	612.03
658.666	567.66
658.862	593.43
659.058	560.88
659.254	590.72
659.45	525.43
659.646	551.19
659.842	556.62
660.038	617.65
660.234	528.53
660.43	562.04
660.626	625.01
660.822	593.63
661.018	599.44
661.214	580.84
661.41	520.2
661.606	573.48
661.802	569.79
661.998	549.45
662.194	509.54
662.39	571.93
662.586	576.96
662.781	585.29
662.977	564.95
663.173	589.36
663.369	554.1
663.564	569.41
663.76	588.39
663.956	541.7
664.152	572.31
664.347	472.73
664.543	543.83
664.739	542.86
664.934	499.85
665.13	492.88
665.326	572.51
665.521	541.31
665.717	508.57
665.912	492.49
666.108	455.48
666.304	505.86
666.499	532.4
666.695	454.71
666.89	540.15
667.086	572.12
667.281	551
667.477	571.15
667.672	543.83
667.867	535.31
668.063	572.12
668.258	485.9
668.454	536.08
668.649	571.34
668.844	534.14
669.04	523.1
669.235	522.33
669.43	503.53
669.626	469.05
669.821	497.91
670.016	485.32
670.211	481.45
670.407	495.78
670.602	535.89
670.797	498.69
670.992	533.95
671.187	493.07
671.382	526.01
671.578	494.62
671.773	522.33
671.968	476.21
672.163	473.7
672.358	548.09
672.553	519.81
672.748	483.96
672.943	561.08
673.138	488.42
673.333	536.08
673.528	481.06
673.723	509.54
673.918	478.35
674.113	453.74
674.308	572.31
674.503	527.36
674.698	533.76
674.892	523.68
675.087	524.85
675.282	522.13
675.477	472.15
675.672	511.28
675.867	486.1
676.061	479.9
676.256	423.71
676.451	488.61
676.646	492.68
676.84	453.16
677.035	465.56
677.23	460.13
677.424	509.93
677.619	514.38
677.814	524.85
678.008	533.76
678.203	446.76
678.397	470.21
678.592	476.6
678.787	571.34
678.981	478.35
679.176	508.96
679.37	497.72
679.565	492.88
679.759	494.43
679.954	509.15
680.148	556.04
680.342	542.86
680.537	538.6
680.731	464.4
680.926	509.15
681.12	538.21
681.314	483
681.509	499.46
681.703	495.4
681.897	507.6
682.092	525.43
682.286	516.32
682.48	550.03
682.674	544.8
682.869	491.91
683.063	503.15
683.257	547.9
683.451	489.58
683.645	513.41
683.839	512.06
684.034	477.57
684.228	513.22
684.422	450.64
684.616	461.88
684.81	523.1
685.004	503.92
685.198	510.31
685.392	505.66
685.586	485.51
685.78	505.28
685.974	531.43
686.168	517.87
686.362	559.91
686.556	436.69
686.75	416.73
686.944	420.42
687.138	454.13
687.331	361.13
687.525	385.15
687.719	330.52
687.913	391.16
688.107	421
688.301	396.78
688.494	443.47
688.688	395.42
688.882	369.85
689.076	384.57
689.269	393.48
689.463	472.34
689.657	410.73
689.85	398.13
690.044	412.67
690.238	417.51
690.431	426.81
690.625	442.89
690.818	441.53
691.012	475.83
691.205	483.96
691.399	405.3
691.593	485.32
691.786	482.8
691.98	532.01
692.173	526.01
692.366	518.26
692.56	537.05
692.753	597.11
692.947	449.48
693.14	529.5
693.333	538.6
693.527	465.36
693.72	541.12
693.914	507.41
694.107	530.08
694.3	525.81
694.493	512.06
694.687	556.04
694.88	467.3
695.073	585.49
695.266	576.38
695.46	534.34
695.653	562.04
695.846	571.34
696.039	491.71
696.232	562.63
696.425	622.69
696.618	613.58
696.812	604.48
697.005	668.99
697.198	738.35
697.391	627.92
697.584	681.2
697.777	692.05
697.97	676.94
698.163	721.69
698.356	687.4
698.549	744.94
698.742	719.56
698.935	690.89
699.127	719.95
699.32	657.76
699.513	686.43
699.706	695.54
699.899	734.87
700.092	687.4
700.285	732.35
700.477	663.18
700.67	748.04
700.863	771.29
701.056	845.88
701.248	793.38
701.441	816.05
701.634	763.15
701.826	876.69
702.019	739.9
702.212	851.89
702.404	750.37
702.597	766.06
702.79	796.48
702.982	819.73
703.175	849.37
703.367	855.77
703.56	870.1
703.752	946.44
703.945	895.87
704.137	917.18
704.33	903.81
704.522	912.53
704.715	936.17
704.907	978.6
705.1	983.25
705.292	980.15
705.484	949.73
705.677	979.38
705.869	1012.7
706.061	1029.17
706.254	1065.01
706.446	1002.04
706.638	1032.66
706.831	1078.96
707.023	1026.07
707.215	1137.28
707.407	1116.36
707.599	1113.26
707.792	1142.71
707.984	1127.01
708.176	1170.8
708.368	1090.97
708.56	1140.38
708.752	1128.76
708.944	1125.66
709.136	1191.53
709.329	1159.56
709.521	1280.46
709.713	1228.15
709.905	1236.09
710.097	1274.84
710.289	1202.77
710.481	1226.4
710.672	1305.26
710.864	1225.63
711.056	1322.89
711.248	1324.05
711.44	1314.75
711.632	1315.72
711.824	1350.01
712.016	1391.09
712.207	1394
712.399	1379.27
712.591	1421.89
712.783	1450.57
712.975	1423.44
713.166	1366.87
713.358	1419.38
713.55	1503.27
713.741	1472.27
713.933	1454.44
714.125	1479.24
714.316	1439.72
714.508	1519.93
714.7	1557.71
714.891	1516.44
715.083	1568.56
715.274	1560.04
715.466	1519.93
715.657	1597.62
715.849	1514.12
716.04	1545.31
716.232	1491.45
716.423	1570.11
716.615	1476.14
716.806	1496.29
716.998	1477.5
717.189	1384.11
717.381	1320.56
717.572	1323.08
717.763	1372.88
717.955	1331.41
718.146	1315.33
718.337	1276.39
718.528	1258.95
718.72	1200.83
718.911	1252.95
719.102	1223.3
719.293	1268.83
719.485	1266.32
719.676	1258.18
719.867	1205.87
720.058	1235.12
720.249	1233.57
720.44	1238.03
720.632	1328.51
720.823	1359.51
721.014	1428.48
721.205	1429.06
721.396	1548.61
721.587	1569.92
721.778	1598.2
721.969	1636.37
722.16	1711.93
722.351	1684.42
722.542	1763.08
722.733	1780.52
722.924	1680.35
723.115	1720.27
723.305	1726.27
723.496	1741.97
723.687	1645.87
723.878	1671.25
724.069	1672.22
724.26	1698.57
724.45	1613.32
724.641	1599.56
724.832	1678.61
725.023	1651.1
725.213	1638.5
725.404	1617.97
725.595	1653.81
725.785	1632.5
725.976	1717.94
726.167	1662.53
726.357	1674.54
726.548	1769.86
726.739	1670.86
726.929	1754.95
727.12	1787.3
727.31	1833.03
727.501	1753.78
727.691	1760.76
727.882	1787.5
728.072	1817.72
728.263	1827.41
728.453	1842.13
728.644	1834.58
728.834	1816.75
729.024	1810.94
729.215	1753.98
729.405	1834.19
729.596	1901.61
729.786	1926.22
729.976	1915.95
730.167	1906.84
730.357	1907.81
730.547	1917.5
730.737	1957.22
730.928	1973.3
731.118	2012.44
731.308	1951.79
731.498	1939.59
731.688	1980.08
731.879	2066.69
732.069	2079.09
732.259	2102.92
732.449	2156
732.639	2187.78
732.829	2232.53
733.019	2244.93
733.209	2322.43
733.399	2323.4
733.589	2347.04
733.779	2402.06
733.969	2345.68
734.159	2398.19
734.349	2470.45
734.539	2483.24
734.729	2508.62
734.919	2510.17
735.109	2579.53
735.299	2475.69
735.488	2547.76
735.678	2497.77
735.868	2522.38
736.058	2537.1
736.248	2484.6
736.437	2480.72
736.627	2462.7
736.817	2594.45
737.007	2571.98
737.196	2622.74
737.386	2572.75
737.576	2526.25
737.765	2570.04
737.955	2551.05
738.144	2652.96
738.334	2632.62
738.524	2573.53
738.713	2623.71
738.903	2629.91
739.092	2654.13
739.282	2634.36
739.471	2664.01
739.661	2641.15
739.85	2723.29
740.04	2666.91
740.229	2727.36
740.419	2739.96
740.608	2749.06
740.797	2714.77
740.987	2809.12
741.176	2771.54
741.365	2710.9
741.555	2700.05
741.744	2763.59
741.933	2763.59
742.123	2791.11
742.312	2795.37
742.501	2810.67
742.69	2829.08
742.88	2745.19
743.069	2907.74
743.258	2851.56
743.447	2886.24
743.636	2889.53
743.825	2792.08
744.014	2846.32
744.204	2838.57
744.393	2818.04
744.582	2905.03
744.771	2950.37
744.96	2876.55
745.149	2900.96
745.338	2899.6
745.527	2943.39
745.716	2858.72
745.905	2860.66
746.094	2891.47
746.283	2931.38
746.471	2910.07
746.66	2975.75
746.849	2934.87
747.038	2976.52
747.227	2881.97
747.416	2972.07
747.604	2882.94
747.793	2943.39
747.982	2927.31
748.171	2957.73
748.359	2930.02
748.548	2950.75
748.737	2950.56
748.926	2975.36
749.114	2866.67
749.303	2948.24
749.491	2884.49
749.68	2856.4
749.869	2941.84
750.057	2902.51
750.246	2909.68
750.434	2873.84
750.623	2934.67
750.811	2873.84
751	2915.49
751.188	2825.01
751.377	2884.11
751.565	2891.47
751.754	2868.02
751.942	2830.82
752.131	2913.75
752.319	2888.76
752.507	2783.94
752.696	2876.55
752.884	2905.61
753.072	2862.41
753.261	2850.78
753.449	2868.22
753.637	2840.12
753.825	2931.96
754.014	2859.5
754.202	2847.1
754.39	2917.24
754.578	2874.61
754.766	2854.66
754.955	2804.47
755.143	2904.06
755.331	2805.44
755.519	2783.16
755.707	2834.89
755.895	2803.89
756.083	2814.55
756.271	2807.57
756.459	2797.11
756.647	2834.12
756.835	2783.74
757.023	2802.15
757.211	2807.57
757.399	2804.09
757.587	2735.89
757.775	2761.46
757.963	2800.6
758.151	2787.81
758.339	2753.13
758.526	2743.83
758.714	2738.41
758.902	2649.48
759.09	2618.28
759.278	2452.44
759.465	2231.56
759.653	1885.92
759.841	1800.48
760.028	1496.1
760.216	1281.82
760.404	1224.66
760.591	991.78
760.779	803.84
760.967	744.94
761.154	585.1
761.342	651.94
761.529	677.91
761.717	725.76
761.905	701.35
762.092	781.95
762.28	727.7
762.467	722.08
762.655	686.43
762.842	676.36
763.029	685.27
763.217	719.17
763.404	707.16
763.592	729.05
763.779	688.56
763.966	739.52
764.154	768.39
764.341	818.37
764.528	817.21
764.716	891.41
764.903	944.11
765.09	997.78
765.277	1026.26
765.465	1185.72
765.652	1212.84
765.839	1253.92
766.026	1353.31
766.213	1412.21
766.4	1491.45
766.588	1654.39
766.775	1654
766.962	1754.37
767.149	1775.87
767.336	1943.07
767.523	1893.86
767.71	2003.33
767.897	2078.12
768.084	2141.86
768.271	2167.05
768.458	2245.51
768.645	2283.29
768.832	2254.23
769.019	2302.28
769.206	2302.86
769.392	2351.69
769.579	2482.47
769.766	2416.01
769.953	2387.14
770.14	2484.02
770.327	2437.91
770.513	2490.8
770.7	2552.8
770.887	2459.41
771.073	2486.34
771.26	2464.64
771.447	2440.04
771.634	2440.42
771.82	2516.76
772.007	2432.09
772.193	2498.16
772.38	2527.03
772.567	2505.91
772.753	2496.61
772.94	2532.65
773.126	2515.02
773.313	2552.22
773.499	2543.69
773.686	2514.44
773.872	2522.19
774.059	2509.59
774.245	2474.14
774.432	2460.38
774.618	2397.99
774.804	2440.62
774.991	2445.66
775.177	2453.41
775.363	2442.17
775.55	2496.61
775.736	2437.52
775.922	2472
776.109	2472
776.295	2476.46
776.481	2459.99
776.667	2488.28
776.853	2418.72
777.04	2430.93
777.226	2437.52
777.412	2509.98
777.598	2375.91
777.784	2397.99
777.97	2373.97
778.156	2443.52
778.342	2419.5
778.528	2373.58
778.715	2328.83
778.901	2376.29
779.087	2409.42
779.272	2364.09
779.458	2341.61
779.644	2386.37
779.83	2383.85
780.016	2409.42
780.202	2391.02
780.388	2335.61
780.574	2273.41
780.76	2295.11
780.946	2354.01
781.131	2338.51
781.317	2304.41
781.503	2312.74
781.689	2313.33
781.874	2439.65
782.06	2278.06
782.246	2316.23
782.432	2292.21
782.617	2311
782.803	2370.67
782.989	2215.1
783.174	2273.61
783.36	2207.15
783.545	2261.21
783.731	2225.56
783.916	2155.23
784.102	2267.99
784.288	2207.93
784.473	2229.43
784.659	2197.85
784.844	2265.47
785.029	2193.78
785.215	2207.54
785.4	2158.33
785.586	2267.02
785.771	2173.05
785.956	2231.56
786.142	2199.21
786.327	2139.53
786.512	2165.5
786.698	2162.2
786.883	2138.37
787.068	2161.82
787.254	2160.07
787.439	2138.18
787.624	2137.4
787.809	2104.85
787.994	2125
788.18	2152.32
788.365	2044.99
788.55	2075.99
788.735	2063.78
788.92	2081.02
789.105	2078.89
789.29	2099.04
789.475	2057
789.66	2036.65
789.845	2011.08
790.03	2020.38
790.215	2090.9
790.4	2113.18
790.585	2094.59
790.77	2008.17
790.955	1953.73
791.14	2015.92
791.325	2072.89
791.51	1944.62
791.695	2014.18
791.879	1974.85
792.064	1953.34
792.249	2056.22
792.434	1980.66
792.618	2007.4
792.803	2037.24
792.988	1997.13
793.173	2005.85
793.357	1984.34
793.542	1990.54
793.727	1997.52
793.911	2050.6
794.096	1967.1
794.281	2015.34
794.465	2109.7
794.65	2042.27
794.834	2074.44
795.019	2080.25
795.203	2070.37
795.388	2087.03
795.572	2072.5
795.757	2050.41
795.941	2047.12
796.126	2029.87
796.31	1995.39
796.494	2063.78
796.679	1984.92
796.863	2025.42
797.048	2077.15
797.232	2059.52
797.416	2036.07
797.601	2045.95
797.785	2090.32
797.969	2104.47
798.153	2032.97
798.338	2102.92
798.522	2072.89
798.706	2104.47
798.89	2087.61
799.074	2162.59
799.258	2106.6
799.443	2094.2
799.627	2068.04
799.811	2163.56
799.995	2079.67
800.179	2036.65
800.363	2056.42
800.547	2069.2
800.731	2082.77
800.915	2012.44
801.099	2041.5
801.283	2061.65
801.467	2073.66
801.651	2035.3
801.835	2121.71
802.019	2108.92
802.202	2088.77
802.386	1993.45
802.57	2045.76
802.754	2031.42
802.938	1972.91
803.121	2017.86
803.305	2099.62
803.489	2048.28
803.673	2071.53
803.856	2061.84
804.04	2049.25
804.224	2085.87
804.407	2040.72
804.591	2035.49
804.775	2038.98
804.958	2070.56
805.142	2117.83
805.326	2049.64
805.509	2057.58
805.693	2078.12
805.876	2085.48
806.06	2033.17
806.243	2073.08
806.427	2118.8
806.61	2150.97
806.794	2098.65
806.977	2078.89
807.16	2076.95
807.344	2066.1
807.527	2083.35
807.71	2009.34
807.894	2065.91
808.077	2077.54
808.26	2021.15
808.444	2016.7
808.627	2117.06
808.81	2026.58
808.993	1987.44
809.177	1999.65
809.36	1997.32
809.543	2026.77
809.726	1936.49
809.909	1946.56
810.092	1944.43
810.276	1942.88
810.459	1947.14
810.642	1914.59
810.825	1882.04
811.008	1915.37
811.191	1825.86
811.374	1846.01
811.557	1880.69
811.74	1955.47
811.923	1793.11
812.106	1813.07
812.289	1760.95
812.472	1767.35
812.654	1835.16
812.837	1753.78
813.02	1706.7
813.203	1725.5
813.386	1614.48
813.569	1612.93
813.751	1563.52
813.934	1630.95
814.117	1619.52
814.3	1519.16
814.482	1522.64
814.665	1506.17
814.848	1489.51
815.03	1427.13
815.213	1419.38
815.396	1400.39
815.578	1372.68
815.761	1363
815.943	1434.68
816.126	1340.52
816.309	1334.13
816.491	1293.63
816.674	1196.95
816.856	1252.17
817.039	1275.81
817.221	1311.65
817.403	1279.68
817.586	1282.59
817.768	1296.15
817.951	1236.28
818.133	1222.92
818.315	1256.82
818.498	1281.62
818.68	1344.4
818.862	1335.48
819.045	1344.78
819.227	1332.96
819.409	1297.32
819.591	1368.42
819.774	1315.72
819.956	1303.71
820.138	1348.08
820.32	1332.38
820.502	1365.9
820.684	1421.51
820.866	1398.65
821.048	1427.9
821.231	1483.7
821.413	1489.51
821.595	1464.52
821.777	1472.46
821.959	1447.28
822.141	1493
822.323	1369.97
822.505	1366.29
822.686	1302.93
822.868	1235.32
823.05	1174.09
823.232	1169.64
823.414	1089.81
823.596	1131.47
823.778	1124.3
823.96	1198.31
824.141	1149.1
824.323	1167.89
824.505	1282.4
824.687	1254.88
824.868	1317.85
825.05	1432.16
825.232	1434.29
825.413	1497.46
825.595	1421.51
825.777	1370.94
825.958	1425.58
826.14	1433.91
826.321	1436.23
826.503	1400.39
826.685	1424.61
826.866	1459.09
827.048	1437.59
827.229	1357.76
827.411	1349.05
827.592	1307.78
827.773	1333.35
827.955	1282.59
828.136	1309.91
828.318	1249.07
828.499	1290.34
828.68	1223.69
828.862	1266.7
829.043	1301.38
829.224	1270.19
829.406	1257.6
829.587	1293.63
829.768	1271.16
829.949	1263.41
830.131	1278.33
830.312	1320.76
830.493	1280.65
830.674	1289.95
830.855	1264.38
831.036	1258.18
831.218	1313.4
831.399	1358.15
831.58	1291.5
831.761	1291.5
831.942	1299.45
832.123	1241.71
832.304	1257.98
832.485	1243.84
832.666	1313.4
832.847	1298.28
833.028	1308.36
833.209	1328.31
833.389	1295.57
833.57	1224.85
833.751	1239.77
833.932	1320.95
834.113	1283.56
834.294	1227.95
834.475	1302.55
834.655	1308.17
834.836	1322.31
835.017	1291.89
835.198	1243.65
835.378	1294.99
835.559	1339.16
835.74	1288.6
835.92	1278.52
836.101	1275.42
836.281	1332.38
836.462	1314.17
836.643	1334.13
836.823	1350.79
837.004	1344.4
837.184	1390.51
837.365	1365.51
837.545	1352.15
837.726	1331.22
837.906	1396.32
838.087	1333.55
838.267	1327.35
838.448	1294.8
838.628	1326.18
838.808	1331.22
838.989	1404.07
839.169	1264.18
839.349	1337.03
839.53	1372.1
839.71	1357.38
839.89	1315.72
840.07	1396.71
840.251	1321.34
840.431	1391.86
840.611	1327.73
840.791	1305.26
840.971	1325.99
841.151	1319.21
841.332	1293.05
841.512	1351.18
841.692	1237.25
841.872	1361.83
842.052	1305.45
842.232	1353.5
842.412	1288.4
842.592	1322.11
842.772	1347.3
842.952	1308.94
843.132	1291.5
843.312	1238.8
843.492	1247.91
843.672	1339.36
843.851	1230.67
844.031	1285.11
844.211	1256.24
844.391	1254.11
844.571	1294.99
844.751	1304.87
844.93	1293.44
845.11	1264.38
845.29	1295.18
845.47	1315.53
845.649	1270.77
845.829	1283.17
846.009	1247.33
846.188	1292.28
846.368	1288.6
846.547	1257.79
846.727	1288.02
846.907	1245
847.086	1289.95
847.266	1281.82
847.445	1286.27
847.625	1245.2
847.804	1267.48
847.984	1263.99
848.163	1227.37
848.343	1232.8
848.522	1252.56
848.701	1252.56
848.881	1233.18
849.06	1255.47
849.239	1245
849.419	1272.9
849.598	1193.66
849.777	1191.92
849.957	1167.89
850.136	1119.65
850.315	1141.93
850.494	1093.49
850.674	1099.31
850.853	1181.65
851.032	1150.45
851.211	1219.43
851.39	1179.32
851.569	1134.76
851.748	1121.01
851.927	1207.22
852.107	1149.68
852.286	1149.1
852.465	1125.85
852.644	1209.35
852.823	1204.7
853.002	1187.07
853.181	1177.77
853.359	1179.71
853.538	1101.05
853.717	1189.98
853.896	1069.47
854.075	1062.11
854.254	1038.47
854.433	963.3
854.611	1040.21
854.79	967.75
854.969	1020.26
855.148	1074.89
855.327	973.76
855.505	1073.15
855.684	1042.34
855.863	1060.56
856.041	1028.98
856.22	1057.65
856.399	1062.88
856.577	1110.16
856.756	1108.41
856.934	1224.47
857.113	1219.24
857.291	1118.87
857.47	1104.73
857.648	1080.9
857.827	1169.25
858.005	1149.87
858.184	1091.56
858.362	1160.92
858.541	1108.02
858.719	1099.11
858.898	1122.17
859.076	1080.12
859.254	1199.86
859.433	1120.42
859.611	1089.23
859.789	1063.27
859.967	1134.18
860.146	1144.84
860.324	1079.16
860.502	1086.32
860.68	1017.93
860.859	1051.64
861.037	1030.53
861.215	1080.71
861.393	1090.01
861.571	1088.84
861.749	1057.84
861.927	1078.57
862.105	1046.03
862.283	1071.21
862.461	1033.04
862.639	999.53
862.817	1060.94
862.995	1058.23
863.173	1032.27
863.351	1051.06
863.529	1057.65
863.707	1055.33
863.885	1063.46
864.063	959.61
864.241	1021.42
864.418	1090.97
864.596	1033.63
864.774	991.97
864.952	1021.03
865.129	1031.88
865.307	992.36
865.485	976.66
865.663	1099.31
865.84	961.16
866.018	982.09
866.196	851.5
866.373	929
866.551	868.75
866.728	819.34
866.906	855.18
867.084	896.45
867.261	937.14
867.439	922.03
867.616	968.53
867.794	940.05
867.971	959.03
868.149	951.48
868.326	1030.72
868.503	966.78
868.681	962.91
868.858	952.64
869.035	926.29
869.213	961.75
869.39	947.6
869.567	1000.88
869.745	957.29
869.922	947.41
870.099	975.5
870.276	999.33
870.454	999.91
870.631	995.07
870.808	955.74
870.985	962.71
871.162	1028.01
871.339	978.99
871.517	906.33
871.694	906.14
871.871	955.74
872.048	931.52
872.225	927.65
872.402	953.61
872.579	887.15
872.756	932.1
872.933	865.84
873.11	941.21
873.287	969.49
873.463	867
873.64	892.19
873.817	927.06
873.994	907.3
874.171	899.16
874.348	891.41
874.524	854.6
874.701	903.04
874.878	856.35
875.055	916.8
875.231	886.18
875.408	910.4
875.585	847.63
875.762	907.11
875.938	890.45
876.115	876.3
876.291	839.49
876.468	875.14
876.645	860.03
876.821	875.92
876.998	863.13
877.174	879.79
877.351	867.97
877.527	828.64
877.704	897.61
877.88	865.26
878.057	850.53
878.233	907.5
878.409	839.3
878.586	828.45
878.762	836.78
878.938	848.4
879.115	782.92
879.291	859.64
879.467	774.78
879.644	811.4
879.82	818.18
879.996	812.17
880.172	786.4
880.349	833.29
880.525	830
880.701	819.15
880.877	780.4
881.053	830
881.229	821.28
881.405	865.65
881.581	777.69
881.757	806.36
881.933	827.87
882.109	818.95
882.285	808.3
882.461	776.14
882.637	776.72
882.813	775.17
882.989	776.33
883.165	850.92
883.341	776.52
883.517	810.82
883.693	801.71
883.869	836
884.044	792.99
884.22	818.37
884.396	845.11
884.572	786.4
884.747	818.57
884.923	835.42
885.099	837.94
885.275	873.01
885.45	823.8
885.626	782.14
885.801	763.93
885.977	781.75
886.153	743.97
886.328	789.5
886.504	741.26
886.679	789.12
886.855	775.94
887.03	814.3
887.206	873.2
887.381	783.5
887.557	807.52
887.732	850.34
887.908	821.08
888.083	826.12
888.258	781.75
888.434	775.36
888.609	800.74
888.784	840.46
888.96	769.94
889.135	758.5
889.31	735.45
889.485	814.11
889.661	777.88
889.836	851.89
890.011	833.68
890.186	759.86
890.361	755.79
890.537	848.02
890.712	823.02
890.887	800.35
891.062	792.02
891.237	841.43
891.412	743.78
891.587	806.36
891.762	795.9
891.937	870.3
892.112	764.51
892.287	792.41
892.462	775.94
892.637	712
892.812	743.59
892.987	730.02
893.161	697.09
893.336	735.84
893.511	723.82
893.686	730.22
893.861	720.92
894.035	729.44
894.21	712.2
894.385	670.35
894.56	711.04
894.734	635.47
894.909	636.06
895.084	655.04
895.258	665.7
895.433	666.47
895.608	642.64
895.782	596.14
895.957	585.1
896.131	634.31
896.306	563.59
896.48	579.09
896.655	616.49
896.829	505.47
897.004	542.67
897.178	519.23
897.353	508.76
897.527	597.31
897.701	535.31
897.876	485.71
898.05	589.56
898.224	539.96
898.399	605.06
898.573	548.68
898.747	444.63
898.921	499.66
899.096	431.65
899.27	425.26
899.444	433.98
899.618	433.78
899.792	483.19
899.967	472.92
900.141	495.98
900.315	426.03
900.489	449.86
900.663	490.94
900.837	463.81
901.011	415.77
901.185	533.76
901.359	499.85
901.533	457.03
901.707	488.81
901.881	446.38
902.055	404.53
902.229	476.21
902.403	488.42
902.576	440.57
902.75	486.29
902.924	586.26
903.098	511.48
903.272	557.01
903.446	593.04
903.619	559.33
903.793	605.06
903.967	546.54
904.14	617.46
904.314	617.07
904.488	581.61
904.661	625.59
904.835	593.63
905.009	627.14
905.182	635.86
905.356	598.86
905.529	599.05
905.703	540.15
905.876	567.86
906.05	530.66
906.223	523.68
906.397	480.48
906.57	471.56
906.744	420.61
906.917	445.99
907.09	446.96
907.264	487.26
907.437	432.23
907.61	412.67
907.784	436.69
907.957	466.91
908.13	393.68
908.304	472.53
908.477	415.38
908.65	435.33
908.823	379.15
908.996	474.08
909.17	425.65
909.343	429.13
909.516	406.85
909.689	403.75
909.862	395.42
910.035	376.82
910.208	368.68
910.381	384.96
910.554	494.43
910.727	419.25
910.9	399.3
911.073	401.04
911.246	452.38
911.419	443.47
911.592	422.93
911.765	397.36
911.938	389.03
912.11	395.42
912.283	430.88
912.456	456.65
912.629	408.4
912.802	411.7
912.974	334.39
913.147	325.48
913.32	293.9
913.493	324.9
913.665	352.6
913.838	362.87
914.01	345.82
914.183	355.32
914.356	340.79
914.528	414.8
914.701	434.37
914.873	412.28
915.046	357.83
915.218	330.52
915.391	253.21
915.563	281.3
915.736	350.47
915.908	360.35
916.081	331.49
916.253	323.74
916.425	360.93
916.598	357.06
916.77	334.59
916.942	319.28
917.115	274.33
917.287	342.34
917.459	302.23
917.632	288.67
917.804	257.67
917.976	315.02
918.148	337.49
918.32	332.84
918.493	349.12
918.665	386.9
918.837	362.29
919.009	431.65
919.181	391.16
919.353	373.72
919.525	378.37
919.697	342.34
919.869	363.65
920.041	423.13
920.213	497.33
920.385	423.52
920.557	387.09
920.729	403.95
920.901	412.08
921.073	378.95
921.244	356.87
921.416	430.1
921.588	359
921.76	362.29
921.932	424.29
922.103	346.79
922.275	369.27
922.447	340.01
922.619	310.37
922.79	366.55
922.962	375.85
923.134	401.62
923.305	319.09
923.477	289.05
923.648	296.8
923.82	360.16
923.991	297.19
924.163	277.24
924.335	322.38
924.506	273.55
924.677	336.91
924.849	293.32
925.02	324.9
925.192	348.15
925.363	294.67
925.535	322.38
925.706	293.32
925.877	353.19
926.049	268.13
926.22	307.46
926.391	305.72
926.562	344.08
926.734	281.5
926.905	327.22
927.076	260.57
927.247	273.55
927.419	255.92
927.59	239.07
927.761	260.77
927.932	238.87
928.103	293.12
928.274	233.26
928.445	210.78
928.616	230.54
928.787	225.7
928.958	265.03
929.129	245.85
929.3	240.42
929.471	178.43
929.642	142.97
929.813	132.12
929.984	219.11
930.155	124.56
930.326	206.13
930.496	130.57
930.667	99.38
930.838	147.04
931.009	118.36
931.18	115.84
931.35	121.08
931.521	140.26
931.692	90.27
931.863	58.3
932.033	97.63
932.204	85.81
932.374	85.43
932.545	58.69
932.716	109.26
932.886	111.78
933.057	44.55
933.227	54.43
933.398	140.84
933.568	67.21
933.739	4.25
933.909	38.93
934.08	69.35
934.25	-1.76
934.421	22.46
934.591	61.79
934.761	23.43
934.932	-21.52
935.102	32.53
935.272	33.89
935.443	24.01
935.613	15.48
935.783	76.71
935.953	1.34
936.123	164.28
936.294	-6.02
936.464	30.79
936.634	23.23
936.804	24.59
936.974	2.89
937.144	55.78
937.314	59.85
937.484	14.13
937.655	-9.7
937.825	74.96
937.995	18.78
938.165	76.51
938.334	28.46
938.504	63.92
938.674	33.11
938.844	54.81
939.014	73.22
939.184	76.13
939.354	148.39
939.524	121.85
939.694	67.21
939.863	37.57
940.033	118.36
940.203	128.63
940.373	87.56
940.542	107.32
940.712	86.78
940.882	85.62
941.051	120.88
941.221	100.73
941.391	125.92
941.56	74.77
941.73	55.78
941.899	176.49
942.069	65.86
942.238	86.98
942.408	66.63
942.577	78.65
942.747	74.77
942.916	-1.95
943.086	37.76
943.255	90.46
943.425	69.35
943.594	49.58
943.763	-3.89
943.933	17.61
944.102	18.2
944.271	46.29
944.441	60.43
944.61	35.25
944.779	60.05
944.948	154.98
945.117	-5.83
945.287	48.81
945.456	-34.89
945.625	42.8
945.794	77.48
945.963	31.56
946.132	74.96
946.301	49.2
946.47	59.46
946.639	10.06
946.808	33.89
946.977	70.31
947.146	102.28
947.315	47.06
947.484	63.73
947.653	12.58
947.822	66.25
947.991	40.09
948.16	123.79
948.329	91.82
948.498	45.13
948.666	56.56
948.835	108.48
949.004	21.3
949.173	5.8
949.341	33.5
949.51	54.62
949.679	85.04
949.847	90.66
950.016	134.44
950.185	129.79
950.353	25.36
950.522	46.29
950.69	110.42
950.859	13.55
951.028	92.6
951.196	53.46
951.365	16.84
951.533	51.33
951.701	59.66
951.87	55.4
952.038	22.07
952.207	39.12
952.375	114.88
952.543	22.85
952.712	58.69
952.88	39.12
953.048	124.95
953.217	48.42
953.385	56.75
953.553	95.5
953.721	33.7
953.89	63.34
954.058	-1.76
954.226	26.14
954.394	67.02
954.562	27.3
954.73	66.44
954.898	30.98
955.067	94.73
955.235	27.3
955.403	65.47
955.571	124.18
955.739	61.4
955.907	44.16
956.075	49.39
956.243	29.82
956.41	56.75
956.578	6.38
956.746	36.6
956.914	26.53
957.082	62.95
957.25	87.17
957.418	24.4
957.585	37.96
957.753	91.43
957.921	2.12
958.089	54.04
958.256	75.16
958.424	74.77
958.592	57.72
958.759	35.25
958.927	74.38
959.095	24.01
959.262	39.51
959.43	60.43
959.597	24.4
959.765	58.5
959.932	32.34
960.1	78.45
960.267	57.72
960.435	44.35
960.602	84.07
960.77	20.91
960.937	4.44
961.104	66.44
961.272	-2.53
961.439	15.87
961.606	57.53
961.774	81.94
961.941	42.22
962.108	47.84
962.275	37.76
962.443	91.82
962.61	79.42
962.777	128.63
962.944	80.97
963.111	73.22
963.278	75.55
963.446	62.76
963.613	52.88
963.78	64.11
963.947	81.36
964.114	79.42
964.281	145.88
964.448	72.83
964.615	38.35
964.782	74.58
964.949	76.13
965.116	90.08
965.282	106.54
965.449	53.85
965.616	46.1
965.783	86.01
965.95	95.31
966.117	14.32
966.283	61.79
966.45	78.45
966.617	96.47
966.784	117.01
966.95	80.97
967.117	109.64
967.284	63.34
967.45	24.2
967.617	114.29
967.784	91.24
967.95	131.73
968.117	56.56
968.283	125.92
968.45	181.72
968.616	74.96
968.783	135.03
968.949	85.04
969.116	103.25
969.282	80.39
969.449	77.1
969.615	78.26
969.781	48.03
969.948	68.76
970.114	46.29
970.28	127.08
970.447	66.05
970.613	126.5
970.779	85.23
970.945	114.88
971.112	86.98
971.278	70.12
971.444	79.42
971.61	127.66
971.776	53.85
971.942	83.88
972.108	93.37
972.275	58.69
972.441	90.46
972.607	133.09
972.773	54.62
972.939	53.85
973.105	81.55
973.271	48.23
973.437	63.34
973.602	54.81
973.768	90.08
973.934	64.31
974.1	77.1
974.266	18.2
974.432	101.12
974.598	78.65
974.763	100.34
974.929	51.91
975.095	140.45
975.261	30.6
975.426	56.56
975.592	71.48
975.758	155.95
975.923	14.9
976.089	39.9
976.255	85.81
976.42	83.1
976.586	91.63
976.751	69.73
976.917	167.96
977.082	100.15
977.248	34.47
977.413	4.63
977.579	68.76
977.744	57.14
977.91	36.6
978.075	47.26
978.24	92.6
978.406	46.48
978.571	37.96
978.736	42.03
978.902	89.5
979.067	30.98
979.232	8.9
979.397	51.71
979.563	124.18
979.728	45.13
979.893	53.85
980.058	49.97
980.223	109.06
980.388	57.14
980.554	75.16
980.719	42.61
980.884	104.99
981.049	101.31
981.214	74.77
981.379	98.99
981.544	56.75
981.709	77.68
981.874	70.31
982.039	53.26
982.204	85.62
982.368	74.96
982.533	47.26
982.698	84.46
982.863	121.08
983.028	67.21
983.193	53.26
983.357	69.15
983.522	52.49
983.687	36.99
983.852	51.52
984.016	49.78
984.181	63.15
984.346	62.18
984.51	83.88
984.675	62.56
984.839	94.92
985.004	63.34
985.168	97.24
985.333	68.38
985.498	68.96
985.662	89.88
985.827	83.88
985.991	55.4
986.155	54.43
986.32	108.87
986.484	133.67
986.649	91.63
986.813	-9.12
986.977	89.11
987.142	85.23
987.306	61.6
987.47	34.28
987.634	48.03
987.799	45.9
987.963	73.8
988.127	99.18
988.291	137.35
988.455	66.44
988.62	70.12
988.784	96.66
988.948	75.74
989.112	45.51
989.276	70.51
989.44	82.13
989.604	37.96
989.768	60.24
989.932	161.38
990.096	9.67
990.26	34.08
990.424	13.35
990.588	57.72
990.752	106.74
990.915	95.11
991.079	39.7
991.243	44.93
991.407	102.09
991.571	53.07
991.734	80.2
991.898	64.7
992.062	132.12
992.226	46.87
992.389	27.5
992.553	29.82
992.717	19.94
992.88	6.38
993.044	52.49
993.207	45.51
993.371	80.78
993.535	57.53
993.698	41.83
993.862	89.69
994.025	107.32
994.189	40.67
994.352	62.18
994.515	60.82
994.679	112.55
994.842	47.84
995.006	101.51
995.169	19.55
995.332	45.32
995.496	93.56
995.659	-15.9
995.822	60.43
995.985	40.67
996.149	89.5
996.312	57.91
996.475	121.46
996.638	33.89
996.801	108.87
996.964	115.46
997.128	44.16
997.291	23.81
997.454	76.71
997.617	14.51
997.78	76.32
997.943	29.43
998.106	85.23
998.269	38.54
998.432	45.32
998.595	50.75
998.758	-5.05
998.92	12.96
999.083	-13
999.246	40.09
999.409	16.26
999.572	-0.6
999.735	12.77
999.897	71.86
1000.06	5.6
1000.223	50.16
1000.386	81.16
1000.548	69.54
1000.711	60.24
1000.874	53.65
1001.036	-17.07
1001.199	73.8
1001.361	23.04
1001.524	42.61
1001.687	83.49
1001.849	21.1
1002.012	60.43
1002.174	44.16
1002.337	64.89
1002.499	47.45
1002.661	114.88
1002.824	18.39
1002.986	20.71
1003.149	46.87
1003.311	31.18
1003.473	94.73
1003.636	8.51
1003.798	68.38
1003.96	55.01
1004.123	54.23
1004.285	22.85
1004.447	63.92
1004.609	40.86
1004.771	84.85
1004.933	6.57
1005.096	10.45
1005.258	-5.44
1005.42	24.4
1005.582	70.51
1005.744	55.98
1005.906	-0.02
1006.068	42.03
1006.23	-8.35
1006.392	-14.35
1006.554	-20.94
1006.716	83.1
1006.878	36.41
1007.04	-5.44
1007.202	17.42
1007.363	40.28
1007.525	51.71
1007.687	30.21
1007.849	66.44
1008.011	-1.57
1008.172	-16.87
1008.334	13.16
1008.496	44.93
1008.658	-57.17
1008.819	12.77
1008.981	15.1
1009.143	11.22
1009.304	26.14
1009.466	75.55
1009.627	99.38
1009.789	138.32
1009.95	45.71
1010.112	-2.15
1010.273	44.93
1010.435	5.02
1010.596	16.26
1010.758	-5.25
1010.919	10.45
1011.081	-5.63
1011.242	23.23
1011.403	52.1
1011.565	25.36
1011.726	35.83
1011.887	-8.35
1012.049	31.37
1012.21	42.61
1012.371	91.82
1012.532	-37.99
1012.693	35.83
1012.855	9.09
1013.016	28.27
1013.177	61.01
1013.338	30.79
1013.499	101.12
1013.66	55.01
1013.821	47.65
1013.982	50.36
1014.143	31.56
1014.304	14.9
1014.465	24.4
1014.626	61.79
1014.787	24.59
1014.948	88.91
1015.109	-41.48
1015.27	74.58
1015.431	-10.48
1015.592	12.58
1015.752	35.44
1015.913	23.81
1016.074	28.27
1016.235	4.83
1016.395	23.81
1016.556	11.61
1016.717	26.72
1016.877	62.37
1017.038	-1.95
1017.199	39.7
1017.359	20.71
1017.52	3.08
1017.681	17.61
1017.841	31.95
1018.002	17.42
1018.162	7.35
1018.323	73.22
1018.483	17.23
1018.644	-4.08
1018.804	-17.84
1018.964	-6.02
1019.125	-2.53
1019.285	35.25
1019.446	-27.33
1019.606	-9.12
1019.766	-24.04
1019.926	41.83
1020.087	27.88
1020.247	-8.73
1020.407	47.45
1020.567	72.83
1020.728	2.5
1020.888	-20.75
1021.048	-26.37
1021.208	2.31
1021.368	-4.28
1021.528	50.75
1021.688	43.96
1021.848	43.96
1022.008	39.7
1022.168	6.77
1022.328	24.4
1022.488	27.5
1022.648	0.76
1022.808	17.03
1022.968	33.31
1023.128	-0.4
1023.288	9.67
1023.448	9.86
1023.608	50.55
1023.767	42.8
1023.927	0.18
1024.087	-5.05
1024.247	-21.72
1024.406	1.53
1024.566	-19
1024.726	-9.12
1024.885	8.7
1025.045	41.83
1025.205	4.44
1025.364	28.08
1025.524	23.04
1025.683	8.9
1025.843	19.16
1026.003	16.06
1026.162	81.94
1026.321	39.9
1026.481	10.45
1026.64	1.92
1026.8	34.86
1026.959	-2.92
1027.119	11.41
1027.278	18.78
1027.437	0.76
1027.597	25.36
1027.756	32.34
1027.915	29.24
1028.074	32.92
1028.234	-18.81
1028.393	14.51
1028.552	-0.4
1028.711	-53.49
1028.87	59.27
1029.03	-0.21
1029.189	3.28
1029.348	-69.38
1029.507	-16.68
1029.666	-6.8
1029.825	-8.35
1029.984	-9.51
1030.143	40.09
1030.302	7.35
1030.461	-63.37
1030.62	21.1
1030.779	15.29
1030.938	-29.27
1031.097	-15.9
1031.255	41.06
1031.414	55.59
1031.573	41.25
1031.732	-49.62
1031.891	3.08
1032.049	65.08
1032.208	21.1
1032.367	-16.48
1032.525	3.28
1032.684	6.77
1032.843	33.7
1033.001	-38.18
1033.16	152.27
1033.319	56.75
1033.477	36.6
1033.636	-5.83
1033.794	-18.03
1033.953	26.72
1034.111	47.65
1034.27	-0.21
1034.428	18.97
1034.587	-12.22
1034.745	15.29
1034.903	24.4
1035.062	26.53
1035.22	-40.7
1035.378	21.88
1035.537	-7.57
1035.695	54.81
1035.853	19.94
1036.011	24.2
1036.17	24.4
1036.328	-61.43
1036.486	-13.58
1036.644	13.74
1036.802	-83.13
1036.96	-34.89
1037.119	-4.67
1037.277	-2.73
1037.435	-26.95
1037.593	-15.52
1037.751	26.33
1037.909	26.33
1038.067	26.33
