Data from pine_FLMT105791__144__17-22-43-074.txt Node

Date: Mon Mar 20 17:22:43 GMT 2023
User: antho
Spectrometer: FLMT10579
Trigger mode: 0
Integration Time (sec): 1.000000E-1
Scans to average: 10
Electric dark correction enabled: true
Nonlinearity correction enabled: false
Boxcar width: 0
XAxis mode: Wavelengths
Number of Pixels in Spectrum: 3648
>>>>>Begin Spectral Data<<<<<
345.248	-154.87
345.464	-154.87
345.681	-154.87
345.898	-174.44
346.114	-175.6
346.331	-30.87
346.548	29
346.764	0.71
346.981	3.81
347.197	-33.97
347.414	44.69
347.631	-14.21
347.847	61.16
348.064	-13.63
348.28	23.96
348.497	-70.98
348.713	0.32
348.93	50.7
349.146	35.97
349.363	4.78
349.579	34.81
349.796	2.84
350.012	8.85
350.229	32.29
350.445	19.7
350.661	-12.85
350.878	26.09
351.094	20.28
351.311	39.27
351.527	25.32
351.743	-10.14
351.96	44.11
352.176	37.13
352.392	4.97
352.609	51.08
352.825	13.5
353.041	10.4
353.257	16.79
353.474	22.99
353.69	22.22
353.906	4.39
354.122	-8.59
354.339	67.94
354.555	11.17
354.771	10.4
354.987	62.71
355.203	54.18
355.42	3.23
355.636	13.3
355.852	3.04
356.068	17.76
356.284	-8.01
356.5	69.68
356.716	25.12
356.932	8.07
357.148	36.94
357.364	0.13
357.58	33.07
357.796	72.2
358.012	58.45
358.228	33.26
358.444	-38.04
358.66	67.94
358.876	23.96
359.092	-3.36
359.308	11.56
359.524	43.53
359.74	0.71
359.956	12.14
360.172	6.91
360.388	54.57
360.604	5.17
360.819	99.52
361.035	-3.36
361.251	35.78
361.467	-6.07
361.683	46.43
361.898	18.54
362.114	36.75
362.33	7.69
362.546	39.27
362.762	15.05
362.977	28.61
363.193	-21.76
363.409	20.47
363.624	-11.5
363.84	-16.34
364.056	-14.01
364.271	20.09
364.487	22.41
364.703	-1.61
364.918	-16.73
365.134	-5.3
365.35	20.28
365.565	136.53
365.781	6.52
365.996	21.05
366.212	72.01
366.427	43.33
366.643	2.65
366.858	4.2
367.074	-27
367.289	56.9
367.505	115.6
367.72	-10.33
367.936	1.49
368.151	33.84
368.367	33.26
368.582	46.24
368.798	-4.91
369.013	68.13
369.228	24.54
369.444	-2.97
369.659	40.43
369.874	28.22
370.09	64.65
370.305	-63.23
370.52	-4.71
370.736	65.23
370.951	30.93
371.166	84.99
371.381	84.41
371.597	17.57
371.812	-15.56
372.027	-13.05
372.242	36.36
372.458	84.6
372.673	-7.23
372.888	29.58
373.103	27.06
373.318	96.03
373.533	56.7
373.749	40.43
373.964	-19.63
374.179	71.43
374.394	-19.83
374.609	60.38
374.824	-22.93
375.039	58.83
375.254	0.13
375.469	84.8
375.684	36.94
375.899	87.12
376.114	16.6
376.329	32.1
376.544	54.57
376.759	44.11
376.974	-5.1
377.189	4.97
377.404	15.24
377.619	84.8
377.834	-26.41
378.049	-17.89
378.264	-18.08
378.478	7.69
378.693	-2.39
378.908	43.92
379.123	27.45
379.338	61.55
379.553	21.64
379.767	38.88
379.982	60.38
380.197	34.23
380.412	11.56
380.626	33.65
380.841	113.28
381.056	41.01
381.271	90.03
381.485	14.85
381.7	-17.31
381.915	11.75
382.129	-2
382.344	36.17
382.559	9.04
382.773	56.51
382.988	-38.43
383.202	33.45
383.417	-19.25
383.632	127.23
383.846	34.23
384.061	40.43
384.275	15.44
384.49	15.44
384.704	34.23
384.919	47.21
385.133	26.67
385.348	37.72
385.562	-9.17
385.777	44.69
385.991	17.37
386.206	26.87
386.42	-2.39
386.634	75.3
386.849	41.78
387.063	36.55
387.277	8.27
387.492	-1.81
387.706	-33.39
387.92	-8.78
388.135	66.58
388.349	25.51
388.563	24.15
388.778	22.6
388.992	71.62
389.206	64.65
389.42	103.98
389.635	16.4
389.849	44.3
390.063	55.54
390.277	39.07
390.491	71.62
390.706	63.48
390.92	21.44
391.134	22.8
391.348	53.8
391.562	-30.68
391.776	5.75
391.99	-11.5
392.205	62.71
392.419	12.72
392.633	20.67
392.847	59.61
393.061	9.43
393.275	91.58
393.489	58.45
393.703	33.84
393.917	48.37
394.131	7.88
394.345	32.48
394.559	71.23
394.773	35.39
394.986	17.76
395.2	37.13
395.414	77.43
395.628	-22.93
395.842	41.98
396.056	2.07
396.27	-8.2
396.484	35
396.697	51.86
396.911	59.42
397.125	49.73
397.339	64.45
397.553	35.78
397.766	113.47
397.98	77.63
398.194	47.02
398.408	17.18
398.621	57.67
398.835	85.57
399.049	60
399.262	97
399.476	65.23
399.69	56.32
399.903	112.5
400.117	26.29
400.331	53.99
400.544	45.66
400.758	149.51
400.971	63.29
401.185	67.94
401.398	7.3
401.612	77.05
401.826	85.77
402.039	61.16
402.253	32.29
402.466	51.08
402.68	37.33
402.893	56.32
403.106	69.68
403.32	35.97
403.533	54.57
403.747	47.98
403.96	52.25
404.174	90.22
404.387	25.51
404.6	44.69
404.814	90.22
405.027	35
405.24	42.95
405.454	30.74
405.667	78.4
405.88	-23.31
406.094	47.02
406.307	75.88
406.52	67.94
406.733	17.95
406.947	24.74
407.16	134.78
407.373	55.35
407.586	44.69
407.799	-2.58
408.012	86.35
408.226	60.38
408.439	126.06
408.652	10.59
408.865	54.77
409.078	92.35
409.291	60.38
409.504	31.52
409.717	72.01
409.93	80.92
410.143	44.11
410.357	-5.68
410.57	25.7
410.783	44.3
410.996	62.71
411.209	41.78
411.421	105.92
411.634	68.72
411.847	45.66
412.06	36.75
412.273	50.7
412.486	53.8
412.699	129.16
412.912	41.78
413.125	82.67
413.338	59.61
413.55	72.01
413.763	58.64
413.976	77.43
414.189	38.49
414.402	46.05
414.615	109.4
414.827	25.51
415.04	74.33
415.253	76.66
415.466	100.68
415.678	132.85
415.891	77.43
416.104	48.57
416.316	50.31
416.529	31.52
416.742	88.28
416.954	97.58
417.167	64.84
417.38	48.37
417.592	99.33
417.805	47.21
418.017	24.74
418.23	74.92
418.442	57.48
418.655	68.33
418.868	92.16
419.08	96.03
419.293	119.67
419.505	52.63
419.718	83.05
419.93	101.46
420.142	74.53
420.355	84.22
420.567	110.95
420.78	78.21
420.992	66
421.205	140.21
421.417	25.9
421.629	67.55
421.842	50.12
422.054	28.42
422.266	96.42
422.479	119.28
422.691	57.48
422.903	114.83
423.115	38.68
423.328	56.9
423.54	76.27
423.752	92.93
423.964	45.27
424.177	53.99
424.389	80.92
424.601	133.43
424.813	91.77
425.025	116.38
425.238	95.26
425.45	70.46
425.662	69.49
425.874	337.06
426.086	70.27
426.298	66.39
426.51	69.68
426.722	106.11
426.934	54.57
427.146	77.43
427.358	67.17
427.57	125.48
427.782	96.23
427.994	73.95
428.206	68.13
428.418	45.08
428.63	100.88
428.842	126.65
429.054	90.8
429.266	130.13
429.478	51.08
429.69	91
429.902	47.6
430.114	107.47
430.325	93.52
430.537	40.82
430.749	75.5
430.961	36.94
431.173	75.69
431.384	101.07
431.596	27.84
431.808	64.84
432.02	94.48
432.231	102.43
432.443	113.86
432.655	90.61
432.867	46.63
433.078	129.55
433.29	178.96
433.502	125.68
433.713	116.76
433.925	94.1
434.136	126.84
434.348	76.27
434.56	41.98
434.771	174.7
434.983	68.52
435.194	96.03
435.406	88.28
435.617	133.04
435.829	148.93
436.04	135.75
436.252	111.53
436.463	136.53
436.675	171.01
436.886	125.48
437.098	113.08
437.309	164.04
437.521	85.38
437.732	116.96
437.943	110.18
438.155	110.95
438.366	45.85
438.578	164.04
438.789	122.96
439	132.85
439.211	109.6
439.423	122.38
439.634	139.63
439.845	113.86
440.057	119.86
440.268	153
440.479	84.02
440.69	122.77
440.902	111.53
441.113	102.04
441.324	141.18
441.535	128.39
441.746	187.48
441.957	106.3
442.168	111.15
442.38	151.64
442.591	153.58
442.802	103.59
443.013	134.4
443.224	163.65
443.435	119.48
443.646	94.87
443.857	106.11
444.068	124.32
444.279	109.6
444.49	196.2
444.701	137.11
444.912	242.89
445.123	187.29
445.334	155.71
445.545	138.08
445.756	126.26
445.967	127.42
446.178	183.22
446.388	204.53
446.599	172.56
446.81	159.58
447.021	124.32
447.232	191.94
447.443	210.34
447.653	138.27
447.864	204.73
448.075	159
448.286	181.48
448.496	170.05
448.707	192.13
448.918	145.44
449.129	242.12
449.339	145.05
449.55	161.33
449.761	157.45
449.971	202.01
450.182	148.35
450.393	192.52
450.603	147.76
450.814	226.23
451.024	198.91
451.235	169.66
451.446	242.7
451.656	212.48
451.867	168.69
452.077	180.31
452.288	222.16
452.498	231.85
452.709	181.67
452.919	214.22
453.13	155.71
453.34	197.56
453.55	138.85
453.761	220.23
453.971	221.58
454.182	237.66
454.392	208.02
454.602	256.65
454.813	208.79
455.023	211.89
455.233	156.68
455.444	191.94
455.654	117.73
455.864	169.27
456.075	151.83
456.285	172.18
456.495	174.7
456.705	203.18
456.916	223.71
457.126	223.71
457.336	220.81
457.546	117.73
457.756	172.76
457.967	228.75
458.177	187.48
458.387	206.47
458.597	170.24
458.807	179.93
459.017	192.13
459.227	179.73
459.437	196.01
459.647	262.46
459.857	220.23
460.068	163.46
460.278	216.74
460.488	224.29
460.698	282.03
460.908	184.77
461.117	170.24
461.327	177.8
461.537	214.8
461.747	201.05
461.957	211.51
462.167	306.44
462.377	237.86
462.587	234.76
462.797	240.38
463.007	200.85
463.216	256.26
463.426	245.61
463.636	257.43
463.846	164.23
464.056	170.05
464.265	258.01
464.475	188.65
464.685	212.86
464.895	226.43
465.104	204.92
465.314	284.94
465.524	185.16
465.733	177.8
465.943	289.98
466.153	282.81
466.362	242.51
466.572	248.51
466.782	217.32
466.991	225.65
467.201	263.63
467.41	197.56
467.62	235.53
467.829	225.84
468.039	252.19
468.249	243.09
468.458	228.56
468.668	248.51
468.877	247.16
469.086	273.31
469.296	271.96
469.505	207.63
469.715	294.62
469.924	251.61
470.134	294.43
470.343	278.35
470.552	247.74
470.762	240.76
470.971	210.15
471.18	265.18
471.39	252.78
471.599	199.88
471.808	290.75
472.018	226.81
472.227	282.03
472.436	304.51
472.645	240.76
472.855	221.58
473.064	285.33
473.273	268.47
473.482	282.03
473.691	295.98
473.901	295.59
474.11	245.41
474.319	358.17
474.528	275.44
474.737	321.36
474.946	307.41
475.155	265.56
475.364	330.86
475.573	274.86
475.783	288.81
475.992	324.46
476.201	316.13
476.41	257.43
476.619	241.15
476.828	295.79
477.037	281.26
477.245	296.56
477.454	322.14
477.663	282.81
477.872	303.34
478.081	381.42
478.29	278.54
478.499	396.54
478.708	320.01
478.917	373.87
479.125	288.81
479.334	343.45
479.543	283.39
479.752	317.29
479.961	311.48
480.169	345.77
480.378	276.8
480.587	425.4
480.796	348.29
481.004	343.06
481.213	350.04
481.422	354.11
481.63	325.82
481.839	358.56
482.048	368.25
482.256	348.49
482.465	328.14
482.674	382.59
482.882	369.02
483.091	427.34
483.299	349.84
483.508	365.92
483.716	352.75
483.925	381.23
484.134	344.42
484.342	329.69
484.551	416.49
484.759	381.81
484.967	395.18
485.176	429.47
485.384	382.39
485.593	414.75
485.801	414.94
486.01	396.92
486.218	368.06
486.426	323.69
486.635	341.71
486.843	359.14
487.051	348.68
487.26	362.82
487.468	413.97
487.676	372.12
487.885	377.74
488.093	401.19
488.301	371.54
488.509	379.1
488.717	434.32
488.926	434.32
489.134	390.34
489.342	402.54
489.55	370.19
489.758	417.65
489.967	367.28
490.175	504.45
490.383	386.27
490.591	472.68
490.799	399.83
491.007	457.57
491.215	453.3
491.423	422.11
491.631	416.88
491.839	423.85
492.047	435.48
492.255	385.49
492.463	375.03
492.671	427.15
492.879	477.72
493.087	389.37
493.295	450.59
493.503	439.16
493.711	435.67
493.919	439.55
494.127	452.53
494.334	478.88
494.542	438.39
494.75	423.85
494.958	452.72
495.166	486.82
495.374	451.17
495.581	451.95
495.789	457.37
495.997	516.08
496.205	470.93
496.412	438
496.62	454.47
496.828	479.07
497.035	454.66
497.243	506.78
497.451	486.43
497.658	487.6
497.866	481.2
498.074	532.35
498.281	468.42
498.489	553.66
498.696	487.02
498.904	465.32
499.112	466.67
499.319	549.21
499.527	465.32
499.734	532.16
499.942	453.69
500.149	478.68
500.357	484.5
500.564	458.73
500.771	517.05
500.979	465.12
501.186	454.66
501.394	476.75
501.601	499.61
501.808	520.53
502.016	495.35
502.223	481.78
502.43	491.08
502.638	485.08
502.845	474.62
503.052	562.38
503.26	465.9
503.467	571.68
503.674	500.58
503.881	519.18
504.089	590.67
504.296	562.38
504.503	484.3
504.71	512.59
504.917	463.96
505.125	512.78
505.332	524.41
505.539	549.6
505.746	581.18
505.953	538.75
506.16	533.71
506.367	568.2
506.574	580.6
506.781	568.97
506.988	517.43
507.195	559.48
507.402	514.53
507.609	576.72
507.816	548.24
508.023	525.77
508.23	545.92
508.437	512.98
508.644	572.46
508.851	585.05
509.058	609.66
509.265	572.26
509.472	578.66
509.679	657.9
509.885	572.26
510.092	561.61
510.299	595.13
510.506	592.22
510.713	572.46
510.92	596.68
511.126	601.91
511.333	633.68
511.54	589.12
511.746	652.09
511.953	657.51
512.16	622.06
512.367	600.75
512.573	617.41
512.78	607.53
512.987	584.08
513.193	599
513.4	533.32
513.606	588.93
513.813	651.31
514.02	590.86
514.226	699.36
514.433	641.82
514.639	598.03
514.846	652.28
515.052	592.03
515.259	612.37
515.465	627.1
515.672	648.02
515.878	711.57
516.085	602.88
516.291	661.78
516.497	591.25
516.704	611.6
516.91	593.96
517.117	554.05
517.323	535.84
517.529	611.21
517.736	595.9
517.942	596.29
518.148	592.8
518.354	628.26
518.561	626.51
518.767	630.97
518.973	664.1
519.179	646.66
519.386	621.86
519.592	592.03
519.798	605.01
520.004	687.16
520.21	660.23
520.417	697.62
520.623	707.89
520.829	722.23
521.035	678.05
521.241	691.61
521.447	728.62
521.653	788.29
521.859	704.4
522.065	729.2
522.271	767.76
522.477	751.48
522.683	787.71
522.889	730.36
523.095	740.63
523.301	709.44
523.507	727.65
523.713	775.12
523.919	725.33
524.125	781.32
524.331	777.64
524.537	835.37
524.742	796.43
524.948	801.08
525.154	789.65
525.36	868.89
525.566	785.39
525.772	859.2
525.977	747.41
526.183	831.89
526.389	795.27
526.595	767.56
526.8	760.78
527.006	744.7
527.212	718.54
527.417	700.53
527.623	717.77
527.829	763.11
528.034	740.63
528.24	776.28
528.446	760.39
528.651	832.27
528.857	812.9
529.062	904.93
529.268	815.8
529.473	811.74
529.679	829.37
529.884	910.35
530.09	848.94
530.295	888.46
530.501	870.64
530.706	826.65
530.912	801.86
531.117	861.14
531.323	827.24
531.528	857.07
531.733	887.69
531.939	855.52
532.144	845.45
532.35	866.57
532.555	918.3
532.76	899.89
532.966	902.99
533.171	890.79
533.376	858.62
533.581	815.42
533.787	875.67
533.992	898.73
534.197	925.08
534.402	880.13
534.607	882.84
534.813	955.11
535.018	898.15
535.223	865.21
535.428	885.36
535.633	925.66
535.838	878.77
536.043	893.11
536.249	992.31
536.454	913.45
536.659	933.22
536.864	871.02
537.069	924.69
537.274	938.83
537.479	949.49
537.684	922.75
537.889	880.32
538.094	990.18
538.299	923.53
538.504	908.22
538.708	956.08
538.913	964.8
539.118	925.85
539.323	926.43
539.528	909.77
539.733	949.68
539.938	985.92
540.142	963.44
540.347	932.05
540.552	882.07
540.757	911.13
540.962	926.82
541.166	892.34
541.371	876.64
541.576	936.7
541.781	834.21
541.985	951.23
542.19	916.17
542.395	969.25
542.599	1008.39
542.804	989.79
543.008	973.9
543.213	947.94
543.418	903.18
543.622	975.65
543.827	916.36
544.031	992.5
544.236	996.18
544.44	970.22
544.645	1037.26
544.849	962.47
545.054	1001.8
545.258	1069.61
545.463	1026.8
545.667	976.42
545.872	992.89
546.076	993.08
546.281	999.09
546.485	967.51
546.689	985.92
546.894	950.85
547.098	1015.17
547.302	944.07
547.507	978.94
547.711	1006.45
547.915	1043.07
548.119	993.86
548.324	986.11
548.528	1045.4
548.732	1009.55
548.936	1035.13
549.141	1014.4
549.345	959.18
549.549	1028.35
549.753	1010.52
549.957	1059.93
550.161	1068.65
550.366	1009.16
550.57	989.4
550.774	991.53
550.978	958.21
551.182	1037.65
551.386	989.21
551.59	988.63
551.794	977.39
551.998	1005.1
552.202	979.52
552.406	986.5
552.61	967.51
552.814	998.12
553.018	1063.41
553.222	985.33
553.426	965.57
553.63	1049.85
553.833	990.56
554.037	937.28
554.241	1009.55
554.445	1019.63
554.649	990.56
554.853	993.86
555.056	1033.58
555.26	1035.51
555.464	1001.61
555.668	1046.95
555.871	1063.8
556.075	1057.41
556.279	985.72
556.483	960.73
556.686	997.35
556.89	1013.23
557.094	1005.68
557.297	926.24
557.501	1015.17
557.704	924.69
557.908	1021.18
558.112	927.4
558.315	1054.7
558.519	967.7
558.722	1001.41
558.926	982.04
559.129	938.06
559.333	905.9
559.536	939.03
559.74	905.32
559.943	900.67
560.147	910.16
560.35	981.65
560.553	948.72
560.757	891.75
560.96	994.83
561.164	914.62
561.367	1044.04
561.57	948.72
561.774	992.31
561.977	941.74
562.18	917.72
562.384	1028.54
562.587	944.26
562.79	927.98
562.993	969.64
563.197	973.9
563.4	1016.33
563.603	992.31
563.806	1053.53
564.009	930.5
564.212	967.12
564.416	881.87
564.619	967.51
564.822	922.37
565.025	956.85
565.228	906.67
565.431	956.47
565.634	850.68
565.837	901.83
566.04	898.34
566.243	887.69
566.446	806.12
566.649	928.18
566.852	878.77
567.055	900.86
567.258	933.41
567.461	940.58
567.664	953.56
567.867	864.63
568.07	907.83
568.273	897.76
568.475	946.58
568.678	863.85
568.881	904.15
569.084	889.24
569.287	821.81
569.489	831.11
569.692	892.92
569.895	942.13
570.098	836.73
570.3	840.8
570.503	771.63
570.706	826.46
570.909	813.09
571.111	761.56
571.314	808.44
571.516	803.6
571.719	833.05
571.922	807.47
572.124	809.61
572.327	860.56
572.529	776.86
572.732	742.18
572.935	824.14
573.137	876.45
573.34	808.64
573.542	842.15
573.745	825.3
573.947	842.35
574.15	813.29
574.352	753.61
574.554	875.67
574.757	748.19
574.959	778.99
575.162	779.19
575.364	797.79
575.566	862.3
575.769	762.14
575.971	814.06
576.173	711.38
576.376	782.29
576.578	812.12
576.78	829.37
576.982	686.38
577.185	760.01
577.387	729.01
577.589	701.49
577.791	799.72
577.993	789.65
578.196	765.04
578.398	787.91
578.6	815.22
578.802	696.84
579.004	732.88
579.206	740.24
579.408	799.72
579.61	743.73
579.812	791.01
580.014	739.08
580.216	759.62
580.418	761.56
580.62	737.72
580.822	682.51
581.024	716.22
581.226	774.54
581.428	743.15
581.63	853.97
581.832	729.01
582.034	802.24
582.236	783.84
582.438	755.94
582.64	811.54
582.841	810.96
583.043	853.39
583.245	800.69
583.447	777.06
583.649	781.9
583.85	771.82
584.052	815.8
584.254	743.34
584.456	838.47
584.657	713.51
584.859	762.33
585.061	767.17
585.262	749.54
585.464	737.14
585.666	801.47
585.867	727.65
586.069	815.61
586.27	766.79
586.472	781.12
586.674	729.39
586.875	711.38
587.077	748.38
587.278	767.37
587.48	754.77
587.681	848.35
587.883	755.16
588.084	685.8
588.285	739.27
588.487	711.57
588.688	724.16
588.89	705.37
589.091	685.61
589.292	691.42
589.494	712.73
589.695	673.59
589.896	632.13
590.098	593.58
590.299	700.53
590.5	643.18
590.702	649.38
590.903	677.08
591.104	722.23
591.305	718.93
591.507	750.9
591.708	696.84
591.909	665.84
592.11	756.52
592.311	722.23
592.512	699.17
592.714	654.03
592.915	664.49
593.116	634.85
593.317	676.89
593.518	673.98
593.719	663.71
593.92	692.19
594.121	751.09
594.322	702.27
594.523	673.4
594.724	678.83
594.925	669.14
595.126	703.04
595.327	714.09
595.528	691.42
595.729	706.34
595.929	709.83
596.13	698.59
596.331	710.41
596.532	709.05
596.733	739.66
596.934	740.24
597.135	719.51
597.335	720.48
597.536	664.29
597.737	675.14
597.938	658.29
598.138	710.21
598.339	690.45
598.54	710.79
598.74	684.64
598.941	691.23
599.142	767.95
599.342	697.04
599.543	693.94
599.744	673.59
599.944	680.76
600.145	678.05
600.345	691.03
600.546	760.2
600.746	738.11
600.947	759.23
601.147	672.04
601.348	745.28
601.548	660.81
601.749	681.93
601.949	649.18
602.15	675.34
602.35	711.76
602.551	754
602.751	676.89
602.951	668.36
603.152	624.38
603.352	699.56
603.552	678.83
603.753	700.72
603.953	723.19
604.153	706.73
604.354	699.94
604.554	680.96
604.754	713.12
604.954	643.37
605.155	711.57
605.355	667.78
605.555	703.63
605.755	730.75
605.955	678.63
606.155	714.48
606.356	684.44
606.556	729.2
606.756	708.47
606.956	637.36
607.156	735.21
607.356	677.08
607.556	699.36
607.756	686.19
607.956	728.23
608.156	675.53
608.356	672.82
608.556	698.01
608.756	665.84
608.956	640.27
609.156	693.16
609.356	653.06
609.556	664.68
609.755	681.34
609.955	648.21
610.155	702.08
610.355	674.37
610.555	636.01
610.755	650.54
610.954	618.38
611.154	683.09
611.354	709.05
611.554	644.34
611.753	690.26
611.953	600.75
612.153	673.4
612.352	690.64
612.552	610.63
612.752	581.18
612.951	636.4
613.151	665.07
613.351	624
613.55	635.43
613.75	655.38
613.949	638.72
614.149	646.28
614.348	661.78
614.548	617.21
614.747	578.27
614.947	601.33
615.146	565.87
615.346	675.73
615.545	647.05
615.745	638.33
615.944	658.48
616.144	608.3
616.343	633.88
616.542	570.13
616.742	621.67
616.941	616.05
617.14	584.47
617.34	636.78
617.539	594.35
617.738	601.33
617.938	652.48
618.137	598.42
618.336	576.33
618.535	631.36
618.734	582.34
618.934	613.34
619.133	607.14
619.332	613.92
619.531	591.64
619.73	580.4
619.929	665.46
620.128	623.22
620.328	665.65
620.527	577.88
620.726	575.36
620.925	607.33
621.124	628.45
621.323	635.23
621.522	557.73
621.721	548.43
621.92	586.02
622.119	640.46
622.318	537.39
622.517	590.09
622.715	588.93
622.914	525.38
623.113	569.55
623.312	534.29
623.511	614.11
623.71	579.63
623.909	574.01
624.107	646.47
624.306	525.18
624.505	571.1
624.704	534.48
624.902	540.68
625.101	626.9
625.3	574.2
625.499	510.65
625.697	551.73
625.896	512.4
626.095	604.43
626.293	529.83
626.492	511.82
626.69	592.8
626.889	551.73
627.088	569.36
627.286	557.35
627.485	525.18
627.683	527.9
627.882	571.3
628.08	477.13
628.279	526.93
628.477	618.76
628.676	518.79
628.874	569.94
629.073	537.97
629.271	513.17
629.469	526.73
629.668	531.58
629.866	534.29
630.065	490.7
630.263	578.46
630.461	509.3
630.66	506.39
630.858	546.3
631.056	562.38
631.254	577.69
631.453	497.87
631.651	563.74
631.849	540.1
632.047	539.13
632.245	529.06
632.444	517.82
632.642	544.37
632.84	584.66
633.038	533.52
633.236	498.06
633.434	508.72
633.632	517.24
633.83	517.24
634.028	557.15
634.227	519.95
634.425	641.43
634.623	541.07
634.821	531.97
635.019	520.34
635.216	506.97
635.414	567.42
635.612	551.92
635.81	518.6
636.008	578.46
636.206	515.11
636.404	545.14
636.602	525.38
636.8	507.17
636.997	553.66
637.195	562.96
637.393	536.23
637.591	572.65
637.789	550.76
637.986	553.86
638.184	528.48
638.382	557.73
638.58	576.72
638.777	595.13
638.975	540.88
639.173	555.41
639.37	534.68
639.568	554.25
639.765	567.61
639.963	517.63
640.161	574.01
640.358	559.86
640.556	496.9
640.753	485.08
640.951	462.02
641.148	533.52
641.346	521.31
641.543	516.66
641.741	551.92
641.938	481.4
642.136	523.83
642.333	469.58
642.531	569.36
642.728	553.47
642.925	508.52
643.123	531.38
643.32	540.49
643.517	515.88
643.715	505.81
643.912	500.19
644.109	499.03
644.306	496.9
644.504	490.31
644.701	491.47
644.898	544.37
645.095	474.62
645.293	507.17
645.49	549.4
645.687	504.45
645.884	531.77
646.081	445.17
646.278	476.36
646.475	484.69
646.672	482.37
646.87	508.91
647.067	459.89
647.264	523.44
647.461	427.54
647.658	437.8
647.855	494.57
648.052	472.1
648.249	410.49
648.446	448.65
648.642	455.05
648.839	467.64
649.036	445.55
649.233	419.59
649.43	415.33
649.627	423.08
649.824	468.61
650.021	439.55
650.217	455.63
650.414	446.52
650.611	471.9
650.808	456.4
651.004	468.61
651.201	486.43
651.398	529.06
651.595	469
651.791	448.07
651.988	501.93
652.185	464.93
652.381	482.17
652.578	404.87
652.775	474.62
652.971	467.45
653.168	439.35
653.364	493.41
653.561	394.02
653.757	425.99
653.954	442.26
654.15	413.39
654.347	528.09
654.543	449.62
654.74	385.3
654.936	421.92
655.133	436.45
655.329	425.21
655.525	428.5
655.722	451.37
655.918	418.62
656.115	460.86
656.311	415.14
656.507	383.94
656.704	374.45
656.9	391.69
657.096	364.76
657.292	375.22
657.489	452.72
657.685	409.13
657.881	413.78
658.077	422.3
658.273	393.44
658.47	454.27
658.666	415.33
658.862	445.75
659.058	396.34
659.254	450.79
659.45	405.06
659.646	424.82
659.842	403.51
660.038	462.22
660.234	400.02
660.43	438.19
660.626	485.08
660.822	443.23
661.018	471.32
661.214	434.7
661.41	404.87
661.606	478.3
661.802	445.94
661.998	406.8
662.194	402.15
662.39	429.67
662.586	433.54
662.781	495.15
662.977	433.35
663.173	466.67
663.369	427.73
663.564	444.39
663.76	449.62
663.956	404.09
664.152	487.98
664.347	373.87
664.543	417.85
664.739	402.54
664.934	368.64
665.13	389.37
665.326	424.63
665.521	403.51
665.717	394.21
665.912	392.66
666.108	359.72
666.304	402.74
666.499	412.23
666.695	339.96
666.89	414.75
667.086	451.56
667.281	423.85
667.477	450.98
667.672	399.64
667.867	416.1
668.063	416.69
668.258	378.32
668.454	419.59
668.649	462.99
668.844	399.83
669.04	414.94
669.235	417.27
669.43	396.34
669.626	350.42
669.821	373.29
670.016	370.77
670.211	391.69
670.407	357.79
670.602	389.95
670.797	383.94
670.992	434.51
671.187	382.2
671.382	389.75
671.578	370.77
671.773	420.37
671.968	333.76
672.163	373.67
672.358	396.73
672.553	342.67
672.748	369.8
672.943	451.75
673.138	374.64
673.333	404.29
673.528	379.49
673.723	376.77
673.918	376.19
674.113	327.37
674.308	484.88
674.503	413.78
674.698	409.71
674.892	389.37
675.087	417.46
675.282	420.17
675.477	385.3
675.672	391.5
675.867	359.92
676.061	356.82
676.256	354.11
676.451	350.23
676.646	365.15
676.84	346.94
677.035	348.87
677.23	324.07
677.424	381.23
677.619	402.35
677.814	404.87
678.008	405.25
678.203	326.21
678.397	356.82
678.592	381.42
678.787	403.9
678.981	387.04
679.176	393.24
679.37	361.86
679.565	330.66
679.759	359.53
679.954	373.29
680.148	399.44
680.342	428.12
680.537	371.93
680.731	365.15
680.926	395.95
681.12	378.9
681.314	342.87
681.509	349.26
681.703	388.59
681.897	392.66
682.092	406.8
682.286	331.05
682.48	433.93
682.674	374.84
682.869	392.47
683.063	407.19
683.257	443.81
683.451	330.08
683.645	370.77
683.839	392.47
684.034	349.65
684.228	425.79
684.422	366.12
684.616	336.47
684.81	375.42
685.004	395.95
685.198	360.11
685.392	415.14
685.586	322.33
685.78	376.19
685.974	382.97
686.168	391.3
686.362	435.87
686.556	346.36
686.75	309.54
686.944	338.61
687.138	358.37
687.331	301.21
687.525	357.01
687.719	249.68
687.913	311.67
688.107	325.43
688.301	287.46
688.494	341.51
688.688	288.04
688.882	266.73
689.076	267.11
689.269	297.72
689.463	386.07
689.657	320.39
689.85	328.72
690.044	309.54
690.238	299.27
690.431	295.79
690.625	323.69
690.818	338.99
691.012	348.49
691.205	370.19
691.399	318.65
691.593	335.51
691.786	376.19
691.98	400.99
692.173	415.14
692.366	373.09
692.56	388.59
692.753	439.16
692.947	352.17
693.14	440.52
693.333	424.82
693.527	334.92
693.72	435.29
693.914	389.37
694.107	403.9
694.3	412.62
694.493	395.95
694.687	425.99
694.88	365.73
695.073	448.27
695.266	434.51
695.46	422.11
695.653	478.49
695.846	445.94
696.039	388.98
696.232	443.62
696.425	492.44
696.618	464.74
696.812	439.55
697.005	525.57
697.198	567.03
697.391	493.8
697.584	505.81
697.777	560.64
697.97	545.92
698.163	537.78
698.356	541.85
698.549	627.29
698.742	571.68
698.935	540.3
699.127	547.27
699.32	543.78
699.513	515.5
699.706	574.59
699.899	578.66
700.092	534.68
700.285	574.2
700.477	527.12
700.67	577.5
700.863	595.13
701.056	690.06
701.248	627.68
701.441	649.96
701.634	596.48
701.826	698.01
702.019	609.08
702.212	656.35
702.404	608.3
702.597	558.7
702.79	622.83
702.982	642.01
703.175	680.57
703.367	666.04
703.56	704.21
703.752	760.01
703.945	698.98
704.137	718.16
704.33	736.56
704.522	729.01
704.715	718.54
704.907	760.2
705.1	777.06
705.292	809.02
705.484	756.71
705.677	796.62
705.869	787.71
706.061	836.15
706.254	852.42
706.446	799.34
706.638	816
706.831	842.93
707.023	798.95
707.215	913.84
707.407	897.37
707.599	869.09
707.792	941.16
707.984	882.45
708.176	919.27
708.368	883.23
708.56	896.21
708.752	900.09
708.944	887.49
709.136	933.22
709.329	943.68
709.521	1028.35
709.713	967.7
709.905	979.13
710.097	1013.43
710.289	976.62
710.481	992.11
710.672	1036.29
710.864	982.43
711.056	1048.11
711.248	1064.19
711.44	1057.02
711.632	983.78
711.824	1032.8
712.016	1110.88
712.207	1079.49
712.399	1061.28
712.591	1123.28
712.783	1083.37
712.975	1131.03
713.166	1066.13
713.358	1120.57
713.55	1126.77
713.741	1163.58
713.933	1132
714.125	1149.24
714.316	1137.62
714.508	1188.57
714.7	1223.26
714.891	1157.96
715.083	1254.45
715.274	1180.24
715.466	1175.4
715.657	1265.49
715.849	1151.38
716.04	1198.65
716.232	1121.15
716.423	1257.16
716.615	1133.36
716.806	1174.24
716.998	1106.04
717.189	1078.53
717.381	1047.72
717.572	1000.25
717.763	1044.43
717.955	1038.03
718.146	1032.61
718.337	990.95
718.528	932.44
718.72	901.44
718.911	980.1
719.102	927.21
719.293	998.7
719.485	967.7
719.676	971.97
719.867	934.57
720.058	938.45
720.249	946
720.44	945.42
720.632	976.23
720.823	1034.93
721.014	1076.59
721.205	1108.75
721.396	1105.07
721.587	1221.71
721.778	1200.97
721.969	1223.84
722.16	1269.56
722.351	1251.93
722.542	1325.36
722.733	1336.02
722.924	1258.52
723.115	1326.14
723.305	1357.72
723.496	1347.83
723.687	1257.94
723.878	1270.53
724.069	1277.12
724.26	1292.62
724.45	1223.06
724.641	1190.51
724.832	1240.69
725.023	1267.43
725.213	1243.79
725.404	1205.24
725.595	1233.91
725.785	1218.99
725.976	1263.75
726.167	1258.9
726.357	1247.28
726.548	1357.33
726.739	1262.2
726.929	1307.34
727.12	1341.63
727.31	1373.8
727.501	1317.22
727.691	1326.33
727.882	1324.2
728.072	1362.17
728.263	1345.32
728.453	1386.39
728.644	1357.72
728.834	1360.82
729.024	1365.66
729.215	1344.93
729.405	1384.45
729.596	1454.98
729.786	1438.7
729.976	1424.17
730.167	1452.07
730.357	1396.47
730.547	1401.31
730.737	1470.86
730.928	1484.04
731.118	1518.72
731.308	1454.98
731.498	1466.41
731.688	1505.74
731.879	1558.44
732.069	1587.69
732.259	1584.21
732.449	1590.79
732.639	1658.02
732.829	1663.84
733.019	1669.07
733.209	1717.7
733.399	1754.7
733.589	1729.52
733.779	1779.7
733.969	1763.23
734.159	1823.1
734.349	1823.1
734.539	1852.35
734.729	1880.64
734.919	1918.03
735.109	1884.9
735.299	1877.54
735.488	1914.74
735.678	1884.71
735.868	1928.5
736.058	1902.34
736.248	1896.53
736.437	1867.27
736.627	1854.1
736.817	1968.79
737.007	1901.76
737.196	1910.48
737.386	1897.69
737.576	1889.36
737.765	1933.73
737.955	1929.08
738.144	2036.03
738.334	1966.86
738.524	1931.4
738.713	1970.54
738.903	1957.56
739.092	2012
739.282	2004.25
739.471	2039.9
739.661	1949.03
739.85	2024.59
740.04	2006.77
740.229	2028.28
740.419	2050.17
740.608	2043.39
740.797	2062.96
740.987	2115.66
741.176	2034.48
741.365	2030.02
741.555	2031.57
741.744	2129.41
741.933	2059.66
742.123	2114.69
742.312	2114.88
742.501	2144.72
742.69	2121.27
742.88	2043.39
743.069	2166.61
743.258	2099.57
743.447	2145.69
743.636	2150.14
743.825	2123.79
744.014	2133.09
744.204	2150.92
744.393	2088.53
744.582	2170.1
744.771	2202.07
744.96	2135.03
745.149	2154.21
745.338	2104.22
745.527	2142.97
745.716	2104.61
745.905	2102.67
746.094	2150.92
746.283	2215.24
746.471	2153.24
746.66	2226.87
746.849	2191.02
747.038	2250.89
747.227	2188.12
747.416	2203.42
747.604	2187.15
747.793	2183.85
747.982	2138.9
748.171	2193.54
748.359	2231.32
748.548	2204.97
748.737	2191.6
748.926	2213.88
749.114	2090.66
749.303	2175.91
749.491	2170.29
749.68	2132.7
749.869	2204.59
750.057	2173.97
750.246	2126.89
750.434	2176.49
750.623	2145.88
750.811	2151.5
751	2192.77
751.188	2168.94
751.377	2144.14
751.565	2143.75
751.754	2124.57
751.942	2111.97
752.131	2188.89
752.319	2126.12
752.507	2113.72
752.696	2168.74
752.884	2192.19
753.072	2162.74
753.261	2125.92
753.449	2098.61
753.637	2158.28
753.825	2205.17
754.014	2099.96
754.202	2148.2
754.39	2216.98
754.578	2163.7
754.766	2096.67
754.955	2109.07
755.143	2161.57
755.331	2112.56
755.519	2130.57
755.707	2138.52
755.895	2114.88
756.083	2098.8
756.271	2064.89
756.459	2095.31
756.647	2132.32
756.835	2111.97
757.023	2086.59
757.211	2126.89
757.399	2073.81
757.587	2069.93
757.775	2030.41
757.963	2052.88
758.151	2049.01
758.339	2046.87
758.526	2031.96
758.714	2062.18
758.902	1968.99
759.09	1952.52
759.278	1834.72
759.465	1671.01
759.653	1437.54
759.841	1317.42
760.028	1118.83
760.216	980.88
760.404	951.43
760.591	771.05
760.779	641.63
760.967	558.31
761.154	449.43
761.342	500.77
761.529	513.75
761.717	527.51
761.905	498.06
762.092	558.51
762.28	468.61
762.467	522.28
762.655	470.93
762.842	498.06
763.029	530.22
763.217	531.77
763.404	527.12
763.592	562
763.779	485.66
763.966	549.98
764.154	578.66
764.341	619.54
764.528	617.6
764.716	642.4
764.903	678.83
765.09	707.11
765.277	756.91
765.465	872.57
765.652	854.17
765.839	941.55
766.026	1007.61
766.213	1027.57
766.4	1092.09
766.588	1222.87
766.775	1214.92
766.962	1297.85
767.149	1283.32
767.336	1453.62
767.523	1400.92
767.71	1499.35
767.897	1567.54
768.084	1610.17
768.271	1624.12
768.458	1632.84
768.645	1680.11
768.832	1642.52
769.019	1669.84
769.206	1706.27
769.392	1780.86
769.579	1841.89
769.766	1793.65
769.953	1755.67
770.14	1828.52
770.327	1829.68
770.513	1840.53
770.7	1901.76
770.887	1818.45
771.073	1833.75
771.26	1840.34
771.447	1829.49
771.634	1827.94
771.82	1890.91
772.007	1812.05
772.193	1846.54
772.38	1927.91
772.567	1869.98
772.753	1847.51
772.94	1926.17
773.126	1875.41
773.313	1895.17
773.499	1874.05
773.686	1895.36
773.872	1883.55
774.059	1906.6
774.245	1828.52
774.432	1807.02
774.618	1762.07
774.804	1829.49
774.991	1795.78
775.177	1862.23
775.363	1824.26
775.55	1871.92
775.736	1808.95
775.922	1823.48
776.109	1836.08
776.295	1837.63
776.481	1842.08
776.667	1846.73
776.853	1826.58
777.04	1805.27
777.226	1808.18
777.412	1896.91
777.598	1784.35
777.784	1764.59
777.97	1795.39
778.156	1795.39
778.342	1768.85
778.528	1813.8
778.715	1731.45
778.901	1779.7
779.087	1780.28
779.272	1735.14
779.458	1744.82
779.644	1771.56
779.83	1728.94
780.016	1828.33
780.202	1756.84
780.388	1720.22
780.574	1706.27
780.76	1707.62
780.946	1757.22
781.131	1747.34
781.317	1730.49
781.503	1720.41
781.689	1715.57
781.874	1843.25
782.06	1726.03
782.246	1732.81
782.432	1686.51
782.617	1731.26
782.803	1753.93
782.989	1642.33
783.174	1692.12
783.36	1665.39
783.545	1669.84
783.731	1690.96
783.916	1630.71
784.102	1714.21
784.288	1621.41
784.473	1691.74
784.659	1670.23
784.844	1684.96
785.029	1626.25
785.215	1631.48
785.4	1591.57
785.586	1681.86
785.771	1606.29
785.956	1649.69
786.142	1627.8
786.327	1618.89
786.512	1615.79
786.698	1590.21
786.883	1577.43
787.068	1584.59
787.254	1597.38
787.439	1562.31
787.624	1632.26
787.809	1539.64
787.994	1606.49
788.18	1596.03
788.365	1534.8
788.55	1572
788.735	1533.64
788.92	1599.71
789.105	1565.22
789.29	1567.16
789.475	1533.06
789.66	1516.98
789.845	1549.72
790.03	1508.26
790.215	1545.65
790.4	1595.25
790.585	1602.22
790.77	1510.2
790.955	1462.92
791.14	1515.43
791.325	1615.01
791.51	1419.13
791.695	1483.85
791.879	1461.76
792.064	1451.3
792.249	1533.25
792.434	1507.29
792.618	1500.51
792.803	1516.01
792.988	1479.39
793.173	1477.06
793.357	1542.16
793.542	1468.73
793.727	1492.18
793.911	1532.67
794.096	1495.86
794.281	1500.51
794.465	1571.23
794.65	1485.2
794.834	1514.65
795.019	1569.29
795.203	1560.18
795.388	1526.28
795.572	1585.37
795.757	1514.65
795.941	1554.95
796.126	1533.44
796.31	1476.68
796.494	1522.4
796.679	1492.37
796.863	1475.9
797.048	1542.74
797.232	1539.84
797.416	1535.19
797.601	1518.14
797.785	1577.23
797.969	1550.3
798.153	1506.71
798.338	1534.03
798.522	1515.81
798.706	1531.7
798.89	1523.18
799.074	1612.49
799.258	1570.45
799.443	1512.91
799.627	1522.79
799.811	1602.61
799.995	1541.58
800.179	1501.28
800.363	1499.35
800.547	1531.89
800.731	1525.31
800.915	1477.26
801.099	1506.13
801.283	1518.91
801.467	1513.3
801.651	1503.8
801.835	1558.05
802.019	1520.27
802.202	1547.2
802.386	1469.31
802.57	1486.95
802.754	1552.24
802.938	1472.22
803.121	1497.6
803.305	1545.84
803.489	1523.95
803.673	1542.94
803.856	1536.16
804.04	1490.05
804.224	1548.36
804.407	1527.83
804.591	1493.15
804.775	1514.07
804.958	1521.82
805.142	1595.64
805.326	1521.24
805.509	1536.54
805.693	1554.76
805.876	1567.16
806.06	1543.91
806.243	1555.14
806.427	1607.07
806.61	1576.84
806.794	1526.86
806.977	1569.29
807.16	1526.66
807.344	1535.96
807.527	1549.53
807.71	1491.98
807.894	1529.57
808.077	1553.79
808.26	1517.94
808.444	1503.8
808.627	1569.09
808.81	1511.94
808.993	1458.46
809.177	1483.26
809.36	1503.8
809.543	1534.99
809.726	1418.94
809.909	1425.92
810.092	1429.98
810.276	1417.2
810.459	1470.67
810.642	1400.92
810.825	1392.78
811.008	1425.92
811.191	1354.23
811.374	1374.38
811.557	1392.4
811.74	1424.75
811.923	1322.45
812.106	1328.07
812.289	1305.99
812.472	1372.83
812.654	1376.7
812.837	1316.25
813.02	1286.22
813.203	1272.47
813.386	1195.55
813.569	1188.77
813.751	1183.92
813.934	1215.31
814.117	1230.42
814.3	1146.53
814.482	1163.19
814.665	1114.56
814.848	1063.8
815.03	1056.25
815.213	1081.04
815.396	1056.63
815.578	1033.38
815.761	1002.19
815.943	1103.71
816.126	980.1
816.309	974.1
816.491	940.97
816.674	886.91
816.856	980.68
817.039	938.45
817.221	985.14
817.403	931.47
817.586	951.23
817.768	1006.65
817.951	887.1
818.133	905.51
818.315	940.77
818.498	938.06
818.68	996.38
818.862	1006.26
819.045	994.44
819.227	992.31
819.409	943.48
819.591	1004.9
819.774	986.88
819.956	950.07
820.138	1009.36
820.32	983.01
820.502	1019.24
820.684	1062.06
820.866	1060.31
821.048	1093.83
821.231	1099.26
821.413	1067.68
821.595	1075.04
821.777	1103.52
821.959	1060.12
822.141	1111.46
822.323	1011.49
822.505	988.43
822.686	938.83
822.868	947.94
823.05	878.77
823.232	850.49
823.414	812.71
823.596	866.18
823.778	829.37
823.96	875.87
824.141	865.99
824.323	873.93
824.505	920.23
824.687	935.54
824.868	976.03
825.05	1036.48
825.232	1080.85
825.413	1144.79
825.595	1061.28
825.777	1016.14
825.958	1048.88
826.14	1054.5
826.321	1082.21
826.503	1026.99
826.685	1098.48
826.866	1100.23
827.048	1111.08
827.229	1032.03
827.411	997.54
827.592	1002.77
827.773	981.85
827.955	966.54
828.136	958.6
828.318	943.29
828.499	983.78
828.68	917.91
828.862	959.76
829.043	1011.49
829.224	980.88
829.406	945.81
829.587	949.49
829.768	963.83
829.949	1031.83
830.131	940
830.312	1030.67
830.493	964.02
830.674	965.18
830.855	981.07
831.036	946
831.218	995.02
831.399	1018.46
831.58	955.88
831.761	989.6
831.942	1003.35
832.123	960.34
832.304	927.6
832.485	906.28
832.666	943.29
832.847	971.38
833.028	936.12
833.209	971.77
833.389	933.22
833.57	911.52
833.751	959.57
833.932	987.47
834.113	948.91
834.294	953.17
834.475	973.9
834.655	985.53
834.836	969.25
835.017	960.53
835.198	917.33
835.378	972.93
835.559	996.18
835.74	941.35
835.92	964.22
836.101	913.26
836.281	983.2
836.462	958.21
836.643	992.89
836.823	999.86
837.004	986.69
837.184	1032.22
837.365	1008.58
837.545	1033.38
837.726	969.83
837.906	1058.76
838.087	1015.17
838.267	981.07
838.448	949.1
838.628	1005.1
838.808	1016.72
838.989	1063.61
839.169	982.43
839.349	1021.76
839.53	1025.05
839.71	1005.29
839.89	967.12
840.07	1048.69
840.251	987.08
840.431	1028.73
840.611	997.35
840.791	945.23
840.971	1002
841.151	983.4
841.332	963.25
841.512	1031.45
841.692	931.28
841.872	995.02
842.052	962.28
842.232	1032.03
842.412	939.42
842.592	997.54
842.772	1014.59
842.952	976.03
843.132	940.77
843.312	947.94
843.492	933.02
843.672	997.15
843.851	910.74
844.031	982.82
844.211	966.54
844.391	931.67
844.571	934.57
844.751	999.09
844.93	971.97
845.11	953.75
845.29	939.61
845.47	980.88
845.649	955.11
845.829	954.53
846.009	906.28
846.188	929.34
846.368	953.17
846.547	942.13
846.727	985.14
846.907	916.36
847.086	948.91
847.266	1002.19
847.445	927.79
847.625	945.03
847.804	924.69
847.984	941.93
848.163	927.79
848.343	942.9
848.522	950.46
848.701	937.48
848.881	899.12
849.06	905.12
849.239	939.22
849.419	916.55
849.598	897.76
849.777	881.1
849.957	879.16
850.136	843.9
850.315	849.32
850.494	841.19
850.674	830.92
850.853	923.92
851.032	879.94
851.211	945.62
851.39	893.5
851.569	858.43
851.748	865.4
851.927	883.81
852.107	875.67
852.286	832.08
852.465	818.13
852.644	888.27
852.823	878.19
853.002	873.15
853.181	872.57
853.359	883.62
853.538	807.67
853.717	877.8
853.896	798.95
854.075	753.81
854.254	780.54
854.433	723.19
854.611	770.66
854.79	729.2
854.969	797.59
855.148	797.98
855.327	704.4
855.505	795.85
855.684	762.33
855.863	787.13
856.041	735.4
856.22	792.17
856.399	752.84
856.577	858.62
856.756	845.64
856.934	923.92
857.113	916.36
857.291	840.6
857.47	793.33
857.648	826.85
857.827	814.45
858.005	861.92
858.184	798.76
858.362	899.7
858.541	832.27
858.719	857.85
858.898	827.04
859.076	807.09
859.254	901.44
859.433	822.59
859.611	796.43
859.789	778.41
859.967	887.1
860.146	882.84
860.324	773.37
860.502	796.82
860.68	762.72
860.859	783.84
861.037	764.66
861.215	803.02
861.393	813.09
861.571	784.81
861.749	782.29
861.927	814.64
862.105	805.54
862.283	813.87
862.461	726.88
862.639	752.06
862.817	773.37
862.995	782.87
863.173	773.37
863.351	757.49
863.529	803.99
863.707	815.61
863.885	785.77
864.063	696.84
864.241	755.74
864.418	806.12
864.596	717.77
864.774	750.71
864.952	766.59
865.129	773.96
865.307	750.9
865.485	707.31
865.663	814.84
865.84	720.09
866.018	740.82
866.196	648.99
866.373	648.21
866.551	653.83
866.728	592.41
866.906	665.26
867.084	668.56
867.261	702.66
867.439	706.34
867.616	696.46
867.794	731.72
867.971	700.91
868.149	677.66
868.326	775.7
868.503	737.14
868.681	685.99
868.858	682.12
869.035	685.61
869.213	701.69
869.39	676.69
869.567	759.42
869.745	717.96
869.922	723.78
870.099	731.72
870.276	754.77
870.454	714.09
870.631	711.18
870.808	688.71
870.985	750.71
871.162	773.76
871.339	732.11
871.517	668.17
871.694	677.47
871.871	704.21
872.048	696.65
872.225	705.18
872.402	726.88
872.579	657.51
872.756	710.21
872.933	650.34
873.11	667.98
873.287	712.73
873.463	666.43
873.64	661.97
873.817	728.04
873.994	688.51
874.171	672.04
874.348	704.98
874.524	621.28
874.701	683.86
874.878	624.96
875.055	673.01
875.231	670.49
875.408	686.77
875.585	616.05
875.762	658.48
875.938	632.71
876.115	617.6
876.291	632.33
876.468	615.86
876.645	590.67
876.821	628.84
876.998	631.75
877.174	669.53
877.351	617.99
877.527	591.25
877.704	657.9
877.88	618.96
878.057	617.8
878.233	676.11
878.409	610.63
878.586	636.2
878.762	621.86
878.938	586.21
879.115	567.61
879.291	627.68
879.467	585.63
879.644	611.21
879.82	645.11
879.996	584.47
880.172	526.15
880.349	583.89
880.525	601.71
880.701	570.13
880.877	593.38
881.053	626.13
881.229	603.46
881.405	631.16
881.581	575.95
881.757	607.53
881.933	610.24
882.109	603.07
882.285	578.46
882.461	544.37
882.637	570.91
882.813	546.88
882.989	575.95
883.165	630.2
883.341	557.15
883.517	638.53
883.693	606.17
883.869	610.82
884.044	549.02
884.22	619.73
884.396	645.11
884.572	599.39
884.747	623.8
884.923	633.68
885.099	606.95
885.275	647.05
885.45	597.84
885.626	589.7
885.801	559.67
885.977	561.22
886.153	546.11
886.328	612.76
886.504	555.8
886.679	593.58
886.855	568.39
887.03	620.12
887.206	621.09
887.381	597.45
887.557	605.01
887.732	608.69
887.908	637.17
888.083	621.67
888.258	596.68
888.434	590.67
888.609	568.39
888.784	632.71
888.96	582.34
889.135	584.08
889.31	555.6
889.485	588.15
889.661	587.76
889.836	599
890.011	598.23
890.186	586.8
890.361	563.16
890.537	634.65
890.712	585.05
890.887	561.22
891.062	565.1
891.237	643.37
891.412	594.55
891.587	579.05
891.762	620.7
891.937	598.03
892.112	555.02
892.287	587.96
892.462	559.09
892.637	518.21
892.812	518.4
892.987	549.79
893.161	533.32
893.336	543.01
893.511	506
893.686	515.11
893.861	532.55
894.035	552.5
894.21	532.74
894.385	505.81
894.56	529.25
894.734	482.56
894.909	494.38
895.084	494.77
895.258	520.53
895.433	519.76
895.608	509.49
895.782	448.85
895.957	456.99
896.131	441.68
896.306	455.24
896.48	435.29
896.655	459.12
896.829	376.39
897.004	398.09
897.178	380.84
897.353	376
897.527	400.8
897.701	431.02
897.876	322.52
898.05	451.37
898.224	420.17
898.399	453.5
898.573	395.57
898.747	346.36
898.921	406.61
899.096	316.32
899.27	327.76
899.444	317.49
899.618	343.84
899.792	345.77
899.967	320.59
900.141	365.34
900.315	340.35
900.489	333.76
900.663	362.24
900.837	361.27
901.011	307.8
901.185	410.1
901.359	343.84
901.533	318.07
901.707	372.12
901.881	363.79
902.055	295.01
902.229	338.41
902.403	380.65
902.576	347.13
902.75	384.52
902.924	455.24
903.098	398.47
903.272	410.49
903.446	431.8
903.619	428.5
903.793	425.6
903.967	419.2
904.14	474.42
904.314	446.52
904.488	458.15
904.661	463.57
904.835	424.05
905.009	463.38
905.182	499.61
905.356	468.8
905.529	467.45
905.703	404.48
905.876	423.08
906.05	389.56
906.223	416.88
906.397	358.76
906.57	336.86
906.744	311.48
906.917	339.77
907.09	354.69
907.264	353.33
907.437	313.81
907.61	291.91
907.784	320.78
907.957	322.72
908.13	296.17
908.304	387.04
908.477	308.57
908.65	309.74
908.823	262.27
908.996	367.86
909.17	298.69
909.343	317.29
909.516	320.01
909.689	331.82
909.862	279.13
910.035	345.39
910.208	287.26
910.381	288.81
910.554	364.37
910.727	282.61
910.9	288.43
911.073	288.81
911.246	372.9
911.419	352.36
911.592	314
911.765	284.55
911.938	294.62
912.11	302.76
912.283	306.44
912.456	368.64
912.629	326.4
912.802	301.99
912.974	249.48
913.147	241.93
913.32	237.08
913.493	237.08
913.665	292.49
913.838	266.53
914.01	247.35
914.183	267.89
914.356	226.04
914.528	304.31
914.701	353.14
914.873	317.1
915.046	266.73
915.218	252.39
915.391	196.2
915.563	245.8
915.736	260.14
915.908	289.59
916.081	248.71
916.253	250.45
916.425	258.2
916.598	278.54
916.77	271.96
916.942	223.33
917.115	187.87
917.287	261.69
917.459	260.72
917.632	234.56
917.804	151.83
917.976	241.73
918.148	245.99
918.32	244.25
918.493	266.73
918.665	305.09
918.837	238.05
919.009	326.79
919.181	290.75
919.353	270.99
919.525	262.46
919.697	260.53
919.869	284.74
920.041	337.64
920.213	377.55
920.385	319.42
920.557	263.04
920.729	280.29
920.901	277.96
921.073	284.36
921.244	293.66
921.416	332.79
921.588	287.46
921.76	254.33
921.932	353.72
922.103	266.53
922.275	267.31
922.447	278.93
922.619	202.01
922.79	283
922.962	276.03
923.134	299.27
923.305	208.21
923.477	250.06
923.648	205.31
923.82	259.36
923.991	194.26
924.163	185.55
924.335	227.01
924.506	178.38
924.677	289.98
924.849	222.55
925.02	237.47
925.192	246.38
925.363	235.34
925.535	225.46
925.706	212.48
925.877	276.41
926.049	197.56
926.22	244.25
926.391	234.37
926.562	275.06
926.734	191.36
926.905	230.69
927.076	198.14
927.247	183.8
927.419	174.31
927.59	203.56
927.761	200.46
927.932	195.81
928.103	224.29
928.274	166.36
928.445	178.18
928.616	196.4
928.787	158.42
928.958	214.61
929.129	196.59
929.3	150.48
929.471	134.4
929.642	110.95
929.813	88.87
929.984	205.89
930.155	78.98
930.326	175.66
930.496	91.38
930.667	58.06
930.838	135.17
931.009	95.65
931.18	94.48
931.35	84.6
931.521	100.49
931.692	89.06
931.863	44.88
932.033	80.34
932.204	99.91
932.374	95.45
932.545	56.12
932.716	97.78
932.886	96.03
933.057	11.95
933.227	28.42
933.398	124.13
933.568	21.44
933.739	-2.78
933.909	14.66
934.08	50.12
934.25	-26.41
934.421	29.19
934.591	42.56
934.761	4.78
934.932	-10.33
935.102	34.81
935.272	14.66
935.443	34.62
935.613	22.02
935.783	45.47
935.953	-5.3
936.123	169.66
936.294	-13.63
936.464	20.86
936.634	19.7
936.804	-8.01
936.974	-22.73
937.144	61.55
937.314	21.64
937.484	15.05
937.655	7.3
937.825	79.95
937.995	-3.36
938.165	59.22
938.334	-3.16
938.504	42.17
938.674	23.38
938.844	42.75
939.014	77.43
939.184	60.97
939.354	91.58
939.524	87.9
939.694	41.98
939.863	47.02
940.033	133.62
940.203	108.82
940.373	72.2
940.542	61.55
940.712	27.84
940.882	71.04
941.051	65.81
941.221	89.83
941.391	97.39
941.56	23.57
941.73	44.5
941.899	137.69
942.069	39.46
942.238	84.02
942.408	41.4
942.577	96.03
942.747	61.74
942.916	17.57
943.086	23.38
943.255	77.24
943.425	53.22
943.594	21.83
943.763	-11.11
943.933	34.42
944.102	-34.75
944.271	37.33
944.441	64.45
944.61	-0.65
944.779	50.12
944.948	116.76
945.117	-34.36
945.287	31.52
945.456	0.13
945.625	21.44
945.794	63.68
945.963	16.79
946.132	48.37
946.301	29.58
946.47	72.4
946.639	-17.89
946.808	30.55
946.977	49.34
947.146	92.35
947.315	34.23
947.484	39.65
947.653	63.87
947.822	28.8
947.991	22.6
948.16	101.85
948.329	95.84
948.498	55.54
948.666	40.82
948.835	50.89
949.004	7.49
949.173	10.98
949.341	42.37
949.51	38.88
949.679	112.5
949.847	101.85
950.016	110.95
950.185	114.63
950.353	12.92
950.522	37.91
950.69	92.55
950.859	3.04
951.028	62.32
951.196	46.63
951.365	21.64
951.533	37.33
951.701	69.1
951.87	78.79
952.038	21.44
952.207	42.37
952.375	108.43
952.543	26.87
952.712	48.57
952.88	13.69
953.048	96.23
953.217	64.07
953.385	30.35
953.553	89.06
953.721	13.3
953.89	40.62
954.058	-10.53
954.226	39.85
954.394	27.25
954.562	-15.56
954.73	46.24
954.898	37.52
955.067	57.09
955.235	30.16
955.403	80.73
955.571	95.65
955.739	72.59
955.907	23.77
956.075	30.16
956.243	19.89
956.41	52.05
956.578	-29.13
956.746	1.29
956.914	24.54
957.082	51.67
957.25	61.16
957.418	18.34
957.585	43.72
957.753	68.72
957.921	1.87
958.089	46.43
958.256	76.47
958.424	46.82
958.592	55.73
958.759	24.35
958.927	58.06
959.095	31.32
959.262	51.08
959.43	50.7
959.597	19.89
959.765	51.67
959.932	0.52
960.1	75.3
960.267	48.57
960.435	45.85
960.602	82.67
960.77	46.82
960.937	6.91
961.104	33.45
961.272	8.07
961.439	25.51
961.606	49.53
961.774	74.14
961.941	42.75
962.108	40.43
962.275	43.14
962.443	105.72
962.61	47.79
962.777	118.31
962.944	62.9
963.111	83.05
963.278	60.77
963.446	81.7
963.613	52.63
963.78	43.53
963.947	74.92
964.114	42.37
964.281	117.93
964.448	64.26
964.615	37.91
964.782	71.82
964.949	56.7
965.116	82.67
965.282	91
965.449	30.16
965.616	21.64
965.783	78.6
965.95	52.44
966.117	25.12
966.283	57.09
966.45	68.72
966.617	62.71
966.784	100.49
966.95	77.82
967.117	97.97
967.284	13.5
967.45	38.68
967.617	103.4
967.784	50.31
967.95	106.3
968.117	62.32
968.283	87.9
968.45	166.75
968.616	88.67
968.783	85.18
968.949	63.1
969.116	112.31
969.282	58.45
969.449	81.89
969.615	63.48
969.781	-16.92
969.948	32.87
970.114	21.05
970.28	83.05
970.447	51.28
970.613	89.45
970.779	47.79
970.945	80.15
971.112	61.35
971.278	53.99
971.444	50.89
971.61	98.75
971.776	26.09
971.942	72.98
972.108	72.2
972.275	50.89
972.441	81.12
972.607	154.55
972.773	19.5
972.939	66
973.105	69.3
973.271	28.42
973.437	51.47
973.602	35.97
973.768	91.77
973.934	48.18
974.1	82.47
974.266	-9.36
974.432	74.14
974.598	42.17
974.763	78.98
974.929	41.98
975.095	127.03
975.261	32.87
975.426	9.43
975.592	59.03
975.758	83.63
975.923	18.34
976.089	31.9
976.255	73.56
976.42	96.62
976.586	70.27
976.751	88.87
976.917	126.84
977.082	70.85
977.248	22.6
977.413	9.62
977.579	31.71
977.744	75.69
977.91	12.53
978.075	35.39
978.24	79.18
978.406	23.77
978.571	40.82
978.736	36.55
978.902	61.35
979.067	24.93
979.232	-13.63
979.397	56.32
979.563	121.41
979.728	29.19
979.893	47.79
980.058	60.97
980.223	60.97
980.388	75.88
980.554	67.17
980.719	50.31
980.884	64.84
981.049	94.1
981.214	57.09
981.379	47.4
981.544	16.99
981.709	48.76
981.874	16.4
982.039	46.63
982.204	54.38
982.368	50.12
982.533	33.45
982.698	85.38
982.863	74.72
983.028	26.48
983.193	53.99
983.357	54.96
983.522	55.54
983.687	34.23
983.852	14.47
984.016	42.17
984.181	55.15
984.346	72.78
984.51	84.41
984.675	39.46
984.839	72.4
985.004	52.83
985.168	112.89
985.333	63.1
985.498	40.04
985.662	84.8
985.827	65.42
985.991	33.84
986.155	33.84
986.32	61.74
986.484	96.81
986.649	82.28
986.813	26.48
986.977	61.74
987.142	41.2
987.306	8.27
987.47	13.5
987.634	20.86
987.799	51.67
987.963	46.82
988.127	84.99
988.291	134.4
988.455	51.67
988.62	37.91
988.784	62.71
988.948	79.95
989.112	31.52
989.276	56.12
989.44	41.59
989.604	31.52
989.768	31.71
989.932	133.62
990.096	34.81
990.26	6.33
990.424	7.49
990.588	42.95
990.752	114.83
990.915	69.88
991.079	16.21
991.243	12.72
991.407	62.52
991.571	41.59
991.734	70.07
991.898	69.3
992.062	130.91
992.226	51.08
992.389	11.37
992.553	-12.27
992.717	8.85
992.88	37.33
993.044	34.23
993.207	48.18
993.371	74.92
993.535	50.31
993.698	37.91
993.862	69.68
994.025	70.85
994.189	54.77
994.352	68.72
994.515	45.08
994.679	69.88
994.842	48.37
995.006	85.38
995.169	40.62
995.332	7.1
995.496	80.53
995.659	24.35
995.822	41.2
995.985	27.84
996.149	66.2
996.312	55.93
996.475	118.7
996.638	34.23
996.801	105.33
996.964	113.67
997.128	16.6
997.291	68.91
997.454	57.28
997.617	-8.78
997.78	83.25
997.943	56.51
998.106	58.83
998.269	22.99
998.432	51.47
998.595	54.77
998.758	17.37
998.92	25.12
999.083	-3.16
999.246	15.24
999.409	-10.72
999.572	-36.3
999.735	13.3
999.897	68.33
1000.06	21.64
1000.223	25.12
1000.386	44.11
1000.548	55.54
1000.711	44.88
1000.874	55.93
1001.036	-12.08
1001.199	78.21
1001.361	22.22
1001.524	59.03
1001.687	46.43
1001.849	22.02
1002.012	48.95
1002.174	32.1
1002.337	51.08
1002.499	40.43
1002.661	71.23
1002.824	-23.7
1002.986	2.65
1003.149	37.91
1003.311	-8.78
1003.473	84.6
1003.636	12.72
1003.798	68.91
1003.96	82.86
1004.123	29
1004.285	10.98
1004.447	30.55
1004.609	31.71
1004.771	94.68
1004.933	-32.03
1005.096	21.64
1005.258	-21.57
1005.42	4.2
1005.582	86.15
1005.744	40.04
1005.906	13.3
1006.068	34.62
1006.23	-3.75
1006.392	-14.21
1006.554	21.25
1006.716	51.67
1006.878	54.18
1007.04	-3.55
1007.202	12.92
1007.363	34.03
1007.525	29.77
1007.687	40.43
1007.849	56.9
1008.011	-8.78
1008.172	9.04
1008.334	18.34
1008.496	47.98
1008.658	-26.61
1008.819	18.73
1008.981	-11.3
1009.143	9.62
1009.304	16.02
1009.466	75.88
1009.627	68.72
1009.789	112.5
1009.95	20.67
1010.112	32.48
1010.273	39.65
1010.435	13.5
1010.596	15.24
1010.758	9.04
1010.919	13.3
1011.081	-7.23
1011.242	33.84
1011.403	40.43
1011.565	25.51
1011.726	45.85
1011.887	-9.36
1012.049	24.74
1012.21	63.68
1012.371	91.58
1012.532	-61.09
1012.693	13.11
1012.855	0.9
1013.016	18.34
1013.177	41.78
1013.338	4.39
1013.499	81.31
1013.66	53.41
1013.821	54.77
1013.982	71.62
1014.143	8.85
1014.304	10.59
1014.465	37.91
1014.626	57.09
1014.787	8.65
1014.948	118.7
1015.109	-21.38
1015.27	67.55
1015.431	-12.85
1015.592	-16.53
1015.752	60.58
1015.913	54.57
1016.074	51.47
1016.235	33.65
1016.395	31.52
1016.556	14.08
1016.717	25.7
1016.877	76.08
1017.038	-9.75
1017.199	34.23
1017.359	24.93
1017.52	24.15
1017.681	17.57
1017.841	17.18
1018.002	19.5
1018.162	-4.33
1018.323	55.15
1018.483	22.8
1018.644	13.11
1018.804	-44.05
1018.964	-14.4
1019.125	3.81
1019.285	18.34
1019.446	4.78
1019.606	-20.6
1019.766	-22.15
1019.926	48.37
1020.087	15.82
1020.247	-53.93
1020.407	60.19
1020.567	47.21
1020.728	14.47
1020.888	-15.76
1021.048	-8.59
1021.208	-9.17
1021.368	-4.52
1021.528	57.87
1021.688	47.21
1021.848	45.85
1022.008	4.59
1022.168	20.67
1022.328	35.39
1022.488	29.97
1022.648	-7.23
1022.808	39.65
1022.968	25.51
1023.128	-27.38
1023.288	-4.33
1023.448	15.44
1023.608	39.65
1023.767	52.44
1023.927	-13.24
1024.087	11.75
1024.247	-5.1
1024.406	-5.68
1024.566	-3.75
1024.726	14.47
1024.885	11.37
1025.045	31.71
1025.205	-0.06
1025.364	14.85
1025.524	-0.45
1025.683	14.66
1025.843	15.63
1026.003	20.47
1026.162	59.42
1026.321	47.4
1026.481	7.69
1026.64	0.52
1026.8	10.01
1026.959	28.42
1027.119	29.97
1027.278	13.5
1027.437	-18.47
1027.597	3.23
1027.756	34.03
1027.915	31.32
1028.074	31.52
1028.234	3.42
1028.393	9.43
1028.552	15.82
1028.711	-51.6
1028.87	74.92
1029.03	-21.57
1029.189	10.98
1029.348	-39.78
1029.507	-2.2
1029.666	6.91
1029.825	4.78
1029.984	-24.67
1030.143	33.84
1030.302	-6.65
1030.461	-52.38
1030.62	-1.42
1030.779	39.27
1030.938	12.14
1031.097	-27.38
1031.255	8.27
1031.414	58.06
1031.573	25.32
1031.732	-47.15
1031.891	3.42
1032.049	58.83
1032.208	15.63
1032.367	-17.31
1032.525	6.91
1032.684	9.24
1032.843	-17.7
1033.001	-23.12
1033.16	137.5
1033.319	40.04
1033.477	29.97
1033.636	-7.81
1033.794	-48.89
1033.953	52.63
1034.111	53.6
1034.27	16.21
1034.428	25.12
1034.587	-37.07
1034.745	29.58
1034.903	-8.98
1035.062	35
1035.22	-11.5
1035.378	18.73
1035.537	-31.45
1035.695	34.23
1035.853	1.87
1036.011	59.03
1036.17	-10.53
1036.328	-60.32
1036.486	38.3
1036.644	10.59
1036.802	-91.32
1036.96	-13.82
1037.119	-2.58
1037.277	-29.13
1037.435	-48.89
1037.593	-25.25
1037.751	-0.26
1037.909	40.04
1038.067	40.04
