Data from pine_FLMT105791__132__17-22-31-075.txt Node

Date: Mon Mar 20 17:22:31 GMT 2023
User: antho
Spectrometer: FLMT10579
Trigger mode: 0
Integration Time (sec): 1.000000E-1
Scans to average: 10
Electric dark correction enabled: true
Nonlinearity correction enabled: false
Boxcar width: 0
XAxis mode: Wavelengths
Number of Pixels in Spectrum: 3648
>>>>>Begin Spectral Data<<<<<
345.248	-131.17
345.464	-131.17
345.681	-131.17
345.898	-151.9
346.114	-182.7
346.331	-31
346.548	22.67
346.764	5.42
346.981	9.11
347.197	-10.46
347.414	7.56
347.631	-18.02
347.847	57.35
348.064	-7.75
348.28	42.04
348.497	-55.22
348.713	-21.7
348.93	44.17
349.146	43.4
349.363	7.56
349.579	0.39
349.796	-7.75
350.012	10.46
350.229	38.36
350.445	20.92
350.661	9.11
350.878	18.79
351.094	14.92
351.311	15.31
351.527	-16.47
351.743	-0.97
351.96	28.48
352.176	48.63
352.392	17.44
352.609	12.79
352.825	-3.68
353.041	18.99
353.257	6.39
353.474	20.54
353.69	37.01
353.906	24.22
354.122	-21.12
354.339	62.39
354.555	30.61
354.771	5.62
354.987	69.75
355.203	53.47
355.42	-21.51
355.636	-16.86
355.852	-16.86
356.068	5.42
356.284	-12.4
356.5	71.69
356.716	4.65
356.932	23.25
357.148	41.27
357.364	26.54
357.58	54.25
357.796	65.49
358.012	41.27
358.228	20.34
358.444	-53.67
358.66	56.19
358.876	26.16
359.092	-6.78
359.308	18.41
359.524	24.8
359.74	10.85
359.956	-0.39
360.172	20.92
360.388	27.71
360.604	8.72
360.819	76.14
361.035	-12.21
361.251	40.88
361.467	4.26
361.683	48.05
361.898	31.97
362.114	37.39
362.33	40.3
362.546	53.67
362.762	19.76
362.977	28.09
363.193	-18.79
363.409	42.04
363.624	-25.57
363.84	-37.97
364.056	-16.86
364.271	16.86
364.487	26.54
364.703	11.04
364.918	-12.01
365.134	-3.29
365.35	24.22
365.565	117.6
365.781	21.7
365.996	12.4
366.212	40.88
366.427	33.91
366.643	-32.16
366.858	4.46
367.074	-22.09
367.289	59.67
367.505	105.59
367.72	-35.46
367.936	-0.77
368.151	57.93
368.367	52.12
368.582	43.21
368.798	-11.24
369.013	52.51
369.228	34.29
369.444	44.17
369.659	74.98
369.874	36.04
370.09	66.65
370.305	-80.79
370.52	-4.07
370.736	60.26
370.951	22.86
371.166	53.28
371.381	75.95
371.597	49.21
371.812	-38.17
372.027	-5.81
372.242	32.16
372.458	97.45
372.673	-6.2
372.888	33.32
373.103	27.9
373.318	121.87
373.533	47.86
373.749	48.82
373.964	-39.91
374.179	58.9
374.394	3.1
374.609	66.46
374.824	-1.55
375.039	34.1
375.254	9.11
375.469	89.32
375.684	26.16
375.899	50.37
376.114	10.27
376.329	20.54
376.544	56.96
376.759	41.07
376.974	-0.77
377.189	12.79
377.404	-7.75
377.619	65.87
377.834	-23.83
378.049	-51.73
378.264	12.59
378.478	40.69
378.693	-3.29
378.908	46.69
379.123	13.17
379.338	35.84
379.553	36.04
379.767	44.56
379.982	34.1
380.197	55.22
380.412	21.89
380.626	50.57
380.841	87.19
381.056	45.92
381.271	87.57
381.485	19.57
381.7	-18.6
381.915	33.32
382.129	3.87
382.344	29.84
382.559	33.52
382.773	46.69
382.988	-3.68
383.202	31.97
383.417	-13.56
383.632	96.1
383.846	13.17
384.061	21.31
384.275	16.86
384.49	35.65
384.704	61.03
384.919	21.12
385.133	20.34
385.348	59.87
385.562	-24.22
385.777	72.85
385.991	43.98
386.206	12.21
386.42	30.42
386.634	68.97
386.849	41.27
387.063	34.87
387.277	-12.21
387.492	16.47
387.706	-9.11
387.92	-25.57
388.135	64.13
388.349	41.66
388.563	34.68
388.778	31.77
388.992	40.49
389.206	57.74
389.42	95.13
389.635	28.67
389.849	41.27
390.063	66.65
390.277	18.6
390.491	94.74
390.706	39.52
390.92	62
391.134	11.04
391.348	81.96
391.562	-28.29
391.776	12.98
391.99	-1.74
392.205	72.85
392.419	25.38
392.633	13.76
392.847	82.15
393.061	23.64
393.275	85.83
393.489	40.11
393.703	54.25
393.917	49.79
394.131	16.47
394.345	54.44
394.559	54.44
394.773	50.57
394.986	16.66
395.2	17.82
395.414	64.71
395.628	-3.87
395.842	38.36
396.056	7.56
396.27	-42.24
396.484	36.81
396.697	42.62
396.911	72.07
397.125	57.35
397.339	71.3
397.553	49.99
397.766	85.06
397.98	39.91
398.194	87.77
398.408	25.57
398.621	68.59
398.835	82.15
399.049	36.62
399.262	87.96
399.476	84.47
399.69	73.82
399.903	100.55
400.117	64.52
400.331	55.02
400.544	33.32
400.758	150.15
400.971	66.26
401.185	98.81
401.398	27.32
401.612	102.69
401.826	72.85
402.039	66.26
402.253	30.22
402.466	49.79
402.68	56.57
402.893	50.18
403.106	59.09
403.32	35.26
403.533	66.07
403.747	64.13
403.96	77.89
404.174	71.69
404.387	43.79
404.6	86.99
404.814	90.48
405.027	62.97
405.24	62.97
405.454	46.89
405.667	83.31
405.88	11.24
406.094	59.29
406.307	99.2
406.52	66.26
406.733	52.12
406.947	-1.55
407.16	121.09
407.373	91.84
407.586	47.08
407.799	-8.91
408.012	96.1
408.226	67.81
408.439	101.14
408.652	-10.46
408.865	68.78
409.078	110.24
409.291	99
409.504	19.18
409.717	60.26
409.93	88.74
410.143	47.47
410.357	32.36
410.57	18.41
410.783	60.84
410.996	77.89
411.209	65.1
411.421	99
411.634	51.54
411.847	8.33
412.06	48.24
412.273	70.33
412.486	40.88
412.699	139.11
412.912	63.36
413.125	110.44
413.338	74.79
413.55	98.62
413.763	37.78
413.976	89.32
414.189	44.17
414.402	72.07
414.615	92.42
414.827	45.34
415.04	107.72
415.253	61.03
415.466	86.61
415.678	149.77
415.891	87.77
416.104	46.31
416.316	91.06
416.529	48.24
416.742	83.7
416.954	104.04
417.167	86.02
417.38	77.69
417.592	93.77
417.805	50.96
418.017	28.67
418.23	109.66
418.442	47.86
418.655	62.58
418.868	73.04
419.08	114.12
419.293	126.32
419.505	87.19
419.718	101.91
419.93	117.41
420.142	70.33
420.355	139.69
420.567	141.44
420.78	113.54
420.992	93.97
421.205	135.24
421.417	55.61
421.629	43.59
421.842	55.61
422.054	51.73
422.266	106.37
422.479	112.95
422.691	62.19
422.903	104.62
423.115	63.94
423.328	59.09
423.54	114.89
423.752	82.54
423.964	68.39
424.177	125.35
424.389	64.52
424.601	194.91
424.813	103.27
425.025	131.94
425.238	137.56
425.45	91.64
425.662	88.35
425.874	378.58
426.086	117.22
426.298	124
426.51	121.87
426.722	119.74
426.934	69.75
427.146	125.16
427.358	54.64
427.57	136.98
427.782	89.7
427.994	98.42
428.206	102.1
428.418	63.94
428.63	144.92
428.842	144.54
429.054	112.18
429.266	132.33
429.478	85.25
429.69	109.66
429.902	53.09
430.114	141.82
430.325	142.4
430.537	84.09
430.749	132.14
430.961	102.69
431.173	94.74
431.384	127.68
431.596	49.21
431.808	105.59
432.02	124.77
432.231	139.3
432.443	167.2
432.655	140.27
432.867	89.9
433.078	164.88
433.29	190.65
433.502	159.07
433.713	159.07
433.925	155.58
434.136	162.75
434.348	91.64
434.56	85.44
434.771	230.17
434.983	112.95
435.194	112.37
435.406	143.76
435.617	171.08
435.829	192.78
436.04	159.07
436.252	183.67
436.463	221.26
436.675	202.08
436.886	159.84
437.098	169.34
437.309	211.96
437.521	164.88
437.732	189.87
437.943	169.72
438.155	143.57
438.366	87.19
438.578	233.08
438.789	185.42
439	202.66
439.211	165.07
439.423	182.9
439.634	196.46
439.845	202.47
440.057	170.89
440.268	190.26
440.479	173.4
440.69	202.08
440.902	161.78
441.113	171.85
441.324	186
441.535	191.23
441.746	239.86
441.957	164.88
442.168	184.45
442.38	213.51
442.591	216.22
442.802	182.9
443.013	177.08
443.224	214.09
443.435	189.1
443.646	206.15
443.857	221.45
444.068	196.65
444.279	152.29
444.49	286.55
444.701	205.37
444.912	308.06
445.123	234.82
445.334	232.69
445.545	233.47
445.756	208.86
445.967	193.17
446.178	227.85
446.388	255.17
446.599	254.39
446.81	228.82
447.021	201.5
447.232	258.65
447.443	302.63
447.653	195.68
447.864	271.05
448.075	234.82
448.286	252.65
448.496	251.87
448.707	281.51
448.918	238.7
449.129	324.33
449.339	208.67
449.55	266.98
449.761	210.99
449.971	277.64
450.182	228.82
450.393	246.83
450.603	264.66
450.814	290.43
451.024	263.3
451.235	290.62
451.446	323.36
451.656	317.16
451.867	241.02
452.077	298.95
452.288	327.82
452.498	306.9
452.709	247.61
452.919	276.28
453.13	224.55
453.34	286.16
453.55	237.53
453.761	304.96
453.971	273.57
454.182	327.43
454.392	316.78
454.602	351.84
454.813	288.49
455.023	310.96
455.233	219.9
455.444	285.97
455.654	206.73
455.864	278.22
456.075	258.85
456.285	268.15
456.495	273.57
456.705	279
456.916	294.69
457.126	333.63
457.336	266.79
457.546	243.73
457.756	281.9
457.967	323.36
458.177	258.85
458.387	292.36
458.597	284.23
458.807	297.6
459.017	251.68
459.227	274.73
459.437	280.35
459.647	321.23
459.857	295.08
460.068	269.5
460.278	344.48
460.488	312.51
460.698	372.77
460.908	316
461.117	245.67
461.327	291.01
461.537	305.93
461.747	325.11
461.957	319.88
462.167	401.64
462.377	364.05
462.587	312.32
462.797	316.58
463.007	356.11
463.216	334.02
463.426	368.12
463.636	356.49
463.846	295.85
464.056	290.43
464.265	330.34
464.475	296.24
464.685	344.48
464.895	364.63
465.104	330.92
465.314	347.78
465.524	322.98
465.733	284.23
465.943	419.27
466.153	404.54
466.362	369.28
466.572	340.8
466.782	345.26
466.991	339.25
467.201	397.76
467.41	313.68
467.62	379.94
467.829	348.36
468.039	366.57
468.249	313.87
468.458	319.88
468.668	378
468.877	365.6
469.086	393.31
469.296	385.75
469.505	352.43
469.715	434.96
469.924	383.81
470.134	414.04
470.343	400.86
470.552	362.11
470.762	362.11
470.971	305.93
471.18	378
471.39	372.77
471.599	327.24
471.808	402.22
472.018	372.58
472.227	424.31
472.436	417.91
472.645	390.79
472.855	375.29
473.064	431.09
473.273	412.1
473.482	418.3
473.691	468.67
473.901	420.82
474.11	424.69
474.319	498.51
474.528	427.79
474.737	471.19
474.946	430.51
475.155	459.18
475.364	449.49
475.573	466.16
475.783	432.06
475.992	497.35
476.201	479.72
476.41	435.35
476.619	431.09
476.828	452.4
477.037	414.04
477.245	470.42
477.454	482.24
477.663	477.39
477.872	484.76
478.081	533.19
478.29	434.77
478.499	553.15
478.708	511.69
478.917	541.33
479.125	514.59
479.334	514.59
479.543	476.42
479.752	516.53
479.961	499.87
480.169	534.74
480.378	503.36
480.587	642.27
480.796	543.65
481.004	514.01
481.213	565.74
481.422	533.77
481.63	527.77
481.839	589.57
482.048	576.98
482.256	534.94
482.465	539.39
482.674	563.61
482.882	599.84
483.091	660.87
483.299	580.66
483.508	593.64
483.716	553.54
483.925	590.35
484.134	550.82
484.342	551.02
484.551	621.93
484.759	596.94
484.967	592.09
485.176	612.43
485.384	630.45
485.593	613.98
485.801	603.91
486.01	596.94
486.218	553.92
486.426	521.76
486.635	548.89
486.843	510.52
487.051	575.24
487.26	560.51
487.468	572.14
487.676	605.46
487.885	584.73
488.093	604.88
488.301	611.85
488.509	634.72
488.717	664.36
488.926	640.72
489.134	613.21
489.342	658.35
489.55	604.88
489.758	644.6
489.967	622.12
490.175	743.02
490.383	652.54
490.591	730.62
490.799	621.93
491.007	711.83
491.215	686.25
491.423	683.93
491.631	665.33
491.839	680.83
492.047	729.65
492.255	647.12
492.463	609.34
492.671	667.85
492.879	694.2
493.087	688.58
493.295	712.41
493.503	712.41
493.711	732.17
493.919	718.61
494.127	736.05
494.334	761.43
494.542	691.87
494.75	695.75
494.958	709.7
495.166	731.2
495.374	786.03
495.581	759.1
495.789	756.97
495.997	777.7
496.205	707.56
496.412	723.45
496.62	706.4
496.828	770.73
497.035	737.6
497.243	790.68
497.451	769.76
497.658	780.22
497.866	761.04
498.074	816.84
498.281	762.4
498.489	851.33
498.696	765.69
498.904	751.55
499.112	754.45
499.319	826.91
499.527	759.68
499.734	776.73
499.942	740.5
500.149	749.61
500.357	772.86
500.564	748.06
500.771	811.41
500.979	719
501.186	743.99
501.394	771.89
501.601	756.2
501.808	771.7
502.016	790.29
502.223	761.43
502.43	791.07
502.638	773.63
502.845	723.45
503.052	865.66
503.26	803.66
503.467	863.73
503.674	782.35
503.881	813.74
504.089	890.07
504.296	823.23
504.503	761.04
504.71	818
504.917	780.03
505.125	802.69
505.332	810.83
505.539	880.77
505.746	914.29
505.953	869.93
506.16	878.84
506.367	942.19
506.574	940.26
506.781	946.46
506.988	852.88
507.195	899.37
507.402	854.43
507.609	936.77
507.816	875.16
508.023	898.6
508.23	845.9
508.437	820.71
508.644	882.71
508.851	942.97
509.058	892.01
509.265	919.91
509.472	932.51
509.679	992.18
509.885	926.31
510.092	901.31
510.299	950.52
510.506	911.19
510.713	923.79
510.92	878.06
511.126	920.88
511.333	979.78
511.54	956.14
511.746	1014.65
511.953	1034.42
512.16	1015.82
512.367	943.36
512.573	946.26
512.78	994.12
512.987	940.26
513.193	969.9
513.4	892.98
513.606	947.04
513.813	985.01
514.02	961.76
514.226	1025.12
514.433	1026.28
514.639	922.43
514.846	960.79
515.052	968.35
515.259	989.66
515.465	1002.84
515.672	954.79
515.878	1082.85
516.085	1001.48
516.291	1057.08
516.497	1027.64
516.704	1017.56
516.91	964.47
517.117	902.28
517.323	860.24
517.529	920.69
517.736	919.14
517.942	936.19
518.148	983.27
518.354	974.94
518.561	969.32
518.767	994.89
518.973	1024.34
519.179	1055.34
519.386	991.21
519.592	1006.13
519.798	1010.39
520.004	1117.34
520.21	1065.61
520.417	1080.92
520.623	1164.61
520.829	1134.58
521.035	1125.87
521.241	1122.77
521.447	1156.67
521.653	1263.43
521.859	1126.83
522.065	1164.42
522.271	1243.28
522.477	1201.62
522.683	1227.78
522.889	1171.78
523.095	1161.51
523.301	1155.12
523.507	1157.64
523.713	1167.91
523.919	1171.59
524.125	1229.13
524.331	1191.93
524.537	1286.29
524.742	1274.66
524.948	1312.06
525.154	1273.69
525.36	1378.71
525.566	1290.74
525.772	1338.79
525.977	1227.97
526.183	1302.37
526.389	1309.15
526.595	1250.83
526.8	1250.06
527.006	1188.45
527.212	1192.51
527.417	1150.66
527.623	1161.51
527.829	1254.13
528.034	1277.76
528.24	1252.96
528.446	1252.19
528.651	1307.99
528.857	1315.93
529.062	1377.16
529.268	1329.3
529.473	1355.46
529.679	1337.05
529.884	1425.4
530.09	1382.97
530.295	1411.64
530.501	1394.21
530.706	1360.88
530.912	1343.25
531.117	1335.69
531.323	1375.61
531.528	1450.59
531.733	1426.56
531.939	1409.51
532.144	1401.76
532.35	1379.87
532.555	1446.52
532.76	1413.97
532.966	1419.39
533.171	1407.38
533.376	1389.36
533.581	1376.19
533.787	1391.11
533.992	1444.19
534.197	1472.29
534.402	1397.31
534.607	1442.64
534.813	1503.28
535.018	1435.47
535.223	1419.39
535.428	1460.27
535.633	1518.98
535.838	1489.14
536.043	1455.43
536.249	1556.76
536.454	1458.34
536.659	1506.58
536.864	1449.42
537.069	1473.06
537.274	1457.17
537.479	1510.45
537.684	1492.63
537.889	1415.32
538.094	1576.52
538.299	1463.18
538.504	1492.82
538.708	1483.72
538.913	1526.34
539.118	1487.2
539.323	1513.17
539.528	1453.3
539.733	1455.04
539.938	1461.24
540.142	1509.1
540.347	1486.82
540.552	1430.44
540.757	1466.47
540.962	1477.32
541.166	1427.92
541.371	1462.79
541.576	1472.87
541.781	1390.14
541.985	1462.6
542.19	1524.6
542.395	1577.1
542.599	1598.61
542.804	1537.19
543.008	1556.57
543.213	1503.28
543.418	1463.57
543.622	1528.47
543.827	1498.05
544.031	1582.72
544.236	1579.04
544.44	1518.98
544.645	1654.6
544.849	1552.3
545.054	1566.06
545.258	1642.98
545.463	1610.23
545.667	1530.02
545.872	1609.85
546.076	1573.03
546.281	1548.62
546.485	1524.21
546.689	1578.46
546.894	1588.53
547.098	1553.08
547.302	1524.21
547.507	1547.65
547.711	1554.24
547.915	1638.33
548.119	1537.77
548.324	1547.46
548.528	1595.12
548.732	1566.83
548.936	1578.26
549.141	1641.62
549.345	1548.43
549.549	1560.25
549.753	1587.56
549.957	1660.99
550.161	1633.29
550.366	1621.47
550.57	1559.67
550.774	1602.29
550.978	1596.09
551.182	1611.2
551.386	1597.25
551.59	1576.13
551.794	1543
551.998	1624.18
552.202	1600.74
552.406	1526.92
552.61	1593.18
552.814	1614.5
553.018	1672.23
553.222	1632.9
553.426	1563.35
553.63	1645.3
553.833	1634.26
554.037	1539.32
554.241	1649.76
554.445	1634.65
554.649	1654.02
554.853	1623.8
555.056	1644.33
555.26	1654.6
555.464	1666.81
555.668	1636.78
555.871	1638.33
556.075	1655.96
556.279	1608.49
556.483	1588.15
556.686	1616.05
556.89	1594.73
557.094	1626.31
557.297	1522.66
557.501	1592.6
557.704	1538.93
557.908	1597.25
558.112	1531.57
558.315	1634.26
558.519	1552.69
558.722	1561.8
558.926	1548.43
559.129	1496.5
559.333	1477.13
559.536	1478.68
559.74	1471.12
559.943	1453.88
560.147	1490.88
560.35	1496.12
560.553	1497.67
560.757	1448.84
560.96	1557.92
561.164	1498.83
561.367	1585.82
561.57	1510.65
561.774	1511.23
561.977	1492.05
562.18	1496.7
562.384	1609.46
562.587	1478.87
562.79	1518.2
562.993	1476.74
563.197	1558.12
563.4	1605.58
563.603	1561.6
563.806	1584.66
564.009	1480.23
564.212	1518.01
564.416	1455.82
564.619	1492.05
564.822	1456.4
565.025	1547.27
565.228	1502.12
565.431	1475.77
565.634	1378.71
565.837	1438.57
566.04	1420.55
566.243	1425.59
566.446	1353.13
566.649	1439.93
566.852	1379.67
567.055	1465.5
567.258	1456.4
567.461	1509.48
567.664	1486.62
567.867	1409.12
568.07	1461.63
568.273	1438.19
568.475	1467.64
568.678	1413.39
568.881	1417.26
569.084	1411.06
569.287	1282.99
569.489	1327.17
569.692	1415.13
569.895	1415.13
570.098	1308.57
570.3	1361.27
570.503	1304.11
570.706	1302.76
570.909	1319.61
571.111	1270.98
571.314	1260.71
571.516	1286.48
571.719	1335.89
571.922	1271.37
572.124	1273.11
572.327	1298.11
572.529	1258
572.732	1235.72
572.935	1309.34
573.137	1377.35
573.34	1291.91
573.542	1308.57
573.745	1321.55
573.947	1314.96
574.15	1299.46
574.352	1296.56
574.554	1373.28
574.757	1240.76
574.959	1243.28
575.162	1237.27
575.364	1259.94
575.566	1341.31
575.769	1235.14
575.971	1265.36
576.173	1155.31
576.376	1219.64
576.578	1269.63
576.78	1300.24
576.982	1161.9
577.185	1218.48
577.387	1177.6
577.589	1194.65
577.791	1268.27
577.993	1224.09
578.196	1226.03
578.398	1235.53
578.6	1256.84
578.802	1199.88
579.004	1162.68
579.206	1182.83
579.408	1242.11
579.61	1199.3
579.812	1252.58
580.014	1200.46
580.216	1169.65
580.418	1164.42
580.62	1187.28
580.822	1140.4
581.024	1184.96
581.226	1222.55
581.428	1193.48
581.63	1277.96
581.832	1162.29
582.034	1254.9
582.236	1227
582.438	1231.46
582.64	1253.54
582.841	1272.34
583.043	1290.55
583.245	1243.28
583.447	1233.78
583.649	1194.65
583.85	1221
584.052	1276.6
584.254	1188.83
584.456	1223.9
584.657	1173.91
584.859	1235.14
585.061	1231.46
585.262	1190.96
585.464	1157.83
585.666	1250.06
585.867	1154.35
586.069	1232.62
586.27	1196.39
586.472	1187.48
586.674	1172.75
586.875	1177.79
587.077	1149.11
587.278	1172.17
587.48	1178.95
587.681	1286.68
587.883	1195.61
588.084	1089.83
588.285	1128.19
588.487	1138.26
588.688	1170.23
588.89	1087.12
589.091	1029.57
589.292	1054.18
589.494	1025.5
589.695	1050.11
589.896	994.5
590.098	974.55
590.299	1049.92
590.5	973
590.702	1044.49
590.903	1038.29
591.104	1125.48
591.305	1080.72
591.507	1122.96
591.708	1108.82
591.909	1046.24
592.11	1168.68
592.311	1118.89
592.512	1057.86
592.714	1034.22
592.915	1058.25
593.116	1048.37
593.317	1063.67
593.518	1065.8
593.719	1056.89
593.92	1101.65
594.121	1131.87
594.322	1066
594.523	1086.34
594.724	1036.35
594.925	1048.75
595.126	1046.82
595.327	1114.82
595.528	1065.03
595.729	1067.74
595.929	1042.17
596.13	1078.78
596.331	1099.32
596.532	1078.78
596.733	1109.4
596.934	1140.4
597.135	1085.76
597.335	1089.83
597.536	1063.09
597.737	1088.47
597.938	1042.55
598.138	1087.31
598.339	1059.8
598.54	1087.12
598.74	1087.5
598.941	1088.28
599.142	1162.68
599.342	1078.98
599.543	1052.05
599.744	1046.43
599.944	1060.96
600.145	1069.1
600.345	1075.49
600.546	1127.03
600.746	1135.17
600.947	1170.81
601.147	1060.57
601.348	1129.55
601.548	1050.11
601.749	1081.3
601.949	1039.84
602.15	1056.31
602.35	1053.6
602.551	1110.75
602.751	1034.22
602.951	1032.29
603.152	1001.09
603.352	1069.29
603.552	1103.58
603.753	1093.12
603.953	1085.95
604.153	1082.27
604.354	1079.75
604.554	1079.56
604.754	1094.67
604.954	1060.77
605.155	1096.03
605.355	1076.07
605.555	1073.55
605.755	1110.37
605.955	1047.98
606.155	1078.2
606.356	1059.22
606.556	1080.33
606.756	1045.65
606.956	1009.81
607.156	1123.73
607.356	1019.11
607.556	1048.56
607.756	1101.45
607.956	1106.68
608.156	1082.08
608.356	1041.2
608.556	1090.41
608.756	1038.29
608.956	1009.23
609.156	1031.51
609.356	1021.44
609.556	991.79
609.755	1034.22
609.955	991.21
610.155	1027.25
610.355	1034.42
610.555	993.54
610.755	1032.29
610.954	975.52
611.154	1024.92
611.354	1034.42
611.554	987.72
611.753	973.19
611.953	976.49
612.153	1035.97
612.352	1014.85
612.552	965.05
612.752	932.51
612.951	979.2
613.151	977.65
613.351	952.27
613.55	1023.76
613.75	1003.03
613.949	963.7
614.149	1001.67
614.348	939.29
614.548	955.76
614.747	877.09
614.947	939.67
615.146	876.51
615.346	1015.62
615.545	951.3
615.745	967.77
615.944	981.33
616.144	990.24
616.343	990.24
616.542	941.42
616.742	945.29
616.941	938.32
617.14	884.26
617.34	947.81
617.539	923.59
617.738	931.15
617.938	1005.94
618.137	956.53
618.336	897.24
618.535	975.71
618.734	953.04
618.934	956.53
619.133	943.74
619.332	970.29
619.531	902.28
619.73	932.12
619.929	960.6
620.128	971.64
620.328	1005.74
620.527	930.18
620.726	904.02
620.925	948.2
621.124	925.72
621.323	949.36
621.522	929.79
621.721	888.33
621.92	862.95
622.119	927.27
622.318	914.1
622.517	912.94
622.715	904.61
622.914	858.3
623.113	894.34
623.312	862.18
623.511	943.36
623.71	895.69
623.909	886.2
624.107	961.37
624.306	843.96
624.505	864.5
624.704	876.9
624.902	907.71
625.101	965.83
625.3	920.88
625.499	844.16
625.697	838.15
625.896	836.79
626.095	896.86
626.293	847.84
626.492	833.69
626.69	881.36
626.889	863.73
627.088	908.48
627.286	884.65
627.485	873.8
627.683	830.21
627.882	864.31
628.08	798.82
628.279	842.41
628.477	877.48
628.676	797.66
628.874	851.71
629.073	801.73
629.271	794.17
629.469	844.54
629.668	829.82
629.866	812.19
630.065	807.34
630.263	848.23
630.461	795.91
630.66	813.74
630.858	854.04
631.056	855.59
631.254	876.51
631.453	830.01
631.651	869.34
631.849	844.74
632.047	853.65
632.245	817.81
632.444	825.94
632.642	839.12
632.84	873.03
633.038	840.48
633.236	802.11
633.434	791.84
633.632	796.3
633.83	800.37
634.028	871.28
634.227	836.02
634.425	885.42
634.623	820.91
634.821	861.01
635.019	856.56
635.216	827.69
635.414	875.74
635.612	814.51
635.81	852.1
636.008	885.23
636.206	828.46
636.404	856.36
636.602	785.06
636.8	841.44
636.997	851.13
637.195	885.23
637.393	796.49
637.591	896.47
637.789	865.47
637.986	841.25
638.184	842.99
638.382	895.5
638.58	848.81
638.777	914.29
638.975	802.11
639.173	870.89
639.37	846.48
639.568	839.12
639.765	862.95
639.963	814.71
640.161	855.59
640.358	855.39
640.556	821.1
640.753	789.71
640.951	789.13
641.148	812.77
641.346	800.76
641.543	839.12
641.741	840.86
641.938	816.84
642.136	805.99
642.333	773.25
642.531	825.75
642.728	866.24
642.925	794.56
643.123	816.45
643.32	814.13
643.517	812.58
643.715	797.85
643.912	775.57
644.109	793.39
644.306	764.53
644.504	741.86
644.701	809.28
644.898	819.36
645.095	769.95
645.293	772.66
645.49	778.28
645.687	767.05
645.884	824.2
646.081	710.08
646.278	749.22
646.475	734.5
646.672	743.41
646.87	774.99
647.067	753.48
647.264	755.23
647.461	709.11
647.658	684.9
647.855	744.96
648.052	720.35
648.249	663.97
648.446	712.41
648.642	731.2
648.839	684.7
649.036	691.68
649.233	690.32
649.43	669.4
649.627	658.16
649.824	681.22
650.021	675.6
650.217	671.14
650.414	657.58
650.611	703.3
650.808	700.78
651.004	712.99
651.201	722.48
651.398	752.13
651.595	707.76
651.791	714.54
651.988	725.78
652.185	646.15
652.381	716.48
652.578	647.12
652.775	672.69
652.971	688.58
653.168	714.35
653.364	708.92
653.561	679.86
653.757	684.12
653.954	679.86
654.15	668.62
654.347	735.85
654.543	695.36
654.74	655.25
654.936	659.32
655.133	669.4
655.329	683.54
655.525	662.03
655.722	685.28
655.918	614.76
656.115	679.47
656.311	571.55
656.507	579.3
656.704	526.6
656.9	574.27
657.096	587.25
657.292	578.14
657.489	663.2
657.685	638.4
657.881	627.16
658.077	593.64
658.273	642.08
658.47	707.56
658.666	650.02
658.862	682.38
659.058	630.26
659.254	686.83
659.45	607.2
659.646	675.4
659.842	640.14
660.038	690.9
660.234	626
660.43	654.48
660.626	724.42
660.822	677.53
661.018	698.07
661.214	657.19
661.41	593.84
661.606	697.49
661.802	681.41
661.998	668.82
662.194	640.33
662.39	684.51
662.586	665.52
662.781	672.88
662.977	662.42
663.173	674.24
663.369	646.92
663.564	652.54
663.76	692.07
663.956	631.81
664.152	718.61
664.347	579.3
664.543	627.16
664.739	620.77
664.934	582.6
665.13	578.92
665.326	698.46
665.521	649.25
665.717	612.63
665.912	575.24
666.108	549.27
666.304	591.51
666.499	610.5
666.695	552.95
666.89	614.76
667.086	631.23
667.281	610.3
667.477	679.47
667.672	607.98
667.867	595.39
668.063	628.9
668.258	588.22
668.454	621.35
668.649	640.92
668.844	632
669.04	634.13
669.235	569.04
669.43	583.76
669.626	559.74
669.821	576.59
670.016	569.62
670.211	607.59
670.407	547.53
670.602	582.21
670.797	580.47
670.992	613.6
671.187	581.24
671.382	604.3
671.578	572.33
671.773	591.7
671.968	533.97
672.163	562.06
672.358	620.96
672.553	569.62
672.748	576.59
672.943	645.57
673.138	597.9
673.333	580.08
673.528	550.05
673.723	613.6
673.918	577.37
674.113	569.81
674.308	638.78
674.503	602.36
674.698	647.5
674.892	613.21
675.087	611.85
675.282	569.04
675.477	564.77
675.672	596.94
675.867	549.27
676.061	518.08
676.256	516.34
676.451	570.2
676.646	580.66
676.84	514.21
677.035	539.2
677.23	528.74
677.424	597.9
677.619	619.6
677.814	616.31
678.008	591.9
678.203	493.28
678.397	537.84
678.592	575.82
678.787	595.77
678.981	576.01
679.176	563.8
679.37	540.75
679.565	544.24
679.759	559.54
679.954	578.34
680.148	626.58
680.342	621.73
680.537	594.8
680.731	585.5
680.926	584.92
681.12	592.29
681.314	540.55
681.509	547.14
681.703	583.57
681.897	603.91
682.092	565.35
682.286	581.82
682.48	632.39
682.674	619.02
682.869	541.52
683.063	568.65
683.257	658.16
683.451	530.48
683.645	586.28
683.839	545.59
684.034	547.14
684.228	586.67
684.422	529.51
684.616	527.96
684.81	589.57
685.004	551.02
685.198	573.49
685.392	595.77
685.586	520.79
685.78	551.99
685.974	604.3
686.168	586.86
686.362	618.83
686.556	510.14
686.75	485.34
686.944	510.14
687.138	501.81
687.331	414.43
687.525	479.33
687.719	392.73
687.913	441.55
688.107	450.46
688.301	418.88
688.494	512.66
688.688	455.11
688.882	415.98
689.076	398.54
689.269	460.92
689.463	527.96
689.657	473.52
689.85	482.04
690.044	477.59
690.238	497.93
690.431	474.87
690.625	476.81
690.818	539.78
691.012	518.86
691.205	542.69
691.399	483.79
691.593	547.53
691.786	542.69
691.98	561.67
692.173	619.22
692.366	567.1
692.56	642.27
692.753	630.65
692.947	547.92
693.14	632.58
693.333	620.18
693.527	569.23
693.72	632
693.914	605.46
694.107	568.65
694.3	620.38
694.493	583.95
694.687	689.16
694.88	593.64
695.073	675.79
695.266	655.06
695.46	657.97
695.653	694.97
695.846	681.6
696.039	633.55
696.232	688.58
696.425	705.63
696.618	701.36
696.812	703.3
697.005	793.39
697.198	831.76
697.391	762.2
697.584	771.11
697.777	828.46
697.97	802.69
698.163	836.99
698.356	787.19
698.549	889.69
698.742	851.91
698.935	814.51
699.127	844.74
699.32	793.2
699.513	784.68
699.706	835.05
699.899	860.04
700.092	819.36
700.285	874.96
700.477	818.19
700.67	862.56
700.863	911
701.056	970.29
701.248	936.38
701.441	943.36
701.634	929.6
701.826	1020.47
702.019	911.19
702.212	993.73
702.404	923.79
702.597	936.38
702.79	952.27
702.982	989.47
703.175	1034.03
703.367	1021.44
703.56	1045.27
703.752	1086.92
703.945	1072.2
704.137	1060.77
704.33	1106.49
704.522	1070.26
704.715	1120.25
704.907	1160.74
705.1	1179.92
705.292	1163.45
705.484	1138.26
705.677	1159.96
705.869	1192.71
706.061	1240.37
706.254	1245.79
706.446	1184.38
706.638	1217.31
706.831	1277.96
707.023	1221.77
707.215	1296.36
707.407	1305.47
707.599	1281.25
707.792	1345.77
707.984	1320
708.176	1366.69
708.368	1324.46
708.56	1354.1
708.752	1353.13
708.944	1358.75
709.136	1401.18
709.329	1345.77
709.521	1478.1
709.713	1495.73
709.905	1440.51
710.097	1499.41
710.289	1421.91
710.481	1410.29
710.672	1496.7
710.864	1481.2
711.056	1519.75
711.248	1540.87
711.44	1519.75
711.632	1534.87
711.824	1577.3
712.016	1612.56
712.207	1611.4
712.399	1591.25
712.591	1659.64
712.783	1606.16
712.975	1665.06
713.166	1614.88
713.358	1652.08
713.55	1720.86
713.741	1712.34
713.933	1681.73
714.125	1697.81
714.316	1650.73
714.508	1745.47
714.7	1739.08
714.891	1725.51
715.083	1768.14
715.274	1732.29
715.466	1749.92
715.657	1806.31
715.849	1681.73
716.04	1780.54
716.232	1721.06
716.423	1736.17
716.615	1642.2
716.806	1631.55
716.998	1618.76
717.189	1568
717.381	1490.11
717.572	1448.26
717.763	1531.38
717.955	1492.05
718.146	1446.71
718.337	1392.07
718.528	1376.38
718.72	1353.71
718.911	1419.59
719.102	1337.63
719.293	1380.45
719.485	1399.05
719.676	1372.89
719.867	1332.4
720.058	1332.79
720.249	1346.54
720.44	1375.22
720.632	1403.7
720.823	1423.65
721.014	1534.87
721.205	1553.08
721.396	1616.05
721.587	1698.78
721.778	1683.66
721.969	1705.17
722.16	1753.02
722.351	1773.95
722.542	1907.83
722.733	1907.83
722.924	1812.31
723.115	1859.2
723.305	1850.67
723.496	1825.87
723.687	1734.43
723.878	1739.85
724.069	1732.1
724.26	1758.45
724.45	1696.45
724.641	1742.37
724.832	1789.45
725.023	1716.99
725.213	1711.18
725.404	1717.18
725.595	1740.82
725.785	1708.85
725.976	1735.98
726.167	1756.9
726.357	1766.2
726.548	1816.19
726.739	1736.75
726.929	1813.67
727.12	1834.4
727.31	1906.67
727.501	1806.31
727.691	1834.79
727.882	1825.49
728.072	1896.4
728.263	1875.09
728.453	1904.92
728.644	1918.49
728.834	1879.54
729.024	1882.06
729.215	1868.11
729.405	1869.47
729.596	1979.52
729.786	1969.83
729.976	1949.1
730.167	1984.94
730.357	1938.05
730.547	1941.35
730.737	1972.35
730.928	2007.22
731.118	2053.53
731.308	1992.11
731.498	2003.93
731.688	2089.37
731.879	2065.73
732.069	2177.91
732.259	2181.01
732.449	2176.17
732.639	2237.39
732.829	2251.73
733.019	2286.02
733.209	2327.29
733.399	2321.48
733.589	2378.44
733.779	2408.47
733.969	2370.88
734.159	2411.18
734.349	2454.78
734.539	2471.44
734.729	2466.4
734.919	2503.41
735.109	2556.88
735.299	2477.45
735.488	2534.6
735.678	2521.23
735.868	2544.48
736.058	2501.66
736.248	2497.79
736.437	2472.02
736.627	2452.06
736.817	2597.96
737.007	2529.37
737.196	2567.73
737.386	2549.71
737.576	2539.25
737.765	2577.81
737.955	2549.91
738.144	2669.64
738.334	2621.59
738.524	2561.92
738.713	2571.22
738.903	2632.44
739.092	2620.43
739.282	2647.56
739.471	2652.98
739.661	2614.23
739.85	2655.11
740.04	2667.51
740.229	2722.92
740.419	2701.81
740.608	2673.71
740.797	2686.89
740.987	2715.75
741.176	2744.62
741.365	2720.79
741.555	2687.86
741.744	2749.85
741.933	2688.82
742.123	2714.59
742.312	2793.64
742.501	2789.19
742.69	2804.3
742.88	2702
743.069	2828.32
743.258	2776.01
743.447	2823.67
743.636	2822.9
743.825	2793.45
744.014	2796.74
744.204	2827.35
744.393	2766.52
744.582	2846.73
744.771	2884.12
744.96	2799.26
745.149	2826.38
745.338	2810.5
745.527	2851.38
745.716	2824.45
745.905	2836.65
746.094	2853.32
746.283	2874.43
746.471	2841.88
746.66	2944.96
746.849	2862.62
747.038	2916.09
747.227	2811.66
747.416	2855.45
747.604	2807.4
747.793	2846.53
747.982	2848.08
748.171	2915.7
748.359	2893.23
748.548	2812.24
748.737	2857
748.926	2859.13
749.114	2756.83
749.303	2855.25
749.491	2819.41
749.68	2756.05
749.869	2841.11
750.057	2796.35
750.246	2776.79
750.434	2760.12
750.623	2811.08
750.811	2778.53
751	2845.57
751.188	2814.18
751.377	2849.25
751.565	2789.38
751.754	2800.23
751.942	2778.34
752.131	2813.98
752.319	2788.99
752.507	2732.42
752.696	2813.4
752.884	2825.03
753.072	2743.85
753.261	2775.24
753.449	2780.47
753.637	2749.85
753.825	2840.72
754.014	2744.04
754.202	2772.33
754.39	2825.8
754.578	2818.63
754.766	2753.92
754.955	2766.52
755.143	2776.59
755.331	2707.81
755.519	2730.48
755.707	2707.81
755.895	2725.64
756.083	2719.82
756.271	2685.53
756.459	2753.92
756.647	2734.74
756.835	2686.69
757.023	2676.04
757.211	2735.13
757.399	2653.76
757.587	2680.69
757.775	2622.76
757.963	2659.76
758.151	2651.62
758.339	2603.58
758.526	2636.71
758.714	2657.63
758.902	2553.78
759.09	2483.84
759.278	2336.79
759.465	2154.47
759.653	1830.52
759.841	1697.03
760.028	1474.42
760.216	1281.64
760.404	1164.23
760.591	1002.84
760.779	841.44
760.967	748.64
761.154	598.68
761.342	628.13
761.529	611.85
761.717	703.3
761.905	680.05
762.092	750
762.28	693.62
762.467	711.25
762.655	640.72
762.842	640.72
763.029	666.68
763.217	663.97
763.404	659.52
763.592	710.47
763.779	659.52
763.966	709.11
764.154	728.1
764.341	768.98
764.528	787.39
764.716	833.5
764.903	917.2
765.09	933.28
765.277	992.37
765.465	1115.4
765.652	1149.31
765.839	1207.43
766.026	1309.73
766.213	1327.75
766.4	1398.47
766.588	1581.95
766.775	1551.92
766.962	1682.31
767.149	1718.93
767.336	1849.51
767.523	1778.02
767.71	1908.8
767.897	2034.15
768.084	2077.36
768.271	2079.49
768.458	2155.05
768.645	2250.57
768.832	2173.84
769.019	2192.64
769.206	2218.99
769.392	2286.6
769.579	2343.76
769.766	2315.86
769.953	2319.54
770.14	2337.56
770.327	2331.36
770.513	2328.45
770.7	2457.3
770.887	2343.76
771.073	2444.51
771.26	2376.31
771.447	2351.7
771.634	2371.47
771.82	2466.79
772.007	2355.39
772.193	2435.21
772.38	2459.23
772.567	2424.94
772.753	2393.55
772.94	2486.75
773.126	2443.15
773.313	2506.51
773.499	2414.87
773.686	2413.32
773.872	2399.75
774.059	2409.44
774.245	2359.07
774.432	2400.14
774.618	2347.05
774.804	2393.94
774.991	2327.68
775.177	2417.77
775.363	2399.37
775.55	2418.93
775.736	2347.25
775.922	2345.31
776.109	2347.64
776.295	2378.63
776.481	2353.84
776.667	2399.17
776.853	2337.56
777.04	2341.24
777.226	2309.47
777.412	2430.95
777.598	2314.7
777.784	2348.22
777.97	2334.07
778.156	2349.77
778.342	2342.02
778.528	2302.1
778.715	2253.28
778.901	2268.39
779.087	2291.64
779.272	2248.44
779.458	2272.65
779.644	2290.67
779.83	2220.73
780.016	2379.8
780.202	2261.81
780.388	2273.04
780.574	2200.58
780.76	2238.94
780.946	2283.89
781.131	2262.77
781.317	2242.24
781.503	2197.09
781.689	2231.77
781.874	2326.52
782.06	2200.19
782.246	2211.62
782.432	2195.16
782.617	2194.19
782.803	2237.39
782.989	2161.83
783.174	2169.19
783.36	2178.3
783.545	2162.99
783.731	2198.45
783.916	2110.1
784.102	2196.51
784.288	2175.98
784.473	2150.21
784.659	2119.4
784.844	2189.34
785.029	2102.16
785.215	2119.79
785.4	2074.84
785.586	2165.32
785.771	2082.4
785.956	2097.31
786.142	2099.06
786.327	2101.77
786.512	2100.22
786.698	2109.33
786.883	2045.78
787.068	2049.07
787.254	2093.44
787.439	2033.38
787.624	2022.33
787.809	2013.23
787.994	2011.48
788.18	2104.29
788.365	1987.46
788.55	2007.8
788.735	2035.9
788.92	2029.89
789.105	1983.97
789.29	1977
789.475	1915.19
789.66	1941.73
789.845	1955.1
790.03	1925.07
790.215	2013.42
790.4	2008.38
790.585	1999.28
790.77	1950.45
790.955	1882.64
791.14	1971.18
791.325	1976.22
791.51	1882.84
791.695	1935.92
791.879	1897.95
792.064	1882.64
792.249	1972.54
792.434	1889.62
792.618	1930.3
792.803	1969.83
792.988	1934.95
793.173	1930.69
793.357	1948.71
793.542	1941.35
793.727	1925.46
793.911	1946.58
794.096	1927.2
794.281	1946
794.465	2048.49
794.65	1948.13
794.834	1971.38
795.019	2016.33
795.203	1979.13
795.388	1993.08
795.572	2004.32
795.757	1946
795.941	1964.98
796.126	1972.93
796.31	1921.78
796.494	1977.97
796.679	1935.53
796.863	1933.6
797.048	1998.31
797.232	1980.87
797.416	1964.79
797.601	1948.13
797.785	1986.49
797.969	1961.3
798.153	1891.55
798.338	1959.56
798.522	1983.97
798.706	2006.45
798.89	2024.46
799.074	2118.43
799.258	2071.55
799.443	1986.3
799.627	2020.4
799.811	2024.85
799.995	1971.38
800.179	1980.48
800.363	1957.43
800.547	1985.72
800.731	2025.63
800.915	1917.9
801.099	1991.53
801.283	2005.67
801.467	1969.44
801.651	1965.95
801.835	2050.04
802.019	1975.83
802.202	2008.38
802.386	1927.98
802.57	1945.42
802.754	1908.6
802.938	1907.83
803.121	1954.13
803.305	1997.15
803.489	1945.42
803.673	2000.25
803.856	1982.23
804.04	1965.57
804.224	1971.18
804.407	1919.65
804.591	1935.15
804.775	1934.95
804.958	1960.33
805.142	2073.1
805.326	1965.18
805.509	1970.8
805.693	1958.4
805.876	1986.49
806.06	1962.47
806.243	1978.74
806.427	2037.45
806.61	2062.83
806.794	1981.45
806.977	2030.47
807.16	1995.4
807.344	2018.65
807.527	1994.43
807.71	1961.88
807.894	1957.82
808.077	1993.66
808.26	1952.58
808.444	1959.37
808.627	2019.04
808.81	1923.72
808.993	1914.22
809.177	1887.49
809.36	1929.72
809.543	1928.56
809.726	1860.36
809.909	1887.49
810.092	1813.28
810.276	1826.84
810.459	1874.12
810.642	1809.6
810.825	1804.17
811.008	1844.47
811.191	1739.85
811.374	1754.19
811.557	1756.12
811.74	1842.34
811.923	1757.67
812.106	1725.51
812.289	1652.28
812.472	1707.3
812.654	1724.93
812.837	1670.29
813.02	1680.76
813.203	1638.91
813.386	1526.15
813.569	1508.52
813.751	1484.1
813.934	1512.78
814.117	1516.85
814.3	1466.09
814.482	1446.71
814.665	1419.59
814.848	1400.6
815.03	1390.91
815.213	1362.43
815.396	1326.01
815.578	1324.46
815.761	1288.23
815.943	1349.64
816.126	1282.99
816.309	1261.1
816.491	1216.35
816.674	1162.68
816.856	1218.09
817.039	1192.9
817.221	1271.37
817.403	1226.81
817.586	1234.75
817.768	1256.06
817.951	1170.81
818.133	1197.16
818.315	1192.9
818.498	1219.25
818.68	1288.81
818.862	1241.14
819.045	1261.29
819.227	1251.8
819.409	1258.39
819.591	1259.94
819.774	1254.13
819.956	1214.8
820.138	1290.36
820.32	1260.52
820.502	1296.17
820.684	1360.3
820.866	1369.41
821.048	1394.79
821.231	1431.99
821.413	1417.26
821.595	1355.07
821.777	1380.06
821.959	1363.4
822.141	1452.72
822.323	1343.06
822.505	1276.02
822.686	1247.93
822.868	1236.3
823.05	1097.97
823.232	1081.69
823.414	1016.98
823.596	1090.22
823.778	1076.85
823.96	1130.9
824.141	1140.98
824.323	1139.81
824.505	1172.95
824.687	1231.65
824.868	1253.16
825.05	1358.36
825.232	1372.89
825.413	1432.76
825.595	1369.6
825.777	1309.73
825.958	1342.67
826.14	1350.81
826.321	1394.01
826.503	1342.86
826.685	1375.41
826.866	1386.26
827.048	1395.95
827.229	1350.03
827.411	1293.46
827.592	1277.96
827.773	1233.59
827.955	1234.17
828.136	1231.07
828.318	1180.11
828.499	1233.2
828.68	1183.41
828.862	1228.55
829.043	1233.98
829.224	1241.73
829.406	1192.51
829.587	1202.01
829.768	1198.52
829.949	1203.36
830.131	1195.23
830.312	1283.19
830.493	1225.06
830.674	1231.65
830.855	1238.82
831.036	1205.88
831.218	1258.39
831.399	1275.44
831.58	1238.63
831.761	1241.73
831.942	1222.55
832.123	1240.37
832.304	1186.9
832.485	1198.33
832.666	1206.66
832.847	1250.06
833.028	1228.36
833.209	1234.36
833.389	1238.82
833.57	1147.95
833.751	1173.14
833.932	1279.51
834.113	1218.48
834.294	1224.29
834.475	1271.37
834.655	1289.97
834.836	1261.49
835.017	1256.45
835.198	1215.96
835.378	1243.28
835.559	1295.2
835.74	1231.46
835.92	1208.4
836.101	1215.38
836.281	1264.59
836.462	1266.53
836.643	1278.34
836.823	1297.33
837.004	1268.46
837.184	1323.87
837.365	1323.68
837.545	1325.42
837.726	1245.41
837.906	1334.14
838.087	1296.17
838.267	1295.78
838.448	1224.09
838.628	1247.93
838.808	1239.98
838.989	1311.09
839.169	1238.43
839.349	1265.94
839.53	1286.09
839.71	1278.73
839.89	1223.32
840.07	1302.76
840.251	1254.51
840.431	1317.48
840.611	1300.24
840.791	1237.85
840.971	1265.94
841.151	1238.63
841.332	1207.82
841.512	1293.84
841.692	1175.85
841.872	1269.04
842.052	1234.36
842.232	1260.91
842.412	1194.65
842.592	1229.33
842.772	1250.44
842.952	1284.74
843.132	1240.18
843.312	1195.42
843.492	1231.65
843.672	1223.32
843.851	1181.86
844.031	1245.02
844.211	1221.96
844.391	1197.75
844.571	1239.4
844.751	1244.63
844.93	1221
845.11	1214.41
845.29	1212.28
845.47	1264.01
845.649	1219.83
845.829	1272.14
846.009	1199.88
846.188	1253.74
846.368	1218.67
846.547	1219.83
846.727	1267.88
846.907	1185.54
847.086	1238.43
847.266	1255.87
847.445	1242.69
847.625	1195.61
847.804	1184.18
847.984	1201.81
848.163	1156.09
848.343	1183.02
848.522	1191.35
848.701	1202.59
848.881	1149.7
849.06	1206.46
849.239	1195.23
849.419	1185.35
849.598	1116.37
849.777	1140.98
849.957	1121.22
850.136	1092.54
850.315	1080.72
850.494	1059.6
850.674	1071.62
850.853	1159.19
851.032	1100.48
851.211	1172.17
851.39	1099.13
851.569	1093.7
851.748	1057.08
851.927	1131.29
852.107	1108.23
852.286	1071.81
852.465	1061.35
852.644	1104.75
852.823	1153.18
853.002	1107.46
853.181	1110.17
853.359	1118.7
853.538	1076.65
853.717	1125.28
853.896	997.6
854.075	1016.59
854.254	987.53
854.433	920.69
854.611	972.61
854.79	933.67
854.969	963.89
855.148	1028.6
855.327	959.82
855.505	1018.53
855.684	990.05
855.863	996.64
856.041	961.95
856.22	1016.4
856.399	1002.25
856.577	1091.57
856.756	1040.42
856.934	1172.17
857.113	1165.97
857.291	1064.45
857.47	1041.39
857.648	1062.51
857.827	1107.27
858.005	1092.35
858.184	1034.03
858.362	1107.27
858.541	1054.95
858.719	1063.67
858.898	1000.32
859.076	1053.4
859.254	1112.69
859.433	1067.16
859.611	1008.07
859.789	1013.69
859.967	1111.72
860.146	1091.96
860.324	1010.78
860.502	1018.53
860.68	1002.06
860.859	1001.87
861.037	1022.99
861.215	1029.57
861.393	1014.27
861.571	1028.02
861.749	992.57
861.927	1028.6
862.105	1041.39
862.283	1007.49
862.461	989.85
862.639	985.2
862.817	1009.81
862.995	1040.42
863.173	971.64
863.351	990.63
863.529	978.04
863.707	1008.84
863.885	987.34
864.063	954.59
864.241	972.42
864.418	1055.34
864.596	968.74
864.774	932.7
864.952	989.08
865.129	974.94
865.307	986.17
865.485	921.46
865.663	1006.52
865.84	924.95
866.018	951.11
866.196	818.19
866.373	843.96
866.551	834.28
866.728	764.91
866.906	805.02
867.084	869.93
867.261	909.64
867.439	906.35
867.616	929.6
867.794	911.58
867.971	892.59
868.149	897.44
868.326	979.39
868.503	958.08
868.681	915.07
868.858	892.79
869.035	903.25
869.213	911.39
869.39	892.98
869.567	952.27
869.745	905.57
869.922	915.46
870.099	919.91
870.276	934.64
870.454	911.19
870.631	951.11
870.808	884.84
870.985	933.86
871.162	974.74
871.339	910.03
871.517	862.56
871.694	839.31
871.871	888.33
872.048	888.14
872.225	864.89
872.402	893.56
872.579	846.87
872.756	918.56
872.933	843.38
873.11	889.11
873.287	873.22
873.463	855.78
873.64	831.18
873.817	872.25
873.994	856.94
874.171	841.25
874.348	870.31
874.524	810.44
874.701	850.36
874.878	784.48
875.055	881.55
875.231	846.68
875.408	861.01
875.585	778.28
875.762	833.11
875.938	843.96
876.115	825.36
876.291	836.02
876.468	811.61
876.645	774.8
876.821	794.56
876.998	799.01
877.174	833.5
877.351	781.19
877.527	792.23
877.704	836.79
877.88	815.29
878.057	788.94
878.233	854.04
878.409	789.33
878.586	805.79
878.762	771.7
878.938	808.12
879.115	734.11
879.291	830.21
879.467	756.58
879.644	755.61
879.82	834.28
879.996	778.28
880.172	723.26
880.349	799.21
880.525	826.72
880.701	739.34
880.877	738.37
881.053	767.43
881.229	769.76
881.405	818.19
881.581	718.22
881.757	731.2
881.933	776.73
882.109	799.21
882.285	775.76
882.461	715.51
882.637	786.03
882.813	732.56
882.989	752.9
883.165	825.36
883.341	731.2
883.517	786.81
883.693	744.57
883.869	791.65
884.044	727.13
884.22	778.67
884.396	830.4
884.572	782.93
884.747	788.94
884.923	804.05
885.099	815.09
885.275	796.3
885.45	754.06
885.626	747.67
885.801	751.35
885.977	752.9
886.153	678.5
886.328	762.2
886.504	743.99
886.679	787.19
886.855	710.08
887.03	772.47
887.206	790.29
887.381	769.76
887.557	771.7
887.732	764.53
887.908	788.94
888.083	799.01
888.258	735.85
888.434	751.74
888.609	780.22
888.784	776.93
888.96	757.94
889.135	711.44
889.31	741.66
889.485	799.01
889.661	750.19
889.836	811.41
890.011	768.21
890.186	746.31
890.361	718.03
890.537	758.91
890.712	742.25
890.887	741.86
891.062	749.41
891.237	820.33
891.412	739.73
891.587	785.26
891.762	771.7
891.937	845.71
892.112	702.91
892.287	724.23
892.462	680.63
892.637	672.69
892.812	707.18
892.987	675.98
893.161	653.32
893.336	675.02
893.511	656.42
893.686	711.05
893.861	683.73
894.035	669.2
894.21	720.35
894.385	622.32
894.56	668.62
894.734	598.49
894.909	650.8
895.084	646.92
895.258	620.18
895.433	630.65
895.608	579.11
895.782	579.89
895.957	589.19
896.131	595
896.306	533.19
896.48	523.51
896.655	513.43
896.829	499.87
897.004	511.88
897.178	488.24
897.353	495.41
897.527	523.51
897.701	517.11
897.876	452.59
898.05	533.19
898.224	552.76
898.399	581.05
898.573	516.34
898.747	426.83
898.921	444.46
899.096	398.34
899.27	417.33
899.444	408.42
899.618	432.06
899.792	434.38
899.967	420.04
900.141	458.99
900.315	406.68
900.489	440.39
900.663	455.31
900.837	447.94
901.011	383.23
901.185	521.76
901.359	451.04
901.533	426.05
901.707	440.77
901.881	430.51
902.055	402.22
902.229	428.76
902.403	484.95
902.576	435.54
902.75	466.74
902.924	569.81
903.098	512.85
903.272	484.37
903.446	558.77
903.619	522.34
903.793	563.03
903.967	524.47
904.14	554.7
904.314	552.76
904.488	539.59
904.661	584.92
904.835	558.57
905.009	593.84
905.182	606.04
905.356	570.2
905.529	549.85
905.703	510.72
905.876	531.84
906.05	517.31
906.223	496.57
906.397	456.86
906.57	447.94
906.744	411.13
906.917	445.81
907.09	446.59
907.264	450.07
907.437	422.56
907.61	398.34
907.784	412.49
907.957	402.8
908.13	408.61
908.304	438.64
908.477	361.53
908.65	392.53
908.823	375.87
908.996	454.72
909.17	420.04
909.343	371.8
909.516	415.39
909.689	385.17
909.862	371.61
910.035	360.56
910.208	383.81
910.381	380.52
910.554	435.35
910.727	402.41
910.9	374.51
911.073	369.86
911.246	445.23
911.419	417.14
911.592	415.39
911.765	373.93
911.938	348.16
912.11	369.09
912.283	381.88
912.456	418.69
912.629	402.61
912.802	364.83
912.974	318.52
913.147	309.03
913.32	272.21
913.493	318.13
913.665	329.95
913.838	338.48
914.01	311.35
914.183	348.75
914.356	312.71
914.528	340.61
914.701	410.16
914.873	376.26
915.046	312.13
915.218	308.06
915.391	271.05
915.563	291.78
915.736	337.51
915.908	321.81
916.081	321.43
916.253	331.7
916.425	326.46
916.598	348.36
916.77	328.4
916.942	309.41
917.115	254.2
917.287	336.35
917.459	314.26
917.632	272.02
917.804	245.48
917.976	319.49
918.148	317.55
918.32	311.35
918.493	355.91
918.665	380.91
918.837	325.3
919.009	402.03
919.181	385.75
919.353	360.95
919.525	342.16
919.697	345.65
919.869	331.89
920.041	380.91
920.213	440.58
920.385	378.78
920.557	363.28
920.729	387.88
920.901	396.02
921.073	370.64
921.244	352.81
921.416	387.11
921.588	333.05
921.76	347
921.932	405.13
922.103	375.09
922.275	341
922.447	350.1
922.619	268.92
922.79	339.06
922.962	339.64
923.134	346.42
923.305	326.85
923.477	288.88
923.648	288.68
923.82	301.08
923.991	289.46
924.163	277.06
924.335	312.51
924.506	288.68
924.677	353.59
924.849	254.97
925.02	331.11
925.192	326.27
925.363	308.83
925.535	298.76
925.706	270.28
925.877	339.64
926.049	261.75
926.22	304.96
926.391	300.31
926.562	327.05
926.734	266.98
926.905	312.32
927.076	245.87
927.247	277.83
927.419	253.03
927.59	256.72
927.761	244.32
927.932	260.4
928.103	292.36
928.274	211.96
928.445	207.89
928.616	238.12
928.787	212.15
928.958	239.67
929.129	237.15
929.3	216.03
929.471	160.23
929.642	135.82
929.813	114.12
929.984	187.74
930.155	127.68
930.326	161.78
930.496	162.75
930.667	84.47
930.838	136.59
931.009	84.86
931.18	114.31
931.35	133.3
931.521	135.04
931.692	69.36
931.863	36.81
932.033	100.17
932.204	99.39
932.374	96.87
932.545	59.87
932.716	122.84
932.886	109.08
933.057	14.34
933.227	44.56
933.398	129.62
933.568	28.29
933.739	20.54
933.909	33.71
934.08	82.15
934.25	7.56
934.421	2.52
934.591	71.3
934.761	3.1
934.932	-7.36
935.102	17.24
935.272	17.63
935.443	60.06
935.613	18.6
935.783	40.3
935.953	27.32
936.123	135.24
936.294	17.05
936.464	25.77
936.634	33.91
936.804	3.68
936.974	-0.77
937.144	80.6
937.314	42.62
937.484	41.46
937.655	11.04
937.825	50.76
937.995	15.69
938.165	82.34
938.334	18.99
938.504	57.54
938.674	-3.68
938.844	16.47
939.014	100.55
939.184	79.05
939.354	117.22
939.524	94.74
939.694	49.02
939.863	84.09
940.033	122.84
940.203	116.64
940.373	60.64
940.542	95.13
940.712	45.53
940.882	99.78
941.051	95.13
941.221	81.76
941.391	117.22
941.56	46.5
941.73	50.57
941.899	157.32
942.069	48.82
942.238	91.45
942.408	65.1
942.577	116.44
942.747	69.75
942.916	34.68
943.086	32.55
943.255	82.54
943.425	89.32
943.594	55.61
943.763	-9.11
943.933	12.98
944.102	-23.06
944.271	75.37
944.441	77.31
944.61	18.21
944.779	48.05
944.948	118.77
945.117	36.04
945.287	29.64
945.456	-11.82
945.625	12.98
945.794	63.55
945.963	27.71
946.132	58.51
946.301	46.31
946.47	47.27
946.639	-30.81
946.808	24.22
946.977	66.65
947.146	105.79
947.315	-2.13
947.484	80.41
947.653	41.07
947.822	27.9
947.991	6.2
948.16	122.84
948.329	71.11
948.498	42.43
948.666	29.84
948.835	65.1
949.004	14.14
949.173	29.06
949.341	59.87
949.51	62.58
949.679	76.34
949.847	74.21
950.016	144.34
950.185	100.55
950.353	14.14
950.522	35.65
950.69	72.46
950.859	36.62
951.028	104.62
951.196	61.81
951.365	46.5
951.533	30.81
951.701	73.82
951.87	78.27
952.038	25.38
952.207	36.62
952.375	109.66
952.543	25.38
952.712	51.15
952.88	21.7
953.048	96.29
953.217	42.24
953.385	52.7
953.553	113.92
953.721	44.95
953.89	55.22
954.058	21.31
954.226	41.66
954.394	60.26
954.562	-12.79
954.73	42.62
954.898	44.37
955.067	88.54
955.235	26.16
955.403	80.99
955.571	124.39
955.739	84.47
955.907	20.54
956.075	34.1
956.243	25.57
956.41	92.03
956.578	8.91
956.746	5.81
956.914	49.21
957.082	93.77
957.25	76.92
957.418	24.41
957.585	72.27
957.753	81.76
957.921	18.41
958.089	47.27
958.256	95.71
958.424	66.84
958.592	65.1
958.759	30.81
958.927	83.12
959.095	32.36
959.262	30.03
959.43	50.57
959.597	28.67
959.765	54.64
959.932	39.14
960.1	93.19
960.267	51.92
960.435	55.41
960.602	101.33
960.77	57.35
960.937	15.69
961.104	42.62
961.272	12.59
961.439	57.93
961.606	62.97
961.774	104.43
961.941	28.29
962.108	65.87
962.275	44.17
962.443	61.42
962.61	73.62
962.777	131.17
962.944	104.62
963.111	82.92
963.278	73.82
963.446	51.73
963.613	42.04
963.78	64.91
963.947	57.35
964.114	79.82
964.281	115.86
964.448	91.84
964.615	51.73
964.782	80.41
964.949	109.08
965.116	73.62
965.282	97.07
965.449	43.4
965.616	30.03
965.783	85.83
965.95	62.58
966.117	25.77
966.283	60.06
966.45	76.14
966.617	60.26
966.784	94.16
966.95	115.86
967.117	63.36
967.284	34.29
967.45	44.95
967.617	109.85
967.784	95.52
967.95	142.4
968.117	76.72
968.283	121.09
968.45	169.53
968.616	69.56
968.783	101.72
968.949	85.64
969.116	105.2
969.282	64.91
969.449	81.37
969.615	62.97
969.781	35.65
969.948	95.9
970.114	7.36
970.28	109.66
970.447	74.79
970.613	105.2
970.779	54.64
970.945	99
971.112	100.36
971.278	88.35
971.444	56.96
971.61	87.38
971.776	63.36
971.942	97.26
972.108	80.99
972.275	64.91
972.441	85.25
972.607	147.05
972.773	45.72
972.939	90.29
973.105	58.9
973.271	25.57
973.437	53.67
973.602	40.11
973.768	86.22
973.934	62
974.1	92.42
974.266	-7.17
974.432	75.17
974.598	70.33
974.763	99.78
974.929	70.14
975.095	117.99
975.261	61.03
975.426	47.86
975.592	56.19
975.758	133.88
975.923	5.81
976.089	59.29
976.255	90.09
976.42	64.91
976.586	84.09
976.751	66.46
976.917	137.17
977.082	102.49
977.248	12.59
977.413	17.63
977.579	68.01
977.744	65.1
977.91	30.22
978.075	49.6
978.24	102.3
978.406	63.55
978.571	41.07
978.736	67.04
978.902	96.87
979.067	25.38
979.232	23.06
979.397	74.79
979.563	94.35
979.728	32.55
979.893	27.51
980.058	31.19
980.223	103.85
980.388	68.59
980.554	53.67
980.719	77.31
980.884	68.97
981.049	101.72
981.214	79.82
981.379	84.28
981.544	55.22
981.709	38.56
981.874	37.97
982.039	48.44
982.204	77.89
982.368	55.8
982.533	43.4
982.698	115.28
982.863	102.1
983.028	53.09
983.193	89.51
983.357	83.51
983.522	76.34
983.687	32.16
983.852	53.09
984.016	61.61
984.181	75.56
984.346	71.49
984.51	87.57
984.675	61.61
984.839	90.09
985.004	86.22
985.168	89.51
985.333	95.52
985.498	51.34
985.662	88.15
985.827	67.23
985.991	35.26
986.155	48.44
986.32	98.23
986.484	123.8
986.649	76.34
986.813	9.49
986.977	50.76
987.142	75.95
987.306	27.51
987.47	43.59
987.634	40.3
987.799	71.69
987.963	79.24
988.127	88.74
988.291	155
988.455	60.45
988.62	39.72
988.784	106.17
988.948	79.44
989.112	26.74
989.276	78.86
989.44	43.4
989.604	55.99
989.768	26.54
989.932	137.95
990.096	13.76
990.26	42.62
990.424	31
990.588	53.67
990.752	113.92
990.915	71.11
991.079	48.63
991.243	27.12
991.407	58.9
991.571	46.5
991.734	81.76
991.898	61.61
992.062	138.53
992.226	68.01
992.389	36.42
992.553	-2.32
992.717	19.18
992.88	41.66
993.044	71.69
993.207	30.03
993.371	98.42
993.535	51.92
993.698	68.2
993.862	81.57
994.025	86.41
994.189	50.76
994.352	67.04
994.515	66.46
994.679	100.36
994.842	44.17
995.006	109.08
995.169	38.56
995.332	35.65
995.496	76.34
995.659	-8.72
995.822	40.49
995.985	53.47
996.149	90.48
996.312	33.71
996.475	99.78
996.638	31.77
996.801	91.06
996.964	116.83
997.128	47.27
997.291	42.04
997.454	57.93
997.617	2.71
997.78	90.67
997.943	34.68
998.106	81.96
998.269	22.86
998.432	41.46
998.595	36.81
998.758	-0.58
998.92	-15.11
999.083	6.01
999.246	55.41
999.409	9.49
999.572	12.79
999.735	29.84
999.897	64.91
1000.06	19.57
1000.223	54.44
1000.386	72.46
1000.548	77.11
1000.711	80.21
1000.874	39.33
1001.036	-20.92
1001.199	67.81
1001.361	26.16
1001.524	55.41
1001.687	78.47
1001.849	51.15
1002.012	57.16
1002.174	55.22
1002.337	68.01
1002.499	33.71
1002.661	60.64
1002.824	10.27
1002.986	23.83
1003.149	24.99
1003.311	19.76
1003.473	101.52
1003.636	17.63
1003.798	73.82
1003.96	71.49
1004.123	11.43
1004.285	18.02
1004.447	31.58
1004.609	37.2
1004.771	84.47
1004.933	3.49
1005.096	10.07
1005.258	-0.97
1005.42	12.98
1005.582	81.18
1005.744	43.79
1005.906	18.41
1006.068	42.04
1006.23	13.17
1006.392	-17.05
1006.554	-5.23
1006.716	96.1
1006.878	44.37
1007.04	8.72
1007.202	25.57
1007.363	31.58
1007.525	48.24
1007.687	32.94
1007.849	88.35
1008.011	-6.97
1008.172	-18.79
1008.334	34.29
1008.496	44.37
1008.658	-36.04
1008.819	-6.39
1008.981	7.94
1009.143	30.03
1009.304	12.59
1009.466	48.82
1009.627	74.4
1009.789	111.21
1009.95	38.56
1010.112	25.96
1010.273	46.5
1010.435	14.92
1010.596	22.86
1010.758	19.37
1010.919	32.55
1011.081	9.69
1011.242	4.65
1011.403	53.67
1011.565	34.29
1011.726	49.02
1011.887	-5.62
1012.049	15.31
1012.21	51.73
1012.371	96.49
1012.532	-33.71
1012.693	33.52
1012.855	18.21
1013.016	19.18
1013.177	49.02
1013.338	25.77
1013.499	86.99
1013.66	29.06
1013.821	60.84
1013.982	44.56
1014.143	33.71
1014.304	33.32
1014.465	36.62
1014.626	74.79
1014.787	33.71
1014.948	116.05
1015.109	-34.68
1015.27	50.96
1015.431	22.09
1015.592	20.54
1015.752	65.49
1015.913	6.01
1016.074	47.08
1016.235	3.87
1016.395	38.36
1016.556	12.98
1016.717	12.79
1016.877	71.11
1017.038	-15.5
1017.199	47.47
1017.359	37.39
1017.52	36.23
1017.681	9.69
1017.841	0.77
1018.002	29.26
1018.162	-3.49
1018.323	81.76
1018.483	17.44
1018.644	2.91
1018.804	-9.49
1018.964	-2.52
1019.125	-0.97
1019.285	20.34
1019.446	-17.63
1019.606	-17.24
1019.766	8.14
1019.926	55.99
1020.087	28.67
1020.247	-13.95
1020.407	42.43
1020.567	70.33
1020.728	35.46
1020.888	9.3
1021.048	2.52
1021.208	-25.77
1021.368	-54.83
1021.528	60.84
1021.688	40.3
1021.848	63.16
1022.008	42.04
1022.168	-0.19
1022.328	21.89
1022.488	35.84
1022.648	-14.72
1022.808	25.57
1022.968	66.65
1023.128	-6.97
1023.288	-2.91
1023.448	6.97
1023.608	23.83
1023.767	37.2
1023.927	-23.64
1024.087	-16.08
1024.247	-19.18
1024.406	7.17
1024.566	-30.61
1024.726	-2.32
1024.885	6.78
1025.045	56.77
1025.205	7.56
1025.364	17.63
1025.524	0.97
1025.683	11.82
1025.843	0.97
1026.003	-5.04
1026.162	78.08
1026.321	55.99
1026.481	32.74
1026.64	25.19
1026.8	41.27
1026.959	19.76
1027.119	17.63
1027.278	6.78
1027.437	18.99
1027.597	12.4
1027.756	42.04
1027.915	47.47
1028.074	24.99
1028.234	-7.17
1028.393	10.07
1028.552	20.73
1028.711	-51.73
1028.87	54.64
1029.03	-11.62
1029.189	33.32
1029.348	-64.71
1029.507	-21.51
1029.666	-7.36
1029.825	-3.49
1029.984	-0.97
1030.143	5.23
1030.302	-10.85
1030.461	-37.39
1030.62	22.28
1030.779	37.2
1030.938	-6.59
1031.097	-16.86
1031.255	33.71
1031.414	52.12
1031.573	40.11
1031.732	-41.46
1031.891	-4.07
1032.049	75.56
1032.208	11.24
1032.367	0.77
1032.525	-4.07
1032.684	15.31
1032.843	5.04
1033.001	-31.58
1033.16	157.71
1033.319	67.04
1033.477	25.57
1033.636	-26.54
1033.794	-47.27
1033.953	48.44
1034.111	20.54
1034.27	5.42
1034.428	33.13
1034.587	1.16
1034.745	55.02
1034.903	11.43
1035.062	30.22
1035.22	-28.29
1035.378	32.94
1035.537	-19.96
1035.695	25.19
1035.853	4.84
1036.011	47.08
1036.17	21.51
1036.328	-43.4
1036.486	22.09
1036.644	14.92
1036.802	-77.11
1036.96	4.07
1037.119	-0.97
1037.277	-6.97
1037.435	-33.71
1037.593	-35.07
1037.751	5.04
1037.909	34.29
1038.067	34.29
