Data from pine_FLMT105791__67__17-21-07-077.txt Node

Date: Mon Mar 20 17:21:07 GMT 2023
User: antho
Spectrometer: FLMT10579
Trigger mode: 0
Integration Time (sec): 1.000000E-1
Scans to average: 10
Electric dark correction enabled: true
Nonlinearity correction enabled: false
Boxcar width: 0
XAxis mode: Wavelengths
Number of Pixels in Spectrum: 3648
>>>>>Begin Spectral Data<<<<<
345.248	-162.76
345.464	-162.76
345.681	-162.76
345.898	-162.76
346.114	-142.23
346.331	-64.34
346.548	24.78
346.764	14.32
346.981	6.18
347.197	-12.22
347.414	37.18
347.631	-10.48
347.847	57.14
348.064	-15.32
348.28	2.89
348.497	-37.8
348.713	-2.34
348.93	11.61
349.146	38.73
349.363	-5.05
349.579	17.61
349.796	1.92
350.012	-24.82
350.229	61.4
350.445	-2.34
350.661	-4.86
350.878	8.51
351.094	34.86
351.311	15.48
351.527	3.08
351.743	-10.48
351.96	31.18
352.176	14.32
352.392	33.7
352.609	24.78
352.825	-5.25
353.041	5.22
353.257	-7.38
353.474	22.26
353.69	36.6
353.906	6.77
354.122	-24.82
354.339	70.7
354.555	9.67
354.771	-1.57
354.987	77.1
355.203	55.4
355.42	1.73
355.636	-37.02
355.852	-36.05
356.068	-0.98
356.284	-39.15
356.5	68.57
356.716	31.18
356.932	2.31
357.148	48.03
357.364	8.7
357.58	48.61
357.796	68.38
358.012	36.41
358.228	46.48
358.444	-62.02
358.66	47.45
358.876	16.84
359.092	-19.78
359.308	26.91
359.524	20.52
359.74	0.95
359.956	8.51
360.172	23.81
360.388	32.34
360.604	14.32
360.819	84.46
361.035	-1.76
361.251	30.6
361.467	-18.62
361.683	32.92
361.898	5.41
362.114	48.81
362.33	26.53
362.546	34.28
362.762	6.38
362.977	0.18
363.193	-19.2
363.409	47.06
363.624	-44.38
363.84	4.63
364.056	-15.13
364.271	9.86
364.487	24.59
364.703	2.5
364.918	-30.43
365.134	-3.89
365.35	2.31
365.565	85.04
365.781	19.36
365.996	13.55
366.212	87.17
366.427	38.54
366.643	-7.77
366.858	5.8
367.074	-4.86
367.289	47.45
367.505	108.29
367.72	-6.99
367.936	-8.93
368.151	50.36
368.367	49.97
368.582	16.84
368.798	21.1
369.013	72.83
369.228	6.38
369.444	23.43
369.659	71.28
369.874	46.68
370.09	54.04
370.305	-43.42
370.52	3.47
370.736	42.22
370.951	25.36
371.166	52.88
371.381	67.41
371.597	45.32
371.812	-40.7
372.027	-1.76
372.242	32.73
372.458	88.53
372.673	-13.77
372.888	28.46
373.103	58.11
373.318	94.34
373.533	23.81
373.749	27.5
373.964	-22.1
374.179	52.68
374.394	-0.79
374.609	75.16
374.824	-0.02
375.039	67.8
375.254	2.89
375.469	57.91
375.684	13.74
375.899	73.03
376.114	41.83
376.329	26.53
376.544	63.73
376.759	39.7
376.974	13.35
377.189	19.16
377.404	2.31
377.619	49.97
377.834	-50.97
378.049	-30.24
378.264	-20.55
378.478	25.56
378.693	-11.06
378.908	31.56
379.123	-3.12
379.338	48.81
379.553	23.23
379.767	36.8
379.982	41.64
380.197	44.35
380.412	-9.9
380.626	26.33
380.841	98.21
381.056	43.38
381.271	76.71
381.485	12.96
381.7	-21.33
381.915	42.61
382.129	3.28
382.344	37.38
382.559	10.06
382.773	53.85
382.988	-11.64
383.202	16.45
383.417	-1.37
383.632	109.84
383.846	26.72
384.061	54.43
384.275	30.01
384.49	32.92
384.704	36.21
384.919	24.59
385.133	26.91
385.348	53.65
385.562	-13.97
385.777	50.94
385.991	25.95
386.206	20.52
386.42	22.07
386.634	22.07
386.849	50.36
387.063	23.04
387.277	-16.68
387.492	29.63
387.706	9.86
387.92	-10.28
388.135	54.81
388.349	29.24
388.563	24.98
388.778	13.16
388.992	34.08
389.206	38.35
389.42	96.08
389.635	23.23
389.849	35.44
390.063	68.18
390.277	21.88
390.491	69.73
390.706	58.3
390.92	49.97
391.134	19.94
391.348	43
391.562	-13.58
391.776	7.15
391.99	-5.44
392.205	61.01
392.419	-11.25
392.633	-2.15
392.847	52.3
393.061	16.65
393.275	94.53
393.489	6.38
393.703	51.71
393.917	46.68
394.131	55.4
394.345	49.2
394.559	44.35
394.773	-12.42
394.986	16.45
395.2	2.89
395.414	42.41
395.628	0.95
395.842	16.45
396.056	31.18
396.27	-16.68
396.484	23.23
396.697	10.83
396.911	81.55
397.125	49.78
397.339	65.28
397.553	50.94
397.766	82.13
397.98	76.9
398.194	74.96
398.408	14.51
398.621	40.48
398.835	45.13
399.049	43.58
399.262	80.2
399.476	67.41
399.69	75.35
399.903	97.24
400.117	23.04
400.331	56.56
400.544	37.18
400.758	154.59
400.971	37.76
401.185	73.41
401.398	-6.8
401.612	74.96
401.826	62.95
402.039	84.26
402.253	10.83
402.466	57.14
402.68	31.37
402.893	16.26
403.106	40.86
403.32	28.66
403.533	49.58
403.747	53.46
403.96	55.98
404.174	94.34
404.387	10.83
404.6	37.96
404.814	87.75
405.027	30.79
405.24	36.41
405.454	22.65
405.667	71.86
405.88	-41.67
406.094	15.29
406.307	63.15
406.52	70.9
406.733	11.61
406.947	-11.45
407.16	109.64
407.373	47.06
407.586	32.53
407.799	-12.8
408.012	63.15
408.226	60.43
408.439	83.49
408.652	0.57
408.865	37.76
409.078	61.98
409.291	63.73
409.504	6.18
409.717	66.44
409.93	63.15
410.143	58.88
410.357	-20.17
410.57	-2.15
410.783	20.91
410.996	38.54
411.209	57.14
411.421	72.25
411.634	32.73
411.847	15.48
412.06	45.9
412.273	37.38
412.486	39.12
412.699	111.78
412.912	38.73
413.125	81.16
413.338	78.84
413.55	57.91
413.763	50.16
413.976	61.21
414.189	22.65
414.402	33.5
414.615	91.63
414.827	23.23
415.04	91.63
415.253	54.43
415.466	74.77
415.678	121.08
415.891	30.6
416.104	57.91
416.316	47.65
416.529	31.95
416.742	99.57
416.954	85.62
417.167	43.77
417.38	46.1
417.592	74.58
417.805	5.6
418.017	8.9
418.23	74.96
418.442	41.83
418.655	42.41
418.868	65.86
419.08	83.68
419.293	114.49
419.505	76.13
419.718	61.98
419.93	80.2
420.142	25.95
420.355	92.21
420.567	125.73
420.78	109.06
420.992	48.23
421.205	119.53
421.417	-12.61
421.629	15.1
421.842	18.78
422.054	0.37
422.266	83.49
422.479	99.38
422.691	34.86
422.903	95.31
423.115	45.13
423.328	50.94
423.54	63.34
423.752	33.31
423.964	60.05
424.177	53.65
424.389	70.12
424.601	181.53
424.813	86.2
425.025	110.42
425.238	96.66
425.45	63.73
425.662	30.79
425.874	344.85
426.086	70.9
426.298	87.36
426.51	86.78
426.722	60.63
426.934	62.56
427.146	100.73
427.358	46.87
427.57	119.91
427.782	76.71
427.994	55.98
428.206	35.44
428.418	31.95
428.63	90.08
428.842	99.18
429.054	97.24
429.266	123.01
429.478	46.48
429.69	81.36
429.902	13.16
430.114	113.91
430.325	80.39
430.537	43.58
430.749	56.75
430.961	29.82
431.173	78.26
431.384	105.96
431.596	15.87
431.808	70.9
432.02	105.19
432.231	113.52
432.443	137.54
432.655	83.49
432.867	59.27
433.078	109.84
433.29	181.33
433.502	128.83
433.713	122.24
433.925	114.29
434.136	126.31
434.348	57.33
434.56	61.01
434.771	179.39
434.983	60.24
435.194	71.09
435.406	102.09
435.617	143.94
435.829	150.91
436.04	128.24
436.252	135.99
436.463	174.36
436.675	138.32
436.886	132.89
437.098	142.19
437.309	184.04
437.521	108.87
437.732	140.45
437.943	121.85
438.155	118.75
438.366	79.42
438.578	185.21
438.789	117.2
439	162.15
439.211	123.01
439.423	160.79
439.634	130.76
439.845	144.13
440.057	159.05
440.268	179.78
440.479	84.85
440.69	135.41
440.902	133.86
441.113	147.81
441.324	136.77
441.535	159.24
441.746	217.76
441.957	108.48
442.168	132.89
442.38	170.68
442.591	165.64
442.802	134.25
443.013	128.44
443.224	196.25
443.435	156.92
443.646	168.74
443.857	171.45
444.068	133.86
444.279	158.08
444.49	224.54
444.701	169.13
444.912	266
445.123	190.63
445.334	180.94
445.545	171.06
445.756	159.44
445.967	126.5
446.178	186.95
446.388	189.27
446.599	192.96
446.81	175.91
447.021	146.26
447.232	212.14
447.443	236.16
447.653	152.66
447.864	222.02
448.075	194.7
448.286	199.93
448.496	206.13
448.707	238.1
448.918	147.81
449.129	291.38
449.339	164.28
449.55	177.65
449.761	188.11
449.971	247.01
450.182	191.41
450.393	216.01
450.603	190.82
450.814	242.17
451.024	231.32
451.235	250.11
451.446	265.22
451.656	258.83
451.867	189.27
452.077	230.74
452.288	302.04
452.498	266.39
452.709	208.84
452.919	243.33
453.13	196.83
453.34	243.72
453.55	176.88
453.761	272
453.971	261.35
454.182	257.28
454.392	260.57
454.602	296.61
454.813	239.26
455.023	279.37
455.233	201.48
455.444	248.76
455.654	164.86
455.864	216.59
456.075	253.99
456.285	213.88
456.495	249.53
456.705	254.18
456.916	258.25
457.126	273.17
457.336	225.7
457.546	216.01
457.756	243.14
457.967	285.18
458.177	231.51
458.387	256.51
458.597	209.81
458.807	240.81
459.017	239.65
459.227	212.33
459.437	257.47
459.647	300.49
459.857	274.14
460.068	222.99
460.278	272.59
460.488	271.62
460.698	321.02
460.908	242.75
461.117	224.73
461.327	220.27
461.537	267.16
461.747	270.84
461.957	283.82
462.167	378.18
462.377	290.02
462.587	253.6
462.797	314.63
463.007	286.54
463.216	293.51
463.426	329.35
463.636	296.61
463.846	206.32
464.056	253.02
464.265	312.3
464.475	247.79
464.685	281.69
464.895	316.57
465.104	259.8
465.314	323.15
465.524	273.17
465.733	246.43
465.943	358.42
466.153	357.25
466.362	322.38
466.572	284.79
466.782	278.01
466.991	295.06
467.201	360.74
467.41	227.06
467.62	318.89
467.829	290.99
468.039	292.15
468.249	268.91
468.458	311.92
468.668	325.09
468.877	324.12
469.086	347.95
469.296	361.52
469.505	295.64
469.715	383.6
469.924	337.88
470.134	347.18
470.343	384.18
470.552	317.34
470.762	308.04
470.971	278.59
471.18	332.07
471.39	319.86
471.599	316.76
471.808	355.32
472.018	279.95
472.227	389.22
472.436	388.25
472.645	339.04
472.855	299.13
473.064	376.63
473.273	370.82
473.482	394.26
473.691	413.83
473.901	386.7
474.11	348.15
474.319	453.35
474.528	370.04
474.737	416.93
474.946	357.83
475.155	354.93
475.364	407.24
475.573	410.15
475.783	382.44
475.992	417.51
476.201	427.97
476.41	367.33
476.619	364.62
476.828	399.1
477.037	381.67
477.245	408.98
477.454	408.98
477.663	401.82
477.872	409.18
478.081	458.2
478.29	390.97
478.499	466.53
478.708	401.04
478.917	462.26
479.125	421.19
479.334	445.02
479.543	419.06
479.752	429.72
479.961	447.15
480.169	469.63
480.378	437.47
480.587	538.41
480.796	482.41
481.004	444.83
481.213	487.26
481.422	448.12
481.63	480.48
481.839	491.13
482.048	539.57
482.256	473.5
482.465	483
482.674	514.58
482.882	501.01
483.091	539.76
483.299	512.06
483.508	520
483.716	492.1
483.925	507.41
484.134	491.13
484.342	477.38
484.551	532.59
484.759	530.27
484.967	547.9
485.176	532.21
485.384	538.21
485.593	551.78
485.801	531.63
486.01	510.51
486.218	477.38
486.426	433.59
486.635	481.25
486.843	474.66
487.051	492.1
487.26	462.46
487.468	526.2
487.676	565.92
487.885	484.93
488.093	533.95
488.301	561.85
488.509	513.03
488.717	602.34
488.926	535.11
489.134	541.7
489.342	552.55
489.55	536.66
489.758	572.31
489.967	560.11
490.175	669.96
490.383	565.14
490.591	649.23
490.799	564.18
491.007	632.76
491.215	574.44
491.423	575.03
491.631	565.73
491.839	593.04
492.047	603.7
492.255	547.71
492.463	555.65
492.671	567.66
492.879	673.26
493.087	573.67
493.295	614.36
493.503	607.19
493.711	659.11
493.919	671.32
494.127	640.9
494.334	661.82
494.542	596.92
494.75	642.06
494.958	633.73
495.166	677.32
495.374	666.47
495.581	677.13
495.789	658.72
495.997	688.17
496.205	643.61
496.412	650.97
496.62	642.45
496.828	668.99
497.035	660.86
497.243	692.44
497.451	664.92
497.658	665.89
497.866	670.93
498.074	717.43
498.281	651.56
498.489	745.52
498.696	678.87
498.904	679.26
499.112	645.16
499.319	745.91
499.527	684.88
499.734	739.9
499.942	680.42
500.149	670.35
500.357	696.7
500.564	669.96
500.771	691.08
500.979	661.05
501.186	636.25
501.394	697.28
501.601	672.48
501.808	721.5
502.016	682.56
502.223	655.24
502.43	695.34
502.638	682.17
502.845	675
503.052	739.9
503.26	692.24
503.467	758.89
503.674	708.32
503.881	723.82
504.089	774.78
504.296	739.9
504.503	665.31
504.71	718.2
504.917	655.04
505.125	730.8
505.332	724.02
505.539	747.07
505.746	816.43
505.953	774.2
506.16	773.23
506.367	814.5
506.574	837.75
506.781	798.8
506.988	766.25
507.195	769.55
507.402	769.94
507.609	811.4
507.816	753.66
508.023	768.19
508.23	745.33
508.437	732.93
508.644	786.6
508.851	807.72
509.058	799
509.265	794.73
509.472	834.26
509.679	900.91
509.885	801.71
510.092	790.67
510.299	816.43
510.506	809.65
510.713	832.9
510.92	797.45
511.126	820.7
511.333	864.87
511.54	864.29
511.746	903.23
511.953	879.4
512.16	896.06
512.367	823.02
512.573	836.39
512.78	860.8
512.987	861.97
513.193	856.93
513.4	757.54
513.606	836.78
513.813	862.55
514.02	821.67
514.226	912.15
514.433	943.53
514.639	799.97
514.846	865.65
515.052	837.17
515.259	883.47
515.465	908.66
515.672	892.19
515.878	963.1
516.085	861.19
516.291	926.48
516.497	879.4
516.704	876.88
516.91	856.73
517.117	829.61
517.323	757.54
517.529	837.17
517.736	841.62
517.942	847.63
518.148	847.82
518.354	862.35
518.561	884.44
518.767	858.09
518.973	907.5
519.179	926.48
519.386	895.87
519.592	879.79
519.798	862.35
520.004	1004.76
520.21	961.36
520.417	963.1
520.623	1017.35
520.829	1006.5
521.035	991.97
521.241	1021.23
521.447	1001.27
521.653	1078.57
521.859	983.44
522.065	996.81
522.271	1130.31
522.477	1054.94
522.683	1046.41
522.889	1055.33
523.095	1053.97
523.301	1023.94
523.507	1008.83
523.713	1043.31
523.919	996.04
524.125	1098.34
524.331	1057.26
524.537	1114.03
524.742	1088.65
524.948	1108.61
525.154	1104.54
525.36	1210.32
525.566	1123.14
525.772	1134.57
525.977	1110.35
526.183	1151.42
526.389	1159.56
526.595	1082.45
526.8	1055.71
527.006	1039.44
527.212	1044.67
527.417	1011.54
527.623	1021.23
527.829	1091.17
528.034	1143.48
528.24	1097.17
528.446	1090.78
528.651	1175.25
528.857	1183.39
529.062	1235.51
529.268	1157.82
529.473	1194.44
529.679	1169.25
529.884	1257.79
530.09	1201.41
530.295	1234.73
530.501	1240.74
530.706	1230.67
530.912	1167.31
531.117	1202.77
531.323	1244.23
531.528	1269.8
531.733	1226.21
531.939	1243.45
532.144	1226.4
532.35	1235.32
532.555	1269.22
532.76	1237.64
532.966	1257.79
533.171	1227.18
533.376	1150.26
533.581	1166.92
533.787	1214.39
533.992	1280.07
534.197	1282.98
534.402	1246.55
534.607	1286.85
534.813	1355.05
535.018	1203.93
535.223	1223.5
535.428	1280.27
535.633	1329.48
535.838	1309.72
536.043	1302.16
536.249	1383.15
536.454	1316.69
536.659	1346.14
536.864	1294.41
537.069	1277.75
537.274	1281.04
537.479	1319.01
537.684	1330.45
537.889	1270.77
538.094	1395.93
538.299	1294.6
538.504	1319.79
538.708	1319.98
538.913	1350.4
539.118	1301
539.323	1372.49
539.528	1284.53
539.733	1309.13
539.938	1353.5
540.142	1346.14
540.347	1313.4
540.552	1250.23
540.757	1248.3
540.962	1257.4
541.166	1235.12
541.371	1256.63
541.576	1312.62
541.781	1210.9
541.985	1309.91
542.19	1302.35
542.395	1386.63
542.599	1394.38
542.804	1364.16
543.008	1342.46
543.213	1280.27
543.418	1299.25
543.622	1350.98
543.827	1290.15
544.031	1400.78
544.236	1392.25
544.44	1365.51
544.645	1468.98
544.849	1326.38
545.054	1382.76
545.258	1446.31
545.463	1446.69
545.667	1344.59
545.872	1391.67
546.076	1415.69
546.281	1368.42
546.485	1350.98
546.689	1386.63
546.894	1426.54
547.098	1379.46
547.302	1347.88
547.507	1401.16
547.711	1422.28
547.915	1469.56
548.119	1403.1
548.324	1368.81
548.528	1428.29
548.732	1378.88
548.936	1452.51
549.141	1447.66
549.345	1424.41
549.549	1421.51
549.753	1421.89
549.957	1450.57
550.161	1492.42
550.366	1455.8
550.57	1422.09
550.774	1425.77
550.978	1412.4
551.182	1427.13
551.386	1371.33
551.59	1392.83
551.794	1408.53
551.998	1454.83
552.202	1419.18
552.406	1405.81
552.61	1417.83
552.814	1432.55
553.018	1485.06
553.222	1422.67
553.426	1414.73
553.63	1481.38
553.833	1408.33
554.037	1382.95
554.241	1441.66
554.445	1432.36
554.649	1463.16
554.853	1400.58
555.056	1483.12
555.26	1502.69
555.464	1469.75
555.668	1445.73
555.871	1476.14
556.075	1452.51
556.279	1386.44
556.483	1388.96
556.686	1434.88
556.89	1413.18
557.094	1442.04
557.297	1375.4
557.501	1449.79
557.704	1348.27
557.908	1432.55
558.112	1379.27
558.315	1478.66
558.519	1425.96
558.722	1385.86
558.926	1354.28
559.129	1298.09
559.333	1302.74
559.536	1338.39
559.74	1337.23
559.943	1292.47
560.147	1308.75
560.35	1348.27
560.553	1337.81
560.757	1278.33
560.96	1425.19
561.164	1347.88
561.367	1427.13
561.57	1341.88
561.774	1364.55
561.977	1376.56
562.18	1336.45
562.384	1443.98
562.587	1343.81
562.79	1349.43
562.993	1316.3
563.197	1395.35
563.4	1403.1
563.603	1419.38
563.806	1429.26
564.009	1315.53
564.212	1374.43
564.416	1285.88
564.619	1385.08
564.822	1303.71
565.025	1409.3
565.228	1301
565.431	1346.33
565.634	1251.59
565.837	1303.9
566.04	1265.15
566.243	1271.74
566.446	1221.17
566.649	1297.32
566.852	1253.53
567.055	1309.91
567.258	1290.15
567.461	1345.95
567.664	1362.8
567.867	1274.26
568.07	1295.77
568.273	1267.67
568.475	1317.08
568.678	1242.68
568.881	1255.85
569.084	1234.35
569.287	1151.04
569.489	1206.06
569.692	1230.67
569.895	1289.95
570.098	1198.5
570.3	1208.77
570.503	1134.76
570.706	1172.15
570.909	1204.51
571.111	1152.78
571.314	1167.89
571.516	1211.29
571.719	1232.41
571.922	1159.56
572.124	1163.05
572.327	1173.32
572.529	1132.05
572.732	1137.86
572.935	1216.91
573.137	1265.54
573.34	1161.89
573.542	1210.32
573.745	1188.62
573.947	1226.21
574.15	1169.25
574.352	1128.17
574.554	1226.6
574.757	1144.06
574.959	1134.76
575.162	1133.79
575.364	1110.93
575.566	1242.87
575.769	1110.93
575.971	1154.52
576.173	1035.56
576.376	1143.67
576.578	1166.92
576.78	1205.67
576.982	1068.69
577.185	1131.08
577.387	1074.31
577.589	1049.51
577.791	1134.96
577.993	1153.55
578.196	1152.97
578.398	1150.07
578.6	1160.92
578.802	1080.71
579.004	1083.03
579.206	1088.07
579.408	1140.77
579.61	1094.85
579.812	1133.99
580.014	1113.64
580.216	1121.78
580.418	1112.67
580.62	1070.63
580.822	1062.69
581.024	1111.71
581.226	1137.28
581.428	1111.51
581.63	1155.69
581.832	1108.61
582.034	1166.92
582.236	1071.79
582.438	1170.02
582.64	1136.89
582.841	1190.75
583.043	1229.12
583.245	1159.95
583.447	1156.65
583.649	1094.27
583.85	1150.84
584.052	1137.47
584.254	1086.32
584.456	1122.94
584.657	1088.26
584.859	1134.96
585.061	1147.74
585.262	1107.25
585.464	1059.2
585.666	1134.96
585.867	1071.02
586.069	1133.99
586.27	1135.73
586.472	1100.08
586.674	1074.7
586.875	1073.92
587.077	1064.62
587.278	1108.99
587.48	1079.35
587.681	1239.77
587.883	1124.11
588.084	1041.96
588.285	1048.35
588.487	1069.66
588.688	1073.54
588.89	1034.98
589.091	1003.98
589.292	1028.2
589.494	978.02
589.695	973.37
589.896	865.84
590.098	903.62
590.299	954.58
590.5	945.47
590.702	935.01
590.903	973.37
591.104	1034.98
591.305	1035.56
591.507	1063.85
591.708	1036.34
591.909	999.72
592.11	1064.04
592.311	1004.37
592.512	974.73
592.714	957.87
592.915	982.09
593.116	982.09
593.317	1016.58
593.518	1009.99
593.719	1007.47
593.92	1041.18
594.121	1081.09
594.322	998.17
594.523	994.29
594.724	927.84
594.925	953.8
595.126	1017.16
595.327	1024.33
595.528	986.54
595.729	991.78
595.929	988.68
596.13	997.59
596.331	1006.11
596.532	1025.49
596.733	1102.6
596.934	1055.71
597.135	1029.94
597.335	1010.38
597.536	965.62
597.737	1009.6
597.938	979.96
598.138	1015.8
598.339	996.43
598.54	1030.53
598.74	1003.98
598.941	978.79
599.142	1061.14
599.342	1053.78
599.543	965.62
599.744	1017.93
599.944	973.56
600.145	977.83
600.345	1008.63
600.546	1069.66
600.746	1048.54
600.947	1106.67
601.147	993.91
601.348	1065.59
601.548	989.45
601.749	988.09
601.949	963.49
602.15	959.61
602.35	985.96
602.551	1029.75
602.751	956.32
602.951	986.74
603.152	924.74
603.352	1032.85
603.552	1003.21
603.753	1007.28
603.953	1026.84
604.153	978.21
604.354	1015.61
604.554	1004.56
604.754	1008.63
604.954	949.35
605.155	1008.05
605.355	973.76
605.555	1057.26
605.755	1058.23
605.955	1003.4
606.155	1043.89
606.356	983.64
606.556	1009.02
606.756	967.75
606.956	944.31
607.156	1045.25
607.356	938.5
607.556	984.99
607.756	993.71
607.956	995.65
608.156	1015.22
608.356	988.68
608.556	1013.09
608.756	999.91
608.956	979.38
609.156	977.05
609.356	940.05
609.556	977.24
609.755	976.08
609.955	918.54
610.155	977.83
610.355	984.03
610.555	957.68
610.755	941.79
610.954	896.45
611.154	941.79
611.354	1010.38
611.554	915.05
611.753	930.16
611.953	929.97
612.153	954.38
612.352	968.53
612.552	902.07
612.752	860.61
612.951	931.13
613.151	962.33
613.351	957.87
613.55	937.33
613.75	936.75
613.949	916.6
614.149	955.35
614.348	927.45
614.548	887.93
614.747	871.27
614.947	878.82
615.146	820.31
615.346	936.95
615.545	928.81
615.745	954
615.944	926.48
616.144	904.01
616.343	935.59
616.542	901.1
616.742	903.23
616.941	863.71
617.14	808.3
617.34	866.23
617.539	841.43
617.738	858.67
617.938	943.15
618.137	864.48
618.336	828.64
618.535	876.3
618.734	880.76
618.934	869.52
619.133	861
619.332	894.13
619.531	861.19
619.73	877.08
619.929	904.01
620.128	896.65
620.328	919.51
620.527	840.85
620.726	885.21
620.925	889.09
621.124	860.22
621.323	890.64
621.522	849.57
621.721	829.42
621.92	856.93
622.119	892
622.318	840.27
622.517	838.72
622.715	848.4
622.914	849.18
623.113	866.81
623.312	818.57
623.511	859.64
623.71	851.12
623.909	815.08
624.107	882.11
624.306	811.98
624.505	814.3
624.704	819.73
624.902	842.78
625.101	890.64
625.3	836
625.499	810.23
625.697	824.57
625.896	799.77
626.095	873.59
626.293	776.91
626.492	799.58
626.69	843.56
626.889	784.66
627.088	838.72
627.286	804.81
627.485	793.38
627.683	780.4
627.882	823.8
628.08	725.57
628.279	760.25
628.477	829.22
628.676	769.55
628.874	812.95
629.073	791.25
629.271	748.82
629.469	795.51
629.668	783.11
629.866	755.99
630.065	765.87
630.263	784.85
630.461	747.65
630.66	800.55
630.858	797.64
631.056	809.27
631.254	843.56
631.453	731.19
631.651	800.16
631.849	767.03
632.047	782.53
632.245	769.16
632.444	793.19
632.642	791.64
632.84	810.23
633.038	786.4
633.236	747.46
633.434	763.35
633.632	749.59
633.83	773.81
634.028	802.1
634.227	777.88
634.425	818.57
634.623	761.6
634.821	783.69
635.019	789.12
635.216	756.76
635.414	790.09
635.612	767.22
635.81	756.95
636.008	834.45
636.206	763.54
636.404	793.38
636.602	741.26
636.8	768.19
636.997	797.64
637.195	796.28
637.393	753.08
637.591	831.93
637.789	784.66
637.986	780.79
638.184	811.4
638.382	845.88
638.58	811.01
638.777	868.94
638.975	789.89
639.173	785.05
639.37	835.42
639.568	801.13
639.765	836.39
639.963	782.14
640.161	817.02
640.358	787.18
640.556	734.87
640.753	727.7
640.951	767.8
641.148	791.25
641.346	736.22
641.543	756.37
641.741	796.28
641.938	740.29
642.136	746.69
642.333	734.09
642.531	842.4
642.728	834.26
642.925	775.36
643.123	760.05
643.32	781.37
643.517	764.12
643.715	771.29
643.912	751.72
644.109	782.92
644.306	734.48
644.504	730.41
644.701	770.71
644.898	791.64
645.095	734.09
645.293	745.52
645.49	747.65
645.687	761.02
645.884	790.67
646.081	689.34
646.278	708.9
646.475	736.22
646.672	714.72
646.87	792.6
647.067	745.52
647.264	741.84
647.461	681.39
647.658	676.74
647.855	726.92
648.052	670.74
648.249	617.07
648.446	706.97
648.642	676.94
648.839	673.45
649.036	644.19
649.233	672.48
649.43	622.88
649.627	644
649.824	634.89
650.021	651.56
650.217	646.91
650.414	642.64
650.611	694.96
650.808	682.94
651.004	708.9
651.201	683.91
651.398	730.02
651.595	690.11
651.791	659.11
651.988	674.03
652.185	627.92
652.381	699.99
652.578	607.96
652.775	676.74
652.971	654.85
653.168	685.27
653.364	707.94
653.561	625.59
653.757	659.31
653.954	685.66
654.15	632.76
654.347	709.87
654.543	689.92
654.74	589.75
654.936	616.88
655.133	637.8
655.329	666.86
655.525	654.66
655.722	641.48
655.918	624.04
656.115	626.17
656.311	560.49
656.507	554.29
656.704	535.31
656.9	566.31
657.096	538.99
657.292	536.86
657.489	591.49
657.685	595.76
657.881	581.81
658.077	606.41
658.273	599.24
658.47	672.87
658.666	623.27
658.862	643.22
659.058	633.92
659.254	665.31
659.45	595.37
659.646	632.76
659.842	589.56
660.038	651.56
660.234	593.82
660.43	637.99
660.626	702.51
660.822	635.86
661.018	671.71
661.214	638.19
661.41	593.43
661.606	642.06
661.802	662.21
661.998	602.73
662.194	606.41
662.39	651.56
662.586	657.95
662.781	617.26
662.977	648.84
663.173	656.21
663.369	609.32
663.564	627.92
663.76	660.08
663.956	594.01
664.152	677.52
664.347	574.25
664.543	621.72
664.739	594.4
664.934	556.62
665.13	555.07
665.326	641.29
665.521	609.9
665.717	567.47
665.912	586.46
666.108	520.39
666.304	568.83
666.499	594.4
666.695	533.76
666.89	578.32
667.086	611.45
667.281	609.9
667.477	637.99
667.672	569.41
667.867	594.4
668.063	625.79
668.258	529.88
668.454	570.76
668.649	651.17
668.844	587.62
669.04	601.96
669.235	574.44
669.43	559.14
669.626	531.63
669.821	553.91
670.016	530.85
670.211	557.78
670.407	566.5
670.602	588.78
670.797	560.11
670.992	600.02
671.187	557.78
671.382	607.96
671.578	552.74
671.773	598.66
671.968	526.01
672.163	599.05
672.358	586.46
672.553	569.6
672.748	559.53
672.943	637.22
673.138	583.94
673.333	615.91
673.528	563.4
673.723	575.22
673.918	538.41
674.113	543.64
674.308	633.54
674.503	589.17
674.698	598.47
674.892	584.91
675.087	603.31
675.282	571.34
675.477	533.95
675.672	595.76
675.867	534.34
676.061	526.01
676.256	489.97
676.451	514.77
676.646	551.58
676.84	530.66
677.035	502.95
677.23	520
677.424	572.7
677.619	570.18
677.814	566.69
678.008	580.64
678.203	500.63
678.397	541.31
678.592	553.13
678.787	626.17
678.981	545.38
679.176	559.33
679.37	524.85
679.565	526.59
679.759	547.71
679.954	579.48
680.148	596.92
680.342	586.46
680.537	606.03
680.731	517.1
680.926	542.09
681.12	553.33
681.314	494.62
681.509	511.67
681.703	538.41
681.897	582.19
682.092	532.21
682.286	544.22
682.48	624.43
682.674	584.91
682.869	528.53
683.063	556.04
683.257	624.82
683.451	516.13
683.645	576.77
683.839	583.74
684.034	548.29
684.228	547.9
684.422	536.86
684.616	514.19
684.81	569.02
685.004	559.14
685.198	546.16
685.392	574.25
685.586	525.81
685.78	547.71
685.974	571.73
686.168	560.3
686.362	595.95
686.556	521.16
686.75	476.99
686.944	489.39
687.138	508.18
687.331	398.52
687.525	430.49
687.719	371.59
687.913	465.56
688.107	455.68
688.301	431.27
688.494	469.43
688.688	428.55
688.882	416.93
689.076	391.16
689.269	439.21
689.463	496.95
689.657	424.87
689.85	458.78
690.044	476.99
690.238	453.55
690.431	460.33
690.625	472.92
690.818	482.61
691.012	513.41
691.205	539.38
691.399	488.81
691.593	534.53
691.786	580.45
691.98	564.76
692.173	568.44
692.366	559.14
692.56	568.83
692.753	614.94
692.947	521.55
693.14	659.11
693.333	621.14
693.527	555.07
693.72	578.71
693.914	547.13
694.107	526.78
694.3	589.94
694.493	562.63
694.687	601.76
694.88	571.73
695.073	650.2
695.266	638.19
695.46	600.41
695.653	648.26
695.846	651.17
696.039	573.48
696.232	603.31
696.425	663.96
696.618	666.86
696.812	647.68
697.005	698.25
697.198	781.17
697.391	724.21
697.584	746.3
697.777	798.42
697.97	773.23
698.163	724.21
698.356	741.26
698.549	814.88
698.742	801.32
698.935	735.64
699.127	769.16
699.32	727.31
699.513	746.69
699.706	784.66
699.899	785.82
700.092	756.18
700.285	808.1
700.477	740.87
700.67	801.32
700.863	813.72
701.056	893.74
701.248	837.55
701.441	874.17
701.634	837.94
701.826	935.4
702.019	823.22
702.212	904.98
702.404	831.93
702.597	869.72
702.79	867.39
702.982	897.42
703.175	956.51
703.367	977.63
703.56	919.12
703.752	1007.66
703.945	971.04
704.137	963.3
704.33	982.86
704.522	1010.76
704.715	1012.12
704.907	1008.44
705.1	1051.06
705.292	1078.19
705.484	1031.3
705.677	1103.18
705.869	1105.51
706.061	1078.57
706.254	1135.92
706.446	1081.87
706.638	1069.86
706.831	1133.02
707.023	1086.52
707.215	1176.42
707.407	1185.33
707.599	1163.05
707.792	1223.3
707.984	1200.83
708.176	1224.47
708.368	1193.47
708.56	1255.08
708.752	1186.69
708.944	1208.19
709.136	1275.23
709.329	1207.8
709.521	1335.48
709.713	1317.85
709.905	1284.72
710.097	1340.52
710.289	1283.75
710.481	1276.2
710.672	1320.18
710.864	1334.32
711.056	1366.87
711.248	1356.6
711.44	1309.33
711.632	1330.25
711.824	1402.52
712.016	1403.1
712.207	1417.83
712.399	1423.44
712.591	1453.86
712.783	1469.36
712.975	1481.96
713.166	1393.41
713.358	1433.71
713.55	1531.17
713.741	1514.89
713.933	1506.95
714.125	1499.01
714.316	1434.88
714.508	1509.27
714.7	1545.7
714.891	1531.17
715.083	1576.51
715.274	1535.62
715.466	1526.71
715.657	1577.28
715.849	1470.72
716.04	1560.23
716.232	1482.93
716.423	1557.32
716.615	1458.13
716.806	1487.96
716.998	1424.03
717.189	1386.83
717.381	1294.99
717.572	1287.63
717.763	1317.47
717.955	1301
718.146	1282.59
718.337	1234.93
718.528	1238.22
718.72	1191.14
718.911	1233.96
719.102	1196.37
719.293	1256.82
719.485	1274.07
719.676	1229.31
719.867	1157.04
720.058	1204.51
720.249	1183.97
720.44	1206.84
720.632	1250.23
720.823	1219.24
721.014	1377.91
721.205	1407.36
721.396	1405.04
721.587	1500.36
721.778	1515.09
721.969	1555.39
722.16	1615.25
722.351	1593.36
722.542	1665.05
722.733	1692.17
722.924	1565.85
723.115	1666.02
723.305	1663.11
723.496	1670.28
723.687	1567.21
723.878	1580.57
724.069	1582.7
724.26	1582.32
724.45	1543.76
724.641	1561.78
724.832	1601.11
725.023	1576.7
725.213	1522.26
725.404	1519.93
725.595	1530.39
725.785	1518.57
725.976	1617.77
726.167	1567.79
726.357	1600.92
726.548	1659.24
726.739	1600.34
726.929	1643.54
727.12	1689.85
727.31	1686.94
727.501	1640.64
727.691	1666.02
727.882	1663.5
728.072	1725.88
728.263	1727.43
728.453	1771.61
728.644	1747.58
728.834	1720.07
729.024	1716
729.215	1721.23
729.405	1751.46
729.596	1785.36
729.786	1804.35
729.976	1771.41
730.167	1822.18
730.357	1803.96
730.547	1785.75
730.737	1837.48
730.928	1859.57
731.118	1903.36
731.308	1832.06
731.498	1869.84
731.688	1907.04
731.879	1939.59
732.069	1977.17
732.259	1980.86
732.449	2025.61
732.639	2064.55
732.829	2079.67
733.019	2113.77
733.209	2139.53
733.399	2149.8
733.589	2184.29
733.779	2210.64
733.969	2213.16
734.159	2257.72
734.349	2317.2
734.539	2316.43
734.729	2304.8
734.919	2341.03
735.109	2426.67
735.299	2321.66
735.488	2374.55
735.678	2387.92
735.868	2379.78
736.058	2392.18
736.248	2354.79
736.437	2290.27
736.627	2285.43
736.817	2368.54
737.007	2367.96
737.196	2445.27
737.386	2419.69
737.576	2374.16
737.765	2434.61
737.955	2431.32
738.144	2523.15
738.334	2458.44
738.524	2434.22
738.713	2486.73
738.903	2475.88
739.092	2467.35
739.282	2497.97
739.471	2496.8
739.661	2530.52
739.85	2513.66
740.04	2510.56
740.229	2526.64
740.419	2524.32
740.608	2543.88
740.797	2534
740.987	2652.58
741.176	2563.84
741.365	2566.55
741.555	2519.47
741.744	2618.67
741.933	2586.32
742.123	2584.57
742.312	2632.43
742.501	2633.59
742.69	2668.85
742.88	2575.66
743.069	2717.09
743.258	2641.34
743.447	2676.02
743.636	2643.86
743.825	2667.88
744.014	2646.76
744.204	2699.85
744.393	2590.38
744.582	2705.66
744.771	2700.05
744.96	2640.37
745.149	2664.78
745.338	2637.08
745.527	2642.7
745.716	2647.93
745.905	2626.23
746.094	2694.23
746.283	2690.36
746.471	2679.7
746.66	2699.27
746.849	2665.75
747.038	2747.9
747.227	2684.74
747.416	2762.43
747.604	2681.06
747.793	2690.75
747.982	2692.1
748.171	2689.78
748.359	2749.84
748.548	2723.68
748.737	2685.71
748.926	2720.39
749.114	2574.5
749.303	2671.56
749.491	2666.14
749.68	2640.76
749.869	2724.26
750.057	2612.08
750.246	2637.66
750.434	2680.48
750.623	2670.98
750.811	2673.31
751	2705.28
751.188	2658.2
751.377	2680.48
751.565	2651.41
751.754	2646.76
751.942	2635.14
752.131	2708.76
752.319	2601.04
752.507	2597.94
752.696	2667.3
752.884	2664.98
753.072	2665.56
753.261	2664.78
753.449	2665.36
753.637	2646.18
753.825	2729.88
754.014	2621.38
754.202	2661.1
754.39	2729.11
754.578	2662.07
754.766	2614.41
754.955	2629.13
755.143	2711.28
755.331	2605.11
755.519	2643.28
755.707	2633.78
755.895	2625.84
756.083	2619.06
756.271	2565.2
756.459	2632.62
756.647	2630.3
756.835	2587.28
757.023	2600.46
757.211	2565
757.399	2578.18
757.587	2593.1
757.775	2542.33
757.963	2568.68
758.151	2580.12
758.339	2513.85
758.526	2539.62
758.714	2547.76
758.902	2444.11
759.09	2380.36
759.278	2222.26
759.465	2084.7
759.653	1804.35
759.841	1663.11
760.028	1381.21
760.216	1176.22
760.404	1157.04
760.591	918.15
760.779	770.32
760.967	690.5
761.154	547.13
761.342	628.69
761.529	601.18
761.717	668.02
761.905	625.21
762.092	715.1
762.28	655.04
762.467	650.01
762.655	590.91
762.842	651.56
763.029	635.86
763.217	647.87
763.404	671.51
763.592	689.14
763.779	607.38
763.966	672.29
764.154	708.52
764.341	753.27
764.528	738.16
764.716	812.95
764.903	849.95
765.09	912.15
765.277	932.1
765.465	1089.04
765.652	1077.41
765.839	1181.84
766.026	1257.02
766.213	1302.35
766.4	1350.98
766.588	1501.91
766.775	1506.76
766.962	1611.19
767.149	1665.63
767.336	1798.35
767.523	1728.02
767.71	1814.43
767.897	1923.31
768.084	1979.69
768.271	1979.69
768.458	2083.74
768.645	2094.78
768.832	2058.16
769.019	2107.76
769.206	2116.09
769.392	2190.3
769.579	2303.25
769.766	2195.33
769.953	2197.66
770.14	2285.62
770.327	2236.8
770.513	2308.48
770.7	2358.28
770.887	2252.68
771.073	2294.53
771.26	2270.9
771.447	2232.92
771.634	2263.92
771.82	2422.99
772.007	2272.83
772.193	2297.24
772.38	2347.62
772.567	2285.43
772.753	2326.89
772.94	2362.73
773.126	2319.14
773.313	2331.93
773.499	2340.45
773.686	2325.14
773.872	2265.47
774.059	2325.73
774.245	2300.73
774.432	2328.83
774.618	2205.6
774.804	2300.34
774.991	2254.04
775.177	2326.5
775.363	2260.05
775.55	2324.56
775.736	2232.34
775.922	2275.16
776.109	2285.43
776.295	2283.1
776.481	2296.86
776.667	2291.04
776.853	2263.15
777.04	2212.58
777.226	2285.43
777.412	2290.08
777.598	2234.08
777.784	2222.85
777.97	2195.33
778.156	2263.34
778.342	2241.64
778.528	2214.32
778.715	2141.67
778.901	2190.49
779.087	2203.66
779.272	2208.7
779.458	2178.48
779.644	2192.43
779.83	2161.82
780.016	2276.13
780.202	2197.46
780.388	2191.27
780.574	2099.04
780.76	2135.27
780.946	2162.01
781.131	2125.97
781.317	2132.56
781.503	2138.37
781.689	2152.71
781.874	2275.55
782.06	2168.6
782.246	2135.27
782.432	2150.38
782.617	2137.79
782.803	2176.93
782.989	2083.15
783.174	2095.75
783.36	2035.88
783.545	2092.07
783.731	2077.34
783.916	2007.59
784.102	2154.84
784.288	2057.58
784.473	2085.48
784.659	2075.02
784.844	2094.59
785.029	2046.15
785.215	2060.1
785.4	2003.33
785.586	2100.2
785.771	2016.89
785.956	2059.13
786.142	2035.49
786.327	1965.36
786.512	2004.11
786.698	1993.06
786.883	1965.94
787.068	1974.85
787.254	2035.69
787.439	1956.83
787.624	1963.81
787.809	1941.91
787.994	1945.21
788.18	1980.08
788.365	1888.63
788.55	1897.54
788.735	1905.68
788.92	1886.5
789.105	1947.72
789.29	1945.79
789.475	1874.88
789.66	1910.14
789.845	1900.45
790.03	1865.38
790.215	1873.13
790.4	1921.96
790.585	1917.69
790.77	1861.7
790.955	1803.96
791.14	1842.33
791.325	1912.66
791.51	1844.26
791.695	1824.11
791.879	1806.1
792.064	1808.81
792.249	1877.78
792.434	1784.2
792.618	1840.2
792.803	1925.06
792.988	1874.1
793.173	1821.4
793.357	1898.51
793.542	1801.83
793.727	1810.75
793.911	1913.82
794.096	1851.63
794.281	1854.34
794.465	1929.13
794.65	1840.2
794.834	1883.4
795.019	1930.29
795.203	1910.91
795.388	1896.58
795.572	1949.08
795.757	1922.34
795.941	1889.02
796.126	1895.41
796.31	1828.38
796.494	1891.54
796.679	1868.48
796.863	1880.49
797.048	1918.08
797.232	1861.31
797.416	1872.16
797.601	1841.94
797.785	1924.86
797.969	1879.91
798.153	1846.98
798.338	1919.05
798.522	1910.53
798.706	1914.01
798.89	1910.33
799.074	1977.76
799.258	2001.97
799.443	1924.67
799.627	1888.05
799.811	1949.27
799.995	1884.18
800.179	1888.05
800.363	1890.76
800.547	1910.14
800.731	1968.65
800.915	1867.51
801.099	1886.89
801.283	1918.28
801.467	1891.93
801.651	1893.09
801.835	1946.76
802.019	1912.66
802.202	1948.69
802.386	1832.06
802.57	1858.02
802.754	1861.12
802.938	1806.29
803.121	1858.99
803.305	1928.54
803.489	1910.72
803.673	1920.21
803.856	1901.03
804.04	1915.95
804.224	1923.51
804.407	1852.98
804.591	1857.24
804.775	1873.91
804.958	1904.13
805.142	1962.64
805.326	1871.97
805.509	1918.08
805.693	1928.54
805.876	1951.99
806.06	1900.45
806.243	1930.29
806.427	1945.59
806.61	1968.46
806.794	1883.21
806.977	1934.94
807.16	1926.8
807.344	1894.44
807.527	1907.04
807.71	1877.01
807.894	1906.07
808.077	1943.46
808.26	1867.51
808.444	1868.48
808.627	1926.41
808.81	1858.79
808.993	1833.61
809.177	1834.77
809.36	1890.18
809.543	1898.71
809.726	1745.26
809.909	1806.29
810.092	1767.15
810.276	1767.54
810.459	1821.01
810.642	1779.16
810.825	1760.18
811.008	1738.87
811.191	1680.35
811.374	1674.73
811.557	1718.52
811.74	1784.59
811.923	1655.36
812.106	1673.57
812.289	1638.5
812.472	1655.36
812.654	1682.48
812.837	1621.45
813.02	1570.11
813.203	1576.89
813.386	1509.27
813.569	1469.75
813.751	1442.24
813.934	1495.13
814.117	1464.52
814.3	1420.34
814.482	1383.73
814.665	1382.18
814.848	1344.59
815.03	1277.94
815.213	1331.41
815.396	1307.97
815.578	1280.07
815.761	1268.25
815.943	1328.31
816.126	1221.37
816.309	1229.89
816.491	1183.78
816.674	1126.04
816.856	1169.05
817.039	1165.57
817.221	1234.35
817.403	1173.9
817.586	1176.8
817.768	1211.49
817.951	1106.09
818.133	1117.71
818.315	1168.86
818.498	1184.75
818.68	1242.48
818.862	1234.73
819.045	1267.48
819.227	1243.45
819.409	1206.84
819.591	1249.85
819.774	1184.94
819.956	1173.51
820.138	1250.62
820.32	1214.78
820.502	1257.4
820.684	1313.59
820.866	1341.49
821.048	1383.73
821.231	1348.66
821.413	1385.86
821.595	1348.08
821.777	1362.41
821.959	1346.14
822.141	1430.81
822.323	1322.11
822.505	1236.48
822.686	1198.89
822.868	1138.44
823.05	1049.51
823.232	1060.75
823.414	986.93
823.596	1090.97
823.778	1088.84
823.96	1088.84
824.141	1075.67
824.323	1078.38
824.505	1153.75
824.687	1197.92
824.868	1240.35
825.05	1342.26
825.232	1298.28
825.413	1367.26
825.595	1323.28
825.777	1264.96
825.958	1301.38
826.14	1306.81
826.321	1302.35
826.503	1333.35
826.685	1338.2
826.866	1340.71
827.048	1340.13
827.229	1290.15
827.411	1239.58
827.592	1222.92
827.773	1247.52
827.955	1213.23
828.136	1245.58
828.318	1144.25
828.499	1189.01
828.68	1137.47
828.862	1178.74
829.043	1207.22
829.224	1194.63
829.406	1121.97
829.587	1158.59
829.768	1169.44
829.949	1217.1
830.131	1173.9
830.312	1261.86
830.493	1176.61
830.674	1196.95
830.855	1200.44
831.036	1182.04
831.218	1247.33
831.399	1257.02
831.58	1201.8
831.761	1215.17
831.942	1218.65
832.123	1158.01
832.304	1152.2
832.485	1175.45
832.666	1214.39
832.847	1217.49
833.028	1153.94
833.209	1148.32
833.389	1189.4
833.57	1144.06
833.751	1145.03
833.932	1197.92
834.113	1200.25
834.294	1148.32
834.475	1214.59
834.655	1210.71
834.836	1245.97
835.017	1197.34
835.198	1158.59
835.378	1241.52
835.559	1267.87
835.74	1174.87
835.92	1189.59
836.101	1158.98
836.281	1249.46
836.462	1219.62
836.643	1260.31
836.823	1233.57
837.004	1249.07
837.184	1297.12
837.365	1252.56
837.545	1271.55
837.726	1226.21
837.906	1294.22
838.087	1225.24
838.267	1241.32
838.448	1200.83
838.628	1212.84
838.808	1237.64
838.989	1254.88
839.169	1189.79
839.349	1265.73
839.53	1296.15
839.71	1285.3
839.89	1225.24
840.07	1288.4
840.251	1215.36
840.431	1255.27
840.611	1236.67
840.791	1214
840.971	1209.35
841.151	1223.3
841.332	1229.89
841.512	1216.33
841.692	1191.14
841.872	1204.51
842.052	1201.8
842.232	1255.08
842.412	1148.9
842.592	1204.32
842.772	1214.2
842.952	1214.2
843.132	1212.65
843.312	1164.6
843.492	1189.01
843.672	1226.6
843.851	1161.89
844.031	1215.94
844.211	1206.06
844.391	1186.3
844.571	1238.22
844.751	1194.05
844.93	1197.92
845.11	1177.77
845.29	1172.15
845.47	1202.38
845.649	1181.84
845.829	1207.61
846.009	1177.39
846.188	1214.39
846.368	1182.42
846.547	1187.07
846.727	1211.49
846.907	1121.97
847.086	1177
847.266	1228.34
847.445	1189.2
847.625	1177.19
847.804	1150.45
847.984	1180.1
848.163	1136.12
848.343	1155.49
848.522	1158.4
848.701	1178.35
848.881	1142.32
849.06	1179.9
849.239	1165.37
849.419	1182.04
849.598	1132.44
849.777	1120.04
849.957	1099.11
850.136	1076.44
850.315	1055.91
850.494	1059.39
850.674	1030.91
850.853	1089.62
851.032	1072.57
851.211	1134.76
851.39	1091.36
851.569	1044.86
851.748	1039.24
851.927	1118.49
852.107	1087.68
852.286	1028.78
852.465	1027.23
852.644	1115.58
852.823	1082.26
853.002	1081.67
853.181	1078.57
853.359	1120.04
853.538	1009.21
853.717	1086.91
853.896	975.69
854.075	944.5
854.254	941.01
854.433	917.38
854.611	949.54
854.79	875.72
854.969	965.62
855.148	998.17
855.327	899.94
855.505	951.48
855.684	945.66
855.863	961.75
856.041	937.53
856.22	969.88
856.399	941.79
856.577	1049.32
856.756	1031.88
856.934	1139.8
857.113	1111.12
857.291	1048.74
857.47	1014.44
857.648	1028.59
857.827	1038.28
858.005	1041.96
858.184	994.88
858.362	1111.51
858.541	1009.02
858.719	1032.46
858.898	1009.99
859.076	1020.45
859.254	1084.39
859.433	985.96
859.611	999.14
859.789	1004.95
859.967	1050.48
860.146	1067.34
860.324	984.8
860.502	998.75
860.68	929.2
860.859	998.17
861.037	964.26
861.215	1000.3
861.393	999.53
861.571	980.73
861.749	967.95
861.927	1011.73
862.105	989.26
862.283	962.91
862.461	963.68
862.639	959.81
862.817	971.82
862.995	959.23
863.173	955.16
863.351	955.93
863.529	972.59
863.707	991.19
863.885	956.13
864.063	889.28
864.241	938.5
864.418	1021.61
864.596	918.15
864.774	887.93
864.952	924.55
865.129	948.76
865.307	933.65
865.485	875.53
865.663	937.91
865.84	888.31
866.018	896.65
866.196	793.96
866.373	847.05
866.551	794.35
866.728	743.2
866.906	791.44
867.084	792.02
867.261	863.32
867.439	852.67
867.616	897.81
867.794	870.1
867.971	889.67
868.149	850.15
868.326	945.47
868.503	878.24
868.681	885.6
868.858	872.43
869.035	831.16
869.213	898.2
869.39	879.4
869.567	955.55
869.745	857.51
869.922	900.33
870.099	913.5
870.276	894.9
870.454	912.15
870.631	888.51
870.808	889.09
870.985	931.13
871.162	942.37
871.339	885.02
871.517	831.16
871.694	856.93
871.871	877.47
872.048	867.97
872.225	834.07
872.402	861.19
872.579	830.97
872.756	875.14
872.933	820.12
873.11	861.97
873.287	868.75
873.463	857.9
873.64	828.06
873.817	882.7
873.994	863.52
874.171	847.24
874.348	833.68
874.524	760.83
874.701	823.41
874.878	750.17
875.055	852.08
875.231	800.35
875.408	859.45
875.585	786.4
875.762	827.48
875.938	798.61
876.115	802.87
876.291	797.06
876.468	768.58
876.645	757.15
876.821	766.84
876.998	788.54
877.174	818.18
877.351	785.24
877.527	784.85
877.704	810.23
877.88	801.9
878.057	788.34
878.233	818.18
878.409	784.66
878.586	818.57
878.762	738.74
878.938	762.38
879.115	722.47
879.291	781.17
879.467	711.23
879.644	706
879.82	798.22
879.996	729.05
880.172	699.22
880.349	743.78
880.525	748.62
880.701	707.16
880.877	710.84
881.053	736.42
881.229	759.28
881.405	790.67
881.581	718.59
881.757	732.74
881.933	757.92
882.109	761.99
882.285	748.82
882.461	732.74
882.637	738.94
882.813	705.42
882.989	720.34
883.165	770.9
883.341	731.19
883.517	766.64
883.693	731.19
883.869	784.27
884.044	730.22
884.22	769.74
884.396	788.73
884.572	770.52
884.747	796.67
884.923	757.73
885.099	787.18
885.275	786.99
885.45	748.62
885.626	756.95
885.801	741.84
885.977	705.61
886.153	685.66
886.328	754.82
886.504	730.6
886.679	772.65
886.855	739.32
887.03	767.42
887.206	746.88
887.381	765.09
887.557	750.75
887.732	749.01
887.908	771.1
888.083	786.02
888.258	744.17
888.434	727.7
888.609	742.23
888.784	774.2
888.96	743.59
889.135	699.41
889.31	711.62
889.485	736.61
889.661	709.29
889.836	790.47
890.011	738.94
890.186	733.7
890.361	691.47
890.537	748.04
890.712	752.5
890.887	733.51
891.062	708.52
891.237	763.93
891.412	707.16
891.587	734.87
891.762	757.34
891.937	804.81
892.112	696.12
892.287	732.35
892.462	712.2
892.637	671.71
892.812	657.95
892.987	674.42
893.161	659.31
893.336	658.34
893.511	679.07
893.686	693.41
893.861	669.57
894.035	662.99
894.21	668.22
894.385	600.79
894.56	652.72
894.734	586.84
894.909	601.76
895.084	603.51
895.258	598.66
895.433	610.29
895.608	621.91
895.782	556.81
895.957	598.28
896.131	595.37
896.306	519.23
896.48	509.15
896.655	521.16
896.829	468.66
897.004	484.35
897.178	501.79
897.353	495.59
897.527	551.78
897.701	506.05
897.876	458.58
898.05	541.31
898.224	492.68
898.399	535.69
898.573	488.61
898.747	389.22
898.921	461.49
899.096	391.93
899.27	416.93
899.444	412.47
899.618	448.7
899.792	445.21
899.967	439.98
900.141	447.15
900.315	408.79
900.489	446.18
900.663	437.66
900.837	448.31
901.011	394.07
901.185	483.38
901.359	448.31
901.533	447.93
901.707	423.32
901.881	423.52
902.055	400.85
902.229	422.74
902.403	495.98
902.576	421.58
902.75	462.46
902.924	539.57
903.098	487.26
903.272	537.63
903.446	564.76
903.619	527.36
903.793	540.93
903.967	506.83
904.14	547.13
904.314	545.19
904.488	546.16
904.661	576.96
904.835	539.57
905.009	579.29
905.182	597.11
905.356	579.29
905.529	535.11
905.703	508.76
905.876	503.15
906.05	503.92
906.223	479.7
906.397	431.07
906.57	464.78
906.744	427.2
906.917	412.86
907.09	417.32
907.264	409.95
907.437	432.23
907.61	408.6
907.784	408.6
907.957	399.49
908.13	364.23
908.304	415.96
908.477	397.17
908.65	415.57
908.823	356.67
908.996	435.92
909.17	377.6
909.343	363.07
909.516	377.02
909.689	374.11
909.862	336.52
910.035	388.64
910.208	377.02
910.381	368.49
910.554	445.02
910.727	358.8
910.9	379.15
911.073	351.64
911.246	414.6
911.419	444.25
911.592	387.67
911.765	354.35
911.938	353.19
912.11	343.69
912.283	405.3
912.456	418.28
912.629	354.93
912.802	358.42
912.974	330.52
913.147	304.36
913.32	261.54
913.493	292.54
913.665	314.05
913.838	343.69
914.01	293.9
914.183	358.22
914.356	314.82
914.528	376.24
914.701	417.12
914.873	366.17
915.046	314.24
915.218	312.3
915.391	258.44
915.563	271.81
915.736	325.09
915.908	348.15
916.081	336.91
916.253	289.44
916.425	309.2
916.598	349.5
916.77	358.61
916.942	298.94
917.115	249.92
917.287	320.44
917.459	319.28
917.632	284.02
917.804	227.64
917.976	310.37
918.148	298.55
918.32	291.19
918.493	338.27
918.665	398.52
918.837	337.88
919.009	386.12
919.181	363.45
919.353	331.87
919.525	312.3
919.697	323.74
919.869	299.9
920.041	388.64
920.213	480.67
920.385	362.48
920.557	348.92
920.729	355.12
920.901	340.59
921.073	341.95
921.244	358.22
921.416	370.04
921.588	341.95
921.76	313.47
921.932	426.42
922.103	359.97
922.275	347.18
922.447	340.59
922.619	287.31
922.79	326.84
922.962	314.05
923.134	363.26
923.305	293.51
923.477	267.55
923.648	281.89
923.82	283.63
923.991	254.57
924.163	279.17
924.335	292.35
924.506	261.93
924.677	326.45
924.849	263.48
925.02	301.07
925.192	326.25
925.363	298.35
925.535	314.05
925.706	267.55
925.877	325.29
926.049	286.34
926.22	298.55
926.391	327.22
926.562	317.92
926.734	271.81
926.905	325.87
927.076	241.78
927.247	287.5
927.419	236.74
927.59	226.47
927.761	249.72
927.932	251.47
928.103	235.77
928.274	196.44
928.445	194.51
928.616	215.62
928.787	195.28
928.958	240.81
929.129	201.09
929.3	214.85
929.471	185.4
929.642	134.64
929.813	120.3
929.984	211.94
930.155	105.38
930.326	149.75
930.496	149.94
930.667	87.36
930.838	142.78
931.009	85.04
931.18	132.12
931.35	100.15
931.521	133.48
931.692	86.01
931.863	72.06
932.033	95.5
932.204	91.43
932.374	80.97
932.545	58.5
932.716	121.46
932.886	117.2
933.057	11.8
933.227	51.13
933.398	139.29
933.568	28.27
933.739	13.35
933.909	42.03
934.08	100.73
934.25	23.62
934.421	24.59
934.591	66.25
934.761	26.14
934.932	-25.4
935.102	23.62
935.272	27.5
935.443	34.47
935.613	4.05
935.783	37.57
935.953	29.05
936.123	148.39
936.294	-13.38
936.464	48.23
936.634	35.83
936.804	11.41
936.974	10.64
937.144	62.37
937.314	39.31
937.484	5.22
937.655	20.52
937.825	66.25
937.995	5.99
938.165	77.87
938.334	1.53
938.504	22.26
938.674	3.86
938.844	42.22
939.014	90.08
939.184	57.91
939.354	119.91
939.524	102.28
939.694	82.52
939.863	18.78
940.033	105.58
940.203	133.86
940.373	102.86
940.542	106.16
940.712	50.36
940.882	104.8
941.051	98.41
941.221	94.53
941.391	105.38
941.56	50.94
941.73	69.35
941.899	158.86
942.069	60.82
942.238	105.77
942.408	62.76
942.577	84.46
942.747	42.22
942.916	21.1
943.086	38.15
943.255	117.98
943.425	55.59
943.594	53.85
943.763	4.44
943.933	23.43
944.102	-16.68
944.271	46.29
944.441	42.03
944.61	19.36
944.779	31.37
944.948	142.97
945.117	18.78
945.287	37.38
945.456	-21.72
945.625	8.9
945.794	52.49
945.963	42.61
946.132	77.48
946.301	37.18
946.47	57.72
946.639	-4.86
946.808	31.95
946.977	36.99
947.146	98.41
947.315	40.48
947.484	54.62
947.653	25.17
947.822	31.37
947.991	12.77
948.16	111.97
948.329	81.75
948.498	48.61
948.666	26.91
948.835	86.98
949.004	3.28
949.173	15.48
949.341	54.04
949.51	60.05
949.679	74
949.847	75.93
950.016	134.25
950.185	91.05
950.353	51.71
950.522	56.75
950.69	80.78
950.859	20.33
951.028	101.89
951.196	76.51
951.365	26.33
951.533	40.48
951.701	86.4
951.87	61.98
952.038	21.3
952.207	38.93
952.375	124.56
952.543	21.1
952.712	38.35
952.88	52.49
953.048	108.48
953.217	64.11
953.385	45.71
953.553	90.46
953.721	22.26
953.89	36.8
954.058	-14.55
954.226	2.7
954.394	69.93
954.562	13.93
954.73	25.75
954.898	64.7
955.067	84.65
955.235	24.98
955.403	74.19
955.571	123.59
955.739	73.41
955.907	40.48
956.075	41.64
956.243	37.38
956.41	65.66
956.578	-14.74
956.746	-4.47
956.914	42.41
957.082	56.36
957.25	64.11
957.418	13.93
957.585	75.16
957.753	112.36
957.921	27.69
958.089	45.13
958.256	72.25
958.424	76.13
958.592	59.46
958.759	19.55
958.927	79.42
959.095	27.3
959.262	43.19
959.43	63.92
959.597	10.06
959.765	48.61
959.932	6.57
960.1	91.43
960.267	63.73
960.435	33.31
960.602	74
960.77	37.38
960.937	13.93
961.104	49.78
961.272	-0.98
961.439	35.05
961.606	80.78
961.774	72.64
961.941	19.55
962.108	80.58
962.275	71.67
962.443	98.79
962.61	69.93
962.777	123.21
962.944	82.13
963.111	63.15
963.278	76.13
963.446	77.1
963.613	67.8
963.78	54.23
963.947	116.23
964.114	58.88
964.281	132.12
964.448	70.9
964.615	58.5
964.782	61.01
964.949	77.87
965.116	82.33
965.282	106.54
965.449	52.68
965.616	23.62
965.783	69.93
965.95	81.16
966.117	10.64
966.283	68.38
966.45	42.22
966.617	65.86
966.784	100.15
966.95	84.65
967.117	75.16
967.284	8.9
967.45	33.5
967.617	122.43
967.784	95.31
967.95	113.13
968.117	86.01
968.283	79.42
968.45	148.98
968.616	88.33
968.783	106.35
968.949	104.03
969.116	103.06
969.282	83.1
969.449	85.43
969.615	74.58
969.781	8.31
969.948	93.37
970.114	11.8
970.28	116.04
970.447	66.25
970.613	109.45
970.779	65.86
970.945	80
971.112	75.16
971.278	82.52
971.444	61.98
971.61	98.6
971.776	49.58
971.942	64.7
972.108	92.4
972.275	69.35
972.441	81.55
972.607	128.63
972.773	49.58
972.939	103.06
973.105	57.72
973.271	32.34
973.437	57.33
973.602	32.73
973.768	61.21
973.934	54.23
974.1	88.72
974.266	7.35
974.432	91.63
974.598	57.91
974.763	100.54
974.929	47.65
975.095	112.16
975.261	42.03
975.426	30.98
975.592	61.98
975.758	132.89
975.923	-0.79
976.089	25.36
976.255	97.05
976.42	58.88
976.586	69.54
976.751	82.52
976.917	118.36
977.082	90.27
977.248	-9.9
977.413	14.13
977.579	48.81
977.744	63.34
977.91	50.36
978.075	34.66
978.24	98.99
978.406	47.84
978.571	47.06
978.736	27.88
978.902	59.27
979.067	19.36
979.232	9.48
979.397	57.91
979.563	140.64
979.728	16.84
979.893	67.6
980.058	41.06
980.223	85.62
980.388	63.34
980.554	37.76
980.719	39.7
980.884	88.53
981.049	93.76
981.214	47.65
981.379	58.11
981.544	39.7
981.709	62.18
981.874	57.33
982.039	72.64
982.204	71.28
982.368	45.51
982.533	49
982.698	97.83
982.863	106.35
983.028	50.94
983.193	77.1
983.357	39.12
983.522	56.56
983.687	35.25
983.852	41.25
984.016	42.22
984.181	81.55
984.346	59.46
984.51	95.31
984.675	62.18
984.839	53.65
985.004	75.35
985.168	99.38
985.333	71.86
985.498	54.62
985.662	81.75
985.827	94.34
985.991	60.63
986.155	48.81
986.32	97.05
986.484	117.78
986.649	93.37
986.813	0.18
986.977	66.83
987.142	79.61
987.306	-3.5
987.47	26.91
987.634	39.51
987.799	50.16
987.963	69.35
988.127	99.57
988.291	147.62
988.455	36.41
988.62	38.93
988.784	67.02
988.948	100.73
989.112	46.68
989.276	77.68
989.44	53.46
989.604	45.51
989.768	54.23
989.932	122.04
990.096	0.57
990.26	20.13
990.424	39.9
990.588	57.91
990.752	113.33
990.915	90.46
991.079	37.18
991.243	43.58
991.407	82.33
991.571	52.49
991.734	85.23
991.898	55.59
992.062	135.61
992.226	27.69
992.389	47.26
992.553	-1.95
992.717	30.6
992.88	37.38
993.044	47.65
993.207	51.91
993.371	88.14
993.535	56.17
993.698	45.32
993.862	104.22
994.025	92.6
994.189	46.1
994.352	43.96
994.515	55.59
994.679	103.25
994.842	48.03
995.006	65.86
995.169	38.54
995.332	29.24
995.496	48.03
995.659	3.67
995.822	47.06
995.985	27.3
996.149	98.41
996.312	31.95
996.475	102.09
996.638	41.83
996.801	78.65
996.964	125.14
997.128	42.61
997.291	33.7
997.454	49.39
997.617	-6.99
997.78	71.28
997.943	31.18
998.106	95.89
998.269	26.14
998.432	40.09
998.595	51.71
998.758	1.53
998.92	25.36
999.083	9.67
999.246	40.67
999.409	15.1
999.572	8.7
999.735	34.28
999.897	21.3
1000.06	7.73
1000.223	9.67
1000.386	74.58
1000.548	56.36
1000.711	41.45
1000.874	51.91
1001.036	25.75
1001.199	73.22
1001.361	7.73
1001.524	65.86
1001.687	69.54
1001.849	5.6
1002.012	47.65
1002.174	55.4
1002.337	64.89
1002.499	43
1002.661	79.61
1002.824	8.12
1002.986	35.44
1003.149	43.58
1003.311	14.51
1003.473	87.56
1003.636	37.38
1003.798	46.68
1003.96	91.63
1004.123	34.66
1004.285	21.3
1004.447	26.14
1004.609	61.6
1004.771	79.03
1004.933	8.12
1005.096	2.12
1005.258	-8.73
1005.42	6.77
1005.582	66.63
1005.744	59.46
1005.906	-6.22
1006.068	48.03
1006.23	-0.98
1006.392	-36.63
1006.554	10.25
1006.716	79.42
1006.878	65.28
1007.04	5.22
1007.202	13.16
1007.363	34.86
1007.525	36.99
1007.687	49.2
1007.849	88.91
1008.011	-1.57
1008.172	3.67
1008.334	26.72
1008.496	45.9
1008.658	-17.65
1008.819	7.54
1008.981	4.83
1009.143	-5.63
1009.304	8.51
1009.466	55.98
1009.627	77.48
1009.789	120.88
1009.95	40.09
1010.112	10.25
1010.273	24.59
1010.435	3.86
1010.596	39.51
1010.758	7.35
1010.919	45.13
1011.081	-19
1011.242	10.45
1011.403	47.06
1011.565	6.38
1011.726	25.75
1011.887	-20.36
1012.049	-10.67
1012.21	64.7
1012.371	73.8
1012.532	-43.8
1012.693	31.37
1012.855	-11.45
1013.016	44.93
1013.177	58.3
1013.338	-7.38
1013.499	92.98
1013.66	60.24
1013.821	69.54
1013.982	61.4
1014.143	31.18
1014.304	24.59
1014.465	37.38
1014.626	61.21
1014.787	7.35
1014.948	70.9
1015.109	-23.46
1015.27	71.48
1015.431	-1.95
1015.592	2.31
1015.752	92.79
1015.913	52.68
1016.074	46.68
1016.235	44.16
1016.395	11.61
1016.556	20.91
1016.717	-7.96
1016.877	84.65
1017.038	18.97
1017.199	31.37
1017.359	47.84
1017.52	20.33
1017.681	35.63
1017.841	29.05
1018.002	14.32
1018.162	23.04
1018.323	69.15
1018.483	-2.53
1018.644	-26.95
1018.804	-24.23
1018.964	-28.3
1019.125	-9.12
1019.285	36.8
1019.446	-4.28
1019.606	6.38
1019.766	-21.52
1019.926	49.58
1020.087	45.13
1020.247	-29.27
1020.407	43.58
1020.567	77.87
1020.728	4.05
1020.888	2.31
1021.048	-4.08
1021.208	-32.95
1021.368	28.08
1021.528	69.15
1021.688	52.88
1021.848	30.01
1022.008	32.34
1022.168	22.46
1022.328	23.62
1022.488	15.68
1022.648	2.7
1022.808	24.98
1022.968	42.61
1023.128	20.52
1023.288	-10.28
1023.448	18.58
1023.608	25.17
1023.767	20.13
1023.927	-25.78
1024.087	-18.42
1024.247	-42.64
1024.406	-3.7
1024.566	-22.3
1024.726	-4.47
1024.885	-10.28
1025.045	57.33
1025.205	11.03
1025.364	1.53
1025.524	22.85
1025.683	4.05
1025.843	5.6
1026.003	11.61
1026.162	73.61
1026.321	69.54
1026.481	11.8
1026.64	7.35
1026.8	8.12
1026.959	30.21
1027.119	28.27
1027.278	13.35
1027.437	-1.76
1027.597	18
1027.756	35.63
1027.915	34.08
1028.074	26.33
1028.234	-24.62
1028.393	19.36
1028.552	-13
1028.711	-58.14
1028.87	49
1029.03	-19
1029.189	7.73
1029.348	-68.02
1029.507	-9.32
1029.666	0.57
1029.825	-3.89
1029.984	2.12
1030.143	18.97
1030.302	6.38
1030.461	-32.76
1030.62	34.47
1030.779	33.11
1030.938	-2.15
1031.097	-28.5
1031.255	45.13
1031.414	60.24
1031.573	53.65
1031.732	-33.15
1031.891	-8.54
1032.049	50.16
1032.208	47.06
1032.367	-19.58
1032.525	-3.7
1032.684	-24.82
1032.843	-12.03
1033.001	-41.48
1033.16	148.59
1033.319	42.8
1033.477	24.98
1033.636	-14.93
1033.794	-31.21
1033.953	3.47
1034.111	44.55
1034.27	-22.1
1034.428	6.57
1034.587	-21.91
1034.745	41.83
1034.903	13.16
1035.062	33.7
1035.22	-18.62
1035.378	23.43
1035.537	-3.12
1035.695	3.08
1035.853	-6.8
1036.011	39.9
1036.17	31.18
1036.328	-66.86
1036.486	10.64
1036.644	9.09
1036.802	-85.46
1036.96	-28.88
1037.119	-9.32
1037.277	7.35
1037.435	-35.86
1037.593	-8.73
1037.751	6.38
1037.909	36.02
1038.067	36.02
