Data from pine_FLMT105791__114__17-22-13-075.txt Node

Date: Mon Mar 20 17:22:13 GMT 2023
User: antho
Spectrometer: FLMT10579
Trigger mode: 0
Integration Time (sec): 1.000000E-1
Scans to average: 10
Electric dark correction enabled: true
Nonlinearity correction enabled: false
Boxcar width: 0
XAxis mode: Wavelengths
Number of Pixels in Spectrum: 3648
>>>>>Begin Spectral Data<<<<<
345.248	-135.57
345.464	-135.57
345.681	-135.57
345.898	-169.29
346.114	-152.82
346.331	-41.03
346.548	17.68
346.764	-11.96
346.981	-4.99
347.197	-11.38
347.414	44.03
347.631	-37.73
347.847	54.88
348.064	9.54
348.28	38.99
348.497	-54.59
348.713	-3.44
348.93	16.13
349.146	13.03
349.363	29.3
349.579	33.18
349.796	-2.66
350.012	-2.47
350.229	16.32
350.445	12.84
350.661	-0.73
350.878	-1.31
351.094	10.12
351.311	20.78
351.527	43.64
351.743	-31.34
351.96	31.44
352.176	33.57
352.392	35.89
352.609	40.74
352.825	0.44
353.041	20.97
353.257	7.99
353.474	28.53
353.69	31.05
353.906	21.17
354.122	-9.45
354.339	53.14
354.555	26.2
354.771	14.77
354.987	81.62
355.203	62.44
355.42	5.67
355.636	25.04
355.852	-16.61
356.068	8.38
356.284	-30.56
356.5	96.15
356.716	16.13
356.932	5.09
357.148	53.72
357.364	2.76
357.58	75.42
357.796	49.84
358.012	45.97
358.228	21.17
358.444	-66.99
358.66	64.76
358.876	52.36
359.092	-3.44
359.308	22.52
359.524	32.79
359.74	2.95
359.956	10.32
360.172	20.39
360.388	60.5
360.604	0.05
360.819	105.83
361.035	27.37
361.251	30.27
361.467	-6.93
361.683	42.67
361.898	14.58
362.114	30.85
362.33	30.08
362.546	30.66
362.762	47.13
362.977	47.32
363.193	8.38
363.409	43.25
363.624	-7.12
363.84	24.46
364.056	1.99
364.271	38.99
364.487	37.44
364.703	3.73
364.918	3.54
365.134	1.79
365.35	7.22
365.565	90.53
365.781	33.57
365.996	34.54
366.212	78.71
366.427	23.49
366.643	3.73
366.858	12.25
367.074	8.38
367.289	84.33
367.505	115.52
367.72	-12.16
367.936	-16.42
368.151	40.74
368.367	59.14
368.582	32.4
368.798	16.13
369.013	45.77
369.228	35.12
369.444	3.34
369.659	101.77
369.874	56.62
370.09	73.67
370.305	-35.79
370.52	7.02
370.736	68.05
370.951	26.59
371.166	77.93
371.381	80.07
371.597	56.04
371.812	5.09
372.027	0.82
372.242	18.45
372.458	82.58
372.673	28.34
372.888	-0.34
373.103	47.71
373.318	96.92
373.533	82
373.749	27.37
373.964	-39.48
374.179	58.17
374.394	-11.38
374.609	77.35
374.824	-17.2
375.039	77.55
375.254	24.07
375.469	87.82
375.684	23.3
375.899	88.78
376.114	50.04
376.329	34.15
376.544	51.97
376.759	60.69
376.974	-8.48
377.189	7.41
377.404	10.51
377.619	44.8
377.834	-14.68
378.049	-20.1
378.264	-11.77
378.478	35.12
378.693	16.71
378.908	31.24
379.123	24.46
379.338	77.74
379.553	33.95
379.767	37.44
379.982	37.44
380.197	51.2
380.412	27.17
380.626	51.59
380.841	102.93
381.056	39.96
381.271	89.17
381.485	9.15
381.7	-22.81
381.915	35.7
382.129	7.6
382.344	43.64
382.559	17.87
382.773	77.93
382.988	-8.86
383.202	-0.92
383.417	22.52
383.632	125.6
383.846	32.79
384.061	54.1
384.275	52.36
384.49	40.93
384.704	56.62
384.919	37.83
385.133	37.83
385.348	60.3
385.562	-17.58
385.777	48.87
385.991	28.72
386.206	24.07
386.42	45
386.634	87.62
386.849	44.22
387.063	52.94
387.277	26.79
387.492	0.63
387.706	-19.13
387.92	30.85
388.135	62.05
388.349	79.48
388.563	32.21
388.778	51
388.992	49.26
389.206	72.51
389.42	103.32
389.635	48.29
389.849	60.11
390.063	88.2
390.277	46.16
390.491	87.43
390.706	62.63
390.92	79.29
391.134	66.31
391.348	74.45
391.562	-27.46
391.776	42.48
391.99	-9.64
392.205	69.22
392.419	-9.25
392.633	39.77
392.847	70.38
393.061	6.83
393.275	99.83
393.489	39.77
393.703	65.92
393.917	79.48
394.131	6.64
394.345	93.24
394.559	65.92
394.773	29.89
394.986	60.3
395.2	38.22
395.414	62.05
395.628	18.07
395.842	62.63
396.056	25.04
396.27	-13.71
396.484	53.72
396.697	98.08
396.911	67.67
397.125	57.98
397.339	83.17
397.553	72.12
397.766	93.63
397.98	65.15
398.194	92.27
398.408	25.82
398.621	70.77
398.835	71.15
399.049	76.97
399.262	103.51
399.476	88.78
399.69	75.22
399.903	122.3
400.117	55.07
400.331	73.67
400.544	68.63
400.758	177.33
400.971	54.3
401.185	85.3
401.398	29.3
401.612	137.61
401.826	85.3
402.039	90.53
402.253	43.64
402.466	94.21
402.68	54.1
402.893	90.33
403.106	54.69
403.32	57.98
403.533	95.18
403.747	63.99
403.96	79.68
404.174	113
404.387	25.82
404.6	77.35
404.814	118.23
405.027	77.16
405.24	47.9
405.454	56.82
405.667	108.16
405.88	38.41
406.094	77.55
406.307	98.08
406.52	94.21
406.733	51.97
406.947	41.32
407.16	141.48
407.373	118.23
407.586	64.18
407.799	43.45
408.012	109.32
408.226	90.14
408.439	115.91
408.652	36.86
408.865	93.43
409.078	133.15
409.291	108.93
409.504	60.69
409.717	98.28
409.93	97.31
410.143	104.09
410.357	32.99
410.57	47.52
410.783	62.24
410.996	73.67
411.209	75.22
411.421	113.58
411.634	76.97
411.847	78.71
412.06	101.57
412.273	90.72
412.486	98.86
412.699	178.3
412.912	103.9
413.125	122.11
413.338	77.93
413.55	152.91
413.763	92.08
413.976	120.56
414.189	91.3
414.402	75.22
414.615	147.3
414.827	67.47
415.04	125.4
415.253	104.09
415.466	112.42
415.678	122.11
415.891	111.07
416.104	127.73
416.316	112.23
416.529	87.62
416.742	131.02
416.954	139.74
417.167	110.1
417.38	108.93
417.592	156.98
417.805	68.63
418.017	65.53
418.23	125.79
418.442	94.79
418.655	108.55
418.868	134.9
419.08	140.13
419.293	155.82
419.505	100.99
419.718	121.14
419.93	146.33
420.142	108.16
420.355	176.94
420.567	164.35
420.78	130.83
420.992	126.18
421.205	190.89
421.417	99.83
421.629	115.52
421.842	106.61
422.054	78.71
422.266	140.9
422.479	160.86
422.691	108.55
422.903	139.74
423.115	118.43
423.328	126.76
423.54	118.43
423.752	106.61
423.964	98.86
424.177	127.34
424.389	110.48
424.601	239.33
424.813	129.67
425.025	163.18
425.238	179.26
425.45	128.5
425.662	121.33
425.874	435.01
426.086	121.72
426.298	126.18
426.51	132.77
426.722	132.77
426.934	145.55
427.146	151.17
427.358	132.57
427.57	174.42
427.782	142.07
427.994	134.51
428.206	110.48
428.418	101.77
428.63	171.71
428.842	169
429.054	144.2
429.266	175
429.478	140.71
429.69	138.38
429.902	99.25
430.114	146.13
430.325	143.81
430.537	113.58
430.749	137.03
430.961	94.02
431.173	146.52
431.384	131.22
431.596	55.46
431.808	121.14
432.02	155.63
432.231	186.63
432.443	220.73
432.655	189.92
432.867	129.47
433.078	207.75
433.29	249.59
433.502	203.87
433.713	211.04
433.925	178.88
434.136	212.4
434.348	148.85
434.56	117.27
434.771	255.41
434.983	136.45
435.194	154.27
435.406	191.66
435.617	241.26
435.829	252.31
436.04	218.21
436.252	216.46
436.463	259.09
436.675	224.8
436.886	233.9
437.098	226.73
437.309	261.8
437.521	212.2
437.732	223.83
437.943	204.65
438.155	202.71
438.366	182.75
438.578	264.9
438.789	233.32
439	250.18
439.211	208.91
439.423	214.33
439.634	229.06
439.845	253.66
440.057	239.71
440.268	266.06
440.479	210.07
440.69	225.76
440.902	218.21
441.113	242.43
441.324	210.85
441.535	255.79
441.746	305.59
441.957	212.59
442.168	231.77
442.38	266.84
442.591	268.39
442.802	242.81
443.013	229.06
443.224	252.5
443.435	231.77
443.646	261.61
443.857	248.63
444.068	238.36
444.279	239.33
444.49	343.17
444.701	262.58
444.912	343.95
445.123	285.83
445.334	291.06
445.545	263.35
445.756	239.33
445.967	227.31
446.178	266.26
446.388	296.09
446.599	299.78
446.81	303.07
447.021	265.09
447.232	352.28
447.443	338.91
447.653	267.23
447.864	315.86
448.075	304.81
448.286	322.06
448.496	290.28
448.707	349.18
448.918	307.14
449.129	371.66
449.339	255.21
449.55	327.09
449.761	278.27
449.971	343.56
450.182	289.12
450.393	349.18
450.603	308.3
450.814	356.74
451.024	325.35
451.235	369.72
451.446	368.94
451.656	379.41
451.867	292.8
452.077	325.74
452.288	400.52
452.498	363.52
452.709	334.46
452.919	356.74
453.13	310.43
453.34	366.42
453.55	279.63
453.761	362.74
453.971	349.37
454.182	360.61
454.392	346.47
454.602	413.12
454.813	346.86
455.023	394.91
455.233	289.12
455.444	345.11
455.654	261.8
455.864	346.66
456.075	340.07
456.285	332.32
456.495	336.2
456.705	364.87
456.916	373.01
457.126	398.97
457.336	354.8
457.546	297.64
457.756	346.08
457.967	390.06
458.177	347.24
458.387	360.42
458.597	364.68
458.807	358.48
459.017	353.06
459.227	359.45
459.437	328.84
459.647	396.84
459.857	382.89
460.068	334.26
460.278	421.45
460.488	393.94
460.698	439.85
460.908	367.78
461.117	341.43
461.327	369.33
461.537	385.22
461.747	408.08
461.957	393.36
462.167	492.75
462.377	428.81
462.587	387.16
462.797	439.47
463.007	415.05
463.216	416.41
463.426	441.02
463.636	451.48
463.846	359.45
464.056	403.24
464.265	417.38
464.475	361.77
464.685	433.65
464.895	399.75
465.104	379.99
465.314	447.41
465.524	388.9
465.733	386.19
465.943	503.79
466.153	488.68
466.362	437.53
466.572	447.99
466.782	407.5
466.991	419.12
467.201	499.92
467.41	368.75
467.62	471.05
467.829	441.6
468.039	454.58
468.249	420.09
468.458	420.09
468.668	454.39
468.877	463.88
469.086	502.63
469.296	496.62
469.505	432.69
469.715	537.12
469.924	472.21
470.134	496.43
470.343	511.54
470.552	455.55
470.762	469.89
470.971	424.94
471.18	470.85
471.39	472.21
471.599	427.65
471.808	498.37
472.018	447.99
472.227	542.54
472.436	538.08
472.645	468.72
472.855	455.94
473.064	536.53
473.273	505.53
473.482	529.37
473.691	566.18
473.901	540.6
474.11	495.85
474.319	592.91
474.528	517.35
474.737	540.41
474.946	551.07
475.155	564.24
475.364	578.77
475.573	550.48
475.783	567.15
475.992	564.63
476.201	600.28
476.41	524.33
476.619	514.83
476.828	567.92
477.037	529.17
477.245	548.93
477.454	583.81
477.663	549.52
477.872	560.75
478.081	637.28
478.29	584.97
478.499	661.7
478.708	617.52
478.917	694.83
479.125	626.63
479.334	617.71
479.543	578.97
479.752	654.14
479.961	613.84
480.169	654.33
480.378	638.45
480.587	731.44
480.796	634.18
481.004	673.71
481.213	662.08
481.422	665.96
481.63	656.27
481.839	701.03
482.048	744.81
482.256	666.35
482.465	686.49
482.674	732.8
482.882	719.04
483.091	778.72
483.299	724.28
483.508	741.52
483.716	699.28
483.925	727.18
484.134	685.53
484.342	697.93
484.551	729.31
484.759	736.87
484.967	770.19
485.176	765.54
485.384	768.45
485.593	795.19
485.801	739.78
486.01	709.16
486.218	677.39
486.426	611.32
486.635	662.47
486.843	642.13
487.051	698.12
487.26	664.99
487.468	725.05
487.676	752.56
487.885	697.15
488.093	728.15
488.301	759.93
488.509	750.43
488.717	791.89
488.926	756.63
489.134	785.69
489.342	752.76
489.55	758.57
489.758	805.07
489.967	799.26
490.175	872.1
490.383	802.36
490.591	910.66
490.799	789.76
491.007	867.84
491.215	828.32
491.423	838.2
491.631	834.32
491.839	860.09
492.047	840.91
492.255	825.61
492.463	783.95
492.671	788.21
492.879	885.86
493.087	825.61
493.295	862.8
493.503	884.12
493.711	869.59
493.919	908.72
494.127	891.67
494.334	883.15
494.542	852.54
494.75	892.06
494.958	872.69
495.166	946.12
495.374	912.4
495.581	907.56
495.789	912.79
495.997	956.77
496.205	877.92
496.412	894.39
496.62	920.35
496.828	933.33
497.035	906.2
497.243	969.17
497.451	925.19
497.658	964.33
497.866	918.22
498.074	1012.77
498.281	910.47
498.489	1018.19
498.696	941.08
498.904	903.69
499.112	880.05
499.319	996.3
499.527	917.25
499.734	986.03
499.942	912.79
500.149	936.62
500.357	968.4
500.564	888.38
500.771	936.04
500.979	892.64
501.186	902.52
501.394	927.71
501.601	914.34
501.808	969.95
502.016	922.29
502.223	925
502.43	937.59
502.638	923.06
502.845	921.9
503.052	1026.91
503.26	934.69
503.467	1063.14
503.674	961.62
503.881	999.59
504.089	1049
504.296	1022.45
504.503	925.58
504.71	952.12
504.917	921.32
505.125	967.62
505.332	1006.57
505.539	1015.09
505.746	1079.8
505.953	1060.81
506.16	1046.28
506.367	1121.07
506.574	1124.56
506.781	1140.25
506.988	1059.26
507.195	1071.86
507.402	1088.52
507.609	1102.28
507.816	1061.78
508.023	1055.39
508.23	1061.98
508.437	1013.93
508.644	1060.04
508.851	1129.21
509.058	1109.83
509.265	1131.92
509.472	1121.46
509.679	1210.77
509.885	1124.36
510.092	1136.96
510.299	1147.23
510.506	1122.62
510.713	1143.35
510.92	1110.41
511.126	1144.9
511.333	1174.74
511.54	1206.51
511.746	1195.08
511.953	1220.46
512.16	1267.54
512.367	1179.19
512.573	1143.35
512.78	1154.01
512.987	1181.71
513.193	1190.04
513.4	1128.24
513.606	1187.91
513.813	1178.23
514.02	1210.19
514.226	1242.94
514.433	1240.61
514.639	1150.52
514.846	1202.06
515.052	1206.51
515.259	1199.54
515.465	1224.92
515.672	1221.62
515.878	1296.6
516.085	1242.36
516.291	1285.95
516.497	1248.56
516.704	1198.76
516.91	1183.46
517.117	1101.7
517.323	1074.18
517.529	1130.95
517.736	1157.3
517.942	1176.68
518.148	1172.99
518.354	1189.08
518.561	1211.94
518.767	1179.58
518.973	1261.73
519.179	1256.69
519.386	1211.16
519.592	1248.56
519.798	1248.36
520.004	1338.07
520.21	1297.77
520.417	1342.14
520.623	1374.88
520.829	1398.13
521.035	1383.4
521.241	1404.91
521.447	1410.33
521.653	1483.38
521.859	1398.71
522.065	1410.72
522.271	1528.13
522.477	1461.1
522.683	1501.78
522.889	1476.01
523.095	1436.49
523.301	1450.83
523.507	1396.77
523.713	1458.77
523.919	1416.53
524.125	1497.71
524.331	1456.83
524.537	1561.84
524.742	1536.08
524.948	1572.11
525.154	1538.79
525.36	1638.37
525.566	1545.96
525.772	1600.21
525.977	1512.63
526.183	1544.99
526.389	1610.48
526.595	1521.35
526.8	1527.36
527.006	1476.79
527.212	1442.3
527.417	1403.36
527.623	1402.58
527.829	1492.1
528.034	1515.73
528.24	1538.98
528.446	1520.77
528.651	1606.41
528.857	1608.54
529.062	1646.9
529.268	1635.28
529.473	1639.34
529.679	1652.91
529.884	1721.69
530.09	1675.77
530.295	1669.57
530.501	1700.96
530.706	1676.54
530.912	1657.17
531.117	1676.93
531.323	1685.84
531.528	1735.25
531.733	1714.32
531.939	1669.37
532.144	1715.68
532.35	1700.57
532.555	1746.87
532.76	1688.36
532.966	1706.96
533.171	1706.96
533.376	1624.23
533.581	1634.31
533.787	1661.82
533.992	1709.48
534.197	1745.9
534.402	1676.35
534.607	1687.59
534.813	1834.45
535.018	1714.91
535.223	1702.31
535.428	1767.41
535.633	1811.97
535.838	1792.6
536.043	1757.53
536.249	1875.33
536.454	1780.78
536.659	1807.9
536.864	1761.79
537.069	1780.59
537.274	1783.88
537.479	1772.64
537.684	1811.97
537.889	1788.53
538.094	1833.87
538.299	1793.95
538.504	1833.28
538.708	1808.1
538.913	1870.29
539.118	1843.55
539.323	1826.5
539.528	1809.45
539.733	1786.01
539.938	1854.21
540.142	1852.47
540.347	1777.87
540.552	1777.68
540.757	1807.9
540.962	1789.3
541.166	1715.1
541.371	1724.01
541.576	1801.7
541.781	1709.67
541.985	1823.21
542.19	1819.33
542.395	1901.87
542.599	1885.98
542.804	1882.69
543.008	1862.93
543.213	1813.33
543.418	1805.39
543.622	1857.5
543.827	1813.33
544.031	1927.06
544.236	1916.79
544.44	1847.82
544.645	1976.66
544.849	1855.76
545.054	1896.64
545.258	1947.6
545.463	1929.58
545.667	1855.57
545.872	1916.79
546.076	1893.35
546.281	1887.53
546.485	1872.42
546.689	1911.75
546.894	1912.72
547.098	1909.23
547.302	1857.5
547.507	1922.6
547.711	1935.39
547.915	1932.68
548.119	1865.06
548.324	1891.41
548.528	1965.42
548.732	1880.56
548.936	1915.05
549.141	1993.71
549.345	1924.93
549.549	1953.41
549.753	1953.41
549.957	2013.28
550.161	2022.38
550.366	1959.03
550.57	1921.44
550.774	1929.96
550.978	1993.51
551.182	1986.54
551.386	1912.72
551.59	1922.02
551.794	1928.22
551.998	1953.21
552.202	1921.44
552.406	1900.71
552.61	1971.04
552.814	1946.24
553.018	1997.39
553.222	1941.78
553.426	1956.51
553.63	2012.69
553.833	1916.01
554.037	1901.1
554.241	1938.3
554.445	1950.31
554.649	1911.17
554.853	1931.13
555.056	1949.92
555.26	1982.28
555.464	1995.26
555.668	1992.54
555.871	1982.66
556.075	2023.74
556.279	1933.06
556.483	1886.57
556.686	1933.45
556.89	1924.35
557.094	1942.56
557.297	1869.71
557.501	1941.98
557.704	1845.1
557.908	1956.31
558.112	1881.14
558.315	1959.41
558.519	1916.98
558.722	1906.91
558.926	1826.89
559.129	1823.6
559.333	1829.99
559.536	1789.11
559.74	1779.62
559.943	1757.92
560.147	1853.82
560.35	1823.6
560.553	1831.54
560.757	1771.48
560.96	1875.91
561.164	1832.9
561.367	1916.01
561.57	1857.12
561.774	1850.14
561.977	1803.25
562.18	1804.8
562.384	1895.87
562.587	1798.41
562.79	1809.65
562.993	1788.14
563.197	1842.39
563.4	1867.77
563.603	1866.22
563.806	1907.1
564.009	1792.79
564.212	1840.84
564.416	1750.36
564.619	1820.5
564.822	1777.29
565.025	1863.51
565.228	1776.52
565.431	1769.74
565.634	1721.49
565.837	1775.16
566.04	1731.18
566.243	1704.83
566.446	1650.39
566.649	1765.47
566.852	1698.05
567.055	1742.42
567.258	1710.64
567.461	1791.05
567.664	1800.15
567.867	1667.05
568.07	1729.63
568.273	1770.51
568.475	1783.1
568.678	1674.22
568.881	1704.06
569.084	1711.03
569.287	1609.31
569.489	1653.1
569.692	1709.87
569.895	1714.52
570.098	1610.28
570.3	1612.61
570.503	1570.37
570.706	1584.9
570.909	1561.26
571.111	1547.51
571.314	1555.64
571.516	1566.11
571.719	1559.52
571.922	1542.28
572.124	1591.1
572.327	1599.82
572.529	1557.58
572.732	1568.82
572.935	1589.74
573.137	1617.84
573.34	1566.88
573.542	1621.33
573.745	1584.71
573.947	1606.02
574.15	1577.93
574.352	1561.07
574.554	1632.76
574.757	1523.29
574.959	1491.9
575.162	1528.91
575.364	1499.46
575.566	1618.61
575.769	1487.06
575.971	1529.3
576.173	1454.32
576.376	1501.01
576.578	1508.37
576.78	1593.43
576.982	1462.26
577.185	1511.08
577.387	1462.45
577.589	1428.55
577.791	1524.84
577.993	1511.47
578.196	1482.02
578.398	1483.38
578.6	1513.6
578.802	1428.74
579.004	1408.2
579.206	1437.27
579.408	1456.06
579.61	1441.92
579.812	1499.46
580.014	1448.5
580.216	1453.15
580.418	1476.4
580.62	1439.59
580.822	1386.12
581.024	1459.74
581.226	1527.55
581.428	1445.79
581.63	1567.08
581.832	1442.3
582.034	1523.29
582.236	1485.51
582.438	1553.71
582.64	1530.65
582.841	1540.73
583.043	1588.19
583.245	1485.9
583.447	1531.81
583.649	1455.87
583.85	1507.6
584.052	1536.08
584.254	1451.8
584.456	1506.43
584.657	1428.35
584.859	1511.86
585.061	1474.85
585.262	1487.64
585.464	1454.7
585.666	1490.74
585.867	1431.45
586.069	1489.96
586.27	1470.59
586.472	1423.32
586.674	1445.6
586.875	1389.41
587.077	1439.2
587.278	1476.98
587.48	1424.48
587.681	1554.48
587.883	1430.29
588.084	1404.13
588.285	1412.85
588.487	1379.53
588.688	1399.48
588.89	1333.03
589.091	1298.93
589.292	1291.18
589.494	1246.04
589.695	1290.02
589.896	1222.79
590.098	1195.47
590.299	1262.89
590.5	1226.86
590.702	1256.69
590.903	1285.76
591.104	1356.47
591.305	1334
591.507	1373.33
591.708	1323.34
591.909	1327.02
592.11	1385.53
592.311	1363.06
592.512	1315.79
592.714	1271.22
592.915	1285.76
593.116	1321.79
593.317	1306.29
593.518	1332.25
593.719	1296.41
593.92	1350.66
594.121	1376.04
594.322	1324.7
594.523	1340.2
594.724	1260.96
594.925	1286.34
595.126	1301.25
595.327	1324.5
595.528	1327.02
595.729	1341.36
595.929	1300.09
596.13	1313.46
596.331	1334.58
596.532	1348.72
596.733	1381.66
596.934	1324.5
597.135	1327.99
597.335	1358.8
597.536	1299.12
597.737	1338.26
597.938	1309.78
598.138	1332.06
598.339	1297.19
598.54	1315.98
598.74	1321.4
598.941	1319.85
599.142	1356.28
599.342	1347.37
599.543	1321.6
599.744	1307.07
599.944	1310.55
600.145	1271.61
600.345	1330.32
600.546	1396.97
600.746	1367.71
600.947	1397.55
601.147	1307.07
601.348	1378.37
601.548	1290.99
601.749	1315.2
601.949	1251.85
602.15	1262.31
602.35	1287.89
602.551	1341.55
602.751	1250.49
602.951	1274.91
603.152	1232.86
603.352	1290.99
603.552	1279.56
603.753	1317.14
603.953	1334.77
604.153	1298.15
604.354	1312.1
604.554	1297.77
604.754	1305.52
604.954	1263.28
605.155	1309.78
605.355	1289.44
605.555	1327.22
605.755	1337.49
605.955	1282.27
606.155	1370.23
606.356	1293.31
606.556	1307.84
606.756	1278.59
606.956	1246.04
607.156	1316.95
607.356	1283.62
607.556	1310.75
607.756	1271.61
607.956	1327.6
608.156	1288.27
608.356	1259.02
608.556	1308.23
608.756	1264.06
608.956	1228.21
609.156	1289.24
609.356	1271.03
609.556	1208.64
609.755	1265.02
609.955	1253.59
610.155	1268.51
610.355	1273.16
610.555	1249.33
610.755	1259.41
610.954	1171.44
611.154	1221.62
611.354	1257.86
611.554	1204.96
611.753	1221.82
611.953	1181.52
612.153	1268.71
612.352	1228.6
612.552	1193.53
612.752	1161.18
612.951	1221.43
613.151	1186.36
613.351	1173.58
613.55	1247.39
613.75	1240.81
613.949	1176.29
614.149	1208.45
614.348	1195.86
614.548	1169.31
614.747	1100.53
614.947	1140.44
615.146	1096.08
615.346	1207.29
615.545	1181.71
615.745	1188.11
615.944	1197.21
616.144	1184.04
616.343	1192.37
616.542	1131.73
616.742	1129.79
616.941	1189.27
617.14	1087.55
617.34	1161.95
617.539	1175.13
617.738	1154.39
617.938	1228.41
618.137	1113.13
618.336	1131.92
618.535	1158.85
618.734	1155.94
618.934	1140.44
619.133	1159.63
619.332	1161.76
619.531	1090.46
619.73	1145.68
619.929	1181.71
620.128	1177.45
620.328	1216.39
620.527	1095.11
620.726	1124.94
620.925	1167.57
621.124	1123.01
621.323	1191.59
621.522	1093.95
621.721	1078.45
621.92	1082.51
622.119	1134.83
622.318	1121.26
622.517	1137.34
622.715	1125.33
622.914	1082.13
623.113	1103.83
623.312	1043.96
623.511	1100.92
623.71	1104.8
623.909	1067.98
624.107	1130.76
624.306	1047.64
624.505	1070.89
624.704	1068.95
624.902	1057.33
625.101	1120.49
625.3	1108.28
625.499	1023.81
625.697	1044.35
625.896	1029.23
626.095	1100.15
626.293	1026.71
626.492	1011.22
626.69	1081.74
626.889	1044.93
627.088	1111.19
627.286	1062.17
627.485	1034.08
627.683	1033.5
627.882	1045.7
628.08	974.79
628.279	1013.73
628.477	1077.28
628.676	995.33
628.874	1002.3
629.073	974.4
629.271	1008.7
629.469	1029.23
629.668	1021.29
629.866	1009.67
630.065	993.78
630.263	993.2
630.461	990.1
630.66	1016.25
630.858	989.13
631.056	1037.18
631.254	1064.11
631.453	984.28
631.651	1072.44
631.849	1035.82
632.047	997.27
632.245	1022.07
632.444	1033.88
632.642	1014.51
632.84	1021.68
633.038	1002.88
633.236	960.45
633.434	1017.03
633.632	975.95
633.83	957.74
634.028	1036.6
634.227	1022.45
634.425	1113.13
634.623	1032.53
634.821	1042.99
635.019	1005.98
635.216	970.92
635.414	1038.73
635.612	1015.87
635.81	1009.28
636.008	1073.8
636.206	1033.11
636.404	1041.05
636.602	976.15
636.8	981.96
636.997	1051.51
637.195	1036.6
637.393	1026.13
637.591	1056.16
637.789	1013.73
637.986	1016.25
638.184	984.67
638.382	1081.74
638.58	1030.01
638.777	1102.47
638.975	1027.1
639.173	1014.9
639.37	980.6
639.568	1009.86
639.765	1013.35
639.963	1003.85
640.161	1031.95
640.358	1069.73
640.556	980.99
640.753	981.96
640.951	954.06
641.148	1001.33
641.346	1000.95
641.543	978.47
641.741	994.36
641.938	932.75
642.136	1006.76
642.333	948.83
642.531	1012.38
642.728	1026.71
642.925	958.13
643.123	960.65
643.32	995.91
643.517	995.52
643.715	978.28
643.912	937.59
644.109	993.58
644.306	944.37
644.504	930.42
644.701	986.42
644.898	992.81
645.095	931.97
645.293	927.9
645.49	998.82
645.687	957.55
645.884	969.56
646.081	887.41
646.278	931.59
646.475	949.02
646.672	913.18
646.87	932.17
647.067	912.79
647.264	916.47
647.461	891.87
647.658	850.02
647.855	910.08
648.052	845.37
648.249	788.41
648.446	850.6
648.642	870.94
648.839	868.23
649.036	865.13
649.233	836.26
649.43	805.26
649.627	813.79
649.824	802.74
650.021	842.46
650.217	819.79
650.414	819.41
650.611	872.69
650.808	889.35
651.004	874.43
651.201	869
651.398	919.38
651.595	858.15
651.791	849.44
651.988	850.6
652.185	832.19
652.381	891.29
652.578	798.67
652.775	851.95
652.971	840.52
653.168	869.59
653.364	881.02
653.561	798.87
653.757	856.6
653.954	867.07
654.15	850.41
654.347	895.94
654.543	845.76
654.74	800.22
654.936	805.65
655.133	837.62
655.329	822.31
655.525	827.54
655.722	846.14
655.918	769.61
656.115	808.17
656.311	707.81
656.507	717.69
656.704	681.26
656.9	698.7
657.096	733.58
657.292	711.49
657.489	780.46
657.685	756.83
657.881	746.56
658.077	807.01
658.273	792.86
658.47	855.64
658.666	796.54
658.862	792.86
659.058	792.67
659.254	835.49
659.45	793.25
659.646	810.69
659.842	794.22
660.038	821.15
660.234	757.21
660.43	788.99
660.626	886.25
660.822	825.8
661.018	836.07
661.214	811.66
661.41	753.34
661.606	802.94
661.802	814.56
661.998	800.22
662.194	781.43
662.39	838.01
662.586	818.05
662.781	836.07
662.977	791.7
663.173	847.11
663.369	808.94
663.564	807.78
663.76	834.71
663.956	761.67
664.152	828.32
664.347	743.65
664.543	800.22
664.739	786.47
664.934	719.24
665.13	735.9
665.326	811.27
665.521	794.61
665.717	753.73
665.912	738.42
666.108	719.82
666.304	748.3
666.499	736.87
666.695	676.81
666.89	753.73
667.086	789.37
667.281	779.88
667.477	811.07
667.672	758.38
667.867	768.26
668.063	770.39
668.258	718.46
668.454	737.84
668.649	814.95
668.844	757.02
669.04	768.84
669.235	749.46
669.43	720.4
669.626	692.11
669.821	760.12
670.016	729.31
670.211	709.55
670.407	680.49
670.602	745.59
670.797	718.08
670.992	765.35
671.187	714.98
671.382	745.01
671.578	689.4
671.773	730.86
671.968	692.89
672.163	725.44
672.358	761.48
672.553	688.24
672.748	700.06
672.943	739
673.138	717.88
673.333	747.91
673.528	697.15
673.723	729.89
673.918	692.5
674.113	670.61
674.308	788.21
674.503	713.04
674.698	741.91
674.892	735.9
675.087	766.12
675.282	725.44
675.477	697.54
675.672	736.87
675.867	708
676.061	668.86
676.256	680.68
676.451	694.83
676.646	677
676.84	653.36
677.035	659.37
677.23	649.1
677.424	730.67
677.619	755.47
677.814	716.91
678.008	719.24
678.203	653.75
678.397	679.91
678.592	693.86
678.787	754.11
678.981	684.75
679.176	691.73
679.37	696.38
679.565	686.11
679.759	668.09
679.954	698.51
680.148	767.67
680.342	765.35
680.537	729.7
680.731	674.29
680.926	726.6
681.12	715.56
681.314	676.42
681.509	697.93
681.703	654.33
681.897	730.48
682.092	675.45
682.286	680.68
682.48	741.13
682.674	743.84
682.869	694.63
683.063	695.6
683.257	751.21
683.451	671
683.645	711.88
683.839	700.06
684.034	704.9
684.228	745.78
684.422	653.95
684.616	671.19
684.81	726.02
685.004	685.91
685.198	711.88
685.392	704.71
685.586	691.92
685.78	712.26
685.974	754.5
686.168	705.09
686.362	754.5
686.556	658.79
686.75	660.15
686.944	617.52
687.138	627.79
687.331	524.91
687.525	553.39
687.719	487.52
687.913	534.02
688.107	570.83
688.301	524.91
688.494	600.47
688.688	520.84
688.882	499.14
689.076	524.33
689.269	561.33
689.463	656.46
689.657	571.22
689.85	566.76
690.044	592.91
690.238	556.68
690.431	577.03
690.625	592.14
690.818	616.16
691.012	635.54
691.205	676.81
691.399	621.2
691.593	640.58
691.786	717.49
691.98	704.13
692.173	758.96
692.366	733.96
692.56	752.76
692.753	744.62
692.947	666.54
693.14	763.61
693.333	737.64
693.527	701.61
693.72	774.65
693.914	738.61
694.107	713.04
694.3	719.63
694.493	745.78
694.687	822.51
694.88	754.11
695.073	829.09
695.266	821.15
695.46	829.87
695.653	840.52
695.846	841.3
696.039	771.16
696.232	793.25
696.425	878.3
696.618	884.5
696.812	871.33
697.005	919.57
697.198	992.81
697.391	930.81
697.584	957.16
697.777	1025.94
697.97	1000.37
698.163	1012.38
698.356	963.17
698.549	1044.73
698.742	1047.25
698.935	1016.25
699.127	1050.93
699.32	978.47
699.513	1001.53
699.706	1039.5
699.899	1069.73
700.092	1050.93
700.285	1099.95
700.477	993.2
700.67	1124.75
700.863	1066.24
701.056	1177.06
701.248	1146.45
701.441	1143.74
701.634	1108.09
701.826	1219.11
702.019	1122.43
702.212	1179.78
702.404	1154.59
702.597	1142.77
702.79	1152.26
702.982	1172.61
703.175	1251.66
703.367	1250.11
703.56	1268.51
703.752	1340.78
703.945	1290.99
704.137	1296.02
704.33	1358.02
704.522	1341.55
704.715	1345.62
704.907	1397.16
705.1	1415.95
705.292	1416.15
705.484	1404.72
705.677	1455.48
705.869	1441.53
706.061	1486.28
706.254	1538.01
706.446	1462.07
706.638	1472.72
706.831	1546.35
707.023	1507.01
707.215	1612.22
707.407	1568.24
707.599	1576.18
707.792	1640.89
707.984	1592.26
708.176	1637.02
708.368	1604.66
708.56	1631.21
708.752	1639.34
708.944	1613.96
709.136	1690.69
709.329	1684.1
709.521	1791.44
709.713	1757.92
709.905	1741.45
710.097	1768.77
710.289	1770.7
710.481	1788.72
710.672	1792.21
710.864	1800.74
711.056	1875.72
711.248	1841.81
711.44	1825.53
711.632	1850.14
711.824	1896.64
712.016	1958.06
712.207	1905.36
712.399	1908.46
712.591	1978.79
712.783	1973.36
712.975	1960
713.166	1942.56
713.358	1971.81
713.55	2033.43
713.741	2004.17
713.933	2040.4
714.125	1991.77
714.316	2029.94
714.508	2058.81
714.7	2083.22
714.891	2052.41
715.083	2144.64
715.274	2081.47
715.466	2089.42
715.657	2119.26
715.849	2027.42
716.04	2115.96
716.232	2029.74
716.423	2089.61
716.615	2004.75
716.806	1949.34
716.998	1919.89
717.189	1879.01
717.381	1776.52
717.572	1762.37
717.763	1776.13
717.955	1774
718.146	1750.36
718.337	1665.31
718.528	1640.51
718.72	1628.11
718.911	1642.25
719.102	1601.18
719.293	1667.24
719.485	1600.98
719.676	1645.16
719.867	1566.88
720.058	1617.26
720.249	1616.09
720.44	1619.39
720.632	1644.38
720.823	1739.12
721.014	1840.45
721.205	1889.47
721.396	1921.05
721.587	2027.03
721.778	2069.46
721.969	2101.24
722.16	2159.36
722.351	2166.53
722.542	2262.24
722.733	2294.6
722.924	2172.92
723.115	2229.11
723.305	2220.2
723.496	2212.25
723.687	2111.7
723.878	2119.84
724.069	2111.12
724.26	2163.04
724.45	2069.66
724.641	2033.43
724.832	2083.22
725.023	2028.39
725.213	2064.81
725.404	2021.03
725.595	2069.46
725.785	2038.08
725.976	2120.61
726.167	2085.93
726.357	2093.49
726.548	2201.99
726.739	2082.64
726.929	2176.22
727.12	2159.75
727.31	2240.74
727.501	2176.22
727.691	2186.49
727.882	2168.47
728.072	2245.58
728.263	2218.45
728.453	2245.77
728.644	2226.79
728.834	2250.81
729.024	2238.6
729.215	2193.85
729.405	2255.65
729.596	2300.02
729.786	2288.2
729.976	2310.29
730.167	2316.88
730.357	2319.01
730.547	2294.02
730.737	2358.34
730.928	2385.27
731.118	2396.12
731.308	2385.08
731.498	2373.84
731.688	2445.53
731.879	2488.15
732.069	2498.03
732.259	2547.82
732.449	2561.58
732.639	2651.09
732.829	2608.47
733.019	2666.59
733.209	2758.43
733.399	2750.48
733.589	2834.38
733.779	2845.61
733.969	2811.13
734.159	2892.69
734.349	2895.21
734.539	2953.34
734.729	2941.91
734.919	3009.72
735.109	3012.43
735.299	2981.24
735.488	2992.28
735.678	3000.61
735.868	3001.77
736.058	2970.97
736.248	3006.04
736.437	2927.57
736.627	2935.9
736.817	3070.17
737.007	2944.04
737.196	3026.38
737.386	3026.38
737.576	3009.14
737.765	3060.09
737.955	3025.61
738.144	3107.95
738.334	3096.32
738.524	3022.89
738.713	3070.17
738.903	3086.05
739.092	3137.78
739.282	3075.4
739.471	3140.88
739.661	3067.84
739.85	3149.41
740.04	3159.68
740.229	3206.95
740.419	3215.86
740.608	3208.7
740.797	3225.36
740.987	3255.58
741.176	3243.96
741.365	3173.82
741.555	3155.8
741.744	3241.44
741.933	3208.5
742.123	3247.64
742.312	3242.21
742.501	3297.43
742.69	3285.61
742.88	3184.28
743.069	3330.37
743.258	3235.82
743.447	3354.39
743.636	3294.72
743.825	3280.38
744.014	3318.55
744.204	3321.46
744.393	3253.45
744.582	3336.57
744.771	3382.68
744.96	3303.63
745.149	3352.07
745.338	3274.76
745.527	3370.86
745.716	3309.44
745.905	3302.08
746.094	3352.07
746.283	3348.78
746.471	3330.95
746.66	3410.19
746.849	3387.52
747.038	3397.79
747.227	3340.25
747.416	3363.69
747.604	3338.7
747.793	3316.61
747.982	3372.8
748.171	3352.07
748.359	3401.86
748.548	3360.59
748.737	3354.01
748.926	3331.34
749.114	3231.95
749.303	3334.05
749.491	3322.62
749.68	3280
749.869	3343.74
750.057	3317.97
750.246	3330.37
750.434	3293.17
750.623	3267.21
750.811	3304.99
751	3356.91
751.188	3281.16
751.377	3276.12
751.565	3293.17
751.754	3294.33
751.942	3231.36
752.131	3337.73
752.319	3247.06
752.507	3225.94
752.696	3297.82
752.884	3288.33
753.072	3230.2
753.261	3270.5
753.449	3268.37
753.637	3234.27
753.825	3373.96
754.014	3243.38
754.202	3278.25
754.39	3292.59
754.578	3286.97
754.766	3223.61
754.955	3185.83
755.143	3295.11
755.331	3186.42
755.519	3209.86
755.707	3230.01
755.895	3187.97
756.083	3189.32
756.271	3206.18
756.459	3154.64
756.647	3226.71
756.835	3134.1
757.023	3175.37
757.211	3185.64
757.399	3153.28
757.587	3156.77
757.775	3068.04
757.963	3153.09
758.151	3145.53
758.339	3090.51
758.526	3076.37
758.714	3082.76
758.902	2999.26
759.09	2902.19
759.278	2737.31
759.465	2513.72
759.653	2189.39
759.841	1975.11
760.028	1738.74
760.216	1461.68
760.404	1411.5
760.591	1157.88
760.779	974.79
760.967	841.3
761.154	702.38
761.342	724.28
761.529	745.39
761.717	804.87
761.905	769.42
762.092	849.63
762.28	803.32
762.467	784.34
762.655	736.29
762.842	757.6
763.029	793.06
763.217	790.34
763.404	807.39
763.592	828.51
763.779	738.81
763.966	806.42
764.154	877.72
764.341	945.92
764.528	940.3
764.716	1006.76
764.903	1016.25
765.09	1097.24
765.277	1140.25
765.465	1296.41
765.652	1332.84
765.839	1409.17
766.026	1513.41
766.213	1577.15
766.4	1682.55
766.588	1828.44
766.775	1844.72
766.962	1913.5
767.149	1990.03
767.336	2175.64
767.523	2108.21
767.71	2243.84
767.897	2339.74
768.084	2405.42
768.271	2401.35
768.458	2461.61
768.645	2541.82
768.832	2501.33
769.019	2533.29
769.206	2586.57
769.392	2657.29
769.579	2769.47
769.766	2695.07
769.953	2669.11
770.14	2741.18
770.327	2728.2
770.513	2772.77
770.7	2835.35
770.887	2736.73
771.073	2798.92
771.26	2774.9
771.447	2776.83
771.634	2757.27
771.82	2870.99
772.007	2744.87
772.193	2763.66
772.38	2833.6
772.567	2803.38
772.753	2786.13
772.94	2837.67
773.126	2835.35
773.313	2839.8
773.499	2812.29
773.686	2815.78
773.872	2741.57
774.059	2821.59
774.245	2753.2
774.432	2796.79
774.618	2700.3
774.804	2772.18
774.991	2700.88
775.177	2839.8
775.363	2738.47
775.55	2818.88
775.736	2730.53
775.922	2720.26
776.109	2723.17
776.295	2750.29
776.481	2772.38
776.667	2760.56
776.853	2736.92
777.04	2704.57
777.226	2754.55
777.412	2791.75
777.598	2705.34
777.784	2684.42
777.97	2665.43
778.156	2712.51
778.342	2665.43
778.528	2651.48
778.715	2589.67
778.901	2667.17
779.087	2633.65
779.272	2619.12
779.458	2637.72
779.644	2650.7
779.83	2605.17
780.016	2711.35
780.202	2603.62
780.388	2607.89
780.574	2551.89
780.76	2589.48
780.946	2637.53
781.131	2602.85
781.317	2618.93
781.503	2572.43
781.689	2552.09
781.874	2697.78
782.06	2559.45
782.246	2634.43
782.432	2590.45
782.617	2580.76
782.803	2609.82
782.989	2538.33
783.174	2486.99
783.36	2536.2
783.545	2490.48
783.731	2530
783.916	2435.45
784.102	2550.92
784.288	2494.93
784.473	2498.23
784.659	2497.26
784.844	2555.38
785.029	2459.28
785.215	2475.56
785.4	2454.83
785.586	2500.94
785.771	2411.04
785.956	2480.98
786.142	2431.77
786.327	2399.61
786.512	2434.68
786.698	2453.28
786.883	2365.51
787.068	2369.77
787.254	2388.18
787.439	2421.11
787.624	2373.26
787.809	2381.2
787.994	2362.99
788.18	2433.9
788.365	2273.28
788.55	2349.81
788.735	2336.83
788.92	2298.67
789.105	2348.85
789.29	2347.1
789.475	2266.31
789.66	2263.21
789.845	2223.3
790.03	2245
790.215	2306.61
790.4	2324.05
790.585	2325.21
790.77	2254.68
790.955	2211.87
791.14	2238.02
791.325	2330.05
791.51	2240.74
791.695	2259.53
791.879	2211.87
792.064	2217.68
792.249	2299.25
792.434	2250.03
792.618	2242.09
792.803	2210.9
792.988	2206.64
793.173	2257.78
793.357	2275.22
793.542	2220.59
793.727	2232.02
793.911	2287.62
794.096	2252.55
794.281	2303.32
794.465	2338.19
794.65	2242.48
794.834	2293.24
795.019	2313.97
795.203	2313
795.388	2278.32
795.572	2338.38
795.757	2305.06
795.941	2300.99
796.126	2269.02
796.31	2211.29
796.494	2265.92
796.679	2240.93
796.863	2215.35
797.048	2304.87
797.232	2284.91
797.416	2237.44
797.601	2259.92
797.785	2331.02
797.969	2314.17
798.153	2270.18
798.338	2305.64
798.522	2334.9
798.706	2333.54
798.89	2287.43
799.074	2375.97
799.258	2335.87
799.443	2306.61
799.627	2284.33
799.811	2333.35
799.995	2297.7
800.179	2250.62
800.363	2253.33
800.547	2286.07
800.731	2306.22
800.915	2253.52
801.099	2256.62
801.283	2277.16
801.467	2275.03
801.651	2251.78
801.835	2350.59
802.019	2282
802.202	2306.61
802.386	2244.22
802.57	2222.91
802.754	2228.34
802.938	2265.73
803.121	2243.25
803.305	2307.19
803.489	2264.37
803.673	2276
803.856	2295.76
804.04	2256.43
804.224	2290.53
804.407	2243.45
804.591	2244.03
804.775	2274.45
804.958	2271.73
805.142	2379.26
805.326	2263.4
805.509	2286.07
805.693	2317.46
805.876	2322.11
806.06	2297.12
806.243	2348.85
806.427	2319.78
806.61	2332.18
806.794	2287.82
806.977	2325.21
807.16	2326.76
807.344	2348.85
807.527	2346.13
807.71	2282.2
807.894	2306.22
808.077	2333.73
808.26	2255.85
808.444	2276.97
808.627	2305.25
808.81	2204.7
808.993	2206.44
809.177	2209.15
809.36	2232.99
809.543	2260.3
809.726	2154.71
809.909	2160.91
810.092	2172.92
810.276	2151.03
810.459	2161.49
810.642	2151.61
810.825	2117.51
811.008	2133.98
811.191	2040.98
811.374	2032.65
811.557	2080.89
811.74	2118.09
811.923	2006.49
812.106	2033.62
812.289	1954.96
812.472	1962.13
812.654	2009.79
812.837	1941.78
813.02	1930.16
813.203	1913.88
813.386	1796.47
813.569	1805.39
813.751	1790.47
813.934	1804.22
814.117	1752.88
814.3	1742.42
814.482	1647.87
814.665	1664.34
814.848	1621.91
815.03	1574.83
815.213	1595.17
815.396	1567.46
815.578	1555.45
815.761	1515.15
815.943	1578.89
816.126	1488.03
816.309	1473.3
816.491	1418.08
816.674	1357.64
816.856	1409.37
817.039	1383.98
817.221	1487.83
817.403	1427.97
817.586	1414.79
817.768	1437.07
817.951	1368.68
818.133	1325.09
818.315	1417.5
818.498	1411.5
818.68	1473.88
818.862	1482.6
819.045	1454.51
819.227	1454.9
819.409	1405.68
819.591	1482.99
819.774	1447.92
819.956	1407.23
820.138	1515.93
820.32	1459.74
820.502	1520.96
820.684	1597.49
820.866	1556.61
821.048	1644.96
821.231	1649.22
821.413	1641.86
821.595	1597.49
821.777	1623.26
821.959	1578.7
822.141	1704.06
822.323	1521.55
822.505	1475.05
822.686	1456.64
822.868	1379.14
823.05	1313.65
823.232	1241.97
823.414	1220.07
823.596	1297.57
823.778	1260.96
823.96	1324.5
824.141	1317.92
824.323	1340.2
824.505	1401.42
824.687	1419.25
824.868	1476.01
825.05	1569.4
825.232	1566.88
825.413	1628.3
825.595	1588.58
825.777	1537.63
825.958	1602.73
826.14	1575.99
826.321	1619.58
826.503	1597.11
826.685	1594.39
826.866	1611.06
827.048	1606.41
827.229	1505.08
827.411	1515.73
827.592	1494.81
827.773	1487.64
827.955	1430.48
828.136	1451.02
828.318	1404.52
828.499	1440.56
828.68	1415.76
828.862	1468.85
829.043	1434.75
829.224	1431.45
829.406	1404.33
829.587	1397.93
829.768	1419.25
829.949	1451.22
830.131	1406.46
830.312	1482.8
830.493	1451.8
830.674	1430.48
830.855	1408.2
831.036	1405.1
831.218	1489.77
831.399	1477.18
831.58	1448.12
831.761	1431.84
831.942	1445.4
832.123	1416.73
832.304	1383.98
832.485	1423.32
832.666	1433.78
832.847	1431.07
833.028	1432.62
833.209	1391.73
833.389	1408.4
833.57	1354.34
833.751	1418.86
833.932	1464.78
834.113	1443.85
834.294	1395.03
834.475	1452.57
834.655	1469.04
834.836	1482.8
835.017	1463.81
835.198	1435.72
835.378	1449.67
835.559	1505.46
835.74	1424.28
835.92	1430.29
836.101	1396.19
836.281	1462.26
836.462	1427.58
836.643	1510.89
836.823	1531.23
837.004	1505.08
837.184	1531.62
837.365	1522.71
837.545	1535.69
837.726	1459.74
837.906	1516.9
838.087	1478.34
838.267	1471.95
838.448	1438.23
838.628	1493.45
838.808	1493.65
838.989	1535.69
839.169	1446.95
839.349	1487.83
839.53	1518.45
839.71	1553.32
839.89	1487.25
840.07	1560.88
840.251	1471.75
840.431	1512.05
840.611	1498.88
840.791	1463.61
840.971	1504.69
841.151	1477.37
841.332	1445.79
841.512	1518.64
841.692	1430.87
841.872	1482.6
842.052	1478.73
842.232	1518.06
842.412	1423.7
842.592	1457.42
842.772	1473.3
842.952	1483.96
843.132	1429.52
843.312	1458.19
843.492	1399.1
843.672	1490.93
843.851	1383.6
844.031	1447.53
844.211	1448.7
844.391	1417.12
844.571	1411.3
844.751	1439.98
844.93	1418.67
845.11	1416.92
845.29	1433
845.47	1474.46
845.649	1429.9
845.829	1436.88
846.009	1409.75
846.188	1459.74
846.368	1441.53
846.547	1421.77
846.727	1464.58
846.907	1399.87
847.086	1448.89
847.266	1443.47
847.445	1434.55
847.625	1396.77
847.804	1398.32
847.984	1395.03
848.163	1354.73
848.343	1363.84
848.522	1428.93
848.701	1420.02
848.881	1381.47
849.06	1389.41
849.239	1407.43
849.419	1417.5
849.598	1322.37
849.777	1290.79
849.957	1342.33
850.136	1270.64
850.315	1248.94
850.494	1271.42
850.674	1239.84
850.853	1361.12
851.032	1314.04
851.211	1322.37
851.39	1306.87
851.569	1270.06
851.748	1253.4
851.927	1339.23
852.107	1297.96
852.286	1246.23
852.465	1244.87
852.644	1310.36
852.823	1296.41
853.002	1300.48
853.181	1279.36
853.359	1284.59
853.538	1243.13
853.717	1326.44
853.896	1231.51
854.075	1142.19
854.254	1153.62
854.433	1076.12
854.611	1146.06
854.79	1099.18
854.969	1110.22
855.148	1144.71
855.327	1122.62
855.505	1158.85
855.684	1127.27
855.863	1179
856.041	1185.01
856.22	1193.34
856.399	1162.34
856.577	1265.99
856.756	1245.26
856.934	1332.84
857.113	1300.48
857.291	1220.07
857.47	1226.47
857.648	1295.64
857.827	1244.68
858.005	1292.92
858.184	1202.44
858.362	1272.58
858.541	1236.54
858.719	1234.02
858.898	1217.56
859.076	1211.55
859.254	1278.2
859.433	1217.36
859.611	1189.66
859.789	1160.4
859.967	1285.56
860.146	1264.25
860.324	1208.26
860.502	1203.61
860.68	1197.02
860.859	1193.53
861.037	1179.58
861.215	1221.82
861.393	1201.86
861.571	1191.01
861.749	1157.3
861.927	1201.09
862.105	1196.05
862.283	1193.14
862.461	1140.64
862.639	1121.26
862.817	1169.12
862.995	1155.36
863.173	1164.08
863.351	1120.1
863.529	1156.91
863.707	1219.11
863.885	1150.52
864.063	1104.99
864.241	1098.4
864.418	1193.73
864.596	1148.78
864.774	1118.36
864.952	1131.53
865.129	1156.33
865.307	1096.08
865.485	1069.34
865.663	1154.59
865.84	1082.32
866.018	1111.77
866.196	971.3
866.373	1017.61
866.551	963.75
866.728	937.01
866.906	964.91
867.084	996.49
867.261	1011.22
867.439	1004.43
867.616	1043.18
867.794	1052.68
867.971	1067.6
868.149	1037.56
868.326	1086.39
868.503	1067.21
868.681	1065.85
868.858	1048.03
869.035	1023.62
869.213	1057.71
869.39	1039.11
869.567	1104.99
869.745	1039.11
869.922	1063.53
870.099	1078.83
870.276	1096.27
870.454	1065.66
870.631	1072.44
870.808	1038.53
870.985	1082.9
871.162	1108.48
871.339	1063.33
871.517	1000.75
871.694	1041.63
871.871	1005.21
872.048	1035.24
872.225	1016.06
872.402	1073.02
872.579	998.62
872.756	1050.93
872.933	987.97
873.11	1007.53
873.287	1050.55
873.463	1005.21
873.64	995.13
873.817	1022.26
873.994	1025.55
874.171	952.7
874.348	1025.55
874.524	913.57
874.701	1005.98
874.878	936.43
875.055	988.16
875.231	981.18
875.408	1023.42
875.585	906.2
875.762	990.48
875.938	946.7
876.115	976.53
876.291	930.04
876.468	954.64
876.645	909.89
876.821	918.6
876.998	972.27
877.174	978.86
877.351	944.95
877.527	913.76
877.704	935.85
877.88	965.1
878.057	922.87
878.233	949.99
878.409	949.02
878.586	956.58
878.762	953.67
878.938	931.78
879.115	824.64
879.291	923.64
879.467	869
879.644	898.65
879.82	937.79
879.996	911.63
880.172	831.22
880.349	883.34
880.525	954.06
880.701	865.13
880.877	866.29
881.053	889.35
881.229	857.57
881.405	890.51
881.581	876.56
881.757	884.7
881.933	903.88
882.109	882.57
882.285	912.02
882.461	832
882.637	870.55
882.813	868.62
882.989	915.89
883.165	914.73
883.341	851.76
883.517	918.02
883.693	909.3
883.869	923.06
884.044	852.92
884.22	891.48
884.396	936.43
884.572	886.44
884.747	934.3
884.923	895.94
885.099	930.23
885.275	906.2
885.45	859.51
885.626	882.76
885.801	862.8
885.977	846.92
886.153	801.97
886.328	890.7
886.504	833.16
886.679	901.75
886.855	829.09
887.03	904.46
887.206	893.8
887.381	885.28
887.557	889.35
887.732	900.97
887.908	900.2
888.083	888.57
888.258	843.04
888.434	883.73
888.609	869.78
888.784	918.99
888.96	873.85
889.135	871.72
889.31	833.16
889.485	887.99
889.661	867.65
889.836	911.24
890.011	890.32
890.186	864.16
890.361	855.44
890.537	865.52
890.712	886.64
890.887	895.55
891.062	861.64
891.237	928.87
891.412	861.06
891.587	883.34
891.762	892.64
891.937	906.79
892.112	785.69
892.287	851.18
892.462	820.96
892.637	800.61
892.812	816.31
892.987	782.79
893.161	769.42
893.336	803.91
893.511	813.59
893.686	797.71
893.861	776.2
894.035	785.11
894.21	803.32
894.385	742.49
894.56	785.11
894.734	731.44
894.909	715.36
895.084	712.65
895.258	696.76
895.433	727.76
895.608	722.53
895.782	673.13
895.957	682.43
896.131	654.14
896.306	622.17
896.48	613.26
896.655	612.29
896.829	572.57
897.004	560.95
897.178	560.75
897.353	575.67
897.527	636.31
897.701	600.86
897.876	550.1
898.05	645.03
898.224	589.04
898.399	628.56
898.573	625.27
898.747	498.75
898.921	546.8
899.096	449.74
899.27	485.19
899.444	484.61
899.618	516.58
899.792	506.89
899.967	537.7
900.141	551.26
900.315	501.66
900.489	512.32
900.663	529.75
900.837	501.47
901.011	492.94
901.185	563.08
901.359	500.89
901.533	531.5
901.707	510.38
901.881	521.81
902.055	471.82
902.229	511.35
902.403	548.35
902.576	522
902.75	501.85
902.924	625.46
903.098	575.87
903.272	609
903.446	646.97
903.619	604.54
903.793	620.04
903.967	619.46
904.14	682.62
904.314	647.75
904.488	639.61
904.661	679.52
904.835	640.96
905.009	692.11
905.182	721.76
905.356	674.1
905.529	632.83
905.703	578.58
905.876	632.83
906.05	602.8
906.223	581.48
906.397	544.67
906.57	523.75
906.744	487.52
906.917	515.03
907.09	507.47
907.264	498.56
907.437	473.95
907.61	467.95
907.784	458.84
907.957	483.84
908.13	463.3
908.304	502.24
908.477	465.43
908.65	493.14
908.823	448.96
908.996	518.13
909.17	452.06
909.343	458.07
909.516	449.35
909.689	470.27
909.862	436.95
910.035	466.01
910.208	431.91
910.381	442.18
910.554	531.5
910.727	440.44
910.9	458.45
911.073	429.97
911.246	525.88
911.419	500.3
911.592	468.72
911.765	428.81
911.938	434.04
912.11	450.7
912.283	420.29
912.456	500.3
912.629	452.45
912.802	430.55
912.974	377.47
913.147	370.3
913.32	321.09
913.493	357.32
913.665	383.86
913.838	365.07
914.01	378.63
914.183	413.7
914.356	382.12
914.528	441.4
914.701	455.35
914.873	458.07
915.046	387.35
915.218	359.26
915.391	327.48
915.563	312.18
915.736	391.81
915.908	410.6
916.081	411.96
916.253	363.13
916.425	374.17
916.598	436.56
916.77	406.14
916.942	377.86
917.115	302.49
917.287	409.63
917.459	369.72
917.632	308.69
917.804	295.71
917.976	357.32
918.148	356.54
918.32	361.19
918.493	399.75
918.665	454.58
918.837	390.45
919.009	428.23
919.181	439.85
919.353	404.59
919.525	403.43
919.697	408.66
919.869	401.69
920.041	471.63
920.213	505.73
920.385	441.21
920.557	413.89
920.729	440.82
920.901	403.04
921.073	407.31
921.244	397.23
921.416	420.48
921.588	401.88
921.76	408.08
921.932	473.37
922.103	387.93
922.275	378.44
922.447	393.36
922.619	341.62
922.79	391.61
922.962	372.82
923.134	421.45
923.305	379.02
923.477	349.37
923.648	333.87
923.82	378.24
923.991	292.41
924.163	312.37
924.335	349.96
924.506	323.41
924.677	395.87
924.849	294.93
925.02	362.55
925.192	383.67
925.363	367.39
925.535	366.23
925.706	348.21
925.877	392.19
926.049	324.96
926.22	342.79
926.391	353.25
926.562	379.41
926.734	335.62
926.905	385.61
927.076	305.59
927.247	330
927.419	272.84
927.59	270.52
927.761	296.09
927.932	265.68
928.103	298.03
928.274	234.48
928.445	252.11
928.616	265.09
928.787	262.77
928.958	292.03
929.129	245.72
929.3	243.59
929.471	222.28
929.642	174.42
929.813	144.39
929.984	227.9
930.155	152.91
930.326	219.18
930.496	173.84
930.667	106.03
930.838	138.97
931.009	114.55
931.18	162.8
931.35	137.03
931.521	158.73
931.692	95.18
931.863	60.11
932.033	96.53
932.204	125.6
932.374	123.66
932.545	67.86
932.716	129.86
932.886	138
933.057	37.83
933.227	75.61
933.398	154.27
933.568	27.95
933.739	4.12
933.909	48.68
934.08	110.87
934.25	15.74
934.421	42.67
934.591	69.02
934.761	31.44
934.932	11.09
935.102	35.31
935.272	55.07
935.443	32.4
935.613	44.03
935.783	68.83
935.953	12.64
936.123	151.17
936.294	18.65
936.464	24.85
936.634	45.77
936.804	20
936.974	17.87
937.144	43.06
937.314	26.98
937.484	13.42
937.655	38.6
937.825	81.42
937.995	-5.38
938.165	127.34
938.334	49.65
938.504	45.58
938.674	59.92
938.844	53.91
939.014	113.97
939.184	79.1
939.354	143.23
939.524	125.02
939.694	48.49
939.863	84.33
940.033	121.92
940.203	145.94
940.373	89.17
940.542	120.75
940.712	56.62
940.882	116.3
941.051	117.07
941.221	116.49
941.391	133.93
941.56	85.49
941.73	62.24
941.899	161.25
942.069	70.57
942.238	90.92
942.408	68.63
942.577	105.06
942.747	80.84
942.916	39.38
943.086	45.19
943.255	135.87
943.425	79.48
943.594	59.34
943.763	0.05
943.933	40.93
944.102	6.83
944.271	57.01
944.441	73.48
944.61	35.31
944.779	85.49
944.948	133.54
945.117	33.95
945.287	50.23
945.456	13.61
945.625	8.77
945.794	79.29
945.963	34.54
946.132	80.65
946.301	63.99
946.47	63.21
946.639	13.03
946.808	12.25
946.977	111.65
947.146	106.42
947.315	42.87
947.484	92.85
947.653	52.17
947.822	40.93
947.991	31.44
948.16	114.36
948.329	96.73
948.498	48.29
948.666	69.8
948.835	92.47
949.004	16.32
949.173	18.45
949.341	58.95
949.51	70.96
949.679	128.31
949.847	71.93
950.016	122.3
950.185	125.98
950.353	28.92
950.522	63.4
950.69	107.38
950.859	40.35
951.028	119.4
951.196	69.99
951.365	33.76
951.533	87.23
951.701	100.22
951.87	95.95
952.038	44.22
952.207	68.83
952.375	126.37
952.543	65.92
952.712	37.83
952.88	18.84
953.048	148.65
953.217	81.42
953.385	64.57
953.553	103.32
953.721	50.23
953.89	77.93
954.058	43.45
954.226	38.8
954.394	65.53
954.562	4.5
954.73	74.64
954.898	66.12
955.067	117.46
955.235	64.76
955.403	124.05
955.571	139.74
955.739	83.36
955.907	44.61
956.075	24.27
956.243	26.4
956.41	63.6
956.578	12.25
956.746	32.79
956.914	38.99
957.082	91.5
957.25	93.05
957.418	52.17
957.585	65.34
957.753	126.57
957.921	43.64
958.089	79.87
958.256	79.68
958.424	81.23
958.592	62.63
958.759	27.75
958.927	98.67
959.095	45.97
959.262	82
959.43	81.42
959.597	30.66
959.765	42.29
959.932	5.47
960.1	71.35
960.267	72.12
960.435	54.1
960.602	106.03
960.77	47.52
960.937	23.1
961.104	56.24
961.272	14.97
961.439	42.48
961.606	58.95
961.774	110.68
961.941	49.26
962.108	96.92
962.275	92.85
962.443	117.07
962.61	76.38
962.777	131.02
962.944	83.75
963.111	61.85
963.278	63.79
963.446	82.78
963.613	75.61
963.78	65.15
963.947	86.07
964.114	68.44
964.281	169.96
964.448	98.28
964.615	69.02
964.782	76.19
964.949	96.92
965.116	96.15
965.282	108.93
965.449	49.65
965.616	45.97
965.783	117.85
965.95	86.07
966.117	58.95
966.283	62.82
966.45	75.8
966.617	69.41
966.784	111.07
966.95	111.84
967.117	107.97
967.284	42.87
967.45	68.05
967.617	109.13
967.784	116.1
967.95	161.44
968.117	71.93
968.283	92.47
968.45	206.58
968.616	130.83
968.783	125.98
968.949	106.42
969.116	144.58
969.282	82
969.449	97.31
969.615	83.36
969.781	63.02
969.948	84.91
970.114	37.05
970.28	148.07
970.447	111.07
970.613	175.2
970.779	76.58
970.945	127.15
971.112	84.91
971.278	86.46
971.444	110.87
971.61	133.35
971.776	74.83
971.942	107.77
972.108	119.98
972.275	96.15
972.441	111.07
972.607	158.73
972.773	54.1
972.939	108.74
973.105	95.95
973.271	38.41
973.437	62.44
973.602	46.94
973.768	96.34
973.934	85.49
974.1	94.4
974.266	4.89
974.432	81.62
974.598	48.68
974.763	105.06
974.929	80.07
975.095	141.1
975.261	56.24
975.426	55.07
975.592	69.8
975.758	140.9
975.923	40.35
976.089	54.49
976.255	106.61
976.42	97.5
976.586	88.78
976.751	112.81
976.917	157.18
977.082	113.39
977.248	21.17
977.413	18.07
977.579	71.15
977.744	101.38
977.91	51.59
978.075	67.47
978.24	113.97
978.406	82.39
978.571	65.15
978.736	22.72
978.902	91.88
979.067	45.19
979.232	15.16
979.397	76.97
979.563	140.71
979.728	36.67
979.893	73.87
980.058	59.92
980.223	107.97
980.388	90.72
980.554	80.26
980.719	49.45
980.884	95.57
981.049	96.92
981.214	59.34
981.379	76
981.544	67.28
981.709	59.92
981.874	53.72
982.039	80.84
982.204	99.63
982.368	75.03
982.533	60.69
982.698	92.85
982.863	121.14
983.028	46.74
983.193	95.95
983.357	87.43
983.522	90.72
983.687	66.89
983.852	85.68
984.016	66.89
984.181	85.88
984.346	94.6
984.51	102.93
984.675	83.36
984.839	88.2
985.004	75.8
985.168	111.45
985.333	71.93
985.498	63.79
985.662	102.35
985.827	88.98
985.991	90.33
986.155	65.92
986.32	105.25
986.484	107.38
986.649	88.4
986.813	20.59
986.977	81.42
987.142	110.68
987.306	34.15
987.47	60.69
987.634	72.32
987.799	92.66
987.963	94.6
988.127	120.56
988.291	151.75
988.455	80.07
988.62	66.7
988.784	97.12
988.948	106.22
989.112	69.8
989.276	71.93
989.44	89.56
989.604	56.82
989.768	51.59
989.932	131.02
990.096	51.59
990.26	52.75
990.424	38.22
990.588	79.87
990.752	114.55
990.915	124.43
991.079	40.54
991.243	58.56
991.407	105.06
991.571	51
991.734	93.63
991.898	118.82
992.062	153.69
992.226	62.82
992.389	45.77
992.553	11.87
992.717	48.1
992.88	67.47
993.044	110.1
993.207	63.4
993.371	84.33
993.535	71.35
993.698	75.8
993.862	96.92
994.025	123.08
994.189	70.18
994.352	87.43
994.515	81.62
994.679	112.62
994.842	55.65
995.006	98.47
995.169	61.27
995.332	55.27
995.496	85.49
995.659	11.67
995.822	41.32
995.985	49.07
996.149	77.93
996.312	83.36
996.475	125.6
996.638	67.28
996.801	119.2
996.964	125.02
997.128	98.47
997.291	64.76
997.454	68.83
997.617	16.9
997.78	99.44
997.943	44.03
998.106	107.38
998.269	40.93
998.432	67.86
998.595	61.47
998.758	16.9
998.92	31.82
999.083	6.05
999.246	56.62
999.409	18.26
999.572	10.51
999.735	20.97
999.897	94.02
1000.06	48.29
1000.223	35.89
1000.386	76.97
1000.548	66.12
1000.711	84.33
1000.874	69.6
1001.036	-13.13
1001.199	85.49
1001.361	22.72
1001.524	77.93
1001.687	83.94
1001.849	53.52
1002.012	51.39
1002.174	67.28
1002.337	69.41
1002.499	59.72
1002.661	80.65
1002.824	20
1002.986	40.74
1003.149	45.58
1003.311	0.44
1003.473	106.8
1003.636	35.89
1003.798	82
1003.96	63.6
1004.123	47.32
1004.285	8.19
1004.447	84.52
1004.609	31.63
1004.771	104.28
1004.933	-19.71
1005.096	23.3
1005.258	1.6
1005.42	27.37
1005.582	89.37
1005.744	71.35
1005.906	9.35
1006.068	59.14
1006.23	14.97
1006.392	-0.15
1006.554	23.3
1006.716	92.85
1006.878	66.12
1007.04	34.73
1007.202	19.04
1007.363	55.65
1007.525	60.69
1007.687	55.65
1007.849	76.19
1008.011	2.76
1008.172	8.38
1008.334	4.7
1008.496	44.61
1008.658	5.28
1008.819	28.34
1008.981	-9.45
1009.143	20.78
1009.304	2.37
1009.466	55.65
1009.627	99.63
1009.789	105.25
1009.95	24.27
1010.112	25.82
1010.273	69.41
1010.435	31.82
1010.596	23.49
1010.758	-8.28
1010.919	21.75
1011.081	5.47
1011.242	26.2
1011.403	67.86
1011.565	18.07
1011.726	54.69
1011.887	0.24
1012.049	27.56
1012.21	85.68
1012.371	94.6
1012.532	-17.97
1012.693	41.51
1012.855	41.12
1013.016	31.05
1013.177	88.98
1013.338	42.09
1013.499	74.83
1013.66	43.25
1013.821	59.92
1013.982	54.88
1014.143	31.82
1014.304	24.65
1014.465	36.47
1014.626	54.49
1014.787	19.42
1014.948	89.56
1015.109	-38.89
1015.27	73.09
1015.431	16.9
1015.592	21.55
1015.752	75.22
1015.913	20.78
1016.074	49.84
1016.235	34.92
1016.395	34.15
1016.556	7.99
1016.717	21.17
1016.877	84.72
1017.038	18.26
1017.199	47.71
1017.359	27.56
1017.52	49.07
1017.681	6.44
1017.841	20.59
1018.002	32.02
1018.162	22.33
1018.323	78.52
1018.483	-2.28
1018.644	24.85
1018.804	10.7
1018.964	0.63
1019.125	25.62
1019.285	44.42
1019.446	-5.76
1019.606	-10.8
1019.766	-21.26
1019.926	35.12
1020.087	36.09
1020.247	-6.73
1020.407	33.57
1020.567	71.54
1020.728	16.52
1020.888	-4.41
1021.048	-0.92
1021.208	0.24
1021.368	12.84
1021.528	57.01
1021.688	40.74
1021.848	32.02
1022.008	32.02
1022.168	21.55
1022.328	50.81
1022.488	37.05
1022.648	23.69
1022.808	2.76
1022.968	52.94
1023.128	-27.08
1023.288	18.45
1023.448	23.1
1023.608	33.76
1023.767	51
1023.927	10.12
1024.087	-15.26
1024.247	-25.14
1024.406	-6.15
1024.566	-6.54
1024.726	-16.23
1024.885	21.94
1025.045	44.03
1025.205	19.23
1025.364	4.5
1025.524	26.2
1025.683	11.09
1025.843	20.78
1026.003	29.5
1026.162	63.4
1026.321	65.92
1026.481	34.15
1026.64	4.7
1026.8	35.5
1026.959	22.14
1027.119	29.89
1027.278	16.32
1027.437	-8.28
1027.597	37.83
1027.756	44.03
1027.915	21.36
1028.074	60.69
1028.234	0.82
1028.393	25.43
1028.552	13.42
1028.711	-45.48
1028.87	60.5
1029.03	-5.76
1029.189	-4.6
1029.348	-15.84
1029.507	-5.18
1029.666	12.06
1029.825	-31.92
1029.984	-32.89
1030.143	30.47
1030.302	2.18
1030.461	-39.09
1030.62	8.96
1030.779	46.74
1030.938	22.33
1031.097	-17.58
1031.255	47.52
1031.414	63.79
1031.573	51.97
1031.732	-20.3
1031.891	-12.16
1032.049	51.59
1032.208	41.32
1032.367	-12.16
1032.525	22.33
1032.684	9.93
1032.843	5.47
1033.001	-28.82
1033.16	146.91
1033.319	63.4
1033.477	47.52
1033.636	-2.08
1033.794	-40.64
1033.953	52.75
1034.111	49.84
1034.27	3.92
1034.428	33.57
1034.587	1.79
1034.745	2.37
1034.903	24.07
1035.062	66.5
1035.22	-33.66
1035.378	36.86
1035.537	-5.76
1035.695	24.07
1035.853	0.44
1036.011	50.62
1036.17	36.09
1036.328	-49.36
1036.486	32.6
1036.644	26.2
1036.802	-70.67
1036.96	-4.6
1037.119	14.58
1037.277	-16.42
1037.435	-21.85
1037.593	-0.73
1037.751	18.26
1037.909	44.42
1038.067	44.42
