Data from pine_FLMT105791__68__17-21-08-077.txt Node

Date: Mon Mar 20 17:21:08 GMT 2023
User: antho
Spectrometer: FLMT10579
Trigger mode: 0
Integration Time (sec): 1.000000E-1
Scans to average: 10
Electric dark correction enabled: true
Nonlinearity correction enabled: false
Boxcar width: 0
XAxis mode: Wavelengths
Number of Pixels in Spectrum: 3648
>>>>>Begin Spectral Data<<<<<
345.248	-156.1
345.464	-156.1
345.681	-156.1
345.898	-160.16
346.114	-158.42
346.331	-22.99
346.548	24.67
346.764	-11.95
346.981	11.69
347.197	-16.02
347.414	32.61
347.631	-37.13
347.847	51.41
348.064	-40.62
348.28	23.31
348.497	-24.35
348.713	9.36
348.93	60.9
349.146	2.97
349.363	10.72
349.579	26.03
349.796	12.85
350.012	-3.23
350.229	35.91
350.445	-6.14
350.661	-17.95
350.878	11.69
351.094	25.64
351.311	2.97
351.527	19.25
351.743	3.55
351.96	27.77
352.176	9.95
352.392	63.03
352.609	44.82
352.825	-30.74
353.041	11.11
353.257	-15.82
353.474	-13.3
353.69	25.83
353.906	-0.71
354.122	-50.31
354.339	54.9
354.555	21.38
354.771	8.4
354.987	29.9
355.203	68.46
355.42	-4
355.636	-25.51
355.852	-6.33
356.068	0.65
356.284	-12.34
356.5	81.63
356.716	32.42
356.932	21.18
357.148	28.35
357.364	-20.28
357.58	76.21
357.796	57.61
358.012	53.93
358.228	57.22
358.444	-41.98
358.66	74.66
358.876	38.43
359.092	-7.49
359.308	11.88
359.524	42.69
359.74	-10.01
359.956	-35.97
360.172	23.9
360.388	35.91
360.604	-7.49
360.819	91.71
361.035	48.7
361.251	51.8
361.467	-9.43
361.683	77.56
361.898	25.25
362.114	49.08
362.33	21.18
362.546	66.71
362.762	15.95
362.977	26.61
363.193	-23.38
363.409	34.94
363.624	-5.36
363.84	-1.68
364.056	-20.28
364.271	20.02
364.487	27.58
364.703	0.06
364.918	-1.49
365.134	9.75
365.35	5.88
365.565	106.04
365.781	38.23
365.996	25.45
366.212	92.09
366.427	17.11
366.643	-13.89
366.858	-15.63
367.074	-28.61
367.289	46.76
367.505	95.78
367.72	-47.4
367.936	-16.6
368.151	36.3
368.367	47.73
368.582	33.97
368.798	30.29
369.013	57.8
369.228	40.36
369.444	2.78
369.659	55.86
369.874	40.56
370.09	60.32
370.305	-39.46
370.52	17.5
370.736	39.2
370.951	-1.68
371.166	70.59
371.381	61.29
371.597	49.47
371.812	2.2
372.027	-27.06
372.242	14.01
372.458	86.09
372.673	-10.01
372.888	11.69
373.103	55.09
373.318	107.01
373.533	46.56
373.749	22.73
373.964	-4.97
374.179	39.4
374.394	16.15
374.609	99.65
374.824	-16.21
375.039	70.78
375.254	-16.99
375.469	78.34
375.684	45.01
375.899	52.96
376.114	-5.94
376.329	24.67
376.544	59.35
376.759	75.04
376.974	-16.99
377.189	0.45
377.404	-16.4
377.619	52.96
377.834	-25.32
378.049	-21.44
378.264	-10.2
378.478	45.79
378.693	-10.2
378.908	40.75
379.123	-21.05
379.338	56.06
379.553	31.45
379.767	11.88
379.982	42.88
380.197	40.17
380.412	31.84
380.626	25.25
380.841	95
381.056	18.28
381.271	84.54
381.485	4.13
381.7	-14.27
381.915	14.6
382.129	25.06
382.344	54.7
382.559	-1.1
382.773	60.32
382.988	-22.22
383.202	28.35
383.417	8.4
383.632	139.18
383.846	-3.81
384.061	9.17
384.275	-3.62
384.49	43.27
384.704	36.3
384.919	25.25
385.133	49.28
385.348	43.08
385.562	-30.55
385.777	48.7
385.991	24.28
386.206	2.39
386.42	8.78
386.634	63.23
386.849	45.21
387.063	39.4
387.277	-6.91
387.492	-0.13
387.706	14.79
387.92	-28.42
388.135	42.5
388.349	14.79
388.563	8.4
388.778	-4.78
388.992	49.28
389.206	42.3
389.42	87.44
389.635	42.69
389.849	57.41
390.063	61.68
390.277	41.72
390.491	95.78
390.706	55.09
390.92	47.92
391.134	33.97
391.348	55.48
391.562	-11.56
391.776	-21.83
391.99	-11.37
392.205	49.08
392.419	-2.65
392.633	2
392.847	70.01
393.061	-4
393.275	105.66
393.489	34.75
393.703	22.35
393.917	67.88
394.131	4.13
394.345	54.9
394.559	52.18
394.773	38.04
394.986	50.44
395.2	27.38
395.414	39.4
395.628	-2.84
395.842	29.9
396.056	9.17
396.27	-8.46
396.484	34.75
396.697	12.85
396.911	65.94
397.125	46.95
397.339	54.31
397.553	59.16
397.766	106.24
397.98	56.25
398.194	83.96
398.408	21.96
398.621	36.49
398.835	56.83
399.049	54.12
399.262	76.4
399.476	63.23
399.69	53.15
399.903	89.77
400.117	20.99
400.331	44.63
400.544	4.33
400.758	157.58
400.971	40.75
401.185	60.51
401.398	-0.71
401.612	94.03
401.826	74.85
402.039	70.78
402.253	14.4
402.466	80.86
402.68	29.71
402.893	6.85
403.106	36.49
403.32	35.13
403.533	37.46
403.747	22.73
403.96	52.96
404.174	67.88
404.387	0.06
404.6	29.13
404.814	102.17
405.027	54.51
405.24	34.94
405.454	28.74
405.667	84.73
405.88	-37.72
406.094	51.21
406.307	74.85
406.52	52.57
406.733	17.11
406.947	-8.85
407.16	112.83
407.373	78.92
407.586	22.54
407.799	10.53
408.012	85.89
408.226	46.76
408.439	86.48
408.652	0.26
408.865	26.41
409.078	98.1
409.291	40.36
409.504	10.14
409.717	48.5
409.93	59.54
410.143	33.78
410.357	16.92
410.57	20.6
410.783	24.28
410.996	63.61
411.209	45.21
411.421	75.43
411.634	46.76
411.847	16.34
412.06	63.61
412.273	30.48
412.486	51.41
412.699	102.94
412.912	36.88
413.125	61.48
413.338	63.42
413.55	72.91
413.763	39.78
413.976	44.24
414.189	13.82
414.402	32.42
414.615	125.23
414.827	31.65
415.04	58.96
415.253	84.15
415.466	67.49
415.678	109.34
415.891	41.14
416.104	54.12
416.316	58.19
416.529	12.08
416.742	100.81
416.954	79.69
417.167	42.3
417.38	58.19
417.592	93.06
417.805	18.47
418.017	2.97
418.23	58.38
418.442	37.07
418.655	35.71
418.868	59.35
419.08	95.97
419.293	106.43
419.505	82.41
419.718	85.7
419.93	102.56
420.142	39.98
420.355	101.01
420.567	109.92
420.78	46.18
420.992	54.51
421.205	111.47
421.417	25.25
421.629	37.26
421.842	17.7
422.054	29.32
422.266	97.71
422.479	93.45
422.691	41.91
422.903	83.38
423.115	54.9
423.328	56.25
423.54	69.43
423.752	63.03
423.964	40.75
424.177	48.89
424.389	85.7
424.601	173.08
424.813	100.04
425.025	87.25
425.238	91.71
425.45	44.05
425.662	52.57
425.874	360.63
426.086	87.83
426.298	100.04
426.51	101.01
426.722	82.21
426.934	32.81
427.146	102.36
427.358	50.83
427.57	114.57
427.782	64
427.994	72.33
428.206	54.12
428.418	20.02
428.63	105.66
428.842	81.24
429.054	98.88
429.266	103.91
429.478	54.51
429.69	68.84
429.902	47.15
430.114	111.66
430.325	122.13
430.537	69.62
430.749	69.23
430.961	35.71
431.173	82.41
431.384	94.23
431.596	46.95
431.808	88.8
432.02	90.54
432.231	97.52
432.443	145.96
432.655	117.86
432.867	64.58
433.078	110.5
433.29	146.73
433.502	94.03
433.713	129.1
433.925	110.11
434.136	135.49
434.348	67.1
434.56	55.09
434.771	213.96
434.983	82.6
435.194	76.98
435.406	107.4
435.617	132.78
435.829	171.14
436.04	149.64
436.252	142.47
436.463	176.37
436.675	172.5
436.886	124.45
437.098	131.81
437.309	180.64
437.521	125.42
437.732	137.63
437.943	151.19
438.155	121.54
438.366	91.71
438.578	184.12
438.789	121.93
439	166.88
439.211	120.77
439.423	147.7
439.634	132.39
439.845	157
440.057	127.36
440.268	165.91
440.479	106.43
440.69	151.77
440.902	108.76
441.113	146.15
441.324	152.16
441.535	152.35
441.746	209.51
441.957	95.19
442.168	104.3
442.38	179.28
442.591	183.16
442.802	133.56
443.013	117.48
443.224	168.43
443.435	154.09
443.646	137.82
443.857	140.34
444.068	161.65
444.279	130.07
444.49	229.46
444.701	182.96
444.912	275.57
445.123	194.59
445.334	187.81
445.545	177.92
445.756	172.5
445.967	144.02
446.178	199.62
446.388	199.24
446.599	183.54
446.81	220.74
447.021	194.01
447.232	204.47
447.443	211.25
447.653	144.21
447.864	207.57
448.075	182.38
448.286	189.55
448.496	202.34
448.707	222.87
448.918	197.88
449.129	272.67
449.339	161.46
449.55	232.17
449.761	201.76
449.971	237.99
450.182	182.38
450.393	231.98
450.603	194.01
450.814	232.76
451.024	228.88
451.235	267.24
451.446	262.01
451.656	268.6
451.867	201.37
452.077	227.52
452.288	282.16
452.498	281.19
452.709	245.35
452.919	242.44
453.13	189.16
453.34	255.81
453.55	175.21
453.761	286.04
453.971	235.66
454.182	270.92
454.392	231.21
454.602	296.89
454.813	243.02
455.023	252.13
455.233	215.9
455.444	239.73
455.654	183.16
455.864	215.71
456.075	234.5
456.285	223.65
456.495	201.76
456.705	239.34
456.916	268.79
457.126	289.72
457.336	254.07
457.546	161.26
457.756	218.61
457.967	306.38
458.177	254.65
458.387	255.62
458.597	228.49
458.807	250.97
459.017	234.89
459.227	262.98
459.437	239.73
459.647	267.63
459.857	245.93
460.068	231.4
460.278	287
460.488	273.64
460.698	319.75
460.908	265.11
461.117	204.47
461.327	216.67
461.537	305.8
461.747	245.15
461.957	271.89
462.167	373.61
462.377	291.07
462.587	285.84
462.797	302.12
463.007	282.16
463.216	299.4
463.426	305.02
463.636	315.87
463.846	253.68
464.056	251.35
464.265	336.02
464.475	238.57
464.685	258.14
464.895	297.47
465.104	284.49
465.314	320.72
465.524	255.04
465.733	276.35
465.943	344.74
466.153	338.93
466.362	319.17
466.572	291.46
466.782	299.4
466.991	292.62
467.201	347.07
467.41	225.2
467.62	289.33
467.829	296.3
468.039	303.47
468.249	283.52
468.458	273.05
468.668	314.71
468.877	317.23
469.086	360.63
469.296	342.61
469.505	291.07
469.715	386.01
469.924	337.18
470.134	370.9
470.343	365.67
470.552	316.84
470.762	309.29
470.971	301.54
471.18	320.14
471.39	316.84
471.599	273.64
471.808	332.53
472.018	300.76
472.227	366.63
472.436	374.19
472.645	326.14
472.855	328.85
473.064	366.83
473.273	350.55
473.482	362.57
473.691	394.34
473.901	385.04
474.11	340.28
474.319	461.96
474.528	363.73
474.737	409.06
474.946	399.18
475.155	400.73
475.364	413.33
475.573	390.66
475.783	372.06
475.992	408.48
476.201	421.46
476.41	381.17
476.619	325.95
476.828	392.4
477.037	367.8
477.245	384.85
477.454	440.26
477.663	389.69
477.872	369.15
478.081	450.53
478.29	354.43
478.499	500.13
478.708	422.43
478.917	503.03
479.125	431.54
479.334	414.3
479.543	392.79
479.752	433.28
479.961	440.45
480.169	450.91
480.378	409.45
480.587	573.94
480.796	464.28
481.004	458.08
481.213	469.9
481.422	462.15
481.63	469.32
481.839	489.66
482.048	534.03
482.256	494.9
482.465	472.42
482.674	513.49
482.882	488.5
483.091	550.89
483.299	498.38
483.508	507.29
483.716	510.59
483.925	501.29
484.134	461.57
484.342	509.23
484.551	528.22
484.759	511.75
484.967	547.98
485.176	539.46
485.384	561.54
485.593	553.41
485.801	497.99
486.01	497.61
486.218	520.28
486.426	422.24
486.635	455.76
486.843	451.3
487.051	495.67
487.26	527.25
487.468	516.98
487.676	560.77
487.885	523.76
488.093	520.47
488.301	548.56
488.509	544.11
488.717	556.31
488.926	569.29
489.134	555.34
489.342	551.47
489.55	555.93
489.758	547.4
489.967	548.37
490.175	675.27
490.383	559.41
490.591	644.66
490.799	536.74
491.007	639.04
491.215	587.7
491.423	571.81
491.631	556.89
491.839	580.14
492.047	622.38
492.255	555.54
492.463	526.09
492.671	567.94
492.879	645.63
493.087	595.64
493.295	608.82
493.503	629.36
493.711	628.77
493.919	655.71
494.127	637.11
494.334	656.87
494.542	570.26
494.75	634.59
494.958	610.56
495.166	709.95
495.374	650.28
495.581	651.83
495.789	653.19
495.997	704.14
496.205	631.49
496.412	642.92
496.62	634.01
496.828	680.89
497.035	647.57
497.243	679.73
497.451	655.71
497.658	651.06
497.866	673.53
498.074	755.49
498.281	630.13
498.489	734.56
498.696	671.4
498.904	637.88
499.112	660.74
499.319	728.94
499.527	692.13
499.734	726.62
499.942	645.63
500.149	673.53
500.357	672.75
500.564	639.24
500.771	667.33
500.979	651.44
501.186	633.42
501.394	687.48
501.601	677.6
501.808	704.72
502.016	702.4
502.223	649.31
502.43	679.15
502.638	683.6
502.845	641.17
503.052	773.5
503.26	707.44
503.467	777.57
503.674	718.48
503.881	732.04
504.089	809.73
504.296	769.05
504.503	691.16
504.71	722.16
504.917	644.66
505.125	748.7
505.332	743.09
505.539	757.81
505.746	786.87
505.953	775.63
506.16	766.92
506.367	800.05
506.574	834.34
506.781	803.53
506.988	722.16
507.195	786.68
507.402	770.6
507.609	809.93
507.816	731.27
508.023	778.35
508.23	740.76
508.437	715.38
508.644	754.71
508.851	855.26
509.058	825.43
509.265	793.46
509.472	805.47
509.679	895.18
509.885	783.77
510.092	795.4
510.299	834.73
510.506	814
510.713	812.64
510.92	815.55
511.126	833.57
511.333	859.14
511.54	832.21
511.746	893.82
511.953	877.93
512.16	889.36
512.367	831.82
512.573	829.88
512.78	859.91
512.987	844.22
513.193	882.2
513.4	780.87
513.606	854.3
513.813	884.91
514.02	831.63
514.226	914.75
514.433	886.85
514.639	833.37
514.846	874.83
515.052	881.81
515.259	861.85
515.465	881.23
515.672	877.74
515.878	987.59
516.085	907.38
516.291	924.63
516.497	867.28
516.704	885.49
516.91	837.25
517.117	803.15
517.323	770.21
517.529	842.28
517.736	824.07
517.942	827.95
518.148	812.45
518.354	879.87
518.561	888.4
518.767	845
518.973	887.23
519.179	910.29
519.386	907
519.592	872.51
519.798	885.1
520.004	984.69
520.21	934.7
520.417	970.35
520.623	990.5
520.829	1010.46
521.035	1014.53
521.241	1013.75
521.447	995.93
521.653	1062.19
521.859	964.54
522.065	1039.91
522.271	1092.22
522.477	1062.38
522.683	1099.19
522.889	1048.43
523.095	1058.89
523.301	1041.84
523.507	991.86
523.713	1037.39
523.919	1005.81
524.125	1065.48
524.331	1045.72
524.537	1117.99
524.742	1121.86
524.948	1111.98
525.154	1085.24
525.36	1230.36
525.566	1136.78
525.772	1171.65
525.977	1062.96
526.183	1162.35
526.389	1169.33
526.595	1102.49
526.8	1059.09
527.006	1054.82
527.212	1032.93
527.417	1014.33
527.623	1009.68
527.829	1070.52
528.034	1082.14
528.24	1103.26
528.446	1070.13
528.651	1140.27
528.857	1141.62
529.062	1211.37
529.268	1168.36
529.473	1172.04
529.679	1149.76
529.884	1280.54
530.09	1201.49
530.295	1221.64
530.501	1252.25
530.706	1227.07
530.912	1141.04
531.117	1203.82
531.323	1221.83
531.528	1250.12
531.733	1264.46
531.939	1223.77
532.144	1230.36
532.35	1226.29
532.555	1290.23
532.76	1279.18
532.966	1238.69
533.171	1214.28
533.376	1187.54
533.581	1204.4
533.787	1215.25
533.992	1278.02
534.197	1263.88
534.402	1218.35
534.607	1221.25
534.813	1339.63
535.018	1251.09
535.223	1256.13
535.428	1234.82
535.633	1323.94
535.838	1335.37
536.043	1314.83
536.249	1375.67
536.454	1296.81
536.659	1336.34
536.864	1251.67
537.069	1271.05
537.274	1299.91
537.479	1292.16
537.684	1314.64
537.889	1272.98
538.094	1366.37
538.299	1271.43
538.504	1327.62
538.708	1330.33
538.913	1357.65
539.118	1301.27
539.323	1312.9
539.528	1259.03
539.733	1313.48
539.938	1322.2
540.142	1325.49
540.347	1305.15
540.552	1262.91
540.757	1286.93
540.962	1273.76
541.166	1253.61
541.371	1248.77
541.576	1297.4
541.781	1195.68
541.985	1310.18
542.19	1319.87
542.395	1364.05
542.599	1383.81
542.804	1374.51
543.008	1378.58
543.213	1313.48
543.418	1267.56
543.622	1357.65
543.827	1294.88
544.031	1408.99
544.236	1370.63
544.44	1373.15
544.645	1434.57
544.849	1376.06
545.054	1379.35
545.258	1408.61
545.463	1425.85
545.667	1319.29
545.872	1364.05
546.076	1385.94
546.281	1367.92
546.485	1398.14
546.689	1385.94
546.894	1415.58
547.098	1389.04
547.302	1338.28
547.507	1407.44
547.711	1373.34
547.915	1444.45
548.119	1344.86
548.324	1361.53
548.528	1415.39
548.732	1386.13
548.936	1380.51
549.141	1451.04
549.345	1393.3
549.549	1421.98
549.753	1413.06
549.957	1467.51
550.161	1485.91
550.366	1442.9
550.57	1390.59
550.774	1448.13
550.978	1414.23
551.182	1442.51
551.386	1412.29
551.59	1379.54
551.794	1381.29
551.998	1456.46
552.202	1415.97
552.406	1377.8
552.61	1423.72
552.814	1456.27
553.018	1495.21
553.222	1397.37
553.426	1433.21
553.63	1508
553.833	1405.89
554.037	1401.44
554.241	1462.27
554.445	1426.04
554.649	1414.23
554.853	1438.25
555.056	1465.57
555.26	1474.09
555.464	1451.43
555.668	1441.35
555.871	1429.92
556.075	1482.23
556.279	1385.16
556.483	1394.08
556.686	1414.23
556.89	1414.23
557.094	1426.43
557.297	1378.96
557.501	1444.84
557.704	1342.93
557.908	1406.67
558.112	1394.08
558.315	1443.68
558.519	1383.61
558.722	1377.41
558.926	1345.25
559.129	1333.24
559.333	1297.98
559.536	1318.51
559.74	1304.37
559.943	1297.2
560.147	1293.52
560.35	1354.16
560.553	1322.2
560.757	1270.08
560.96	1371.79
561.164	1329.95
561.367	1404.15
561.57	1364.43
561.774	1366.56
561.977	1330.14
562.18	1329.56
562.384	1393.88
562.587	1330.14
562.79	1327.43
562.993	1332.66
563.197	1416.16
563.4	1419.65
563.603	1394.46
563.806	1448.71
564.009	1354.16
564.212	1352.42
564.416	1294.88
564.619	1343.9
564.822	1307.08
565.025	1362.5
565.228	1306.7
565.431	1346.22
565.634	1273.57
565.837	1269.69
566.04	1236.37
566.243	1276.47
566.446	1191.03
566.649	1322
566.852	1225.71
567.055	1275.5
567.258	1307.08
567.461	1352.61
567.664	1378.19
567.867	1255.74
568.07	1262.13
568.273	1298.36
568.475	1315.03
568.678	1253.61
568.881	1252.25
569.084	1250.12
569.287	1148.4
569.489	1237.72
569.692	1266.2
569.895	1256.52
570.098	1204.4
570.3	1173.79
570.503	1161.39
570.706	1155.96
570.909	1173.2
571.111	1149.95
571.314	1177.08
571.516	1244.5
571.719	1181.92
571.922	1187.35
572.124	1145.69
572.327	1164.49
572.529	1136.97
572.732	1177.08
572.935	1198
573.137	1204.98
573.34	1146.85
573.542	1220.28
573.745	1206.33
573.947	1196.65
574.15	1157.51
574.352	1127.87
574.554	1246.44
574.757	1132.71
574.959	1134.26
575.162	1137.94
575.364	1105.97
575.566	1220.28
575.769	1080.4
575.971	1099.19
576.173	1078.85
576.376	1138.52
576.578	1120.12
576.78	1202.27
576.982	1067.42
577.185	1112.75
577.387	1089.31
577.589	1095.9
577.791	1137.17
577.993	1166.42
578.196	1111.79
578.398	1147.05
578.6	1174.37
578.802	1079.62
579.004	1068.39
579.206	1098.42
579.408	1133.49
579.61	1099.58
579.812	1144.14
580.014	1107.72
580.216	1100.55
580.418	1107.52
580.62	1073.23
580.822	1046.49
581.024	1093.38
581.226	1157.51
581.428	1069.94
581.63	1206.53
581.832	1113.72
582.034	1156.74
582.236	1105.01
582.438	1120.12
582.64	1146.47
582.841	1152.86
583.043	1192.39
583.245	1155.38
583.447	1149.95
583.649	1128.64
583.85	1144.14
584.052	1157.51
584.254	1090.28
584.456	1157.12
584.657	1098.61
584.859	1129.61
585.061	1111.2
585.262	1121.09
585.464	1074.2
585.666	1139.3
585.867	1081.56
586.069	1146.85
586.27	1112.75
586.472	1116.24
586.674	1075.56
586.875	1080.01
587.077	1108.69
587.278	1112.56
587.48	1077.69
587.681	1210.4
587.883	1122.64
588.084	1035.84
588.285	1053.47
588.487	1033.51
588.688	1098.03
588.89	1027.7
589.091	979.84
589.292	1025.76
589.494	956.4
589.695	955.43
589.896	917.85
590.098	901.38
590.299	947.68
590.5	923.85
590.702	930.44
590.903	976.16
591.104	1044.94
591.305	993.21
591.507	1054.44
591.708	1007.55
591.909	979.46
592.11	1066.45
592.311	1055.02
592.512	998.83
592.714	961.63
592.915	960.86
593.116	992.44
593.317	999.8
593.518	1012.98
593.719	995.93
593.92	1037.19
594.121	1089.51
594.322	1028.47
594.523	1025.96
594.724	990.31
594.925	978.49
595.126	1012.78
595.327	1009.1
595.528	1022.66
595.729	1025.96
595.929	1019.37
596.13	976.16
596.331	1011.43
596.532	998.06
596.733	1053.66
596.934	1007.74
597.135	1030.8
597.335	1007.36
597.536	968.03
597.737	1026.92
597.938	975
598.138	1009.29
598.339	986.24
598.54	1018.79
598.74	984.11
598.941	1025.57
599.142	1027.12
599.342	1022.86
599.543	983.33
599.744	1011.04
599.944	994.57
600.145	991.08
600.345	1020.72
600.546	1083.31
600.746	1069.94
600.947	1099.19
601.147	1027.51
601.348	1056.76
601.548	1009.1
601.749	1004.45
601.949	965.7
602.15	961.24
602.35	982.36
602.551	1057.15
602.751	967.44
602.951	974.42
603.152	929.86
603.352	976.55
603.552	1009.49
603.753	1025.57
603.953	1001.16
604.153	1028.86
604.354	987.98
604.554	1008.91
604.754	988.37
604.954	932.18
605.155	997.09
605.355	990.11
605.555	1048.04
605.755	1043.39
605.955	987.01
606.155	1045.52
606.356	995.73
606.556	1025.76
606.756	1019.76
606.956	958.92
607.156	1054.63
607.356	945.16
607.556	1027.7
607.756	993.99
607.956	1045.52
608.156	1010.46
608.356	923.08
608.556	1015.11
608.756	982.56
608.956	916.3
609.156	960.66
609.356	939.16
609.556	919.98
609.755	974.61
609.955	949.62
610.155	944.78
610.355	965.51
610.555	952.91
610.755	929.47
610.954	903.9
611.154	956.79
611.354	979.07
611.554	926.18
611.753	917.65
611.953	898.28
612.153	950.59
612.352	960.86
612.552	900.99
612.752	871.73
612.951	926.95
613.151	916.3
613.351	918.81
613.55	943.23
613.75	924.43
613.949	921.91
614.149	953.88
614.348	896.53
614.548	886.07
614.747	859.91
614.947	882
615.146	817.29
615.346	951.17
615.545	922.5
615.745	898.08
615.944	918.43
616.144	908.55
616.343	954.08
616.542	868.63
616.742	888.59
616.941	888.4
617.14	793.27
617.34	845.58
617.539	855.65
617.738	834.73
617.938	952.72
618.137	847.71
618.336	850.03
618.535	890.53
618.734	881.03
618.934	878.51
619.133	883.94
619.332	883.55
619.531	846.35
619.73	858.75
619.929	919.2
620.128	903.31
620.328	957.18
620.527	845
620.726	847.51
620.925	903.7
621.124	865.73
621.323	897.89
621.522	844.8
621.721	843.06
621.92	816.13
622.119	886.07
622.318	826.98
622.517	854.49
622.715	895.18
622.914	809.54
623.113	878.71
623.312	807.99
623.511	865.92
623.71	835.89
623.909	826.78
624.107	893.05
624.306	765.17
624.505	814.38
624.704	832.6
624.902	820.78
625.101	870.57
625.3	839.96
625.499	825.82
625.697	809.35
625.896	806.63
626.095	825.04
626.293	772.53
626.492	814.58
626.69	839.38
626.889	800.43
627.088	863.01
627.286	804.31
627.485	778.15
627.683	784.55
627.882	797.14
628.08	735.92
628.279	777.77
628.477	841.12
628.676	778.54
628.874	811.28
629.073	785.32
629.271	758.39
629.469	792.68
629.668	773.7
629.866	775.63
630.065	740.76
630.263	795.4
630.461	742.31
630.66	777.18
630.858	794.43
631.056	825.62
631.254	814
631.453	748.12
631.651	799.08
631.849	761.49
632.047	771.95
632.245	756.45
632.444	786.1
632.642	795.59
632.84	820.39
633.038	784.93
633.236	723.52
633.434	746.57
633.632	729.52
633.83	750.06
634.028	794.62
634.227	728.94
634.425	831.43
634.623	811.28
634.821	801.21
635.019	795.01
635.216	775.83
635.414	774.47
635.612	743.09
635.81	752.58
636.008	831.24
636.206	761.1
636.404	804.12
636.602	709.76
636.8	734.75
636.997	807.8
637.195	819.81
637.393	788.81
637.591	835.31
637.789	768.85
637.986	757.04
638.184	782.8
638.382	817.87
638.58	819.23
638.777	847.71
638.975	777.57
639.173	811.48
639.37	812.45
639.568	814.97
639.765	815.16
639.963	761.68
640.161	791.91
640.358	801.4
640.556	756.07
640.753	738.82
640.951	749.48
641.148	788.81
641.346	734.75
641.543	736.5
641.741	792.1
641.938	769.05
642.136	768.85
642.333	733.79
642.531	816.13
642.728	816.9
642.925	779.7
643.123	737.85
643.32	748.12
643.517	755.87
643.715	769.05
643.912	734.75
644.109	778.93
644.306	737.27
644.504	723.13
644.701	728.17
644.898	785.13
645.095	761.3
645.293	731.46
645.49	740.57
645.687	754.9
645.884	771.57
646.081	654.93
646.278	742.12
646.475	734.37
646.672	722.35
646.87	763.43
647.067	739.99
647.264	732.43
647.461	656.67
647.658	672.75
647.855	748.7
648.052	703.37
648.249	606.88
648.446	673.14
648.642	658.61
648.839	667.91
649.036	669.07
649.233	644.86
649.43	639.43
649.627	620.83
649.824	647.76
650.021	641.76
650.217	666.56
650.414	636.91
650.611	679.92
650.808	673.72
651.004	693.87
651.201	693.1
651.398	737.85
651.595	677.6
651.791	656.87
651.988	696.78
652.185	671.01
652.381	690.97
652.578	629.16
652.775	665.97
652.971	666.94
653.168	663.46
653.364	690.97
653.561	612.69
653.757	669.27
653.954	670.04
654.15	625.87
654.347	722.16
654.543	658.61
654.74	624.51
654.936	596.42
655.133	675.08
655.329	625.67
655.525	626.84
655.722	683.22
655.918	638.85
656.115	673.14
656.311	559.8
656.507	558.25
656.704	555.54
656.9	542.94
657.096	557.86
657.292	559.03
657.489	609.21
657.685	598.74
657.881	599.71
658.077	602.81
658.273	626.45
658.47	659.77
658.666	632.07
658.862	628.97
659.058	618.12
659.254	676.63
659.45	629.36
659.646	620.64
659.842	611.92
660.038	642.34
660.234	595.45
660.43	616.18
660.626	680.89
660.822	655.12
661.018	675.08
661.214	609.98
661.41	595.84
661.606	648.92
661.802	660.16
661.998	622.38
662.194	585.76
662.39	630.91
662.586	620.44
662.781	662.49
662.977	652.99
663.173	639.43
663.369	605.33
663.564	611.34
663.76	660.16
663.956	595.64
664.152	648.92
664.347	563.48
664.543	590.8
664.739	614.82
664.934	561.16
665.13	555.93
665.326	656.29
665.521	623.35
665.717	573.75
665.912	553.02
666.108	515.43
666.304	610.37
666.499	590.8
666.695	533.64
666.89	581.5
667.086	640.79
667.281	592.74
667.477	650.86
667.672	590.61
667.867	578.21
668.063	597.58
668.258	566.39
668.454	597.39
668.649	657.26
668.844	605.72
669.04	626.06
669.235	587.31
669.43	540.81
669.626	525.7
669.821	569.68
670.016	563.68
670.211	589.83
670.407	574.72
670.602	583.63
670.797	561.16
670.992	622.96
671.187	565.03
671.382	614.05
671.578	534.03
671.773	579.18
671.968	523.18
672.163	544.49
672.358	593.32
672.553	534.03
672.748	555.34
672.943	647.76
673.138	562.71
673.333	597.77
673.528	524.73
673.723	598.74
673.918	531.51
674.113	520.86
674.308	634.97
674.503	568.52
674.698	571.43
674.892	578.59
675.087	615.99
675.282	554.96
675.477	551.28
675.672	572.78
675.867	565.03
676.061	477.85
676.256	502.64
676.451	530.74
676.646	545.66
676.84	529.58
677.035	546.24
677.23	539.84
677.424	548.18
677.619	585.57
677.814	585.57
678.008	568.33
678.203	506.33
678.397	518.73
678.592	569.68
678.787	583.24
678.981	535.58
679.176	570.84
679.37	514.27
679.565	524.34
679.759	518.14
679.954	566.19
680.148	594.29
680.342	600.68
680.537	556.31
680.731	514.66
680.926	529.58
681.12	569.68
681.314	543.53
681.509	517.56
681.703	512.53
681.897	578.98
682.092	545.85
682.286	517.56
682.48	580.14
682.674	593.71
682.869	507.68
683.063	530.16
683.257	598.36
683.451	543.91
683.645	560.58
683.839	493.93
684.034	544.3
684.228	558.64
684.422	508.07
684.616	519.89
684.81	538.29
685.004	556.89
685.198	547.21
685.392	585.18
685.586	516.59
685.78	530.74
685.974	530.93
686.168	563.87
686.362	613.66
686.556	511.75
686.75	475.71
686.944	486.37
687.138	506.13
687.331	429.21
687.525	445.88
687.719	384.07
687.913	453.05
688.107	450.33
688.301	450.53
688.494	478.81
688.688	437.16
688.882	395.89
689.076	403.45
689.269	442.39
689.463	494.12
689.657	418.75
689.85	433.86
690.044	453.43
690.238	435.8
690.431	466.8
690.625	465.25
690.818	484.82
691.012	489.86
691.205	524.73
691.399	415.07
691.593	515.24
691.786	580.92
691.98	561.35
692.173	590.99
692.366	560.77
692.56	570.84
692.753	607.27
692.947	517.18
693.14	625.29
693.333	609.59
693.527	506.13
693.72	585.96
693.914	556.12
694.107	555.54
694.3	577.63
694.493	561.35
694.687	612.89
694.88	590.22
695.073	641.37
695.266	626.64
695.46	613.08
695.653	653.96
695.846	675.85
696.039	569.1
696.232	603.78
696.425	666.17
696.618	666.75
696.812	663.84
697.005	719.06
697.198	770.02
697.391	718.48
697.584	738.05
697.777	775.83
697.97	745.6
698.163	763.23
698.356	721.97
698.549	813.8
698.742	794.82
698.935	685.35
699.127	756.07
699.32	728.17
699.513	756.84
699.706	774.08
699.899	805.67
700.092	787.26
700.285	797.92
700.477	755.29
700.67	800.05
700.863	814
701.056	902.73
701.248	851.78
701.441	863.4
701.634	836.08
701.826	943.81
702.019	858.17
702.212	893.82
702.404	856.62
702.597	857.4
702.79	872.9
702.982	903.31
703.175	951.75
703.367	968.61
703.56	916.3
703.752	1021.11
703.945	986.63
704.137	983.72
704.33	974.61
704.522	983.53
704.715	1020.53
704.907	1036.42
705.1	1070.71
705.292	1051.72
705.484	1054.44
705.677	1064.9
705.869	1055.41
706.061	1083.89
706.254	1135.04
706.446	1078.66
706.638	1046.88
706.831	1115.47
707.023	1098.42
707.215	1202.85
707.407	1139.69
707.599	1142.59
707.792	1219.12
707.984	1204.59
708.176	1198.58
708.368	1204.98
708.56	1226.29
708.752	1201.1
708.944	1194.52
709.136	1220.28
709.329	1233.65
709.521	1372.96
709.713	1310.18
709.905	1308.83
710.097	1369.47
710.289	1274.73
710.481	1290.23
710.672	1330.14
710.864	1306.7
711.056	1367.92
711.248	1359.59
711.44	1367.53
711.632	1364.43
711.824	1410.35
712.016	1401.44
712.207	1445.42
712.399	1434.18
712.591	1518.27
712.783	1450.65
712.975	1476.42
713.166	1407.64
713.358	1413.26
713.55	1511.87
713.741	1498.89
713.933	1531.64
714.125	1508.39
714.316	1453.75
714.508	1552.37
714.7	1544.04
714.891	1540.74
715.083	1583.75
715.274	1540.36
715.466	1529.31
715.657	1587.44
715.849	1485.91
716.04	1552.95
716.232	1492.69
716.423	1565.35
716.615	1481.46
716.806	1432.63
716.998	1411.71
717.189	1375.48
717.381	1321.03
717.572	1290.42
717.763	1328.01
717.955	1295.46
718.146	1304.76
718.337	1203.43
718.528	1274.92
718.72	1138.14
718.911	1251.48
719.102	1164.1
719.293	1259.23
719.485	1240.05
719.676	1223.77
719.867	1169.52
720.058	1161
720.249	1193.35
720.44	1211.37
720.632	1281.7
720.823	1318.32
721.014	1377.8
721.205	1378.77
721.396	1453.17
721.587	1512.65
721.778	1531.25
721.969	1566.32
722.16	1599.45
722.351	1578.14
722.542	1687.6
722.733	1706.4
722.924	1621.54
723.115	1683.15
723.305	1678.11
723.496	1689.15
723.687	1591.12
723.878	1583.95
724.069	1594.22
724.26	1595.96
724.45	1538.03
724.641	1507.22
724.832	1586.47
725.023	1578.72
725.213	1579.1
725.404	1519.43
725.595	1563.02
725.785	1518.85
725.976	1601.58
726.167	1582.79
726.357	1616.11
726.548	1709.11
726.739	1591.7
726.929	1664.55
727.12	1635.48
727.31	1693.03
727.501	1615.72
727.691	1654.67
727.882	1668.62
728.072	1717.25
728.263	1723.06
728.453	1743.79
728.644	1717.83
728.834	1715.89
729.024	1708.14
729.215	1712.6
729.405	1714.73
729.596	1808.31
729.786	1809.66
729.976	1829.43
730.167	1816.44
730.357	1790.1
730.547	1768.78
730.737	1820.9
730.928	1838.92
731.118	1923.39
731.308	1837.76
731.498	1874.38
731.688	1928.82
731.879	1901.11
732.069	1964.08
732.259	2001.67
732.449	1977.45
732.639	2055.53
732.829	2113.46
733.019	2147.17
733.209	2162.48
733.399	2168.87
733.589	2199.68
733.779	2231.26
733.969	2228.16
734.159	2268.26
734.349	2297.71
734.539	2333.17
734.729	2325.42
734.919	2331.62
735.109	2385.29
735.299	2324.84
735.488	2339.37
735.678	2346.34
735.868	2420.55
736.058	2383.54
736.248	2354.87
736.437	2321.35
736.627	2282.6
736.817	2414.35
737.007	2388.19
737.196	2423.26
737.386	2416.29
737.576	2390.32
737.765	2466.47
737.955	2425.39
738.144	2523.62
738.334	2448.84
738.524	2448.64
738.713	2482.55
738.903	2521.1
739.092	2514.13
739.282	2509.87
739.471	2534.67
739.661	2485.26
739.85	2482.74
740.04	2488.36
740.229	2477.9
740.419	2536.41
740.608	2534.86
740.797	2525.75
740.987	2595.5
741.176	2605.58
741.365	2529.05
741.555	2513.16
741.744	2588.92
741.933	2581.17
742.123	2611
742.312	2590.27
742.501	2651.69
742.69	2656.53
742.88	2620.88
743.069	2714.08
743.258	2634.83
743.447	2657.11
743.636	2649.17
743.825	2624.18
744.014	2662.35
744.204	2660.99
744.393	2640.26
744.582	2734.23
744.771	2682.11
744.96	2661.76
745.149	2667.19
745.338	2617.2
745.527	2685.4
745.716	2666.41
745.905	2615.07
746.094	2686.18
746.283	2721.83
746.471	2732.68
746.66	2753.79
746.849	2680.36
747.038	2736.74
747.227	2688.69
747.416	2760.77
747.604	2675.71
747.793	2694.7
747.982	2765.23
748.171	2703.23
748.359	2761.74
748.548	2727.25
748.737	2716.79
748.926	2659.44
749.114	2620.3
749.303	2701.09
749.491	2692.38
749.68	2595.31
749.869	2707.29
750.057	2660.21
750.246	2655.37
750.434	2643.36
750.623	2699.74
750.811	2659.44
751	2680.17
751.188	2638.9
751.377	2684.43
751.565	2695.86
751.754	2641.61
751.942	2612.55
752.131	2719.89
752.319	2629.8
752.507	2596.86
752.696	2718.92
752.884	2672.81
753.072	2656.15
753.261	2677.07
753.449	2674.94
753.637	2637.16
753.825	2750.89
754.014	2618.95
754.202	2675.52
754.39	2691.02
754.578	2701.87
754.766	2634.06
754.955	2623.4
755.143	2678.62
755.331	2636
755.519	2627.28
755.707	2631.15
755.895	2623.6
756.083	2606.35
756.271	2544.55
756.459	2602.09
756.647	2633.86
756.835	2564.12
757.023	2559.66
757.211	2549.97
757.399	2558.5
757.587	2551.72
757.775	2591.82
757.963	2590.85
758.151	2533.12
758.339	2515.1
758.526	2512.19
758.714	2516.26
758.902	2427.14
759.09	2431.59
759.278	2214.01
759.465	2058.24
759.653	1791.26
759.841	1629.87
760.028	1354.16
760.216	1185.99
760.404	1119.54
760.591	940.51
760.779	768.66
760.967	693.68
761.154	550.69
761.342	618.12
761.529	609.98
761.717	686.7
761.905	660.94
762.092	718.87
762.28	678.76
762.467	681.09
762.655	648.15
762.842	662.29
763.029	654.35
763.217	655.9
763.404	637.3
763.592	660.16
763.779	612.31
763.966	686.7
764.154	717.9
764.341	745.41
764.528	742.7
764.716	777.77
764.903	839.57
765.09	904.28
765.277	932.96
765.465	1061.8
765.652	1117.4
765.839	1191.8
766.026	1269.11
766.213	1272.02
766.4	1376.06
766.588	1535.51
766.775	1540.36
766.962	1638.78
767.149	1647.5
767.336	1795.91
767.523	1756.19
767.71	1835.82
767.897	1946.84
768.084	1976.67
768.271	2000.5
768.458	2072.38
768.645	2101.83
768.832	2060.37
769.019	2090.02
769.206	2128.77
769.392	2167.32
769.579	2284.34
769.766	2206.26
769.953	2227.58
770.14	2282.6
770.327	2253.54
770.513	2286.67
770.7	2337.82
770.887	2263.42
771.073	2351.19
771.26	2322.51
771.447	2287.06
771.634	2303.53
771.82	2367.85
772.007	2270.01
772.193	2269.81
772.38	2343.82
772.567	2270.2
772.753	2314.38
772.94	2320.77
773.126	2338.98
773.313	2325.81
773.499	2343.82
773.686	2328.13
773.872	2282.21
774.059	2294.42
774.245	2269.23
774.432	2298.49
774.618	2228.93
774.804	2309.92
774.991	2236.68
775.177	2299.07
775.363	2276.59
775.55	2303.91
775.736	2248.5
775.922	2243.46
776.109	2295
776.295	2298.88
776.481	2300.81
776.667	2292.48
776.853	2246.56
777.04	2220.02
777.226	2256.44
777.412	2303.33
777.598	2209.56
777.784	2206.65
777.97	2205.3
778.156	2279.69
778.342	2214.79
778.528	2201.61
778.715	2163.25
778.901	2182.63
779.087	2223.51
779.272	2199.29
779.458	2167.51
779.644	2166.55
779.83	2145.62
780.016	2232.42
780.202	2239.59
780.388	2162.09
780.574	2095.05
780.76	2158.02
780.946	2186.89
781.131	2178.95
781.317	2194.64
781.503	2137.87
781.689	2134.97
781.874	2255.67
782.06	2153.57
782.246	2148.92
782.432	2110.17
782.617	2165
782.803	2156.08
782.989	2060.18
783.174	2154.53
783.36	2065.22
783.545	2078
783.731	2103.97
783.916	1981.71
784.102	2093.31
784.288	2062.7
784.473	2066.96
784.659	2034.8
784.844	2105.71
785.029	2077.23
785.215	2051.85
785.4	2043.32
785.586	2069.67
785.771	2018.52
785.956	2033.64
786.142	2025.89
786.327	2017.17
786.512	2001.09
786.698	2013.49
786.883	1959.24
787.068	1972.99
787.254	1988.49
787.439	1975.51
787.624	1952.07
787.809	1977.06
787.994	1953.81
788.18	1997.21
788.365	1894.52
788.55	1926.11
788.735	1949.74
788.92	1930.76
789.105	1918.55
789.29	1929.21
789.475	1900.53
789.66	1920.1
789.845	1851.71
790.03	1848.22
790.215	1914.87
790.4	1903.44
790.585	1906.73
790.77	1885.42
790.955	1799.2
791.14	1844.15
791.325	1916.22
791.51	1798.23
791.695	1855.19
791.879	1862.75
792.064	1796.3
792.249	1921.65
792.434	1835.04
792.618	1870.89
792.803	1856.55
792.988	1819.35
793.173	1877.09
793.357	1888.13
793.542	1821.87
793.727	1852.48
793.911	1901.69
794.096	1859.07
794.281	1891.04
794.465	1917.77
794.65	1830.78
794.834	1851.32
795.019	1894.72
795.203	1907.31
795.388	1903.82
795.572	1922.04
795.757	1904.21
795.941	1894.72
796.126	1918.74
796.31	1830.98
796.494	1898.01
796.679	1839.11
796.863	1814.89
797.048	1950.71
797.232	1887.36
797.416	1889.49
797.601	1893.75
797.785	1930.56
797.969	1895.49
798.153	1878.06
798.338	1905.37
798.522	1934.82
798.706	1926.11
798.89	1918.94
799.074	2024.34
799.258	1965.44
799.443	1919.32
799.627	1950.32
799.811	1974.93
799.995	1915.45
800.179	1905.76
800.363	1897.82
800.547	1922.04
800.731	1925.14
800.915	1844.15
801.099	1885.81
801.283	1899.95
801.467	1865.08
801.651	1891.23
801.835	1937.15
802.019	1899.17
802.202	1948.39
802.386	1861.39
802.57	1868.56
802.754	1844.34
802.938	1832.72
803.121	1846.67
803.305	1927.46
803.489	1881.54
803.673	1911.38
803.856	1924.36
804.04	1904.02
804.224	1897.82
804.407	1919.52
804.591	1876.51
804.775	1839.69
804.958	1876.7
805.142	1984.42
805.326	1893.56
805.509	1912.16
805.693	1885.42
805.876	1924.17
806.06	1906.73
806.243	1887.16
806.427	1948.77
806.61	1980.74
806.794	1886
806.977	1953.62
807.16	1938.31
807.344	1963.89
807.527	1901.31
807.71	1882.71
807.894	1923.39
808.077	1927.66
808.26	1909.83
808.444	1872.05
808.627	1871.47
808.81	1872.24
808.993	1837.95
809.177	1835.24
809.36	1835.82
809.543	1896.85
809.726	1778.66
809.909	1820.32
810.092	1774.98
810.276	1790.68
810.459	1823.23
810.642	1819.54
810.825	1763.36
811.008	1774.79
811.191	1695.35
811.374	1704.07
811.557	1714.53
811.74	1801.91
811.923	1642.27
812.106	1650.98
812.289	1637.03
812.472	1650.4
812.654	1673.46
812.837	1621.54
813.02	1548.69
813.203	1562.44
813.386	1468.09
813.569	1472.35
813.751	1430.89
813.934	1508.39
814.117	1438.44
814.3	1446.39
814.482	1371.41
814.665	1384
814.848	1348.55
815.03	1291.78
815.213	1317.93
815.396	1331.69
815.578	1288.48
815.761	1253.42
815.943	1354.36
816.126	1246.83
816.309	1226.48
816.491	1164.29
816.674	1119.34
816.856	1167.39
817.039	1136.59
817.221	1228.42
817.403	1164.68
817.586	1178.24
817.768	1222.61
817.951	1108.1
818.133	1143.95
818.315	1161.58
818.498	1199.36
818.68	1263.3
818.862	1249.35
819.045	1256.32
819.227	1236.17
819.409	1217.96
819.591	1248.18
819.774	1179.6
819.956	1172.24
820.138	1276.47
820.32	1195.1
820.502	1276.86
820.684	1335.18
820.866	1309.8
821.048	1394.66
821.231	1374.51
821.413	1337.89
821.595	1343.9
821.777	1388.65
821.959	1350.29
822.141	1384.19
822.323	1291.97
822.505	1250.9
822.686	1194.13
822.868	1174.56
823.05	1063.16
823.232	1068.97
823.414	982.94
823.596	1071.68
823.778	1071.68
823.96	1081.37
824.141	1068.19
824.323	1103.07
824.505	1151.89
824.687	1196.65
824.868	1287.51
825.05	1295.65
825.232	1321.81
825.413	1388.07
825.595	1332.85
825.777	1286.55
825.958	1289.45
826.14	1319.68
826.321	1358.23
826.503	1333.82
826.685	1339.63
826.866	1331.69
827.048	1358.62
827.229	1283.64
827.411	1292.75
827.592	1232.1
827.773	1227.45
827.955	1185.6
828.136	1197.62
828.318	1180.57
828.499	1210.4
828.68	1146.27
828.862	1177.85
829.043	1213.89
829.224	1179.79
829.406	1134.65
829.587	1168.55
829.768	1151.12
829.949	1212.53
830.131	1197.23
830.312	1252.64
830.493	1197.42
830.674	1207.5
830.855	1196.65
831.036	1169.33
831.218	1228.03
831.399	1238.88
831.58	1214.08
831.761	1200.33
831.942	1202.46
832.123	1173.2
832.304	1159.64
832.485	1186.38
832.666	1202.85
832.847	1214.28
833.028	1202.65
833.209	1201.3
833.389	1152.86
833.57	1115.85
833.751	1165.84
833.932	1192.58
834.113	1196.45
834.294	1181.73
834.475	1199.94
834.655	1221.06
834.836	1245.08
835.017	1216.41
835.198	1122.44
835.378	1205.37
835.559	1224.16
835.74	1167.59
835.92	1180.18
836.101	1174.17
836.281	1214.28
836.462	1223
836.643	1223
836.823	1261.17
837.004	1246.44
837.184	1280.93
837.365	1270.66
837.545	1291
837.726	1228.42
837.906	1313.67
838.087	1217.38
838.267	1211.18
838.448	1211.95
838.628	1270.66
838.808	1225.71
838.989	1286.16
839.169	1181.15
839.349	1251.67
839.53	1255.35
839.71	1244.7
839.89	1195.68
840.07	1295.26
840.251	1201.3
840.431	1251.28
840.611	1244.89
840.791	1201.1
840.971	1269.11
841.151	1228.03
841.332	1201.3
841.512	1248.77
841.692	1177.66
841.872	1242.18
842.052	1225.9
842.232	1243.53
842.412	1154.41
842.592	1218.35
842.772	1241.21
842.952	1221.45
843.132	1178.24
843.312	1182.89
843.492	1192
843.672	1263.88
843.851	1156.35
844.031	1194.13
844.211	1213.12
844.391	1183.09
844.571	1227.84
844.751	1181.54
844.93	1206.53
845.11	1163.32
845.29	1200.13
845.47	1237.33
845.649	1194.9
845.829	1214.86
846.009	1159.25
846.188	1201.88
846.368	1173.79
846.547	1169.91
846.727	1210.79
846.907	1154.99
847.086	1191.22
847.266	1212.15
847.445	1190.64
847.625	1179.4
847.804	1170.3
847.984	1191.61
848.163	1160.03
848.343	1158.48
848.522	1174.75
848.701	1165.65
848.881	1162.55
849.06	1174.17
849.239	1199.55
849.419	1186.19
849.598	1078.07
849.777	1068.19
849.957	1117.99
850.136	1045.72
850.315	1034.48
850.494	1047.07
850.674	1028.67
850.853	1118.37
851.032	1093.77
851.211	1171.85
851.39	1080.98
851.569	1061.41
851.748	1045.72
851.927	1090.09
852.107	1076.72
852.286	1049.4
852.465	1028.09
852.644	1090.86
852.823	1075.36
853.002	1071.87
853.181	1084.27
853.359	1099.58
853.538	1042.23
853.717	1103.46
853.896	1001.54
854.075	945.55
854.254	934.51
854.433	878.71
854.611	972.87
854.79	898.66
854.969	956.79
855.148	985.46
855.327	944.39
855.505	957.56
855.684	925.4
855.863	988.56
856.041	931.6
856.22	969.58
856.399	925.98
856.577	1055.6
856.756	1036.81
856.934	1145.3
857.113	1140.27
857.291	1035.06
857.47	1019.95
857.648	1027.7
857.827	1046.49
858.005	1038.16
858.184	1006.58
858.362	1084.08
858.541	1033.9
858.719	1035.06
858.898	1017.24
859.076	1039.32
859.254	1056.96
859.433	1012.39
859.611	977.13
859.789	981.78
859.967	1058.12
860.146	1090.67
860.324	970.35
860.502	1020.14
860.68	954.08
860.859	966.28
861.037	1024.6
861.215	1023.82
861.393	976.55
861.571	993.99
861.749	969.19
861.927	997.67
862.105	989.34
862.283	964.73
862.461	935.28
862.639	925.01
862.817	943.23
862.995	967.44
863.173	945.55
863.351	960.66
863.529	966.09
863.707	1018.59
863.885	988.37
864.063	914.36
864.241	919.98
864.418	1010.84
864.596	934.7
864.774	903.31
864.952	928.5
865.129	963.57
865.307	916.88
865.485	877.93
865.663	969.38
865.84	887.43
866.018	888.01
866.196	784.74
866.373	839.57
866.551	790.75
866.728	744.05
866.906	808.18
867.084	834.53
867.261	895.37
867.439	904.48
867.616	890.14
867.794	857.2
867.971	882
868.149	886.65
868.326	924.05
868.503	934.31
868.681	889.95
868.858	862.63
869.035	822.72
869.213	901.96
869.39	870.76
869.567	942.26
869.745	863.6
869.922	891.11
870.099	892.08
870.276	956.01
870.454	889.95
870.631	932.18
870.808	870.57
870.985	898.47
871.162	963.38
871.339	889.75
871.517	857.2
871.694	868.05
871.871	871.73
872.048	869.02
872.225	840.93
872.402	871.35
872.579	830.47
872.756	854.88
872.933	816.32
873.11	839.57
873.287	860.5
873.463	813.8
873.64	810.9
873.817	877.74
873.994	815.35
874.171	838.6
874.348	857.4
874.524	790.17
874.701	828.14
874.878	793.85
875.055	870.76
875.231	832.02
875.408	831.63
875.585	781.06
875.762	817.68
875.938	795.59
876.115	812.83
876.291	833.76
876.468	810.7
876.645	751.61
876.821	794.23
876.998	791.72
877.174	812.64
877.351	809.15
877.527	760.13
877.704	816.13
877.88	780.67
878.057	769.63
878.233	838.6
878.409	781.83
878.586	785.32
878.762	816.71
878.938	788.42
879.115	731.46
879.291	791.72
879.467	726.23
879.644	728.36
879.82	787.26
879.996	735.34
880.172	712.28
880.349	766.72
880.525	773.7
880.701	720.61
880.877	719.45
881.053	753.74
881.229	729.72
881.405	786.68
881.581	713.25
881.757	763.04
881.933	784.74
882.109	765.17
882.285	748.51
882.461	689.42
882.637	726.23
882.813	718.29
882.989	748.9
883.165	787.45
883.341	701.04
883.517	784.93
883.693	792.1
883.869	766.92
884.044	709.57
884.22	805.86
884.396	767.88
884.572	754.52
884.747	769.82
884.923	777.38
885.099	780.48
885.275	794.04
885.45	709.57
885.626	744.64
885.801	702.01
885.977	774.08
886.153	682.05
886.328	784.93
886.504	709.95
886.679	757.81
886.855	733.98
887.03	764.78
887.206	783.58
887.381	776.02
887.557	754.71
887.732	749.67
887.908	770.79
888.083	785.52
888.258	706.47
888.434	722.94
888.609	715.19
888.784	789.39
888.96	706.66
889.135	696
889.31	717.12
889.485	728.17
889.661	737.85
889.836	779.32
890.011	764.98
890.186	747.35
890.361	714.6
890.537	729.33
890.712	738.63
890.887	701.43
891.062	735.53
891.237	795.2
891.412	707.44
891.587	743.28
891.762	751.8
891.937	786.68
892.112	711.89
892.287	740.57
892.462	688.64
892.637	655.9
892.812	641.95
892.987	687.87
893.161	646.41
893.336	663.84
893.511	678.37
893.686	690.58
893.861	681.86
894.035	681.67
894.21	685.35
894.385	631.49
894.56	662.68
894.734	621.8
894.909	598.94
895.084	614.05
895.258	651.83
895.433	597
895.608	614.05
895.782	559.99
895.957	616.76
896.131	544.3
896.306	517.56
896.48	552.63
896.655	527.06
896.829	477.26
897.004	472.03
897.178	472.42
897.353	477.46
897.527	524.93
897.701	502.26
897.876	451.5
898.05	553.41
898.224	516.01
898.399	541.2
898.573	517.56
898.747	405.58
898.921	463.9
899.096	371.67
899.27	370.32
899.444	403.25
899.618	422.24
899.792	412.16
899.967	407.9
900.141	502.64
900.315	374.38
900.489	414.3
900.663	448.59
900.837	433.09
901.011	388.14
901.185	488.31
901.359	420.11
901.533	443.55
901.707	447.81
901.881	428.63
902.055	399.96
902.229	440.65
902.403	484.05
902.576	455.56
902.75	420.11
902.924	553.41
903.098	460.6
903.272	522.02
903.446	534.42
903.619	518.34
903.793	542.36
903.967	500.32
904.14	565.03
904.314	554.96
904.488	554.96
904.661	575.88
904.835	510.78
905.009	593.71
905.182	625.87
905.356	569.49
905.529	559.99
905.703	497.8
905.876	534.42
906.05	498.77
906.223	497.41
906.397	448.4
906.57	439.68
906.744	409.06
906.917	437.74
907.09	451.3
907.264	438.13
907.437	398.99
907.61	364.7
907.784	398.22
907.957	462.73
908.13	369.73
908.304	404.8
908.477	352.88
908.65	379.62
908.823	376.9
908.996	452.08
909.17	381.75
909.343	391.24
909.516	386.01
909.689	367.8
909.862	371.48
910.035	372.25
910.208	351.33
910.381	351.91
910.554	449.36
910.727	375.16
910.9	366.44
911.073	367.22
911.246	416.81
911.419	430.96
911.592	392.02
911.765	360.43
911.938	338.93
912.11	386.59
912.283	372.45
912.456	439.87
912.629	395.12
912.802	362.18
912.974	324.78
913.147	289.33
913.32	257.75
913.493	323.04
913.665	340.48
913.838	352.3
914.01	344.93
914.183	371.28
914.356	314.9
914.528	387.95
914.701	424.76
914.873	385.43
915.046	342.22
915.218	319.36
915.391	275.38
915.563	268.6
915.736	322.85
915.908	356.37
916.081	318
916.253	326.33
916.425	325.75
916.598	315.1
916.77	343.58
916.942	280.8
917.115	256.59
917.287	337.96
917.459	298.24
917.632	263.75
917.804	246.9
917.976	316.26
918.148	313.55
918.32	325.37
918.493	313.35
918.665	422.24
918.837	350.55
919.009	368.77
919.181	351.33
919.353	359.85
919.525	353.65
919.697	311.8
919.869	349.2
920.041	360.24
920.213	430.76
920.385	349.58
920.557	329.82
920.729	382.33
920.901	345.9
921.073	327.11
921.244	345.9
921.416	401.51
921.588	344.35
921.76	330.21
921.932	420.5
922.103	345.32
922.275	367.02
922.447	333.7
922.619	269.95
922.79	341.64
922.962	307.93
923.134	341.64
923.305	297.85
923.477	296.69
923.648	306.96
923.82	288.17
923.991	257.94
924.163	282.74
924.335	311.22
924.506	289.72
924.677	327.5
924.849	252.52
925.02	308.7
925.192	325.17
925.363	300.37
925.535	306.96
925.706	274.99
925.877	317.42
926.049	291.65
926.22	304.83
926.391	313.94
926.562	318.2
926.734	260.07
926.905	326.53
927.076	220.36
927.247	269.95
927.419	261.24
927.59	233.14
927.761	275.38
927.932	266.66
928.103	263.95
928.274	185.09
928.445	191.1
928.616	239.54
928.787	230.43
928.958	255.23
929.129	246.9
929.3	216.67
929.471	175.99
929.642	158.36
929.813	117.09
929.984	206.02
930.155	101.78
930.326	181.8
930.496	129.88
930.667	92.29
930.838	143.05
931.009	104.69
931.18	108.95
931.35	111.47
931.521	130.46
931.692	92.48
931.863	50.44
932.033	93.64
932.204	114.57
932.374	81.63
932.545	61.48
932.716	109.34
932.886	118.44
933.057	41.91
933.227	55.86
933.398	136.85
933.568	25.45
933.739	-0.32
933.909	41.72
934.08	83.96
934.25	-15.44
934.421	-1.1
934.591	83.18
934.761	-1.29
934.932	-14.47
935.102	39.98
935.272	25.25
935.443	27.19
935.613	41.53
935.783	71.17
935.953	-18.73
936.123	174.05
936.294	12.27
936.464	21.76
936.634	29.32
936.804	-8.07
936.974	-13.3
937.144	74.08
937.314	51.21
937.484	22.35
937.655	6.65
937.825	75.82
937.995	23.9
938.165	70.59
938.334	7.23
938.504	42.3
938.674	8.98
938.844	13.63
939.014	91.9
939.184	66.71
939.354	127.36
939.524	98.49
939.694	51.99
939.863	63.42
940.033	115.73
940.203	95.78
940.373	105.08
940.542	130.26
940.712	21.76
940.882	110.11
941.051	116.12
941.221	86.67
941.391	141.31
941.56	55.09
941.73	44.82
941.899	165.72
942.069	58
942.238	84.15
942.408	64.58
942.577	78.34
942.747	61.48
942.916	37.07
943.086	59.74
943.255	96.74
943.425	69.23
943.594	37.85
943.763	9.36
943.933	38.23
944.102	-6.14
944.271	41.14
944.441	56.83
944.61	30.1
944.779	58.58
944.948	111.66
945.117	5.49
945.287	31.06
945.456	-14.47
945.625	27.77
945.794	84.15
945.963	29.51
946.132	61.09
946.301	15.95
946.47	71.36
946.639	-3.62
946.808	39.78
946.977	37.46
947.146	79.31
947.315	35.71
947.484	64
947.653	41.33
947.822	29.13
947.991	35.91
948.16	129.29
948.329	91.51
948.498	63.42
948.666	42.3
948.835	91.51
949.004	11.11
949.173	0.06
949.341	54.7
949.51	52.18
949.679	110.11
949.847	81.24
950.016	117.67
950.185	94.42
950.353	70.78
950.522	55.09
950.69	107.01
950.859	24.28
951.028	87.25
951.196	80.66
951.365	32.81
951.533	65.36
951.701	88.41
951.87	85.89
952.038	7.23
952.207	42.5
952.375	112.05
952.543	50.63
952.712	33.2
952.88	24.28
953.048	107.59
953.217	34.75
953.385	49.08
953.553	104.69
953.721	37.07
953.89	69.43
954.058	18.47
954.226	17.89
954.394	60.9
954.562	18.86
954.73	64.97
954.898	39.78
955.067	82.79
955.235	34.94
955.403	80.08
955.571	94.03
955.739	58
955.907	17.11
956.075	39.2
956.243	59.16
956.41	59.16
956.578	21.38
956.746	-3.23
956.914	52.18
957.082	82.02
957.25	67.1
957.418	4.52
957.585	39.59
957.753	74.85
957.921	25.25
958.089	27.77
958.256	85.51
958.424	62.84
958.592	51.21
958.759	31.26
958.927	94.23
959.095	35.13
959.262	48.7
959.43	70.98
959.597	29.51
959.765	74.08
959.932	8.01
960.1	93.84
960.267	53.73
960.435	60.71
960.602	72.72
960.77	41.14
960.937	22.54
961.104	54.51
961.272	5.49
961.439	20.41
961.606	67.1
961.774	87.64
961.941	50.44
962.108	76.59
962.275	46.18
962.443	108.37
962.61	75.04
962.777	132.59
962.944	56.83
963.111	73.88
963.278	79.11
963.446	43.08
963.613	23.7
963.78	82.79
963.947	65.55
964.114	76.21
964.281	144.21
964.448	66.71
964.615	29.13
964.782	61.48
964.949	98.29
965.116	104.3
965.282	127.16
965.449	46.76
965.616	44.63
965.783	84.15
965.95	71.17
966.117	31.45
966.283	55.67
966.45	64.19
966.617	62.64
966.784	84.34
966.95	68.07
967.117	105.85
967.284	54.31
967.45	61.68
967.617	104.49
967.784	117.48
967.95	146.92
968.117	71.94
968.283	85.7
968.45	185.67
968.616	77.95
968.783	125.03
968.949	72.14
969.116	109.92
969.282	72.72
969.449	83.96
969.615	82.41
969.781	23.9
969.948	35.33
970.114	32.42
970.28	107.79
970.447	67.29
970.613	111.08
970.779	77.56
970.945	103.53
971.112	85.7
971.278	67.49
971.444	70.01
971.61	114.18
971.776	61.09
971.942	107.59
972.108	78.53
972.275	57.8
972.441	107.79
972.607	133.56
972.773	50.83
972.939	91.71
973.105	92.68
973.271	21.18
973.437	23.12
973.602	69.81
973.768	103.72
973.934	79.89
974.1	91.9
974.266	-10.2
974.432	66.13
974.598	51.21
974.763	103.53
974.929	61.48
975.095	107.01
975.261	58.96
975.426	12.46
975.592	53.73
975.758	132.39
975.923	45.4
976.089	38.81
976.255	80.08
976.42	56.45
976.586	90.35
976.751	98.88
976.917	163.2
977.082	119.99
977.248	19.25
977.413	4.91
977.579	36.88
977.744	74.66
977.91	16.53
978.075	60.51
978.24	95.97
978.406	71.36
978.571	36.68
978.736	42.88
978.902	102.94
979.067	39.2
979.232	8.59
979.397	74.08
979.563	95.58
979.728	58.58
979.893	47.15
980.058	30.29
980.223	103.33
980.388	77.56
980.554	81.05
980.719	65.16
980.884	86.86
981.049	102.75
981.214	35.33
981.379	99.07
981.544	62.26
981.709	48.7
981.874	40.95
982.039	38.81
982.204	97.33
982.368	53.73
982.533	30.68
982.698	125.61
982.863	103.91
983.028	60.13
983.193	91.51
983.357	53.73
983.522	47.73
983.687	48.11
983.852	44.24
984.016	58.58
984.181	70.01
984.346	71.75
984.51	85.89
984.675	56.83
984.839	94.42
985.004	72.53
985.168	107.4
985.333	64
985.498	48.7
985.662	93.45
985.827	100.04
985.991	61.48
986.155	33.97
986.32	88.61
986.484	140.73
986.649	69.23
986.813	6.07
986.977	60.51
987.142	76.59
987.306	30.48
987.47	30.29
987.634	45.6
987.799	50.05
987.963	56.45
988.127	88.41
988.291	118.83
988.455	68.65
988.62	38.43
988.784	55.86
988.948	77.56
989.112	65.16
989.276	73.11
989.44	54.9
989.604	39.78
989.768	51.6
989.932	144.99
990.096	14.4
990.26	35.13
990.424	13.05
990.588	50.63
990.752	121.54
990.915	88.61
991.079	44.82
991.243	33.97
991.407	83.76
991.571	72.53
991.734	65.94
991.898	70.59
992.062	136.46
992.226	78.14
992.389	48.5
992.553	29.32
992.717	15.76
992.88	52.38
993.044	32.61
993.207	54.7
993.371	76.01
993.535	74.46
993.698	46.18
993.862	76.01
994.025	70.2
994.189	59.35
994.352	73.49
994.515	69.23
994.679	95.58
994.842	35.91
995.006	76.01
995.169	41.14
995.332	45.4
995.496	88.22
995.659	25.45
995.822	46.95
995.985	47.53
996.149	98.88
996.312	32.03
996.475	118.83
996.638	39.98
996.801	82.21
996.964	95.19
997.128	58
997.291	45.6
997.454	52.18
997.617	-2.45
997.78	82.02
997.943	22.15
998.106	77.95
998.269	32.61
998.432	67.29
998.595	73.3
998.758	14.01
998.92	12.85
999.083	35.71
999.246	38.81
999.409	2.97
999.572	3.75
999.735	28.74
999.897	70.2
1000.06	33.97
1000.223	28.16
1000.386	86.48
1000.548	78.92
1000.711	79.11
1000.874	41.53
1001.036	16.92
1001.199	63.03
1001.361	14.98
1001.524	41.53
1001.687	98.1
1001.849	21.76
1002.012	41.91
1002.174	59.54
1002.337	60.71
1002.499	41.91
1002.661	74.66
1002.824	7.62
1002.986	3.16
1003.149	90.74
1003.311	9.95
1003.473	103.91
1003.636	33.2
1003.798	57.8
1003.96	53.35
1004.123	45.6
1004.285	18.28
1004.447	36.68
1004.609	49.86
1004.771	96.16
1004.933	6.65
1005.096	-7.69
1005.258	-15.44
1005.42	26.8
1005.582	76.59
1005.744	31.45
1005.906	-12.34
1006.068	43.66
1006.23	4.52
1006.392	-7.88
1006.554	23.9
1006.716	59.74
1006.878	79.69
1007.04	-15.24
1007.202	28.35
1007.363	66.71
1007.525	42.69
1007.687	64.97
1007.849	87.06
1008.011	-7.1
1008.172	10.33
1008.334	20.8
1008.496	29.51
1008.658	-5.36
1008.819	-3.23
1008.981	8.78
1009.143	46.95
1009.304	27.38
1009.466	64.58
1009.627	85.12
1009.789	133.36
1009.95	24.09
1010.112	18.86
1010.273	41.53
1010.435	11.11
1010.596	8.78
1010.758	14.6
1010.919	24.09
1011.081	-23.96
1011.242	44.63
1011.403	55.86
1011.565	28.74
1011.726	42.88
1011.887	8.01
1012.049	14.79
1012.21	70.59
1012.371	82.41
1012.532	-43.72
1012.693	27.77
1012.855	16.53
1013.016	28.55
1013.177	61.29
1013.338	-3.42
1013.499	59.74
1013.66	28.16
1013.821	58
1013.982	36.1
1014.143	40.17
1014.304	21.76
1014.465	51.99
1014.626	60.51
1014.787	37.65
1014.948	93.26
1015.109	-39.65
1015.27	95
1015.431	1.61
1015.592	14.21
1015.752	61.29
1015.913	61.09
1016.074	39.78
1016.235	22.15
1016.395	32.42
1016.556	12.08
1016.717	23.31
1016.877	65.16
1017.038	33
1017.199	38.04
1017.359	-8.46
1017.52	6.46
1017.681	-0.9
1017.841	2.39
1018.002	42.5
1018.162	2
1018.323	66.13
1018.483	5.88
1018.644	-4.2
1018.804	-17.18
1018.964	-39.46
1019.125	11.88
1019.285	16.15
1019.446	-20.86
1019.606	-3.62
1019.766	-22.99
1019.926	37.46
1020.087	45.01
1020.247	-8.27
1020.407	31.06
1020.567	53.35
1020.728	-16.79
1020.888	-21.44
1021.048	8.98
1021.208	-30.93
1021.368	-4.39
1021.528	68.07
1021.688	31.84
1021.848	63.23
1022.008	39.59
1022.168	17.7
1022.328	9.17
1022.488	68.84
1022.648	10.53
1022.808	52.57
1022.968	33.58
1023.128	20.02
1023.288	-14.47
1023.448	9.36
1023.608	35.71
1023.767	33.58
1023.927	-21.64
1024.087	-19.7
1024.247	-24.93
1024.406	10.91
1024.566	-29.38
1024.726	21.76
1024.885	34.36
1025.045	55.09
1025.205	6.07
1025.364	4.71
1025.524	22.15
1025.683	3.55
1025.843	30.68
1026.003	16.73
1026.162	85.7
1026.321	61.48
1026.481	32.81
1026.64	6.26
1026.8	21.96
1026.959	11.3
1027.119	38.81
1027.278	-4.39
1027.437	-21.83
1027.597	15.76
1027.756	52.96
1027.915	29.71
1028.074	40.17
1028.234	-2.65
1028.393	41.14
1028.552	19.63
1028.711	-57.28
1028.87	67.49
1029.03	-31.52
1029.189	7.81
1029.348	-41.98
1029.507	-8.27
1029.666	15.37
1029.825	-16.99
1029.984	-7.69
1030.143	-21.44
1030.302	-9.82
1030.461	-55.73
1030.62	23.12
1030.779	35.91
1030.938	-27.06
1031.097	-19.31
1031.255	34.75
1031.414	36.3
1031.573	48.7
1031.732	-22.8
1031.891	6.26
1032.049	38.62
1032.208	52.18
1032.367	-36.55
1032.525	0.65
1032.684	2.2
1032.843	22.54
1033.001	-52.83
1033.16	152.35
1033.319	65.94
1033.477	12.46
1033.636	6.46
1033.794	-53.8
1033.953	45.6
1034.111	40.17
1034.27	8.4
1034.428	51.41
1034.587	6.26
1034.745	29.71
1034.903	33.78
1035.062	30.68
1035.22	-15.82
1035.378	27.58
1035.537	-26.87
1035.695	47.73
1035.853	11.3
1036.011	52.57
1036.17	31.26
1036.328	-66.2
1036.486	48.31
1036.644	26.03
1036.802	-47.4
1036.96	7.04
1037.119	-3.42
1037.277	-10.2
1037.435	-34.42
1037.593	9.17
1037.751	-4.2
1037.909	28.16
1038.067	28.16
