Data from pine_FLMT105791__190__17-23-44-072.txt Node

Date: Mon Mar 20 17:23:44 GMT 2023
User: antho
Spectrometer: FLMT10579
Trigger mode: 0
Integration Time (sec): 1.000000E-1
Scans to average: 10
Electric dark correction enabled: true
Nonlinearity correction enabled: false
Boxcar width: 0
XAxis mode: Wavelengths
Number of Pixels in Spectrum: 3648
>>>>>Begin Spectral Data<<<<<
345.248	-159.92
345.464	-159.92
345.681	-159.92
345.898	-178.91
346.114	-153.33
346.331	-54.52
346.548	61.34
346.764	-4.54
346.981	-1.44
347.197	-18.29
347.414	2.24
347.631	-22.36
347.847	50.49
348.064	19.49
348.28	16.78
348.497	-45.81
348.713	-3.37
348.93	25.11
349.146	-6.67
349.363	-7.64
349.579	-3.57
349.796	-9.96
350.012	-4.15
350.229	39.25
350.445	-2.21
350.661	-26.62
350.878	-21.78
351.094	9.8
351.311	-4.15
351.527	15.61
351.743	-27.01
351.96	30.14
352.176	36.73
352.392	27.63
352.609	20.46
352.825	-23.72
353.041	14.06
353.257	11.16
353.474	-0.66
353.69	8.44
353.906	16.39
354.122	-14.61
354.339	33.44
354.555	23.56
354.771	-40.19
354.987	66.18
355.203	55.14
355.42	-15
355.636	-3.96
355.852	-28.17
356.068	-5.31
356.284	-22.56
356.5	71.8
356.716	7.67
356.932	19.68
357.148	12.9
357.364	0.5
357.58	44.67
357.796	34.21
358.012	50.87
358.228	14.26
358.444	-65.18
358.66	54.17
358.876	7.86
359.092	-19.84
359.308	14.64
359.524	0.5
359.74	1.86
359.956	-8.99
360.172	38.09
360.388	57.85
360.604	-5.7
360.819	64.05
361.035	4.76
361.251	28.79
361.467	-23.72
361.683	12.13
361.898	7.86
362.114	6.12
362.33	-1.63
362.546	43.51
362.762	25.69
362.977	17.36
363.193	-40.77
363.409	57.27
363.624	-26.82
363.84	-0.27
364.056	-19.65
364.271	7.86
364.487	11.74
364.703	-20.04
364.918	-25.07
365.134	-3.18
365.35	1.08
365.565	105.9
365.781	-2.6
365.996	35.76
366.212	57.66
366.427	3.6
366.643	-24.3
366.858	-2.21
367.074	-26.43
367.289	48.55
367.505	97.96
367.72	-52.59
367.936	9.22
368.151	37.51
368.367	39.64
368.582	27.82
368.798	-16.74
369.013	34.79
369.228	13.29
369.444	-30.5
369.659	66.37
369.874	27.04
370.09	62.69
370.305	-48.71
370.52	-15.58
370.736	29.37
370.951	-14.81
371.166	55.14
371.381	48.55
371.597	51.07
371.812	-36.12
372.027	-21.59
372.242	-5.51
372.458	57.27
372.673	0.31
372.888	10.58
373.103	43.12
373.318	74.9
373.533	34.6
373.749	15.03
373.964	-42.32
374.179	68.12
374.394	-23.33
374.609	52.62
374.824	-30.69
375.039	28.4
375.254	-36.31
375.469	79.16
375.684	23.94
375.899	32.08
376.114	1.47
376.329	14.45
376.544	47.58
376.759	39.64
376.974	-30.89
377.189	6.31
377.404	-19.84
377.619	55.72
377.834	-59.75
378.049	-57.82
378.264	-28.95
378.478	20.07
378.693	-29.14
378.908	25.88
379.123	-9.19
379.338	49.32
379.553	9.03
379.767	11.93
379.982	20.46
380.197	45.26
380.412	29.76
380.626	25.49
380.841	87.49
381.056	25.88
381.271	61.72
381.485	-24.88
381.7	-25.07
381.915	21.62
382.129	4.96
382.344	18.91
382.559	3.79
382.773	40.8
382.988	-42.32
383.202	31.89
383.417	-18.49
383.632	100.28
383.846	1.86
384.061	19.29
384.275	8.06
384.49	23.94
384.704	47.58
384.919	21.23
385.133	20.65
385.348	24.53
385.562	-33.6
385.777	39.64
385.991	14.26
386.206	22.59
386.42	-15.97
386.634	58.43
386.849	28.79
387.063	12.32
387.277	-31.27
387.492	-16.74
387.706	-31.27
387.92	-15.58
388.135	38.09
388.349	-15
388.563	6.12
388.778	-8.99
388.992	31.89
389.206	41.19
389.42	96.21
389.635	0.5
389.849	15.81
390.063	44.48
390.277	23.56
390.491	54.75
390.706	44.48
390.92	44.29
391.134	-10.93
391.348	46.22
391.562	-25.46
391.776	1.66
391.99	-35.73
392.205	35.18
392.419	12.32
392.633	-7.06
392.847	75.87
393.061	-3.76
393.275	69.47
393.489	-9.77
393.703	5.54
393.917	47.58
394.131	22.78
394.345	21.04
394.559	45.64
394.773	18.91
394.986	14.26
395.2	11.16
395.414	46.61
395.628	-24.49
395.842	3.02
396.056	7.67
396.27	-27.01
396.484	27.43
396.697	32.47
396.911	83.62
397.125	23.94
397.339	37.31
397.553	17.16
397.766	63.47
397.98	34.79
398.194	60.17
398.408	-2.6
398.621	29.37
398.835	45.45
399.049	7.48
399.262	68.7
399.476	6.31
399.69	44.09
399.903	87.69
400.117	-7.83
400.331	33.05
400.544	-11.12
400.758	118.88
400.971	22.01
401.185	46.61
401.398	-5.31
401.612	31.69
401.826	17.94
402.039	51.84
402.253	11.54
402.466	36.92
402.68	-13.26
402.893	22.2
403.106	22.01
403.32	14.84
403.533	35.38
403.747	-5.31
403.96	34.79
404.174	51.65
404.387	-28.76
404.6	-1.44
404.814	37.51
405.027	4.96
405.24	18.71
405.454	-8.8
405.667	65.41
405.88	-39.02
406.094	18.52
406.307	41.19
406.52	10.58
406.733	-25.27
406.947	-32.05
407.16	84.2
407.373	46.22
407.586	-27.98
407.799	3.02
408.012	61.14
408.226	24.91
408.439	72.77
408.652	-22.17
408.865	18.33
409.078	30.14
409.291	21.23
409.504	-15.58
409.717	7.86
409.93	26.46
410.143	18.13
410.357	-18.87
410.57	-24.3
410.783	10.77
410.996	20.46
411.209	21.81
411.421	42.74
411.634	22.59
411.847	-3.37
412.06	31.69
412.273	10.77
412.486	22.01
412.699	96.02
412.912	18.91
413.125	43.51
413.338	4.76
413.55	47.77
413.763	14.84
413.976	26.08
414.189	5.34
414.402	-0.47
414.615	48.36
414.827	-4.92
415.04	21.04
415.253	26.85
415.466	41.57
415.678	75.87
415.891	19.88
416.104	19.29
416.316	-4.34
416.529	-32.05
416.742	11.16
416.954	60.37
417.167	36.34
417.38	8.25
417.592	65.6
417.805	20.46
418.017	-29.92
418.23	50.29
418.442	-4.92
418.655	-14.61
418.868	32.86
419.08	54.56
419.293	54.56
419.505	16.19
419.718	39.83
419.93	56.11
420.142	34.6
420.355	70.83
420.567	56.69
420.78	36.34
420.992	-1.82
421.205	43.9
421.417	-25.46
421.629	-0.66
421.842	-27.21
422.054	-45.42
422.266	44.09
422.479	34.99
422.691	-8.61
422.903	48.36
423.115	-8.99
423.328	23.17
423.54	33.83
423.752	17.36
423.964	-29.14
424.177	15.23
424.389	0.5
424.601	137.29
424.813	12.32
425.025	44.67
425.238	44.48
425.45	19.29
425.662	-4.73
425.874	288.8
426.086	19.68
426.298	53.97
426.51	11.93
426.722	39.44
426.934	-5.51
427.146	43.32
427.358	-11.12
427.57	39.25
427.782	9.61
427.994	34.99
428.206	21.23
428.418	-35.54
428.63	40.8
428.842	52.42
429.054	46.81
429.266	59.59
429.478	5.73
429.69	29.95
429.902	-21.78
430.114	47.77
430.325	48.74
430.537	31.69
430.749	31.5
430.961	-16.74
431.173	7.28
431.384	62.89
431.596	-66.73
431.808	6.31
432.02	22.01
432.231	26.66
432.443	75.67
432.655	21.04
432.867	-0.47
433.078	2.63
433.29	86.52
433.502	50.68
433.713	76.64
433.925	46.81
434.136	73.54
434.348	0.69
434.56	-12.67
434.771	105.71
434.983	-15.97
435.194	-11.12
435.406	0.11
435.617	67.54
435.829	88.85
436.04	39.25
436.252	50.87
436.463	64.24
436.675	31.69
436.886	19.88
437.098	28.79
437.309	45.64
437.521	12.51
437.732	43.71
437.943	30.34
438.155	34.6
438.366	-17.32
438.578	63.08
438.789	20.26
439	65.99
439.211	35.57
439.423	63.27
439.634	35.38
439.845	52.42
440.057	45.26
440.268	52.62
440.479	-25.85
440.69	37.31
440.902	-9.57
441.113	38.28
441.324	55.72
441.535	59.01
441.746	73.93
441.957	-0.27
442.168	5.54
442.38	44.09
442.591	39.44
442.802	7.09
443.013	5.34
443.224	42.93
443.435	28.01
443.646	24.14
443.857	29.95
444.068	-8.8
444.279	-17.71
444.49	87.49
444.701	35.57
444.912	108.03
445.123	52.81
445.334	65.41
445.545	47.58
445.756	46.42
445.967	14.64
446.178	49.71
446.388	76.84
446.599	67.34
446.81	58.62
447.021	-4.92
447.232	74.71
447.443	77.22
447.653	-4.54
447.864	54.36
448.075	3.21
448.286	67.73
448.496	21.23
448.707	76.45
448.918	18.33
449.129	120.04
449.339	8.83
449.55	68.89
449.761	36.34
449.971	71.02
450.182	12.51
450.393	56.11
450.603	48.94
450.814	82.46
451.024	51.46
451.235	60.95
451.446	76.45
451.656	74.51
451.867	46.61
452.077	61.34
452.288	90.4
452.498	85.94
452.709	57.85
452.919	75.48
453.13	48.74
453.34	88.46
453.55	8.44
453.761	81.1
453.971	66.96
454.182	62.69
454.392	91.95
454.602	106.09
454.813	81.68
455.023	88.07
455.233	18.33
455.444	66.57
455.654	-6.09
455.864	26.85
456.075	42.16
456.285	11.54
456.495	50.87
456.705	60.56
456.916	93.5
457.126	90.21
457.336	30.73
457.546	-17.52
457.756	14.84
457.967	95.44
458.177	17.16
458.387	72.38
458.597	28.59
458.807	43.9
459.017	33.44
459.227	53.2
459.437	39.25
459.647	92.72
459.857	63.47
460.068	25.3
460.278	105.51
460.488	60.56
460.698	117.52
460.908	63.08
461.117	5.15
461.327	32.08
461.537	33.24
461.747	47.58
461.957	50.87
462.167	137.48
462.377	58.04
462.587	56.69
462.797	71.99
463.007	67.73
463.216	54.17
463.426	115.97
463.636	89.43
463.846	32.08
464.056	34.99
464.265	101.64
464.475	41.77
464.685	71.8
464.895	72.57
465.104	53.78
465.314	73.35
465.524	56.11
465.733	38.86
465.943	134.38
466.153	129.92
466.362	87.11
466.572	62.31
466.782	45.45
466.991	52.42
467.201	119.85
467.41	32.28
467.62	59.79
467.829	55.72
468.039	99.89
468.249	37.31
468.458	55.91
468.668	66.37
468.877	87.49
469.086	114.81
469.296	105.51
469.505	11.35
469.715	137.29
469.924	80.32
470.134	123.92
470.343	137.09
470.552	54.94
470.762	50.29
470.971	64.63
471.18	66.76
471.39	69.86
471.599	19.29
471.808	83.23
472.018	41.96
472.227	86.14
472.436	100.67
472.645	37.51
472.855	34.99
473.064	80.52
473.273	80.52
473.482	70.44
473.691	92.34
473.901	105.12
474.11	71.61
474.319	154.72
474.528	78.39
474.737	113.84
474.946	71.99
475.155	73.16
475.364	113.65
475.573	56.3
475.783	96.79
475.992	91.37
476.201	119.46
476.41	61.14
476.619	74.12
476.828	81.68
477.037	30.73
477.245	64.63
477.454	109.39
477.663	57.85
477.872	44.67
478.081	92.92
478.29	16.19
478.499	154.92
478.708	69.09
478.917	148.52
479.125	84.97
479.334	104.74
479.543	53.01
479.752	99.51
479.961	76.26
480.169	89.04
480.378	53.97
480.587	181.27
480.796	124.89
481.004	76.06
481.213	99.89
481.422	64.24
481.63	85.56
481.839	109.58
482.048	129.73
482.256	104.74
482.465	77.03
482.674	110.36
482.882	95.63
483.091	177.78
483.299	87.88
483.508	120.04
483.716	112.29
483.925	107.06
484.134	93.31
484.342	97.96
484.551	140.19
484.759	107.45
484.967	108.03
485.176	123.34
485.384	130.12
485.593	147.75
485.801	90.4
486.01	123.92
486.218	104.16
486.426	50.87
486.635	128.37
486.843	95.63
487.051	102.41
487.26	102.41
487.468	130.12
487.676	130.7
487.885	75.67
488.093	92.34
488.301	71.41
488.509	93.69
488.717	132.25
488.926	114.42
489.134	113.46
489.342	124.69
489.55	76.84
489.758	121.98
489.967	93.69
490.175	191.34
490.383	91.56
490.591	149.69
490.799	71.61
491.007	176.42
491.215	109.58
491.423	108.22
491.631	91.56
491.839	88.46
492.047	162.86
492.255	105.12
492.463	78.77
492.671	125.47
492.879	167.51
493.087	118.11
493.295	137.67
493.503	129.15
493.711	129.54
493.919	147.17
494.127	177.59
494.334	172.55
494.542	81.87
494.75	125.47
494.958	120.43
495.166	146.78
495.374	149.69
495.581	97.37
495.789	116.94
495.997	170.8
496.205	141.16
496.412	101.06
496.62	90.4
496.828	134.19
497.035	121.4
497.243	146.39
497.451	115.59
497.658	125.47
497.866	147.17
498.074	171.77
498.281	126.24
498.489	184.37
498.696	159.76
498.904	110.94
499.112	129.34
499.319	197.93
499.527	96.79
499.734	181.65
499.942	98.34
500.149	137.87
500.357	119.85
500.564	117.72
500.771	152.79
500.979	131.47
501.186	147.94
501.394	151.62
501.601	124.69
501.808	149.88
502.016	162.86
502.223	158.02
502.43	135.74
502.638	153.95
502.845	122.95
503.052	177.2
503.26	137.29
503.467	183.2
503.674	146.2
503.881	157.63
504.089	250.24
504.296	159.37
504.503	98.15
504.71	145.81
504.917	110.74
505.125	140.77
505.332	136.32
505.539	174.49
505.746	189.99
505.953	157.44
506.16	164.22
506.367	162.09
506.574	204.71
506.781	194.64
506.988	141.35
507.195	125.66
507.402	151.04
507.609	212.07
507.816	160.54
508.023	137.87
508.23	147.75
508.437	96.79
508.644	171
508.851	206.65
509.058	173.52
509.265	160.34
509.472	173.9
509.679	231.06
509.885	133.6
510.092	156.85
510.299	158.6
510.506	159.18
510.713	163.44
510.92	172.55
511.126	190.37
511.333	192.5
511.54	163.44
511.746	214.78
511.953	227.77
512.16	219.24
512.367	137.67
512.573	166.74
512.78	184.17
512.987	190.95
513.193	184.75
513.4	95.44
513.606	148.52
513.813	208.39
514.02	204.13
514.226	252.18
514.433	239.58
514.639	167.12
514.846	171.77
515.052	157.82
515.259	166.35
515.465	158.99
515.672	142.52
515.878	265.55
516.085	133.22
516.291	211.68
516.497	130.31
516.704	169.84
516.91	152.4
517.117	133.6
517.323	152.2
517.529	174.68
517.736	204.13
517.942	176.42
518.148	161.89
518.354	184.56
518.561	192.89
518.767	192.89
518.973	217.3
519.179	210.72
519.386	168.48
519.592	157.44
519.798	174.49
520.004	198.12
520.21	160.73
520.417	198.9
520.623	222.73
520.829	213.82
521.035	187.66
521.241	222.34
521.447	229.9
521.653	310.69
521.859	181.27
522.065	208.39
522.271	291.12
522.477	232.42
522.683	241.13
522.889	226.99
523.095	256.44
523.301	249.66
523.507	191.73
523.713	229.9
523.919	188.44
524.125	256.05
524.331	209.55
524.537	268.45
524.742	247.14
524.948	263.61
525.154	224.67
525.36	313.21
525.566	250.43
525.772	274.07
525.977	195.22
526.183	241.72
526.389	251.21
526.595	229.32
526.8	243.65
527.006	186.11
527.212	216.53
527.417	183.59
527.623	203.16
527.829	244.23
528.034	217.88
528.24	247.14
528.446	188.44
528.651	251.6
528.857	226.6
529.062	267.29
529.268	216.72
529.473	228.93
529.679	207.81
529.884	299.45
530.09	257.02
530.295	295.19
530.501	286.67
530.706	256.83
530.912	211.3
531.117	244.23
531.323	241.91
531.528	260.9
531.733	272.91
531.939	231.06
532.144	250.05
532.35	270
532.555	268.84
532.76	292.09
532.966	300.03
533.171	294.61
533.376	239.97
533.581	233.19
533.787	264.38
533.992	270.58
534.197	304.49
534.402	249.47
534.607	261.09
534.813	350.21
535.018	255.47
535.223	238.62
535.428	277.37
535.633	299.06
535.838	256.05
536.043	257.02
536.249	332.2
536.454	247.72
536.659	280.27
536.864	243.65
537.069	252.18
537.274	278.92
537.479	282.79
537.684	285.12
537.889	251.79
538.094	325.41
538.299	246.56
538.504	295
538.708	280.27
538.913	327.74
539.118	257.22
539.323	299.26
539.528	250.24
539.733	282.98
539.938	298.1
540.142	313.79
540.347	293.45
540.552	262.25
540.757	308.75
540.962	290.54
541.166	248.11
541.371	202.58
541.576	300.61
541.781	169.64
541.985	277.56
542.19	281.05
542.395	326.38
542.599	351.57
542.804	314.18
543.008	318.44
543.213	267.68
543.418	227.77
543.622	337.04
543.827	268.65
544.031	338.01
544.236	319.21
544.44	286.86
544.645	365.91
544.849	291.9
545.054	304.1
545.258	370.95
545.463	349.83
545.667	301
545.872	326.38
546.076	301.2
546.281	280.47
546.485	276.2
546.689	298.68
546.894	340.14
547.098	307.78
547.302	261.48
547.507	298.29
547.711	316.5
547.915	360.1
548.119	296.16
548.324	297.9
548.528	344.01
548.732	291.51
548.936	302.36
549.141	343.43
549.345	284.73
549.549	294.03
549.753	262.83
549.957	356.8
550.161	360.1
550.366	293.06
550.57	261.09
550.774	311.66
550.978	297.9
551.182	344.01
551.386	295.38
551.59	272.72
551.794	273.3
551.998	331.03
552.202	294.42
552.406	252.57
552.61	307.98
552.814	295
553.018	335.88
553.222	331.42
553.426	317.66
553.63	371.53
553.833	270.78
554.037	253.73
554.241	318.25
554.445	306.23
554.649	298.29
554.853	275.23
555.056	326
555.26	347.7
555.464	342.08
555.668	321.35
555.871	343.43
556.075	347.7
556.279	276.2
556.483	244.23
556.686	300.42
556.89	297.52
557.094	311.46
557.297	272.33
557.501	360.1
557.704	271.94
557.908	338.98
558.112	271.75
558.315	363.39
558.519	327.93
558.722	344.4
558.926	302.16
559.129	296.16
559.333	252.37
559.536	294.22
559.74	278.14
559.943	285.89
560.147	269.03
560.35	321.73
560.553	270.39
560.757	242.49
560.96	350.02
561.164	276.01
561.367	350.02
561.57	275.43
561.774	287.05
561.977	295.58
562.18	264.77
562.384	377.15
562.587	296.55
562.79	302.36
562.993	305.26
563.197	340.53
563.4	371.33
563.603	327.93
563.806	424.61
564.009	278.92
564.212	301
564.416	257.99
564.619	339.95
564.822	287.44
565.025	360.1
565.228	299.84
565.431	309.72
565.634	217.3
565.837	310.3
566.04	282.4
566.243	292.48
566.446	214.98
566.649	322.7
566.852	279.3
567.055	283.18
567.258	325.61
567.461	366.1
567.664	361.45
567.867	213.62
568.07	332.39
568.273	312.43
568.475	350.21
568.678	274.65
568.881	300.81
569.084	308.36
569.287	210.14
569.489	270.78
569.692	317.66
569.895	330.84
570.098	252.57
570.3	276.01
570.503	218.85
570.706	240.75
570.909	212.46
571.111	238.81
571.314	220.6
571.516	257.02
571.719	278.53
571.922	254.31
572.124	276.4
572.327	257.41
572.529	195.02
572.732	238.62
572.935	230.09
573.137	321.73
573.34	233
573.542	277.17
573.745	276.2
573.947	278.14
574.15	240.36
574.352	211.1
574.554	305.46
574.757	210.72
574.959	253.92
575.162	196.77
575.364	232.22
575.566	338.98
575.769	221.76
575.971	245.01
576.173	187.47
576.376	268.26
576.578	284.92
576.78	306.04
576.982	174.87
577.185	257.22
577.387	214.98
577.589	193.09
577.791	265.74
577.993	239.39
578.196	216.14
578.398	259.15
578.6	283.76
578.802	197.35
579.004	216.92
579.206	215.75
579.408	268.84
579.61	210.72
579.812	252.57
580.014	224.28
580.216	223.5
580.418	218.66
580.62	195.41
580.822	181.85
581.024	196.96
581.226	238.42
581.428	224.86
581.63	267.29
581.832	207.81
582.034	291.12
582.236	233.38
582.438	257.8
582.64	285.89
582.841	265.16
583.043	322.31
583.245	250.24
583.447	282.21
583.649	245.98
583.85	260.32
584.052	280.27
584.254	233
584.456	274.85
584.657	190.37
584.859	243.27
585.061	218.85
585.262	227.77
585.464	195.8
585.666	258.18
585.867	233.38
586.069	316.11
586.27	281.43
586.472	258.57
586.674	242.49
586.875	201.22
587.077	215.75
587.278	229.51
587.48	235.9
587.681	329.1
587.883	257.41
588.084	184.95
588.285	238.03
588.487	225.25
588.688	260.7
588.89	186.3
589.091	197.35
589.292	228.93
589.494	236.29
589.695	240.55
589.896	168.09
590.098	171.19
590.299	225.05
590.5	182.82
590.702	199.29
590.903	198.12
591.104	283.76
591.305	208.97
591.507	292.09
591.708	263.42
591.909	233.97
592.11	289.38
592.311	246.95
592.512	227.77
592.714	171.39
592.915	174.49
593.116	175.45
593.317	206.07
593.518	172.16
593.719	202.39
593.92	236.48
594.121	259.54
594.322	211.68
594.523	217.11
594.724	168.67
594.925	193.09
595.126	259.54
595.327	235.52
595.528	240.94
595.729	238.42
595.929	218.08
596.13	199.87
596.331	234.35
596.532	220.98
596.733	274.27
596.934	229.9
597.135	228.54
597.335	220.98
597.536	209.75
597.737	211.88
597.938	208.2
598.138	250.63
598.339	199.48
598.54	240.17
598.74	208.59
598.941	217.5
599.142	274.65
599.342	239.2
599.543	204.52
599.744	240.17
599.944	188.63
600.145	196.77
600.345	214.01
600.546	297.71
600.746	254.12
600.947	290.93
601.147	243.46
601.348	272.33
601.548	201.8
601.749	250.24
601.949	208.2
602.15	209.36
602.35	241.13
602.551	267.68
602.751	160.54
602.951	204.13
603.152	133.99
603.352	254.5
603.552	214.4
603.753	245.01
603.953	235.13
604.153	227.96
604.354	198.7
604.554	214.01
604.754	202.97
604.954	158.02
605.155	208.97
605.355	201.8
605.555	250.82
605.755	255.47
605.955	223.7
606.155	277.37
606.356	222.34
606.556	238.23
606.756	280.47
606.956	188.63
607.156	270.2
607.356	200.64
607.556	252.76
607.756	240.94
607.956	264.97
608.156	223.12
608.356	205.49
608.556	272.13
608.756	204.13
608.956	194.05
609.156	237.45
609.356	186.89
609.556	177.97
609.755	237.26
609.955	192.5
610.155	243.07
610.355	215.75
610.555	238.23
610.755	240.94
610.954	182.43
611.154	233.38
611.354	239.58
611.554	209.55
611.753	192.31
611.953	177
612.153	232.42
612.352	224.08
612.552	160.73
612.752	149.49
612.951	188.63
613.151	207.42
613.351	159.57
613.55	210.72
613.75	230.87
613.949	204.9
614.149	211.1
614.348	232.03
614.548	183.79
614.747	173.13
614.947	175.65
615.146	135.15
615.346	243.07
615.545	209.94
615.745	244.82
615.944	235.71
616.144	193.86
616.343	230.87
616.542	208.59
616.742	206.26
616.941	212.07
617.14	164.02
617.34	204.9
617.539	190.95
617.738	199.29
617.938	262.45
618.137	215.37
618.336	146.2
618.535	217.11
618.734	180.69
618.934	242.49
619.133	225.25
619.332	211.49
619.531	185.14
619.73	185.53
619.929	236.68
620.128	228.35
620.328	234.93
620.527	162.67
620.726	196.96
620.925	219.82
621.124	183.01
621.323	243.65
621.522	161.31
621.721	151.43
621.92	147.94
622.119	244.62
622.318	183.59
622.517	169.06
622.715	173.32
622.914	151.24
623.113	173.13
623.312	132.44
623.511	199.29
623.71	149.1
623.909	165.96
624.107	255.67
624.306	148.14
624.505	151.82
624.704	154.14
624.902	166.74
625.101	231.06
625.3	215.56
625.499	172.35
625.697	174.29
625.896	187.27
626.095	192.89
626.293	129.92
626.492	139.61
626.69	226.02
626.889	127.02
627.088	220.6
627.286	151.04
627.485	178.17
627.683	158.79
627.882	214.4
628.08	147.36
628.279	167.32
628.477	274.27
628.676	149.88
628.874	193.28
629.073	170.22
629.271	165.19
629.469	182.43
629.668	189.4
629.866	172.74
630.065	142.9
630.263	208.2
630.461	138.45
630.66	199.48
630.858	169.84
631.056	206.84
631.254	218.08
631.453	134.57
631.651	211.49
631.849	179.52
632.047	199.48
632.245	177.78
632.444	199.87
632.642	174.49
632.84	179.33
633.038	144.07
633.236	131.09
633.434	145.23
633.632	136.7
633.83	160.15
634.028	202.97
634.227	170.8
634.425	245.4
634.623	183.98
634.821	158.79
635.019	178.36
635.216	164.02
635.414	195.99
635.612	165.19
635.81	167.51
636.008	238.81
636.206	154.14
636.404	206.45
636.602	125.66
636.8	157.24
636.997	203.74
637.195	191.92
637.393	191.15
637.591	227.57
637.789	193.86
637.986	154.34
638.184	168.67
638.382	211.68
638.58	204.32
638.777	255.08
638.975	165.57
639.173	179.14
639.37	186.89
639.568	173.13
639.765	177.97
639.963	160.92
640.161	217.11
640.358	184.75
640.556	195.6
640.753	126.24
640.951	143.87
641.148	173.71
641.346	150.85
641.543	171.77
641.741	189.79
641.938	135.93
642.136	180.69
642.333	145.81
642.531	203.94
642.728	226.8
642.925	169.45
643.123	159.37
643.32	150.46
643.517	164.41
643.715	197.35
643.912	172.35
644.109	165.57
644.306	154.72
644.504	149.49
644.701	180.1
644.898	204.9
645.095	154.53
645.293	186.3
645.49	189.4
645.687	174.68
645.884	202.39
646.081	103.38
646.278	162.67
646.475	131.47
646.672	148.33
646.87	187.85
647.067	201.22
647.264	173.32
647.461	144.26
647.658	130.7
647.855	195.02
648.052	164.8
648.249	98.34
648.446	160.92
648.642	164.41
648.839	141.55
649.036	141.35
649.233	109.58
649.43	125.66
649.627	127.21
649.824	146.59
650.021	139.61
650.217	132.05
650.414	136.51
650.611	160.54
650.808	160.15
651.004	148.91
651.201	145.42
651.398	224.08
651.595	162.67
651.791	149.1
651.988	169.84
652.185	139.61
652.381	173.71
652.578	101.06
652.775	164.41
652.971	144.65
653.168	170.42
653.364	179.33
653.561	78.19
653.757	156.27
653.954	152.59
654.15	116.56
654.347	203.94
654.543	161.12
654.74	118.69
654.936	114.42
655.133	133.6
655.329	129.54
655.525	168.29
655.722	172.16
655.918	130.5
656.115	175.45
656.311	119.46
656.507	98.34
656.704	73.54
656.9	113.84
657.096	111.32
657.292	100.86
657.489	145.81
657.685	175.07
657.881	142.9
658.077	117.33
658.273	108.22
658.47	212.46
658.666	134.57
658.862	161.7
659.058	133.22
659.254	167.9
659.45	122.17
659.646	139.61
659.842	135.35
660.038	176.62
660.234	97.96
660.43	147.17
660.626	196.57
660.822	184.56
661.018	192.31
661.214	154.53
661.41	101.44
661.606	131.67
661.802	173.13
661.998	121.98
662.194	90.98
662.39	146.78
662.586	161.12
662.781	184.75
662.977	159.18
663.173	156.27
663.369	158.79
663.564	162.09
663.76	196.19
663.956	151.43
664.152	188.44
664.347	115.39
664.543	147.55
664.739	164.22
664.934	94.08
665.13	95.24
665.326	195.6
665.521	164.99
665.717	121.98
665.912	87.49
666.108	92.34
666.304	84.59
666.499	127.6
666.695	77.22
666.89	132.25
667.086	177.2
667.281	143.49
667.477	162.67
667.672	156.27
667.867	152.98
668.063	163.64
668.258	107.45
668.454	153.17
668.649	198.7
668.844	170.61
669.04	151.82
669.235	149.69
669.43	126.05
669.626	99.31
669.821	120.24
670.016	94.66
670.211	126.44
670.407	118.49
670.602	131.67
670.797	138.64
670.992	169.84
671.187	126.44
671.382	148.91
671.578	99.31
671.773	156.47
671.968	91.56
672.163	155.3
672.358	142.13
672.553	119.85
672.748	117.72
672.943	219.24
673.138	143.87
673.333	164.99
673.528	108.81
673.723	145.04
673.918	140.97
674.113	113.65
674.308	181.07
674.503	142.32
674.698	156.85
674.892	174.68
675.087	163.05
675.282	180.49
675.477	110.74
675.672	157.24
675.867	124.5
676.061	100.28
676.256	103.19
676.451	114.23
676.646	142.32
676.84	109
677.035	89.24
677.23	82.26
677.424	128.37
677.619	164.41
677.814	146.59
678.008	183.01
678.203	74.51
678.397	113.07
678.592	141.16
678.787	187.08
678.981	121.98
679.176	151.82
679.37	145.62
679.565	102.41
679.759	106.29
679.954	129.15
680.148	176.62
680.342	165.96
680.537	167.7
680.731	130.89
680.926	135.15
681.12	160.92
681.314	84.01
681.509	142.32
681.703	147.75
681.897	155.89
682.092	121.79
682.286	114.81
682.48	181.07
682.674	168.09
682.869	134.19
683.063	141.74
683.257	181.85
683.451	96.02
683.645	157.05
683.839	111.52
684.034	132.83
684.228	177.39
684.422	93.31
684.616	114.42
684.81	162.67
685.004	108.61
685.198	144.07
685.392	184.37
685.586	124.5
685.78	131.28
685.974	155.89
686.168	161.12
686.362	176.42
686.556	122.17
686.75	95.05
686.944	115.78
687.138	186.5
687.331	91.37
687.525	132.44
687.719	92.53
687.913	127.02
688.107	117.33
688.301	98.15
688.494	130.89
688.688	100.86
688.882	63.08
689.076	90.4
689.269	107.64
689.463	189.02
689.657	103.96
689.85	104.74
690.044	80.71
690.238	91.37
690.431	100.28
690.625	80.52
690.818	112.87
691.012	102.61
691.205	170.8
691.399	65.99
691.593	129.73
691.786	168.67
691.98	134.77
692.173	170.22
692.366	146.2
692.56	123.92
692.753	209.36
692.947	70.06
693.14	194.83
693.333	153.37
693.527	81.68
693.72	151.24
693.914	97.76
694.107	136.7
694.3	144.45
694.493	124.3
694.687	157.24
694.88	122.76
695.073	163.05
695.266	165.96
695.46	119.46
695.653	159.37
695.846	176.42
696.039	79.36
696.232	128.18
696.425	140.19
696.618	164.41
696.812	128.76
697.005	186.11
697.198	230.48
697.391	161.7
697.584	156.47
697.777	207.81
697.97	200.25
698.163	211.1
698.356	156.66
698.549	237.84
698.742	197.93
698.935	181.07
699.127	190.76
699.32	151.24
699.513	162.67
699.706	212.65
699.899	208
700.092	172.16
700.285	213.43
700.477	146.78
700.67	222.34
700.863	208.39
701.056	291.32
701.248	228.54
701.441	221.57
701.634	202.39
701.826	296.35
702.019	170.42
702.212	266.13
702.404	166.35
702.597	186.89
702.79	198.51
702.982	224.86
703.175	236.87
703.367	232.42
703.56	248.3
703.752	341.3
703.945	269.62
704.137	273.88
704.33	263.42
704.522	281.05
704.715	282.21
704.907	278.53
705.1	267.87
705.292	272.91
705.484	246.95
705.677	288.41
705.869	299.45
706.061	314.37
706.254	353.51
706.446	310.69
706.638	274.27
706.831	372.3
707.023	277.37
707.215	359.32
707.407	331.81
707.599	345.18
707.792	363
707.984	323.48
708.176	344.21
708.368	318.25
708.56	322.9
708.752	342.46
708.944	294.42
709.136	358.55
709.329	364.36
709.521	460.46
709.713	379.28
709.905	360.1
710.097	387.8
710.289	329.48
710.481	365.52
710.672	376.76
710.864	366.49
711.056	432.36
711.248	413.96
711.44	437.79
711.632	386.25
711.824	422.87
712.016	461.43
712.207	434.69
712.399	448.64
712.591	485.06
712.783	445.15
712.975	477.31
713.166	403.69
713.358	434.88
713.55	505.99
713.741	483.9
713.933	477.31
714.125	471.69
714.316	417.64
714.508	509.09
714.7	511.99
714.891	483.51
715.083	560.62
715.274	492.81
715.466	485.64
715.657	535.24
715.849	461.23
716.04	508.51
716.232	443.41
716.423	518.19
716.615	477.7
716.806	496.88
716.998	486.03
717.189	454.26
717.381	420.16
717.572	419.58
717.763	486.81
717.955	488.36
718.146	464.53
718.337	442.05
718.528	423.26
718.72	387.61
718.911	458.91
719.102	400.39
719.293	457.74
719.485	445.93
719.676	425
719.867	394
720.058	402.91
720.249	416.28
720.44	451.16
720.632	442.63
720.823	469.56
721.014	520.13
721.205	510.83
721.396	509.09
721.587	589.1
721.778	566.05
721.969	575.15
722.16	600.34
722.351	539.12
722.542	655.95
722.733	653.43
722.924	572.25
723.115	665.25
723.305	646.45
723.496	650.72
723.687	589.3
723.878	592.01
724.069	600.92
724.26	627.08
724.45	599.37
724.641	571.86
724.832	586.97
725.023	611.39
725.213	600.34
725.404	596.08
725.595	632.5
725.785	568.18
725.976	622.62
726.167	633.86
726.357	624.75
726.548	716.4
726.739	640.84
726.929	642.58
727.12	683.07
727.31	725.12
727.501	680.94
727.691	714.85
727.882	700.32
728.072	689.66
728.263	680.36
728.453	717.56
728.644	727.44
728.834	721.63
729.024	692.37
729.215	715.04
729.405	753.98
729.596	790.8
729.786	796.61
729.976	781.3
730.167	799.32
730.357	741.2
730.547	755.73
730.737	789.44
730.928	817.73
731.118	849.11
731.308	798.74
731.498	762.12
731.688	863.84
731.879	853.76
732.069	906.08
732.259	845.82
732.449	856.09
732.639	945.02
732.829	927.97
733.019	964.39
733.209	959.55
733.399	971.95
733.589	972.92
733.779	1017.29
733.969	970.59
734.159	980.67
734.349	1025.81
734.539	1082.39
734.729	1052.16
734.919	1123.27
735.109	1088.39
735.299	1057.59
735.488	1113
735.678	1070.57
735.868	1076.57
736.058	1124.23
736.248	1092.65
736.437	1039.95
736.627	1003.34
736.817	1155.04
737.007	1106.02
737.196	1135.28
737.386	1113.97
737.576	1098.85
737.765	1115.32
737.955	1154.07
738.144	1192.24
738.334	1187.01
738.524	1106.41
738.713	1141.87
738.903	1172.48
739.092	1212
739.282	1189.14
739.471	1208.71
739.661	1184.1
739.85	1213.36
740.04	1212.58
740.229	1212.58
740.419	1237
740.608	1231.38
740.797	1232.73
740.987	1337.74
741.176	1280.2
741.365	1242.23
741.555	1213.75
741.744	1293.76
741.933	1266.25
742.123	1272.84
742.312	1324.57
742.501	1313.72
742.69	1317.59
742.88	1242.81
743.069	1333.68
743.258	1274
743.447	1324.18
743.636	1294.15
743.825	1333.48
744.014	1313.53
744.204	1356.34
744.393	1292.6
744.582	1356.34
744.771	1380.56
744.96	1332.32
745.149	1355.96
745.338	1302.48
745.527	1358.09
745.716	1308.68
745.905	1321.86
746.094	1373.39
746.283	1365.84
746.471	1386.37
746.66	1399.16
746.849	1353.44
747.038	1434.23
747.227	1339.1
747.416	1404.59
747.604	1333.09
747.793	1337.36
747.982	1371.65
748.171	1372.81
748.359	1433.65
748.548	1422.41
748.737	1420.09
748.926	1360.8
749.114	1335.61
749.303	1369.13
749.491	1413.89
749.68	1327.09
749.869	1393.16
750.057	1362.54
750.246	1399.55
750.434	1360.41
750.623	1380.95
750.811	1361.57
751	1406.33
751.188	1405.75
751.377	1386.57
751.565	1395.87
751.754	1388.12
751.942	1390.64
752.131	1426.48
752.319	1328.64
752.507	1359.64
752.696	1401.29
752.884	1450.5
753.072	1367.97
753.261	1363.32
753.449	1392.96
753.637	1371.07
753.825	1440.82
754.014	1382.69
754.202	1387.15
754.39	1466
754.578	1423.19
754.766	1398.77
754.955	1347.82
755.143	1417.37
755.331	1378.82
755.519	1357.7
755.707	1381.14
755.895	1351.5
756.083	1341.81
756.271	1380.37
756.459	1365.84
756.647	1428.42
756.835	1373.01
757.023	1383.66
757.211	1362.74
757.399	1371.46
757.587	1322.05
757.775	1312.94
757.963	1379.59
758.151	1364.29
758.339	1344.91
758.526	1301.71
758.714	1354.99
758.902	1305.58
759.09	1304.03
759.278	1178.87
759.465	1099.24
759.653	926.81
759.841	905.11
760.028	705.16
760.216	622.04
760.404	645.68
760.591	501.14
760.779	410.66
760.967	380.25
761.154	282.98
761.342	326.19
761.529	324.06
761.717	350.02
761.905	304.88
762.092	363.97
762.28	307.01
762.467	337.81
762.655	309.72
762.842	310.11
763.029	328.51
763.217	345.76
763.404	337.04
763.592	348.28
763.779	301
763.966	329.29
764.154	396.52
764.341	411.44
764.528	391.68
764.716	415.31
764.903	444.76
765.09	466.27
765.277	477.51
765.465	577.87
765.652	587.17
765.839	606.54
766.026	690.24
766.213	647.62
766.4	706.9
766.588	867.71
766.775	789.83
766.962	835.94
767.149	880.11
767.336	972.34
767.523	924.87
767.71	973.11
767.897	1041.89
768.084	1073.86
768.271	1072.12
768.458	1108.35
768.645	1109.51
768.832	1088
769.019	1123.07
769.206	1106.99
769.392	1199.6
769.579	1270.13
769.766	1231.96
769.953	1171.51
770.14	1233.12
770.327	1243.2
770.513	1243.58
770.7	1300.54
770.887	1193.6
771.073	1256.76
771.26	1223.43
771.447	1235.83
771.634	1251.14
771.82	1295.12
772.007	1222.85
772.193	1254.24
772.38	1320.11
772.567	1258.5
772.753	1257.15
772.94	1287.76
773.126	1299.77
773.313	1281.75
773.499	1275.74
773.686	1306.16
773.872	1256.56
774.059	1261.6
774.245	1245.33
774.432	1252.5
774.618	1216.85
774.804	1288.53
774.991	1199.8
775.177	1274.97
775.363	1229.25
775.55	1238.55
775.736	1211.23
775.922	1230.8
776.109	1263.15
776.295	1248.62
776.481	1242.23
776.667	1271.87
776.853	1251.53
777.04	1210.06
777.226	1213.16
777.412	1318.95
777.598	1240.48
777.784	1198.44
777.97	1219.95
778.156	1249.59
778.342	1221.88
778.528	1210.06
778.715	1172.09
778.901	1206.96
779.087	1212.97
779.272	1199.8
779.458	1159.88
779.644	1230.02
779.83	1162.02
780.016	1279.62
780.202	1200.76
780.388	1180.61
780.574	1144.97
780.76	1134.12
780.946	1229.05
781.131	1167.63
781.317	1195.73
781.503	1156.4
781.689	1154.65
781.874	1272.64
782.06	1177.13
782.246	1183.71
782.432	1172.09
782.617	1184.88
782.803	1250.95
782.989	1106.99
783.174	1157.75
783.36	1125.2
783.545	1136.44
783.731	1165.7
783.916	1105.83
784.102	1152.13
784.288	1132.95
784.473	1137.8
784.659	1144.58
784.844	1187.78
785.029	1115.71
785.215	1111.25
785.4	1093.23
785.586	1150.39
785.771	1104.28
785.956	1122.1
786.142	1117.84
786.327	1107.57
786.512	1146.9
786.698	1102.15
786.883	1067.47
787.068	1083.94
787.254	1100.21
787.439	1079.09
787.624	1089.75
787.809	1088
787.994	1095.95
788.18	1122.1
788.365	1053.52
788.55	1070.18
788.735	1051.58
788.92	1072.12
789.105	1059.14
789.29	1110.28
789.475	1040.15
789.66	1059.33
789.845	1021.94
790.03	1022.52
790.215	1106.41
790.4	1062.43
790.585	1125.78
790.77	1039.95
790.955	964.78
791.14	1061.65
791.325	1097.5
791.51	997.91
791.695	1052.55
791.879	1007.4
792.064	968.27
792.249	1066.3
792.434	1012.64
792.618	997.33
792.803	1014.96
792.988	1015.35
793.173	1032.2
793.357	1050.03
793.542	966.72
793.727	1017.09
793.911	1035.11
794.096	1024.07
794.281	1026.78
794.465	1107.77
794.65	1010.12
794.834	1055.07
795.019	1068.44
795.203	1047.7
795.388	1055.07
795.572	1077.93
795.757	1044.22
795.941	1052.35
796.126	1054.68
796.31	1014.77
796.494	1050.03
796.679	1011.86
796.863	1030.27
797.048	1098.66
797.232	1063.4
797.416	1026
797.601	1004.3
797.785	1095.17
797.969	1093.82
798.153	1032.4
798.338	1078.51
798.522	1066.69
798.706	1056.42
798.89	1070.37
799.074	1110.48
799.258	1078.12
799.443	1026.59
799.627	1023.29
799.811	1095.95
799.995	1056.81
800.179	1052.55
800.363	1045.96
800.547	1063.79
800.731	1106.6
800.915	975.82
801.099	1035.69
801.283	1037.82
801.467	1042.47
801.651	1029.1
801.835	1121.13
802.019	1054.1
802.202	1069.4
802.386	1008.76
802.57	1055.26
802.754	1048.67
802.938	1013.41
803.121	1025.04
803.305	1106.41
803.489	1038.21
803.673	1059.91
803.856	1092.85
804.04	1036.66
804.224	1077.15
804.407	1056.81
804.591	1025.42
804.775	1044.6
804.958	1071.92
805.142	1144.58
805.326	1064.75
805.509	1035.89
805.693	1073.47
805.876	1096.72
806.06	1059.14
806.243	1070.37
806.427	1096.33
806.61	1086.26
806.794	1036.85
806.977	1103.7
807.16	1060.3
807.344	1063.79
807.527	1061.46
807.71	1025.04
807.894	1056.81
808.077	1095.95
808.26	1036.47
808.444	1053.32
808.627	1105.25
808.81	1056.81
808.993	1028.52
809.177	1002.75
809.36	1026.59
809.543	1060.69
809.726	981.06
809.909	1013.6
810.092	999.85
810.276	979.31
810.459	1031.62
810.642	978.15
810.825	979.12
811.008	980.09
811.191	897.16
811.374	915.96
811.557	946.76
811.74	1050.22
811.923	909.56
812.106	909.18
812.289	877.21
812.472	887.48
812.654	933.2
812.837	886.89
813.02	876.63
813.203	888.06
813.386	860.74
813.569	811.91
813.751	798.35
813.934	832.64
814.117	812.69
814.3	793.9
814.482	752.05
814.665	793.31
814.848	735.38
815.03	724.73
815.213	733.64
815.396	711.17
815.578	701.48
815.761	719.69
815.943	761.73
816.126	672.03
816.309	684.23
816.491	648
816.674	615.45
816.856	658.85
817.039	599.57
817.221	728.41
817.403	666.41
817.586	651.49
817.768	695.47
817.951	626.5
818.133	637.93
818.315	624.95
818.498	677.84
818.68	703.03
818.862	689.85
819.045	720.27
819.227	703.42
819.409	662.92
819.591	712.33
819.774	652.27
819.956	643.55
820.138	703.8
820.32	691.6
820.502	688.5
820.684	737.51
820.866	728.02
821.048	784.01
821.231	755.92
821.413	760.57
821.595	729.38
821.777	733.25
821.959	715.82
822.141	821.6
822.323	692.95
822.505	695.08
822.686	691.02
822.868	671.83
823.05	599.37
823.232	599.18
823.414	545.12
823.596	634.25
823.778	593.37
823.96	616.23
824.141	572.83
824.323	608.67
824.505	635.99
824.687	666.22
824.868	665.05
825.05	725.31
825.232	748.95
825.413	773.55
825.595	747.59
825.777	665.63
825.958	715.23
826.14	718.14
826.321	757.66
826.503	718.33
826.685	712.72
826.866	755.92
827.048	734.03
827.229	684.43
827.411	690.24
827.592	645.29
827.773	716.98
827.955	642
828.136	678.03
828.318	625.34
828.499	670.48
828.68	618.94
828.862	673.77
829.043	700.51
829.224	700.51
829.406	636.38
829.587	649.36
829.768	643.74
829.949	671.83
830.131	635.22
830.312	709.03
830.493	644.13
830.674	682.88
830.855	665.63
831.036	654.4
831.218	712.33
831.399	698.57
831.58	644.9
831.761	649.94
831.942	685.01
832.123	666.8
832.304	598.21
832.485	657.11
832.666	645.1
832.847	654.98
833.028	644.32
833.209	666.02
833.389	628.05
833.57	613.13
833.751	610.22
833.932	697.8
834.113	666.41
834.294	647.04
834.475	650.52
834.655	689.47
834.836	698.38
835.017	661.76
835.198	596.08
835.378	662.73
835.559	702.06
835.74	650.72
835.92	647.62
836.101	636.57
836.281	675.32
836.462	665.83
836.643	713.49
836.823	712.91
837.004	710.39
837.184	743.33
837.365	698.57
837.545	708.26
837.726	661.18
837.906	722.4
838.087	717.56
838.267	687.92
838.448	637.54
838.628	715.23
838.808	671.06
838.989	763.86
839.169	642.58
839.349	702.64
839.53	704.58
839.71	701.87
839.89	671.25
840.07	751.46
840.251	632.7
840.431	730.54
840.611	716.4
840.791	631.34
840.971	684.43
841.151	675.52
841.332	658.08
841.512	727.63
841.692	622.43
841.872	694.31
842.052	679.39
842.232	688.69
842.412	615.84
842.592	686.37
842.772	684.62
842.952	695.28
843.132	659.43
843.312	661.37
843.492	631.73
843.672	692.18
843.851	617.39
844.031	662.73
844.211	654.01
844.391	630.95
844.571	663.31
844.751	688.11
844.93	641.03
845.11	654.01
845.29	660.4
845.47	688.88
845.649	699.93
845.829	673.77
846.009	590.46
846.188	680.17
846.368	666.41
846.547	645.68
846.727	727.63
846.907	650.33
847.086	653.23
847.266	662.73
847.445	635.99
847.625	647.04
847.804	631.15
847.984	656.14
848.163	623.01
848.343	615.45
848.522	659.82
848.701	656.92
848.881	604.6
849.06	645.29
849.239	667.18
849.419	661.76
849.598	619.91
849.777	633.47
849.957	626.3
850.136	594.92
850.315	560.82
850.494	591.62
850.674	573.41
850.853	632.7
851.032	604.8
851.211	657.88
851.39	631.34
851.569	572.44
851.748	585.04
851.927	632.12
852.107	629.02
852.286	569.54
852.465	566.05
852.644	628.82
852.823	618.17
853.002	619.14
853.181	588.91
853.359	611.39
853.538	572.25
853.717	637.54
853.896	549.39
854.075	563.34
854.254	548.61
854.433	490.49
854.611	552.49
854.79	491.26
854.969	518.58
855.148	567.4
855.327	516.84
855.505	567.6
855.684	515.48
855.863	541.44
856.041	519.74
856.22	536.02
856.399	508.7
856.577	596.27
856.756	577.29
856.934	676.29
857.113	661.57
857.291	600.15
857.47	553.07
857.648	559.85
857.827	564.69
858.005	604.99
858.184	570.31
858.362	631.73
858.541	579.8
858.719	566.63
858.898	561.79
859.076	544.35
859.254	628.24
859.433	590.85
859.611	586
859.789	513.35
859.967	617.59
860.146	648.78
860.324	519.55
860.502	555.2
860.68	533.5
860.859	499.79
861.037	546.29
861.215	572.83
861.393	556.17
861.571	565.27
861.749	523.04
861.927	541.83
862.105	575.15
862.283	567.4
862.461	520.91
862.639	495.91
862.817	553.65
862.995	554.81
863.173	549.19
863.351	544.93
863.529	549
863.707	570.31
863.885	527.11
864.063	474.02
864.241	503.47
864.418	598.4
864.596	530.79
864.774	489.13
864.952	528.27
865.129	567.99
865.307	514.9
865.485	472.08
865.663	576.9
865.84	468.98
866.018	532.72
866.196	404.46
866.373	477.51
866.551	448.25
866.728	405.24
866.906	442.83
867.084	445.54
867.261	487.77
867.439	503.08
867.616	487.39
867.794	482.16
867.971	482.35
868.149	491.26
868.326	536.02
868.503	514.9
868.681	509.67
868.858	464.72
869.035	478.28
869.213	538.54
869.39	464.72
869.567	532.53
869.745	474.6
869.922	471.89
870.099	525.56
870.276	554.62
870.454	513.54
870.631	532.53
870.808	456
870.985	503.86
871.162	582.9
871.339	521.49
871.517	454.64
871.694	450.96
871.871	507.15
872.048	491.46
872.225	419.38
872.402	477.89
872.579	427.33
872.756	505.02
872.933	456
873.11	456.39
873.287	498.82
873.463	446.12
873.64	446.89
873.817	503.66
873.994	474.02
874.171	457.16
874.348	481.57
874.524	400.78
874.701	492.81
874.878	397.29
875.055	481.77
875.231	464.72
875.408	491.46
875.585	417.25
875.762	463.17
875.938	438.76
876.115	445.15
876.291	434.3
876.468	456
876.645	412.79
876.821	434.69
876.998	406.98
877.174	463.56
877.351	428.49
877.527	424.61
877.704	452.51
877.88	439.92
878.057	416.86
878.233	485.26
878.409	390.71
878.586	461.62
878.762	430.43
878.938	408.92
879.115	369.98
879.291	419.77
879.467	368.81
879.644	418.99
879.82	462.39
879.996	413.96
880.172	355.25
880.349	413.38
880.525	453.29
880.701	389.54
880.877	390.9
881.053	441.86
881.229	400.01
881.405	455.61
881.581	382.38
881.757	415.31
881.933	411.63
882.109	452.51
882.285	415.89
882.461	389.35
882.637	388.19
882.813	385.28
882.989	426.55
883.165	457.55
883.341	357.19
883.517	441.66
883.693	387.99
883.869	411.44
884.044	381.99
884.22	437.79
884.396	424.23
884.572	415.31
884.747	436.43
884.923	429.26
885.099	437.21
885.275	459.68
885.45	395.55
885.626	409.11
885.801	390.9
885.977	377.15
886.153	356.8
886.328	399.04
886.504	380.63
886.679	431.39
886.855	382.96
887.03	416.67
887.206	449.03
887.381	426.74
887.557	431.98
887.732	441.86
887.908	428.68
888.083	447.86
888.258	389.93
888.434	380.25
888.609	413.38
888.784	440.69
888.96	391.68
889.135	363.2
889.31	383.73
889.485	375.01
889.661	403.3
889.836	430.04
890.011	436.04
890.186	384.51
890.361	367.07
890.537	398.26
890.712	411.44
890.887	429.46
891.062	411.83
891.237	445.73
891.412	370.36
891.587	417.25
891.762	443.79
891.937	459.68
892.112	382.57
892.287	412.02
892.462	372.11
892.637	354.67
892.812	334.71
892.987	340.53
893.161	353.9
893.336	370.56
893.511	354.86
893.686	376.95
893.861	363.39
894.035	346.73
894.21	357.58
894.385	333.16
894.56	373.85
894.734	329.1
894.909	345.37
895.084	326.96
895.258	356.8
895.433	354.67
895.608	319.8
895.782	287.05
895.957	318.44
896.131	321.35
896.306	267.87
896.48	291.12
896.655	304.49
896.829	228.54
897.004	259.73
897.178	278.92
897.353	250.05
897.527	295.58
897.701	275.43
897.876	207.04
898.05	286.86
898.224	267.48
898.399	327.55
898.573	289.38
898.747	237.45
898.921	270.97
899.096	200.64
899.27	204.71
899.444	196.77
899.618	213.23
899.792	212.65
899.967	200.45
900.141	234.35
900.315	194.44
900.489	248.69
900.663	264.19
900.837	237.65
901.011	202.77
901.185	319.6
901.359	266.9
901.533	256.63
901.707	246.56
901.881	256.83
902.055	198.7
902.229	239.58
902.403	300.23
902.576	233.19
902.75	259.35
902.924	326.38
903.098	268.07
903.272	264.19
903.446	288.22
903.619	260.7
903.793	272.72
903.967	256.83
904.14	336.07
904.314	329.68
904.488	296.16
904.661	317.28
904.835	294.42
905.009	316.7
905.182	350.99
905.356	328.71
905.529	302.94
905.703	258.57
905.876	258.38
906.05	261.28
906.223	275.62
906.397	188.05
906.57	222.15
906.744	208.78
906.917	244.23
907.09	230.09
907.264	221.95
907.437	261.67
907.61	192.31
907.784	231.45
907.957	246.75
908.13	195.8
908.304	248.69
908.477	206.84
908.65	231.06
908.823	196.19
908.996	250.43
909.17	195.6
909.343	208
909.516	218.47
909.689	199.09
909.862	221.18
910.035	195.02
910.208	209.94
910.381	212.46
910.554	271.55
910.727	209.36
910.9	186.3
911.073	197.74
911.246	262.45
911.419	231.25
911.592	242.88
911.765	183.98
911.938	186.11
912.11	218.08
912.283	200.45
912.456	228.35
912.629	214.2
912.802	169.64
912.974	147.94
913.147	151.82
913.32	125.08
913.493	173.71
913.665	181.46
913.838	167.7
914.01	176.42
914.183	185.14
914.356	151.82
914.528	184.37
914.701	234.74
914.873	233.19
915.046	196.96
915.218	180.69
915.391	111.13
915.563	175.45
915.736	185.92
915.908	228.73
916.081	168.87
916.253	158.99
916.425	156.27
916.598	176.62
916.77	154.53
916.942	162.86
917.115	110.55
917.287	211.1
917.459	183.59
917.632	160.15
917.804	124.5
917.976	188.24
918.148	146.59
918.32	162.28
918.493	162.09
918.665	195.41
918.837	134.38
919.009	208.39
919.181	202.39
919.353	184.75
919.525	180.1
919.697	200.25
919.869	171.77
920.041	207.23
920.213	252.37
920.385	200.45
920.557	170.8
920.729	230.28
920.901	197.93
921.073	177.59
921.244	171.19
921.416	210.14
921.588	199.87
921.76	176.42
921.932	230.28
922.103	187.47
922.275	178.94
922.447	179.14
922.619	96.99
922.79	160.73
922.962	146.59
923.134	192.31
923.305	131.47
923.477	110.74
923.648	159.18
923.82	161.31
923.991	120.43
924.163	133.41
924.335	165.96
924.506	117.14
924.677	179.72
924.849	146.39
925.02	154.92
925.192	165.38
925.363	166.15
925.535	156.08
925.706	128.37
925.877	179.52
926.049	128.95
926.22	171.77
926.391	141.74
926.562	180.69
926.734	126.05
926.905	177.59
927.076	118.88
927.247	117.72
927.419	113.84
927.59	123.34
927.761	120.24
927.932	132.05
928.103	157.05
928.274	92.53
928.445	87.88
928.616	130.5
928.787	123.92
928.958	145.42
929.129	119.85
929.3	124.89
929.471	92.53
929.642	41.38
929.813	40.8
929.984	132.64
930.155	37.51
930.326	100.28
930.496	67.92
930.667	25.49
930.838	74.32
931.009	11.93
931.18	48.74
931.35	74.71
931.521	74.32
931.692	27.24
931.863	6.7
932.033	70.06
932.204	34.6
932.374	84.39
932.545	24.53
932.716	84.39
932.886	94.08
933.057	-14.81
933.227	18.91
933.398	92.92
933.568	24.91
933.739	-17.52
933.909	10.58
934.08	49.13
934.25	-20.42
934.421	-13.45
934.591	23.36
934.761	-21.39
934.932	-38.64
935.102	16
935.272	5.54
935.443	15.03
935.613	12.71
935.783	26.85
935.953	-42.9
936.123	154.53
936.294	-22.17
936.464	-20.23
936.634	17.94
936.804	-28.76
936.974	-32.82
937.144	39.25
937.314	15.03
937.484	13.68
937.655	-19.84
937.825	26.66
937.995	-14.42
938.165	52.81
938.334	-3.96
938.504	10.38
938.674	-31.27
938.844	-28.95
939.014	28.21
939.184	41.77
939.354	58.82
939.524	51.65
939.694	7.28
939.863	0.89
940.033	80.13
940.203	62.69
940.373	54.17
940.542	57.07
940.712	22.01
940.882	62.11
941.051	59.01
941.221	66.76
941.391	80.91
941.56	17.16
941.73	4.18
941.899	116.17
942.069	12.13
942.238	33.05
942.408	59.01
942.577	58.04
942.747	43.12
942.916	-17.91
943.086	-0.47
943.255	71.22
943.425	43.12
943.594	13.48
943.763	-6.28
943.933	-37.09
944.102	-37.28
944.271	7.28
944.441	28.79
944.61	-0.86
944.779	21.81
944.948	80.91
945.117	-7.06
945.287	3.6
945.456	-36.12
945.625	12.51
945.794	50.49
945.963	-6.67
946.132	50.29
946.301	18.13
946.47	38.47
946.639	-41.16
946.808	-4.54
946.977	32.08
947.146	88.27
947.315	4.38
947.484	39.25
947.653	24.91
947.822	9.41
947.991	-8.02
948.16	69.86
948.329	55.52
948.498	13.48
948.666	5.73
948.835	35.38
949.004	-32.44
949.173	-20.81
949.341	17.74
949.51	29.95
949.679	41.96
949.847	61.53
950.016	102.99
950.185	90.59
950.353	-4.54
950.522	-8.22
950.69	38.67
950.859	1.66
951.028	27.63
951.196	38.28
951.365	-5.51
951.533	32.28
951.701	52.81
951.87	57.46
952.038	-8.8
952.207	30.92
952.375	99.89
952.543	-14.22
952.712	27.04
952.88	-1.24
953.048	46.03
953.217	-9.96
953.385	8.64
953.553	51.65
953.721	-12.48
953.89	17.74
954.058	-13.26
954.226	-18.1
954.394	28.01
954.562	-9.19
954.73	27.43
954.898	5.93
955.067	53.01
955.235	-15
955.403	51.84
955.571	61.14
955.739	12.9
955.907	-8.22
956.075	-9.77
956.243	15.61
956.41	44.29
956.578	-39.41
956.746	-23.72
956.914	-0.08
957.082	25.88
957.25	25.49
957.418	-16.36
957.585	19.68
957.753	71.99
957.921	-12.48
958.089	23.17
958.256	31.31
958.424	25.11
958.592	37.31
958.759	-11.32
958.927	43.32
959.095	-14.03
959.262	28.4
959.43	28.4
959.597	-9.57
959.765	26.46
959.932	-29.72
960.1	41.77
960.267	18.91
960.435	12.71
960.602	84.01
960.77	-33.79
960.937	-32.05
961.104	15.23
961.272	-43.29
961.439	-25.07
961.606	43.9
961.774	51.26
961.941	-11.9
962.108	38.86
962.275	9.61
962.443	60.56
962.61	21.81
962.777	95.63
962.944	44.09
963.111	41.38
963.278	30.53
963.446	32.66
963.613	22.2
963.78	55.72
963.947	55.33
964.114	38.67
964.281	121.4
964.448	37.31
964.615	1.47
964.782	39.06
964.949	47.58
965.116	60.17
965.282	70.25
965.449	12.9
965.616	-32.44
965.783	37.7
965.95	15.42
966.117	3.21
966.283	20.65
966.45	55.14
966.617	13.09
966.784	67.73
966.95	52.04
967.117	43.32
967.284	-15.97
967.45	-7.25
967.617	56.88
967.784	49.91
967.95	85.56
968.117	11.16
968.283	49.32
968.45	116.94
968.616	37.89
968.783	74.71
968.949	16.97
969.116	78.97
969.282	-2.21
969.449	40.02
969.615	40.99
969.781	-18.87
969.948	10.58
970.114	-38.06
970.28	63.08
970.447	14.26
970.613	65.21
970.779	16.78
970.945	34.21
971.112	25.69
971.278	7.86
971.444	31.11
971.61	57.27
971.776	7.86
971.942	56.88
972.108	52.81
972.275	40.02
972.441	64.63
972.607	98.92
972.773	-1.44
972.939	25.11
973.105	38.67
973.271	0.11
973.437	25.3
973.602	14.06
973.768	40.41
973.934	42.54
974.1	55.33
974.266	-48.91
974.432	63.08
974.598	35.18
974.763	40.02
974.929	5.15
975.095	76.06
975.261	3.02
975.426	-11.9
975.592	31.31
975.758	81.29
975.923	-27.79
976.089	9.03
976.255	64.05
976.42	21.43
976.586	16.39
976.751	32.08
976.917	112.1
977.082	50.29
977.248	-6.67
977.413	-26.24
977.579	-18.68
977.744	30.14
977.91	2.24
978.075	11.74
978.24	39.64
978.406	39.83
978.571	21.62
978.736	0.69
978.902	54.17
979.067	-7.25
979.232	-35.73
979.397	37.7
979.563	62.89
979.728	-6.67
979.893	21.23
980.058	10.58
980.223	49.32
980.388	33.24
980.554	33.44
980.719	-13.26
980.884	19.1
981.049	56.69
981.214	11.74
981.379	18.33
981.544	-5.12
981.709	17.74
981.874	4.18
982.039	34.99
982.204	42.93
982.368	26.66
982.533	15.23
982.698	64.24
982.863	64.05
983.028	10.77
983.193	19.49
983.357	30.73
983.522	34.02
983.687	36.54
983.852	-1.63
984.016	25.69
984.181	45.84
984.346	30.92
984.51	22.78
984.675	26.46
984.839	54.56
985.004	24.91
985.168	78.97
985.333	25.49
985.498	8.44
985.662	50.29
985.827	49.71
985.991	27.24
986.155	12.13
986.32	61.34
986.484	71.61
986.649	54.17
986.813	-5.12
986.977	39.25
987.142	47
987.306	-11.9
987.47	4.96
987.634	25.88
987.799	53.2
987.963	29.95
988.127	64.63
988.291	95.44
988.455	28.79
988.62	20.84
988.784	54.17
988.948	70.64
989.112	-8.99
989.276	45.84
989.44	-1.24
989.604	-8.22
989.768	8.44
989.932	99.31
990.096	4.18
990.26	-19.84
990.424	-2.79
990.588	20.07
990.752	101.44
990.915	53.39
991.079	22.39
991.243	-0.47
991.407	49.71
991.571	16.97
991.734	38.09
991.898	42.35
992.062	100.47
992.226	19.1
992.389	-12.87
992.553	-23.14
992.717	7.09
992.88	19.68
993.044	54.17
993.207	14.45
993.371	48.74
993.535	11.54
993.698	-2.6
993.862	64.44
994.025	75.87
994.189	24.91
994.352	34.21
994.515	47.39
994.679	46.61
994.842	21.04
995.006	63.08
995.169	14.84
995.332	5.34
995.496	54.36
995.659	-24.11
995.822	4.76
995.985	14.64
996.149	62.11
996.312	38.47
996.475	80.32
996.638	19.68
996.801	69.86
996.964	53.2
997.128	24.14
997.291	4.38
997.454	42.93
997.617	-13.84
997.78	65.6
997.943	-2.21
998.106	36.73
998.269	-3.37
998.432	16
998.595	34.41
998.758	-49.49
998.92	-10.54
999.083	-29.53
999.246	24.33
999.409	-15.97
999.572	-38.83
999.735	-10.16
999.897	40.02
1000.06	-8.61
1000.223	3.02
1000.386	48.55
1000.548	50.49
1000.711	36.73
1000.874	29.56
1001.036	-20.62
1001.199	68.31
1001.361	-12.67
1001.524	26.27
1001.687	46.81
1001.849	-3.37
1002.012	3.6
1002.174	19.88
1002.337	33.44
1002.499	4.96
1002.661	45.84
1002.824	-30.31
1002.986	-10.35
1003.149	7.86
1003.311	-7.25
1003.473	57.66
1003.636	-10.35
1003.798	14.45
1003.96	23.75
1004.123	24.33
1004.285	-6.09
1004.447	0.5
1004.609	31.69
1004.771	49.91
1004.933	-23.14
1005.096	-8.8
1005.258	-22.94
1005.42	-31.66
1005.582	43.71
1005.744	47.97
1005.906	-9.96
1006.068	27.04
1006.23	-31.27
1006.392	-30.69
1006.554	-15.19
1006.716	58.24
1006.878	28.98
1007.04	-33.41
1007.202	9.03
1007.363	8.25
1007.525	45.26
1007.687	17.74
1007.849	73.74
1008.011	-30.5
1008.172	-21.97
1008.334	25.49
1008.496	48.16
1008.658	-45.03
1008.819	-9.57
1008.981	-26.24
1009.143	-30.31
1009.304	14.06
1009.466	35.76
1009.627	71.8
1009.789	95.24
1009.95	50.29
1010.112	-4.15
1010.273	26.46
1010.435	1.28
1010.596	23.75
1010.758	5.54
1010.919	0.69
1011.081	-22.36
1011.242	1.08
1011.403	20.65
1011.565	3.79
1011.726	39.06
1011.887	-28.37
1012.049	-2.99
1012.21	25.88
1012.371	46.42
1012.532	-70.02
1012.693	0.89
1012.855	-7.25
1013.016	3.6
1013.177	70.06
1013.338	-10.54
1013.499	86.33
1013.66	36.54
1013.821	8.06
1013.982	23.17
1014.143	22.59
1014.304	-1.05
1014.465	29.76
1014.626	29.95
1014.787	2.63
1014.948	79.36
1015.109	-57.82
1015.27	52.81
1015.431	-34.57
1015.592	-16.74
1015.752	49.32
1015.913	0.11
1016.074	15.23
1016.235	-0.86
1016.395	23.17
1016.556	10.96
1016.717	-9.38
1016.877	45.26
1017.038	-32.24
1017.199	25.11
1017.359	17.55
1017.52	8.64
1017.681	-2.21
1017.841	7.28
1018.002	-25.46
1018.162	-1.44
1018.323	45.64
1018.483	7.48
1018.644	-7.06
1018.804	-65.18
1018.964	-21.97
1019.125	19.88
1019.285	13.29
1019.446	-36.51
1019.606	-26.82
1019.766	-54.33
1019.926	28.59
1020.087	17.94
1020.247	-31.27
1020.407	12.51
1020.567	60.37
1020.728	0.5
1020.888	-63.63
1021.048	-21.78
1021.208	-29.92
1021.368	-31.08
1021.528	54.75
1021.688	22.2
1021.848	39.64
1022.008	-0.27
1022.168	-4.73
1022.328	-0.66
1022.488	17.94
1022.648	-15.97
1022.808	0.31
1022.968	31.69
1023.128	-0.08
1023.288	-10.54
1023.448	-0.66
1023.608	27.82
1023.767	22.39
1023.927	-34.57
1024.087	-12.87
1024.247	-15.39
1024.406	-19.84
1024.566	-27.4
1024.726	-24.49
1024.885	14.06
1025.045	25.11
1025.205	-5.12
1025.364	-10.54
1025.524	11.74
1025.683	15.42
1025.843	20.26
1026.003	-14.22
1026.162	57.85
1026.321	45.64
1026.481	-6.67
1026.64	-7.25
1026.8	12.13
1026.959	5.73
1027.119	22.59
1027.278	-2.21
1027.437	-38.06
1027.597	5.15
1027.756	20.84
1027.915	7.48
1028.074	24.72
1028.234	9.99
1028.393	26.66
1028.552	-11.71
1028.711	-90.17
1028.87	37.51
1029.03	-42.71
1029.189	10.58
1029.348	-78.74
1029.507	-21.59
1029.666	-41.16
1029.825	-28.37
1029.984	-24.49
1030.143	12.51
1030.302	6.12
1030.461	-52.2
1030.62	-9.19
1030.779	51.65
1030.938	-46.39
1031.097	-47.16
1031.255	18.52
1031.414	50.29
1031.573	53.39
1031.732	-43.29
1031.891	-9.77
1032.049	40.41
1032.208	19.68
1032.367	-25.07
1032.525	-18.1
1032.684	2.44
1032.843	-7.64
1033.001	-52
1033.16	108.81
1033.319	40.41
1033.477	16.19
1033.636	-14.42
1033.794	-51.04
1033.953	33.24
1034.111	70.64
1034.27	-20.62
1034.428	33.83
1034.587	-20.81
1034.745	3.79
1034.903	15.81
1035.062	18.52
1035.22	-51.23
1035.378	36.92
1035.537	-27.21
1035.695	55.33
1035.853	-8.99
1036.011	31.11
1036.17	27.43
1036.328	-47.16
1036.486	16.58
1036.644	2.24
1036.802	-83.59
1036.96	-19.26
1037.119	-6.09
1037.277	-42.9
1037.435	-41.74
1037.593	-33.41
1037.751	-9.77
1037.909	38.28
1038.067	38.28
