Data from pine_FLMT105791__77__17-21-17-077.txt Node

Date: Mon Mar 20 17:21:17 GMT 2023
User: antho
Spectrometer: FLMT10579
Trigger mode: 0
Integration Time (sec): 1.000000E-1
Scans to average: 10
Electric dark correction enabled: true
Nonlinearity correction enabled: false
Boxcar width: 0
XAxis mode: Wavelengths
Number of Pixels in Spectrum: 3648
>>>>>Begin Spectral Data<<<<<
345.248	-146.38
345.464	-146.38
345.681	-146.38
345.898	-164.01
346.114	-165.75
346.331	-29.74
346.548	25.48
346.764	24.12
346.981	-22.96
347.197	-12.88
347.414	6.68
347.631	-32.07
347.847	84.18
348.064	6.68
348.28	15.79
348.497	-37.1
348.713	-28.19
348.93	32.65
349.146	33.81
349.363	-1.65
349.579	15.6
349.796	9.59
350.012	9.4
350.229	17.15
350.445	13.08
350.661	-6.68
350.878	45.82
351.094	14.43
351.311	29.16
351.527	18.31
351.743	-0.87
351.96	36.13
352.176	54.73
352.392	37.49
352.609	49.11
352.825	-2.62
353.041	8.04
353.257	-14.63
353.474	-13.08
353.69	7.27
353.906	14.82
354.122	-33.03
354.339	47.76
354.555	-5.52
354.771	9.98
354.987	69.07
355.203	42.33
355.42	-24.51
355.636	-15.4
355.852	2.23
356.068	8.04
356.284	-29.35
356.5	52.6
356.716	24.9
356.932	22.57
357.148	65.97
357.364	23.54
357.58	61.71
357.796	61.32
358.012	51.05
358.228	4.75
358.444	-63.84
358.66	58.22
358.876	22.38
359.092	4.17
359.308	11.53
359.524	53.18
359.74	-9.59
359.956	-7.85
360.172	21.41
360.388	53.57
360.604	-37.68
360.819	76.82
361.035	15.21
361.251	38.07
361.467	-2.42
361.683	82.25
361.898	6.88
362.114	25.87
362.33	15.98
362.546	31.48
362.762	29.16
362.977	10.95
363.193	-21.6
363.409	82.05
363.624	-31.1
363.84	-13.27
364.056	6.88
364.271	29.74
364.487	3
364.703	10.95
364.918	2.03
365.134	11.33
365.35	11.72
365.565	119.83
365.781	6.3
365.996	30.13
366.212	65
366.427	9.01
366.643	6.1
366.858	5.52
367.074	-22.38
367.289	35.94
367.505	136.3
367.72	-27.03
367.936	10.17
368.151	41.75
368.367	37.49
368.582	26.25
368.798	6.68
369.013	64.42
369.228	-4.55
369.444	8.04
369.659	77.4
369.874	61.9
370.09	53.96
370.305	-74.3
370.52	13.27
370.736	49.11
370.951	-0.1
371.166	57.45
371.381	83.41
371.597	44.08
371.812	-14.63
372.027	-0.29
372.242	9.98
372.458	110.92
372.673	11.14
372.888	13.27
373.103	43.3
373.318	95.23
373.533	33.23
373.749	19.67
373.964	-30.32
374.179	49.11
374.394	11.92
374.609	93.29
374.824	0.68
375.039	50.66
375.254	12.3
375.469	94.06
375.684	22.38
375.899	59
376.114	7.27
376.329	30.32
376.544	46.98
376.759	46.21
376.974	-3.78
377.189	-3.78
377.404	32.45
377.619	51.05
377.834	-14.05
378.049	-30.52
378.264	-22.96
378.478	17.15
378.693	-9.98
378.908	49.31
379.123	11.72
379.338	49.7
379.553	37.3
379.767	44.66
379.982	45.82
380.197	44.66
380.412	20.25
380.626	48.73
380.841	101.23
381.056	70.81
381.271	64.03
381.485	3.78
381.7	-25.09
381.915	20.63
382.129	9.98
382.344	36.33
382.559	9.98
382.773	68.49
382.988	-14.24
383.202	56.09
383.417	9.78
383.632	137.85
383.846	40.01
384.061	35.75
384.275	18.31
384.49	24.51
384.704	46.98
384.919	54.73
385.133	22.18
385.348	29.74
385.562	-28.58
385.777	29.74
385.991	23.54
386.206	-0.87
386.42	-12.11
386.634	43.5
386.849	35.36
387.063	49.11
387.277	-21.02
387.492	-7.65
387.706	-8.62
387.92	0.1
388.135	58.8
388.349	32.07
388.563	44.46
388.778	18.31
388.992	32.07
389.206	67.91
389.42	100.46
389.635	10.95
389.849	27.61
390.063	54.54
390.277	34.58
390.491	55.31
390.706	49.7
390.92	42.92
391.134	16.76
391.348	58.8
391.562	-19.86
391.776	19.08
391.99	-27.61
392.205	55.51
392.419	-23.93
392.633	7.65
392.847	73.91
393.061	-7.65
393.275	90.19
393.489	16.18
393.703	59
393.917	89.03
394.131	-6.49
394.345	71.59
394.559	66.75
394.773	14.24
394.986	30.71
395.2	10.75
395.414	49.89
395.628	0.68
395.842	70.04
396.056	0.29
396.27	-37.88
396.484	40.78
396.697	15.21
396.911	73.14
397.125	67.91
397.339	36.91
397.553	41.75
397.766	103.17
397.98	38.46
398.194	55.12
398.408	32.65
398.621	35.75
398.835	47.18
399.049	44.46
399.262	75.08
399.476	58.03
399.69	40.2
399.903	105.3
400.117	8.23
400.331	71.2
400.544	22.57
400.758	131.84
400.971	56.86
401.185	59.19
401.398	0.68
401.612	70.81
401.826	71.4
402.039	68.3
402.253	0.1
402.466	55.51
402.68	38.07
402.893	56.48
403.106	38.46
403.32	32.65
403.533	25.09
403.747	35.17
403.96	43.3
404.174	43.5
404.387	-9.2
404.6	44.66
404.814	84.38
405.027	51.25
405.24	39.43
405.454	12.88
405.667	77.98
405.88	-9.01
406.094	47.56
406.307	74.11
406.52	32.07
406.733	37.88
406.947	14.63
407.16	86.12
407.373	65.2
407.586	9.59
407.799	14.82
408.012	65.58
408.226	59.38
408.439	105.3
408.652	-1.26
408.865	68.1
409.078	83.6
409.291	52.21
409.504	35.17
409.717	39.62
409.93	89.41
410.143	76.63
410.357	-20.44
410.57	-2.23
410.783	52.6
410.996	82.63
411.209	25.28
411.421	77.98
411.634	29.74
411.847	25.09
412.06	42.14
412.273	28
412.486	50.08
412.699	139.21
412.912	37.1
413.125	90.96
413.338	68.88
413.55	73.14
413.763	32.65
413.976	21.8
414.189	26.45
414.402	44.08
414.615	77.21
414.827	26.45
415.04	71.4
415.253	73.14
415.466	67.52
415.678	129.91
415.891	56.28
416.104	27.42
416.316	55.31
416.529	0.29
416.742	91.35
416.954	78.18
417.167	46.01
417.38	10.37
417.592	76.24
417.805	34
418.017	-6.3
418.23	81.86
418.442	43.3
418.655	41.75
418.868	61.13
419.08	88.64
419.293	65.97
419.505	41.56
419.718	75.46
419.93	87.09
420.142	41.95
420.355	103.95
420.567	93.68
420.78	65.39
420.992	92.13
421.205	98.71
421.417	20.63
421.629	34.58
421.842	20.25
422.054	-0.29
422.266	86.12
422.479	78.76
422.691	22.57
422.903	94.45
423.115	43.5
423.328	64.81
423.54	61.13
423.752	50.47
423.964	41.75
424.177	67.71
424.389	41.95
424.601	155.68
424.813	95.42
425.025	92.13
425.238	98.91
425.45	61.51
425.662	59.58
425.874	394.95
426.086	58.03
426.298	85.15
426.51	90.96
426.722	74.5
426.934	83.8
427.146	86.9
427.358	38.46
427.57	87.09
427.782	71.01
427.994	71.01
428.206	51.63
428.418	21.8
428.63	98.71
428.842	94.26
429.054	69.07
429.266	102.78
429.478	46.4
429.69	89.03
429.902	32.84
430.114	103.36
430.325	89.61
430.537	65.58
430.749	84.96
430.961	21.8
431.173	99.49
431.384	123.13
431.596	1.84
431.808	74.69
432.02	98.52
432.231	109.95
432.443	131.84
432.655	115.57
432.867	67.33
433.078	108.6
433.29	150.64
433.502	132.23
433.713	134.94
433.925	119.64
434.136	142.89
434.348	65.78
434.56	49.5
434.771	186.48
434.983	51.83
435.194	64.61
435.406	98.33
435.617	147.34
435.829	153.35
436.04	118.48
436.252	157.23
436.463	173.69
436.675	175.05
436.886	145.79
437.098	123.13
437.309	163.23
437.521	112.08
437.732	132.62
437.943	154.13
438.155	106.85
438.366	80.7
438.578	189.58
438.789	133.59
439	177.38
439.211	108.98
439.423	144.83
439.634	161.68
439.845	164.39
440.057	133.2
440.268	172.73
440.479	116.35
440.69	172.53
440.902	126.61
441.113	146.76
441.324	153.16
441.535	149.86
441.746	196.36
441.957	114.21
442.168	121.38
442.38	163.04
442.591	210.31
442.802	107.24
443.013	121.77
443.224	159.55
443.435	148.89
443.646	139.4
443.857	139.59
444.068	126.03
444.279	132.04
444.49	220.19
444.701	179.51
444.912	240.15
445.123	194.23
445.334	186.68
445.545	183.77
445.756	183.96
445.967	147.73
446.178	189.58
446.388	212.44
446.599	210.31
446.81	202.56
447.021	184.16
447.232	220.97
447.443	237.44
447.653	170.79
447.864	208.57
448.075	203.73
448.286	206.83
448.496	197.91
448.707	227.94
448.918	169.04
449.129	280.64
449.339	163.62
449.55	206.24
449.761	199.27
449.971	266.5
450.182	197.14
450.393	243.25
450.603	208.38
450.814	237.24
451.024	218.84
451.235	229.3
451.446	258.36
451.656	257.01
451.867	191.33
452.077	233.76
452.288	271.15
452.498	261.66
452.709	203.53
452.919	255.46
453.13	216.9
453.34	259.91
453.55	166.53
453.761	247.12
453.971	244.99
454.182	275.99
454.392	249.64
454.602	288.2
454.813	263.4
455.023	282.39
455.233	205.08
455.444	246.35
455.654	174.86
455.864	222.52
456.075	238.21
456.285	224.65
456.495	263.98
456.705	282.39
456.916	292.46
457.126	297.5
457.336	235.69
457.546	186.68
457.756	228.91
457.967	302.15
458.177	239.76
458.387	265.53
458.597	199.85
458.807	247.51
459.017	252.55
459.227	244.41
459.437	254.1
459.647	295.95
459.857	279.67
460.068	227.94
460.278	316.1
460.488	272.89
460.698	300.02
460.908	247.12
461.117	225.62
461.327	215.54
461.537	261.27
461.747	263.01
461.957	284.71
462.167	360.85
462.377	297.31
462.587	272.7
462.797	281.81
463.007	282
463.216	306.99
463.426	322.88
463.636	319.2
463.846	232.98
464.056	289.17
464.265	334.5
464.475	260.88
464.685	280.45
464.895	286.46
465.104	288.97
465.314	307.38
465.524	251.97
465.733	251.19
465.943	374.03
466.153	350.2
466.362	313.39
466.572	305.25
466.782	291.49
466.991	316.1
467.201	362.4
467.41	260.11
467.62	319.97
467.829	307.57
468.039	338.77
468.249	278.71
468.458	320.55
468.668	336.05
468.877	332.37
469.086	386.04
469.296	351.75
469.505	286.46
469.715	393.21
469.924	333.92
470.134	358.53
470.343	363.37
470.552	321.33
470.762	316.49
470.971	277.35
471.18	321.91
471.39	337.41
471.599	297.31
471.808	350.59
472.018	327.92
472.227	370.54
472.436	371.51
472.645	367.44
472.855	345.16
473.064	385.46
473.273	375.97
473.482	369.19
473.691	410.84
473.901	416.85
474.11	371.9
474.319	452.88
474.528	365.89
474.737	442.62
474.946	423.24
475.155	386.24
475.364	431.57
475.573	393.79
475.783	415.68
475.992	423.63
476.201	450.56
476.41	365.89
476.619	362.21
476.828	406.58
477.037	390.3
477.245	396.5
477.454	451.33
477.663	420.53
477.872	400.38
478.081	463.93
478.29	380.81
478.499	508.68
478.708	448.43
478.917	512.17
479.125	409.87
479.334	443.2
479.543	433.12
479.752	456.76
479.961	447.07
480.169	480.98
480.378	452.3
480.587	581.14
480.796	488.92
481.004	453.27
481.213	506.36
481.422	488.53
481.63	469.74
481.839	482.33
482.048	554.41
482.256	518.95
482.465	504.23
482.674	505.97
482.882	499.77
483.091	541.23
483.299	502.29
483.508	546.46
483.716	487.95
483.925	504.81
484.134	499.58
484.342	509.26
484.551	542.2
484.759	540.07
484.967	539.68
485.176	587.93
485.384	547.43
485.593	589.67
485.801	554.99
486.01	510.43
486.218	497.45
486.426	434.48
486.635	475.17
486.843	484.85
487.051	521.86
487.26	505
487.468	536.58
487.676	576.88
487.885	523.02
488.093	514.11
488.301	585.02
488.509	593.93
488.717	590.25
488.926	545.69
489.134	549.37
489.342	576.49
489.55	555.96
489.758	566.23
489.967	572.81
490.175	674.34
490.383	562.35
490.591	649.73
490.799	583.66
491.007	653.8
491.215	616.21
491.423	612.53
491.631	587.73
491.839	614.28
492.047	613.69
492.255	565.06
492.463	560.22
492.671	595.68
492.879	643.73
493.087	617.38
493.295	643.92
493.503	657.48
493.711	666.97
493.919	676.47
494.127	682.28
494.334	671.82
494.542	603.62
494.75	677.63
494.958	655.35
495.166	713.67
495.374	714.25
495.581	675.11
495.789	684.61
495.997	735.37
496.205	648.57
496.412	683.64
496.62	660
496.828	696.62
497.035	677.24
497.243	719.87
497.451	680.92
497.658	678.79
497.866	690.03
498.074	763.27
498.281	673.17
498.489	754.16
498.696	651.48
498.904	678.79
499.112	649.15
499.319	754.94
499.527	707.08
499.734	744.86
499.942	670.27
500.149	696.81
500.357	706.89
500.564	661.74
500.771	738.86
500.979	667.17
501.186	658.64
501.394	706.5
501.601	688.87
501.808	745.05
502.016	705.53
502.223	678.6
502.43	693.32
502.638	716.77
502.845	676.86
503.052	784.97
503.26	678.41
503.467	783.8
503.674	728.2
503.881	768.89
504.089	785.94
504.296	758.81
504.503	724.91
504.71	734.98
504.917	696.42
505.125	774.7
505.332	756.29
505.539	786.9
505.746	830.11
505.953	810.15
506.16	791.36
506.367	830.5
506.574	836.12
506.781	843.48
506.988	776.44
507.195	765.79
507.402	783.42
507.609	796.59
507.816	782.06
508.023	786.32
508.23	769.47
508.437	757.45
508.644	819.45
508.851	868.86
509.058	852.78
509.265	814.8
509.472	855.68
509.679	931.05
509.885	805.31
510.092	819.45
510.299	810.74
510.506	853.75
510.713	860.53
510.92	852.2
511.126	856.85
511.333	900.44
511.54	893.08
511.746	920.98
511.953	915.75
512.16	932.41
512.367	861.88
512.573	874.87
512.78	898.7
512.987	882.23
513.193	872.15
513.4	816.35
513.606	877.77
513.813	880.1
514.02	925.05
514.226	973.48
514.433	937.64
514.639	864.79
514.846	897.34
515.052	874.28
515.259	901.41
515.465	930.08
515.672	896.76
515.878	1002.16
516.085	893.08
516.291	968.64
516.497	913.23
516.704	889.59
516.91	868.28
517.117	833.4
517.323	817.32
517.529	840.77
517.736	843.67
517.942	869.05
518.148	863.24
518.354	900.05
518.561	891.92
518.767	886.68
518.973	946.94
519.179	957.4
519.386	910.9
519.592	893.85
519.798	907.8
520.004	1019.01
520.21	970
520.417	1016.49
520.623	1046.91
520.829	1065.51
521.035	1012.43
521.241	1047.49
521.447	1030.06
521.653	1131.19
521.859	1040.71
522.065	1054.47
522.271	1126.35
522.477	1102.71
522.683	1113.37
522.889	1087.99
523.095	1064.54
523.301	1095.74
523.507	1064.16
523.713	1079.27
523.919	993.44
524.125	1100.19
524.331	1093.61
524.537	1166.46
524.742	1141.85
524.948	1175.17
525.154	1155.22
525.36	1231.75
525.566	1135.65
525.772	1207.34
525.977	1088.76
526.183	1170.91
526.389	1203.85
526.595	1102.52
526.8	1101.94
527.006	1081.98
527.212	1057.18
527.417	1045.94
527.623	1041.88
527.829	1113.56
528.034	1143.01
528.24	1123.83
528.446	1100.19
528.651	1212.18
528.857	1211.4
529.062	1283.28
529.268	1204.62
529.473	1236.4
529.679	1189.7
529.884	1261.39
530.09	1245.12
530.295	1269.72
530.501	1264.88
530.706	1298.98
530.912	1247.44
531.117	1233.69
531.323	1240.08
531.528	1300.33
531.733	1297.43
531.939	1241.05
532.144	1275.15
532.35	1246.86
532.555	1258.87
532.76	1305.37
532.966	1322.81
533.171	1282.51
533.376	1209.85
533.581	1224.39
533.787	1217.02
533.992	1285.22
534.197	1302.27
534.402	1298.01
534.607	1293.75
534.813	1373.18
535.018	1294.33
535.223	1311.38
535.428	1304.21
535.633	1369.7
535.838	1355.16
536.043	1341.8
536.249	1428.98
536.454	1380.16
536.659	1383.45
536.864	1339.08
537.069	1312.93
537.274	1331.53
537.479	1361.36
537.684	1389.26
537.889	1334.43
538.094	1436.15
538.299	1366.01
538.504	1402.63
538.708	1395.08
538.913	1402.83
539.118	1360.59
539.323	1381.13
539.528	1330.17
539.733	1320.48
539.938	1379.19
540.142	1391.01
540.347	1311.77
540.552	1336.95
540.757	1317.97
540.962	1343.73
541.166	1308.47
541.371	1315.64
541.576	1332.5
541.781	1264.49
541.985	1366.98
542.19	1332.3
542.395	1395.27
542.599	1459.01
542.804	1421.81
543.008	1428.4
543.213	1381.9
543.418	1329.98
543.622	1407.28
543.827	1331.92
544.031	1416.58
544.236	1442.93
544.44	1417.55
544.645	1484.98
544.849	1385.97
545.054	1422.98
545.258	1496.79
545.463	1461.92
545.667	1354.58
545.872	1447.78
546.076	1435.38
546.281	1428.6
546.485	1385.2
546.689	1460.37
546.894	1456.11
547.098	1425.11
547.302	1385
547.507	1443.32
547.711	1444.29
547.915	1474.13
548.119	1388.68
548.324	1392.36
548.528	1484.39
548.732	1444.68
548.936	1485.75
549.141	1472.77
549.345	1447
549.549	1469.86
549.753	1476.26
549.957	1546.2
550.161	1523.14
550.366	1479.74
550.57	1439.06
550.774	1454.75
550.978	1461.53
551.182	1477.42
551.386	1477.61
551.59	1431.11
551.794	1482.46
551.998	1488.08
552.202	1450.68
552.406	1434.21
552.61	1495.05
552.814	1469.09
553.018	1544.84
553.222	1460.37
553.426	1485.36
553.63	1557.82
553.833	1448.55
554.037	1423.75
554.241	1493.89
554.445	1487.3
554.649	1449.91
554.853	1464.05
555.056	1539.03
555.26	1522.76
555.464	1486.53
555.668	1495.83
555.871	1515.59
556.075	1537.09
556.279	1428.79
556.483	1424.14
556.686	1437.51
556.89	1433.63
557.094	1506.29
557.297	1435.57
557.501	1511.52
557.704	1402.63
557.908	1476.45
558.112	1394.88
558.315	1483.23
558.519	1438.48
558.722	1455.53
558.926	1409.03
559.129	1355.36
559.333	1369.11
559.536	1407.67
559.74	1389.26
559.943	1362.53
560.147	1322.03
560.35	1415.42
560.553	1394.11
560.757	1333.08
560.96	1448.94
561.164	1387.33
561.367	1460.76
561.57	1379.96
561.774	1419.88
561.977	1363.69
562.18	1388.3
562.384	1544.07
562.587	1413.68
562.79	1378.8
562.993	1386.16
563.197	1446.03
563.4	1492.92
563.603	1436.73
563.806	1481.49
564.009	1357.3
564.212	1392.95
564.416	1328.04
564.619	1374.93
564.822	1347.61
565.025	1413.48
565.228	1376.67
565.431	1390.23
565.634	1315.45
565.837	1361.95
566.04	1351.29
566.243	1331.92
566.446	1242.99
566.649	1325.13
566.852	1327.85
567.055	1290.45
567.258	1343.35
567.461	1417.75
567.664	1397.21
567.867	1289.48
568.07	1343.73
568.273	1341.8
568.475	1395.85
568.678	1282.7
568.881	1335.02
569.084	1298.4
569.287	1192.03
569.489	1260.04
569.692	1301.5
569.895	1363.3
570.098	1206.75
570.3	1243.57
570.503	1193.39
570.706	1234.07
570.909	1245.89
571.111	1206.56
571.314	1200.75
571.516	1236.79
571.719	1254.03
571.922	1205.2
572.124	1222.06
572.327	1240.85
572.529	1175.76
572.732	1159.87
572.935	1262.36
573.137	1292.97
573.34	1203.85
573.542	1286
573.745	1230.39
573.947	1261.97
574.15	1224.58
574.352	1180.02
574.554	1266.24
574.757	1167.42
574.959	1199.2
575.162	1144.17
575.364	1166.84
575.566	1273.4
575.769	1201.72
575.971	1202.3
576.173	1083.34
576.376	1132.16
576.578	1191.25
576.78	1239.69
576.982	1103.29
577.185	1165.1
577.387	1119.76
577.589	1123.25
577.791	1201.14
577.993	1196.68
578.196	1205.01
578.398	1167.62
578.6	1208.11
578.802	1114.53
579.004	1124.99
579.206	1133.32
579.408	1165.87
579.61	1121.51
579.812	1195.32
580.014	1132.94
580.216	1145.34
580.418	1145.34
580.62	1125.19
580.822	1094.57
581.024	1158.9
581.226	1213.15
581.428	1145.72
581.63	1230.2
581.832	1156.19
582.034	1232.14
582.236	1140.11
582.438	1208.11
582.64	1216.44
582.841	1232.14
583.043	1251.12
583.245	1186.8
583.447	1207.14
583.649	1162.58
583.85	1170.14
584.052	1166.84
584.254	1126.54
584.456	1200.55
584.657	1101.55
584.859	1137.01
585.061	1151.34
585.262	1131.19
585.464	1123.44
585.666	1186.22
585.867	1125.77
586.069	1205.98
586.27	1145.92
586.472	1136.62
586.674	1108.52
586.875	1111.82
587.077	1084.89
587.278	1134.1
587.48	1151.73
587.681	1247.64
587.883	1143.79
588.084	1065.9
588.285	1121.51
588.487	1090.89
588.688	1122.67
588.89	1062.8
589.091	1031.8
589.292	1039.36
589.494	983.95
589.695	960.5
589.896	921.17
590.098	922.33
590.299	996.35
590.5	957.98
590.702	976.58
590.903	988.98
591.104	1100.39
591.305	1051.76
591.507	1095.74
591.708	1043.62
591.909	1020.76
592.11	1089.34
592.311	1076.17
592.512	1020.56
592.714	986.85
592.915	994.6
593.116	1022.11
593.317	1043.43
593.518	1051.56
593.719	1017.27
593.92	1076.75
594.121	1050.21
594.322	1024.24
594.523	1058.34
594.724	986.85
594.925	1021.92
595.126	1034.32
595.327	1035.09
595.528	1045.36
595.729	1050.21
595.929	1024.83
596.13	1046.91
596.331	1023.08
596.532	1036.84
596.733	1086.63
596.934	1053.5
597.135	1081.4
597.335	1086.44
597.536	1003.32
597.737	1016.11
597.938	996.73
598.138	1039.55
598.339	1013.01
598.54	1027.54
598.74	1017.27
598.941	1021.73
599.142	1060.09
599.342	1055.24
599.543	993.25
599.744	991.11
599.944	1039.55
600.145	1023.86
600.345	1003.51
600.546	1096.32
600.746	1079.27
600.947	1133.13
601.147	1057.38
601.348	1088.38
601.548	986.27
601.749	1042.65
601.949	1006.61
602.15	997.31
602.35	1026.76
602.551	1066.68
602.751	980.46
602.951	981.04
603.152	968.25
603.352	1051.18
603.552	1022.31
603.753	1038.58
603.953	1037.23
604.153	1023.47
604.354	1037.61
604.554	1007.97
604.754	1049.43
604.954	966.31
605.155	1035.09
605.355	987.24
605.555	1059.31
605.755	1073.26
605.955	1044.01
606.155	1029.67
606.356	1005.26
606.556	1021.34
606.756	1031.99
606.956	985.5
607.156	1054.66
607.356	1019.98
607.556	1016.11
607.756	1015.14
607.956	1038
608.156	1043.04
608.356	999.45
608.556	1051.76
608.756	1037.61
608.956	916.72
609.156	1008.74
609.356	993.63
609.556	988.6
609.755	974.84
609.955	987.43
610.155	994.99
610.355	992.28
610.555	942.29
610.755	1008.55
610.954	926.79
611.154	989.37
611.354	1023.47
611.554	918.85
611.753	966.12
611.953	928.53
612.153	1001.38
612.352	951.59
612.552	945.78
612.752	917.49
612.951	964.38
613.151	970.77
613.351	956.63
613.55	959.15
613.75	978.33
613.949	941.9
614.149	952.36
614.348	915.36
614.548	929.89
614.747	892.11
614.947	915.17
615.146	885.13
615.346	972.32
615.545	960.11
615.745	924.85
615.944	952.75
616.144	937.45
616.343	930.47
616.542	919.23
616.742	915.17
616.941	905.48
617.14	837.28
617.34	890.56
617.539	893.47
617.738	877
617.938	986.46
618.137	888.82
618.336	842.9
618.535	908.58
618.734	875.64
618.934	924.66
619.133	914.78
619.332	934.93
619.531	884.55
619.73	930.47
619.929	953.33
620.128	937.64
620.328	979.1
620.527	864.02
620.726	910.52
620.925	938.03
621.124	879.9
621.323	935.31
621.522	885.33
621.721	868.28
621.92	891.33
622.119	932.6
622.318	842.32
622.517	900.25
622.715	875.45
622.914	827.01
623.113	870.02
623.312	857.62
623.511	892.11
623.71	906.06
623.909	837.28
624.107	932.99
624.306	823.72
624.505	844.83
624.704	858.2
624.902	841.54
625.101	923.11
625.3	892.88
625.499	831.27
625.697	863.43
625.896	848.32
626.095	882.03
626.293	821
626.492	852.58
626.69	866.15
626.889	836.31
627.088	886.88
627.286	801.24
627.485	807.25
627.683	798.34
627.882	846
628.08	785.16
628.279	795.04
628.477	872.15
628.676	762.88
628.874	843.48
629.073	802.99
629.271	782.06
629.469	819.26
629.668	795.43
629.866	774.89
630.065	813.45
630.263	838.25
630.461	785.55
630.66	779.15
630.858	802.21
631.056	855.68
631.254	867.89
631.453	777.22
631.651	841.93
631.849	770.44
632.047	794.65
632.245	787.68
632.444	804.15
632.642	835.34
632.84	866.34
633.038	819.07
633.236	778.19
633.434	784.58
633.632	784.58
633.83	788.07
634.028	850.84
634.227	810.93
634.425	889.78
634.623	821
634.821	779.15
635.019	807.44
635.216	749.9
635.414	837.86
635.612	802.6
635.81	799.69
636.008	852.78
636.206	790.39
636.404	825.46
636.602	774.31
636.8	807.64
636.997	833.98
637.195	820.04
637.393	839.22
637.591	858.2
637.789	823.52
637.986	799.11
638.184	813.64
638.382	854.52
638.58	832.43
638.777	892.69
638.975	828.95
639.173	844.45
639.37	884.17
639.568	830.69
639.765	860.92
639.963	811.32
640.161	827.59
640.358	828.37
640.556	783.42
640.753	762.88
640.951	772.57
641.148	798.53
641.346	773.54
641.543	817.32
641.741	820.62
641.938	779.15
642.136	813.45
642.333	742.34
642.531	832.05
642.728	840.18
642.925	769.66
643.123	808.02
643.32	847.16
643.517	793.3
643.715	824.69
643.912	786.9
644.109	788.84
644.306	782.84
644.504	755.71
644.701	813.84
644.898	808.02
645.095	768.11
645.293	779.35
645.49	812.67
645.687	788.84
645.884	805.89
646.081	692.55
646.278	748.15
646.475	756.1
646.672	746.02
646.87	756.29
647.067	779.35
647.264	761.33
647.461	726.26
647.658	678.21
647.855	773.92
648.052	707.27
648.249	651.67
648.446	714.06
648.642	717.35
648.839	688.48
649.036	721.81
649.233	664.26
649.43	665.42
649.627	632.49
649.824	655.35
650.021	677.24
650.217	688.87
650.414	684.41
650.611	691
650.808	702.82
651.004	686.35
651.201	730.91
651.398	740.99
651.595	721.03
651.791	688.48
651.988	721.61
652.185	650.89
652.381	701.07
652.578	671.04
652.775	698.17
652.971	689.06
653.168	688.29
653.364	730.14
653.561	600.71
653.757	674.53
653.954	711.73
654.15	647.6
654.347	738.86
654.543	688.87
654.74	606.53
654.936	647.79
655.133	677.05
655.329	671.24
655.525	692.16
655.722	676.86
655.918	626.48
656.115	676.08
656.311	586.76
656.507	552.28
656.704	571.84
656.9	581.92
657.096	554.21
657.292	532.9
657.489	638.88
657.685	629.58
657.881	625.9
658.077	604.39
658.273	643.53
658.47	696.42
658.666	632.1
658.862	637.14
659.058	631.33
659.254	677.44
659.45	626.48
659.646	642.56
659.842	624.16
660.038	659.42
660.234	588.51
660.43	658.64
660.626	735.76
660.822	676.47
661.018	663.49
661.214	650.51
661.41	629.78
661.606	688.87
661.802	666.59
661.998	642.76
662.194	616.6
662.39	666.59
662.586	669.3
662.781	659.61
662.977	662.13
663.173	665.62
663.369	606.91
663.564	640.24
663.76	687.32
663.956	625.13
664.152	684.22
664.347	580.18
664.543	644.31
664.739	613.11
664.934	591.8
665.13	559.25
665.326	652.06
665.521	617.76
665.717	592.38
665.912	576.11
666.108	539.3
666.304	596.26
666.499	596.26
666.695	551.5
666.89	618.73
667.086	659.61
667.281	625.32
667.477	645.08
667.672	598
667.867	613.69
668.063	591.8
668.258	598.78
668.454	602.46
668.649	672.98
668.844	593.93
669.04	587.73
669.235	583.66
669.43	574.17
669.626	523.8
669.821	561.19
670.016	537.75
670.211	596.45
670.407	564.1
670.602	598.78
670.797	555.38
670.992	609.04
671.187	564.68
671.382	604.01
671.578	567.97
671.773	606.91
671.968	541.04
672.163	561.58
672.358	625.32
672.553	550.34
672.748	560.8
672.943	652.06
673.138	583.08
673.333	581.73
673.528	536.97
673.723	620.09
673.918	574.36
674.113	510.43
674.308	638.69
674.503	622.61
674.698	627.26
674.892	616.79
675.087	637.91
675.282	593.35
675.477	540.26
675.672	609.82
675.867	538.33
676.061	567.78
676.256	499
676.451	577.66
676.646	587.34
676.84	525.54
677.035	530.58
677.23	556.15
677.424	587.73
677.619	592.58
677.814	582.89
678.008	643.53
678.203	516.24
678.397	566.81
678.592	596.06
678.787	627.64
678.981	555.57
679.176	564.87
679.37	588.12
679.565	552.08
679.759	540.46
679.954	584.63
680.148	648.38
680.342	649.93
680.537	572.81
680.731	566.03
680.926	599.74
681.12	607.49
681.314	517.21
681.509	553.25
681.703	595.87
681.897	598
682.092	561.96
682.286	545.3
682.48	650.7
682.674	606.72
682.869	566.42
683.063	555.96
683.257	637.14
683.451	548.21
683.645	574.75
683.839	546.46
684.034	568.16
684.228	579.4
684.422	532.71
684.616	523.41
684.81	591.61
685.004	566.03
685.198	567.97
685.392	598.19
685.586	529.8
685.78	556.15
685.974	582.89
686.168	558.67
686.362	597.42
686.556	511.01
686.75	479.43
686.944	488.53
687.138	523.8
687.331	421.88
687.525	428.08
687.719	382.94
687.913	444.75
688.107	451.92
688.301	465.67
688.494	475.55
688.688	483.5
688.882	417.62
689.076	432.35
689.269	465.48
689.463	484.08
689.657	457.73
689.85	431.18
690.044	493.18
690.238	454.05
690.431	496.67
690.625	488.15
690.818	544.72
691.012	512.56
691.205	537.55
691.399	474.39
691.593	547.82
691.786	586.38
691.98	574.17
692.173	591.41
692.366	559.83
692.56	611.76
692.753	635.39
692.947	538.52
693.14	609.24
693.333	624.93
693.527	543.56
693.72	602.46
693.914	559.45
694.107	578.82
694.3	602.84
694.493	585.79
694.687	684.41
694.88	569.71
695.073	680.15
695.266	643.73
695.46	631.52
695.653	666.01
695.846	697.97
696.039	613.11
696.232	637.33
696.425	692.74
696.618	660.19
696.812	678.99
697.005	753.19
697.198	816.16
697.391	715.22
697.584	741.76
697.777	818.1
697.97	798.92
698.163	766.95
698.356	770.82
698.549	851.03
698.742	772.37
698.935	771.79
699.127	824.49
699.32	737.31
699.513	778.57
699.706	818.29
699.899	805.89
700.092	770.44
700.285	819.84
700.477	765.01
700.67	819.45
700.863	854.33
701.056	924.46
701.248	894.05
701.441	900.44
701.634	867.12
701.826	959.73
702.019	858.4
702.212	920.78
702.404	858.01
702.597	869.25
702.79	887.27
702.982	946.75
703.175	957.79
703.367	949.65
703.56	980.26
703.752	1052.34
703.945	1016.88
704.137	1004.87
704.33	1044.78
704.522	1043.62
704.715	1018.24
704.907	1048.85
705.1	1098.26
705.292	1116.27
705.484	1068.61
705.677	1104.84
705.869	1090.51
706.061	1127.51
706.254	1170.14
706.446	1114.34
706.638	1117.44
706.831	1185.44
707.023	1133.71
707.215	1223.42
707.407	1220.9
707.599	1175.76
707.792	1251.9
707.984	1245.5
708.176	1276.7
708.368	1209.66
708.56	1240.27
708.752	1236.59
708.944	1231.36
709.136	1292.97
709.329	1255.19
709.521	1353.62
709.713	1336.18
709.905	1358.26
710.097	1360.4
710.289	1327.65
710.481	1321.26
710.672	1344.12
710.864	1381.51
711.056	1416.58
711.248	1405.54
711.44	1390.23
711.632	1416.97
711.824	1440.22
712.016	1480.13
712.207	1453.01
712.399	1460.76
712.591	1556.27
712.783	1493.69
712.975	1511.13
713.166	1491.18
713.358	1454.36
713.55	1562.86
713.741	1533.99
713.933	1553.76
714.125	1556.27
714.316	1509.97
714.508	1571.77
714.7	1551.04
714.891	1580.69
715.083	1638.04
715.274	1571.77
715.466	1556.86
715.657	1611.49
715.849	1525.28
716.04	1554.14
716.232	1513.65
716.423	1589.21
716.615	1512.88
716.806	1496.79
716.998	1431.11
717.189	1397.79
717.381	1335.02
717.572	1303.43
717.763	1363.11
717.955	1358.85
718.146	1337.53
718.337	1304.4
718.528	1287.35
718.72	1218.96
718.911	1257.71
719.102	1220.12
719.293	1270.69
719.485	1233.3
719.676	1273.6
719.867	1207.72
720.058	1217.6
720.249	1208.69
720.44	1268.17
720.632	1334.63
720.823	1354.97
721.014	1439.45
721.205	1443.9
721.396	1490.4
721.587	1579.72
721.778	1547.17
721.969	1604.91
722.16	1651.02
722.351	1639.59
722.542	1711.47
722.733	1768.04
722.924	1659.74
723.115	1683.57
723.305	1687.05
723.496	1737.43
723.687	1656.25
723.878	1639.97
724.069	1661.48
724.26	1667.29
724.45	1576.62
724.641	1587.66
724.832	1612.07
725.023	1618.47
725.213	1589.6
725.404	1575.65
725.595	1586.69
725.785	1576.81
725.976	1649.08
726.167	1597.54
726.357	1630.67
726.548	1710.69
726.739	1632.22
726.929	1681.82
727.12	1703.52
727.31	1764.36
727.501	1669.04
727.691	1709.92
727.882	1717.67
728.072	1775.02
728.263	1744.6
728.453	1752.54
728.644	1804.46
728.834	1730.45
729.024	1732.78
729.215	1735.68
729.405	1803.11
729.596	1870.15
729.786	1840.31
729.976	1887.19
730.167	1886.61
730.357	1849.61
730.547	1820.16
730.737	1915.09
730.928	1881.58
731.118	1960.43
731.308	1877.31
731.498	1915.09
731.688	2015.07
731.879	1978.84
732.069	2034.64
732.259	2029.99
732.449	2066.8
732.639	2168.9
732.829	2100.32
733.019	2140.04
733.209	2233.61
733.399	2192.73
733.589	2268.3
733.779	2272.95
733.969	2269.65
734.159	2334.75
734.349	2353.93
734.539	2389.39
734.729	2365.75
734.919	2402.37
735.109	2459.72
735.299	2390.94
735.488	2416.71
735.678	2422.13
735.868	2465.34
736.058	2442.47
736.248	2420.97
736.437	2365.17
736.627	2361.88
736.817	2479.09
737.007	2401.59
737.196	2468.82
737.386	2425.42
737.576	2444.61
737.765	2521.14
737.955	2471.34
738.144	2577.52
738.334	2531.4
738.524	2458.36
738.713	2547.49
738.903	2558.72
739.092	2554.85
739.282	2568.6
739.471	2543.61
739.661	2522.3
739.85	2581.2
740.04	2577.71
740.229	2590.69
740.419	2619.95
740.608	2622.85
740.797	2608.32
740.987	2678.46
741.176	2631.18
741.365	2590.11
741.555	2555.82
741.744	2685.05
741.933	2657.92
742.123	2652.3
742.312	2662.96
742.501	2711.98
742.69	2714.3
742.88	2670.13
743.069	2756.93
743.258	2707.91
743.447	2773.59
743.636	2722.63
743.825	2651.33
744.014	2712.36
744.204	2705.2
744.393	2692.21
744.582	2754.41
744.771	2810.79
744.96	2722.83
745.149	2755.18
745.338	2695.7
745.527	2704.81
745.716	2727.86
745.905	2700.16
746.094	2797.42
746.283	2759.83
746.471	2802.84
746.66	2831.71
746.849	2795.48
747.038	2833.65
747.227	2784.63
747.416	2806.53
747.604	2766.03
747.793	2794.13
747.982	2761.77
748.171	2766.42
748.359	2827.64
748.548	2806.91
748.737	2785.6
748.926	2761.96
749.114	2689.31
749.303	2782.69
749.491	2774.56
749.68	2692.21
749.869	2784.83
750.057	2703.84
750.246	2719.92
750.434	2715.85
750.623	2741.23
750.811	2732.51
751	2804.39
751.188	2726.7
751.377	2805.36
751.565	2760.03
751.754	2718.95
751.942	2750.73
752.131	2766.23
752.319	2668.77
752.507	2690.66
752.696	2732.9
752.884	2773.98
753.072	2715.85
753.261	2737.16
753.449	2710.43
753.637	2686.79
753.825	2794.51
754.014	2719.34
754.202	2750.34
754.39	2811.56
754.578	2751.31
754.766	2706.55
754.955	2682.14
755.143	2784.44
755.331	2705.78
755.519	2690.86
755.707	2713.91
755.895	2667.61
756.083	2692.02
756.271	2653.27
756.459	2707.71
756.647	2702.1
756.835	2654.43
757.023	2633.32
757.211	2642.81
757.399	2634.67
757.587	2649.78
757.775	2625.76
757.963	2629.25
758.151	2611.42
758.339	2581.58
758.526	2600.96
758.714	2648.82
758.902	2509.51
759.09	2461.07
759.278	2300.85
759.465	2135.19
759.653	1842.83
759.841	1676.79
760.028	1430.92
760.216	1195.9
760.404	1177.5
760.591	932.21
760.779	764.62
760.967	690.61
761.154	554.21
761.342	633.65
761.529	629
761.717	702.04
761.905	669.69
762.092	732.07
762.28	670.85
762.467	687.51
762.655	606.91
762.842	659.81
763.029	651.48
763.217	652.25
763.404	679.37
763.592	663.1
763.779	643.14
763.966	687.71
764.154	738.86
764.341	759.39
764.528	799.3
764.716	839.41
764.903	861.11
765.09	932.99
765.277	953.14
765.465	1118.02
765.652	1137.39
765.839	1201.91
766.026	1301.69
766.213	1346.64
766.4	1420.85
766.588	1567.9
766.775	1558.6
766.962	1654.5
767.149	1691.9
767.336	1816.28
767.523	1766.49
767.71	1920.13
767.897	1959.46
768.084	2070.67
768.271	2027.66
768.458	2123.18
768.645	2167.74
768.832	2136.16
769.019	2148.17
769.206	2197.58
769.392	2246.98
769.579	2301.43
769.766	2257.45
769.953	2294.45
770.14	2359.55
770.327	2348.7
770.513	2356.84
770.7	2423.1
770.887	2331.65
771.073	2380.48
771.26	2383.96
771.447	2334.36
771.634	2342.89
771.82	2426.97
772.007	2347.73
772.193	2363.43
772.38	2413.22
772.567	2354.71
772.753	2378.34
772.94	2437.82
773.126	2404.69
773.313	2458.75
773.499	2409.54
773.686	2431.43
773.872	2362.84
774.059	2412.44
774.245	2347.93
774.432	2364.78
774.618	2293.29
774.804	2361.88
774.991	2303.75
775.177	2335.91
775.363	2344.44
775.55	2352.58
775.736	2286.7
775.922	2329.33
776.109	2341.92
776.295	2355.29
776.481	2346.57
776.667	2401.79
776.853	2311.31
777.04	2305.88
777.226	2285.54
777.412	2401.98
777.598	2288.25
777.784	2314.99
777.97	2256.28
778.156	2287.67
778.342	2283.41
778.528	2280.11
778.715	2233.42
778.901	2275.08
779.087	2278.37
779.272	2252.6
779.458	2216.57
779.644	2261.9
779.83	2212.69
780.016	2325.45
780.202	2289.61
780.388	2251.44
780.574	2228
780.76	2226.06
780.946	2242.33
781.131	2224.7
781.317	2203
781.503	2198.35
781.689	2206.3
781.874	2336.3
782.06	2213.47
782.246	2206.3
782.432	2148.95
782.617	2183.82
782.803	2268.88
782.989	2135.77
783.174	2152.05
783.36	2107.49
783.545	2167.74
783.731	2162.12
783.916	2058.85
784.102	2156.5
784.288	2090.05
784.473	2108.07
784.659	2113.69
784.844	2150.69
785.029	2096.64
785.215	2097.02
785.4	2068.74
785.586	2166
785.771	2037.35
785.956	2105.35
786.142	2082.1
786.327	2054.98
786.512	2085.4
786.698	2048.59
786.883	2002.86
787.068	2026.31
787.254	2061.57
787.439	2024.56
787.624	2011
787.809	2024.37
787.994	1995.89
788.18	2056.92
788.365	1950.74
788.55	2019.72
788.735	1965.28
788.92	2010.61
789.105	1971.09
789.29	1982.91
789.475	1931.95
789.66	1929.82
789.845	1885.64
790.03	1905.99
790.215	1943.19
790.4	1995.89
790.585	1962.18
790.77	1927.3
790.955	1862.59
791.14	1933.11
791.325	1936.21
791.51	1843.41
791.695	1887.39
791.879	1915.87
792.064	1862.01
792.249	1960.24
792.434	1875.57
792.618	1897.08
792.803	1915.29
792.988	1854.45
793.173	1897.46
793.357	1911.03
793.542	1836.82
793.727	1908.31
793.911	1931.37
794.096	1914.71
794.281	1916.45
794.465	1999.76
794.65	1908.51
794.834	1908.51
795.019	1948.81
795.203	1948.81
795.388	1934.47
795.572	1981.55
795.757	1927.49
795.941	1979.61
796.126	1968.18
796.31	1879.06
796.494	1911.99
796.679	1930.01
796.863	1898.04
797.048	1979.22
797.232	1947.26
797.416	1879.83
797.601	1913.74
797.785	1974.38
797.969	1993.95
798.153	1909.67
798.338	1944.93
798.522	1952.49
798.706	1981.74
798.89	1952.1
799.074	2030.76
799.258	1982.13
799.443	1946.87
799.627	1961.79
799.811	1992.59
799.995	1974.19
800.179	1949.39
800.363	1960.04
800.547	1988.52
800.731	1993.17
800.915	1902.31
801.099	1929.63
801.283	1935.44
801.467	1996.08
801.651	1932.14
801.835	2007.71
802.019	1973.8
802.202	1970.7
802.386	1933.69
802.57	1896.49
802.754	1923.62
802.938	1912.96
803.121	1905.41
803.305	1961.21
803.489	1954.43
803.673	1974.38
803.856	1960.82
804.04	1975.35
804.224	1945.32
804.407	1927.49
804.591	1922.46
804.775	1900.37
804.958	1937.96
805.142	2029.79
805.326	1920.91
805.509	1946.09
805.693	1999.37
805.876	1961.01
806.06	1968.76
806.243	1955.98
806.427	1998.41
806.61	2023.79
806.794	1976.9
806.977	2014.1
807.16	1981.74
807.344	1990.66
807.527	1974.77
807.71	1949.97
807.894	1993.76
808.077	1981.36
808.26	1920.52
808.444	1948.42
808.627	1952.88
808.81	1939.89
808.993	1867.05
809.177	1868.6
809.36	1918.19
809.543	1919.74
809.726	1834.3
809.909	1841.66
810.092	1814.15
810.276	1851.16
810.459	1888.94
810.642	1831.4
810.825	1819
811.008	1819.58
811.191	1718.44
811.374	1738.2
811.557	1753.7
811.74	1800.4
811.923	1713.6
812.106	1717.08
812.289	1692.29
812.472	1720.57
812.654	1729.29
812.837	1670.97
813.02	1638.42
813.203	1613.04
813.386	1516.75
813.569	1531.47
813.751	1496.79
813.934	1523.53
814.117	1537.87
814.3	1462.31
814.482	1440.8
814.665	1427.43
814.848	1353.23
815.03	1362.53
815.213	1345.67
815.396	1356.52
815.578	1338.89
815.761	1279.02
815.943	1365.43
816.126	1275.53
816.309	1267.59
816.491	1173.82
816.674	1144.95
816.856	1206.37
817.039	1200.17
817.221	1266.04
817.403	1230.78
817.586	1206.75
817.768	1228.84
817.951	1151.54
818.133	1171.69
818.315	1193.19
818.498	1254.22
818.68	1284.25
818.862	1245.31
819.045	1303.63
819.227	1267.59
819.409	1251.12
819.591	1256.35
819.774	1240.47
819.956	1217.6
820.138	1278.25
820.32	1255.77
820.502	1298.4
820.684	1376.09
820.866	1364.85
821.048	1407.09
821.231	1404.18
821.413	1404.76
821.595	1376.86
821.777	1391.2
821.959	1410.77
822.141	1455.72
822.323	1301.69
822.505	1289.29
822.686	1255
822.868	1210.44
823.05	1061.25
823.232	1058.34
823.414	1034.71
823.596	1107.94
823.778	1073.46
823.96	1092.25
824.141	1098.45
824.323	1160.45
824.505	1184.09
824.687	1234.07
824.868	1291.81
825.05	1337.53
825.232	1338.31
825.413	1457.85
825.595	1350.9
825.777	1303.43
825.958	1326.68
826.14	1344.12
826.321	1345.87
826.503	1344.51
826.685	1390.43
826.866	1373.18
827.048	1387.91
827.229	1319.32
827.411	1308.47
827.592	1242.6
827.773	1257.13
827.955	1237.17
828.136	1240.27
828.318	1203.07
828.499	1254.8
828.68	1163.74
828.862	1237.75
829.043	1241.24
829.224	1214.12
829.406	1184.09
829.587	1178.66
829.768	1214.5
829.949	1234.85
830.131	1213.92
830.312	1278.63
830.493	1195.9
830.674	1248.02
830.855	1218.57
831.036	1198.62
831.218	1241.82
831.399	1266.04
831.58	1213.34
831.761	1231.75
831.942	1238.92
832.123	1216.05
832.304	1176.34
832.485	1182.15
832.666	1216.25
832.847	1243.37
833.028	1209.85
833.209	1228.45
833.389	1240.27
833.57	1165.87
833.751	1197.07
833.932	1224.58
834.113	1203.65
834.294	1190.67
834.475	1237.56
834.655	1259.84
834.836	1281.54
835.017	1238.14
835.198	1199.78
835.378	1222.45
835.559	1261
835.74	1219.54
835.92	1223.03
836.101	1194.74
836.281	1213.73
836.462	1263.52
836.643	1277.08
836.823	1287.35
837.004	1283.28
837.184	1309.25
837.365	1279.22
837.545	1324.36
837.726	1249.38
837.906	1323.97
838.087	1251.51
838.267	1264.3
838.448	1199.59
838.628	1267.59
838.808	1253.06
838.989	1313.9
839.169	1217.99
839.349	1271.66
839.53	1301.69
839.71	1293.55
839.89	1221.67
840.07	1324.55
840.251	1247.05
840.431	1299.17
840.611	1236.79
840.791	1246.67
840.971	1257.52
841.151	1262.17
841.332	1230.78
841.512	1298.2
841.692	1200.75
841.872	1277.08
842.052	1242.79
842.232	1271.27
842.412	1211.4
842.592	1230.97
842.772	1271.85
842.952	1263.33
843.132	1212.57
843.312	1204.04
843.492	1208.5
843.672	1274.57
843.851	1175.76
844.031	1269.53
844.211	1214.89
844.391	1208.3
844.571	1244.54
844.751	1212.57
844.93	1224
845.11	1181.37
845.29	1243.57
845.47	1234.65
845.649	1227.87
845.829	1249.96
846.009	1186.99
846.188	1237.37
846.368	1235.62
846.547	1182.92
846.727	1232.91
846.907	1167.62
847.086	1210.05
847.266	1228.07
847.445	1232.14
847.625	1188.93
847.804	1188.54
847.984	1183.7
848.163	1159.09
848.343	1173.04
848.522	1182.15
848.701	1210.24
848.881	1144.17
849.06	1203.27
849.239	1219.93
849.419	1197.65
849.598	1148.63
849.777	1144.17
849.957	1112.59
850.136	1082.56
850.315	1090.89
850.494	1103.87
850.674	1086.05
850.853	1140.69
851.032	1083.14
851.211	1166.26
851.39	1112.79
851.569	1081.79
851.748	1075.39
851.927	1126.16
852.107	1088.57
852.286	1050.98
852.465	1044.01
852.644	1135.07
852.823	1149.6
853.002	1097.67
853.181	1120.34
853.359	1116.47
853.538	1059.89
853.717	1109.69
853.896	1034.13
854.075	984.14
854.254	974.06
854.433	916.72
854.611	961.08
854.79	914.78
854.969	980.65
855.148	1013.78
855.327	937.45
855.505	990.73
855.684	932.6
855.863	977.55
856.041	951.59
856.22	994.02
856.399	968.06
856.577	1061.44
856.756	1069.39
856.934	1173.24
857.113	1182.73
857.291	1028.7
857.47	1027.54
857.648	1066.29
857.827	1055.83
858.005	1070.16
858.184	1049.82
858.362	1126.54
858.541	1039.55
858.719	1030.06
858.898	1037.81
859.076	1017.66
859.254	1094.19
859.433	1011.07
859.611	982.98
859.789	960.5
859.967	1091.28
860.146	1058.54
860.324	975.23
860.502	1022.5
860.68	965.93
860.859	1003.13
861.037	1025.02
861.215	1033.93
861.393	1042.84
861.571	1057.38
861.749	1001
861.927	1015.72
862.105	1005.45
862.283	1014.75
862.461	989.37
862.639	983.17
862.817	992.08
862.995	1007.39
863.173	961.66
863.351	987.05
863.529	1012.04
863.707	998.67
863.885	1014.94
864.063	908.38
864.241	937.06
864.418	1013.2
864.596	934.73
864.774	932.02
864.952	943.06
865.129	1011.26
865.307	944.23
865.485	913.62
865.663	980.07
865.84	890.95
866.018	954.11
866.196	840.38
866.373	852.97
866.551	813.25
866.728	796.59
866.906	828.75
867.084	838.05
867.261	875.06
867.439	896.76
867.616	931.44
867.794	889.01
867.971	883.78
868.149	908
868.326	938.8
868.503	958.37
868.681	898.31
868.858	904.12
869.035	824.49
869.213	943.06
869.39	880.87
869.567	969.8
869.745	894.63
869.922	910.13
870.099	936.86
870.276	927.76
870.454	930.66
870.631	909.93
870.808	865.95
870.985	902.57
871.162	974.84
871.339	924.46
871.517	851.81
871.694	850.26
871.871	908.58
872.048	892.69
872.225	859.37
872.402	874.09
872.579	860.33
872.756	897.34
872.933	834.18
873.11	886.88
873.287	874.67
873.463	856.46
873.64	826.24
873.817	881.07
873.994	853.36
874.171	823.72
874.348	892.5
874.524	824.88
874.701	872.93
874.878	816.35
875.055	829.14
875.231	851.42
875.408	851.81
875.585	762.88
875.762	870.8
875.938	824.49
876.115	843.48
876.291	848.71
876.468	828.75
876.645	768.11
876.821	816.94
876.998	812.87
877.174	836.5
877.351	826.43
877.527	795.82
877.704	834.95
877.88	824.69
878.057	801.63
878.233	857.04
878.409	826.04
878.586	795.24
878.762	783.03
878.938	817.71
879.115	713.67
879.291	796.2
879.467	715.02
879.644	768.89
879.82	811.32
879.996	791.75
880.172	718.9
880.349	756.49
880.525	799.69
880.701	730.14
880.877	741.37
881.053	757.07
881.229	772.57
881.405	821.97
881.581	739.05
881.757	761.72
881.933	771.6
882.109	776.64
882.285	757.45
882.461	708.24
882.637	792.91
882.813	721.03
882.989	729.56
883.165	806.09
883.341	750.67
883.517	791.94
883.693	775.09
883.869	803.76
884.044	707.27
884.22	762.1
884.396	819.07
884.572	767.72
884.747	801.05
884.923	780.12
885.099	760.55
885.275	829.34
885.45	762.88
885.626	759.59
885.801	770.44
885.977	751.45
886.153	686.74
886.328	759.78
886.504	737.11
886.679	780.9
886.855	739.05
887.03	747.96
887.206	828.37
887.381	779.74
887.557	779.35
887.732	797.56
887.908	783.42
888.083	778.38
888.258	760.17
888.434	729.75
888.609	736.14
888.784	811.7
888.96	757.07
889.135	740.21
889.31	703.98
889.485	770.24
889.661	775.47
889.836	753.58
890.011	791.75
890.186	737.31
890.361	752.22
890.537	766.56
890.712	765.59
890.887	724.71
891.062	744.28
891.237	789.42
891.412	711.92
891.587	761.72
891.762	803.18
891.937	810.54
892.112	711.73
892.287	753.97
892.462	717.35
892.637	734.79
892.812	703.21
892.987	680.34
893.161	687.51
893.336	715.02
893.511	694.87
893.686	705.72
893.861	708.24
894.035	686.93
894.21	708.24
894.385	607.3
894.56	719.29
894.734	624.74
894.909	638.11
895.084	652.44
895.258	628.23
895.433	638.69
895.608	641.98
895.782	573.01
895.957	594.9
896.131	594.51
896.306	538.91
896.48	526.51
896.655	553.44
896.829	495.51
897.004	483.69
897.178	509.46
897.353	477.68
897.527	551.5
897.701	526.9
897.876	464.51
898.05	550.15
898.224	528.45
898.399	579.98
898.573	505.97
898.747	450.56
898.921	463.35
899.096	386.43
899.27	407.55
899.444	409.68
899.618	432.73
899.792	452.3
899.967	441.26
900.141	477.49
900.315	441.26
900.489	434.87
900.663	474.39
900.837	452.5
901.011	390.5
901.185	513.14
901.359	475.17
901.533	440.68
901.707	450.37
901.881	452.5
902.055	405.03
902.229	464.7
902.403	506.94
902.576	452.3
902.75	454.63
902.924	529.61
903.098	499.19
903.272	492.41
903.446	589.67
903.619	524.57
903.793	539.68
903.967	535.42
904.14	575.33
904.314	602.46
904.488	551.11
904.661	592.58
904.835	578.82
905.009	580.18
905.182	601.29
905.356	574.94
905.529	549.18
905.703	560.22
905.876	522.44
906.05	516.24
906.223	523.8
906.397	462.38
906.57	433.7
906.744	441.65
906.917	437.97
907.09	437.38
907.264	441.07
907.437	397.47
907.61	403.87
907.784	403.09
907.957	396.12
908.13	387.59
908.304	438.16
908.477	379.26
908.65	422.08
908.823	368.6
908.996	452.11
909.17	377.9
909.343	399.6
909.516	402.7
909.689	397.86
909.862	365.89
910.035	401.54
910.208	367.83
910.381	376.74
910.554	455.4
910.727	395.73
910.9	360.27
911.073	365.7
911.246	466.06
911.419	446.68
911.592	436.8
911.765	369.57
911.938	365.89
912.11	398.25
912.283	400.96
912.456	415.88
912.629	400.57
912.802	368.22
912.974	322.49
913.147	321.72
913.32	247.9
913.493	319.97
913.665	358.14
913.838	368.99
914.01	322.3
914.183	356.59
914.356	321.72
914.528	382.17
914.701	418.78
914.873	380.81
915.046	320.36
915.218	326.37
915.391	254.49
915.563	281.81
915.736	345.16
915.908	376.55
916.081	340.7
916.253	315.13
916.425	326.75
916.598	351.75
916.77	336.44
916.942	286.26
917.115	242.86
917.287	341.67
917.459	301.57
917.632	289.75
917.804	233.76
917.976	301.18
918.148	317.45
918.32	296.72
918.493	362.21
918.665	399.02
918.837	310.67
919.009	376.55
919.181	374.8
919.353	356.01
919.525	315.71
919.697	337.99
919.869	365.5
920.041	412.97
920.213	445.91
920.385	377.71
920.557	349.23
920.729	358.72
920.901	365.5
921.073	352.52
921.244	307.19
921.416	401.54
921.588	335.09
921.76	353.49
921.932	401.73
922.103	359.11
922.275	355.24
922.447	368.8
922.619	300.41
922.79	322.1
922.962	323.07
923.134	381.78
923.305	296.92
923.477	294.98
923.648	289.36
923.82	314.74
923.991	270.76
924.163	281.61
924.335	296.34
924.506	273.28
924.677	369.96
924.849	263.79
925.02	302.34
925.192	324.43
925.363	302.34
925.535	307.96
925.706	280.84
925.877	353.88
926.049	271.15
926.22	300.79
926.391	289.36
926.562	342.06
926.734	257.01
926.905	315.13
927.076	251.58
927.247	287.04
927.419	252.55
927.59	252.36
927.761	277.35
927.932	236.86
928.103	244.02
928.274	188.23
928.445	199.27
928.616	205.47
928.787	214.38
928.958	234.34
929.129	231.62
929.3	216.13
929.471	180.09
929.642	155.87
929.813	110.92
929.984	201.79
930.155	121.96
930.326	171.76
930.496	129.52
930.667	67.71
930.838	159.55
931.009	112.66
931.18	109.18
931.35	154.71
931.521	119.06
931.692	68.88
931.863	46.4
932.033	114.41
932.204	104.33
932.374	104.91
932.545	33.23
932.716	101.04
932.886	101.04
933.057	26.25
933.227	55.51
933.398	121.58
933.568	51.44
933.739	1.26
933.909	22.38
934.08	118.28
934.25	1.07
934.421	31.48
934.591	77.4
934.761	-4.75
934.932	-8.04
935.102	31.29
935.272	-9.01
935.443	6.3
935.613	25.48
935.783	54.35
935.953	-9.01
936.123	164.78
936.294	-2.81
936.464	59.58
936.634	35.75
936.804	-3.39
936.974	-11.72
937.144	55.9
937.314	61.71
937.484	30.71
937.655	-9.2
937.825	84.38
937.995	4.17
938.165	53.76
938.334	45.24
938.504	31.48
938.674	17.53
938.844	26.06
939.014	71.01
939.184	69.85
939.354	97.75
939.524	123.9
939.694	53.38
939.863	73.14
940.033	127.78
940.203	114.02
940.373	86.51
940.542	94.45
940.712	50.08
940.882	96.2
941.051	111.31
941.221	74.69
941.391	112.47
941.56	54.54
941.73	37.88
941.899	178.93
942.069	52.02
942.238	83.21
942.408	69.26
942.577	113.44
942.747	64.42
942.916	0.87
943.086	50.86
943.255	99.49
943.425	66.55
943.594	52.6
943.763	-1.07
943.933	4.17
944.102	-25.28
944.271	67.13
944.441	73.72
944.61	47.37
944.779	46.4
944.948	125.06
945.117	28
945.287	34.39
945.456	12.88
945.625	26.64
945.794	57.64
945.963	20.25
946.132	69.46
946.301	30.9
946.47	66.94
946.639	-8.62
946.808	24.7
946.977	61.51
947.146	106.46
947.315	50.66
947.484	61.13
947.653	48.92
947.822	47.37
947.991	8.62
948.16	108.4
948.329	114.99
948.498	43.69
948.666	36.33
948.835	83.02
949.004	-26.64
949.173	39.43
949.341	37.88
949.51	44.27
949.679	94.26
949.847	83.99
950.016	137.27
950.185	112.66
950.353	45.63
950.522	17.53
950.69	98.91
950.859	10.95
951.028	73.72
951.196	67.13
951.365	35.17
951.533	77.4
951.701	63.45
951.87	86.7
952.038	39.43
952.207	31.68
952.375	99.68
952.543	24.32
952.712	29.74
952.88	30.32
953.048	127.78
953.217	40.78
953.385	65
953.553	83.41
953.721	24.51
953.89	54.93
954.058	22.57
954.226	17.15
954.394	46.79
954.562	10.37
954.73	51.63
954.898	26.45
955.067	76.24
955.235	48.34
955.403	63.06
955.571	124.1
955.739	72.17
955.907	12.11
956.075	28.58
956.243	35.36
956.41	74.11
956.578	-8.43
956.746	11.72
956.914	51.44
957.082	70.81
957.25	66.94
957.418	18.7
957.585	71.78
957.753	90.77
957.921	8.23
958.089	64.42
958.256	65.78
958.424	47.37
958.592	62.68
958.759	26.06
958.927	70.81
959.095	51.44
959.262	33.62
959.43	58.03
959.597	23.54
959.765	65.78
959.932	37.3
960.1	76.82
960.267	49.11
960.435	45.05
960.602	97.16
960.77	29.74
960.937	11.14
961.104	36.72
961.272	-21.02
961.439	30.13
961.606	57.45
961.774	89.61
961.941	20.83
962.108	50.86
962.275	66.94
962.443	94.84
962.61	57.64
962.777	141.53
962.944	67.71
963.111	73.72
963.278	58.61
963.446	89.22
963.613	61.13
963.78	82.44
963.947	84.18
964.114	39.62
964.281	138.63
964.448	79.15
964.615	30.52
964.782	65.58
964.949	71.01
965.116	64.42
965.282	108.01
965.449	53.38
965.616	47.37
965.783	97.75
965.95	68.88
966.117	26.83
966.283	53.38
966.45	72.36
966.617	67.52
966.784	106.08
966.95	93.1
967.117	100.65
967.284	31.68
967.45	48.73
967.617	79.53
967.784	100.26
967.95	127.97
968.117	72.56
968.283	108.01
968.45	166.53
968.616	79.53
968.783	106.08
968.949	83.6
969.116	104.53
969.282	72.95
969.449	92.9
969.615	95.42
969.781	34.2
969.948	95.23
970.114	29.93
970.28	130.68
970.447	80.7
970.613	111.11
970.779	57.64
970.945	93.1
971.112	97.16
971.278	50.66
971.444	95.81
971.61	104.91
971.776	72.56
971.942	88.06
972.108	94.45
972.275	74.11
972.441	99.68
972.607	151.61
972.773	39.04
972.939	75.08
973.105	69.07
973.271	47.95
973.437	47.76
973.602	32.65
973.768	83.8
973.934	73.33
974.1	87.48
974.266	-10.17
974.432	89.03
974.598	41.17
974.763	98.13
974.929	59.77
975.095	122.93
975.261	44.27
975.426	41.37
975.592	72.95
975.758	158.58
975.923	27.61
976.089	36.91
976.255	99.49
976.42	77.01
976.586	99.88
976.751	87.67
976.917	161.29
977.082	77.01
977.248	13.66
977.413	35.94
977.579	33.42
977.744	61.13
977.91	13.08
978.075	52.99
978.24	105.69
978.406	68.88
978.571	30.13
978.736	22.18
978.902	94.65
979.067	22.77
979.232	17.15
979.397	77.98
979.563	115.76
979.728	45.05
979.893	47.95
980.058	4.17
980.223	83.99
980.388	53.76
980.554	38.65
980.719	54.73
980.884	68.68
981.049	127.39
981.214	56.09
981.379	89.8
981.544	51.63
981.709	43.3
981.874	78.76
982.039	36.91
982.204	106.66
982.368	43.69
982.533	40.98
982.698	96.2
982.863	90
983.028	50.86
983.193	71.78
983.357	61.32
983.522	62.29
983.687	27.22
983.852	55.7
984.016	48.15
984.181	64.42
984.346	100.26
984.51	71.59
984.675	61.32
984.839	80.5
985.004	90.58
985.168	72.36
985.333	64.81
985.498	59.19
985.662	68.3
985.827	85.93
985.991	64.23
986.155	35.55
986.32	82.25
986.484	108.4
986.649	83.6
986.813	22.96
986.977	59
987.142	78.95
987.306	25.67
987.47	-2.42
987.634	46.01
987.799	103.56
987.963	67.91
988.127	97.55
988.291	123.71
988.455	46.98
988.62	19.86
988.784	91.74
988.948	62.29
989.112	40.01
989.276	77.01
989.44	63.06
989.604	53.18
989.768	39.82
989.932	116.54
990.096	52.8
990.26	22.96
990.424	26.45
990.588	58.41
990.752	108.98
990.915	75.66
991.079	25.09
991.243	48.15
991.407	104.33
991.571	34.78
991.734	86.12
991.898	76.82
992.062	132.23
992.226	29.35
992.389	39.82
992.553	2.23
992.717	62.48
992.88	35.75
993.044	76.05
993.207	22.96
993.371	77.6
993.535	64.42
993.698	26.83
993.862	104.53
994.025	116.15
994.189	57.25
994.352	67.13
994.515	63.26
994.679	98.13
994.842	35.75
995.006	99.3
995.169	49.7
995.332	21.02
995.496	64.81
995.659	-10.17
995.822	55.7
995.985	41.75
996.149	98.33
996.312	66.55
996.475	142.5
996.638	49.5
996.801	98.52
996.964	103.56
997.128	50.08
997.291	64.81
997.454	27.03
997.617	-2.03
997.78	83.21
997.943	42.53
998.106	68.88
998.269	39.04
998.432	67.13
998.595	62.1
998.758	-9.98
998.92	9.01
999.083	-30.52
999.246	25.09
999.409	-5.91
999.572	-7.07
999.735	33.03
999.897	44.66
1000.06	44.66
1000.223	11.33
1000.386	65.39
1000.548	74.3
1000.711	69.26
1000.874	48.15
1001.036	6.49
1001.199	67.71
1001.361	19.28
1001.524	63.26
1001.687	64.81
1001.849	17.15
1002.012	66.16
1002.174	40.98
1002.337	69.26
1002.499	58.61
1002.661	92.71
1002.824	27.42
1002.986	5.72
1003.149	35.55
1003.311	20.83
1003.473	106.85
1003.636	14.63
1003.798	55.9
1003.96	81.28
1004.123	42.14
1004.285	8.04
1004.447	29.74
1004.609	33.42
1004.771	67.52
1004.933	1.84
1005.096	28.97
1005.258	-12.88
1005.42	2.23
1005.582	65.78
1005.744	50.66
1005.906	-0.87
1006.068	50.28
1006.23	15.4
1006.392	-18.12
1006.554	-5.91
1006.716	88.25
1006.878	31.48
1007.04	-9.59
1007.202	21.41
1007.363	44.08
1007.525	44.66
1007.687	63.26
1007.849	92.51
1008.011	-8.43
1008.172	-7.07
1008.334	13.85
1008.496	61.32
1008.658	-3.2
1008.819	-15.98
1008.981	-1.07
1009.143	-2.23
1009.304	7.07
1009.466	28.77
1009.627	79.15
1009.789	122.55
1009.95	45.24
1010.112	-15.4
1010.273	47.76
1010.435	2.81
1010.596	8.82
1010.758	30.13
1010.919	22.77
1011.081	-11.53
1011.242	36.52
1011.403	31.48
1011.565	38.07
1011.726	63.06
1011.887	-9.2
1012.049	20.63
1012.21	55.9
1012.371	88.45
1012.532	-14.63
1012.693	39.04
1012.855	-7.07
1013.016	27.61
1013.177	45.82
1013.338	41.17
1013.499	68.1
1013.66	37.3
1013.821	41.95
1013.982	22.77
1014.143	22.77
1014.304	16.95
1014.465	47.56
1014.626	20.05
1014.787	21.22
1014.948	132.81
1015.109	-48.73
1015.27	65.39
1015.431	19.86
1015.592	20.63
1015.752	93.68
1015.913	37.68
1016.074	41.56
1016.235	0.29
1016.395	18.5
1016.556	23.35
1016.717	13.85
1016.877	75.08
1017.038	8.82
1017.199	38.07
1017.359	24.12
1017.52	-1.07
1017.681	8.82
1017.841	35.55
1018.002	32.26
1018.162	19.86
1018.323	67.52
1018.483	23.73
1018.644	-5.52
1018.804	-12.3
1018.964	-11.33
1019.125	17.92
1019.285	36.13
1019.446	-16.95
1019.606	-24.7
1019.766	-39.04
1019.926	6.88
1020.087	44.66
1020.247	-31.29
1020.407	61.71
1020.567	37.49
1020.728	7.27
1020.888	-24.12
1021.048	7.65
1021.208	-9.01
1021.368	3.78
1021.528	67.13
1021.688	26.64
1021.848	34.39
1022.008	52.02
1022.168	4.55
1022.328	57.45
1022.488	67.71
1022.648	-11.33
1022.808	26.83
1022.968	8.43
1023.128	-24.32
1023.288	-3.39
1023.448	10.37
1023.608	29.93
1023.767	52.02
1023.927	-31.48
1024.087	-28
1024.247	-10.17
1024.406	6.88
1024.566	-25.87
1024.726	-7.65
1024.885	28.77
1025.045	54.54
1025.205	11.33
1025.364	39.23
1025.524	11.72
1025.683	27.61
1025.843	22.77
1026.003	8.04
1026.162	81.47
1026.321	64.81
1026.481	20.25
1026.64	1.45
1026.8	21.02
1026.959	25.67
1027.119	15.21
1027.278	0.87
1027.437	-18.12
1027.597	-3.58
1027.756	33.23
1027.915	45.82
1028.074	39.04
1028.234	-21.02
1028.393	8.43
1028.552	-10.17
1028.711	-53.76
1028.87	52.8
1029.03	-28
1029.189	11.33
1029.348	-30.71
1029.507	-9.01
1029.666	3.2
1029.825	-15.21
1029.984	0.68
1030.143	23.15
1030.302	-13.85
1030.461	-47.18
1030.62	8.04
1030.779	36.13
1030.938	3.2
1031.097	-8.23
1031.255	34
1031.414	51.63
1031.573	41.56
1031.732	-29.35
1031.891	11.14
1032.049	75.27
1032.208	25.48
1032.367	-13.27
1032.525	7.46
1032.684	-6.1
1032.843	12.3
1033.001	-48.34
1033.16	146.18
1033.319	51.25
1033.477	27.61
1033.636	5.72
1033.794	-29.16
1033.953	29.35
1034.111	22.96
1034.27	-0.29
1034.428	16.76
1034.587	-9.2
1034.745	1.84
1034.903	21.41
1035.062	18.5
1035.22	-18.31
1035.378	20.83
1035.537	-23.93
1035.695	29.35
1035.853	-10.75
1036.011	52.02
1036.17	12.3
1036.328	-38.65
1036.486	29.93
1036.644	36.52
1036.802	-51.63
1036.96	-25.09
1037.119	-3.2
1037.277	-23.73
1037.435	-30.32
1037.593	-17.92
1037.751	20.05
1037.909	19.67
1038.067	19.67
