Data from pine_FLMT105791__88__17-21-28-067.txt Node

Date: Mon Mar 20 17:21:28 GMT 2023
User: antho
Spectrometer: FLMT10579
Trigger mode: 0
Integration Time (sec): 1.000000E-1
Scans to average: 10
Electric dark correction enabled: true
Nonlinearity correction enabled: false
Boxcar width: 0
XAxis mode: Wavelengths
Number of Pixels in Spectrum: 3648
>>>>>Begin Spectral Data<<<<<
345.248	-170.29
345.464	-170.29
345.681	-170.29
345.898	-176.49
346.114	-153.43
346.331	-18.39
346.548	40.51
346.764	-7.15
346.981	1.18
347.197	-4.25
347.414	27.92
347.631	-18
347.847	44.58
348.064	-15.1
348.28	8.93
348.497	-28.66
348.713	-31.56
348.93	6.8
349.146	14.35
349.363	-22.07
349.579	27.53
349.796	-22.46
350.012	-15.68
350.229	10.28
350.445	24.04
350.661	-28.85
350.878	25.2
351.094	26.17
351.311	7.96
351.527	35.28
351.743	-10.83
351.96	17.45
352.176	43.8
352.392	20.94
352.609	18.42
352.825	-8.31
353.041	13.97
353.257	4.08
353.474	29.08
353.69	-1.15
353.906	7.18
354.122	-14.32
354.339	22.1
354.555	-0.95
354.771	-13.93
354.987	46.9
355.203	61.43
355.42	-4.83
355.636	4.67
355.852	0.02
356.068	4.47
356.284	-36.21
356.5	52.72
356.716	15.13
356.932	-12.19
357.148	29.66
357.364	1.95
357.58	46.9
357.796	58.72
358.012	26.95
358.228	33.34
358.444	-46.68
358.66	48.26
358.876	11.83
359.092	-27.69
359.308	46.71
359.524	21.91
359.74	-9.09
359.956	-32.34
360.172	10.48
360.388	42.83
360.604	-22.85
360.819	87.78
361.035	43.8
361.251	70.35
361.467	-29.05
361.683	36.63
361.898	10.48
362.114	28.11
362.33	8.93
362.546	52.52
362.762	9.32
362.977	22.3
363.193	-1.73
363.409	51.36
363.624	-20.52
363.84	-9.09
364.056	-18
364.271	25.78
364.487	32.37
364.703	-5.6
364.918	-39.12
365.134	-13.74
365.35	4.67
365.565	105.41
365.781	29.85
365.996	28.69
366.212	55.04
366.427	25.59
366.643	-34.08
366.858	17.45
367.074	-0.37
367.289	52.33
367.505	111.61
367.72	-15.48
367.936	17.65
368.151	60.08
368.367	20.55
368.582	58.33
368.798	-8.31
369.013	71.32
369.228	13.77
369.444	-5.6
369.659	88.75
369.874	39.73
370.09	64.73
370.305	-54.81
370.52	15.9
370.736	59.88
370.951	-3.67
371.166	54.46
371.381	89.33
371.597	36.63
371.812	-30.4
372.027	-13.35
372.242	-9.86
372.458	90.5
372.673	0.02
372.888	19.58
373.103	42.83
373.318	85.07
373.533	21.33
373.749	23.46
373.964	-10.25
374.179	70.35
374.394	0.98
374.609	50.97
374.824	-17.03
375.039	70.15
375.254	-17.03
375.469	80.23
375.684	18.42
375.899	65.89
376.114	9.12
376.329	16.1
376.544	63.76
376.759	38.57
376.974	1.76
377.189	17.65
377.404	18.23
377.619	38.57
377.834	-36.99
378.049	-49.58
378.264	-35.25
378.478	41.67
378.693	-13.74
378.908	50.78
379.123	-2.5
379.338	68.02
379.553	25.59
379.767	15.13
379.982	48.07
380.197	43.22
380.412	22.88
380.626	19.2
380.841	91.85
381.056	20.36
381.271	89.14
381.485	-38.54
381.7	-30.4
381.915	14.55
382.129	-11.61
382.344	31.21
382.559	25.4
382.773	71.51
382.988	-34.47
383.202	21.13
383.417	17.07
383.632	112.58
383.846	3.7
384.061	32.76
384.275	17.65
384.49	40.32
384.704	51.17
384.919	32.57
385.133	11.45
385.348	51.94
385.562	-1.92
385.777	59.69
385.991	5.44
386.206	1.57
386.42	-1.34
386.634	60.47
386.849	43.03
387.063	38.96
387.277	-33.5
387.492	12.8
387.706	-8.12
387.92	3.31
388.135	44.58
388.349	26.37
388.563	28.11
388.778	44.19
388.992	64.92
389.206	35.28
389.42	82.16
389.635	7.77
389.849	45.74
390.063	43.61
390.277	33.53
390.491	100.38
390.706	34.31
390.92	91.27
391.134	30.63
391.348	47.1
391.562	-32.34
391.776	23.07
391.99	-14.71
392.205	57.95
392.419	28.3
392.633	12.61
392.847	76.93
393.061	21.52
393.275	88.17
393.489	27.72
393.703	34.89
393.917	62.79
394.131	7.18
394.345	54.65
394.559	74.22
394.773	1.18
394.986	19.78
395.2	41.28
395.414	19.2
395.628	-5.99
395.842	31.98
396.056	-11.41
396.27	-55.2
396.484	29.47
396.697	65.5
396.911	64.15
397.125	-0.37
397.339	64.73
397.553	64.53
397.766	104.25
397.98	73.45
398.194	85.85
398.408	11.64
398.621	58.53
398.835	52.13
399.049	15.32
399.262	82.55
399.476	63.57
399.69	55.23
399.903	116.07
400.117	42.25
400.331	45.35
400.544	18.03
400.758	119.95
400.971	27.33
401.185	59.3
401.398	4.28
401.612	87.4
401.826	42.83
402.039	56.78
402.253	18.42
402.466	57.17
402.68	69.38
402.893	52.13
403.106	57.95
403.32	35.67
403.533	86.62
403.747	32.57
403.96	57.56
404.174	82.55
404.387	-0.57
404.6	45.74
404.814	84.68
405.027	32.18
405.24	37.02
405.454	24.43
405.667	79.84
405.88	7.77
406.094	36.44
406.307	71.12
406.52	49.62
406.733	-7.35
406.947	7.57
407.16	83.13
407.373	96.11
407.586	4.86
407.799	6.02
408.012	73.83
408.226	58.72
408.439	77.13
408.652	-5.02
408.865	67.05
409.078	75.19
409.291	66.67
409.504	11.64
409.717	72.87
409.93	82.16
410.143	61.63
410.357	2.53
410.57	10.48
410.783	46.71
410.996	65.5
411.209	59.11
411.421	83.52
411.634	40.51
411.847	15.13
412.06	59.5
412.273	32.76
412.486	53.68
412.699	132.54
412.912	33.92
413.125	77.52
413.338	45.74
413.55	94.95
413.763	35.08
413.976	66.47
414.189	19.58
414.402	20.36
414.615	81.58
414.827	37.02
415.04	103.48
415.253	44
415.466	101.93
415.678	125.95
415.891	53.88
416.104	49.03
416.316	36.83
416.529	56.2
416.742	83.13
416.954	87.4
417.167	56.2
417.38	69.38
417.592	92.82
417.805	19.78
418.017	-4.83
418.23	81
418.442	64.73
418.655	38.38
418.868	77.52
419.08	104.83
419.293	91.27
419.505	57.17
419.718	87.59
419.93	86.62
420.142	51.55
420.355	88.56
420.567	145.71
420.78	78.68
420.992	52.91
421.205	119.56
421.417	9.51
421.629	29.47
421.842	31.21
422.054	14.74
422.266	91.27
422.479	110.26
422.691	40.32
422.903	101.93
423.115	61.82
423.328	67.05
423.54	79.65
423.752	81.39
423.964	24.82
424.177	81.78
424.389	73.25
424.601	193.96
424.813	86.04
425.025	98.44
425.238	132.54
425.45	91.27
425.662	71.51
425.874	351.47
426.086	98.83
426.298	99.6
426.51	117.62
426.722	86.04
426.934	87.98
427.146	109.1
427.358	63.37
427.57	127.89
427.782	85.46
427.994	71.51
428.206	66.67
428.418	29.08
428.63	117.23
428.842	134.86
429.054	82.75
429.266	148.43
429.478	71.9
429.69	99.02
429.902	52.72
430.114	122.08
430.325	103.48
430.537	72.28
430.749	110.06
430.961	39.15
431.173	87.98
431.384	83.91
431.596	3.7
431.808	39.35
432.02	105.8
432.231	137.38
432.443	133.12
432.655	113.75
432.867	93.98
433.078	126.73
433.29	171.87
433.502	142.03
433.713	142.61
433.925	108.13
434.136	149.98
434.348	71.51
434.56	64.92
434.771	226.31
434.983	60.08
435.194	103.09
435.406	117.23
435.617	155.98
435.829	212.36
436.04	162.76
436.252	137.96
436.463	175.55
436.675	157.34
436.886	128.86
437.098	155.98
437.309	199.96
437.521	115.3
437.732	165.09
437.943	128.47
438.155	118.78
438.366	99.02
438.578	205
438.789	156.18
439	194.15
439.211	119.36
439.423	157.15
439.634	194.54
439.845	181.75
440.057	181.75
440.268	178.26
440.479	127.7
440.69	158.89
440.902	120.91
441.113	164.51
441.324	151.33
441.535	175.94
441.746	215.46
441.957	123.82
442.168	114.13
442.38	175.94
442.591	209.65
442.802	150.56
443.013	163.15
443.224	175.55
443.435	159.28
443.646	182.53
443.857	164.12
444.068	169.35
444.279	134.28
444.49	250.53
444.701	168.58
444.912	289.67
445.123	205.39
445.334	216.82
445.545	198.99
445.756	193.96
445.967	184.08
446.178	198.61
446.388	230.19
446.599	234.26
446.81	229.03
447.021	198.61
447.232	257.31
447.443	262.93
447.653	187.37
447.864	204.81
448.075	187.18
448.286	258.67
448.496	223.6
448.707	264.09
448.918	224.76
449.129	305.17
449.339	190.47
449.55	233.87
449.761	211.2
449.971	250.34
450.182	225.34
450.393	234.06
450.603	227.86
450.814	279.21
451.024	234.84
451.235	246.85
451.446	253.44
451.656	277.85
451.867	196.09
452.077	242.2
452.288	295.87
452.498	298.39
452.709	217.01
452.919	277.66
453.13	210.81
453.34	274.75
453.55	196.86
453.761	269.71
453.971	257.89
454.182	277.07
454.392	271.65
454.602	324.74
454.813	278.43
455.023	293.54
455.233	219.14
455.444	248.98
455.654	186.21
455.864	254.79
456.075	263.9
456.285	246.27
456.495	244.33
456.705	273.39
456.916	311.17
457.126	304.01
457.336	288.89
457.546	196.67
457.756	220.69
457.967	286.57
458.177	272.42
458.387	272.62
458.597	251.11
458.807	231.93
459.017	260.22
459.227	262.74
459.437	265.84
459.647	315.82
459.857	277.85
460.068	243.17
460.278	309.82
460.488	289.67
460.698	344.11
460.908	275.72
461.117	229.22
461.327	272.81
461.537	289.09
461.747	297.42
461.957	308.27
462.167	378.99
462.377	328.42
462.587	292.77
462.797	346.82
463.007	311.76
463.216	329
463.426	362.32
463.636	350.89
463.846	264.09
464.056	308.46
464.265	354.19
464.475	266.42
464.685	287.92
464.895	331.32
465.104	338.69
465.314	337.52
465.524	300.13
465.733	290.83
465.943	361.74
466.153	404.95
466.362	340.04
466.572	349.54
466.782	331.13
466.991	345.47
467.201	398.17
467.41	299.74
467.62	337.33
467.829	335.97
468.039	331.52
468.249	344.69
468.458	317.76
468.668	350.89
468.877	342.95
469.086	399.72
469.296	384.6
469.505	333.84
469.715	412.7
469.924	377.63
470.134	391
470.343	425.1
470.552	332.1
470.762	343.72
470.971	322.99
471.18	350.31
471.39	336.75
471.599	313.31
471.808	395.65
472.018	346.24
472.227	411.34
472.436	430.52
472.645	378.02
472.855	355.15
473.064	437.3
473.273	413.67
473.482	418.9
473.691	441.37
473.901	398.17
474.11	402.62
474.319	462.3
474.528	431.1
474.737	473.15
474.946	443.89
475.155	429.36
475.364	451.25
475.573	427.42
475.783	441.95
475.992	460.94
476.201	503.95
476.41	439.24
476.619	391
476.828	426.07
477.037	402.43
477.245	438.85
477.454	467.53
477.663	419.29
477.872	439.24
478.081	515
478.29	413.09
478.499	533.4
478.708	460.94
478.917	526.04
479.125	490.78
479.334	505.89
479.543	464.62
479.752	504.92
479.961	485.93
480.169	518.1
480.378	483.22
480.587	623.69
480.796	519.65
481.004	499.3
481.213	554.91
481.422	512.48
481.63	510.15
481.839	562.27
482.048	574.09
482.256	519.65
482.465	545.41
482.674	551.42
482.882	560.14
483.091	605.86
483.299	545.22
483.508	581.26
483.716	556.26
483.925	583.39
484.134	555.3
484.342	557.62
484.551	579.71
484.759	557.81
484.967	560.53
485.176	630.47
485.384	606.64
485.593	627.37
485.801	577.77
486.01	547.16
486.218	530.69
486.426	469.47
486.635	527.2
486.843	514.61
487.051	571.96
487.26	504.53
487.468	580.1
487.676	577.19
487.885	557.04
488.093	607.22
488.301	589.2
488.509	591.33
488.717	600.44
488.926	615.74
489.134	613.03
489.342	634.34
489.55	564.6
489.758	642.29
489.967	623.69
490.175	723.08
490.383	637.64
490.591	682.78
490.799	647.13
491.007	691.69
491.215	676.58
491.423	662.63
491.631	660.69
491.839	653.33
492.047	680.26
492.255	600.63
492.463	626.59
492.671	630.28
492.879	693.44
493.087	650.62
493.295	676.58
493.503	708.74
493.711	684.53
493.919	721.53
494.127	741.49
494.334	741.68
494.542	671.54
494.75	688.79
494.958	698.47
495.166	751.37
495.374	718.24
495.581	746.33
495.789	727.54
495.997	767.06
496.205	723.27
496.412	684.53
496.62	738.58
496.828	745.36
497.035	733.35
497.243	760.09
497.451	721.53
497.658	750.01
497.866	719.21
498.074	804.45
498.281	721.92
498.489	811.24
498.696	749.82
498.904	733.54
499.112	708.94
499.319	827.51
499.527	735.09
499.734	794.96
499.942	715.52
500.149	693.63
500.357	793.99
500.564	691.89
500.771	754.08
500.979	699.25
501.186	736.26
501.394	750.4
501.601	734.51
501.808	778.49
502.016	749.82
502.223	763.57
502.43	780.04
502.638	765.51
502.845	742.07
503.052	837.78
503.26	776.36
503.467	841.07
503.674	796.51
503.881	826.54
504.089	870.13
504.296	817.44
504.503	785.27
504.71	773.65
504.917	757.57
505.125	809.69
505.332	803.1
505.539	833.13
505.746	882.34
505.953	871.88
506.16	892.61
506.367	893.77
506.574	914.89
506.781	911.21
506.988	809.69
507.195	867.23
507.402	854.05
507.609	870.91
507.816	823.25
508.023	824.99
508.23	827.32
508.437	832.35
508.644	879.05
508.851	883.31
509.058	907.14
509.265	886.41
509.472	887.38
509.679	974.76
509.885	880.6
510.092	864.71
510.299	850.57
510.506	881.57
510.713	885.83
510.92	890.87
511.126	911.98
511.333	950.73
511.54	948.8
511.746	1006.92
511.953	960.61
512.16	994.13
512.367	928.84
512.573	917.41
512.78	934.27
512.987	921.48
513.193	955.58
513.4	843.2
513.606	924.77
513.813	977.08
514.02	943.18
514.226	1022.23
514.433	970.88
514.639	891.64
514.846	965.65
515.052	920.7
515.259	955.19
515.465	964.3
515.672	971.46
515.878	1075.31
516.085	971.08
516.291	1023.58
516.497	975.73
516.704	931.36
516.91	897.45
517.117	903.27
517.323	837.39
517.529	877.11
517.736	896.68
517.942	934.85
518.148	924.97
518.354	943.57
518.561	911.6
518.767	926.13
518.973	988.71
519.179	981.35
519.386	954.22
519.592	952.09
519.798	971.27
520.004	1063.3
520.21	1037.53
520.417	1070.86
520.623	1090.81
520.829	1096.24
521.035	1109.99
521.241	1102.83
521.447	1099.73
521.653	1227.4
521.859	1096.63
522.065	1116.39
522.271	1198.34
522.477	1177.22
522.683	1161.34
522.889	1150.29
523.095	1117.74
523.301	1142.54
523.507	1084.61
523.713	1163.47
523.919	1104.38
524.125	1194.27
524.331	1170.83
524.537	1226.05
524.742	1221.4
524.948	1195.63
525.154	1187.49
525.36	1298.12
525.566	1160.76
525.772	1284.37
525.977	1209.19
526.183	1232.05
526.389	1257.24
526.595	1191.76
526.8	1143.32
527.006	1137.51
527.212	1074.34
527.417	1109.61
527.623	1122.98
527.829	1172.96
528.034	1145.06
528.24	1206.09
528.446	1183.04
528.651	1251.82
528.857	1235.54
529.062	1293.28
529.268	1252.59
529.473	1300.64
529.679	1272.55
529.884	1318.08
530.09	1320.79
530.295	1295.22
530.501	1320.98
530.706	1328.15
530.912	1268.48
531.117	1297.93
531.323	1294.83
531.528	1349.47
531.733	1311.1
531.939	1285.53
532.144	1331.06
532.35	1351.6
532.555	1370.58
532.76	1312.46
532.966	1354.12
533.171	1327.57
533.376	1267.32
533.581	1278.75
533.787	1299.87
533.992	1302.58
534.197	1369.42
534.402	1363.03
534.607	1349.47
534.813	1448.47
535.018	1293.47
535.223	1339
535.428	1366.52
535.633	1403.13
535.838	1395.19
536.043	1408.36
536.249	1469.59
536.454	1405.26
536.659	1431.81
536.864	1350.82
537.069	1375.62
537.274	1436.26
537.479	1398.1
537.684	1380.47
537.889	1357.02
538.094	1461.65
538.299	1393.83
538.504	1409.91
538.708	1447.5
538.913	1451.76
539.118	1407.2
539.323	1438.98
539.528	1364.77
539.733	1393.25
539.938	1386.08
540.142	1430.45
540.347	1408.75
540.552	1331.25
540.757	1380.66
540.962	1380.85
541.166	1318.27
541.371	1327.96
541.576	1382.21
541.781	1294.64
541.985	1419.21
542.19	1391.51
542.395	1460.1
542.599	1471.53
542.804	1458.93
543.008	1436.85
543.213	1414.76
543.418	1399.26
543.622	1434.71
543.827	1404.49
544.031	1479.08
544.236	1500.2
544.44	1450.8
544.645	1503.88
544.849	1399.84
545.054	1498.07
545.258	1523.26
545.463	1515.31
545.667	1416.7
545.872	1499.81
546.076	1446.15
546.281	1439.75
546.485	1434.52
546.689	1452.15
546.894	1512.99
547.098	1472.69
547.302	1438.2
547.507	1470.36
547.711	1497.29
547.915	1523.06
548.119	1442.27
548.324	1446.15
548.528	1507.18
548.732	1466.88
548.936	1519.77
549.141	1538.18
549.345	1444.79
549.549	1495.94
549.753	1497.1
549.957	1590.1
550.161	1548.25
550.366	1527.13
550.57	1467.85
550.774	1500.01
550.978	1506.98
551.182	1536.82
551.386	1523.06
551.59	1500.78
551.794	1487.8
551.998	1518.03
552.202	1473.27
552.406	1475.4
552.61	1463.58
552.814	1526.94
553.018	1546.7
553.222	1511.63
553.426	1469.98
553.63	1530.04
553.833	1490.13
554.037	1460.87
554.241	1521.13
554.445	1536.24
554.649	1538.18
554.853	1491.09
555.056	1506.21
555.26	1555.81
555.464	1500.98
555.668	1511.83
555.871	1560.84
556.075	1572.27
556.279	1512.79
556.483	1489.35
556.686	1509.89
556.89	1529.26
557.094	1499.62
557.297	1424.45
557.501	1526.16
557.704	1438.98
557.908	1509.11
558.112	1463.39
558.315	1533.72
558.519	1482.18
558.722	1476.95
558.926	1464.55
559.129	1393.45
559.333	1376.4
559.536	1392.28
559.74	1421.35
559.943	1398.87
560.147	1406.62
560.35	1424.25
560.553	1381.24
560.757	1346.95
560.96	1503.88
561.164	1413.4
561.367	1531.01
561.57	1423.67
561.774	1469.01
561.977	1453.7
562.18	1405.46
562.384	1555.42
562.587	1445.18
562.79	1444.98
562.993	1453.12
563.197	1499.43
563.4	1534.11
563.603	1496.33
563.806	1549.61
564.009	1432.2
564.212	1457.19
564.416	1376.98
564.619	1465.71
564.822	1392.28
565.025	1451.57
565.228	1408.75
565.431	1436.46
565.634	1326.6
565.837	1421.93
566.04	1400.61
566.243	1425.61
566.446	1305.87
566.649	1412.24
566.852	1323.12
567.055	1381.63
567.258	1374.65
567.461	1492.06
567.664	1421.54
567.867	1354.12
568.07	1354.31
568.273	1378.33
568.475	1448.28
568.678	1389.38
568.881	1374.46
569.084	1374.85
569.287	1283.01
569.489	1303.55
569.692	1399.45
569.895	1401.78
570.098	1276.42
570.3	1295.6
570.503	1255.11
570.706	1265.19
570.909	1275.26
571.111	1231.28
571.314	1245.81
571.516	1253.56
571.719	1300.25
571.922	1262.67
572.124	1299.48
572.327	1302.58
572.529	1238.45
572.732	1229.15
572.935	1303.35
573.137	1344.23
573.34	1262.67
573.542	1298.12
573.745	1304.32
573.947	1287.85
574.15	1248.52
574.352	1232.25
574.554	1301.42
574.757	1220.04
574.959	1206.67
575.162	1226.63
575.364	1206.29
575.566	1280.69
575.769	1192.53
575.971	1239.42
576.173	1116.97
576.376	1209
576.578	1235.74
576.78	1282.04
576.982	1129.56
577.185	1214.04
577.387	1189.82
577.589	1190.59
577.791	1219.46
577.993	1206.67
578.196	1194.08
578.398	1208.81
578.6	1225.47
578.802	1146.03
579.004	1124.33
579.206	1160.95
579.408	1186.72
579.61	1143.71
579.812	1252.4
580.014	1154.94
580.216	1182.46
580.418	1172.57
580.62	1174.51
580.822	1112.13
581.024	1164.05
581.226	1200.67
581.428	1171.61
581.63	1242.9
581.832	1131.31
582.034	1209.39
582.236	1192.14
582.438	1237.29
582.64	1280.49
582.841	1265.19
583.043	1319.05
583.245	1235.93
583.447	1228.95
583.649	1175.67
583.85	1220.43
584.052	1247.17
584.254	1164.24
584.456	1223.53
584.657	1150.29
584.859	1177.03
585.061	1189.62
585.262	1147.77
585.464	1153.78
585.666	1196.21
585.867	1153.97
586.069	1215.59
586.27	1180.13
586.472	1141.96
586.674	1135.57
586.875	1114.06
587.077	1153.97
587.278	1165.21
587.48	1153.39
587.681	1231.67
587.883	1165.99
588.084	1064.66
588.285	1143.32
588.487	1111.16
588.688	1126.85
588.89	1053.42
589.091	1045.67
589.292	1050.71
589.494	995.49
589.695	988.9
589.896	949.57
590.098	954.22
590.299	1034.43
590.5	983.48
590.702	999.36
590.903	1037.15
591.104	1087.71
591.305	1083.06
591.507	1122.78
591.708	1078.8
591.909	1076.48
592.11	1155.52
592.311	1104.57
592.512	1088.29
592.714	982.51
592.915	1038.89
593.116	1047.8
593.317	1062.72
593.518	1082.48
593.719	1055.16
593.92	1078.41
594.121	1102.44
594.322	1048.77
594.523	1069.89
594.724	1031.91
594.925	1024.16
595.126	1030.36
595.327	1055.36
595.528	1020.48
595.729	1048.77
595.929	1033.66
596.13	1065.04
596.331	1049.16
596.532	1060.59
596.733	1082.29
596.934	1090.81
597.135	1088.88
597.335	1085.39
597.536	1005.56
597.737	1069.31
597.938	1027.26
598.138	1030.17
598.339	1029.98
598.54	1066.4
598.74	1032.3
598.941	1046.06
599.142	1072.41
599.342	1057.88
599.543	1053.03
599.744	1043.15
599.944	1054.39
600.145	1050.13
600.345	1062.72
600.546	1127.82
600.746	1089.46
600.947	1128.4
601.147	1084.23
601.348	1082.29
601.548	1043.73
601.749	1080.54
601.949	1028.62
602.15	1026.1
602.35	1040.25
602.551	1092.75
602.751	1000.14
602.951	1032.88
603.152	961.78
603.352	1033.85
603.552	1058.65
603.753	1056.91
603.953	1108.06
604.153	1044.7
604.354	1047.61
604.554	1047.41
604.754	1071.83
604.954	1021.45
605.155	1069.5
605.355	1063.3
605.555	1077.64
605.755	1095.46
605.955	1026.49
606.155	1079.96
606.356	1067.56
606.556	1072.21
606.756	1034.82
606.956	1005.18
607.156	1081.32
607.356	1053.42
607.556	1042.18
607.756	1043.73
607.956	1117.16
608.156	1037.73
608.356	1025.33
608.556	1072.41
608.756	1029.78
608.956	1004.79
609.156	1042.18
609.356	1005.18
609.556	992.97
609.755	1051.87
609.955	1022.81
610.155	1055.36
610.355	1039.47
610.555	973.21
610.755	1033.27
610.954	973.98
611.154	1027.26
611.354	1027.46
611.554	1009.05
611.753	975.92
611.953	923.03
612.153	1025.91
612.352	990.06
612.552	926.52
612.752	911.79
612.951	977.28
613.151	993.55
613.351	941.43
613.55	943.76
613.75	962.94
613.949	963.71
614.149	994.52
614.348	961.39
614.548	937.56
614.747	918.96
614.947	943.37
615.146	927.87
615.346	1021.26
615.545	986.96
615.745	919.73
615.944	993.55
616.144	990.84
616.343	971.46
616.542	932.33
616.742	925.74
616.941	939.88
617.14	918.38
617.34	930.97
617.539	956.55
617.738	937.75
617.938	996.26
618.137	954.61
618.336	917.6
618.535	964.68
618.734	944.53
618.934	934.27
619.133	936.78
619.332	966.04
619.531	874.4
619.73	918.18
619.929	979.99
620.128	962.36
620.328	991.23
620.527	933.68
620.726	967.59
620.925	946.86
621.124	929.81
621.323	949.38
621.522	865.49
621.721	927.29
621.92	888.73
622.119	960.03
622.318	888.15
622.517	895.32
622.715	958.48
622.914	870.72
623.113	911.98
623.312	870.13
623.511	927.87
623.71	901.33
623.909	895.9
624.107	982.12
624.306	868.58
624.505	886.02
624.704	864.13
624.902	901.72
625.101	935.04
625.3	913.34
625.499	878.66
625.697	879.05
625.896	852.7
626.095	914.5
626.293	840.49
626.492	856.57
626.69	907.33
626.889	847.66
627.088	932.91
627.286	816.66
627.485	835.26
627.683	830.61
627.882	868
628.08	795.54
628.279	832.74
628.477	891.83
628.676	786.24
628.874	872.27
629.073	815.3
629.271	799.03
629.469	854.05
629.668	818.99
629.866	831.58
630.065	835.45
630.263	850.57
630.461	814.92
630.66	833.52
630.858	834.49
631.056	886.22
631.254	875.37
631.453	804.26
631.651	867.03
631.849	840.3
632.047	858.9
632.245	838.55
632.444	831.58
632.642	878.85
632.84	873.43
633.038	846.89
633.236	834.87
633.434	832.74
633.632	812.01
633.83	813.17
634.028	873.04
634.227	856.96
634.425	889.12
634.623	855.6
634.821	826.35
635.019	868.97
635.216	827.32
635.414	879.43
635.612	861.61
635.81	861.22
636.008	890.48
636.206	870.72
636.404	873.62
636.602	808.33
636.8	838.17
636.997	880.79
637.195	899.97
637.393	849.79
637.591	906.37
637.789	864.32
637.986	841.85
638.184	823.64
638.382	935.23
638.58	868.58
638.777	916.25
638.975	839.14
639.173	862.77
639.37	886.41
639.568	837.59
639.765	878.66
639.963	844.56
640.161	879.24
640.358	877.69
640.556	821.5
640.753	838.36
640.951	824.41
641.148	848.44
641.346	841.65
641.543	831.58
641.741	865.49
641.938	794.96
642.136	845.72
642.333	798.25
642.531	887.38
642.728	872.46
642.925	827.12
643.123	791.09
643.32	816.27
643.517	820.15
643.715	836.81
643.912	813.56
644.109	822.86
644.306	803.1
644.504	777.72
644.701	802.9
644.898	835.84
645.095	769.97
645.293	802.13
645.49	837.78
645.687	839.33
645.884	842.04
646.081	751.95
646.278	782.75
646.475	778.11
646.672	772.29
646.87	776.17
647.067	772.1
647.264	770.74
647.461	745.94
647.658	717.46
647.855	776.36
648.052	759.7
648.249	691.11
648.446	746.52
648.642	710.87
648.839	695.18
649.036	711.46
649.233	701.38
649.43	674.06
649.627	665.93
649.824	672.13
650.021	687.24
650.217	677.16
650.414	678.91
650.611	718.62
650.808	756.21
651.004	726.96
651.201	760.86
651.398	791.28
651.595	740.32
651.791	703.9
651.988	752.34
652.185	705.64
652.381	758.34
652.578	682.2
652.775	692.27
652.971	683.36
653.168	737.81
653.364	746.72
653.561	683.17
653.757	727.73
653.954	747.49
654.15	721.53
654.347	786.82
654.543	709.32
654.74	668.06
654.936	668.25
655.133	698.47
655.329	707
655.525	691.5
655.722	749.82
655.918	652.17
656.115	681.04
656.311	606.44
656.507	591.72
656.704	558.78
656.9	587.65
657.096	592.11
657.292	614.19
657.489	680.84
657.685	651.39
657.881	621.56
658.077	619.43
658.273	659.34
658.47	702.35
658.666	673.48
658.862	691.31
659.058	656.63
659.254	702.35
659.45	651.59
659.646	678.52
659.842	665.54
660.038	737.03
660.234	635.51
660.43	697.7
660.626	761.64
660.822	676
661.018	667.67
661.214	673.09
661.41	631.05
661.606	713.59
661.802	710.29
661.998	695.76
662.194	662.05
662.39	666.51
662.586	672.71
662.781	677.74
662.977	720.76
663.173	716.11
663.369	668.25
663.564	694.79
663.76	685.88
663.956	668.06
664.152	722.89
664.347	607.22
664.543	676.78
664.739	649.26
664.934	611.48
665.13	630.47
665.326	704.48
665.521	688.21
665.717	641.9
665.912	629.31
666.108	567.89
666.304	628.73
666.499	611.68
666.695	568.66
666.89	615.36
667.086	644.42
667.281	643.06
667.477	662.05
667.672	628.53
667.867	646.94
668.063	636.48
668.258	585.91
668.454	575.45
668.649	662.05
668.844	588.62
669.04	648.1
669.235	615.16
669.43	616.52
669.626	564.98
669.821	570.21
670.016	561.88
670.211	625.24
670.407	582.03
670.602	614
670.797	597.92
670.992	651.59
671.187	589.4
671.382	632.79
671.578	584.94
671.773	633.96
671.968	570.6
672.163	578.35
672.358	621.75
672.553	564.01
672.748	587.07
672.943	650.43
673.138	590.36
673.333	630.86
673.528	543.09
673.723	595.01
673.918	570.02
674.113	544.64
674.308	676.39
674.503	617.29
674.698	620.01
674.892	617.68
675.087	613.03
675.282	611.48
675.477	594.43
675.672	597.34
675.867	584.16
676.061	569.44
676.256	534.37
676.451	560.91
676.646	611.48
676.84	569.44
677.035	528.56
677.23	541.93
677.424	589.59
677.619	608.96
677.814	632.21
678.008	620.59
678.203	547.74
678.397	570.99
678.592	589.2
678.787	643.06
678.981	594.43
679.176	602.96
679.37	582.23
679.565	545.03
679.759	559.36
679.954	630.47
680.148	659.14
680.342	630.47
680.537	587.85
680.731	608.96
680.926	620.78
681.12	635.89
681.314	592.88
681.509	580.48
681.703	614
681.897	618.07
682.092	579.9
682.286	556.65
682.48	707
682.674	661.66
682.869	569.44
683.063	586.88
683.257	663.41
683.451	580.48
683.645	629.11
683.839	606.83
684.034	607.22
684.228	625.43
684.422	575.45
684.616	554.52
684.81	627.56
685.004	557.62
685.198	559.36
685.392	606.64
685.586	569.63
685.78	588.81
685.974	630.86
686.168	586.88
686.362	629.69
686.556	562.85
686.75	521.58
686.944	529.91
687.138	553.55
687.331	447.77
687.525	480.9
687.719	387.12
687.913	426.07
688.107	454.74
688.301	436.53
688.494	508.41
688.688	445.44
688.882	428.39
689.076	446.02
689.269	451.25
689.463	559.17
689.657	479.54
689.85	464.82
690.044	490
690.238	469.66
690.431	499.5
690.625	509.57
690.818	513.06
691.012	531.27
691.205	577.38
691.399	506.67
691.593	549.48
691.786	576.22
691.98	600.63
692.173	597.73
692.366	583.97
692.56	624.27
692.753	653.33
692.947	568.66
693.14	643.45
693.333	648.88
693.527	604.31
693.72	598.7
693.914	599.86
694.107	587.65
694.3	625.43
694.493	622.72
694.687	652.56
694.88	606.44
695.073	679.88
695.266	665.15
695.46	667.48
695.653	690.92
695.846	679.49
696.039	605.86
696.232	669.61
696.425	719.21
696.618	705.06
696.812	722.89
697.005	767.26
697.198	838.55
697.391	771.13
697.584	792.83
697.777	859.67
697.97	802.9
698.163	831.19
698.356	791.86
698.549	855.41
698.742	829.84
698.935	788.95
699.127	831.77
699.32	796.7
699.513	778.49
699.706	834.68
699.899	861.42
700.092	824.8
700.285	863.16
700.477	797.29
700.67	874.98
700.863	876.33
701.056	952.87
701.248	934.46
701.441	902.88
701.634	829.64
701.826	988.32
702.019	847.85
702.212	932.52
702.404	886.41
702.597	882.92
702.79	930.39
702.982	932.33
703.175	978.05
703.367	971.66
703.56	1002.46
703.752	1063.11
703.945	1034.63
704.137	1042.57
704.33	1079.19
704.522	1083.84
704.715	1078.8
704.907	1093.91
705.1	1100.31
705.292	1112.9
705.484	1103.6
705.677	1114.84
705.869	1132.08
706.061	1146.03
706.254	1183.62
706.446	1128.4
706.638	1142.54
706.831	1220.62
707.023	1161.34
707.215	1262.86
707.407	1236.12
707.599	1236.9
707.792	1285.14
707.984	1248.91
708.176	1267.9
708.368	1232.64
708.56	1277.59
708.752	1280.88
708.944	1309.36
709.136	1290.57
709.329	1280.69
709.521	1410.69
709.713	1342.88
709.905	1351.98
710.097	1401.2
710.289	1351.21
710.481	1360.9
710.672	1402.36
710.864	1402.16
711.056	1459.71
711.248	1436.26
711.44	1432.97
711.632	1402.55
711.824	1430.84
712.016	1525.19
712.207	1513.38
712.399	1487.41
712.591	1584.48
712.783	1526.16
712.975	1554.26
713.166	1497.88
713.358	1517.06
713.55	1584.87
713.741	1614.71
713.933	1592.04
714.125	1583.9
714.316	1551.54
714.508	1640.67
714.7	1650.94
714.891	1628.85
715.083	1627.11
715.274	1639.7
715.466	1651.13
715.657	1708.48
715.849	1599.59
716.04	1624.2
716.232	1582.35
716.423	1632.34
716.615	1569.56
716.806	1542.05
716.998	1525.78
717.189	1453.12
717.381	1413.6
717.572	1369.81
717.763	1404.1
717.955	1395
718.146	1392.67
718.337	1288.82
718.528	1278.55
718.72	1248.52
718.911	1331.64
719.102	1264.41
719.293	1334.74
719.485	1302.97
719.676	1310.13
719.867	1246.78
720.058	1277.59
720.249	1259.76
720.44	1310.52
720.632	1367.87
720.823	1385.5
721.014	1463.39
721.205	1491.68
721.396	1554.26
721.587	1633.31
721.778	1645.71
721.969	1676.7
722.16	1727.66
722.351	1690.07
722.542	1838.29
722.733	1833.25
722.924	1760.6
723.115	1796.05
723.305	1779
723.496	1790.63
723.687	1692.4
723.878	1703.25
724.069	1701.31
724.26	1732.5
724.45	1666.44
724.641	1638.34
724.832	1708.29
725.023	1712.35
725.213	1670.89
725.404	1625.94
725.595	1658.49
725.785	1640.67
725.976	1737.54
726.167	1709.45
726.357	1714.29
726.548	1825.89
726.739	1694.72
726.929	1782.49
727.12	1790.05
727.31	1791.98
727.501	1780.36
727.691	1796.44
727.882	1795.67
728.072	1822.02
728.263	1798.77
728.453	1885.95
728.644	1856.7
728.834	1853.79
729.024	1824.34
729.215	1804.97
729.405	1900.87
729.596	1961.9
729.786	1929.93
729.976	1916.76
730.167	1954.34
730.357	1899.9
730.547	1928.77
730.737	1946.21
730.928	2009.76
731.118	2051.99
731.308	1924.7
731.498	2012.08
731.688	2054.51
731.879	2068.07
732.069	2134.34
732.259	2132.79
732.449	2162.43
732.639	2197.3
732.829	2245.55
733.019	2270.93
733.209	2329.83
733.399	2318.4
733.589	2395.51
733.779	2398.03
733.969	2359.86
734.159	2429.8
734.349	2471.46
734.539	2516.02
734.729	2422.05
734.919	2514.66
735.109	2550.89
735.299	2513.5
735.488	2476.88
735.678	2524.74
735.868	2516.41
736.058	2529.77
736.248	2532.29
736.437	2460.41
736.627	2449.37
736.817	2551.28
737.007	2530.55
737.196	2546.82
737.386	2536.75
737.576	2531.32
737.765	2629.55
737.955	2566.97
738.144	2671.6
738.334	2605.53
738.524	2555.54
738.713	2595.26
738.903	2634.78
739.092	2659
739.282	2639.43
739.471	2678.18
739.661	2648.93
739.85	2654.74
740.04	2671.4
740.229	2722.16
740.419	2719.84
740.608	2778.35
740.797	2734.56
740.987	2766.92
741.176	2749.48
741.365	2715.19
741.555	2682.64
741.744	2736.31
741.933	2764.01
742.123	2751.81
742.312	2782.81
742.501	2799.47
742.69	2812.06
742.88	2764.21
743.069	2855.08
743.258	2792.88
743.447	2845.97
743.636	2825.43
743.825	2793.27
744.014	2833.76
744.204	2823.3
744.393	2772.73
744.582	2880.46
744.771	2888.98
744.96	2815.36
745.149	2875.23
745.338	2819.04
745.527	2873.09
745.716	2843.84
745.905	2839.77
746.094	2879.29
746.283	2896.54
746.471	2894.79
746.66	2939.94
746.849	2851.98
747.038	2960.67
747.227	2883.36
747.416	2931.41
747.604	2890.53
747.793	2878.71
747.982	2876.97
748.171	2872.51
748.359	2911.26
748.548	2906.03
748.737	2895.37
748.926	2900.02
749.114	2789.01
749.303	2888.79
749.491	2901.96
749.68	2821.94
749.869	2899.83
750.057	2860.11
750.246	2899.44
750.434	2885.49
750.623	2832.02
750.811	2848.1
751	2883.17
751.188	2891.69
751.377	2892.08
751.565	2894.02
751.754	2827.76
751.942	2837.06
752.131	2905.45
752.319	2809.74
752.507	2805.28
752.696	2872.71
752.884	2896.34
753.072	2840.93
753.261	2849.46
753.449	2832.79
753.637	2803.73
753.825	2918.04
754.014	2839.96
754.202	2832.41
754.39	2935.48
754.578	2852.56
754.766	2817.1
754.955	2796.95
755.143	2869.22
755.331	2813.42
755.519	2798.89
755.707	2808.77
755.895	2804.89
756.083	2856.82
756.271	2708.21
756.459	2790.75
756.647	2814.97
756.835	2764.4
757.023	2768.66
757.211	2783.2
757.399	2785.52
757.587	2727.01
757.775	2695.62
757.963	2728.56
758.151	2723.33
758.339	2666.56
758.526	2692.13
758.714	2731.46
758.902	2638.08
759.09	2581.5
759.278	2365.86
759.465	2177.73
759.653	1909.01
759.841	1714.87
760.028	1464.55
760.216	1274.87
760.404	1192.72
760.591	947.44
760.779	820.15
760.967	700.02
761.154	604.7
761.342	670.96
761.529	647.91
761.717	698.28
761.905	709.32
762.092	753.89
762.28	700.99
762.467	746.91
762.655	638.8
762.842	665.93
763.029	687.82
763.217	680.46
763.404	688.21
763.592	701.57
763.779	676.19
763.966	723.66
764.154	734.71
764.341	802.13
764.528	812.59
764.716	883.12
764.903	904.04
765.09	974.18
765.277	995.88
765.465	1158.82
765.652	1235.74
765.839	1228.76
766.026	1354.12
766.213	1363.61
766.4	1472.3
766.588	1632.34
766.775	1650.16
766.962	1730.57
767.149	1769.32
767.336	1895.25
767.523	1868.51
767.71	1947.56
767.897	2060.13
768.084	2129.69
768.271	2128.91
768.458	2205.83
768.645	2249.42
768.832	2251.94
769.019	2244.97
769.206	2257.37
769.392	2323.63
769.579	2423.41
769.766	2375.94
769.953	2290.69
770.14	2440.26
770.327	2417.79
770.513	2485.41
770.7	2474.75
770.887	2411.78
771.073	2507.11
771.26	2450.53
771.447	2438.52
771.634	2401.13
771.82	2522.41
772.007	2423.41
772.193	2500.32
772.38	2474.36
772.567	2456.15
772.753	2450.72
772.94	2498.19
773.126	2520.86
773.313	2504.78
773.499	2501.1
773.686	2545.47
773.872	2447.24
774.059	2537.14
774.245	2440.46
774.432	2471.26
774.618	2409.84
774.804	2514.66
774.991	2446.27
775.177	2468.16
775.363	2370.71
775.55	2492.19
775.736	2404.03
775.922	2398.22
776.109	2438.33
776.295	2423.6
776.481	2441.42
776.667	2477.66
776.853	2437.16
777.04	2425.73
777.226	2435.23
777.412	2504.39
777.598	2400.93
777.784	2403.26
777.97	2380.01
778.156	2404.61
778.342	2365.09
778.528	2355.4
778.715	2292.82
778.901	2326.92
779.087	2416.82
779.272	2327.7
779.458	2347.85
779.644	2367.61
779.83	2335.83
780.016	2422.05
780.202	2348.04
780.388	2347.07
780.574	2271.12
780.76	2280.03
780.946	2316.26
781.131	2266.86
781.317	2281.58
781.503	2235.86
781.689	2270.93
781.874	2404.42
782.06	2262.02
782.246	2276.16
782.432	2269.18
782.617	2268.8
782.803	2302.12
782.989	2218.42
783.174	2212.61
783.36	2177.15
783.545	2242.25
783.731	2217.84
783.916	2138.02
784.102	2225.01
784.288	2188.97
784.473	2216.68
784.659	2180.45
784.844	2249.03
785.029	2172.31
785.215	2168.63
785.4	2159.33
785.586	2216.1
785.771	2101.01
785.956	2212.8
786.142	2145.19
786.327	2123.1
786.512	2145.38
786.698	2122.71
786.883	2091.9
787.068	2089.58
787.254	2116.32
787.439	2121.94
787.624	2118.84
787.809	2079.7
787.994	2094.23
788.18	2153.32
788.365	2043.66
788.55	2091.52
788.735	2101.59
788.92	2112.44
789.105	2040.95
789.29	2080.09
789.475	2018.09
789.66	2019.44
789.845	2005.3
790.03	2014.79
790.215	2067.49
790.4	2067.11
790.585	2089.58
790.77	2019.83
790.955	1967.33
791.14	2019.06
791.325	2055.67
791.51	1896.8
791.695	2008.01
791.879	1967.71
792.064	1917.73
792.249	2062.46
792.434	1965.58
792.618	1992.71
792.803	2016.15
792.988	1981.28
793.173	1978.18
793.357	1982.83
793.542	1929.74
793.727	1972.75
793.911	2012.86
794.096	1990.19
794.281	2053.54
794.465	2075.05
794.65	1987.67
794.834	2012.47
795.019	2059.16
795.203	2062.84
795.388	2053.35
795.572	2071.37
795.757	2023.51
795.941	2050.06
796.126	2006.27
796.31	1931.68
796.494	2042.5
796.679	2020.02
796.863	1982.05
797.048	2057.61
797.232	2042.5
797.416	2004.33
797.601	2031.84
797.785	2071.37
797.969	2107.6
798.153	2007.43
798.338	2057.61
798.522	2049.09
798.706	2074.66
798.89	2128.33
799.074	2163.59
799.258	2136.85
799.443	2078.92
799.627	2041.34
799.811	2091.71
799.995	2047.92
800.179	2002.39
800.363	2029.13
800.547	2052.19
800.731	2073.5
800.915	1982.24
801.099	2032.23
801.283	2005.11
801.467	2034.36
801.651	1989.8
801.835	2073.89
802.019	2043.27
802.202	2071.37
802.386	1991.35
802.57	1981.08
802.754	2042.5
802.938	1993.29
803.121	1947.56
803.305	2034.36
803.489	2017.7
803.673	2060.32
803.856	2064.2
804.04	2023.32
804.224	2037.46
804.407	2010.72
804.591	1973.72
804.775	2026.22
804.958	2019.44
805.142	2140.92
805.326	2034.36
805.509	2047.92
805.693	2077.37
805.876	2056.06
806.06	2059.36
806.243	2074.27
806.427	2073.69
806.61	2101.79
806.794	2047.15
806.977	2082.61
807.16	2059.94
807.344	2034.94
807.527	2065.94
807.71	2012.47
807.894	2041.14
808.077	2087.45
808.26	1989.22
808.444	2023.71
808.627	2069.04
808.81	1988.44
808.993	1985.15
809.177	1954.54
809.36	2004.33
809.543	2023.51
809.726	1931.87
809.909	1907.07
810.092	1901.84
810.276	1902.81
810.459	1913.08
810.642	1916.95
810.825	1892.73
811.008	1878.4
811.191	1824.53
811.374	1819.69
811.557	1860.57
811.74	1906.1
811.923	1768.35
812.106	1779.39
812.289	1776.87
812.472	1781.13
812.654	1785.2
812.837	1729.21
813.02	1710.03
813.203	1694.53
813.386	1580.41
813.569	1571.89
813.751	1546.51
813.934	1600.17
814.117	1557.55
814.3	1544.38
814.482	1510.47
814.665	1492.45
814.848	1445.18
815.03	1398.1
815.213	1383.37
815.396	1392.28
815.578	1409.53
815.761	1369.81
815.943	1420.57
816.126	1341.13
816.309	1323.7
816.491	1246.39
816.674	1185.94
816.856	1240.97
817.039	1219.46
817.221	1308.39
817.403	1258.02
817.586	1308.2
817.768	1282.82
817.951	1197.57
818.133	1202.61
818.315	1240.77
818.498	1277.2
818.68	1331.25
818.862	1313.82
819.045	1281.27
819.227	1303.16
819.409	1275.65
819.591	1326.02
819.774	1271.19
819.956	1232.83
820.138	1331.83
820.32	1321.95
820.502	1363.61
820.684	1395.77
820.866	1407.78
821.048	1434.91
821.231	1447.5
821.413	1442.85
821.595	1416.5
821.777	1441.3
821.959	1461.84
822.141	1466.3
822.323	1345.01
822.505	1319.05
822.686	1272.74
822.868	1247.36
823.05	1125.3
823.232	1124.91
823.414	1066.4
823.596	1166.37
823.778	1138.86
823.96	1173.74
824.141	1155.72
824.323	1184.78
824.505	1254.34
824.687	1273.52
824.868	1285.72
825.05	1363.8
825.232	1367.1
825.413	1482.96
825.595	1412.05
825.777	1331.64
825.958	1398.29
826.14	1360.51
826.321	1450.8
826.503	1376.78
826.685	1406.62
826.866	1436.26
827.048	1426.96
827.229	1388.8
827.411	1336.68
827.592	1287.08
827.773	1285.53
827.955	1278.17
828.136	1271.77
828.318	1243.49
828.499	1280.1
828.68	1204.54
828.862	1266.35
829.043	1298.9
829.224	1247.75
829.406	1234.38
829.587	1240.77
829.768	1241.16
829.949	1238.45
830.131	1240.58
830.312	1291.92
830.493	1262.09
830.674	1257.63
830.855	1245.42
831.036	1272.16
831.218	1318.08
831.399	1365.35
831.58	1301.42
831.761	1287.66
831.942	1282.04
832.123	1274.49
832.304	1263.25
832.485	1229.34
832.666	1263.25
832.847	1289.79
833.028	1283.79
833.209	1269.84
833.389	1253.56
833.57	1202.22
833.751	1208.03
833.932	1299.67
834.113	1265.96
834.294	1250.65
834.475	1268.87
834.655	1309.17
834.836	1338.23
835.017	1311.88
835.198	1225.47
835.378	1288.05
835.559	1327.96
835.74	1269.06
835.92	1257.63
836.101	1238.84
836.281	1276.62
836.462	1297.54
836.643	1328.54
836.823	1322.53
837.004	1327.96
837.184	1375.43
837.365	1347.33
837.545	1315.17
837.726	1313.62
837.906	1365.35
838.087	1330.28
838.267	1316.53
838.448	1262.86
838.628	1345.78
838.808	1269.64
838.989	1351.02
839.169	1265.38
839.349	1331.45
839.53	1325.63
839.71	1370.97
839.89	1342.68
840.07	1365.35
840.251	1282.62
840.431	1338.23
840.611	1284.17
840.791	1282.24
840.971	1338.42
841.151	1289.4
841.332	1298.7
841.512	1317.69
841.692	1242.71
841.872	1280.69
842.052	1280.1
842.232	1341.52
842.412	1249.3
842.592	1254.92
842.772	1342.1
842.952	1291.15
843.132	1272.94
843.312	1261.7
843.492	1260.92
843.672	1291.92
843.851	1228.95
844.031	1291.92
844.211	1261.89
844.391	1236.9
844.571	1257.44
844.751	1279.72
844.93	1314.01
845.11	1269.84
845.29	1286.11
845.47	1291.54
845.649	1258.21
845.829	1284.17
846.009	1249.88
846.188	1283.98
846.368	1278.17
846.547	1267.7
846.727	1302.77
846.907	1224.69
847.086	1276.42
847.266	1286.11
847.445	1250.65
847.625	1250.65
847.804	1231.86
847.984	1236.32
848.163	1222.17
848.343	1189.24
848.522	1259.18
848.701	1246.39
848.881	1193.31
849.06	1215.01
849.239	1223.34
849.419	1229.73
849.598	1147.97
849.777	1175.48
849.957	1172.57
850.136	1143.51
850.315	1124.14
850.494	1100.31
850.674	1124.91
850.853	1178.19
851.032	1163.27
851.211	1184.78
851.39	1153.01
851.569	1110.58
851.748	1121.23
851.927	1179.36
852.107	1154.36
852.286	1097.98
852.465	1132.86
852.644	1166.76
852.823	1148.94
853.002	1151.84
853.181	1160.95
853.359	1135.18
853.538	1120.46
853.717	1158.62
853.896	1079.96
854.075	1044.7
854.254	982.7
854.433	965.65
854.611	1011.18
854.79	943.18
854.969	1018.35
855.148	1024.16
855.327	975.53
855.505	1056.13
855.684	986.38
855.863	1025.52
856.041	1018.93
856.22	1058.07
856.399	1023.58
856.577	1142.93
856.756	1080.35
856.934	1175.48
857.113	1174.71
857.291	1071.05
857.47	1063.88
857.648	1103.02
857.827	1131.11
858.005	1181.49
858.184	1080.54
858.362	1173.93
858.541	1099.34
858.719	1087.91
858.898	1099.92
859.076	1079.19
859.254	1144.67
859.433	1081.13
859.611	1067.95
859.789	1056.13
859.967	1132.08
860.146	1115.81
860.324	1032.11
860.502	1042.57
860.68	1014.86
860.859	1040.63
861.037	1050.32
861.215	1053.81
861.393	1071.24
861.571	1058.07
861.749	1049.16
861.927	1085.78
862.105	1070.86
862.283	1035.4
862.461	1025.91
862.639	1008.86
862.817	1016.61
862.995	1058.46
863.173	1039.66
863.351	1071.44
863.529	1054.19
863.707	1088.88
863.885	1048.19
864.063	962.55
864.241	1018.55
864.418	1078.99
864.596	1029.2
864.774	969.33
864.952	1028.23
865.129	1040.05
865.307	978.25
865.485	936.78
865.663	1018.93
865.84	930.78
866.018	957.32
866.196	855.99
866.373	898.23
866.551	853.09
866.728	800.58
866.906	879.43
867.084	897.84
867.261	929.23
867.439	942.6
867.616	949.18
867.794	939.5
867.971	920.7
868.149	932.33
868.326	1000.14
868.503	975.92
868.681	951.51
868.858	944.53
869.035	937.95
869.213	998.01
869.39	922.45
869.567	954.41
869.745	919.15
869.922	924
870.099	940.47
870.276	977.08
870.454	940.66
870.631	937.95
870.808	935.82
870.985	995.49
871.162	1030.17
871.339	944.53
871.517	889.7
871.694	904.43
871.871	959.84
872.048	950.54
872.225	917.22
872.402	925.35
872.579	874.2
872.756	966.04
872.933	884.08
873.11	898.03
873.287	918.96
873.463	875.37
873.64	868.78
873.817	956.93
873.994	878.27
874.171	845.14
874.348	922.45
874.524	844.75
874.701	915.67
874.878	835.07
875.055	901.91
875.231	892.42
875.408	888.35
875.585	836.23
875.762	876.92
875.938	846.11
876.115	857.74
876.291	899.97
876.468	857.74
876.645	812.79
876.821	825.77
876.998	844.37
877.174	880.4
877.351	842.43
877.527	807.17
877.704	855.8
877.88	841.65
878.057	805.81
878.233	890.67
878.409	813.75
878.586	870.13
878.762	843.2
878.938	815.3
879.115	784.11
879.291	818.02
879.467	747.88
879.644	813.95
879.82	803.87
879.996	792.05
880.172	774.62
880.349	816.66
880.525	811.62
880.701	774.23
880.877	745.17
881.053	803.29
881.229	801.55
881.405	842.62
881.581	755.24
881.757	806.59
881.933	784.69
882.109	852.31
882.285	777.14
882.461	741.49
882.637	780.04
882.813	780.62
882.989	774.04
883.165	859.29
883.341	771.32
883.517	800.39
883.693	815.69
883.869	798.06
884.044	773.46
884.22	827.51
884.396	824.99
884.572	808.14
884.747	814.92
884.923	810.27
885.099	820.34
885.275	841.65
885.45	783.72
885.626	748.46
885.801	765.32
885.977	793.6
886.153	707.77
886.328	816.85
886.504	798.25
886.679	807.75
886.855	763.19
887.03	815.69
887.206	803.87
887.381	789.54
887.557	837.78
887.732	851.54
887.908	821.89
888.083	809.1
888.258	776.94
888.434	792.83
888.609	766.09
888.784	842.62
888.96	790.12
889.135	753.89
889.31	731.61
889.485	811.82
889.661	779.46
889.836	822.67
890.011	803.1
890.186	786.05
890.361	755.82
890.537	793.41
890.712	795.54
890.887	794.19
891.062	759.7
891.237	841.07
891.412	752.34
891.587	802.32
891.762	827.32
891.937	850.76
892.112	754.86
892.287	748.07
892.462	751.95
892.637	730.83
892.812	727.54
892.987	702.93
893.161	718.43
893.336	715.91
893.511	742.26
893.686	703.9
893.861	711.84
894.035	686.08
894.21	728.51
894.385	678.71
894.56	721.14
894.734	636.86
894.909	648.49
895.084	659.92
895.258	674.84
895.433	662.83
895.608	652.56
895.782	586.1
895.957	602.96
896.131	609.93
896.306	567.11
896.48	584.94
896.655	546.19
896.829	521.97
897.004	510.54
897.178	526.81
897.353	539.41
897.527	579.71
897.701	530.88
897.876	484.97
898.05	573.12
898.224	551.42
898.399	601.8
898.573	526.23
898.747	429.55
898.921	498.14
899.096	400.88
899.27	421.42
899.444	417.54
899.618	472.95
899.792	444.86
899.967	458.23
900.141	474.5
900.315	438.27
900.489	440.21
900.663	488.26
900.837	454.74
901.011	403.59
901.185	520.23
901.359	446.8
901.533	468.5
901.707	434.01
901.881	469.85
902.055	406.69
902.229	460.75
902.403	514.42
902.576	475.47
902.75	471.6
902.924	578.16
903.098	480.32
903.272	548.9
903.446	547.35
903.619	563.05
903.793	577.96
903.967	546.19
904.14	595.79
904.314	582.81
904.488	595.98
904.661	602.57
904.835	577.38
905.009	601.41
905.182	651.39
905.356	581.65
905.529	605.67
905.703	534.37
905.876	551.03
906.05	549.68
906.223	519.06
906.397	488.26
906.57	454.74
906.744	437.5
906.917	435.56
907.09	467.33
907.264	461.52
907.437	422
907.61	417.93
907.784	424.9
907.957	423.55
908.13	408.82
908.304	446.41
908.477	391.39
908.65	437.3
908.823	364.84
908.996	446.22
909.17	400.88
909.343	395.07
909.516	412.12
909.689	436.92
909.862	370.46
910.035	420.84
910.208	391.97
910.381	384.99
910.554	488.26
910.727	396.23
910.9	407.66
911.073	403.59
911.246	450.09
911.419	449.12
911.592	437.5
911.765	381.5
911.938	367.75
912.11	407.27
912.283	377.63
912.456	453
912.629	415.8
912.802	375.11
912.974	342.75
913.147	340.82
913.32	279.21
913.493	307.88
913.665	355.35
913.838	350.7
914.01	284.63
914.183	352.64
914.356	353.22
914.528	402.04
914.701	426.26
914.873	381.31
915.046	349.34
915.218	302.84
915.391	252.66
915.563	316.41
915.736	318.34
915.908	345.47
916.081	345.85
916.253	340.04
916.425	349.34
916.598	376.27
916.77	368.14
916.942	333.65
917.115	279.79
917.287	344.69
917.459	313.89
917.632	278.62
917.804	233.87
917.976	310.59
918.148	336.36
918.32	348.95
918.493	350.89
918.665	384.41
918.837	357.48
919.009	372.01
919.181	397
919.353	353.6
919.525	380.34
919.697	369.3
919.869	376.47
920.041	400.88
920.213	439.24
920.385	369.3
920.557	335.59
920.729	385.57
920.901	386.54
921.073	358.45
921.244	397
921.416	405.92
921.588	355.93
921.76	326.67
921.932	398.17
922.103	352.83
922.275	340.43
922.447	375.3
922.619	293.93
922.79	362.32
922.962	365.42
923.134	353.99
923.305	287.54
923.477	312.34
923.648	310.21
923.82	329.97
923.991	290.64
924.163	263.12
924.335	311.56
924.506	284.44
924.677	351.09
924.849	307.49
925.02	323.19
925.192	310.21
925.363	316.99
925.535	298.77
925.706	274.17
925.877	362.52
926.049	278.62
926.22	307.11
926.391	326.48
926.562	343.72
926.734	298.77
926.905	327.26
927.076	258.67
927.247	265.64
927.419	261.38
927.59	238.71
927.761	262.54
927.932	253.44
928.103	270.1
928.274	193.18
928.445	229.61
928.616	219.34
928.787	234.64
928.958	254.99
929.129	247.63
929.3	204.42
929.471	161.41
929.642	148.04
929.813	92.82
929.984	191.24
930.155	119.56
930.326	184.27
930.496	171.68
930.667	128.47
930.838	131.38
931.009	115.1
931.18	129.25
931.35	113.94
931.521	121.11
931.692	66.28
931.863	58.33
932.033	87.78
932.204	82.16
932.374	113.36
932.545	52.13
932.716	112
932.886	109.48
933.057	5.63
933.227	45.35
933.398	129.63
933.568	68.02
933.739	4.47
933.909	53.49
934.08	81.2
934.25	-15.87
934.421	9.9
934.591	43.8
934.761	19.58
934.932	-5.6
935.102	20.36
935.272	31.4
935.443	34.5
935.613	29.47
935.783	45.16
935.953	0.6
936.123	167.99
936.294	13
936.464	17.65
936.634	27.72
936.804	-5.99
936.974	-14.13
937.144	23.46
937.314	69.96
937.484	6.6
937.655	-16.26
937.825	59.11
937.995	-30.21
938.165	70.15
938.334	22.88
938.504	41.87
938.674	18.42
938.844	51.55
939.014	88.75
939.184	85.26
939.354	105.03
939.524	92.63
939.694	81.39
939.863	46.52
940.033	134.28
940.203	109.87
940.373	66.08
940.542	114.52
940.712	66.08
940.882	101.73
941.051	125.37
941.221	83.71
941.391	133.7
941.56	66.08
941.73	54.85
941.899	173.81
942.069	56.59
942.238	112.2
942.408	72.87
942.577	110.65
942.747	69.96
942.916	29.85
943.086	48.26
943.255	93.6
943.425	83.52
943.594	47.87
943.763	-15.1
943.933	11.25
944.102	-40.28
944.271	29.27
944.441	39.73
944.61	50.97
944.779	32.37
944.948	132.15
945.117	-18.58
945.287	41.28
945.456	-22.85
945.625	12.42
945.794	57.75
945.963	24.23
946.132	70.15
946.301	34.12
946.47	66.08
946.639	12.61
946.808	31.98
946.977	69.18
947.146	90.69
947.315	52.91
947.484	73.25
947.653	21.72
947.822	45.35
947.991	26.37
948.16	116.26
948.329	94.56
948.498	33.92
948.666	43.8
948.835	91.46
949.004	0.98
949.173	5.25
949.341	64.53
949.51	52.72
949.679	108.9
949.847	94.37
950.016	119.95
950.185	132.73
950.353	45.35
950.522	37.6
950.69	107.16
950.859	2.34
951.028	85.85
951.196	68.6
951.365	19.58
951.533	60.08
951.701	62.6
951.87	83.13
952.038	17.26
952.207	69.77
952.375	95.92
952.543	42.45
952.712	59.5
952.88	29.47
953.048	91.46
953.217	48.07
953.385	39.54
953.553	85.07
953.721	32.18
953.89	75.19
954.058	22.88
954.226	24.82
954.394	61.82
954.562	16.1
954.73	54.65
954.898	44.97
955.067	84.88
955.235	23.27
955.403	64.73
955.571	112.58
955.739	77.52
955.907	32.95
956.075	11.45
956.243	45.16
956.41	75.97
956.578	-18.58
956.746	-21.3
956.914	49.62
957.082	73.83
957.25	84.88
957.418	48.26
957.585	61.82
957.753	82.16
957.921	11.45
958.089	60.08
958.256	61.24
958.424	45.55
958.592	85.65
958.759	36.44
958.927	63.76
959.095	33.53
959.262	46.13
959.43	68.8
959.597	33.92
959.765	49.03
959.932	16.68
960.1	93.6
960.267	51.17
960.435	23.27
960.602	69.57
960.77	34.5
960.937	13.38
961.104	79.07
961.272	8.35
961.439	41.67
961.606	88.95
961.774	64.34
961.941	33.53
962.108	67.25
962.275	71.9
962.443	64.53
962.61	75.38
962.777	118.98
962.944	92.05
963.111	84.68
963.278	80.81
963.446	83.33
963.613	70.54
963.78	61.05
963.947	98.44
964.114	68.02
964.281	154.43
964.448	109.1
964.615	51.55
964.782	71.7
964.949	102.7
965.116	82.75
965.282	132.15
965.449	56.98
965.616	54.07
965.783	92.82
965.95	62.02
966.117	33.15
966.283	66.08
966.45	64.73
966.617	109.48
966.784	106.38
966.95	101.93
967.117	98.05
967.284	40.32
967.45	31.6
967.617	119.17
967.784	78.68
967.95	147.07
968.117	58.14
968.283	130.99
968.45	144.16
968.616	78.68
968.783	106.19
968.949	97.47
969.116	119.56
969.282	63.76
969.449	127.5
969.615	60.27
969.781	12.61
969.948	35.86
970.114	16.87
970.28	114.52
970.447	78.87
970.613	131.57
970.779	65.12
970.945	66.28
971.112	86.43
971.278	53.49
971.444	97.47
971.61	126.15
971.776	67.83
971.942	87.78
972.108	106.58
972.275	66.86
972.441	85.46
972.607	170.9
972.773	34.12
972.939	72.48
973.105	68.99
973.271	43.22
973.437	55.62
973.602	41.87
973.768	95.15
973.934	81.97
974.1	71.12
974.266	9.9
974.432	71.32
974.598	79.07
974.763	99.6
974.929	41.67
975.095	134.48
975.261	41.48
975.426	24.23
975.592	63.76
975.758	127.5
975.923	12.42
976.089	5.25
976.255	97.08
976.42	86.43
976.586	90.3
976.751	78.1
976.917	183.3
977.082	87.59
977.248	40.12
977.413	23.46
977.579	32.76
977.744	60.85
977.91	19.2
978.075	52.72
978.24	83.33
978.406	68.22
978.571	55.82
978.736	30.05
978.902	71.9
979.067	24.23
979.232	-7.73
979.397	78.1
979.563	111.61
979.728	27.72
979.893	60.85
980.058	25.78
980.223	94.95
980.388	43.22
980.554	23.85
980.719	56.4
980.884	96.31
981.049	108.13
981.214	28.3
981.379	74.42
981.544	41.67
981.709	56.59
981.874	52.52
982.039	56.59
982.204	87.78
982.368	66.28
982.533	31.02
982.698	106.96
982.863	95.73
983.028	52.52
983.193	87.98
983.357	73.25
983.522	50
983.687	53.88
983.852	59.3
984.016	56.2
984.181	48.65
984.346	53.49
984.51	93.21
984.675	58.14
984.839	115.1
985.004	80.23
985.168	97.66
985.333	58.33
985.498	25.59
985.662	85.65
985.827	79.07
985.991	49.23
986.155	67.25
986.32	92.63
986.484	125.76
986.649	50.39
986.813	2.53
986.977	78.1
987.142	103.48
987.306	22.3
987.47	49.42
987.634	72.28
987.799	72.09
987.963	78.1
988.127	101.54
988.291	126.34
988.455	63.37
988.62	52.72
988.784	104.06
988.948	74.42
989.112	33.92
989.276	72.67
989.44	56.98
989.604	58.33
989.768	33.34
989.932	137.77
990.096	39.15
990.26	25.98
990.424	22.88
990.588	35.08
990.752	123.43
990.915	114.91
991.079	64.92
991.243	31.79
991.407	87.98
991.571	40.12
991.734	52.72
991.898	64.53
992.062	158.31
992.226	20.36
992.389	47.68
992.553	12.03
992.717	42.25
992.88	46.32
993.044	41.28
993.207	47.87
993.371	66.67
993.535	60.47
993.698	47.68
993.862	69.57
994.025	107.35
994.189	61.24
994.352	65.5
994.515	53.1
994.679	106
994.842	51.17
995.006	87.59
995.169	26.56
995.332	42.06
995.496	96.11
995.659	22.3
995.822	45.74
995.985	30.24
996.149	94.56
996.312	58.92
996.475	126.34
996.638	36.44
996.801	96.5
996.964	128.66
997.128	45.35
997.291	41.87
997.454	60.47
997.617	3.31
997.78	84.68
997.943	47.68
998.106	76.16
998.269	4.67
998.432	28.5
998.595	64.15
998.758	-9.09
998.92	36.05
999.083	-6.77
999.246	43.22
999.409	1.18
999.572	-18
999.735	39.93
999.897	68.02
1000.06	26.56
1000.223	24.23
1000.386	81.58
1000.548	78.1
1000.711	62.98
1000.874	54.07
1001.036	-12.96
1001.199	86.81
1001.361	41.87
1001.524	38.57
1001.687	91.66
1001.849	9.7
1002.012	43.42
1002.174	29.66
1002.337	67.05
1002.499	52.72
1002.661	83.52
1002.824	-18.39
1002.986	16.48
1003.149	48.65
1003.311	16.29
1003.473	117.43
1003.636	16.87
1003.798	58.14
1003.96	64.53
1004.123	18.81
1004.285	11.83
1004.447	18.03
1004.609	25.78
1004.771	114.71
1004.933	6.6
1005.096	48.65
1005.258	3.5
1005.42	46.71
1005.582	95.73
1005.744	25.01
1005.906	3.31
1006.068	36.25
1006.23	1.76
1006.392	-18.58
1006.554	29.85
1006.716	65.31
1006.878	40.32
1007.04	3.5
1007.202	12.61
1007.363	2.53
1007.525	28.69
1007.687	69.18
1007.849	66.67
1008.011	-22.26
1008.172	-18.78
1008.334	8.54
1008.496	39.93
1008.658	-21.1
1008.819	10.67
1008.981	-14.71
1009.143	-10.06
1009.304	4.28
1009.466	31.6
1009.627	78.29
1009.789	116.46
1009.95	37.22
1010.112	35.28
1010.273	38.18
1010.435	23.46
1010.596	37.41
1010.758	-2.89
1010.919	0.4
1011.081	-30.01
1011.242	43.22
1011.403	50
1011.565	19
1011.726	65.7
1011.887	-1.73
1012.049	10.09
1012.21	52.52
1012.371	89.53
1012.532	-46.68
1012.693	18.23
1012.855	-4.63
1013.016	27.53
1013.177	60.27
1013.338	18.62
1013.499	103.48
1013.66	60.66
1013.821	45.55
1013.982	34.12
1014.143	25.98
1014.304	-4.05
1014.465	87.2
1014.626	66.47
1014.787	25.01
1014.948	78.48
1015.109	-24.78
1015.27	74.22
1015.431	4.67
1015.592	-11.03
1015.752	54.85
1015.913	29.47
1016.074	54.27
1016.235	-7.73
1016.395	20.36
1016.556	10.48
1016.717	21.33
1016.877	62.98
1017.038	-7.93
1017.199	9.51
1017.359	22.49
1017.52	16.48
1017.681	-5.8
1017.841	12.61
1018.002	-1.34
1018.162	2.73
1018.323	67.63
1018.483	19.39
1018.644	38.77
1018.804	-20.71
1018.964	-10.06
1019.125	5.44
1019.285	18.03
1019.446	-33.5
1019.606	-4.25
1019.766	-22.46
1019.926	39.15
1020.087	36.25
1020.247	-14.51
1020.407	29.27
1020.567	81.39
1020.728	5.05
1020.888	12.03
1021.048	7.18
1021.208	-12.77
1021.368	0.02
1021.528	54.85
1021.688	59.11
1021.848	19.58
1022.008	21.72
1022.168	19.97
1022.328	23.07
1022.488	25.4
1022.648	-9.09
1022.808	10.67
1022.968	30.63
1023.128	-8.31
1023.288	-4.25
1023.448	15.9
1023.608	64.34
1023.767	44.58
1023.927	-11.61
1024.087	-15.1
1024.247	-17.03
1024.406	-10.06
1024.566	-15.1
1024.726	-9.86
1024.885	13.38
1025.045	55.62
1025.205	-8.12
1025.364	26.37
1025.524	24.82
1025.683	1.37
1025.843	26.95
1026.003	-5.02
1026.162	68.02
1026.321	52.52
1026.481	21.72
1026.64	1.37
1026.8	6.6
1026.959	36.25
1027.119	9.7
1027.278	2.53
1027.437	1.76
1027.597	4.08
1027.756	14.16
1027.915	24.62
1028.074	30.82
1028.234	-24.78
1028.393	35.28
1028.552	0.02
1028.711	-42.22
1028.87	51.94
1029.03	-8.51
1029.189	13.58
1029.348	-51.13
1029.507	-23.43
1029.666	16.1
1029.825	-5.22
1029.984	-28.46
1030.143	26.95
1030.302	0.79
1030.461	-44.93
1030.62	29.47
1030.779	36.05
1030.938	-44.35
1031.097	-21.68
1031.255	19.97
1031.414	45.55
1031.573	54.07
1031.732	-26.33
1031.891	6.99
1032.049	68.99
1032.208	27.72
1032.367	-2.5
1032.525	-5.6
1032.684	-5.22
1032.843	19.58
1033.001	-15.1
1033.16	154.63
1033.319	32.95
1033.477	44.77
1033.636	-23.04
1033.794	-23.23
1033.953	27.92
1034.111	36.83
1034.27	-18.39
1034.428	18.62
1034.587	-33.89
1034.745	1.18
1034.903	9.51
1035.062	18.23
1035.22	-19.75
1035.378	29.85
1035.537	-21.3
1035.695	25.2
1035.853	5.05
1036.011	10.09
1036.17	19.97
1036.328	-49.78
1036.486	20.17
1036.644	50
1036.802	-87.95
1036.96	12.42
1037.119	-25.17
1037.277	-11.41
1037.435	-37.57
1037.593	-9.67
1037.751	13.58
1037.909	37.02
1038.067	37.02
