Data from pine_FLMT105791__91__17-21-31-077.txt Node

Date: Mon Mar 20 17:21:31 GMT 2023
User: antho
Spectrometer: FLMT10579
Trigger mode: 0
Integration Time (sec): 1.000000E-1
Scans to average: 10
Electric dark correction enabled: true
Nonlinearity correction enabled: false
Boxcar width: 0
XAxis mode: Wavelengths
Number of Pixels in Spectrum: 3648
>>>>>Begin Spectral Data<<<<<
345.248	-167.87
345.464	-167.87
345.681	-167.87
345.898	-161.47
346.114	-167.48
346.331	-17.13
346.548	19.29
346.764	-0.08
346.981	-11.9
347.197	-7.25
347.414	23.36
347.631	3.02
347.847	46.81
348.064	4.38
348.28	12.9
348.497	-51.42
348.713	-21.97
348.93	48.94
349.146	23.94
349.363	-5.89
349.579	21.62
349.796	7.86
350.012	-10.16
350.229	20.46
350.445	35.57
350.661	-9.38
350.878	-3.57
351.094	24.14
351.311	-4.34
351.527	17.55
351.743	2.63
351.96	51.84
352.176	17.74
352.392	22.01
352.609	44.87
352.825	-5.7
353.041	15.03
353.257	-5.89
353.474	10.96
353.69	18.33
353.906	25.88
354.122	-21.39
354.339	60.76
354.555	27.82
354.771	1.66
354.987	63.27
355.203	70.44
355.42	17.16
355.636	-8.41
355.852	-7.83
356.068	20.65
356.284	-12.09
356.5	58.43
356.716	27.63
356.932	5.73
357.148	43.51
357.364	12.13
357.58	56.88
357.796	70.64
358.012	44.29
358.228	20.65
358.444	-60.53
358.66	78.77
358.876	13.87
359.092	-5.89
359.308	22.2
359.524	43.32
359.74	18.91
359.956	-12.67
360.172	9.8
360.388	44.67
360.604	3.21
360.819	92.34
361.035	18.52
361.251	27.24
361.467	2.05
361.683	23.36
361.898	33.24
362.114	52.42
362.33	2.44
362.546	58.62
362.762	7.09
362.977	37.12
363.193	3.41
363.409	53.59
363.624	-5.51
363.84	-29.34
364.056	-20.81
364.271	32.66
364.487	20.65
364.703	12.9
364.918	-7.06
365.134	15.03
365.35	-13.84
365.565	115.2
365.781	14.26
365.996	39.64
366.212	76.06
366.427	32.08
366.643	1.86
366.858	-6.47
367.074	-6.09
367.289	66.96
367.505	91.56
367.72	-18.29
367.936	-31.86
368.151	55.91
368.367	38.86
368.582	25.88
368.798	-2.21
369.013	68.51
369.228	22.59
369.444	42.35
369.659	49.91
369.874	40.22
370.09	58.24
370.305	-45.03
370.52	10.58
370.736	70.64
370.951	38.86
371.166	58.24
371.381	77.03
371.597	42.35
371.812	-18.68
372.027	-11.51
372.242	21.43
372.458	84.39
372.673	33.05
372.888	-4.15
373.103	52.23
373.318	124.5
373.533	56.3
373.749	38.67
373.964	-16.74
374.179	64.44
374.394	-14.22
374.609	75.09
374.824	-17.32
375.039	74.12
375.254	8.44
375.469	68.31
375.684	15.81
375.899	53.59
376.114	41.77
376.329	43.9
376.544	36.34
376.759	66.57
376.974	-4.15
377.189	22.98
377.404	21.04
377.619	60.56
377.834	-38.25
378.049	-29.34
378.264	-9.57
378.478	21.81
378.693	-2.02
378.908	39.64
379.123	-4.73
379.338	74.51
379.553	27.24
379.767	11.35
379.982	52.81
380.197	49.32
380.412	16.19
380.626	36.34
380.841	87.88
381.056	58.43
381.271	91.76
381.485	-7.25
381.7	-6.09
381.915	4.96
382.129	10.77
382.344	52.81
382.559	33.83
382.773	40.8
382.988	-10.35
383.202	34.99
383.417	17.36
383.632	109.39
383.846	11.54
384.061	25.88
384.275	25.3
384.49	28.59
384.704	52.42
384.919	26.46
385.133	62.69
385.348	35.96
385.562	-0.08
385.777	75.29
385.991	12.51
386.206	6.12
386.42	12.71
386.634	49.71
386.849	46.03
387.063	21.81
387.277	-1.63
387.492	-4.73
387.706	-4.15
387.92	1.28
388.135	42.93
388.349	45.84
388.563	28.59
388.778	31.11
388.992	52.04
389.206	63.66
389.42	126.63
389.635	33.05
389.849	52.04
390.063	60.37
390.277	47.97
390.491	85.17
390.706	27.43
390.92	52.81
391.134	8.06
391.348	72.57
391.562	-10.74
391.776	30.14
391.99	14.64
392.205	51.26
392.419	7.48
392.633	37.51
392.847	83.04
393.061	11.35
393.275	113.46
393.489	27.43
393.703	54.36
393.917	80.52
394.131	1.86
394.345	53.59
394.559	64.44
394.773	33.44
394.986	29.37
395.2	22.01
395.414	71.8
395.628	-22.17
395.842	52.42
396.056	26.66
396.27	-23.52
396.484	59.4
396.697	29.37
396.911	80.32
397.125	34.41
397.339	82.65
397.553	47.39
397.766	96.21
397.98	95.44
398.194	71.99
398.408	22.98
398.621	66.37
398.835	71.8
399.049	76.84
399.262	71.99
399.476	50.68
399.69	57.27
399.903	120.82
400.117	15.23
400.331	52.81
400.544	26.27
400.758	170.42
400.971	66.57
401.185	87.69
401.398	11.74
401.612	67.54
401.826	46.81
402.039	97.18
402.253	31.89
402.466	73.54
402.68	33.44
402.893	61.14
403.106	80.32
403.32	34.21
403.533	82.07
403.747	56.69
403.96	66.18
404.174	84.78
404.387	16.19
404.6	36.92
404.814	73.93
405.027	53.39
405.24	56.69
405.454	30.53
405.667	97.96
405.88	-12.87
406.094	51.84
406.307	81.68
406.52	107.26
406.733	35.18
406.947	-1.05
407.16	101.25
407.373	87.49
407.586	17.36
407.799	4.18
408.012	93.11
408.226	61.34
408.439	114.04
408.652	-1.24
408.865	74.9
409.078	86.33
409.291	63.08
409.504	11.74
409.717	69.47
409.93	78.77
410.143	83.04
410.357	28.79
410.57	15.03
410.783	43.9
410.996	85.75
411.209	26.08
411.421	82.65
411.634	25.88
411.847	30.53
412.06	54.36
412.273	37.12
412.486	53.01
412.699	132.83
412.912	56.49
413.125	101.06
413.338	55.72
413.55	120.62
413.763	59.59
413.976	75.67
414.189	43.12
414.402	44.09
414.615	99.51
414.827	2.44
415.04	95.82
415.253	74.71
415.466	96.99
415.678	134.57
415.891	64.63
416.104	47.39
416.316	35.57
416.529	54.94
416.742	80.71
416.954	87.3
417.167	55.91
417.38	80.52
417.592	88.46
417.805	26.08
418.017	21.04
418.23	109.58
418.442	44.67
418.655	52.62
418.868	65.21
419.08	95.44
419.293	130.12
419.505	68.31
419.718	60.37
419.93	133.02
420.142	51.26
420.355	109.39
420.567	113.65
420.78	91.17
420.992	54.17
421.205	149.69
421.417	9.8
421.629	49.13
421.842	34.02
422.054	26.66
422.266	84.97
422.479	93.5
422.691	62.31
422.903	133.6
423.115	36.54
423.328	90.59
423.54	94.86
423.752	90.4
423.964	47
424.177	98.92
424.389	65.02
424.601	172.74
424.813	94.27
425.025	112.68
425.238	117.52
425.45	76.45
425.662	65.41
425.874	379.08
426.086	85.36
426.298	119.85
426.51	109.97
426.722	93.69
426.934	74.32
427.146	115.01
427.358	42.74
427.57	115.39
427.782	83.04
427.994	110.16
428.206	79.55
428.418	56.3
428.63	100.28
428.842	124.69
429.054	87.88
429.266	141.74
429.478	65.6
429.69	102.8
429.902	73.93
430.114	109
430.325	105.12
430.537	93.11
430.749	107.84
430.961	24.72
431.173	93.69
431.384	97.57
431.596	36.34
431.808	90.4
432.02	89.43
432.231	119.46
432.443	140.58
432.655	113.65
432.867	102.22
433.078	120.24
433.29	178.55
433.502	138.25
433.713	149.1
433.925	121.01
434.136	146.78
434.348	115.78
434.56	54.75
434.771	221.76
434.983	77.61
435.194	97.18
435.406	131.86
435.617	161.89
435.829	182.43
436.04	136.7
436.252	172.55
436.463	195.6
436.675	138.84
436.886	139.8
437.098	136.32
437.309	221.57
437.521	121.21
437.732	169.64
437.943	159.18
438.155	132.25
438.366	90.21
438.578	212.27
438.789	165.19
439	156.27
439.211	127.21
439.423	152.2
439.634	200.64
439.845	173.9
440.057	181.46
440.268	180.88
440.479	121.79
440.69	158.79
440.902	152.2
441.113	165.19
441.324	167.7
441.535	180.49
441.746	188.44
441.957	121.59
442.168	162.86
442.38	182.24
442.591	196.19
442.802	195.99
443.013	186.11
443.224	183.4
443.435	168.67
443.646	154.53
443.857	181.27
444.068	168.87
444.279	170.42
444.49	238.62
444.701	200.64
444.912	295.77
445.123	222.73
445.334	199.48
445.545	216.72
445.756	196.19
445.967	152.79
446.178	196.96
446.388	260.51
446.599	231.83
446.81	232.03
447.021	192.31
447.232	262.64
447.443	279.69
447.653	198.12
447.864	270.58
448.075	225.44
448.286	252.18
448.496	248.3
448.707	270
448.918	219.82
449.129	326.77
449.339	184.95
449.55	236.29
449.761	199.67
449.971	289.96
450.182	227.57
450.393	260.32
450.603	233.97
450.814	270.97
451.024	239.58
451.235	286.47
451.446	296.35
451.656	309.33
451.867	219.24
452.077	261.67
452.288	317.86
452.498	315.34
452.709	222.92
452.919	233.58
453.13	226.99
453.34	297.32
453.55	206.45
453.761	288.22
453.971	286.67
454.182	293.64
454.392	285.7
454.602	303.91
454.813	300.61
455.023	305.26
455.233	221.95
455.444	271.36
455.654	202.58
455.864	244.82
456.075	254.89
456.285	249.27
456.495	250.24
456.705	277.75
456.916	317.47
457.126	303.52
457.336	279.11
457.546	209.94
457.756	254.7
457.967	332.58
458.177	286.86
458.387	288.8
458.597	268.45
458.807	250.05
459.017	262.25
459.227	289.38
459.437	279.5
459.647	317.28
459.857	295.58
460.068	288.99
460.278	331.81
460.488	326
460.698	336.26
460.908	273.88
461.117	268.65
461.327	262.83
461.537	297.71
461.747	316.89
461.957	297.13
462.167	420.74
462.377	363.2
462.587	316.31
462.797	329.29
463.007	312.82
463.216	317.28
463.426	344.6
463.636	331.61
463.846	280.27
464.056	324.45
464.265	344.21
464.475	282.6
464.685	309.53
464.895	350.6
465.104	329.68
465.314	362.03
465.524	292.09
465.733	282.98
465.943	380.44
466.153	398.26
466.362	331.61
466.572	364.55
466.782	327.74
466.991	332.39
467.201	410.28
467.41	292.28
467.62	375.98
467.829	313.79
468.039	370.75
468.249	337.43
468.458	352.93
468.668	367.46
468.877	380.83
469.086	415.12
469.296	377.73
469.505	309.53
469.715	436.24
469.924	372.3
470.134	418.99
470.343	419.19
470.552	366.1
470.762	352.73
470.971	323.86
471.18	360.87
471.39	370.56
471.599	331.03
471.808	393.42
472.018	352.15
472.227	428.49
472.436	410.08
472.645	395.94
472.855	373.46
473.064	413.18
473.273	411.44
473.482	405.43
473.691	467.63
473.901	426.55
474.11	391.09
474.319	507.92
474.528	407.76
474.737	469.56
474.946	434.88
475.155	440.31
475.364	488.74
475.573	444.18
475.783	437.79
475.992	492.23
476.201	476.54
476.41	426.74
476.619	399.81
476.828	435.46
477.037	412.41
477.245	451.54
477.454	484.09
477.663	462.01
477.872	467.43
478.081	515.29
478.29	439.73
478.499	575.15
478.708	486.42
478.917	574.77
479.125	474.6
479.334	509.47
479.543	469.56
479.752	500.37
479.961	500.95
480.169	501.92
480.378	473.44
480.587	610.42
480.796	519.94
481.004	518.77
481.213	539.7
481.422	534.47
481.63	524.78
481.839	549
482.048	613.32
482.256	540.28
482.465	545.71
482.674	560.24
482.882	561.79
483.091	629.02
483.299	542.8
483.508	576.12
483.716	563.72
483.925	581.16
484.134	519.55
484.342	541.64
484.551	605.77
484.759	598.21
484.967	572.25
485.176	606.35
485.384	615.65
485.593	629.4
485.801	591.62
486.01	558.69
486.218	546.67
486.426	503.47
486.635	541.64
486.843	505.79
487.051	546.29
487.26	533.31
487.468	545.9
487.676	580.97
487.885	586.39
488.093	589.49
488.301	599.37
488.509	603.83
488.717	651.88
488.926	597.24
489.134	601.31
489.342	623.98
489.55	586.39
489.758	590.85
489.967	634.05
490.175	746.62
490.383	652.65
490.591	701.48
490.799	628.82
491.007	702.06
491.215	663.5
491.423	639.29
491.631	691.98
491.839	662.15
492.047	695.86
492.255	636.19
492.463	585.62
492.671	633.47
492.879	688.5
493.087	651.88
493.295	708.07
493.503	698.96
493.711	715.23
493.919	741
494.127	739.45
494.334	741.39
494.542	652.65
494.75	701.28
494.958	719.11
495.166	750.3
495.374	720.85
495.581	746.23
495.789	735.19
495.997	783.24
496.205	722.79
496.412	730.73
496.62	730.93
496.828	737.51
497.035	731.9
497.243	773.55
497.451	734.03
497.658	728.22
497.866	752.82
498.074	800.29
498.281	727.25
498.489	828.96
498.696	773.75
498.904	762.9
499.112	746.04
499.319	802.81
499.527	738.1
499.734	809.2
499.942	714.46
500.149	762.31
500.357	779.75
500.564	729.38
500.771	799.71
500.979	757.47
501.186	732.48
501.394	756.89
501.601	768.13
501.808	775.49
502.016	763.48
502.223	769.48
502.43	766.77
502.638	781.69
502.845	757.86
503.052	813.66
503.26	799.71
503.467	855.7
503.674	803.39
503.881	818.89
504.089	898.33
504.296	818.11
504.503	774.71
504.71	808.62
504.917	784.01
505.125	819.47
505.332	827.22
505.539	848.53
505.746	895.23
505.953	883.41
506.16	860.54
506.367	914.99
506.574	895.23
506.781	884.96
506.988	838.46
507.195	863.45
507.402	867.33
507.609	865.39
507.816	862.48
508.023	836.13
508.23	803.58
508.437	829.93
508.644	869.26
508.851	921.19
509.058	924.29
509.265	893.87
509.472	917.31
509.679	975.24
509.885	889.8
510.092	886.12
510.299	891.54
510.506	884.76
510.713	884.38
510.92	923.9
511.126	905.88
511.333	975.05
511.54	955.48
511.746	979.31
511.953	957.81
512.16	1005.85
512.367	935.72
512.573	934.94
512.78	912.47
512.987	947.54
513.193	955.87
513.4	832.26
513.606	912.08
513.813	960.13
514.02	941.72
514.226	1038.79
514.433	989.97
514.639	936.88
514.846	934.75
515.052	956.06
515.259	945.79
515.465	951.22
515.672	967.49
515.878	1068.05
516.085	980.28
516.291	1002.37
516.497	965.17
516.704	962.26
516.91	893.87
517.117	905.3
517.323	881.28
517.529	903.94
517.736	863.84
517.942	923.9
518.148	917.12
518.354	951.8
518.561	950.83
518.767	937.07
518.973	997.52
519.179	987.26
519.386	957.03
519.592	964.78
519.798	980.86
520.004	1082.19
520.21	1033.75
520.417	1088.78
520.623	1097.11
520.829	1069.99
521.035	1105.05
521.241	1096.14
521.447	1112.22
521.653	1189.14
521.859	1102.53
522.065	1080.84
522.271	1226.92
522.477	1140.12
522.683	1192.82
522.889	1148.26
523.095	1141.48
523.301	1130.24
523.507	1132.76
523.713	1119.2
523.919	1152.72
524.125	1213.55
524.331	1169.38
524.537	1267.99
524.742	1205.22
524.948	1185.26
525.154	1252.69
525.36	1298.8
525.566	1216.07
525.772	1252.69
525.977	1195.15
526.183	1204.06
526.389	1237.19
526.595	1173.83
526.8	1174.41
527.006	1144.77
527.212	1085.48
527.417	1083.55
527.623	1101.57
527.829	1193.01
528.034	1180.03
528.24	1179.84
528.446	1188.56
528.651	1260.44
528.857	1257.73
529.062	1306.16
529.268	1237.58
529.473	1293.96
529.679	1244.16
529.884	1329.8
530.09	1329.03
530.295	1299.38
530.501	1322.83
530.706	1289.31
530.912	1277.68
531.117	1317.59
531.323	1279.04
531.528	1352.27
531.733	1346.27
531.939	1293.76
532.144	1337.16
532.35	1327.09
532.555	1373.39
532.76	1324.18
532.966	1356.15
533.171	1329.8
533.376	1280.39
533.581	1304.23
533.787	1324.57
533.992	1342.59
534.197	1374.56
534.402	1348.59
534.607	1346.85
534.813	1414.27
535.018	1323.41
535.223	1373.59
535.428	1386.96
535.633	1427.84
535.838	1403.04
536.043	1399.94
536.249	1531.1
536.454	1408.27
536.659	1452.44
536.864	1407.69
537.069	1377.07
537.274	1393.35
537.479	1410.98
537.684	1436.36
537.889	1367.58
538.094	1456.32
538.299	1414.66
538.504	1425.9
538.708	1424.74
538.913	1457.09
539.118	1451.67
539.323	1439.85
539.528	1392.38
539.733	1371.07
539.938	1407.3
540.142	1420.09
540.347	1413.31
540.552	1354.21
540.757	1387.92
540.962	1399.55
541.166	1354.21
541.371	1363.51
541.576	1407.69
541.781	1279.81
541.985	1404.97
542.19	1375.72
542.395	1418.92
542.599	1484.6
542.804	1433.84
543.008	1471.62
543.213	1399.16
543.418	1376.69
543.622	1447.99
543.827	1357.51
544.031	1459.03
544.236	1469.49
544.44	1467.94
544.645	1530.91
544.849	1412.14
545.054	1488.87
545.258	1536.14
545.463	1530.13
545.667	1475.3
545.872	1504.37
546.076	1464.07
546.281	1460.19
546.485	1435.78
546.689	1468.52
546.894	1508.24
547.098	1495.26
547.302	1448.18
547.507	1456.32
547.711	1509.6
547.915	1541.76
548.119	1450.12
548.324	1456.12
548.528	1534.4
548.732	1460.39
548.936	1524.9
549.141	1537.11
549.345	1493.9
549.549	1495.84
549.753	1507.27
549.957	1546.8
550.161	1551.64
550.366	1527.23
550.57	1473.56
550.774	1479.18
550.978	1498.17
551.182	1537.88
551.386	1467.17
551.59	1501.07
551.794	1489.06
551.998	1512.12
552.202	1503.2
552.406	1491
552.61	1526.84
552.814	1506.69
553.018	1557.45
553.222	1488.29
553.426	1473.56
553.63	1587.68
553.833	1500.69
554.037	1466
554.241	1540.79
554.445	1525.48
554.649	1528.78
554.853	1485.19
555.056	1548.54
555.26	1555.13
555.464	1539.63
555.668	1542.73
555.871	1562.88
556.075	1561.52
556.279	1517.93
556.483	1480.73
556.686	1554.16
556.89	1481.12
557.094	1511.34
557.297	1449.73
557.501	1540.6
557.704	1442.95
557.908	1516.57
558.112	1459.8
558.315	1562.88
558.519	1498.75
558.722	1447.02
558.926	1483.83
559.129	1436.94
559.333	1439.46
559.536	1407.69
559.74	1383.86
559.943	1395.67
560.147	1420.67
560.35	1409.43
560.553	1418.15
560.757	1397.03
560.96	1492.74
561.164	1473.37
561.367	1522.97
561.57	1467.94
561.774	1454.57
561.977	1445.66
562.18	1453.02
562.384	1543.31
562.587	1443.72
562.79	1416.21
562.993	1424.54
563.197	1514.83
563.4	1525.29
563.603	1477.82
563.806	1527.42
564.009	1439.85
564.212	1491.19
564.416	1393.16
564.619	1500.69
564.822	1367.97
565.025	1480.34
565.228	1451.28
565.431	1442.37
565.634	1329.8
565.837	1429.19
566.04	1410.98
566.243	1423.96
566.446	1337.55
566.649	1416.6
566.852	1337.36
567.055	1366.42
567.258	1411.76
567.461	1457.29
567.664	1446.05
567.867	1355.76
568.07	1416.99
568.273	1377.46
568.475	1441.4
568.678	1379.01
568.881	1397.61
569.084	1355.57
569.287	1288.92
569.489	1345.49
569.692	1365.45
569.895	1389.67
570.098	1301.51
570.3	1283.49
570.503	1248.62
570.706	1264.51
570.909	1294.54
571.111	1263.93
571.314	1265.86
571.516	1259.66
571.719	1292.99
571.922	1239.13
572.124	1264.7
572.327	1290.28
572.529	1211.81
572.732	1239.32
572.935	1306.74
573.137	1333.48
573.34	1289.31
573.542	1286.79
573.745	1292.6
573.947	1301.9
574.15	1259.28
574.352	1252.11
574.554	1321.28
574.757	1244.94
574.959	1235.06
575.162	1220.14
575.364	1234.09
575.566	1325.15
575.769	1195.73
575.971	1258.31
576.173	1132.37
576.376	1202.51
576.578	1261.79
576.78	1295.51
576.982	1190.69
577.185	1224.01
577.387	1156.59
577.589	1194.37
577.791	1229.63
577.993	1247.26
578.196	1206.58
578.398	1215.1
578.6	1243.58
578.802	1137.22
579.004	1173.83
579.206	1166.86
579.408	1259.47
579.61	1171.9
579.812	1202.51
580.014	1169.38
580.216	1167.63
580.418	1214.71
580.62	1168.99
580.822	1145.74
581.024	1199.8
581.226	1214.13
581.428	1174.8
581.63	1280.2
581.832	1182.94
582.034	1227.89
582.236	1221.3
582.438	1260.63
582.64	1221.3
582.841	1278.65
583.043	1318.18
583.245	1224.21
583.447	1218.59
583.649	1186.62
583.85	1211.61
584.052	1266.44
584.254	1180.03
584.456	1254.24
584.657	1170.73
584.859	1172.48
585.061	1188.95
585.262	1190.3
585.464	1149.62
585.666	1239.13
585.867	1129.66
586.069	1203.86
586.27	1170.93
586.472	1171.51
586.674	1157.95
586.875	1139.93
587.077	1133.92
587.278	1178.48
587.48	1131.4
587.681	1279.81
587.883	1192.82
588.084	1122.88
588.285	1131.79
588.487	1153.49
588.688	1125.4
588.89	1060.3
589.091	1059.91
589.292	1079.09
589.494	1008.57
589.695	998.88
589.896	932.42
590.098	976.79
590.299	1000.82
590.5	1010.31
590.702	1017.29
590.903	1053.32
591.104	1086.45
591.305	1097.88
591.507	1138.57
591.708	1096.72
591.909	1064.56
592.11	1159.3
592.311	1095.17
592.512	1075.41
592.714	1035.5
592.915	1070.18
593.116	1054.29
593.317	1058.94
593.518	1061.65
593.719	1051.19
593.92	1078.7
594.121	1134.5
594.322	1058.94
594.523	1058.36
594.724	1018.84
594.925	1033.95
595.126	1089.55
595.327	1059.72
595.528	1077.15
595.729	1052.16
595.929	1050.61
596.13	1063.98
596.331	1084.32
596.532	1048.87
596.733	1097.11
596.934	1088.97
597.135	1094.59
597.335	1122.88
597.536	1027.55
597.737	1047.7
597.938	995.97
598.138	1059.52
598.339	1064.56
598.54	1076.19
598.74	1062.24
598.941	1099.63
599.142	1099.63
599.342	1067.47
599.543	1041.12
599.744	1065.14
599.944	1055.07
600.145	1075.22
600.345	1051.97
600.546	1140.51
600.746	1107.18
600.947	1138.77
601.147	1082.58
601.348	1103.31
601.548	1030.46
601.749	1069.4
601.949	1029.1
602.15	1019.61
602.35	1050.03
602.551	1104.28
602.751	1046.54
602.951	1026.59
603.152	972.34
603.352	1046.93
603.552	1048.87
603.753	1099.63
603.953	1062.62
604.153	1053.32
604.354	1044.41
604.554	1091.3
604.754	1068.44
604.954	1009.73
605.155	1065.53
605.355	1051
605.555	1091.49
605.755	1097.11
605.955	1050.03
606.155	1085.48
606.356	1082.97
606.556	1112.22
606.756	1076.19
606.956	994.42
607.156	1103.5
607.356	1018.25
607.556	1058.17
607.756	1065.34
607.956	1110.09
608.156	1062.82
608.356	1034.53
608.556	1063.59
608.756	1059.33
608.956	1036.66
609.156	1047.9
609.356	1012.44
609.556	1003.92
609.755	1085.1
609.955	1026.97
610.155	1038.4
610.355	1064.37
610.555	963.23
610.755	1049.25
610.954	976.41
611.154	1002.95
611.354	1053.9
611.554	1002.75
611.753	1009.73
611.953	969.04
612.153	1054.29
612.352	1008.76
612.552	973.89
612.752	936.49
612.951	999.85
613.151	1006.82
613.351	954.32
613.55	992.68
613.75	982.41
613.949	971.37
614.149	963.04
614.348	970.21
614.548	964.2
614.747	899.29
614.947	912.08
615.146	894.84
615.346	1020.39
615.545	977.57
615.745	943.27
615.944	994.42
616.144	980.67
616.343	1006.44
616.542	961.49
616.742	929.91
616.941	970.59
617.14	909.56
617.34	967.69
617.539	940.56
617.738	928.16
617.938	1003.53
618.137	939.79
618.336	929.32
618.535	1009.34
618.734	966.33
618.934	970.21
619.133	945.41
619.332	957.61
619.531	891.35
619.73	972.14
619.929	999.85
620.128	972.72
620.328	1009.15
620.527	958.77
620.726	926.61
620.925	950.25
621.124	959.55
621.323	973.31
621.522	908.4
621.721	909.37
621.92	889.99
622.119	967.69
622.318	878.37
622.517	929.32
622.715	936.69
622.914	890.19
623.113	900.84
623.312	874.49
623.511	918.86
623.71	915.57
623.909	910.92
624.107	978.54
624.306	885.93
624.505	874.3
624.704	914.79
624.902	914.6
625.101	953.74
625.3	907.24
625.499	857.25
625.697	881.86
625.896	866.94
626.095	905.11
626.293	871.59
626.492	874.69
626.69	905.69
626.889	861.32
627.088	906.08
627.286	843.49
627.485	843.11
627.683	844.27
627.882	894.84
628.08	799.9
628.279	833.23
628.477	893.29
628.676	785.76
628.874	881.47
629.073	858.61
629.271	849.11
629.469	836.33
629.668	836.52
629.866	851.83
630.065	824.89
630.263	901.43
630.461	812.11
630.66	848.14
630.858	871.98
631.056	892.32
631.254	903.17
631.453	820.05
631.651	887.67
631.849	835.94
632.047	848.92
632.245	841.94
632.444	862.87
632.642	858.99
632.84	888.64
633.038	846.98
633.236	802.42
633.434	826.44
633.632	825.28
633.83	838.84
634.028	896.78
634.227	854.54
634.425	910.53
634.623	841.94
634.821	845.04
635.019	852.99
635.216	846.01
635.414	891.35
635.612	872.36
635.81	837.49
636.008	910.72
636.206	819.47
636.404	867.52
636.602	840.98
636.8	858.99
636.997	885.15
637.195	896.19
637.393	908.4
637.591	930.1
637.789	865.19
637.986	842.53
638.184	875.85
638.382	905.49
638.58	908.59
638.777	944.82
638.975	876.43
639.173	882.24
639.37	902.01
639.568	878.76
639.765	904.72
639.963	852.6
640.161	865.78
640.358	871.2
640.556	813.66
640.753	836.52
640.951	807.65
641.148	878.56
641.346	843.11
641.543	832.26
641.741	876.82
641.938	813.08
642.136	827.41
642.333	804.94
642.531	885.15
642.728	900.26
642.925	846.59
643.123	807.26
643.32	827.41
643.517	834
643.715	869.07
643.912	806.88
644.109	818.89
644.306	804.36
644.504	778.4
644.701	831.09
644.898	828.38
645.095	796.22
645.293	836.71
645.49	841.17
645.687	834.39
645.884	841.17
646.081	740.81
646.278	792.35
646.475	783.43
646.672	783.43
646.87	818.5
647.067	809.59
647.264	777.23
647.461	756.5
647.658	723.57
647.855	767.55
648.052	737.32
648.249	669.7
648.446	766.96
648.642	753.79
648.839	697.02
649.036	708.26
649.233	687.14
649.43	706.13
649.627	704.77
649.824	717.75
650.021	729.18
650.217	702.06
650.414	728.99
650.611	758.25
650.808	694.89
651.004	725.12
651.201	782.66
651.398	796.22
651.595	747.98
651.791	715.04
651.988	744.88
652.185	703.42
652.381	759.41
652.578	695.67
652.775	730.73
652.971	706.71
653.168	720.66
653.364	724.15
653.561	640.64
653.757	718.33
653.954	704.58
654.15	684.43
654.347	775.3
654.543	695.67
654.74	680.17
654.936	637.54
655.133	699.35
655.329	699.15
655.525	715.82
655.722	728.41
655.918	683.27
656.115	648.2
656.311	611
656.507	589.1
656.704	557.52
656.9	580.58
657.096	597.82
657.292	610.42
657.489	672.22
657.685	658.08
657.881	624.95
658.077	643.74
658.273	654.78
658.47	718.14
658.666	675.52
658.862	708.84
659.058	654.2
659.254	726.08
659.45	640.06
659.646	679.78
659.842	673.97
660.038	724.34
660.234	649.94
660.43	676.1
660.626	773.55
660.822	722.79
661.018	715.43
661.214	680.75
661.41	651.3
661.606	707.87
661.802	736.93
661.998	697.02
662.194	634.64
662.39	683.07
662.586	683.46
662.781	709.03
662.977	716.59
663.173	695.08
663.369	687.14
663.564	671.06
663.76	686.17
663.956	668.15
664.152	706.32
664.347	615.26
664.543	668.15
664.739	635.8
664.934	618.94
665.13	609.64
665.326	672.61
665.521	689.66
665.717	624.56
665.912	614.87
666.108	585.62
666.304	625.53
666.499	642.19
666.695	567.02
666.89	637.93
667.086	667.77
667.281	648.2
667.477	698.38
667.672	598.99
667.867	612.94
668.063	637.54
668.258	614.29
668.454	616.23
668.649	698.38
668.844	629.02
669.04	639.48
669.235	622.24
669.43	592.59
669.626	593.37
669.821	600.15
670.016	581.55
670.211	601.89
670.407	613.32
670.602	609.45
670.797	612.94
670.992	648
671.187	601.5
671.382	656.92
671.578	612.16
671.773	613.9
671.968	578.84
672.163	603.05
672.358	628.24
672.553	569.54
672.748	581.16
672.943	647.62
673.138	602.67
673.333	641.03
673.528	575.74
673.723	639.87
673.918	606.15
674.113	577.87
674.308	685.01
674.503	625.92
674.698	630.95
674.892	599.18
675.087	630.37
675.282	605.57
675.477	590.07
675.672	592.01
675.867	581.94
676.061	546.48
676.256	545.51
676.451	622.24
676.646	612.74
676.84	586.78
677.035	576.12
677.23	556.94
677.424	636.96
677.619	644.32
677.814	634.25
678.008	646.45
678.203	571.28
678.397	598.21
678.592	613.32
678.787	660.02
678.981	590.65
679.176	617.59
679.37	608.29
679.565	560.62
679.759	599.76
679.954	623.2
680.148	660.02
680.342	640.84
680.537	626.69
680.731	596.47
680.926	622.04
681.12	641.22
681.314	586.39
681.509	620.88
681.703	598.6
681.897	605.77
682.092	596.66
682.286	594.72
682.48	688.5
682.674	632.12
682.869	601.31
683.063	622.04
683.257	662.15
683.451	594.14
683.645	636.19
683.839	626.89
684.034	587.55
684.228	617.97
684.422	563.72
684.616	572.05
684.81	642.58
685.004	606.54
685.198	612.16
685.392	642
685.586	558.11
685.78	624.75
685.974	604.6
686.168	619.72
686.362	648.97
686.556	563.92
686.75	521.87
686.944	524.2
687.138	538.34
687.331	434.3
687.525	477.31
687.719	405.63
687.913	440.89
688.107	479.06
688.301	448.44
688.494	507.73
688.688	460.84
688.882	422.09
689.076	444.76
689.269	482.35
689.463	531.56
689.657	499.4
689.85	485.64
690.044	489.71
690.238	512.96
690.431	501.53
690.625	513.74
690.818	537.57
691.012	560.62
691.205	573.22
691.399	500.76
691.593	574.77
691.786	604.22
691.98	595.5
692.173	637.15
692.366	611.39
692.56	618.75
692.753	669.12
692.947	576.7
693.14	684.43
693.333	643.94
693.527	611
693.72	630.37
693.914	626.3
694.107	607.9
694.3	618.55
694.493	617.78
694.687	642.97
694.88	635.6
695.073	706.71
695.266	661.37
695.46	662.15
695.653	676.29
695.846	672.61
696.039	655.37
696.232	688.88
696.425	721.63
696.618	723.37
696.812	730.93
697.005	776.85
697.198	850.86
697.391	743.91
697.584	755.73
697.777	819.08
697.97	802.03
698.163	827.61
698.356	768.9
698.549	874.11
698.742	827.03
698.935	779.17
699.127	830.9
699.32	795.06
699.513	820.25
699.706	850.86
699.899	841.94
700.092	832.45
700.285	866.74
700.477	791.57
700.67	868.68
700.863	902.01
701.056	959.74
701.248	916.34
701.441	950.64
701.634	900.07
701.826	995.01
702.019	824.31
702.212	934.75
702.404	855.51
702.597	873.33
702.79	957.22
702.982	965.17
703.175	1021.35
703.367	1021.35
703.56	1007.79
703.752	1079.67
703.945	1043.44
704.137	1046.74
704.33	1060.88
704.522	1056.81
704.715	1053.32
704.907	1074.05
705.1	1113.77
705.292	1113.38
705.484	1077.35
705.677	1126.37
705.869	1144.77
706.061	1192.82
706.254	1179.65
706.446	1141.87
706.638	1138.18
706.831	1217.81
707.023	1149.42
707.215	1258.7
707.407	1238.16
707.599	1199.6
707.792	1262.18
707.984	1243
708.176	1293.18
708.368	1255.79
708.56	1312.75
708.752	1306.16
708.944	1271.09
709.136	1309.07
709.329	1252.5
709.521	1380.76
709.713	1360.41
709.905	1343.36
710.097	1386.96
710.289	1340.07
710.481	1373.59
710.672	1379.4
710.864	1392.38
711.056	1456.12
711.248	1416.6
711.44	1436.94
711.632	1439.85
711.824	1433.65
712.016	1507.47
712.207	1529.75
712.399	1513.09
712.591	1564.23
712.783	1548.93
712.975	1542.15
713.166	1494.87
713.358	1542.15
713.55	1594.85
713.741	1591.55
713.933	1615.77
714.125	1556.87
714.316	1530.33
714.508	1636.7
714.7	1622.16
714.891	1609.57
715.083	1695.01
715.274	1632.24
715.466	1631.46
715.657	1678.35
715.849	1594.27
716.04	1639.6
716.232	1537.3
716.423	1620.61
716.615	1576.44
716.806	1532.07
716.998	1537.11
717.189	1467.94
717.381	1390.44
717.572	1377.07
717.763	1415.24
717.955	1414.66
718.146	1376.11
718.337	1320.69
718.528	1280.39
718.72	1226.53
718.911	1322.44
719.102	1259.66
719.293	1322.83
719.485	1311.01
719.676	1283.3
719.867	1277.29
720.058	1250.95
720.249	1296.67
720.44	1329.61
720.632	1354.41
720.823	1399.36
721.014	1488.67
721.205	1480.54
721.396	1521.42
721.587	1635.53
721.778	1646.19
721.969	1653.94
722.16	1731.24
722.351	1702.57
722.542	1825.6
722.733	1818.82
722.924	1717.49
723.115	1809.52
723.305	1767.67
723.496	1814.56
723.687	1674.28
723.878	1681.45
724.069	1730.86
724.26	1721.75
724.45	1643.67
724.641	1665.56
724.832	1722.14
725.023	1687.26
725.213	1677
725.404	1670.41
725.595	1689.59
725.785	1665.18
725.976	1726.59
726.167	1691.14
726.357	1706.25
726.548	1752.56
726.739	1698.89
726.929	1768.64
727.12	1799.44
727.31	1818.43
727.501	1767.48
727.691	1736.28
727.882	1813.59
728.072	1835.48
728.263	1822.5
728.453	1851.37
728.644	1868.81
728.834	1828.89
729.024	1834.12
729.215	1784.72
729.405	1862.61
729.596	1941.27
729.786	1922.86
729.976	1938.55
730.167	1967.42
730.357	1922.86
730.547	1892.64
730.737	1958.9
730.928	1970.91
731.118	2025.55
731.308	1955.02
731.498	1965.29
731.688	2091.81
731.879	2036.01
732.069	2099.75
732.259	2098.59
732.449	2139.66
732.639	2219.49
732.829	2234.02
733.019	2243.12
733.209	2284.97
733.399	2274.32
733.589	2383.2
733.779	2363.25
733.969	2339.61
734.159	2408.39
734.349	2447.72
734.539	2509.53
734.729	2469.03
734.919	2550.6
735.109	2563.39
735.299	2462.25
735.488	2475.82
735.678	2496.93
735.868	2513.4
736.058	2514.18
736.248	2468.45
736.437	2430.67
736.627	2424.47
736.817	2544.01
737.007	2469.42
737.196	2531.61
737.386	2565.71
737.576	2489.38
737.765	2593.03
737.955	2543.24
738.144	2631.78
738.334	2568.04
738.524	2524.25
738.713	2605.04
738.903	2625.58
739.092	2628.29
739.282	2622.29
739.471	2651.93
739.661	2623.06
739.85	2667.04
740.04	2683.9
740.229	2711.41
740.419	2724.39
740.608	2727.49
740.797	2703.86
740.987	2759.07
741.176	2748.22
741.365	2672.47
741.555	2703.66
741.744	2731.76
741.933	2747.64
742.123	2777.67
742.312	2749.58
742.501	2808.48
742.69	2795.11
742.88	2738.54
743.069	2860.79
743.258	2787.55
743.447	2804.6
743.636	2855.56
743.825	2801.89
744.014	2791.82
744.204	2840.25
744.393	2762.95
744.582	2864.08
744.771	2861.95
744.96	2826.69
745.149	2876.29
745.338	2782.9
745.527	2829.99
745.716	2805.57
745.905	2815.45
746.094	2864.47
746.283	2852.07
746.471	2824.17
746.66	2916.4
746.849	2893.53
747.038	2877.84
747.227	2845.1
747.416	2878.62
747.604	2851.88
747.793	2828.63
747.982	2840.06
748.171	2852.46
748.359	2902.25
748.548	2878.62
748.737	2898.77
748.926	2836.96
749.114	2759.27
749.303	2849.17
749.491	2885.01
749.68	2792.98
749.869	2877.07
750.057	2836.18
750.246	2832.31
750.434	2816.42
750.623	2828.24
750.811	2835.02
751	2903.61
751.188	2835.99
751.377	2865.63
751.565	2859.24
751.754	2785.81
751.942	2811.19
752.131	2865.44
752.319	2810.42
752.507	2771.09
752.696	2830.18
752.884	2873.19
753.072	2836.38
753.261	2859.82
753.449	2804.02
753.637	2809.84
753.825	2880.75
754.014	2823.01
754.202	2825.34
754.39	2866.99
754.578	2807.7
754.766	2786.39
754.955	2749.77
755.143	2856.33
755.331	2805.57
755.519	2817.59
755.707	2803.44
755.895	2796.47
756.083	2830.18
756.271	2752.87
756.459	2726.72
756.647	2766.24
756.835	2746.67
757.023	2745.12
757.211	2730.59
757.399	2777.87
757.587	2765.08
757.775	2689.52
757.963	2763.34
758.151	2713.35
758.339	2681.96
758.526	2661.23
758.714	2718.58
758.902	2592.64
759.09	2537.62
759.278	2343.87
759.465	2189.26
759.653	1867.06
759.841	1703.34
760.028	1460
760.216	1287.18
760.404	1183.71
760.591	965.75
760.779	804.94
760.967	706.52
761.154	591.24
761.342	641.8
761.529	612.94
761.717	704.77
761.905	716.98
762.092	740.03
762.28	698.96
762.467	735.38
762.655	638.9
762.842	659.82
763.029	686.56
763.217	701.09
763.404	687.53
763.592	738.29
763.779	690.82
763.966	719.69
764.154	765.03
764.341	823.34
764.528	798.35
764.716	878.37
764.903	898.13
765.09	976.79
765.277	1004.3
765.465	1147.87
765.652	1193.4
765.839	1257.92
766.026	1347.82
766.213	1369.13
766.4	1441.98
766.588	1614.61
766.775	1638.05
766.962	1716.33
767.149	1759.34
767.336	1896.32
767.523	1853.31
767.71	1972.65
767.897	2034.27
768.084	2102.27
768.271	2146.06
768.458	2193.33
768.645	2242.16
768.832	2274.12
769.019	2246.42
769.206	2262.11
769.392	2337.48
769.579	2420.98
769.766	2369.25
769.953	2354.34
770.14	2432.8
770.327	2354.34
770.513	2457.6
770.7	2507.4
770.887	2433.19
771.073	2506.43
771.26	2468.65
771.447	2399.28
771.634	2443.85
771.82	2527.93
772.007	2422.34
772.193	2482.6
772.38	2505.85
772.567	2461.67
772.753	2437.84
772.94	2500.42
773.126	2543.24
773.313	2544.98
773.499	2491.12
773.686	2501.58
773.872	2479.5
774.059	2517.08
774.245	2437.65
774.432	2467.1
774.618	2375.26
774.804	2484.53
774.991	2394.25
775.177	2428.93
775.363	2439.39
775.55	2424.86
775.736	2360.92
775.922	2434.74
776.109	2433.38
776.295	2407.23
776.481	2443.27
776.667	2438.03
776.853	2410.91
777.04	2401.8
777.226	2379.91
777.412	2477.17
777.598	2380.88
777.784	2353.95
777.97	2371.19
778.156	2394.83
778.342	2352.59
778.528	2332.44
778.715	2317.33
778.901	2325.08
779.087	2387.08
779.272	2354.34
779.458	2350.46
779.644	2381.27
779.83	2278
780.016	2432.8
780.202	2347.17
780.388	2273.35
780.574	2273.93
780.76	2281.29
780.946	2327.6
781.131	2306.48
781.317	2267.34
781.503	2220.84
781.689	2255.33
781.874	2346.39
782.06	2265.99
782.246	2319.27
782.432	2271.8
782.617	2331.28
782.803	2306.87
782.989	2220.07
783.174	2207.67
783.36	2181.13
783.545	2231.11
783.731	2191.39
783.916	2115.06
784.102	2235.76
784.288	2183.26
784.473	2228.98
784.659	2158.46
784.844	2226.66
785.029	2140.24
785.215	2150.71
785.4	2119.71
785.586	2208.64
785.771	2141.79
785.956	2183.64
786.142	2109.44
786.327	2117.77
786.512	2151.68
786.698	2152.06
786.883	2063.91
787.068	2115.25
787.254	2133.66
787.439	2107.11
787.624	2073.01
787.809	2079.02
787.994	2096.26
788.18	2156.13
788.365	2045.31
788.55	2065.85
788.735	2071.85
788.92	2042.21
789.105	2045.7
789.29	2058.48
789.475	1973.23
789.66	2004.04
789.845	1993.38
790.03	1944.56
790.215	2023.61
790.4	2038.33
790.585	2047.05
790.77	1987.57
790.955	1936.42
791.14	2003.46
791.325	2035.43
791.51	1913.37
791.695	1967.42
791.879	1955.8
792.064	1957.74
792.249	2028.07
792.434	1971.3
792.618	1970.33
792.803	2004.43
792.988	1958.51
793.173	1990.67
793.357	2028.45
793.542	1918.21
793.727	2021.48
793.911	2037.17
794.096	1949.99
794.281	2013.34
794.465	2084.06
794.65	1982.34
794.834	2021.28
795.019	2051.51
795.203	2014.12
795.388	2017.99
795.572	2033.1
795.757	1993
795.941	2041.63
796.126	2030.39
796.31	1954.83
796.494	2019.35
796.679	1983.89
796.863	1927.9
797.048	2058.1
797.232	2020.7
797.416	2015.08
797.601	1998.03
797.785	2047.05
797.969	2074.18
798.153	1976.72
798.338	2013.15
798.522	2058.48
798.706	2021.87
798.89	2071.46
799.074	2124.36
799.258	2081.73
799.443	2077.66
799.627	2036.2
799.811	2079.99
799.995	2019.73
800.179	1997.26
800.363	2008.69
800.547	2039.69
800.731	2086.77
800.915	1969.94
801.099	2001.91
801.283	2011.21
801.467	2055.77
801.651	2022.45
801.835	2104.6
802.019	2036.98
802.202	2035.62
802.386	1974.98
802.57	1968
802.754	1992.8
802.938	1960.64
803.121	1968.58
803.305	2067.98
803.489	1994.16
803.673	2033.49
803.856	2007.14
804.04	2032.72
804.224	2031.17
804.407	2020.9
804.591	1994.35
804.775	1999.2
804.958	2025.16
805.142	2096.26
805.326	2030.58
805.509	2001.33
805.693	2051.12
805.876	2072.05
806.06	2043.18
806.243	2055.77
806.427	2094.33
806.61	2077.08
806.794	2014.5
806.977	2064.3
807.16	2073.01
807.344	2033.3
807.527	2043.95
807.71	2020.32
807.894	2068.17
808.077	2066.81
808.26	1996.1
808.444	1985.05
808.627	2049.96
808.81	2018.38
808.993	1960.06
809.177	1949.6
809.36	1959.67
809.543	1978.85
809.726	1880.82
809.909	1921.31
810.092	1903.87
810.276	1918.6
810.459	1934.68
810.642	1940.88
810.825	1899.42
811.008	1879.65
811.191	1783.94
811.374	1830.83
811.557	1860.28
811.74	1875.2
811.923	1786.46
812.106	1796.15
812.289	1756.82
812.472	1775.81
812.654	1810.29
812.837	1777.74
813.02	1695.6
813.203	1667.89
813.386	1584
813.569	1584
813.751	1564.62
813.934	1584.19
814.117	1594.07
814.3	1485.57
814.482	1532.07
814.665	1473.17
814.848	1448.37
815.03	1378.04
815.213	1393.54
815.396	1396.64
815.578	1378.82
815.761	1361.96
815.943	1414.66
816.126	1300.74
816.309	1278.65
816.491	1251.91
816.674	1202.7
816.856	1224.98
817.039	1230.8
817.221	1314.3
817.403	1255.21
817.586	1257.15
817.768	1253.46
817.951	1186.43
818.133	1220.72
818.315	1211.81
818.498	1269.35
818.68	1309.46
818.862	1283.11
819.045	1307.33
819.227	1309.65
819.409	1278.65
819.591	1338.52
819.774	1273.23
819.956	1247.65
820.138	1339.49
820.32	1332.32
820.502	1344.33
820.684	1420.67
820.866	1439.85
821.048	1461.16
821.231	1446.24
821.413	1405.94
821.595	1429.58
821.777	1436.55
821.959	1449.54
822.141	1486.93
822.323	1348.79
822.505	1312.94
822.686	1271.87
822.868	1226.15
823.05	1154.85
823.232	1133.73
823.414	1055.84
823.596	1175.96
823.778	1107.18
823.96	1147.1
824.141	1141.87
824.323	1191.46
824.505	1215.49
824.687	1284.46
824.868	1299.96
825.05	1382.11
825.232	1399.36
825.413	1445.66
825.595	1427.84
825.777	1387.34
825.958	1395.67
826.14	1386.96
826.321	1419.31
826.503	1359.64
826.685	1431.91
826.866	1426.67
827.048	1410.59
827.229	1374.75
827.411	1334.06
827.592	1311.98
827.773	1291.05
827.955	1258.5
828.136	1279.23
828.318	1237.96
828.499	1278.65
828.68	1233.9
828.862	1259.86
829.043	1293.18
829.224	1241.45
829.406	1224.21
829.587	1238.16
829.768	1249.01
829.949	1263.73
830.131	1254.63
830.312	1361.19
830.493	1226.15
830.674	1261.02
830.855	1249.78
831.036	1260.83
831.218	1311.2
831.399	1337.36
831.58	1292.21
831.761	1294.34
831.942	1278.07
832.123	1265.48
832.304	1226.92
832.485	1263.73
832.666	1250.17
832.847	1283.3
833.028	1247.65
833.209	1308.1
833.389	1283.11
833.57	1206.38
833.751	1234.09
833.932	1274.19
834.113	1265.86
834.294	1217.43
834.475	1276.91
834.655	1298.03
834.836	1325.54
835.017	1311.59
835.198	1230.99
835.378	1269.93
835.559	1313.72
835.74	1251.53
835.92	1209.87
836.101	1271.48
836.281	1323.02
836.462	1289.31
836.643	1335.61
836.823	1308.49
837.004	1366.61
837.184	1363.9
837.365	1354.6
837.545	1339.49
837.726	1318.76
837.906	1379.59
838.087	1306.55
838.267	1325.73
838.448	1276.52
838.628	1289.69
838.808	1322.24
838.989	1360.8
839.169	1277.29
839.349	1357.7
839.53	1324.38
839.71	1335.42
839.89	1253.66
840.07	1357.89
840.251	1284.08
840.431	1339.68
840.611	1284.08
840.791	1289.5
840.971	1333.29
841.151	1314.49
841.332	1257.53
841.512	1353.24
841.692	1241.06
841.872	1322.44
842.052	1276.13
842.232	1324.18
842.412	1264.12
842.592	1314.3
842.772	1318.37
842.952	1275.94
843.132	1294.73
843.312	1212.39
843.492	1234.28
843.672	1297.06
843.851	1212.78
844.031	1266.64
844.211	1254.63
844.391	1226.15
844.571	1249.2
844.751	1255.21
844.93	1255.4
845.11	1253.85
845.29	1291.05
845.47	1275.94
845.649	1284.85
845.829	1284.85
846.009	1238.93
846.188	1230.99
846.368	1258.11
846.547	1248.81
846.727	1288.92
846.907	1233.7
847.086	1266.64
847.266	1256.95
847.445	1259.66
847.625	1220.33
847.804	1224.6
847.984	1245.71
848.163	1218.98
848.343	1203.86
848.522	1219.95
848.701	1200.76
848.881	1198.83
849.06	1241.65
849.239	1224.4
849.419	1225.37
849.598	1181.58
849.777	1185.07
849.957	1181.78
850.136	1116.1
850.315	1111.45
850.494	1124.82
850.674	1103.89
850.853	1169.96
851.032	1170.35
851.211	1193.01
851.39	1162.21
851.569	1158.14
851.748	1109.7
851.927	1189.72
852.107	1161.63
852.286	1089.17
852.465	1098.85
852.644	1171.12
852.823	1152.91
853.002	1140.51
853.181	1142.45
853.359	1156.2
853.538	1103.7
853.717	1152.33
853.896	1067.08
854.075	1018.06
854.254	968.07
854.433	945.21
854.611	1020.19
854.79	944.05
854.969	1015.93
855.148	1033.17
855.327	982.02
855.505	1040.34
855.684	999.85
855.863	1050.22
856.041	1016.51
856.22	1080.84
856.399	1003.92
856.577	1115.9
856.756	1108.93
856.934	1196.11
857.113	1169.18
857.291	1122.1
857.47	1063.01
857.648	1078.7
857.827	1126.56
858.005	1133.15
858.184	1078.32
858.362	1142.64
858.541	1097.69
858.719	1100.6
858.898	1090.72
859.076	1089.94
859.254	1172.28
859.433	1076.57
859.611	1040.54
859.789	1025.81
859.967	1139.15
860.146	1114.93
860.324	1037.24
860.502	1039.95
860.68	1006.63
860.859	1006.05
861.037	1034.14
861.215	1049.45
861.393	1082.58
861.571	1066.69
861.749	1034.92
861.927	1078.12
862.105	1047.9
862.283	1045.77
862.461	1022.9
862.639	988.81
862.817	1036.66
862.995	1049.06
863.173	1026.59
863.351	1028.72
863.529	1056.62
863.707	1046.35
863.885	1025.23
864.063	942.89
864.241	989.19
864.418	1069.99
864.596	1004.3
864.774	965.94
864.952	997.52
865.129	1062.04
865.307	979.89
865.485	933.59
865.663	1043.44
865.84	940.76
866.018	976.02
866.196	840.59
866.373	896.97
866.551	876.82
866.728	788.47
866.906	851.24
867.084	889.22
867.261	903.94
867.439	941.14
867.616	958.39
867.794	940.17
867.971	926.03
868.149	901.23
868.326	964.01
868.503	973.31
868.681	949.09
868.858	927
869.035	906.85
869.213	949.47
869.39	905.3
869.567	992.1
869.745	941.34
869.922	954.71
870.099	959.36
870.276	936.69
870.454	968.07
870.631	964.78
870.808	929.32
870.985	962.26
871.162	1005.27
871.339	967.69
871.517	892.71
871.694	891.54
871.871	945.99
872.048	943.08
872.225	917.12
872.402	938.24
872.579	879.92
872.756	919.83
872.933	869.84
873.11	913.82
873.287	906.85
873.463	900.65
873.64	883.21
873.817	906.27
873.994	925.64
874.171	872.75
874.348	902.78
874.524	827.41
874.701	877.01
874.878	800.29
875.055	903.94
875.231	881.28
875.408	871.01
875.585	835.36
875.762	870.04
875.938	847.18
876.115	883.6
876.291	865
876.468	851.44
876.645	798.74
876.821	817.15
876.998	861.71
877.174	891.93
877.351	822.18
877.527	821.6
877.704	861.32
877.88	831.87
878.057	856.09
878.233	871.2
878.409	852.02
878.586	857.25
878.762	821.02
878.938	826.06
879.115	744.1
879.291	863.26
879.467	788.66
879.644	802.23
879.82	847.76
879.996	816.37
880.172	753.79
880.349	793.7
880.525	826.25
880.701	766.38
880.877	783.05
881.053	819.47
881.229	781.69
881.405	812.88
881.581	779.75
881.757	815.01
881.933	826.64
882.109	810.56
882.285	810.36
882.461	731.7
882.637	769.87
882.813	771.23
882.989	788.66
883.165	823.54
883.341	769.87
883.517	828.58
883.693	813.85
883.869	802.03
884.044	766.19
884.22	808.62
884.396	814.43
884.572	807.07
884.747	835.36
884.923	809.4
885.099	828.77
885.275	835.55
885.45	784.98
885.626	792.93
885.801	767.55
885.977	772.58
886.153	734.03
886.328	806.1
886.504	777.43
886.679	770.84
886.855	766.96
887.03	817.15
887.206	811.72
887.381	803.78
887.557	824.31
887.732	815.79
887.908	794.86
888.083	837.68
888.258	785.18
888.434	743.91
888.609	802.23
888.784	812.3
888.96	761.54
889.135	766.77
889.31	763.09
889.485	784.21
889.661	789.63
889.836	830.9
890.011	805.71
890.186	785.76
890.361	799.32
890.537	805.71
890.712	767.35
890.887	775.68
891.062	779.17
891.237	806.49
891.412	743.52
891.587	769.48
891.762	808.43
891.937	837.29
892.112	747.2
892.287	784.6
892.462	762.12
892.637	736.35
892.812	697.41
892.987	718.33
893.161	704.97
893.336	694.7
893.511	709.23
893.686	719.3
893.861	725.7
894.035	739.06
894.21	705.93
894.385	655.37
894.56	698.96
894.734	687.14
894.909	631.54
895.084	648.78
895.258	637.15
895.433	663.89
895.608	648.78
895.782	587.55
895.957	626.5
896.131	638.51
896.306	564.3
896.48	558.11
896.655	569.73
896.829	515.09
897.004	528.66
897.178	543.38
897.353	532.72
897.527	551.52
897.701	553.46
897.876	507.34
898.05	571.09
898.224	548.22
898.399	609.84
898.573	539.31
898.747	468.01
898.921	524.97
899.096	430.23
899.27	450.58
899.444	416.28
899.618	411.63
899.792	438.56
899.967	465.69
900.141	530.21
900.315	440.5
900.489	474.99
900.663	468.98
900.837	484.87
901.011	460.07
901.185	511.41
901.359	476.73
901.533	475.18
901.707	481.57
901.881	486.22
902.055	414.54
902.229	444.38
902.403	518.97
902.576	458.91
902.75	470.53
902.924	563.72
903.098	498.04
903.272	555.2
903.446	589.88
903.619	578.25
903.793	561.79
903.967	579.03
904.14	610.03
904.314	596.85
904.488	595.3
904.661	597.82
904.835	603.64
905.009	609.84
905.182	649.17
905.356	592.98
905.529	560.43
905.703	586.2
905.876	569.15
906.05	542.61
906.223	527.69
906.397	483.51
906.57	449.41
906.744	466.85
906.917	434.11
907.09	451.35
907.264	455.23
907.437	434.11
907.61	447.67
907.784	436.43
907.957	453.09
908.13	393.61
908.304	453.09
908.477	427.33
908.65	453.68
908.823	394.39
908.996	454.06
909.17	407.18
909.343	407.18
909.516	415.31
909.689	416.86
909.862	360.87
910.035	415.51
910.208	365.91
910.381	378.11
910.554	492.62
910.727	420.74
910.9	405.04
911.073	384.9
911.246	437.98
911.419	456.78
911.592	422.68
911.765	379.08
911.938	399.81
912.11	407.37
912.283	405.24
912.456	479.83
912.629	460.65
912.802	370.95
912.974	325.22
913.147	336.85
913.32	299.65
913.493	318.25
913.665	345.18
913.838	358.35
914.01	338.59
914.183	367.65
914.356	343.43
914.528	376.56
914.701	416.09
914.873	422.09
915.046	377.34
915.218	323.86
915.391	286.28
915.563	282.98
915.736	336.07
915.908	378.11
916.081	325.03
916.253	337.81
916.425	373.46
916.598	372.69
916.77	340.72
916.942	307.59
917.115	269.81
917.287	360.48
917.459	322.31
917.632	294.8
917.804	266.52
917.976	324.45
918.148	349.05
918.32	352.35
918.493	339.17
918.665	404.27
918.837	355.83
919.009	399.23
919.181	410.28
919.353	371.14
919.525	345.95
919.697	365.52
919.869	355.64
920.041	425.78
920.213	484.87
920.385	418.99
920.557	346.73
920.729	401.56
920.901	372.69
921.073	374.82
921.244	365.52
921.416	409.5
921.588	366.49
921.76	335.88
921.932	429.07
922.103	364.94
922.275	369.01
922.447	373.85
922.619	299.65
922.79	346.15
922.962	333.94
923.134	371.14
923.305	323.09
923.477	301.78
923.648	305.46
923.82	345.37
923.991	261.67
924.163	272.72
924.335	314.37
924.506	309.33
924.677	355.25
924.849	266.13
925.02	322.12
925.192	339.17
925.363	325.41
925.535	323.48
925.706	307.98
925.877	372.5
926.049	298.68
926.22	312.24
926.391	308.36
926.562	360.48
926.734	290.73
926.905	316.5
927.076	254.5
927.247	281.43
927.419	264.97
927.59	253.73
927.761	263.42
927.932	287.44
928.103	277.56
928.274	213.23
928.445	208.59
928.616	245.2
928.787	229.51
928.958	264.58
929.129	242.68
929.3	231.64
929.471	203.35
929.642	146
929.813	112.87
929.984	208.59
930.155	131.28
930.326	194.44
930.496	160.73
930.667	86.91
930.838	151.04
931.009	118.69
931.18	122.95
931.35	118.3
931.521	144.84
931.692	103.57
931.863	46.03
932.033	123.92
932.204	115.78
932.374	104.93
932.545	55.52
932.716	136.32
932.886	127.4
933.057	27.04
933.227	65.6
933.398	148.72
933.568	15.03
933.739	41.38
933.909	43.51
934.08	86.33
934.25	7.67
934.421	11.54
934.591	73.35
934.761	44.87
934.932	-28.56
935.102	41.77
935.272	41.38
935.443	26.08
935.613	29.37
935.783	51.65
935.953	5.34
936.123	162.09
936.294	11.54
936.464	16.39
936.634	29.56
936.804	-8.22
936.974	-10.16
937.144	51.65
937.314	39.64
937.484	32.08
937.655	21.62
937.825	47.77
937.995	29.95
938.165	78.19
938.334	53.01
938.504	84.2
938.674	41.77
938.844	1.47
939.014	102.41
939.184	70.64
939.354	116.36
939.524	134.38
939.694	65.02
939.863	79.36
940.033	151.04
940.203	123.14
940.373	95.44
940.542	93.11
940.712	77.81
940.882	92.34
941.051	132.05
941.221	98.15
941.391	116.94
941.56	71.02
941.73	25.88
941.899	168.67
942.069	42.16
942.238	78.39
942.408	72.96
942.577	110.94
942.747	94.66
942.916	-3.96
943.086	67.73
943.255	100.28
943.425	89.43
943.594	34.41
943.763	14.45
943.933	42.74
944.102	-0.47
944.271	32.86
944.441	85.75
944.61	45.84
944.779	90.98
944.948	154.92
945.117	4.57
945.287	34.79
945.456	-2.79
945.625	38.67
945.794	98.34
945.963	31.31
946.132	79.55
946.301	63.86
946.47	57.85
946.639	2.63
946.808	29.76
946.977	54.17
947.146	96.99
947.315	39.25
947.484	103.77
947.653	38.67
947.822	39.64
947.991	32.86
948.16	131.09
948.329	98.34
948.498	69.86
948.666	53.78
948.835	76.26
949.004	5.93
949.173	11.74
949.341	62.11
949.51	85.36
949.679	121.01
949.847	85.56
950.016	142.71
950.185	103.38
950.353	34.02
950.522	50.49
950.69	82.46
950.859	28.59
951.028	108.03
951.196	85.36
951.365	44.09
951.533	46.22
951.701	65.21
951.87	77.42
952.038	6.51
952.207	63.08
952.375	122.37
952.543	40.8
952.712	67.92
952.88	42.54
953.048	123.14
953.217	50.1
953.385	51.26
953.553	118.11
953.721	41.19
953.89	50.29
954.058	8.64
954.226	38.47
954.394	61.72
954.562	15.61
954.73	66.18
954.898	48.74
955.067	87.69
955.235	37.89
955.403	84.2
955.571	132.64
955.739	96.02
955.907	32.47
956.075	49.71
956.243	36.73
956.41	78.19
956.578	4.76
956.746	-0.08
956.914	29.18
957.082	85.17
957.25	87.69
957.418	30.73
957.585	61.14
957.753	92.14
957.921	22.98
958.089	59.98
958.256	78
958.424	98.34
958.592	73.93
958.759	49.32
958.927	102.41
959.095	33.63
959.262	74.12
959.43	57.07
959.597	41.77
959.765	58.62
959.932	14.45
960.1	109.39
960.267	36.54
960.435	52.04
960.602	96.41
960.77	50.68
960.937	34.79
961.104	78
961.272	10.96
961.439	36.34
961.606	65.21
961.774	68.7
961.941	59.21
962.108	75.48
962.275	68.31
962.443	95.82
962.61	92.53
962.777	130.31
962.944	115.97
963.111	85.36
963.278	64.44
963.446	69.09
963.613	76.45
963.78	85.56
963.947	76.06
964.114	63.27
964.281	158.02
964.448	85.94
964.615	57.27
964.782	53.78
964.949	80.91
965.116	103.96
965.282	111.32
965.449	64.05
965.616	47
965.783	99.51
965.95	77.22
966.117	1.08
966.283	73.35
966.45	78
966.617	104.35
966.784	90.98
966.95	106.67
967.117	77.61
967.284	47.77
967.45	55.72
967.617	118.69
967.784	88.85
967.95	139.61
968.117	84.39
968.283	117.33
968.45	159.76
968.616	88.85
968.783	121.59
968.949	66.57
969.116	118.88
969.282	87.3
969.449	98.34
969.615	74.12
969.781	38.67
969.948	46.42
970.114	41.96
970.28	134.77
970.447	78.58
970.613	132.25
970.779	78.39
970.945	93.69
971.112	92.53
971.278	60.95
971.444	93.5
971.61	121.98
971.776	62.69
971.942	114.62
972.108	98.92
972.275	69.67
972.441	90.4
972.607	144.07
972.773	65.79
972.939	70.83
973.105	61.72
973.271	55.72
973.437	46.81
973.602	48.94
973.768	110.55
973.934	70.64
974.1	99.31
974.266	24.14
974.432	87.49
974.598	73.74
974.763	119.66
974.929	79.16
975.095	119.66
975.261	54.36
975.426	32.08
975.592	50.29
975.758	138.25
975.923	14.45
976.089	54.94
976.255	111.13
976.42	87.69
976.586	86.33
976.751	67.34
976.917	148.14
977.082	82.65
977.248	9.8
977.413	18.52
977.579	46.03
977.744	81.49
977.91	45.06
978.075	20.46
978.24	109
978.406	56.88
978.571	70.83
978.736	47.97
978.902	84.39
979.067	33.24
979.232	8.64
979.397	65.02
979.563	123.92
979.728	46.61
979.893	71.41
980.058	42.74
980.223	103.57
980.388	69.09
980.554	61.34
980.719	51.46
980.884	95.63
981.049	87.49
981.214	39.44
981.379	80.32
981.544	63.86
981.709	65.99
981.874	72.57
982.039	60.76
982.204	100.09
982.368	78.19
982.533	17.16
982.698	107.06
982.863	116.94
983.028	50.49
983.193	79.94
983.357	67.54
983.522	85.94
983.687	42.54
983.852	54.75
984.016	35.38
984.181	81.49
984.346	90.59
984.51	84.01
984.675	86.33
984.839	73.35
985.004	78.19
985.168	102.41
985.333	84.01
985.498	68.31
985.662	103.57
985.827	91.95
985.991	78.58
986.155	53.01
986.32	119.07
986.484	130.31
986.649	84.97
986.813	26.46
986.977	78.97
987.142	90.21
987.306	-7.83
987.47	25.69
987.634	78.19
987.799	85.17
987.963	66.18
988.127	86.33
988.291	145.62
988.455	64.24
988.62	56.3
988.784	75.09
988.948	90.21
989.112	58.04
989.276	98.15
989.44	72.38
989.604	35.96
989.768	6.12
989.932	163.64
990.096	36.34
990.26	23.17
990.424	35.38
990.588	31.31
990.752	128.95
990.915	102.99
991.079	73.93
991.243	47
991.407	81.49
991.571	49.91
991.734	76.84
991.898	95.44
992.062	141.16
992.226	68.51
992.389	48.55
992.553	42.74
992.717	46.81
992.88	45.26
993.044	74.12
993.207	60.95
993.371	58.04
993.535	94.47
993.698	81.1
993.862	93.5
994.025	102.41
994.189	49.32
994.352	93.89
994.515	116.56
994.679	101.25
994.842	63.08
995.006	89.43
995.169	43.9
995.332	63.27
995.496	95.82
995.659	5.34
995.822	50.68
995.985	32.28
996.149	99.31
996.312	54.75
996.475	138.25
996.638	29.56
996.801	99.89
996.964	118.69
997.128	46.42
997.291	63.27
997.454	42.93
997.617	21.23
997.78	107.06
997.943	43.12
998.106	85.56
998.269	21.43
998.432	43.71
998.595	55.52
998.758	17.94
998.92	15.81
999.083	13.87
999.246	57.27
999.409	13.87
999.572	4.38
999.735	24.33
999.897	70.06
1000.06	45.64
1000.223	41.96
1000.386	94.86
1000.548	69.28
1000.711	77.42
1000.874	73.93
1001.036	21.62
1001.199	78.77
1001.361	31.89
1001.524	102.61
1001.687	76.84
1001.849	7.86
1002.012	58.82
1002.174	55.72
1002.337	51.65
1002.499	52.81
1002.661	80.52
1002.824	15.03
1002.986	17.94
1003.149	46.81
1003.311	-4.15
1003.473	109
1003.636	25.11
1003.798	75.09
1003.96	83.81
1004.123	35.38
1004.285	20.84
1004.447	40.41
1004.609	78.39
1004.771	100.28
1004.933	7.67
1005.096	27.63
1005.258	-15.77
1005.42	4.76
1005.582	93.11
1005.744	56.49
1005.906	26.46
1006.068	40.22
1006.23	12.9
1006.392	-13.64
1006.554	16
1006.716	78.39
1006.878	65.79
1007.04	26.08
1007.202	-4.15
1007.363	52.23
1007.525	61.72
1007.687	68.12
1007.849	84.2
1008.011	-4.92
1008.172	-3.37
1008.334	32.66
1008.496	67.34
1008.658	-8.02
1008.819	29.76
1008.981	18.91
1009.143	29.56
1009.304	12.32
1009.466	51.26
1009.627	99.12
1009.789	137.48
1009.95	42.93
1010.112	30.14
1010.273	50.1
1010.435	11.74
1010.596	29.56
1010.758	33.05
1010.919	40.8
1011.081	4.76
1011.242	24.72
1011.403	73.16
1011.565	10.96
1011.726	68.89
1011.887	16.78
1012.049	20.84
1012.21	68.31
1012.371	108.03
1012.532	-36.31
1012.693	22.98
1012.855	13.68
1013.016	40.61
1013.177	32.08
1013.338	33.05
1013.499	91.37
1013.66	61.34
1013.821	50.29
1013.982	53.01
1014.143	28.59
1014.304	11.35
1014.465	41.96
1014.626	62.89
1014.787	2.63
1014.948	88.27
1015.109	-25.46
1015.27	72.96
1015.431	-5.89
1015.592	3.41
1015.752	90.98
1015.913	41.77
1016.074	61.53
1016.235	29.18
1016.395	15.42
1016.556	20.07
1016.717	19.68
1016.877	71.8
1017.038	3.6
1017.199	36.73
1017.359	48.74
1017.52	45.06
1017.681	32.08
1017.841	32.08
1018.002	21.23
1018.162	9.22
1018.323	84.78
1018.483	30.53
1018.644	20.65
1018.804	-31.86
1018.964	-23.14
1019.125	26.66
1019.285	30.92
1019.446	-11.12
1019.606	-13.84
1019.766	-10.16
1019.926	31.89
1020.087	42.74
1020.247	-10.54
1020.407	42.16
1020.567	42.16
1020.728	-1.05
1020.888	-5.89
1021.048	-28.56
1021.208	13.29
1021.368	15.23
1021.528	88.27
1021.688	58.62
1021.848	72.19
1022.008	24.53
1022.168	34.02
1022.328	14.84
1022.488	39.44
1022.648	12.32
1022.808	31.89
1022.968	51.26
1023.128	4.18
1023.288	12.9
1023.448	34.99
1023.608	70.25
1023.767	30.73
1023.927	2.24
1024.087	-2.79
1024.247	-4.34
1024.406	3.99
1024.566	-13.26
1024.726	11.35
1024.885	3.41
1025.045	42.16
1025.205	31.5
1025.364	5.15
1025.524	39.06
1025.683	-7.44
1025.843	24.91
1026.003	16.97
1026.162	71.02
1026.321	16.39
1026.481	44.09
1026.64	12.51
1026.8	5.54
1026.959	37.31
1027.119	51.84
1027.278	4.76
1027.437	-5.89
1027.597	45.64
1027.756	36.34
1027.915	39.83
1028.074	42.35
1028.234	-26.43
1028.393	11.93
1028.552	-9.57
1028.711	-62.27
1028.87	73.93
1029.03	-21.59
1029.189	8.06
1029.348	-44.06
1029.507	10.58
1029.666	2.63
1029.825	-8.02
1029.984	-4.15
1030.143	29.95
1030.302	-1.82
1030.461	-39.99
1030.62	40.61
1030.779	50.87
1030.938	-8.22
1031.097	-32.82
1031.255	39.06
1031.414	67.54
1031.573	79.36
1031.732	-37.09
1031.891	9.03
1032.049	53.59
1032.208	29.76
1032.367	-10.35
1032.525	17.55
1032.684	-3.57
1032.843	14.26
1033.001	-39.41
1033.16	168.67
1033.319	73.74
1033.477	38.09
1033.636	-2.02
1033.794	-15
1033.953	47.97
1034.111	37.51
1034.27	7.86
1034.428	26.46
1034.587	-10.54
1034.745	24.72
1034.903	14.64
1035.062	23.17
1035.22	-44.64
1035.378	53.2
1035.537	-39.99
1035.695	33.63
1035.853	5.93
1036.011	7.86
1036.17	36.92
1036.328	-38.44
1036.486	7.86
1036.644	14.26
1036.802	-75.25
1036.96	12.9
1037.119	5.34
1037.277	-14.22
1037.435	-33.41
1037.593	-25.46
1037.751	-6.09
1037.909	46.42
1038.067	46.42
