Data from pine_FLMT105791__85__17-21-25-077.txt Node

Date: Mon Mar 20 17:21:25 GMT 2023
User: antho
Spectrometer: FLMT10579
Trigger mode: 0
Integration Time (sec): 1.000000E-1
Scans to average: 10
Electric dark correction enabled: true
Nonlinearity correction enabled: false
Boxcar width: 0
XAxis mode: Wavelengths
Number of Pixels in Spectrum: 3648
>>>>>Begin Spectral Data<<<<<
345.248	-167.99
345.464	-167.99
345.681	-167.99
345.898	-151.53
346.114	-170.71
346.331	-32.95
346.548	24.2
346.764	0.18
346.981	-19.39
347.197	-22.1
347.414	15.87
347.631	-19.97
347.847	74
348.064	2.31
348.28	26.33
348.497	-47.87
348.713	-0.6
348.93	21.49
349.146	33.89
349.363	-4.86
349.579	18
349.796	-12.22
350.012	-18.81
350.229	5.22
350.445	-15.32
350.661	-16.68
350.878	-11.45
351.094	22.46
351.311	7.73
351.527	7.93
351.743	-40.51
351.96	25.56
352.176	37.96
352.392	27.11
352.609	45.13
352.825	-16.48
353.041	-5.05
353.257	-12.42
353.474	-8.93
353.69	-1.95
353.906	-0.6
354.122	-27.33
354.339	64.5
354.555	-6.02
354.771	-16.48
354.987	51.71
355.203	61.4
355.42	-27.92
355.636	-4.47
355.852	-39.15
356.068	16.45
356.284	-53.3
356.5	32.53
356.716	2.89
356.932	-20.94
357.148	20.52
357.364	-1.18
357.58	43
357.796	53.26
358.012	38.73
358.228	6.96
358.444	-59.5
358.66	69.73
358.876	20.13
359.092	-18.23
359.308	16.06
359.524	9.48
359.74	-30.43
359.956	-29.66
360.172	5.02
360.388	19.94
360.604	5.41
360.819	67.02
361.035	24.98
361.251	23.81
361.467	-24.62
361.683	27.5
361.898	-17.26
362.114	40.67
362.33	19.94
362.546	37.96
362.762	8.7
362.977	3.67
363.193	-9.9
363.409	38.93
363.624	-37.41
363.84	1.15
364.056	-27.53
364.271	-5.44
364.487	27.5
364.703	-19.2
364.918	-35.67
365.134	-14.55
365.35	6.57
365.565	97.05
365.781	-0.21
365.996	11.22
366.212	36.8
366.427	26.33
366.643	-26.56
366.858	5.02
367.074	-17.45
367.289	38.35
367.505	75.55
367.72	-36.25
367.936	-14.35
368.151	36.6
368.367	25.75
368.582	26.33
368.798	-13.58
369.013	66.63
369.228	18.78
369.444	14.71
369.659	43.96
369.874	-1.18
370.09	61.21
370.305	-50.78
370.52	-18.81
370.736	27.3
370.951	12
371.166	49.58
371.381	70.12
371.597	50.94
371.812	-16.87
372.027	6.18
372.242	6.38
372.458	68.96
372.673	7.93
372.888	20.13
373.103	32.73
373.318	88.91
373.533	11.61
373.749	29.82
373.964	-37.99
374.179	45.13
374.394	3.08
374.609	48.81
374.824	-20.75
375.039	40.28
375.254	-21.72
375.469	46.48
375.684	13.74
375.899	51.13
376.114	4.63
376.329	11.22
376.544	48.81
376.759	31.18
376.974	-29.66
377.189	-2.73
377.404	-9.7
377.619	45.32
377.834	-49.62
378.049	-39.73
378.264	-44.38
378.478	16.26
378.693	-12.8
378.908	25.17
379.123	9.48
379.338	59.08
379.553	19.55
379.767	4.83
379.982	24.98
380.197	24.78
380.412	-8.93
380.626	29.63
380.841	86.2
381.056	17.42
381.271	69.15
381.485	-18.23
381.7	-6.22
381.915	21.49
382.129	-12.42
382.344	17.03
382.559	5.22
382.773	56.17
382.988	-32.57
383.202	35.44
383.417	-40.7
383.632	115.46
383.846	29.82
384.061	25.17
384.275	3.47
384.49	24.98
384.704	34.28
384.919	17.81
385.133	17.42
385.348	65.66
385.562	-39.15
385.777	58.3
385.991	3.67
386.206	2.7
386.42	-5.25
386.634	56.36
386.849	42.03
387.063	20.71
387.277	-16.1
387.492	-5.63
387.706	2.89
387.92	-7.57
388.135	57.14
388.349	28.46
388.563	-1.18
388.778	55.59
388.992	60.63
389.206	53.85
389.42	103.44
389.635	31.18
389.849	63.92
390.063	48.23
390.277	24.2
390.491	58.88
390.706	30.79
390.92	46.29
391.134	9.48
391.348	60.24
391.562	-36.05
391.776	6.77
391.99	-12.22
392.205	42.41
392.419	-6.02
392.633	7.54
392.847	62.95
393.061	-5.63
393.275	65.47
393.489	21.88
393.703	45.13
393.917	62.56
394.131	-0.79
394.345	39.31
394.559	58.3
394.773	12
394.986	22.26
395.2	13.74
395.414	42.03
395.628	-7.57
395.842	12.77
396.056	19.94
396.27	-38.38
396.484	23.04
396.697	11.03
396.911	68.18
397.125	5.6
397.339	73.03
397.553	16.45
397.766	69.93
397.98	61.98
398.194	52.88
398.408	-1.76
398.621	40.28
398.835	53.07
399.049	24.2
399.262	66.44
399.476	49.39
399.69	57.14
399.903	97.44
400.117	24.01
400.331	43.96
400.544	-8.15
400.758	104.41
400.971	20.52
401.185	55.01
401.398	-13.38
401.612	78.84
401.826	58.3
402.039	69.54
402.253	21.68
402.466	60.24
402.68	18.2
402.893	30.01
403.106	43.19
403.32	37.38
403.533	67.41
403.747	53.26
403.96	26.72
404.174	57.72
404.387	15.29
404.6	23.43
404.814	64.7
405.027	40.09
405.24	44.16
405.454	30.98
405.667	76.71
405.88	-20.36
406.094	61.79
406.307	60.43
406.52	44.93
406.733	18.78
406.947	-19.39
407.16	59.46
407.373	104.61
407.586	20.13
407.799	7.54
408.012	83.68
408.226	54.62
408.439	78.45
408.652	13.55
408.865	50.55
409.078	55.2
409.291	70.9
409.504	1.34
409.717	74.19
409.93	60.05
410.143	55.59
410.357	3.08
410.57	29.43
410.783	29.43
410.996	54.04
411.209	54.62
411.421	77.68
411.634	52.1
411.847	8.9
412.06	30.21
412.273	37.38
412.486	50.55
412.699	139.68
412.912	50.55
413.125	64.5
413.338	52.88
413.55	37.57
413.763	54.04
413.976	61.01
414.189	2.89
414.402	23.81
414.615	84.26
414.827	22.65
415.04	60.82
415.253	81.55
415.466	88.33
415.678	125.14
415.891	44.74
416.104	48.03
416.316	42.03
416.529	35.05
416.742	51.13
416.954	97.83
417.167	49.58
417.38	81.75
417.592	119.91
417.805	40.48
418.017	-17.26
418.23	104.99
418.442	23.43
418.655	36.6
418.868	50.36
419.08	89.3
419.293	93.95
419.505	75.35
419.718	69.35
419.93	114.1
420.142	53.46
420.355	97.44
420.567	105.19
420.78	77.29
420.992	71.67
421.205	128.05
421.417	23.81
421.629	27.69
421.842	37.96
422.054	6.38
422.266	100.93
422.479	97.63
422.691	24.4
422.903	95.69
423.115	58.69
423.328	89.69
423.54	85.43
423.752	47.45
423.964	66.44
424.177	102.28
424.389	67.8
424.601	172.61
424.813	72.45
425.025	111.58
425.238	110.61
425.45	75.16
425.662	41.83
425.874	364.03
426.086	84.65
426.298	86.01
426.51	95.31
426.722	68.38
426.934	40.86
427.146	96.66
427.358	52.3
427.57	139.09
427.782	86.01
427.994	62.37
428.206	66.63
428.418	27.3
428.63	98.6
428.842	117.39
429.054	102.28
429.266	136.19
429.478	56.36
429.69	64.89
429.902	33.5
430.114	111.78
430.325	101.7
430.537	73.41
430.749	96.86
430.961	33.89
431.173	101.12
431.384	110.61
431.596	5.02
431.808	86.78
432.02	90.66
432.231	105.77
432.443	149.56
432.655	135.03
432.867	84.26
433.078	129.41
433.29	184.04
433.502	130.38
433.713	123.21
433.925	115.65
434.136	156.53
434.348	72.83
434.56	66.05
434.771	192.37
434.983	68.38
435.194	90.46
435.406	92.98
435.617	161.76
435.829	175.52
436.04	151.49
436.252	159.24
436.463	183.07
436.675	165.06
436.886	132.7
437.098	153.63
437.309	222.02
437.521	143.36
437.732	166.41
437.943	140.64
438.155	159.05
438.366	94.34
438.578	197.22
438.789	172.42
439	184.62
439.211	153.63
439.423	159.63
439.634	173.19
439.845	167.19
440.057	170.48
440.268	186.17
440.479	145.68
440.69	132.7
440.902	146.07
441.113	145.29
441.324	135.41
441.535	160.02
441.746	200.51
441.957	128.44
442.168	154.21
442.38	186.95
442.591	173.39
442.802	143.74
443.013	162.93
443.224	208.26
443.435	162.34
443.646	164.09
443.857	149.17
444.068	108.29
444.279	160.41
444.49	246.24
444.701	189.66
444.912	270.84
445.123	215.82
445.334	194.12
445.545	200.71
445.756	184.62
445.967	142
446.178	206.32
446.388	253.79
446.599	254.37
446.81	210.97
447.021	195.09
447.232	241.97
447.443	260.19
447.653	176.1
447.864	245.07
448.075	205.94
448.286	253.99
448.496	227.06
448.707	273.94
448.918	204.97
449.129	310.37
449.339	200.12
449.55	234.22
449.761	210.39
449.971	266.58
450.182	225.7
450.393	255.34
450.603	235.97
450.814	261.54
451.024	246.82
451.235	270.26
451.446	292.74
451.656	300.29
451.867	218.34
452.077	253.6
452.288	300.49
452.498	315.21
452.709	250.5
452.919	270.65
453.13	214.66
453.34	279.75
453.55	168.16
453.761	295.06
453.971	240.23
454.182	279.75
454.392	281.5
454.602	331.29
454.813	286.92
455.023	304.36
455.233	229.96
455.444	265.81
455.654	179.98
455.864	262.32
456.075	245.66
456.285	267.94
456.495	267.94
456.705	291.96
456.916	338.65
457.126	319.47
457.336	250.89
457.546	222.21
457.756	209.23
457.967	315.79
458.177	271.23
458.387	280.53
458.597	253.99
458.807	284.21
459.017	274.91
459.227	298.16
459.437	277.04
459.647	305.14
459.857	295.25
460.068	241.39
460.278	311.34
460.488	296.03
460.698	360.16
460.908	312.89
461.117	228.61
461.327	258.83
461.537	336.33
461.747	302.04
461.957	307.46
462.167	401.43
462.377	323.15
462.587	278.2
462.797	355.32
463.007	303.2
463.216	318.5
463.426	368.88
463.636	334
463.846	250.11
464.056	285.18
464.265	351.64
464.475	300.68
464.685	290.8
464.895	338.07
465.104	272.97
465.314	339.43
465.524	301.26
465.733	281.11
465.943	388.25
466.153	369.65
466.362	356.09
466.572	325.09
466.782	307.46
466.991	339.82
467.201	386.32
467.41	281.11
467.62	334
467.829	321.8
468.039	368.3
468.249	324.7
468.458	340.98
468.668	359.77
468.877	337.1
469.086	388.64
469.296	389.03
469.505	353.19
469.715	447.93
469.924	387.87
470.134	422.93
470.343	410.15
470.552	347.76
470.762	362.29
470.971	332.07
471.18	350.09
471.39	348.73
471.599	328.77
471.808	392.71
472.018	324.12
472.227	408.21
472.436	409.57
472.645	383.8
472.855	345.05
473.064	419.25
473.273	418.67
473.482	427.58
473.691	460.52
473.901	435.53
474.11	395.23
474.319	496.17
474.528	425.26
474.737	486.48
474.946	444.44
475.155	416.93
475.364	467.3
475.573	443.28
475.783	433.78
475.992	447.73
476.201	458
476.41	419.06
476.619	435.53
476.828	441.53
477.037	417.32
477.245	439.6
477.454	489.97
477.663	419.83
477.872	455.48
478.081	500.82
478.29	417.32
478.499	549.45
478.708	470.4
478.917	542.67
479.125	500.63
479.334	499.85
479.543	466.53
479.752	497.91
479.961	495.59
480.169	535.31
480.378	451.03
480.587	618.81
480.796	539.18
481.004	496.56
481.213	527.36
481.422	532.01
481.63	512.25
481.839	544.41
482.048	568.24
482.256	547.9
482.465	533.76
482.674	538.79
482.882	573.48
483.091	632.76
483.299	550.61
483.508	605.64
483.716	554.29
483.925	560.88
484.134	531.24
484.342	533.37
484.551	582.58
484.759	575.41
484.967	601.96
485.176	597.31
485.384	606.99
485.593	605.64
485.801	598.47
486.01	575.03
486.218	518.45
486.426	495.01
486.635	538.99
486.843	530.27
487.051	540.93
487.26	509.73
487.468	577.16
487.676	593.63
487.885	559.53
488.093	580.26
488.301	642.84
488.509	622.3
488.717	665.12
488.926	627.53
489.134	605.06
489.342	635.67
489.55	580.26
489.758	610.09
489.967	640.51
490.175	706.39
490.383	638.38
490.591	717.62
490.799	622.11
491.007	681.39
491.215	664.73
491.423	682.75
491.631	633.15
491.839	683.14
492.047	709.68
492.255	620.56
492.463	602.54
492.671	649.62
492.879	710.84
493.087	683.33
493.295	715.88
493.503	722.66
493.711	712.2
493.919	723.24
494.127	741.84
494.334	766.25
494.542	680.81
494.75	710.65
494.958	675.58
495.166	745.33
495.374	732.74
495.581	716.27
495.789	742.04
495.997	756.37
496.205	691.27
496.412	721.11
496.62	749.79
496.828	761.8
497.035	752.3
497.243	767.42
497.451	749.59
497.658	741.26
497.866	756.18
498.074	816.05
498.281	720.72
498.489	819.73
498.696	754.44
498.904	750.95
499.112	743.2
499.319	828.45
499.527	761.22
499.734	819.92
499.942	731.77
500.149	720.53
500.357	769.55
500.564	742.23
500.771	757.15
500.979	747.65
501.186	726.73
501.394	783.3
501.601	741.65
501.808	752.11
502.016	747.07
502.223	774.2
502.43	763.15
502.638	771.1
502.845	749.2
503.052	815.08
503.26	751.92
503.467	859.64
503.674	814.88
503.881	842.2
504.089	880.76
504.296	834.84
504.503	758.7
504.71	801.13
504.917	789.5
505.125	799.19
505.332	819.53
505.539	823.02
505.746	882.89
505.953	854.41
506.16	833.87
506.367	919.9
506.574	904.4
506.781	937.53
506.988	798.22
507.195	870.1
507.402	851.7
507.609	916.21
507.816	839.68
508.023	823.22
508.23	847.05
508.437	828.25
508.644	859.06
508.851	897.03
509.058	905.17
509.265	891.61
509.472	913.89
509.679	978.02
509.885	907.5
510.092	885.8
510.299	896.45
510.506	890.25
510.713	912.34
510.92	907.5
511.126	929.39
511.333	955.55
511.54	979.76
511.746	974.14
511.953	989.26
512.16	979.57
512.367	923.38
512.573	954.38
512.78	948.96
512.987	952.45
513.193	948.57
513.4	859.25
513.606	929.2
513.813	963.88
514.02	945.08
514.226	1051.84
514.433	1023.94
514.639	952.83
514.846	924.16
515.052	936.17
515.259	963.68
515.465	995.84
515.672	972.4
515.878	1048.54
516.085	988.87
516.291	1026.84
516.497	951.48
516.704	964.85
516.91	896.84
517.117	913.89
517.323	844.14
517.529	921.64
517.736	904.98
517.942	901.3
518.148	932.1
518.354	967.56
518.561	935.01
518.767	969.88
518.973	995.26
519.179	1027.81
519.386	976.47
519.592	955.16
519.798	975.5
520.004	1072.37
520.21	1000.11
520.417	1044.86
520.623	1086.71
520.829	1098.92
521.035	1075.28
521.241	1100.66
521.447	1111.71
521.653	1213.81
521.859	1100.08
522.065	1089.81
522.271	1208
522.477	1159.75
522.683	1186.3
522.889	1156.27
523.095	1112.67
523.301	1127.59
523.507	1071.41
523.713	1131.08
523.919	1137.47
524.125	1207.42
524.331	1149.1
524.537	1256.24
524.742	1221.56
524.948	1234.35
525.154	1249.46
525.36	1332.38
525.566	1226.4
525.772	1308.75
525.977	1188.24
526.183	1226.4
526.389	1270.19
526.595	1174.09
526.8	1163.05
527.006	1113.45
527.212	1112.29
527.417	1094.66
527.623	1118.68
527.829	1190.75
528.034	1218.85
528.24	1234.54
528.446	1194.63
528.651	1254.5
528.857	1232.6
529.062	1327.93
529.268	1302.35
529.473	1284.72
529.679	1272.13
529.884	1381.98
530.09	1301.58
530.295	1348.27
530.501	1335.48
530.706	1301
530.912	1290.73
531.117	1308.94
531.323	1351.18
531.528	1351.56
531.733	1368.23
531.939	1340.71
532.144	1355.44
532.35	1352.73
532.555	1380.63
532.76	1349.43
532.966	1320.76
533.171	1309.52
533.376	1287.82
533.581	1274.26
533.787	1362.41
533.992	1348.46
534.197	1341.3
534.402	1321.73
534.607	1344.2
534.813	1469.75
535.018	1352.15
535.223	1351.18
535.428	1354.66
535.633	1463.94
535.838	1418.99
536.043	1419.57
536.249	1504.43
536.454	1381.6
536.659	1438.17
536.864	1373.85
537.069	1410.27
537.274	1421.31
537.479	1417.44
537.684	1382.95
537.889	1348.27
538.094	1488.54
538.299	1420.54
538.504	1423.64
538.708	1448.63
538.913	1449.02
539.118	1422.28
539.323	1458.13
539.528	1371.71
539.733	1392.83
539.938	1412.98
540.142	1415.89
540.347	1443.98
540.552	1351.95
540.757	1372.1
540.962	1364.35
541.166	1353.31
541.371	1350.98
541.576	1388.57
541.781	1321.34
541.985	1422.48
542.19	1418.21
542.395	1437.59
542.599	1481.76
542.804	1451.34
543.008	1497.26
543.213	1390.51
543.418	1399.23
543.622	1455.03
543.827	1378.3
544.031	1492.61
544.236	1472.27
544.44	1426.35
544.645	1469.17
544.849	1424.61
545.054	1497.26
545.258	1525.74
545.463	1544.92
545.667	1443.01
545.872	1475.18
546.076	1470.14
546.281	1461.61
546.485	1434.1
546.689	1473.63
546.894	1540.08
547.098	1504.43
547.302	1454.64
547.507	1470.72
547.711	1492.23
547.915	1557.71
548.119	1461.81
548.324	1499.2
548.528	1524.97
548.732	1505.01
548.936	1546.28
549.141	1538.34
549.345	1495.91
549.549	1516.06
549.753	1501.72
549.957	1580.96
550.161	1571.08
550.366	1537.95
550.57	1499.78
550.774	1533.49
550.978	1509.86
551.182	1574.57
551.386	1506.95
551.59	1510.05
551.794	1499.01
551.998	1536.98
552.202	1477.89
552.406	1485.06
552.61	1528.84
552.814	1517.61
553.018	1561.59
553.222	1520.12
553.426	1504.62
553.63	1582.12
553.833	1524
554.037	1481.18
554.241	1576.31
554.445	1547.64
554.649	1518.38
554.853	1499.97
555.056	1552.67
555.26	1564.11
555.464	1520.9
555.668	1512.57
555.871	1574.37
556.075	1566.24
556.279	1506.37
556.483	1493.39
556.686	1490.09
556.89	1513.34
557.094	1540.47
557.297	1439.14
557.501	1538.72
557.704	1429.45
557.908	1519.35
558.112	1483.89
558.315	1520.71
558.519	1486.8
558.722	1447.08
558.926	1486.22
559.129	1414.92
559.333	1373.46
559.536	1445.92
559.74	1383.92
559.943	1386.63
560.147	1415.5
560.35	1434.88
560.553	1419.57
560.757	1395.55
560.96	1501.33
561.164	1460.06
561.367	1515.28
561.57	1475.56
561.774	1468.2
561.977	1431.78
562.18	1416.66
562.384	1523.42
562.587	1446.11
562.79	1460.06
562.993	1437.78
563.197	1464.91
563.4	1542.02
563.603	1504.24
563.806	1554.03
564.009	1443.21
564.212	1490.48
564.416	1366.87
564.619	1480.21
564.822	1424.03
565.025	1456.77
565.228	1400.78
565.431	1443.4
565.634	1349.63
565.837	1378.5
566.04	1370.16
566.243	1387.41
566.446	1320.95
566.649	1422.28
566.852	1320.56
567.055	1361.83
567.258	1394
567.461	1431.58
567.664	1421.7
567.867	1326.38
568.07	1375.59
568.273	1415.69
568.475	1427.71
568.678	1345.36
568.881	1357.57
569.084	1397.29
569.287	1284.92
569.489	1308.75
569.692	1388.57
569.895	1401.36
570.098	1293.44
570.3	1310.88
570.503	1278.13
570.706	1292.28
570.909	1271.35
571.111	1241.13
571.314	1243.07
571.516	1239.97
571.719	1294.02
571.922	1250.82
572.124	1238.03
572.327	1276.78
572.529	1260.5
572.732	1232.99
572.935	1284.14
573.137	1348.66
573.34	1254.5
573.542	1321.73
573.745	1277.36
573.947	1260.7
574.15	1240.35
574.352	1234.54
574.554	1288.02
574.757	1229.12
574.959	1220.01
575.162	1213.04
575.364	1221.95
575.566	1309.72
575.769	1192.11
575.971	1225.82
576.173	1136.12
576.376	1203.35
576.578	1262.25
576.78	1275.62
576.982	1152.2
577.185	1226.21
577.387	1194.44
577.589	1188.82
577.791	1223.3
577.993	1186.3
578.196	1177
578.398	1174.67
578.6	1208
578.802	1158.98
579.004	1159.37
579.206	1176.22
579.408	1199.67
579.61	1147.74
579.812	1208.58
580.014	1176.8
580.216	1164.6
580.418	1192.5
580.62	1171.57
580.822	1135.54
581.024	1157.24
581.226	1212.26
581.428	1192.5
581.63	1239.77
581.832	1167.89
582.034	1238.03
582.236	1180.68
582.438	1207.61
582.64	1265.54
582.841	1253.53
583.043	1325.8
583.245	1200.05
583.447	1234.15
583.649	1192.11
583.85	1220.01
584.052	1266.9
584.254	1176.8
584.456	1244.03
584.657	1176.8
584.859	1195.79
585.061	1169.05
585.262	1195.99
585.464	1130.11
585.666	1210.32
585.867	1138.64
586.069	1188.24
586.27	1169.83
586.472	1170.6
586.674	1121.78
586.875	1152.78
587.077	1130.5
587.278	1177
587.48	1124.3
587.681	1246.75
587.883	1154.52
588.084	1106.86
588.285	1139.61
588.487	1129.53
588.688	1127.59
588.89	1040.6
589.091	1030.72
589.292	1032.85
589.494	1028.39
589.695	988.09
589.896	967.95
590.098	991.19
590.299	1030.91
590.5	1011.93
590.702	1043.12
590.903	1038.08
591.104	1121.39
591.305	1087.1
591.507	1125.66
591.708	1117.91
591.909	1059.78
592.11	1128.95
592.311	1125.46
592.512	1078.96
592.714	1013.67
592.915	1035.37
593.116	1048.93
593.317	1060.56
593.518	1056.1
593.719	1078.38
593.92	1090.78
594.121	1115
594.322	1045.44
594.523	1068.11
594.724	997.39
594.925	1079.16
595.126	1082.45
595.327	1045.83
595.528	1079.54
595.729	1071.02
595.929	1078.57
596.13	1071.99
596.331	1101.24
596.532	1071.41
596.733	1132.63
596.934	1097.76
597.135	1095.04
597.335	1127.59
597.536	1040.02
597.737	1066.17
597.938	1037.31
598.138	1062.69
598.339	1082.45
598.54	1098.72
598.74	1065.79
598.941	1071.79
599.142	1136.51
599.342	1077.8
599.543	1042.15
599.744	1044.48
599.944	1053.78
600.145	1051.26
600.345	1059.39
600.546	1164.4
600.746	1115.39
600.947	1122.56
601.147	1079.54
601.348	1083.22
601.548	1035.95
601.749	1053.39
601.949	1021.23
602.15	1037.31
602.35	1065.01
602.551	1086.13
602.751	1040.6
602.951	1036.53
603.152	980.93
603.352	1080.71
603.552	1078.77
603.753	1110.35
603.953	1120.62
604.153	1075.67
604.354	1046.03
604.554	1050.48
604.754	1082.26
604.954	1015.99
605.155	1060.56
605.355	1051.06
605.555	1071.6
605.755	1101.44
605.955	1033.04
606.155	1109.38
606.356	1069.27
606.556	1110.16
606.756	1060.36
606.956	989.26
607.156	1093.11
607.356	1060.94
607.556	1067.14
607.756	1072.18
607.956	1112.29
608.156	1031.69
608.356	1036.73
608.556	1115
608.756	1061.52
608.956	1022
609.156	1089.81
609.356	1010.57
609.556	1041.38
609.755	1035.76
609.955	987.71
610.155	1043.12
610.355	1036.92
610.555	1000.88
610.755	1019.29
610.954	993.33
611.154	1029.94
611.354	1021.42
611.554	996.81
611.753	991.97
611.953	976.66
612.153	1046.03
612.352	1001.27
612.552	966.78
612.752	947.41
612.951	975.89
613.151	968.14
613.351	936.75
613.55	968.14
613.75	974.14
613.949	985.58
614.149	1014.06
614.348	994.49
614.548	961.36
614.747	918.93
614.947	977.05
615.146	897.42
615.346	1005.92
615.545	995.65
615.745	954.38
615.944	996.04
616.144	969.69
616.343	1001.66
616.542	939.08
616.742	942.95
616.941	980.34
617.14	923.38
617.34	980.34
617.539	981.89
617.738	928.03
617.938	1017.74
618.137	952.83
618.336	940.24
618.535	1004.37
618.734	941.21
618.934	970.66
619.133	996.62
619.332	974.34
619.531	951.48
619.73	950.12
619.929	987.13
620.128	946.44
620.328	1022.58
620.527	943.34
620.726	955.74
620.925	951.09
621.124	959.23
621.323	966.2
621.522	919.51
621.721	954.38
621.92	896.06
622.119	958.84
622.318	898.58
622.517	963.49
622.715	939.27
622.914	874.56
623.113	906.91
623.312	858.67
623.511	929.78
623.71	900.91
623.909	906.72
624.107	976.28
624.306	864.68
624.505	868.55
624.704	881.73
624.902	869.33
625.101	913.5
625.3	907.5
625.499	872.43
625.697	878.24
625.896	884.63
626.095	888.12
626.293	851.5
626.492	858.28
626.69	930.94
626.889	831.74
627.088	927.26
627.286	846.08
627.485	852.67
627.683	852.67
627.882	909.82
628.08	809.85
628.279	841.82
628.477	912.73
628.676	785.82
628.874	869.91
629.073	805.39
629.271	819.34
629.469	878.63
629.668	852.47
629.866	829.03
630.065	814.69
630.263	841.43
630.461	804.42
630.66	832.9
630.858	858.87
631.056	917.18
631.254	871.27
631.453	804.23
631.651	867
631.849	819.34
632.047	874.56
632.245	842.4
632.444	839.68
632.642	853.05
632.84	874.95
633.038	823.22
633.236	813.72
633.434	829.42
633.632	797.83
633.83	810.62
634.028	870.68
634.227	821.28
634.425	886.76
634.623	827.28
634.821	832.32
635.019	880.57
635.216	852.28
635.414	891.03
635.612	851.5
635.81	815.08
636.008	920.67
636.206	842.59
636.404	879.98
636.602	797.06
636.8	826.12
636.997	840.46
637.195	870.1
637.393	874.17
637.591	913.31
637.789	856.35
637.986	834.26
638.184	850.34
638.382	884.25
638.58	874.56
638.777	879.6
638.975	820.89
639.173	847.05
639.37	865.07
639.568	874.95
639.765	845.5
639.963	834.07
640.161	862.35
640.358	862.93
640.556	832.9
640.753	800.16
640.951	793.77
641.148	848.98
641.346	796.48
641.543	804.03
641.741	845.3
641.938	815.47
642.136	828.45
642.333	789.89
642.531	898.58
642.728	891.03
642.925	843.37
643.123	816.43
643.32	845.88
643.517	789.89
643.715	855.96
643.912	827.28
644.109	819.73
644.306	825.54
644.504	766.84
644.701	802.68
644.898	827.87
645.095	755.99
645.293	804.81
645.49	838.52
645.687	835.81
645.884	838.13
646.081	731.57
646.278	804.62
646.475	754.63
646.672	766.64
646.87	817.21
647.067	812.56
647.264	790.28
647.461	738.35
647.658	688.17
647.855	780.2
648.052	765.87
648.249	693.02
648.446	722.85
648.642	740.87
648.839	692.24
649.036	706.97
649.233	714.72
649.43	715.49
649.627	707.55
649.824	716.85
650.021	685.27
650.217	687.21
650.414	688.37
650.611	745.91
650.808	757.15
651.004	745.91
651.201	752.5
651.398	780.4
651.595	753.85
651.791	716.85
651.988	767.42
652.185	719.75
652.381	754.24
652.578	679.65
652.775	712.39
652.971	706.39
653.168	726.34
653.364	736.8
653.561	673.06
653.757	710.45
653.954	742.81
654.15	665.31
654.347	804.23
654.543	709.87
654.74	680.81
654.936	683.14
655.133	719.56
655.329	712.2
655.525	710.45
655.722	713.94
655.918	656.79
656.115	698.83
656.311	606.8
656.507	591.11
656.704	560.69
656.9	594.01
657.096	598.86
657.292	604.48
657.489	668.8
657.685	653.11
657.881	651.94
658.077	653.49
658.273	671.51
658.47	718.98
658.666	674.42
658.862	688.37
659.058	629.47
659.254	693.99
659.45	641.09
659.646	712.39
659.842	690.89
660.038	738.55
660.234	669.77
660.43	686.82
660.626	735.84
660.822	716.07
661.018	706.39
661.214	706.97
661.41	621.72
661.606	715.1
661.802	693.79
661.998	689.14
662.194	651.75
662.39	712.59
662.586	693.21
662.781	692.63
662.977	723.63
663.173	700.57
663.369	700.77
663.564	679.26
663.76	699.22
663.956	666.28
664.152	716.27
664.347	640.51
664.543	670.54
664.739	654.07
664.934	627.92
665.13	584.33
665.326	704.06
665.521	695.54
665.717	656.4
665.912	624.62
666.108	574.83
666.304	639.54
666.499	632.76
666.695	570.38
666.89	623.46
667.086	685.85
667.281	625.79
667.477	696.89
667.672	649.23
667.867	613.78
668.063	680.42
668.258	598.86
668.454	597.5
668.649	692.05
668.844	644.58
669.04	659.5
669.235	622.3
669.43	612.61
669.626	563.21
669.821	626.17
670.016	574.06
670.211	589.17
670.407	576.96
670.602	607.58
670.797	610.48
670.992	676.94
671.187	605.25
671.382	637.22
671.578	549.64
671.773	615.33
671.968	565.73
672.163	584.13
672.358	669.96
672.553	594.59
672.748	544.99
672.943	659.69
673.138	620.56
673.333	639.16
673.528	562.04
673.723	607.96
673.918	586.26
674.113	571.73
674.308	707.55
674.503	620.56
674.698	606.99
674.892	613
675.087	615.91
675.282	637.99
675.477	595.76
675.672	637.22
675.867	598.28
676.061	566.69
676.256	561.08
676.451	579.87
676.646	603.51
676.84	565.34
677.035	568.63
677.23	553.71
677.424	613.58
677.619	617.07
677.814	619.39
678.008	614.55
678.203	549.06
678.397	568.24
678.592	591.11
678.787	683.14
678.981	569.02
679.176	579.48
679.37	606.61
679.565	565.92
679.759	577.74
679.954	634.12
680.148	646.32
680.342	650.78
680.537	623.07
680.731	588.2
680.926	624.43
681.12	625.21
681.314	573.67
681.509	573.09
681.703	609.51
681.897	613.19
682.092	582.78
682.286	598.66
682.48	671.9
682.674	639.16
682.869	602.15
683.063	632.96
683.257	652.72
683.451	568.24
683.645	633.15
683.839	588.39
684.034	587.81
684.228	662.79
684.422	549.84
684.616	574.64
684.81	624.62
685.004	606.22
685.198	587.62
685.392	612.23
685.586	605.64
685.78	593.24
685.974	631.21
686.168	612.42
686.362	679.07
686.556	571.73
686.75	514.96
686.944	518.45
687.138	490.75
687.331	459.94
687.525	476.02
687.719	391.74
687.913	449.86
688.107	474.08
688.301	449.86
688.494	474.28
688.688	460.33
688.882	441.92
689.076	435.92
689.269	487.45
689.463	540.93
689.657	490.75
689.85	486.68
690.044	511.09
690.238	507.8
690.431	500.24
690.625	511.09
690.818	512.64
691.012	571.54
691.205	566.89
691.399	528.72
691.593	567.47
691.786	612.61
691.98	609.13
692.173	635.67
692.366	619.01
692.56	643.03
692.753	653.49
692.947	596.34
693.14	633.15
693.333	653.11
693.527	561.27
693.72	630.82
693.914	611.84
694.107	620.17
694.3	664.73
694.493	603.12
694.687	667.06
694.88	617.07
695.073	695.92
695.266	681.78
695.46	632.18
695.653	710.26
695.846	709.1
696.039	638.77
696.232	651.36
696.425	697.28
696.618	740.1
696.812	707.94
697.005	778.27
697.198	835.42
697.391	783.5
697.584	816.24
697.777	840.85
697.97	830.58
698.163	832.32
698.356	792.6
698.549	892.38
698.742	849.76
698.935	826.7
699.127	848.4
699.32	788.15
699.513	808.88
699.706	860.03
699.899	856.93
700.092	793.96
700.285	846.85
700.477	814.3
700.67	879.6
700.863	909.43
701.056	971.24
701.248	920.48
701.441	957.68
701.634	858.09
701.826	1011.15
702.019	876.69
702.212	918.73
702.404	890.06
702.597	839.68
702.79	913.31
702.982	961.55
703.175	998.75
703.367	991.19
703.56	1013.09
703.752	1076.25
703.945	1044.09
704.137	1061.72
704.33	1069.08
704.522	1100.27
704.715	1091.36
704.907	1089.81
705.1	1102.02
705.292	1130.11
705.484	1106.28
705.677	1143.87
705.869	1143.67
706.061	1168.86
706.254	1195.6
706.446	1137.67
706.638	1194.63
706.831	1246.55
707.023	1164.99
707.215	1272.9
707.407	1261.28
707.599	1249.85
707.792	1302.55
707.984	1263.02
708.176	1331.03
708.368	1263.6
708.56	1282.59
708.752	1281.62
708.944	1284.92
709.136	1360.48
709.329	1306.62
709.521	1426.54
709.713	1377.53
709.905	1359.51
710.097	1381.21
710.289	1364.74
710.481	1389.15
710.672	1401.55
710.864	1405.04
711.056	1468.59
711.248	1478.28
711.44	1486.22
711.632	1452.51
711.824	1494.36
712.016	1572.44
712.207	1527.1
712.399	1511.21
712.591	1612.35
712.783	1545.7
712.975	1575.54
713.166	1562.17
713.358	1544.73
713.55	1632.5
713.741	1617
713.933	1626.1
714.125	1587.94
714.316	1573.02
714.508	1670.28
714.7	1638.7
714.891	1630.17
715.083	1712.9
715.274	1676.48
715.466	1703.6
715.657	1733.63
715.849	1626.3
716.04	1705.73
716.232	1598.4
716.423	1699.53
716.615	1624.36
716.806	1604.4
716.998	1544.34
717.189	1505.59
717.381	1443.4
717.572	1422.09
717.763	1461.03
717.955	1449.6
718.146	1433.52
718.337	1349.05
718.528	1312.43
718.72	1282.01
718.911	1348.27
719.102	1294.99
719.293	1352.15
719.485	1327.93
719.676	1332.96
719.867	1283.37
720.058	1279.49
720.249	1315.14
720.44	1340.52
720.632	1395.55
720.823	1427.71
721.014	1511.6
721.205	1518.96
721.396	1594.52
721.587	1735.18
721.778	1696.43
721.969	1717.55
722.16	1724.53
722.351	1796.41
722.542	1872.94
722.733	1890.76
722.924	1787.3
723.115	1864.03
723.305	1850.46
723.496	1823.34
723.687	1742.16
723.878	1754.37
724.069	1731.7
724.26	1740.8
724.45	1686.94
724.641	1686.36
724.832	1729.37
725.023	1713.48
725.213	1685.2
725.404	1682.87
725.595	1699.92
725.785	1668.73
725.976	1750.88
726.167	1722.4
726.357	1755.72
726.548	1815.2
726.739	1784.98
726.929	1867.13
727.12	1830.9
727.31	1869.06
727.501	1826.83
727.691	1853.18
727.882	1816.95
728.072	1871
728.263	1842.91
728.453	1892.51
728.644	1848.91
728.834	1861.31
729.024	1854.53
729.215	1848.72
729.405	1890.38
729.596	1927.96
729.786	1960.12
729.976	1964.19
730.167	1967.29
730.357	1964.77
730.547	1943.66
730.737	2002.75
730.928	2029.68
731.118	2045.18
731.308	1987.44
731.498	2074.44
731.688	2108.15
731.879	2104.85
732.069	2164.14
732.259	2152.32
732.449	2191.27
732.639	2213.55
732.829	2252.3
733.019	2316.04
733.209	2365.06
733.399	2352.08
733.589	2387.53
733.779	2454.76
733.969	2417.17
734.159	2473.36
734.349	2494.29
734.539	2517.34
734.729	2504.55
734.919	2555.9
735.109	2591.93
735.299	2526.25
735.488	2585.35
735.678	2569.85
735.868	2570.23
736.058	2568.1
736.248	2538.07
736.437	2501.07
736.627	2513.08
736.817	2620.22
737.007	2564.23
737.196	2580.12
737.386	2614.6
737.576	2574.88
737.765	2631.85
737.955	2624.1
738.144	2706.83
738.334	2661.3
738.524	2627.39
738.713	2621.38
738.903	2642.31
739.092	2690.55
739.282	2709.73
739.471	2656.45
739.661	2673.11
739.85	2748.29
740.04	2782.58
740.229	2758.17
740.419	2797.11
740.608	2841.87
740.797	2794.4
740.987	2810.29
741.176	2803.7
741.365	2747.51
741.555	2736.47
741.744	2820.56
741.933	2770.96
742.123	2833.34
742.312	2823.66
742.501	2870.35
742.69	2852.33
742.88	2842.64
743.069	2893.6
743.258	2831.6
743.447	2896.7
743.636	2894.57
743.825	2849.81
744.014	2873.64
744.204	2922.47
744.393	2830.24
744.582	2904.06
744.771	2954.05
744.96	2908.13
745.149	2907.94
745.338	2865.51
745.527	2930.41
745.716	2887.59
745.905	2872.48
746.094	2955.02
746.283	2964.51
746.471	2911.04
746.66	2997.64
746.849	2988.53
747.038	2950.95
747.227	2933.9
747.416	2954.63
747.604	2859.69
747.793	2930.6
747.982	2952.5
748.171	2978.27
748.359	3000.55
748.548	2928.67
748.737	2949.59
748.926	2958.89
749.114	2876.55
749.303	2951.34
749.491	2936.42
749.68	2887.21
749.869	2970.13
750.057	2947.46
750.246	2911.62
750.434	2908.9
750.623	2875.58
750.811	2921.11
751	3000.16
751.188	2895.92
751.377	2907.35
751.565	2925.57
751.754	2886.82
751.942	2903.48
752.131	2905.8
752.319	2863.76
752.507	2816.29
752.696	2935.25
752.884	2904.45
753.072	2877.52
753.261	2888.37
753.449	2871.32
753.637	2859.5
753.825	2981.37
754.014	2861.63
754.202	2874.03
754.39	2940.49
754.578	2875.39
754.766	2847.29
754.955	2836.44
755.143	2946.1
755.331	2848.46
755.519	2850.39
755.707	2825.98
755.895	2829.47
756.083	2881.97
756.271	2814.16
756.459	2870.16
756.647	2870.35
756.835	2840.12
757.023	2828.5
757.211	2823.07
757.399	2822.69
757.587	2800.41
757.775	2783.36
757.963	2795.18
758.151	2743.25
758.339	2776.77
758.526	2761.27
758.714	2774.06
758.902	2689.78
759.09	2647.73
759.278	2439.65
759.465	2263.53
759.653	1958.96
759.841	1786.91
760.028	1476.14
760.216	1327.54
760.404	1231.44
760.591	989.45
760.779	834.84
760.967	749.98
761.154	589.75
761.342	650.78
761.529	662.79
761.717	719.56
761.905	728.86
762.092	793.38
762.28	698.25
762.467	737.97
762.655	667.64
762.842	658.72
763.029	693.6
763.217	713.17
763.404	686.43
763.592	739.13
763.779	682.75
763.966	727.7
764.154	764.32
764.341	820.7
764.528	837.75
764.716	917.38
764.903	932.3
765.09	958.65
765.277	1015.22
765.465	1183.97
765.652	1213.42
765.839	1263.02
766.026	1374.43
766.213	1407.17
766.4	1493.97
766.588	1684.42
766.775	1691.4
766.962	1768.7
767.149	1798.73
767.336	1954.89
767.523	1913.43
767.71	2018.44
767.897	2101.75
768.084	2173.44
768.271	2187.97
768.458	2225.95
768.645	2280.19
768.832	2248.42
769.019	2284.84
769.206	2314.68
769.392	2360.6
769.579	2481.89
769.766	2447.4
769.953	2407.49
770.14	2482.27
770.327	2455.73
770.513	2476.27
770.7	2563.84
770.887	2460.57
771.073	2522.77
771.26	2470.84
771.447	2456.5
771.634	2448.17
771.82	2585.15
772.007	2479.75
772.193	2542.92
772.38	2533.81
772.567	2513.66
772.753	2537.69
772.94	2545.63
773.126	2580.12
773.313	2568.49
773.499	2529.55
773.686	2559
773.872	2481.89
774.059	2513.47
774.245	2471.62
774.432	2475.69
774.618	2435.77
774.804	2514.44
774.991	2440.04
775.177	2492.93
775.363	2479.37
775.55	2510.17
775.736	2443.52
775.922	2483.63
776.109	2482.47
776.295	2453.6
776.481	2500.87
776.667	2508.62
776.853	2444.69
777.04	2443.14
777.226	2443.52
777.412	2531.49
777.598	2393.54
777.784	2427.64
777.97	2443.14
778.156	2473.75
778.342	2416.4
778.528	2364.67
778.715	2364.86
778.901	2362.93
779.087	2413.88
779.272	2359.83
779.458	2352.46
779.644	2367.38
779.83	2364.09
780.016	2475.1
780.202	2390.05
780.388	2363.51
780.574	2291.24
780.76	2301.31
780.946	2375.91
781.131	2352.27
781.317	2314.68
781.503	2311.19
781.689	2308.87
781.874	2393.34
782.06	2284.84
782.246	2343.36
782.432	2300.73
782.617	2317.2
782.803	2386.76
782.989	2282.91
783.174	2298.41
783.36	2231.37
783.545	2304.61
783.731	2295.69
783.916	2230.6
784.102	2329.6
784.288	2239.31
784.473	2244.35
784.659	2244.74
784.844	2268.57
785.029	2187.2
785.215	2186.62
785.4	2129.27
785.586	2256.17
785.771	2142.25
785.956	2252.3
786.142	2194.17
786.327	2175.96
786.512	2204.63
786.698	2218
786.883	2127.13
787.068	2123.65
787.254	2191.27
787.439	2137.6
787.624	2139.15
787.809	2153.1
787.994	2154.26
788.18	2203.66
788.365	2068.04
788.55	2127.33
788.735	2109.7
788.92	2104.47
789.105	2094
789.29	2113.57
789.475	2037.82
789.66	2077.54
789.845	2018.05
790.03	2027.74
790.215	2078.31
790.4	2123.65
790.585	2096.14
790.77	2049.44
790.955	2010.11
791.14	2077.15
791.325	2119
791.51	1955.86
791.695	2027.94
791.879	2047.89
792.064	1981.05
792.249	2075.02
792.434	1996.74
792.618	2025.42
792.803	2034.72
792.988	2021.35
793.173	2055.84
793.357	2044.99
793.542	1981.44
793.727	1999.07
793.911	2060.29
794.096	2007.79
794.281	2066.3
794.465	2104.85
794.65	2002.94
794.834	2019.6
795.019	2144.57
795.203	2074.05
795.388	2076.57
795.572	2093.81
795.757	2071.72
795.941	2094.39
796.126	2063.2
796.31	2014.96
796.494	2072.11
796.679	2029.29
796.863	2003.14
797.048	2105.63
797.232	2092.45
797.416	2066.49
797.601	2079.47
797.785	2125.78
797.969	2118.03
798.153	2029.49
798.338	2104.08
798.522	2112.02
798.706	2089.35
798.89	2117.64
799.074	2208.7
799.258	2179.25
799.443	2100.4
799.627	2101.56
799.811	2127.13
799.995	2084.51
800.179	2027.16
800.363	2059.13
800.547	2097.49
800.731	2127.33
800.915	2040.53
801.099	2050.99
801.283	2063.59
801.467	2046.34
801.651	2071.14
801.835	2141.86
802.019	2078.7
802.202	2104.66
802.386	2027.16
802.57	2042.08
802.754	2068.82
802.938	2029.1
803.121	2047.5
803.305	2132.95
803.489	2065.33
803.673	2046.73
803.856	2053.7
804.04	2046.92
804.224	2108.53
804.407	2079.67
804.591	2052.93
804.775	2072.3
804.958	2082.19
805.142	2167.82
805.326	2078.5
805.509	2090.32
805.693	2070.17
805.876	2093.81
806.06	2097.88
806.243	2099.43
806.427	2177.9
806.61	2121.52
806.794	2047.5
806.977	2094.2
807.16	2071.34
807.344	2081.6
807.527	2063.78
807.71	2065.52
807.894	2039.37
808.077	2113.77
808.26	2019.22
808.444	2031.42
808.627	2091.29
808.81	2027.35
808.993	2018.83
809.177	1979.31
809.36	2043.82
809.543	2040.72
809.726	1969.42
809.909	1957.61
810.092	1921.96
810.276	1897.16
810.459	1945.01
810.642	1927.58
810.825	1901.61
811.008	1904.71
811.191	1835.16
811.374	1846.2
811.557	1869.64
811.74	1920.21
811.923	1832.64
812.106	1806.68
812.289	1808.03
812.472	1818.5
812.654	1823.34
812.837	1746.23
813.02	1726.27
813.203	1730.34
813.386	1626.3
813.569	1651.49
813.751	1603.44
813.934	1646.06
814.117	1589.49
814.3	1578.64
814.482	1519.35
814.665	1480.99
814.848	1494.55
815.03	1436.62
815.213	1386.44
815.396	1404.46
815.578	1437.59
815.761	1373.26
815.943	1428.09
816.126	1350.4
816.309	1294.99
816.491	1272.9
816.674	1245.58
816.856	1274.07
817.039	1246.36
817.221	1354.86
817.403	1306.62
817.586	1297.9
817.768	1324.44
817.951	1229.7
818.133	1257.98
818.315	1282.78
818.498	1300.61
818.68	1358.73
818.862	1301.38
819.045	1355.44
819.227	1323.47
819.409	1294.22
819.591	1321.34
819.774	1311.46
819.956	1304.48
820.138	1363
820.32	1332
820.502	1402.33
820.684	1443.4
820.866	1459.48
821.048	1464.33
821.231	1488.16
821.413	1502.11
821.595	1452.51
821.777	1438.36
821.959	1446.89
822.141	1512.57
822.323	1382.56
822.505	1337.42
822.686	1296.35
822.868	1240.16
823.05	1160.14
823.232	1162.27
823.414	1072.57
823.596	1153.75
823.778	1155.3
823.96	1184.17
824.141	1164.4
824.323	1179.32
824.505	1238.8
824.687	1308.17
824.868	1339.75
825.05	1422.67
825.232	1423.25
825.413	1529.23
825.595	1456.19
825.777	1376.36
825.958	1423.25
826.14	1413.76
826.321	1450.57
826.503	1401.94
826.685	1429.26
826.866	1460.06
827.048	1448.44
827.229	1340.52
827.411	1371.33
827.592	1303.9
827.773	1336.26
827.955	1278.13
828.136	1293.83
828.318	1227.76
828.499	1306.42
828.68	1249.07
828.862	1312.62
829.043	1324.83
829.224	1300.61
829.406	1247.52
829.587	1251.59
829.768	1259.92
829.949	1275.23
830.131	1287.63
830.312	1379.85
830.493	1303.71
830.674	1296.35
830.855	1276
831.036	1274.26
831.218	1346.72
831.399	1356.8
831.58	1314.56
831.761	1301.38
831.942	1305.45
832.123	1295.18
832.304	1260.31
832.485	1267.28
832.666	1268.25
832.847	1285.11
833.028	1290.34
833.209	1310.68
833.389	1256.82
833.57	1195.6
833.751	1260.7
833.932	1283.37
834.113	1273.87
834.294	1264.77
834.475	1280.65
834.655	1339.94
834.836	1342.85
835.017	1341.68
835.198	1237.83
835.378	1295.77
835.559	1351.37
835.74	1313.01
835.92	1313.98
836.101	1262.25
836.281	1332
836.462	1303.52
836.643	1331.8
836.823	1378.11
837.004	1355.44
837.184	1369
837.365	1345.95
837.545	1359.7
837.726	1332.38
837.906	1386.44
838.087	1344.78
838.267	1330.25
838.448	1276.97
838.628	1331.03
838.808	1324.05
838.989	1406.2
839.169	1273.68
839.349	1350.79
839.53	1371.52
839.71	1359.51
839.89	1327.73
840.07	1397.87
840.251	1339.36
840.431	1387.8
840.611	1335.68
840.791	1311.85
840.971	1358.35
841.151	1303.32
841.332	1314.17
841.512	1358.73
841.692	1270.97
841.872	1358.15
842.052	1307.78
842.232	1354.66
842.412	1287.63
842.592	1318.63
842.772	1333.16
842.952	1350.4
843.132	1319.98
843.312	1308.36
843.492	1258.57
843.672	1339.16
843.851	1233.38
844.031	1294.8
844.211	1310.3
844.391	1261.47
844.571	1296.54
844.751	1329.28
844.93	1317.66
845.11	1278.33
845.29	1290.15
845.47	1302.93
845.649	1313.59
845.829	1314.37
846.009	1269.03
846.188	1326.96
846.368	1303.32
846.547	1309.13
846.727	1344.2
846.907	1301.77
847.086	1297.32
847.266	1301.38
847.445	1291.7
847.625	1233.77
847.804	1243.84
847.984	1252.37
848.163	1239.19
848.343	1241.13
848.522	1274.84
848.701	1273.87
848.881	1232.8
849.06	1231.25
849.239	1278.13
849.419	1251.78
849.598	1201.41
849.777	1206.64
849.957	1201.99
850.136	1116.74
850.315	1104.34
850.494	1117.52
850.674	1158.59
850.853	1217.69
851.032	1193.47
851.211	1210.52
851.39	1162.27
851.569	1129.72
851.748	1151.62
851.927	1190.75
852.107	1133.21
852.286	1166.15
852.465	1120.42
852.644	1191.14
852.823	1169.05
853.002	1154.72
853.181	1153.75
853.359	1199.86
853.538	1124.3
853.717	1184.17
853.896	1084.19
854.075	1053.19
854.254	1012.7
854.433	957.29
854.611	1017.35
854.79	979.57
854.969	1032.46
855.148	1080.9
855.327	1000.3
855.505	1062.88
855.684	1059.97
855.863	1086.91
856.041	1024.71
856.22	1092.33
856.399	1051.26
856.577	1107.83
856.756	1114.42
856.934	1239.97
857.113	1218.27
857.291	1119.84
857.47	1060.17
857.648	1133.41
857.827	1137.28
858.005	1165.57
858.184	1141.93
858.362	1192.3
858.541	1128.76
858.719	1090.39
858.898	1095.24
859.076	1090.59
859.254	1187.27
859.433	1113.64
859.611	1073.92
859.789	1072.18
859.967	1143.09
860.146	1161.3
860.324	1042.15
860.502	1066.37
860.68	1029.36
860.859	1026.26
861.037	1076.25
861.215	1061.52
861.393	1074.7
861.571	1092.14
861.749	1067.34
861.927	1092.91
862.105	1108.41
862.283	1065.79
862.461	1054.16
862.639	1040.6
862.817	1034.59
862.995	1045.83
863.173	1025.1
863.351	1046.99
863.529	1090.59
863.707	1109.57
863.885	1071.99
864.063	995.46
864.241	996.23
864.418	1099.89
864.596	1040.41
864.774	977.44
864.952	1036.92
865.129	1065.01
865.307	1018.51
865.485	967.75
865.663	1048.35
865.84	948.76
866.018	995.65
866.196	856.15
866.373	904.2
866.551	873.98
866.728	797.83
866.906	879.21
867.084	901.49
867.261	911.56
867.439	942.76
867.616	972.79
867.794	943.15
867.971	945.08
868.149	948.57
868.326	1016.96
868.503	991.39
868.681	977.24
868.858	935.01
869.035	921.83
869.213	995.65
869.39	935.4
869.567	1041.76
869.745	949.15
869.922	976.66
870.099	958.84
870.276	958.45
870.454	984.03
870.631	991.19
870.808	980.73
870.985	981.31
871.162	1017.16
871.339	967.36
871.517	904.98
871.694	912.92
871.871	958.45
872.048	943.92
872.225	928.03
872.402	966.01
872.579	913.5
872.756	945.86
872.933	881.15
873.11	937.72
873.287	931.33
873.463	918.35
873.64	894.13
873.817	954
873.994	911.18
874.171	877.47
874.348	923.19
874.524	830.77
874.701	895.87
874.878	847.24
875.055	908.08
875.231	880.76
875.408	908.85
875.585	831.35
875.762	887.93
875.938	877.27
876.115	890.25
876.291	883.08
876.468	863.71
876.645	834.45
876.821	848.4
876.998	860.61
877.174	858.67
877.351	843.37
877.527	815.66
877.704	877.27
877.88	871.46
878.057	851.5
878.233	884.25
878.409	856.73
878.586	851.31
878.762	841.04
878.938	824.96
879.115	772.84
879.291	843.75
879.467	785.24
879.644	803.26
879.82	855.57
879.996	806.55
880.172	730.41
880.349	815.08
880.525	835.23
880.701	788.92
880.877	781.75
881.053	819.15
881.229	806.17
881.405	817.02
881.581	782.53
881.757	789.7
881.933	829.61
882.109	812.37
882.285	823.6
882.461	723.82
882.637	807.52
882.813	743.78
882.989	797.45
883.165	849.57
883.341	766.06
883.517	819.15
883.693	812.56
883.869	810.04
884.044	779.82
884.22	829.22
884.396	854.99
884.572	821.67
884.747	838.72
884.923	840.85
885.099	872.23
885.275	824.77
885.45	769.94
885.626	780.4
885.801	764.12
885.977	799.19
886.153	730.8
886.328	829.03
886.504	751.72
886.679	828.25
886.855	773.62
887.03	823.41
887.206	842.01
887.381	794.93
887.557	802.1
887.732	791.25
887.908	815.27
888.083	832.13
888.258	809.27
888.434	775.55
888.609	819.92
888.784	822.63
888.96	774.59
889.135	778.65
889.31	750.75
889.485	827.87
889.661	778.46
889.836	838.52
890.011	809.65
890.186	785.05
890.361	762.96
890.537	821.86
890.712	796.48
890.887	811.98
891.062	769.55
891.237	852.67
891.412	780.59
891.587	801.13
891.762	798.61
891.937	872.23
892.112	765.29
892.287	776.14
892.462	735.45
892.637	749.79
892.812	745.52
892.987	754.82
893.161	690.11
893.336	722.66
893.511	740.1
893.686	740.1
893.861	742.23
894.035	729.44
894.21	754.63
894.385	675
894.56	726.92
894.734	647.87
894.909	651.94
895.084	673.64
895.258	644.58
895.433	675.77
895.608	628.89
895.782	590.14
895.957	642.06
896.131	604.28
896.306	551.58
896.48	558.56
896.655	579.09
896.829	518.65
897.004	522.13
897.178	543.44
897.353	510.51
897.527	570.57
897.701	552.16
897.876	480.86
898.05	625.01
898.224	561.08
898.399	560.69
898.573	558.36
898.747	438.63
898.921	502.56
899.096	416.93
899.27	420.8
899.444	422.35
899.618	450.64
899.792	456.65
899.967	447.54
900.141	520.78
900.315	442.89
900.489	486.87
900.663	465.95
900.837	462.85
901.011	415.18
901.185	507.8
901.359	492.3
901.533	499.85
901.707	467.69
901.881	487.84
902.055	422.16
902.229	463.23
902.403	537.24
902.576	468.66
902.75	470.21
902.924	572.12
903.098	519.03
903.272	529.11
903.446	602.73
903.619	545.19
903.793	582.97
903.967	552.74
904.14	619.59
904.314	610.68
904.488	593.24
904.661	617.26
904.835	586.84
905.009	584.13
905.182	663.96
905.356	598.28
905.529	600.99
905.703	557.98
905.876	577.74
906.05	563.79
906.223	520.78
906.397	470.98
906.57	481.83
906.744	447.73
906.917	448.51
907.09	457.42
907.264	472.15
907.437	427
907.61	418.67
907.784	430.68
907.957	424.48
908.13	431.27
908.304	434.75
908.477	435.72
908.65	438.24
908.823	376.24
908.996	469.63
909.17	407.24
909.343	406.85
909.516	417.32
909.689	424.1
909.862	395.81
910.035	420.61
910.208	382.05
910.381	382.83
910.554	484.74
910.727	412.47
910.9	414.41
911.073	374.5
911.246	446.38
911.419	462.07
911.592	436.5
911.765	393.68
911.938	407.63
912.11	411.89
912.283	388.83
912.456	464.78
912.629	437.66
912.802	383.6
912.974	361.32
913.147	305.52
913.32	311.72
913.493	330.9
913.665	354.54
913.838	331.68
914.01	327.03
914.183	351.44
914.356	334.78
914.528	418.87
914.701	435.53
914.873	392.13
915.046	335.55
915.218	312.89
915.391	293.9
915.563	295.84
915.736	368.1
915.908	373.92
916.081	340.98
916.253	341.75
916.425	356.09
916.598	388.25
916.77	353.96
916.942	308.24
917.115	238.29
917.287	333.23
917.459	325.87
917.632	286.73
917.804	258.25
917.976	310.95
918.148	335.36
918.32	324.12
918.493	364.81
918.665	396.2
918.837	338.07
919.009	399.88
919.181	378.18
919.353	389.03
919.525	392.52
919.697	368.88
919.869	365.39
920.041	402.78
920.213	462.46
920.385	401.23
920.557	362.29
920.729	391.74
920.901	378.76
921.073	367.33
921.244	339.04
921.416	404.33
921.588	352.99
921.76	348.73
921.932	414.22
922.103	364.42
922.275	353.19
922.447	364.81
922.619	283.82
922.79	357.25
922.962	347.18
923.134	358.03
923.305	326.45
923.477	311.34
923.648	310.17
923.82	326.64
923.991	268.13
924.163	287.5
924.335	315.79
924.506	316.18
924.677	334.2
924.849	276.07
925.02	312.89
925.192	322.19
925.363	325.29
925.535	339.24
925.706	299.13
925.877	354.93
926.049	305.33
926.22	319.28
926.391	313.27
926.562	330.13
926.734	286.73
926.905	323.93
927.076	273.55
927.247	310.37
927.419	255.73
927.59	249.92
927.761	292.93
927.932	253.79
928.103	270.26
928.274	222.21
928.445	214.66
928.616	238.68
928.787	204.58
928.958	245.46
929.129	226.47
929.3	219.5
929.471	187.14
929.642	132.51
929.813	100.73
929.984	186.17
930.155	134.06
930.326	167.96
930.496	136.19
930.667	89.5
930.838	131.93
931.009	85.43
931.18	102.86
931.35	100.54
931.521	118.75
931.692	101.31
931.863	43
932.033	102.67
932.204	111.78
932.374	103.44
932.545	67.41
932.716	114.29
932.886	101.89
933.057	21.68
933.227	53.07
933.398	112.74
933.568	21.68
933.739	-4.28
933.909	-5.25
934.08	94.53
934.25	-2.15
934.421	0.57
934.591	33.5
934.761	43.19
934.932	-2.73
935.102	7.54
935.272	16.84
935.443	41.64
935.613	18.2
935.783	27.88
935.953	12.19
936.123	166.8
936.294	4.83
936.464	6.96
936.634	31.95
936.804	-6.41
936.974	-31.6
937.144	61.4
937.314	21.49
937.484	21.88
937.655	-6.22
937.825	71.48
937.995	-0.79
938.165	38.54
938.334	6.96
938.504	54.43
938.674	6.18
938.844	36.6
939.014	105.96
939.184	75.93
939.354	114.68
939.524	94.92
939.694	72.64
939.863	42.22
940.033	117.39
940.203	95.31
940.373	79.23
940.542	96.28
940.712	51.13
940.882	88.14
941.051	103.25
941.221	101.7
941.391	128.63
941.56	61.01
941.73	51.91
941.899	160.79
942.069	63.15
942.238	103.06
942.408	72.83
942.577	103.06
942.747	67.21
942.916	37.38
943.086	9.67
943.255	106.54
943.425	69.35
943.594	45.9
943.763	-37.8
943.933	6.57
944.102	-44.97
944.271	43.38
944.441	57.53
944.61	26.53
944.779	61.79
944.948	157.31
945.117	-11.25
945.287	37.38
945.456	-35.28
945.625	6.38
945.794	60.43
945.963	31.56
946.132	81.55
946.301	14.13
946.47	64.31
946.639	-2.73
946.808	7.15
946.977	55.78
947.146	72.83
947.315	34.47
947.484	71.28
947.653	28.85
947.822	46.1
947.991	18.2
948.16	110.03
948.329	112.74
948.498	51.13
948.666	48.42
948.835	68.18
949.004	-37.8
949.173	16.45
949.341	47.26
949.51	79.81
949.679	98.41
949.847	97.05
950.016	139.09
950.185	112.36
950.353	49.97
950.522	64.11
950.69	93.18
950.859	29.63
951.028	103.06
951.196	64.89
951.365	22.85
951.533	60.63
951.701	71.86
951.87	52.68
952.038	24.98
952.207	59.85
952.375	116.81
952.543	55.2
952.712	43.77
952.88	1.53
953.048	114.49
953.217	66.63
953.385	37.96
953.553	87.95
953.721	22.65
953.89	29.24
954.058	12.38
954.226	8.51
954.394	47.26
954.562	-0.4
954.73	41.45
954.898	32.34
955.067	91.05
955.235	43.38
955.403	72.25
955.571	102.86
955.739	62.56
955.907	-0.21
956.075	31.76
956.243	17.23
956.41	47.65
956.578	-7.38
956.746	1.34
956.914	27.69
957.082	66.05
957.25	44.55
957.418	32.15
957.585	56.56
957.753	90.46
957.921	31.37
958.089	55.4
958.256	55.2
958.424	59.46
958.592	44.16
958.759	37.76
958.927	69.15
959.095	44.35
959.262	38.73
959.43	38.73
959.597	14.51
959.765	48.81
959.932	-25.78
960.1	79.03
960.267	41.64
960.435	47.45
960.602	80.2
960.77	34.86
960.937	-6.6
961.104	77.1
961.272	14.71
961.439	36.41
961.606	78.45
961.774	76.13
961.941	42.03
962.108	93.37
962.275	43.96
962.443	88.14
962.61	55.2
962.777	104.61
962.944	87.56
963.111	75.55
963.278	47.45
963.446	71.09
963.613	46.48
963.78	82.52
963.947	87.56
964.114	56.75
964.281	132.7
964.448	57.33
964.615	39.12
964.782	44.74
964.949	105.19
965.116	79.23
965.282	109.26
965.449	49.2
965.616	20.13
965.783	90.66
965.95	66.05
966.117	9.86
966.283	65.86
966.45	67.8
966.617	63.53
966.784	81.36
966.95	87.56
967.117	75.93
967.284	35.05
967.45	32.53
967.617	134.44
967.784	70.12
967.95	117.39
968.117	48.23
968.283	108.48
968.45	165.64
968.616	100.34
968.783	125.53
968.949	64.7
969.116	128.63
969.282	60.82
969.449	61.79
969.615	64.7
969.781	36.41
969.948	76.9
970.114	24.01
970.28	130.96
970.447	49.78
970.613	126.11
970.779	84.65
970.945	89.11
971.112	71.48
971.278	62.18
971.444	76.71
971.61	102.09
971.776	61.98
971.942	82.33
972.108	93.76
972.275	79.81
972.441	59.85
972.607	131.34
972.773	41.64
972.939	105.96
973.105	43
973.271	34.28
973.437	56.75
973.602	54.43
973.768	88.53
973.934	48.23
974.1	71.48
974.266	-13.97
974.432	79.03
974.598	44.16
974.763	93.18
974.929	59.85
975.095	132.31
975.261	35.44
975.426	44.55
975.592	44.16
975.758	129.41
975.923	-0.98
976.089	35.83
976.255	89.69
976.42	64.31
976.586	79.61
976.751	76.9
976.917	142.78
977.082	98.21
977.248	6.57
977.413	-11.06
977.579	49
977.744	84.26
977.91	33.7
978.075	55.78
978.24	63.92
978.406	48.42
978.571	47.65
978.736	33.7
978.902	90.08
979.067	26.72
979.232	12.38
979.397	57.72
979.563	142.97
979.728	19.36
979.893	32.92
980.058	36.02
980.223	81.55
980.388	51.71
980.554	37.18
980.719	54.81
980.884	81.36
981.049	98.99
981.214	40.09
981.379	76.32
981.544	51.52
981.709	60.05
981.874	49.2
982.039	45.51
982.204	102.86
982.368	51.71
982.533	35.25
982.698	97.44
982.863	107.51
983.028	50.36
983.193	86.98
983.357	93.56
983.522	89.69
983.687	50.16
983.852	60.43
984.016	31.76
984.181	62.56
984.346	60.63
984.51	95.31
984.675	46.48
984.839	72.64
985.004	59.85
985.168	92.98
985.333	81.75
985.498	50.16
985.662	59.27
985.827	61.6
985.991	51.13
986.155	37.96
986.32	94.34
986.484	107.9
986.649	86.98
986.813	-0.21
986.977	63.34
987.142	61.21
987.306	27.3
987.47	31.76
987.634	51.13
987.799	56.75
987.963	48.42
988.127	89.3
988.291	137.93
988.455	42.8
988.62	16.65
988.784	59.08
988.948	89.11
989.112	50.16
989.276	90.85
989.44	49.78
989.604	27.88
989.768	45.9
989.932	117.78
990.096	13.55
990.26	19.75
990.424	7.93
990.588	18
990.752	89.88
990.915	76.13
991.079	16.26
991.243	36.21
991.407	70.31
991.571	41.64
991.734	63.15
991.898	67.02
992.062	148.39
992.226	49.97
992.389	40.67
992.553	45.32
992.717	30.21
992.88	30.79
993.044	57.33
993.207	49.58
993.371	45.9
993.535	72.06
993.698	49
993.862	83.3
994.025	107.71
994.189	61.21
994.352	54.04
994.515	74.96
994.679	105.77
994.842	35.25
995.006	90.85
995.169	25.56
995.332	18.58
995.496	82.52
995.659	2.31
995.822	54.81
995.985	37.76
996.149	95.5
996.312	50.55
996.475	107.71
996.638	45.13
996.801	120.3
996.964	109.06
997.128	61.01
997.291	41.06
997.454	37.57
997.617	-1.76
997.78	67.02
997.943	39.12
998.106	89.88
998.269	33.89
998.432	39.51
998.595	52.1
998.758	-10.28
998.92	6.77
999.083	-31.4
999.246	32.34
999.409	-12.03
999.572	-21.72
999.735	8.9
999.897	43.96
1000.06	31.37
1000.223	16.06
1000.386	70.31
1000.548	65.86
1000.711	61.79
1000.874	39.51
1001.036	2.7
1001.199	86.2
1001.361	18.39
1001.524	16.84
1001.687	97.24
1001.849	13.93
1002.012	40.09
1002.174	55.01
1002.337	71.86
1002.499	30.21
1002.661	61.98
1002.824	-1.37
1002.986	29.43
1003.149	45.9
1003.311	10.06
1003.473	100.73
1003.636	8.31
1003.798	52.3
1003.96	66.05
1004.123	32.34
1004.285	28.08
1004.447	61.98
1004.609	44.74
1004.771	93.18
1004.933	-0.79
1005.096	11.61
1005.258	-8.93
1005.42	30.21
1005.582	66.44
1005.744	37.76
1005.906	1.53
1006.068	32.15
1006.23	-10.67
1006.392	-18.03
1006.554	-6.02
1006.716	72.06
1006.878	56.17
1007.04	-21.13
1007.202	-2.92
1007.363	54.81
1007.525	25.17
1007.687	56.75
1007.849	67.8
1008.011	-15.13
1008.172	2.12
1008.334	8.31
1008.496	47.45
1008.658	-32.18
1008.819	7.35
1008.981	-6.02
1009.143	-14.35
1009.304	-12.42
1009.466	46.68
1009.627	86.78
1009.789	124.56
1009.95	27.11
1010.112	37.18
1010.273	46.1
1010.435	9.28
1010.596	11.8
1010.758	2.7
1010.919	24.4
1011.081	-16.68
1011.242	28.85
1011.403	49.58
1011.565	20.71
1011.726	34.66
1011.887	-28.69
1012.049	39.51
1012.21	41.06
1012.371	97.24
1012.532	-42.83
1012.693	29.24
1012.855	-18.81
1013.016	5.22
1013.177	59.85
1013.338	-2.34
1013.499	94.92
1013.66	36.99
1013.821	41.45
1013.982	16.45
1014.143	33.31
1014.304	25.36
1014.465	56.36
1014.626	42.61
1014.787	35.63
1014.948	115.26
1015.109	-67.83
1015.27	49
1015.431	5.6
1015.592	-28.3
1015.752	87.17
1015.913	38.15
1016.074	25.56
1016.235	18.97
1016.395	9.67
1016.556	-3.31
1016.717	16.84
1016.877	52.3
1017.038	-14.74
1017.199	13.74
1017.359	23.04
1017.52	-12.03
1017.681	10.45
1017.841	24.78
1018.002	-29.27
1018.162	-3.31
1018.323	71.28
1018.483	30.4
1018.644	27.3
1018.804	-18.62
1018.964	-16.87
1019.125	-13.77
1019.285	31.76
1019.446	-15.32
1019.606	-3.31
1019.766	-59.88
1019.926	32.15
1020.087	41.45
1020.247	-42.25
1020.407	66.05
1020.567	32.92
1020.728	0.95
1020.888	-30.24
1021.048	-4.86
1021.208	3.08
1021.368	-3.89
1021.528	53.85
1021.688	56.56
1021.848	33.5
1022.008	23.81
1022.168	1.73
1022.328	7.93
1022.488	12.96
1022.648	12.96
1022.808	4.83
1022.968	2.5
1023.128	4.83
1023.288	-14.35
1023.448	14.32
1023.608	22.46
1023.767	37.57
1023.927	-24.82
1024.087	-27.33
1024.247	-12.03
1024.406	-2.73
1024.566	-27.14
1024.726	-36.44
1024.885	30.4
1025.045	32.15
1025.205	24.59
1025.364	-3.89
1025.524	35.25
1025.683	-11.64
1025.843	14.9
1026.003	5.22
1026.162	51.33
1026.321	50.94
1026.481	41.25
1026.64	3.67
1026.8	5.41
1026.959	12.77
1027.119	5.8
1027.278	5.22
1027.437	-17.65
1027.597	1.92
1027.756	3.67
1027.915	17.23
1028.074	24.01
1028.234	-9.51
1028.393	36.02
1028.552	10.25
1028.711	-71.7
1028.87	43.77
1029.03	-39.73
1029.189	6.18
1029.348	-44.97
1029.507	0.76
1029.666	-1.57
1029.825	-30.43
1029.984	-17.26
1030.143	-3.31
1030.302	2.31
1030.461	-41.87
1030.62	-8.93
1030.779	26.33
1030.938	-21.72
1031.097	-32.37
1031.255	56.36
1031.414	48.61
1031.573	30.79
1031.732	-38.18
1031.891	-11.64
1032.049	37.18
1032.208	27.88
1032.367	-16.1
1032.525	21.1
1032.684	-4.86
1032.843	-8.73
1033.001	-48.45
1033.16	146.65
1033.319	25.95
1033.477	25.95
1033.636	-5.83
1033.794	-47.29
1033.953	46.87
1034.111	14.71
1034.27	7.54
1034.428	20.71
1034.587	-37.6
1034.745	19.75
1034.903	-12.42
1035.062	14.9
1035.22	-52.91
1035.378	42.22
1035.537	-20.55
1035.695	9.28
1035.853	11.61
1036.011	36.02
1036.17	14.71
1036.328	-57.95
1036.486	1.15
1036.644	5.99
1036.802	-62.79
1036.96	7.93
1037.119	6.96
1037.277	-26.56
1037.435	-44
1037.593	-4.86
1037.751	-10.09
1037.909	16.26
1038.067	16.26
