Data from pine_FLMT105791__33__17-20-07-079.txt Node

Date: Mon Mar 20 17:20:07 GMT 2023
User: antho
Spectrometer: FLMT10579
Trigger mode: 0
Integration Time (sec): 1.000000E-1
Scans to average: 10
Electric dark correction enabled: true
Nonlinearity correction enabled: false
Boxcar width: 0
XAxis mode: Wavelengths
Number of Pixels in Spectrum: 3648
>>>>>Begin Spectral Data<<<<<
345.248	-148.14
345.464	-148.14
345.681	-148.14
345.898	-192.31
346.114	-134.57
346.331	-45.84
346.548	20.42
346.764	11.32
346.981	6.09
347.197	-4.57
347.414	36.89
347.631	-13.29
347.847	52
348.064	-12.13
348.28	18.49
348.497	-56.69
348.713	-12.71
348.93	32.82
349.146	31.27
349.363	8.8
349.579	16.16
349.796	10.74
350.012	-31.31
350.229	34.76
350.445	6.47
350.661	-26.46
350.878	19.84
351.094	15.58
351.311	24.49
351.527	14.22
351.743	-8.83
351.96	21.59
352.176	40.77
352.392	30.31
352.609	49.29
352.825	20.04
353.041	19.84
353.257	11.12
353.474	2.6
353.69	19.07
353.906	2.79
354.122	-21.81
354.339	41.16
354.555	-4.96
354.771	-14.84
354.987	58.59
355.203	35.34
355.42	-3.99
355.636	-20.26
355.852	-12.51
356.068	2.21
356.284	-33.83
356.5	36.51
356.716	12.29
356.932	-5.54
357.148	22.17
357.364	11.51
357.58	28.95
357.796	56.65
358.012	54.91
358.228	16.74
358.444	-71.22
358.66	47.16
358.876	12.48
359.092	0.08
359.308	8.61
359.524	32.63
359.74	4.34
359.956	-9.99
360.172	23.72
360.388	45.61
360.604	-7.48
360.819	80.29
361.035	-13.48
361.251	44.06
361.467	-23.94
361.683	39.61
361.898	28.76
362.114	27.98
362.33	15.19
362.546	31.47
362.762	14.81
362.977	2.99
363.193	-13.09
363.409	66.73
363.624	-12.32
363.84	-15.42
364.056	0.27
364.271	19.07
364.487	50.84
364.703	-21.62
364.918	-3.02
365.134	-9.03
365.35	3.37
365.565	114.39
365.781	15.77
365.996	10.54
366.212	89.59
366.427	23.72
366.643	-5.15
366.858	1.24
367.074	-33.24
367.289	51.23
367.505	120.2
367.72	-52.04
367.936	6.67
368.151	54.72
368.367	31.27
368.582	26.04
368.798	-2.83
369.013	43.87
369.228	27.21
369.444	9.57
369.659	75.64
369.874	25.85
370.09	65.37
370.305	-40.61
370.52	-19.29
370.736	52.59
370.951	13.64
371.166	62.27
371.381	76.61
371.597	35.73
371.812	-8.83
372.027	6.86
372.242	3.96
372.458	87.85
372.673	20.23
372.888	-4.57
373.103	57.04
373.318	108.58
373.533	73.12
373.749	57.62
373.964	-20.07
374.179	55.49
374.394	-18.52
374.609	72.74
374.824	-14.26
375.039	66.34
375.254	-10.19
375.469	58.2
375.684	17.13
375.899	29.34
376.114	20.23
376.329	24.49
376.544	51.81
376.759	55.1
376.974	-8.44
377.189	6.09
377.404	-14.84
377.619	62.08
377.834	-53.97
378.049	-18.52
378.264	-33.44
378.478	23.91
378.693	0.08
378.908	55.3
379.123	34.76
379.338	75.06
379.553	22.94
379.767	34.57
379.982	39.99
380.197	46.58
380.412	26.43
380.626	35.34
380.841	89.59
381.056	36.51
381.271	60.92
381.485	13.64
381.7	8.22
381.915	7.44
382.129	2.21
382.344	28.76
382.559	20.62
382.773	63.05
382.988	-52.04
383.202	48.52
383.417	-16.58
383.632	99.67
383.846	32.63
384.061	42.51
384.275	40.19
384.49	35.54
384.704	36.7
384.919	15.58
385.133	1.24
385.348	55.1
385.562	-15.03
385.777	81.07
385.991	6.28
386.206	32.63
386.42	14.42
386.634	61.3
386.849	13.06
387.063	24.49
387.277	-8.83
387.492	1.63
387.706	-9.8
387.92	-9.99
388.135	56.85
388.349	40.96
388.563	25.66
388.778	28.95
388.992	35.92
389.206	42.9
389.42	93.08
389.635	41.74
389.849	33.21
390.063	79.32
390.277	56.65
390.491	81.84
390.706	42.32
390.92	41.93
391.134	42.71
391.348	56.65
391.562	-41.96
391.776	9.38
391.99	19.46
392.205	62.27
392.419	3.76
392.633	10.16
392.847	92.11
393.061	-4.57
393.275	97.34
393.489	26.04
393.703	37.28
393.917	57.62
394.131	26.24
394.345	43.87
394.559	64.79
394.773	42.12
394.986	53.75
395.2	28.95
395.414	69.25
395.628	-3.79
395.842	52.78
396.056	23.72
396.27	-22.59
396.484	38.83
396.697	33.02
396.911	83.39
397.125	56.07
397.339	88.82
397.553	39.99
397.766	97.54
397.98	55.88
398.194	77.39
398.408	21.78
398.621	43.29
398.835	71.57
399.049	52
399.262	76.22
399.476	84.17
399.69	89.4
399.903	104.51
400.117	24.88
400.331	54.52
400.544	6.47
400.758	144.03
400.971	60.34
401.185	70.6
401.398	17.13
401.612	87.85
401.826	56.85
402.039	54.72
402.253	30.69
402.466	71.77
402.68	51.62
402.893	66.92
403.106	49.87
403.32	61.5
403.533	71.77
403.747	61.3
403.96	93.47
404.174	55.69
404.387	8.8
404.6	67.5
404.814	110.13
405.027	83
405.24	61.69
405.454	43.29
405.667	92.69
405.88	14.61
406.094	71.96
406.307	97.34
406.52	73.12
406.733	24.11
406.947	12.67
407.16	114.2
407.373	105.87
407.586	11.12
407.799	21.2
408.012	77
408.226	55.69
408.439	120.79
408.652	-11.35
408.865	89.4
409.078	82.42
409.291	81.07
409.504	7.64
409.717	75.45
409.93	63.63
410.143	70.41
410.357	15.97
410.57	23.14
410.783	49.29
410.996	81.07
411.209	64.4
411.421	94.44
411.634	67.7
411.847	5.51
412.06	54.72
412.273	52.39
412.486	66.73
412.699	147.13
412.912	53.94
413.125	86.49
413.338	72.15
413.55	97.34
413.763	83.78
413.976	80.49
414.189	54.33
414.402	50.46
414.615	112.07
414.827	6.28
415.04	92.11
415.253	82.42
415.466	111.1
415.678	130.28
415.891	71.19
416.104	74.29
416.316	66.54
416.529	58.98
416.742	83.97
416.954	105.67
417.167	73.32
417.38	43.29
417.592	106.25
417.805	29.14
418.017	0.66
418.23	88.82
418.442	41.54
418.655	64.6
418.868	83.39
419.08	109.74
419.293	108.77
419.505	81.84
419.718	87.85
419.93	116.91
420.142	47.55
420.355	101.41
420.567	154.3
420.78	91.92
420.992	97.15
421.205	148.3
421.417	48.91
421.629	59.75
421.842	30.31
422.054	11.32
422.266	105.67
422.479	126.4
422.691	37.28
422.903	103.54
423.115	78.74
423.328	114
423.54	84.55
423.752	71.77
423.964	52.78
424.177	93.08
424.389	82.42
424.601	173.29
424.813	86.69
425.025	117.1
425.238	121.95
425.45	90.56
425.662	76.8
425.874	379.24
426.086	76.03
426.298	128.15
426.51	95.21
426.722	98.89
426.934	84.75
427.146	133.38
427.358	64.79
427.57	128.92
427.782	119.43
427.994	81.84
428.206	65.57
428.418	29.92
428.63	117.49
428.842	102.77
429.054	97.54
429.266	134.15
429.478	61.11
429.69	91.34
429.902	70.02
430.114	112.84
430.325	101.6
430.537	77.97
430.749	114.2
430.961	44.45
431.173	74.48
431.384	103.15
431.596	20.23
431.808	70.41
432.02	91.14
432.231	146.17
432.443	152.37
432.655	104.32
432.867	78.55
433.078	138.8
433.29	143.84
433.502	138.8
433.713	161.86
433.925	140.35
434.136	151.01
434.348	100.44
434.56	75.06
434.771	201.38
434.983	62.66
435.194	109.94
435.406	89.01
435.617	165.73
435.829	180.27
436.04	159.92
436.252	163.41
436.463	181.62
436.675	186.85
436.886	126.4
437.098	156.82
437.309	204.29
437.521	138.61
437.732	172.52
437.943	157.4
438.155	156.05
438.366	99.47
438.578	190.73
438.789	147.52
439	140.16
439.211	116.52
439.423	157.79
439.634	179.68
439.845	165.15
440.057	154.69
440.268	205.84
440.479	114.2
440.69	146.94
440.902	136.87
441.113	145.2
441.324	171.93
441.535	176.2
441.746	202.74
441.957	142.68
442.168	151.01
442.38	178.91
442.591	198.87
442.802	139.97
443.013	148.68
443.224	178.33
443.435	163.22
443.646	158.57
443.857	151.78
444.068	156.05
444.279	147.33
444.49	247.11
444.701	179.1
444.912	284.7
445.123	180.07
445.334	217.85
445.545	207
445.756	177.94
445.967	159.53
446.178	197.51
446.388	228.51
446.599	212.23
446.81	231.8
447.021	178.91
447.232	243.81
447.443	254.86
447.653	174.84
447.864	212.04
448.075	195.77
448.286	219.21
448.496	242.85
448.707	211.85
448.918	189.18
449.129	294.19
449.339	163.8
449.55	254.47
449.761	193.44
449.971	271.33
450.182	204.1
450.393	235.87
450.603	223.08
450.814	244.78
451.024	224.25
451.235	243.43
451.446	284.31
451.656	294.96
451.867	194.41
452.077	235.1
452.288	288.57
452.498	273.65
452.709	225.8
452.919	248.66
453.13	194.02
453.34	262.22
453.55	175.03
453.761	233.55
453.971	256.21
454.182	268.81
454.392	251.18
454.602	283.15
454.813	255.44
455.023	279.66
455.233	195.57
455.444	228.31
455.654	205.07
455.864	233.16
456.075	232.19
456.285	226.96
456.495	261.83
456.705	251.18
456.916	281.6
457.126	309.88
457.336	262.8
457.546	174.84
457.756	212.62
457.967	303.1
458.177	247.69
458.387	264.35
458.597	238.58
458.807	260.86
459.017	218.43
459.227	242.85
459.437	232.38
459.647	292.06
459.857	272.1
460.068	246.14
460.278	314.14
460.488	270.55
460.698	305.81
460.908	262.22
461.117	218.24
461.327	237.23
461.537	254.66
461.747	268.23
461.957	253.89
462.167	368.39
462.377	312.79
462.587	266.68
462.797	295.35
463.007	280.05
463.216	285.08
463.426	306.98
463.636	328.48
463.846	228.31
464.056	250.21
464.265	310.85
464.475	264.55
464.685	305.62
464.895	305.04
465.104	280.24
465.314	323.25
465.524	275.59
465.733	255.44
465.943	360.45
466.153	356.38
466.362	299.61
466.572	307.36
466.782	238.97
466.991	305.81
467.201	372.46
467.41	244.78
467.62	278.88
467.829	289.73
468.039	349.21
468.249	272.1
468.458	289.73
468.668	311.43
468.877	334.29
469.086	359.09
469.296	339.53
469.505	311.24
469.715	365.68
469.924	339.72
470.134	376.34
470.343	375.95
470.552	310.46
470.762	300.97
470.971	286.05
471.18	302.71
471.39	344.95
471.599	340.69
471.808	338.36
472.018	288.76
472.227	378.47
472.436	388.16
472.645	329.26
472.855	338.56
473.064	375.18
473.273	366.84
473.482	374.59
473.691	401.52
473.901	401.72
474.11	337.01
474.319	427.87
474.528	358.32
474.737	419.74
474.946	414.89
475.155	373.82
475.364	397.07
475.573	380.6
475.783	360.84
475.992	424.58
476.201	418.19
476.41	380.99
476.619	349.21
476.828	388.16
477.037	360.26
477.245	385.06
477.454	441.05
477.663	398.23
477.872	408.89
478.081	471.27
478.29	366.26
478.499	465.46
478.708	419.35
478.917	493.75
479.125	433.69
479.334	440.47
479.543	394.36
479.752	434.46
479.961	445.51
480.169	468.76
480.378	429.62
480.587	539.09
480.796	460.04
481.004	457.71
481.213	486.19
481.422	461.78
481.63	459.84
481.839	493.94
482.048	507.89
482.256	485.22
482.465	498.59
482.674	476.7
482.882	528.04
483.091	577.83
483.299	525.14
483.508	529.4
483.716	509.25
483.925	536.57
484.134	470.31
484.342	524.36
484.551	548
484.759	543.35
484.967	509.05
485.176	545.48
485.384	541.6
485.593	543.93
485.801	539.67
486.01	505.95
486.218	495.1
486.426	465.46
486.635	483.29
486.843	490.45
487.051	517.77
487.26	480.38
487.468	513.7
487.676	515.25
487.885	498.79
488.093	521.07
488.301	551.1
488.509	545.48
488.717	555.17
488.926	548.77
489.134	543.93
489.342	550.13
489.55	518.74
489.758	547.8
489.967	519.52
490.175	657.27
490.383	559.24
490.591	620.07
490.799	533.66
491.007	626.47
491.215	593.14
491.423	570.86
491.631	566.21
491.839	603.99
492.047	611.93
492.255	548.58
492.463	523
492.671	564.66
492.879	644.68
493.087	569.89
493.295	626.27
493.503	621.23
493.711	649.91
493.919	657.27
494.127	640.03
494.334	672.77
494.542	577.06
494.75	638.48
494.958	623.75
495.166	678.78
495.374	661.15
495.581	653.98
495.789	642.74
495.997	737.1
496.205	636.54
496.412	629.37
496.62	641
496.828	662.12
497.035	655.72
497.243	683.23
497.451	627.43
497.658	706.1
497.866	652.23
498.074	715.2
498.281	639.64
498.489	769.26
498.696	662.89
498.904	645.65
499.112	648.36
499.319	726.63
499.527	667.93
499.734	725.28
499.942	634.99
500.149	649.91
500.357	697.57
500.564	624.72
500.771	696.41
500.979	658.24
501.186	661.15
501.394	688.27
501.601	703
501.808	702.61
502.016	681.88
502.223	658.43
502.43	690.21
502.638	680.33
502.845	650.1
503.052	768.09
503.26	658.82
503.467	797.74
503.674	694.08
503.881	743.1
504.089	778.36
504.296	759.38
504.503	688.85
504.71	719.46
504.917	678.39
505.125	723.34
505.332	741.75
505.539	767.13
505.746	814.21
505.953	794.83
506.16	767.13
506.367	799.09
506.574	826.03
506.781	808.39
506.988	731.28
507.195	787.86
507.402	765.19
507.609	804.91
507.816	708.61
508.023	766.54
508.23	746.4
508.437	716.75
508.644	796.38
508.851	853.54
509.058	829.71
509.265	791.34
509.472	804.52
509.679	889.77
509.885	818.28
510.092	842.11
510.299	807.04
510.506	812.27
510.713	844.43
510.92	813.82
511.126	794.25
511.333	870.97
511.54	845.98
511.746	928.32
511.953	867.87
512.16	918.44
512.367	810.91
512.573	836.1
512.78	848.69
512.987	842.49
513.193	835.52
513.4	799.68
513.606	813.63
513.813	875.43
514.02	864
514.226	960.29
514.433	901.97
514.639	803.36
514.846	865.94
515.052	831.45
515.259	858.77
515.465	897.32
515.672	858.19
515.878	927.94
516.085	869.23
516.291	923.87
516.497	844.04
516.704	867.68
516.91	830.87
517.117	816.53
517.323	776.62
517.529	812.08
517.736	790.76
517.942	825.25
518.148	810.91
518.354	861.48
518.561	889.77
518.767	865.55
518.973	882.6
519.179	895.39
519.386	853.15
519.592	878.14
519.798	880.47
520.004	954.09
520.21	903.72
520.417	944.6
520.623	957.39
520.829	986.45
521.035	955.06
521.241	978.89
521.447	996.33
521.653	1082.74
521.859	985.09
522.065	1008.92
522.271	1106.57
522.477	1059.3
522.683	1022.29
522.889	1020.55
523.095	1025.2
523.301	1009.12
523.507	986.84
523.713	1033.72
523.919	1008.73
524.125	1079.06
524.331	1022.48
524.537	1100.76
524.742	1097.08
524.948	1080.22
525.154	1111.61
525.36	1217.01
525.566	1127.3
525.772	1130.21
525.977	1078.28
526.183	1091.07
526.389	1111.8
526.595	1072.47
526.8	1074.41
527.006	1054.26
527.212	1018.61
527.417	995.55
527.623	976.18
527.829	1073.83
528.034	1067.24
528.24	1083.52
528.446	1060.65
528.651	1131.18
528.857	1138.15
529.062	1189.11
529.268	1138.35
529.473	1143.96
529.679	1130.01
529.884	1237.93
530.09	1173.61
530.295	1220.3
530.501	1200.54
530.706	1201.89
530.912	1129.82
531.117	1197.83
531.323	1222.63
531.528	1227.08
531.733	1221.85
531.939	1182.13
532.144	1223.59
532.35	1204.61
532.555	1246.26
532.76	1220.69
532.966	1226.89
533.171	1219.53
533.376	1131.95
533.581	1127.88
533.787	1179.42
533.992	1215.26
534.197	1279.01
534.402	1171.48
534.607	1225.14
534.813	1288.89
535.018	1199.18
535.223	1230.38
535.428	1236.38
535.633	1325.7
535.838	1301.48
536.043	1240.06
536.249	1342.75
536.454	1250.72
536.659	1316.01
536.864	1253.82
537.069	1251.88
537.274	1262.34
537.479	1264.67
537.684	1277.26
537.889	1230.76
538.094	1356.12
538.299	1311.17
538.504	1301.29
538.708	1283.46
538.913	1299.93
539.118	1289.86
539.323	1290.24
539.528	1277.46
539.733	1279.01
539.938	1272.03
540.142	1318.14
540.347	1285.59
540.552	1267.38
540.757	1272.23
540.962	1264.48
541.166	1239.29
541.371	1218.94
541.576	1255.18
541.781	1176.32
541.985	1296.64
542.19	1280.56
542.395	1330.93
542.599	1368.71
542.804	1310.78
543.008	1355.15
543.213	1280.94
543.418	1257.89
543.622	1314.27
543.827	1290.63
544.031	1325.31
544.236	1366.39
544.44	1301.29
544.645	1389.25
544.849	1319.11
545.054	1362.12
545.258	1442.14
545.463	1394.48
545.667	1311.94
545.872	1349.92
546.076	1317.56
546.281	1355.73
546.485	1334.81
546.689	1358.83
546.894	1366
547.098	1339.65
547.302	1317.95
547.507	1339.46
547.711	1373.94
547.915	1418.5
548.119	1317.37
548.324	1350.89
548.528	1417.92
548.732	1367.35
548.936	1406.88
549.141	1406.69
549.345	1347.01
549.549	1368.32
549.753	1371.23
549.957	1470.43
550.161	1435.55
550.366	1366
550.57	1327.06
550.774	1394.29
550.978	1358.64
551.182	1382.85
551.386	1381.69
551.59	1376.27
551.794	1379.37
551.998	1379.75
552.202	1349.53
552.406	1377.43
552.61	1402.81
552.814	1386.73
553.018	1424.7
553.222	1369.49
553.426	1361.54
553.63	1460.55
553.833	1367.74
554.037	1326.67
554.241	1404.17
554.445	1389.83
554.649	1381.3
554.853	1372.39
555.056	1419.47
555.26	1417.73
555.464	1395.45
555.668	1403.59
555.871	1429.35
556.075	1424.32
556.279	1370.65
556.483	1364.45
556.686	1387.31
556.89	1371.42
557.094	1411.14
557.297	1327.64
557.501	1412.89
557.704	1282.3
557.908	1379.56
558.112	1341.01
558.315	1440.2
558.519	1336.94
558.722	1377.82
558.926	1321.44
559.129	1271.06
559.333	1258.28
559.536	1282.11
559.74	1242
559.943	1258.08
560.147	1257.89
560.35	1302.45
560.553	1282.88
560.757	1247.43
560.96	1351.08
561.164	1284.43
561.367	1386.15
561.57	1306.91
561.774	1330.35
561.977	1310.59
562.18	1291.41
562.384	1371.04
562.587	1307.29
562.79	1302.26
562.993	1284.62
563.197	1335
563.4	1351.08
563.603	1342.75
563.806	1391.77
564.009	1277.84
564.212	1332.67
564.416	1254.98
564.619	1296.06
564.822	1245.1
565.025	1330.74
565.228	1288.89
565.431	1306.52
565.634	1183.49
565.837	1238.13
566.04	1218.75
566.243	1204.61
566.446	1148.23
566.649	1286.56
566.852	1194.73
567.055	1227.86
567.258	1250.91
567.461	1284.62
567.664	1290.24
567.867	1181.94
568.07	1259.83
568.273	1230.57
568.475	1259.05
568.678	1205.58
568.881	1204.03
569.084	1214.1
569.287	1116.84
569.489	1180.58
569.692	1233.67
569.895	1212.74
570.098	1149.78
570.3	1166.05
570.503	1113.93
570.706	1140.28
570.909	1095.92
571.111	1093.98
571.314	1130.6
571.516	1115.1
571.719	1141.25
571.922	1122.26
572.124	1115.29
572.327	1135.05
572.529	1052.13
572.732	1089.33
572.935	1152.49
573.137	1212.55
573.34	1135.25
573.542	1155.2
573.745	1119.16
573.947	1137.57
574.15	1115.1
574.352	1086.81
574.554	1168.18
574.757	1101.92
574.959	1073.44
575.162	1063.56
575.364	1062.2
575.566	1159.66
575.769	1074.22
575.971	1096.5
576.173	986.64
576.376	1085.26
576.578	1091.07
576.78	1171.86
576.982	1006.4
577.185	1065.69
577.387	1037.02
577.589	1036.24
577.791	1103.47
577.993	1083.13
578.196	1076.54
578.398	1092.04
578.6	1093.78
578.802	990.71
579.004	1040.5
579.206	1021.52
579.408	1075.96
579.61	1014.54
579.812	1061.23
580.014	1042.25
580.216	1046.12
580.418	1034.5
580.62	1031.01
580.822	965.91
581.024	1056.39
581.226	1079.64
581.428	1016.28
581.63	1132.53
581.832	1028.88
582.034	1112.19
582.236	1041.47
582.438	1070.34
582.64	1099.79
582.841	1114.32
583.043	1137.57
583.245	1089.52
583.447	1064.53
583.649	1043.41
583.85	1104.83
584.052	1112.58
584.254	1019
584.456	1087.78
584.657	1017.83
584.859	1069.18
585.061	1049.03
585.262	1040.5
585.464	1011.64
585.666	1085.65
585.867	1040.5
586.069	1093.78
586.27	1066.85
586.472	1057.75
586.674	991.68
586.875	1028.49
587.077	1028.1
587.278	1076.54
587.48	991.49
587.681	1158.5
587.883	1045.35
588.084	979.28
588.285	1003.11
588.487	996.72
588.688	1023.07
588.89	963
589.091	957.77
589.292	965.14
589.494	923.09
589.695	907.79
589.896	824.86
590.098	844.62
590.299	941.3
590.5	866.91
590.702	902.75
590.903	882.6
591.104	988
591.305	956.42
591.507	993.42
591.708	951.38
591.909	891.51
592.11	1018.22
592.311	976.76
592.512	931.81
592.714	912.63
592.915	937.24
593.116	906.43
593.317	956.22
593.518	920.57
593.719	962.42
593.92	976.95
594.121	1013.77
594.322	945.57
594.523	958.16
594.724	886.86
594.925	910.11
595.126	954.09
595.327	1000.4
595.528	964.36
595.729	955.45
595.929	920.38
596.13	957.39
596.331	941.5
596.532	970.75
596.733	1017.45
596.934	988.58
597.135	980.25
597.335	970.75
597.536	930.26
597.737	951.96
597.938	930.84
598.138	970.56
598.339	973.66
598.54	979.09
598.74	944.6
598.941	958.55
599.142	1013.57
599.342	952.74
599.543	896.94
599.744	919.99
599.944	933.17
600.145	949.25
600.345	967.85
600.546	1027.33
600.746	973.47
600.947	1035.08
601.147	957.97
601.348	1032.95
601.548	938.4
601.749	961.26
601.949	915.54
602.15	901.39
602.35	957.19
602.551	992.45
602.751	899.46
602.951	957.39
603.152	877.76
603.352	987.03
603.552	951.77
603.753	989.74
603.953	993.62
604.153	962.42
604.354	917.47
604.554	950.99
604.754	929.1
604.954	926.19
605.155	970.95
605.355	914.76
605.555	1003.3
605.755	990.32
605.955	936.85
606.155	969.01
606.356	962.23
606.556	982.57
606.756	974.82
606.956	902.75
607.156	1002.14
607.356	896.94
607.556	942.47
607.756	947.5
607.956	970.95
608.156	940.14
608.356	889.77
608.556	950.02
608.756	919.02
608.956	892.48
609.156	916.12
609.356	879.11
609.556	901.59
609.755	942.47
609.955	872.72
610.155	902.94
610.355	907.21
610.555	871.75
610.755	898.1
610.954	844.82
611.154	913.41
611.354	935.3
611.554	879.5
611.753	889.77
611.953	829.51
612.153	948.67
612.352	880.47
612.552	854.89
612.752	820.02
612.951	862.26
613.151	868.65
613.351	857.99
613.55	866.71
613.75	882.41
613.949	866.71
614.149	871.17
614.348	880.66
614.548	834.16
614.747	806.07
614.947	857.02
615.146	797.35
615.346	888.61
615.545	876.79
615.745	859.54
615.944	900.04
616.144	869.23
616.343	872.33
616.542	839.97
616.742	829.32
616.941	848.89
617.14	790.18
617.34	841.72
617.539	807.81
617.738	804.52
617.938	883.37
618.137	836.1
618.336	784.56
618.535	814.01
618.734	843.85
618.934	839.01
619.133	806.46
619.332	837.07
619.531	819.24
619.73	816.92
619.929	879.69
620.128	853.92
620.328	902.75
620.527	797.35
620.726	845.98
620.925	837.07
621.124	826.22
621.323	836.88
621.522	795.03
621.721	793.28
621.92	793.67
622.119	824.67
622.318	796.58
622.517	786.31
622.715	776.04
622.914	763.06
623.113	776.62
623.312	755.11
623.511	814.79
623.71	779.14
623.909	778.17
624.107	847.53
624.306	742.13
624.505	777.59
624.704	764.41
624.902	766.74
625.101	853.92
625.3	786.11
625.499	773.33
625.697	769.06
625.896	738.45
626.095	793.28
626.293	737.29
626.492	761.7
626.69	769.06
626.889	750.66
627.088	791.54
627.286	725.28
627.485	745.62
627.683	750.66
627.882	798.9
628.08	681.49
628.279	720.63
628.477	801.61
628.676	680.71
628.874	755.5
629.073	715.59
629.271	699.31
629.469	752.21
629.668	739.81
629.866	747.95
630.065	735.55
630.263	753.37
630.461	701.64
630.66	729.35
630.858	753.76
631.056	787.66
631.254	789.6
631.453	704.93
631.651	755.69
631.849	753.76
632.047	734.19
632.245	716.95
632.444	767.51
632.642	753.56
632.84	785.14
633.038	738.65
633.236	704.55
633.434	725.08
633.632	715.4
633.83	704.35
634.028	758.6
634.227	718.3
634.425	781.66
634.623	742.52
634.821	725.66
635.019	759.96
635.216	731.28
635.414	779.72
635.612	728.76
635.81	747.95
636.008	809.36
636.206	689.63
636.404	735.35
636.602	708.03
636.8	725.66
636.997	762.67
637.195	780.11
637.393	755.89
637.591	769.84
637.789	726.63
637.986	708.03
638.184	755.89
638.382	784.18
638.58	770.61
638.777	799.68
638.975	735.35
639.173	725.08
639.37	753.76
639.568	726.63
639.765	733.41
639.963	698.54
640.161	770.81
640.358	735.74
640.556	691.76
640.753	697.76
640.951	701.25
641.148	727.8
641.346	728.76
641.543	708.81
641.741	747.17
641.938	693.5
642.136	722.76
642.333	705.13
642.531	753.37
642.728	786.11
642.925	737.29
643.123	683.62
643.32	686.72
643.517	706.68
643.715	716.36
643.912	702.41
644.109	709
644.306	713.65
644.504	685.56
644.701	681.68
644.898	707.06
645.095	655.92
645.293	699.9
645.49	710.75
645.687	695.25
645.884	736.51
646.081	615.81
646.278	671.22
646.475	658.05
646.672	669.48
646.87	716.75
647.067	669.09
647.264	687.11
647.461	613.87
647.658	622.2
647.855	708.03
648.052	625.69
648.249	612.9
648.446	639.83
648.642	674.32
648.839	593.92
649.036	613.29
649.233	567.37
649.43	558.65
649.627	591.01
649.824	607.09
650.021	574.54
650.217	584.23
650.414	591.78
650.611	628.6
650.808	655.92
651.004	642.74
651.201	641.19
651.398	691.18
651.595	631.5
651.791	615.23
651.988	667.35
652.185	622.4
652.381	625.3
652.578	549.16
652.775	639.45
652.971	610.19
653.168	592.56
653.364	628.4
653.561	571.25
653.757	627.43
653.954	624.53
654.15	612.52
654.347	672.38
654.543	662.89
654.74	576.09
654.936	578.03
655.133	597.21
655.329	603.22
655.525	569.89
655.722	620.85
655.918	584.03
656.115	634.8
656.311	544.7
656.507	527.65
656.704	497.24
656.9	506.15
657.096	511.96
657.292	494.14
657.489	586.36
657.685	558.27
657.881	524.55
658.077	555.36
658.273	579.38
658.47	626.47
658.666	568.92
658.862	608.83
659.058	543.74
659.254	641.97
659.45	531.53
659.646	583.26
659.842	548.77
660.038	618.52
660.234	540.05
660.43	621.82
660.626	630.34
660.822	612.52
661.018	601.47
661.214	578.8
661.41	531.92
661.606	612.32
661.802	596.82
661.998	566.79
662.194	580.35
662.39	578.61
662.586	612.9
662.781	596.43
662.977	591.4
663.173	608.45
663.369	571.44
663.564	566.02
663.76	620.65
663.956	581.32
664.152	612.52
664.347	488.9
664.543	581.13
664.739	574.54
664.934	536.95
665.13	477.47
665.326	600.5
665.521	605.35
665.717	552.65
665.912	556.14
666.108	473.41
666.304	540.64
666.499	551.68
666.695	508.09
666.89	525.52
667.086	573.77
667.281	580.93
667.477	610.19
667.672	580.35
667.867	538.89
668.063	555.94
668.258	512.15
668.454	533.66
668.649	631.7
668.844	517.58
669.04	580.55
669.235	541.8
669.43	497.04
669.626	492.59
669.821	516.03
670.016	520.87
670.211	534.63
670.407	512.93
670.602	523.2
670.797	532.69
670.992	567.57
671.187	493.75
671.382	567.37
671.578	512.35
671.773	558.65
671.968	491.42
672.163	543.15
672.358	549.55
672.553	499.95
672.748	516.03
672.943	611.35
673.138	502.27
673.333	567.37
673.528	503.82
673.723	557.3
673.918	530.95
674.113	456.74
674.308	600.5
674.503	552.45
674.698	555.36
674.892	532.11
675.087	577.45
675.282	551.1
675.477	501.5
675.672	562.14
675.867	522.62
676.061	497.04
676.256	474.37
676.451	508.28
676.646	530.37
676.84	484.45
677.035	492.2
677.23	476.89
677.424	509.64
677.619	542.77
677.814	564.08
678.008	560.79
678.203	472.82
678.397	508.67
678.592	516.03
678.787	582.68
678.981	496.27
679.176	516.42
679.37	508.28
679.565	484.06
679.759	513.12
679.954	525.72
680.148	563.69
680.342	557.88
680.537	515.64
680.731	519.71
680.926	549.55
681.12	549.94
681.314	498.2
681.509	507.31
681.703	505.76
681.897	532.3
682.092	484.45
682.286	498.4
682.48	605.93
682.674	554.59
682.869	479.61
683.063	509.05
683.257	594.88
683.451	502.66
683.645	539.09
683.839	512.15
684.034	520.29
684.228	540.25
684.422	479.99
684.616	500.92
684.81	513.9
685.004	535.79
685.198	519.9
685.392	533.47
685.586	478.83
685.78	537.54
685.974	540.25
686.168	527.46
686.362	582.87
686.556	498.79
686.75	433.3
686.944	502.66
687.138	475.34
687.331	404.62
687.525	422.84
687.719	349.41
687.913	433.11
688.107	421.48
688.301	397.46
688.494	451.51
688.688	405.79
688.882	392.23
689.076	385.25
689.269	412.76
689.463	494.52
689.657	421.09
689.85	427.1
690.044	434.66
690.238	429.23
690.431	437.37
690.625	425.94
690.818	470.5
691.012	452.67
691.205	502.27
691.399	430.39
691.593	489.1
691.786	530.17
691.98	543.74
692.173	558.65
692.366	551.68
692.56	549.55
692.753	574.15
692.947	483.09
693.14	585.39
693.333	594.5
693.527	501.11
693.72	553.42
693.914	551.29
694.107	543.74
694.3	584.62
694.493	549.16
694.687	609.03
694.88	551.68
695.073	617.17
695.266	584.62
695.46	568.15
695.653	635.77
695.846	657.66
696.039	561.17
696.232	602.44
696.425	597.4
696.618	660.57
696.812	646.81
697.005	719.27
697.198	750.27
697.391	713.26
697.584	716.36
697.777	747.36
697.97	734.58
698.163	764.8
698.356	713.46
698.549	826.03
698.742	779.53
698.935	753.95
699.127	745.23
699.32	736.13
699.513	715.78
699.706	787.28
699.899	825.06
700.092	740.78
700.285	796.38
700.477	716.56
700.67	788.05
700.863	790.76
701.056	884.92
701.248	852.76
701.441	868.26
701.634	806.65
701.826	916.31
702.019	815.18
702.212	877.37
702.404	782.82
702.597	831.06
702.79	830.87
702.982	860.32
703.175	878.34
703.367	907.79
703.56	906.04
703.752	1019
703.945	958.16
704.137	974.05
704.33	980.25
704.522	982.96
704.715	980.44
704.907	990.13
705.1	1029.85
705.292	1032.17
705.484	1011.44
705.677	1086.23
705.869	1050.58
706.061	1082.35
706.254	1084.68
706.446	1062.01
706.638	1037.21
706.831	1137.38
707.023	1086.23
707.215	1177.68
707.407	1164.89
707.599	1140.28
707.792	1159.85
707.984	1143.19
708.176	1222.63
708.368	1149.58
708.56	1210.61
708.752	1162.95
708.944	1160.82
709.136	1222.04
709.329	1205.19
709.521	1341.78
709.713	1303.22
709.905	1274.36
710.097	1317.37
710.289	1260.6
710.481	1292.37
710.672	1327.06
710.864	1296.06
711.056	1338.87
711.248	1366.97
711.44	1371.23
711.632	1372.59
711.824	1410.75
712.016	1437.3
712.207	1381.89
712.399	1409.2
712.591	1467.72
712.783	1437.3
712.975	1466.75
713.166	1368.71
713.358	1445.63
713.55	1498.91
713.741	1492.71
713.933	1503.75
714.125	1467.72
714.316	1439.62
714.508	1514.8
714.7	1532.43
714.891	1495.42
715.083	1575.83
715.274	1541.53
715.466	1526.03
715.657	1554.71
715.849	1464.42
716.04	1553.55
716.232	1459.97
716.423	1529.52
716.615	1441.56
716.806	1434.39
716.998	1431.49
717.189	1358.06
717.381	1322.79
717.572	1292.96
717.763	1332.67
717.955	1266.03
718.146	1296.64
718.337	1239.09
718.528	1195.5
718.72	1155.4
718.911	1216.43
719.102	1176.13
719.293	1210.81
719.485	1173.22
719.676	1212.94
719.867	1162.37
720.058	1157.91
720.249	1177.68
720.44	1222.82
720.632	1216.43
720.823	1264.48
721.014	1344.69
721.205	1360.19
721.396	1433.62
721.587	1496.2
721.778	1498.33
721.969	1560.33
722.16	1591.71
722.351	1541.34
722.542	1686.65
722.733	1696.14
722.924	1574.28
723.115	1649.45
723.305	1665.92
723.496	1641.51
723.687	1528.55
723.878	1539.6
724.069	1539.6
724.26	1564.98
724.45	1510.15
724.641	1521.77
724.832	1518.28
725.023	1554.71
725.213	1529.72
725.404	1497.36
725.595	1509.57
725.785	1481.47
725.976	1540.95
726.167	1531.07
726.357	1527.39
726.548	1598.11
726.739	1556.26
726.929	1604.89
727.12	1638.41
727.31	1667.47
727.501	1615.16
727.691	1635.89
727.882	1640.34
728.072	1673.67
728.263	1679.09
728.453	1687.62
728.644	1710.48
728.834	1702.73
729.024	1682
729.215	1637.24
729.405	1674.64
729.596	1746.52
729.786	1732.76
729.976	1731.21
730.167	1793.21
730.357	1724.24
730.547	1717.65
730.737	1740.12
730.928	1801.15
731.118	1834.09
731.308	1775.97
731.498	1786.43
731.688	1857.92
731.879	1859.86
732.069	1926.7
732.259	1921.67
732.449	1909.85
732.639	1954.22
732.829	2006.14
733.019	2041.4
733.209	2087.32
733.399	2073.56
733.589	2114.83
733.779	2138.08
733.969	2129.17
734.159	2213.06
734.349	2219.46
734.539	2243.29
734.729	2258.4
734.919	2237.86
735.109	2271.77
735.299	2238.44
735.488	2300.83
735.678	2275.06
735.868	2285.33
736.058	2272.15
736.248	2216.16
736.437	2230.69
736.627	2211.12
736.817	2329.31
737.007	2252.59
737.196	2326.4
737.386	2293.85
737.576	2271.19
737.765	2327.57
737.955	2307.22
738.144	2431.03
738.334	2353.14
738.524	2311.87
738.713	2334.54
738.903	2352.56
739.092	2372.52
739.282	2366.32
739.471	2418.24
739.661	2365.15
739.85	2373.29
740.04	2376.97
740.229	2421.53
740.419	2416.5
740.608	2418.43
740.797	2442.65
740.987	2499.81
741.176	2484.5
741.365	2424.44
741.555	2388.02
741.744	2448.27
741.933	2406.81
742.123	2486.44
742.312	2489.93
742.501	2523.44
742.69	2487.02
742.88	2438.97
743.069	2552.7
743.258	2448.08
743.447	2524.22
743.636	2523.25
743.825	2513.37
744.014	2525.38
744.204	2531.78
744.393	2490.31
744.582	2544.95
744.771	2516.86
744.96	2496.9
745.149	2575.76
745.338	2517.83
745.527	2567.23
745.716	2556.58
745.905	2539.14
746.094	2510.46
746.283	2532.74
746.471	2530.23
746.66	2581.18
746.849	2617.02
747.038	2608.11
747.227	2520.93
747.416	2577.11
747.604	2493.61
747.793	2530.81
747.982	2551.54
748.171	2554.06
748.359	2627.29
748.548	2580.6
748.737	2540.3
748.926	2517.44
749.114	2450.98
749.303	2517.05
749.491	2549.6
749.68	2484.89
749.869	2585.64
750.057	2531.19
750.246	2475.98
750.434	2471.71
750.623	2494
750.811	2495.35
751	2512.01
751.188	2483.53
751.377	2537.98
751.565	2497.48
751.754	2456.21
751.942	2501.55
752.131	2545.53
752.319	2500.58
752.507	2440.13
752.696	2536.62
752.884	2549.21
753.072	2495.35
753.261	2505.04
753.449	2506.01
753.637	2487.41
753.825	2576.73
754.014	2509.49
754.202	2494.96
754.39	2540.11
754.578	2530.03
754.766	2472.3
754.955	2463
755.143	2563.74
755.331	2446.33
755.519	2482.76
755.707	2442.65
755.895	2463.19
756.083	2461.45
756.271	2448.27
756.459	2426.38
756.647	2478.3
756.835	2488.18
757.023	2427.15
757.211	2415.14
757.399	2424.83
757.587	2404.29
757.775	2370.19
757.963	2406.03
758.151	2373.1
758.339	2354.69
758.526	2377.17
758.714	2356.82
758.902	2289.98
759.09	2237.47
759.278	2144.48
759.465	1972.82
759.653	1677.93
759.841	1575.44
760.028	1308.07
760.216	1107.15
760.404	1115.48
760.591	888.99
760.779	735.35
760.967	641.77
761.154	541.02
761.342	587.52
761.529	571.44
761.717	613.48
761.905	586.36
762.092	642.74
762.28	615.62
762.467	633.63
762.655	537.34
762.842	598.76
763.029	607.28
763.217	595.47
763.404	593.72
763.592	641.58
763.779	577.45
763.966	613.29
764.154	690.01
764.341	704.16
764.528	713.85
764.716	761.31
764.903	783.79
765.09	827.96
765.277	869.62
765.465	995.36
765.652	1037.21
765.839	1087.78
766.026	1164.89
766.213	1209.45
766.4	1311.56
766.588	1429.55
766.775	1430.32
766.962	1506.08
767.149	1526.42
767.336	1699.24
767.523	1564.01
767.71	1679.29
767.897	1814.14
768.084	1888.53
768.271	1851.53
768.458	1922.05
768.645	1979.98
768.832	1958.48
769.019	1962.16
769.206	1979.21
769.392	2047.41
769.579	2109.6
769.766	2071.63
769.953	2064.65
770.14	2083.44
770.327	2085.38
770.513	2162.11
770.7	2208.02
770.887	2093.33
771.073	2171.21
771.26	2189.81
771.447	2102.24
771.634	2110.96
771.82	2202.41
772.007	2130.72
772.193	2163.27
772.38	2175.67
772.567	2130.33
772.753	2142.93
772.94	2182.06
773.126	2219.07
773.313	2206.47
773.499	2168.31
773.686	2153.58
773.872	2139.63
774.059	2145.44
774.245	2110.96
774.432	2133.82
774.618	2067.56
774.804	2176.44
774.991	2097.01
775.177	2157.46
775.363	2104.95
775.55	2140.99
775.736	2087.32
775.922	2062.13
776.109	2101.66
776.295	2092.55
776.481	2128.59
776.667	2131.69
776.853	2081.51
777.04	2097.78
777.226	2109.6
777.412	2139.83
777.598	2101.66
777.784	2070.08
777.97	2066.01
778.156	2106.5
778.342	2077.83
778.528	2063.49
778.715	2054.58
778.901	2034.81
779.087	2063.1
779.272	2030.94
779.458	1967.97
779.644	2029.2
779.83	1985.21
780.016	2112.89
780.202	2053.61
780.388	2012.53
780.574	1964.48
780.76	2009.05
780.946	2040.05
781.131	2013.31
781.317	2041.01
781.503	1966.42
781.689	2007.69
781.874	2074.34
782.06	1985.41
782.246	2008.66
782.432	1977.08
782.617	1961
782.803	2041.4
782.989	1946.47
783.174	1932.9
783.36	1901.9
783.545	1917.6
783.731	1985.41
783.916	1877.88
784.102	1971.27
784.288	1954.6
784.473	1892.02
784.659	1906.94
784.844	1980.56
785.029	1897.64
785.215	1900.35
785.4	1846.69
785.586	1956.54
785.771	1867.22
785.956	1925.15
786.142	1875.17
786.327	1852.89
786.512	1886.4
786.698	1875.94
786.883	1817.24
787.068	1841.07
787.254	1864.12
787.439	1787.59
787.624	1820.72
787.809	1819.56
787.994	1827.12
788.18	1894.73
788.365	1714.55
788.55	1787.79
788.735	1829.05
788.92	1778.29
789.105	1790.11
789.29	1845.72
789.475	1758.72
789.66	1764.73
789.845	1733.54
790.03	1697.5
790.215	1810.84
790.4	1794.96
790.585	1781.39
790.77	1756.98
790.955	1645.77
791.14	1740.71
791.325	1795.15
791.51	1667.66
791.695	1765.7
791.879	1700.79
792.064	1638.41
792.249	1800.77
792.434	1705.44
792.618	1761.05
792.803	1736.64
792.988	1703.7
793.173	1727.92
793.357	1748.46
793.542	1708.74
793.727	1702.54
793.911	1768.8
794.096	1707.38
794.281	1764.34
794.465	1853.66
794.65	1695.18
794.834	1767.44
795.019	1804.64
795.203	1791.08
795.388	1793.21
795.572	1790.5
795.757	1753.3
795.941	1778.49
796.126	1778.1
796.31	1721.52
796.494	1781.78
796.679	1734.31
796.863	1690.14
797.048	1833.12
797.232	1756.4
797.416	1737.41
797.601	1732.18
797.785	1809.87
797.969	1746.71
798.153	1727.34
798.338	1737.8
798.522	1797.28
798.706	1769.57
798.89	1810.07
799.074	1863.35
799.258	1829.64
799.443	1750.2
799.627	1778.49
799.811	1841.26
799.995	1760.08
800.179	1726.76
800.363	1757.37
800.547	1786.24
800.731	1834.48
800.915	1693.43
801.099	1751.75
801.283	1724.43
801.467	1747.68
801.651	1742.84
801.835	1750.78
802.019	1758.53
802.202	1766.86
802.386	1711.64
802.57	1687.81
802.754	1734.12
802.938	1721.52
803.121	1735.86
803.305	1787.98
803.489	1772.29
803.673	1738.38
803.856	1799.22
804.04	1752.52
804.224	1757.56
804.407	1745.16
804.591	1733.92
804.775	1714.74
804.958	1749.23
805.142	1867.42
805.326	1759.31
805.509	1750.78
805.693	1818.98
805.876	1824.4
806.06	1771.71
806.243	1781.78
806.427	1808.9
806.61	1809.49
806.794	1741.29
806.977	1840.1
807.16	1771.32
807.344	1814.72
807.527	1781.01
807.71	1767.64
807.894	1789.53
808.077	1804.64
808.26	1716.1
808.444	1733.54
808.627	1786.04
808.81	1735.86
808.993	1690.14
809.177	1709.9
809.36	1726.37
809.543	1736.06
809.726	1622.52
809.909	1655.84
810.092	1665.92
810.276	1645.77
810.459	1649.64
810.642	1671.54
810.825	1623.88
811.008	1606.44
811.191	1551.41
811.374	1582.03
811.557	1572.73
811.74	1688.59
811.923	1553.55
812.106	1544.63
812.289	1518.67
812.472	1530.49
812.654	1569.82
812.837	1527.97
813.02	1477.6
813.203	1453.38
813.386	1356.51
813.569	1400.29
813.751	1316.59
813.934	1377.62
814.117	1356.31
814.3	1314.46
814.482	1278.42
814.665	1272.42
814.848	1227.86
815.03	1210.42
815.213	1211.39
815.396	1211.78
815.578	1192.01
815.761	1180.39
815.943	1241.03
816.126	1148.81
816.309	1097.66
816.491	1080.22
816.674	1035.85
816.856	1077.32
817.039	1051.93
817.221	1143
817.403	1056.2
817.586	1075.96
817.768	1137.76
817.951	1061.23
818.133	1044.18
818.315	1082.16
818.498	1089.33
818.68	1152.68
818.862	1127.5
819.045	1125.56
819.227	1136.8
819.409	1096.5
819.591	1126.72
819.774	1150.55
819.956	1077.51
820.138	1149.97
820.32	1118.2
820.502	1193.18
820.684	1217.39
820.866	1234.44
821.048	1261.38
821.231	1270.09
821.413	1260.41
821.595	1246.26
821.777	1241.42
821.959	1212.94
822.141	1309.04
822.323	1165.08
822.505	1182.13
822.686	1099.4
822.868	1102.89
823.05	988.77
823.232	992.07
823.414	963.78
823.596	988.19
823.778	992.26
823.96	1007.18
824.141	999.04
824.323	998.07
824.505	1072.47
824.687	1114.9
824.868	1116.45
825.05	1224.18
825.232	1233.09
825.413	1274.94
825.595	1205.58
825.777	1175.74
825.958	1189.49
826.14	1215.65
826.321	1230.38
826.503	1227.47
826.685	1228.05
826.866	1245.29
827.048	1229.21
827.229	1195.5
827.411	1142.03
827.592	1111.22
827.773	1129.82
827.955	1095.53
828.136	1094.75
828.318	1071.5
828.499	1110.45
828.68	1049.8
828.862	1112.38
829.043	1154.62
829.224	1097.47
829.406	1080.42
829.587	1069.57
829.768	1054.07
829.949	1112.38
830.131	1091.65
830.312	1150.55
830.493	1071.5
830.674	1105.21
830.855	1078.67
831.036	1131.76
831.218	1150.94
831.399	1142.61
831.58	1093.4
831.761	1111.22
831.942	1138.93
832.123	1065.88
832.304	1040.7
832.485	1040.31
832.666	1081.97
832.847	1109.67
833.028	1087
833.209	1107.15
833.389	1105.02
833.57	1068.6
833.751	1077.7
833.932	1122.07
834.113	1103.28
834.294	1082.74
834.475	1115.48
834.655	1160.24
834.836	1121.3
835.017	1156.95
835.198	1031.98
835.378	1087.39
835.559	1161.01
835.74	1112.77
835.92	1086.42
836.101	1088.94
836.281	1115.29
836.462	1100.76
836.643	1153.85
836.823	1132.34
837.004	1134.47
837.184	1207.51
837.365	1175.35
837.545	1196.47
837.726	1132.73
837.906	1207.9
838.087	1177.1
838.267	1134.66
838.448	1072.28
838.628	1156.36
838.808	1126.33
838.989	1181.94
839.169	1089.33
839.349	1145.32
839.53	1162.76
839.71	1169.73
839.89	1122.46
840.07	1185.04
840.251	1118.2
840.431	1157.14
840.611	1104.63
840.791	1109.86
840.971	1141.25
841.151	1135.25
841.332	1133.89
841.512	1152.1
841.692	1063.37
841.872	1142.41
842.052	1121.49
842.232	1145.9
842.412	1073.05
842.592	1103.86
842.772	1117.03
842.952	1148.61
843.132	1116.45
843.312	1106.76
843.492	1086.03
843.672	1122.85
843.851	1083.9
844.031	1116.26
844.211	1107.15
844.391	1093.01
844.571	1096.88
844.751	1139.51
844.93	1095.53
845.11	1092.04
845.29	1083.9
845.47	1132.34
845.649	1107.73
845.829	1115.29
846.009	1075.38
846.188	1084.68
846.368	1104.44
846.547	1102.7
846.727	1129.05
846.907	1054.84
847.086	1103.86
847.266	1115.1
847.445	1101.53
847.625	1078.28
847.804	1079.25
847.984	1090.49
848.163	1041.08
848.343	1039.92
848.522	1064.14
848.701	1053.48
848.881	1034.88
849.06	1085.65
849.239	1049.61
849.419	1073.83
849.598	1038.37
849.777	987.42
849.957	1036.63
850.136	964.75
850.315	947.12
850.494	960.1
850.674	958.94
850.853	1031.98
851.032	984.32
851.211	1052.52
851.39	985.67
851.569	946.34
851.748	965.52
851.927	1008.15
852.107	999.04
852.286	956.22
852.465	932
852.644	987.42
852.823	997.49
853.002	1015.51
853.181	991.29
853.359	992.65
853.538	974.24
853.717	1039.15
853.896	918.06
854.075	882.41
854.254	861.09
854.433	834.16
854.611	869.62
854.79	812.66
854.969	885.31
855.148	910.89
855.327	897.32
855.505	909.53
855.684	868.26
855.863	881.63
856.041	871.56
856.22	888.22
856.399	862.06
856.577	961.84
856.756	930.26
856.934	1037.98
857.113	1032.75
857.291	958.94
857.47	956.22
857.648	919.02
857.827	941.5
858.005	974.24
858.184	921.74
858.362	1019.38
858.541	932.78
858.719	952.54
858.898	921.16
859.076	898.87
859.254	1013.96
859.433	917.09
859.611	908.76
859.789	878.72
859.967	947.12
860.146	1019.77
860.324	886.47
860.502	886.28
860.68	861.29
860.859	910.69
861.037	897.13
861.215	915.34
861.393	909.14
861.571	916.31
861.749	870.01
861.927	945.37
862.105	925.42
862.283	916.89
862.461	851.41
862.639	855.09
862.817	874.07
862.995	906.24
863.173	860.9
863.351	877.17
863.529	900.04
863.707	935.49
863.885	942.66
864.063	827.58
864.241	846.76
864.418	945.18
864.596	856.06
864.774	812.46
864.952	847.14
865.129	884.54
865.307	840.94
865.485	830.68
865.663	888.61
865.84	795.03
866.018	814.4
866.196	713.07
866.373	752.01
866.551	733.8
866.728	687.3
866.906	747.75
867.084	753.37
867.261	763.44
867.439	767.71
867.616	805.88
867.794	811.49
867.971	818.86
868.149	786.69
868.326	858.19
868.503	838.04
868.681	803.94
868.858	779.72
869.035	747.75
869.213	812.85
869.39	808.2
869.567	855.09
869.745	773.33
869.922	804.52
870.099	826.99
870.276	810.72
870.454	839.78
870.631	827.19
870.808	792.89
870.985	836.49
871.162	858.96
871.339	805.1
871.517	747.75
871.694	750.27
871.871	754.53
872.048	793.86
872.225	772.16
872.402	798.51
872.579	741.94
872.756	802.39
872.933	733.22
873.11	778.17
873.287	803.16
873.463	763.83
873.64	749.88
873.817	791.54
873.994	730.7
874.171	737.29
874.348	778.17
874.524	705.13
874.701	763.06
874.878	687.3
875.055	769.26
875.231	765.58
875.408	797.93
875.585	712.1
875.762	714.81
875.938	729.73
876.115	700.09
876.291	715.59
876.468	731.67
876.645	658.43
876.821	722.18
876.998	736.51
877.174	724.31
877.351	733.61
877.527	705.32
877.704	723.15
877.88	748.91
878.057	687.69
878.233	731.86
878.409	667.35
878.586	699.7
878.762	700.86
878.938	678
879.115	623.37
879.291	704.74
879.467	647
879.644	650.3
879.82	702.22
879.996	658.82
880.172	628.21
880.349	678.2
880.525	744.26
880.701	627.43
880.877	653.98
881.053	699.12
881.229	686.53
881.405	720.63
881.581	654.56
881.757	675.29
881.933	679.94
882.109	708.23
882.285	671.8
882.461	630.92
882.637	682.46
882.813	637.32
882.989	651.07
883.165	709.97
883.341	642.93
883.517	690.01
883.693	696.6
883.869	715.98
884.044	654.17
884.22	716.95
884.396	695.83
884.572	692.92
884.747	704.35
884.923	676.45
885.099	676.06
885.275	735.55
885.45	677.81
885.626	664.25
885.801	659.98
885.977	666.76
886.153	630.53
886.328	665.99
886.504	652.82
886.679	689.82
886.855	634.41
887.03	696.02
887.206	749.69
887.381	701.64
887.557	662.89
887.732	652.82
887.908	688.85
888.083	690.4
888.258	642.16
888.434	635.18
888.609	638.09
888.784	707.26
888.96	638.87
889.135	670.25
889.31	630.34
889.485	683.04
889.661	645.26
889.836	673.35
890.011	679.75
890.186	669.86
890.361	628.98
890.537	663.47
890.712	682.65
890.887	665.6
891.062	667.54
891.237	718.3
891.412	626.08
891.587	650.3
891.762	692.53
891.937	723.92
892.112	624.53
892.287	638.09
892.462	604.18
892.637	608.83
892.812	599.34
892.987	619.68
893.161	579.19
893.336	593.72
893.511	624.92
893.686	616.58
893.861	589.65
894.035	624.53
894.21	614.07
894.385	573.19
894.56	586.36
894.734	560.2
894.909	535.02
895.084	539.09
895.258	552.26
895.433	537.73
895.608	544.7
895.782	487.74
895.957	519.52
896.131	527.27
896.306	453.06
896.48	476.51
896.655	502.66
896.829	435.24
897.004	473.02
897.178	435.43
897.353	413.73
897.527	490.07
897.701	455.58
897.876	383.7
898.05	476.51
898.224	450.93
898.399	471.08
898.573	454.22
898.747	358.71
898.921	419.35
899.096	318.79
899.27	363.55
899.444	350.18
899.618	349.02
899.792	426.71
899.967	361.61
900.141	406.76
900.315	364.33
900.489	375.76
900.663	404.62
900.837	382.93
901.011	340.11
901.185	454.81
901.359	408.11
901.533	380.6
901.707	407.14
901.881	393
902.055	348.44
902.229	378.86
902.403	462.56
902.576	401.14
902.75	391.26
902.924	508.67
903.098	399.39
903.272	444.73
903.446	488.32
903.619	455.39
903.793	469.53
903.967	459.26
904.14	504.6
904.314	483.48
904.488	484.64
904.661	497.24
904.835	487.16
905.009	514.09
905.182	570.86
905.356	498.59
905.529	512.35
905.703	481.74
905.876	461.2
906.05	417.02
906.223	414.51
906.397	410.82
906.57	373.24
906.744	381.38
906.917	388.54
907.09	399.59
907.264	408.31
907.437	364.52
907.61	329.84
907.784	365.49
907.957	366.26
908.13	332.16
908.304	387.38
908.477	342.24
908.65	340.11
908.823	317.44
908.996	406.95
909.17	332.36
909.343	332.74
909.516	343.01
909.689	349.02
909.862	301.55
910.035	346.31
910.208	334.88
910.381	351.15
910.554	423.81
910.727	364.91
910.9	335.65
911.073	318.02
911.246	380.6
911.419	420.12
911.592	365.29
911.765	337.39
911.938	312.4
912.11	336.23
912.283	343.4
912.456	401.33
912.629	347.86
912.802	315.89
912.974	271.33
913.147	305.23
913.32	245.36
913.493	255.44
913.665	274.23
913.838	300.58
914.01	296.71
914.183	288.76
914.356	281.4
914.528	318.41
914.701	355.41
914.873	337.98
915.046	291.67
915.218	266.29
915.391	207
915.563	268.81
915.736	306.98
915.908	304.26
916.081	258.35
916.253	295.93
916.425	282.18
916.598	298.06
916.77	305.23
916.942	278.3
917.115	190.73
917.287	296.13
917.459	287.99
917.632	230.83
917.804	192.86
917.976	260.67
918.148	238.2
918.32	296.13
918.493	313.18
918.665	333.33
918.837	270.55
919.009	356.58
919.181	334.1
919.353	281.4
919.525	282.56
919.697	290.7
919.869	290.31
920.041	332.36
920.213	377.89
920.385	338.17
920.557	281.01
920.729	314.73
920.901	316.28
921.073	294.38
921.244	300.78
921.416	340.49
921.588	319.96
921.76	284.31
921.932	328.68
922.103	299.81
922.275	310.27
922.447	305.23
922.619	229.09
922.79	298.45
922.962	267.45
923.134	323.64
923.305	230.25
923.477	237.23
923.648	241.1
923.82	288.96
923.991	230.64
924.163	238.2
924.335	262.61
924.506	232.96
924.677	280.05
924.849	242.46
925.02	247.3
925.192	304.07
925.363	284.11
925.535	268.42
925.706	253.31
925.877	311.63
926.049	227.93
926.22	264.55
926.391	264.55
926.562	273.85
926.734	211.85
926.905	270.16
927.076	194.99
927.247	226.38
927.419	168.25
927.59	201.77
927.761	221.73
927.932	192.08
928.103	221.34
928.274	151.2
928.445	189.57
928.616	216.3
928.787	165.93
928.958	234.51
929.129	191.31
929.3	199.45
929.471	158.18
929.642	120.2
929.813	80.87
929.984	195.77
930.155	108
930.326	154.5
930.496	136.87
930.667	87.46
930.838	108.39
931.009	82.04
931.18	103.93
931.35	126.21
931.521	115.17
931.692	72.74
931.863	47.94
932.033	98.5
932.204	99.47
932.374	83.78
932.545	62.47
932.716	136.09
932.886	113.81
933.057	27.4
933.227	54.72
933.398	130.86
933.568	31.47
933.739	7.06
933.909	23.91
934.08	83.39
934.25	-15.42
934.421	7.06
934.591	41.54
934.761	4.54
934.932	-0.89
935.102	21.01
935.272	-14.45
935.443	23.14
935.613	48.13
935.783	45.81
935.953	-10.77
936.123	163.8
936.294	-20.84
936.464	15.39
936.634	24.69
936.804	1.82
936.974	-8.83
937.144	58.2
937.314	25.46
937.484	5.51
937.655	-2.24
937.825	88.82
937.995	-20.46
938.165	85.14
938.334	20.23
938.504	24.3
938.674	-9.41
938.844	10.16
939.014	70.6
939.184	31.47
939.354	115.94
939.524	95.99
939.694	13.06
939.863	29.72
940.033	84.55
940.203	109.55
940.373	67.89
940.542	73.9
940.712	61.89
940.882	97.54
941.051	105.48
941.221	101.22
941.391	112.84
941.56	56.46
941.73	31.47
941.899	147.52
942.069	45.81
942.238	72.74
942.408	36.12
942.577	64.02
942.747	49.49
942.916	7.25
943.086	23.33
943.255	72.35
943.425	56.85
943.594	31.66
943.763	-12.9
943.933	12.09
944.102	-18.33
944.271	42.12
944.441	7.06
944.61	23.91
944.779	33.6
944.948	133.19
945.117	2.6
945.287	22.75
945.456	-16.58
945.625	4.92
945.794	46
945.963	13.84
946.132	54.52
946.301	15.19
946.47	76.8
946.639	-17.16
946.808	19.07
946.977	69.05
947.146	81.07
947.315	33.21
947.484	52.39
947.653	44.45
947.822	32.24
947.991	6.28
948.16	110.52
948.329	65.57
948.498	49.68
948.666	36.31
948.835	59.37
949.004	28.37
949.173	9.57
949.341	38.06
949.51	49.68
949.679	63.82
949.847	41.93
950.016	123.11
950.185	88.24
950.353	10.54
950.522	28.37
950.69	65.57
950.859	5.31
951.028	58.79
951.196	58.2
951.365	6.86
951.533	66.15
951.701	77.58
951.87	85.91
952.038	0.08
952.207	45.03
952.375	103.35
952.543	27.98
952.712	36.89
952.88	29.53
953.048	83.78
953.217	60.92
953.385	40.77
953.553	101.22
953.721	2.21
953.89	37.67
954.058	8.61
954.226	8.8
954.394	84.75
954.562	-8.25
954.73	47.55
954.898	19.46
955.067	60.14
955.235	17.91
955.403	90.75
955.571	95.02
955.739	62.66
955.907	28.76
956.075	14.03
956.243	12.09
956.41	50.07
956.578	18.49
956.746	2.41
956.914	41.54
957.082	60.14
957.25	30.31
957.418	19.26
957.585	44.26
957.753	107.03
957.921	25.27
958.089	23.91
958.256	58.01
958.424	45.81
958.592	58.01
958.759	22.75
958.927	69.64
959.095	22.17
959.262	66.73
959.43	42.12
959.597	17.91
959.765	30.31
959.932	12.67
960.1	87.27
960.267	61.89
960.435	36.51
960.602	77.58
960.77	25.85
960.937	3.18
961.104	63.82
961.272	17.91
961.439	28.37
961.606	62.66
961.774	59.56
961.941	28.56
962.108	41.54
962.275	45.03
962.443	86.1
962.61	64.99
962.777	116.52
962.944	56.46
963.111	67.12
963.278	64.02
963.446	67.89
963.613	31.47
963.78	92.3
963.947	92.5
964.114	37.47
964.281	124.85
964.448	82.23
964.615	53.17
964.782	46
964.949	67.7
965.116	55.49
965.282	107.42
965.449	70.8
965.616	31.66
965.783	90.56
965.95	63.44
966.117	18.49
966.283	80.49
966.45	58.79
966.617	61.11
966.784	112.26
966.95	83.2
967.117	102.96
967.284	34.57
967.45	28.37
967.617	86.69
967.784	73.12
967.95	98.5
968.117	52.97
968.283	81.26
968.45	137.45
968.616	52.59
968.783	99.67
968.949	73.12
969.116	97.73
969.282	61.11
969.449	50.26
969.615	64.02
969.781	12.87
969.948	44.64
970.114	33.41
970.28	110.13
970.447	64.79
970.613	117.49
970.779	37.67
970.945	83.2
971.112	72.74
971.278	63.24
971.444	39.02
971.61	91.14
971.776	50.46
971.942	108.19
972.108	68.47
972.275	57.04
972.441	88.62
972.607	107.03
972.773	32.82
972.939	80.1
973.105	64.02
973.271	37.28
973.437	37.47
973.602	28.95
973.768	81.45
973.934	81.45
974.1	78.35
974.266	-11.54
974.432	71.38
974.598	39.02
974.763	90.95
974.929	67.89
975.095	112.84
975.261	40.96
975.426	36.89
975.592	54.14
975.758	113.81
975.923	7.83
976.089	42.51
976.255	97.92
976.42	73.51
976.586	84.55
976.751	64.02
976.917	123.11
977.082	69.44
977.248	28.56
977.413	-20.84
977.579	47.94
977.744	55.3
977.91	21.78
978.075	43.48
978.24	70.8
978.406	68.09
978.571	37.28
978.736	32.82
978.902	66.73
979.067	33.41
979.232	-24.91
979.397	48.52
979.563	97.73
979.728	36.89
979.893	34.57
980.058	9.57
980.223	73.9
980.388	72.35
980.554	63.63
980.719	38.83
980.884	66.54
981.049	86.3
981.214	22.75
981.379	58.2
981.544	37.28
981.709	43.29
981.874	52.78
982.039	56.85
982.204	93.47
982.368	56.27
982.533	47.16
982.698	92.69
982.863	102.77
983.028	-2.63
983.193	49.68
983.357	59.56
983.522	42.71
983.687	46.77
983.852	67.7
984.016	31.66
984.181	80.1
984.346	98.31
984.51	85.72
984.675	73.9
984.839	64.6
985.004	59.56
985.168	95.99
985.333	66.34
985.498	27.98
985.662	65.76
985.827	48.32
985.991	41.16
986.155	28.37
986.32	70.99
986.484	110.9
986.649	59.17
986.813	-21.23
986.977	64.99
987.142	74.48
987.306	7.64
987.47	56.27
987.634	42.9
987.799	55.88
987.963	59.75
988.127	70.41
988.291	112.07
988.455	58.98
988.62	50.65
988.784	69.83
988.948	83.97
989.112	25.07
989.276	52.78
989.44	33.99
989.604	17.52
989.768	52.59
989.932	119.24
990.096	8.99
990.26	26.62
990.424	32.63
990.588	43.29
990.752	99.47
990.915	94.44
991.079	29.34
991.243	18.49
991.407	89.79
991.571	38.06
991.734	36.12
991.898	53.55
992.062	150.43
992.226	43.48
992.389	33.79
992.553	-28.01
992.717	32.24
992.88	32.63
993.044	45.42
993.207	37.47
993.371	58.79
993.535	57.43
993.698	41.16
993.862	93.08
994.025	110.71
994.189	50.65
994.352	50.07
994.515	69.25
994.679	76.03
994.842	35.73
995.006	79.13
995.169	-5.54
995.332	26.62
995.496	73.51
995.659	-3.79
995.822	39.61
995.985	57.43
996.149	86.69
996.312	50.07
996.475	97.73
996.638	27.4
996.801	84.75
996.964	128.15
997.128	30.69
997.291	30.11
997.454	67.31
997.617	-1.28
997.78	74.67
997.943	7.06
998.106	71.77
998.269	2.21
998.432	41.93
998.595	51.42
998.758	0.27
998.92	33.21
999.083	-12.13
999.246	22.75
999.409	-26.46
999.572	-29.95
999.735	39.02
999.897	44.26
1000.06	25.66
1000.223	18.68
1000.386	63.05
1000.548	57.24
1000.711	64.99
1000.874	42.71
1001.036	4.73
1001.199	80.49
1001.361	7.44
1001.524	37.09
1001.687	68.09
1001.849	32.63
1002.012	25.66
1002.174	35.92
1002.337	70.99
1002.499	43.29
1002.661	77.97
1002.824	-1.08
1002.986	20.62
1003.149	37.28
1003.311	7.06
1003.473	79.32
1003.636	11.12
1003.798	40.96
1003.96	62.27
1004.123	27.4
1004.285	15
1004.447	47.16
1004.609	53.36
1004.771	94.24
1004.933	-26.27
1005.096	10.74
1005.258	5.89
1005.42	30.69
1005.582	54.91
1005.744	45.03
1005.906	-6.12
1006.068	33.99
1006.23	-2.44
1006.392	-23.17
1006.554	-9.8
1006.716	59.75
1006.878	55.88
1007.04	-1.66
1007.202	6.86
1007.363	55.3
1007.525	49.68
1007.687	33.79
1007.849	66.34
1008.011	-6.89
1008.172	-5.73
1008.334	27.01
1008.496	84.36
1008.658	-8.06
1008.819	1.63
1008.981	0.86
1009.143	17.13
1009.304	15.97
1009.466	59.37
1009.627	82.62
1009.789	114.2
1009.95	43.09
1010.112	-3.79
1010.273	36.7
1010.435	-3.02
1010.596	3.96
1010.758	16.94
1010.919	12.29
1011.081	-16
1011.242	14.61
1011.403	34.37
1011.565	31.86
1011.726	47.36
1011.887	-41.96
1012.049	-2.05
1012.21	43.87
1012.371	90.56
1012.532	-39.64
1012.693	33.41
1012.855	5.12
1013.016	24.11
1013.177	60.53
1013.338	37.09
1013.499	93.47
1013.66	15.58
1013.821	46.97
1013.982	30.31
1014.143	21.78
1014.304	-9.61
1014.465	37.47
1014.626	48.32
1014.787	10.54
1014.948	91.14
1015.109	-65.6
1015.27	66.54
1015.431	2.79
1015.592	-9.03
1015.752	76.42
1015.913	27.21
1016.074	57.82
1016.235	15.97
1016.395	16.94
1016.556	24.3
1016.717	11.32
1016.877	80.1
1017.038	-11.54
1017.199	20.62
1017.359	15.77
1017.52	23.72
1017.681	3.96
1017.841	16.36
1018.002	-21.43
1018.162	-6.7
1018.323	87.27
1018.483	-1.28
1018.644	21.01
1018.804	-16.39
1018.964	-26.66
1019.125	-6.89
1019.285	17.32
1019.446	-14.64
1019.606	-23.36
1019.766	-35.18
1019.926	35.92
1020.087	32.44
1020.247	-16.19
1020.407	36.89
1020.567	70.02
1020.728	15.58
1020.888	-16.97
1021.048	-11.16
1021.208	3.96
1021.368	-21.43
1021.528	76.22
1021.688	32.44
1021.848	37.67
1022.008	38.06
1022.168	10.74
1022.328	8.8
1022.488	18.87
1022.648	3.18
1022.808	18.68
1022.968	5.12
1023.128	-11.35
1023.288	-10.58
1023.448	8.8
1023.608	48.52
1023.767	27.59
1023.927	-25.69
1024.087	-24.33
1024.247	-52.23
1024.406	3.57
1024.566	-24.53
1024.726	5.89
1024.885	-3.21
1025.045	42.51
1025.205	3.76
1025.364	-5.54
1025.524	39.02
1025.683	2.41
1025.843	10.74
1026.003	25.85
1026.162	47.16
1026.321	52.59
1026.481	18.49
1026.64	12.29
1026.8	12.67
1026.959	4.92
1027.119	15.39
1027.278	-16
1027.437	2.41
1027.597	25.66
1027.756	24.88
1027.915	28.56
1028.074	16.16
1028.234	-25.49
1028.393	21.59
1028.552	5.51
1028.711	-41.19
1028.87	47.74
1029.03	-27.82
1029.189	16.94
1029.348	-27.04
1029.507	3.57
1029.666	-3.21
1029.825	-13.48
1029.984	-20.84
1030.143	32.24
1030.302	8.61
1030.461	-39.06
1030.62	4.34
1030.779	30.31
1030.938	9.19
1031.097	-34.99
1031.255	39.8
1031.414	42.12
1031.573	28.95
1031.732	-27.82
1031.891	-6.51
1032.049	50.65
1032.208	30.89
1032.367	2.99
1032.525	-0.31
1032.684	5.12
1032.843	7.06
1033.001	-46.03
1033.16	152.37
1033.319	40.38
1033.477	27.59
1033.636	-28.79
1033.794	-53.39
1033.953	44.26
1034.111	5.12
1034.27	5.51
1034.428	34.37
1034.587	-28.4
1034.745	28.95
1034.903	14.42
1035.062	33.79
1035.22	-41.57
1035.378	49.1
1035.537	-1.47
1035.695	37.86
1035.853	-4.76
1036.011	36.7
1036.17	21.97
1036.328	-31.11
1036.486	19.84
1036.644	11.32
1036.802	-74.71
1036.96	-34.02
1037.119	-20.65
1037.277	2.41
1037.435	-29.76
1037.593	-29.95
1037.751	0.86
1037.909	48.32
1038.067	48.32
