Data from pine_FLMT105791__26__17-20-00-079.txt Node

Date: Mon Mar 20 17:20:00 GMT 2023
User: antho
Spectrometer: FLMT10579
Trigger mode: 0
Integration Time (sec): 1.000000E-1
Scans to average: 10
Electric dark correction enabled: true
Nonlinearity correction enabled: false
Boxcar width: 0
XAxis mode: Wavelengths
Number of Pixels in Spectrum: 3648
>>>>>Begin Spectral Data<<<<<
345.248	-152.14
345.464	-152.14
345.681	-152.14
345.898	-156.98
346.114	-154.27
346.331	-40.74
346.548	24.36
346.764	-7.41
346.981	-13.42
347.197	-24.85
347.414	11.77
347.631	-26.59
347.847	64.47
348.064	12.55
348.28	44.51
348.497	-53.52
348.713	8.86
348.93	53.62
349.146	26.88
349.363	18.16
349.579	10.8
349.796	2.66
350.012	-1.4
350.229	25.72
350.445	5.57
350.661	-5.67
350.878	4.21
351.094	31.14
351.311	5.76
351.527	25.91
351.743	-16.9
351.96	34.44
352.176	79.97
352.392	58.08
352.609	27.27
352.825	-5.47
353.041	31.92
353.257	10.61
353.474	2.08
353.69	42.77
353.906	43.93
354.122	-16.71
354.339	50.52
354.555	20.68
354.771	6.35
354.987	60.98
355.203	58.66
355.42	-11.67
355.636	2.86
355.852	-16.32
356.068	22.62
356.284	-46.55
356.5	58.08
356.716	26.3
356.932	8.28
357.148	42.77
357.364	-11.87
357.58	48.19
357.796	32.69
358.012	39.09
358.228	28.43
358.444	-63.21
358.66	54.2
358.876	17.97
359.092	-27.17
359.308	6.54
359.524	5.18
359.74	-11.29
359.956	14.29
360.172	25.72
360.388	58.08
360.604	-14.58
360.819	74.54
361.035	29.21
361.251	26.3
361.467	-19.62
361.683	50.91
361.898	25.72
362.114	40.44
362.33	12.74
362.546	61.56
362.762	22.62
362.977	23.98
363.193	-16.13
363.409	35.99
363.624	2.28
363.84	8.09
364.056	-5.86
364.271	43.74
364.487	27.08
364.703	13.51
364.918	15.84
365.134	-5.86
365.35	20.68
365.565	108.84
365.781	26.88
365.996	37.73
366.212	90.24
366.427	10.41
366.643	-0.24
366.858	10.41
367.074	-9.93
367.289	72.22
367.505	120.85
367.72	-24.46
367.936	-1.79
368.151	40.83
368.367	42.96
368.582	47.42
368.798	7.31
369.013	87.53
369.228	24.75
369.444	23.59
369.659	56.53
369.874	39.09
370.09	70.67
370.305	-38.41
370.52	10.61
370.736	67.38
370.951	20.1
371.166	53.62
371.381	91.79
371.597	47.61
371.812	-5.67
372.027	-5.09
372.242	17
372.458	64.08
372.673	8.86
372.888	36.96
373.103	46.06
373.318	108.84
373.533	50.13
373.749	29.01
373.964	-24.27
374.179	72.03
374.394	-6.25
374.609	80.94
374.824	-32.79
375.039	57.3
375.254	-6.83
375.469	61.76
375.684	33.28
375.899	75.9
376.114	29.79
376.329	-0.44
376.544	83.65
376.759	45.68
376.974	5.76
377.189	15.45
377.404	27.85
377.619	49.74
377.834	-36.67
378.049	-23.69
378.264	-9.74
378.478	14.29
378.693	-6.83
378.908	41.99
379.123	15.06
379.338	47.03
379.553	36.57
379.767	36.38
379.982	41.99
380.197	42.96
380.412	38.31
380.626	38.12
380.841	92.37
381.056	41.8
381.271	94.11
381.485	10.41
381.7	-17.1
381.915	51.1
382.129	18.55
382.344	41.22
382.559	21.84
382.773	56.53
382.988	-8.38
383.202	26.88
383.417	22.23
383.632	98.57
383.846	17.78
384.061	66.99
384.275	33.66
384.49	22.43
384.704	62.73
384.919	29.21
385.133	36.38
385.348	63.89
385.562	-1.79
385.777	68.15
385.991	1.7
386.206	30.76
386.42	18.94
386.634	65.05
386.849	36.38
387.063	36.96
387.277	-1.02
387.492	-3.15
387.706	-18.65
387.92	-1.21
388.135	59.82
388.349	25.91
388.563	23.78
388.778	36.18
388.992	36.18
389.206	48
389.42	89.08
389.635	28.43
389.849	22.43
390.063	75.51
390.277	41.8
390.491	97.21
390.706	79.97
390.92	67.76
391.134	44.51
391.348	93.92
391.562	20.3
391.776	40.06
391.99	-33.57
392.205	41.8
392.419	40.44
392.633	28.04
392.847	60.59
393.061	37.54
393.275	80.36
393.489	34.05
393.703	54.78
393.917	75.32
394.131	40.06
394.345	63.5
394.559	80.16
394.773	33.66
394.986	29.98
395.2	15.45
395.414	74.93
395.628	18.55
395.842	35.21
396.056	12.74
396.27	-15.74
396.484	55.56
396.697	35.6
396.911	81.91
397.125	34.83
397.339	67.38
397.553	82.68
397.766	99.73
397.98	74.74
398.194	68.34
398.408	9.45
398.621	62.73
398.835	29.21
399.049	52.84
399.262	87.72
399.476	91.98
399.69	55.56
399.903	153.79
400.117	33.47
400.331	66.41
400.544	20.88
400.758	178.39
400.971	54.01
401.185	86.17
401.398	47.23
401.612	123.95
401.826	77.26
402.039	82.88
402.253	23.59
402.466	76.48
402.68	61.56
402.893	99.93
403.106	61.95
403.32	59.63
403.533	91.4
403.747	76.29
403.96	80.36
404.174	61.95
404.387	5.38
404.6	59.04
404.814	97.6
405.027	50.71
405.24	60.79
405.454	61.95
405.667	77.84
405.88	-5.67
406.094	43.16
406.307	91.98
406.52	88.3
406.733	67.38
406.947	30.95
407.16	144.87
407.373	106.13
407.586	40.25
407.799	14.1
408.012	73.19
408.226	89.08
408.439	95.66
408.652	25.33
408.865	85.59
409.078	119.3
409.291	51.1
409.504	12.74
409.717	86.36
409.93	77.64
410.143	79.39
410.357	16.23
410.57	23.01
410.783	54.01
410.996	93.14
411.209	69.89
411.421	125.69
411.634	56.72
411.847	49.94
412.06	87.14
412.273	80.55
412.486	68.34
412.699	180.52
412.912	82.1
413.125	126.08
413.338	91.98
413.55	112.32
413.763	89.85
413.976	107.09
414.189	35.6
414.402	90.24
414.615	133.83
414.827	51.1
415.04	94.89
415.253	91.4
415.466	109.42
415.678	153.59
415.891	93.34
416.104	111.16
416.316	78.23
416.529	59.43
416.742	90.43
416.954	110.58
417.167	95.08
417.38	82.88
417.592	144.49
417.805	72.03
418.017	34.24
418.23	123.56
418.442	100.89
418.655	92.56
418.868	104.96
419.08	141.39
419.293	135.19
419.505	99.54
419.718	119.69
419.93	123.76
420.142	81.52
420.355	125.31
420.567	163.09
420.78	116.01
420.992	84.23
421.205	139.26
421.417	73.38
421.629	88.49
421.842	75.9
422.054	60.21
422.266	145.84
422.479	125.31
422.691	85.39
422.903	117.36
423.115	99.73
423.328	106.71
423.54	137.51
423.752	99.73
423.964	83.65
424.177	118.52
424.389	128.6
424.601	227.99
424.813	131.51
425.025	173.36
425.238	174.91
425.45	116.2
425.662	84.04
425.874	413.6
426.086	130.15
426.298	127.05
426.51	124.92
426.722	108.84
426.934	80.55
427.146	155.14
427.358	87.53
427.57	167.93
427.782	106.51
427.994	123.17
428.206	81.33
428.418	100.31
428.63	146.62
428.842	172.77
429.054	132.67
429.266	163.67
429.478	132.28
429.69	142.36
429.902	79.39
430.114	131.51
430.325	125.69
430.537	105.35
430.749	93.34
430.961	58.85
431.173	111.94
431.384	141
431.596	56.91
431.808	120.07
432.02	122.79
432.231	161.34
432.443	191.57
432.655	158.44
432.867	121.82
433.078	158.82
433.29	209
433.502	194.86
433.713	188.08
433.925	179.36
434.136	195.06
434.348	80.16
434.56	112.52
434.771	248.72
434.983	100.31
435.194	148.36
435.406	171.81
435.617	216.37
435.829	228.96
436.04	202.22
436.252	204.94
436.463	228.96
436.675	224.31
436.886	202.42
437.098	215.59
437.309	234.77
437.521	220.44
437.732	193.89
437.943	198.54
438.155	190.79
438.366	156.69
438.578	251.24
438.789	208.62
439	229.54
439.211	167.16
439.423	201.64
439.634	256.09
439.845	228.77
440.057	211.72
440.268	236.9
440.479	193.31
440.69	220.63
440.902	178.01
441.113	216.17
441.324	205.32
441.535	237.29
441.746	256.67
441.957	197.96
442.168	238.45
442.38	234.39
442.591	254.73
442.802	198.54
443.013	237.87
443.224	224.31
443.435	221.99
443.646	227.41
443.857	254.54
444.068	226.25
444.279	201.64
444.49	284.76
444.701	226.25
444.912	330.68
445.123	302.39
445.334	238.26
445.545	248.72
445.756	268.49
445.967	215.98
446.178	252.21
446.388	276.04
446.599	283.6
446.81	287.08
447.021	232.64
447.232	289.99
447.443	311.88
447.653	254.15
447.864	276.82
448.075	293.09
448.286	316.92
448.496	255.31
448.707	294.83
448.918	252.4
449.129	354.9
449.339	249.5
449.55	283.6
449.761	253.57
449.971	341.72
450.182	283.02
450.393	315.95
450.603	271.78
450.814	327
451.024	300.07
451.235	309.37
451.446	362.26
451.656	347.15
451.867	292.7
452.077	313.82
452.288	351.22
452.498	357.22
452.709	292.32
452.919	316.92
453.13	283.79
453.34	344.24
453.55	257.83
453.761	339.78
453.971	308.4
454.182	354.7
454.392	318.28
454.602	365.36
454.813	363.23
455.023	363.42
455.233	296.58
455.444	319.44
455.654	267.71
455.864	301.42
456.075	296.38
456.285	300.07
456.495	309.56
456.705	353.73
456.916	360.9
457.126	408.18
457.336	329.13
457.546	274.49
457.756	324.48
457.967	390.55
458.177	312.08
458.387	329.9
458.597	308.98
458.807	317.7
459.017	355.09
459.227	315.37
459.437	328.16
459.647	363.62
459.857	336.88
460.068	343.66
460.278	368.46
460.488	371.36
460.698	390.74
460.908	362.07
461.117	318.86
461.327	295.22
461.537	364.2
461.747	363.62
461.957	353.15
462.167	433.95
462.377	381.63
462.587	364.78
462.797	392.1
463.007	374.66
463.216	356.64
463.426	417.48
463.636	440.92
463.846	343.08
464.056	322.35
464.265	409.15
464.475	338.43
464.685	367.68
464.895	386.48
465.104	365.75
465.314	412.05
465.524	360.52
465.733	336.1
465.943	442.66
466.153	425.23
466.362	416.7
466.572	389.19
466.782	390.16
466.991	397.33
467.201	424.26
467.41	342.88
467.62	423.48
467.829	368.85
468.039	409.34
468.249	409.53
468.458	386.67
468.668	407.01
468.877	444.41
469.086	449.06
469.296	461.46
469.505	373.3
469.715	474.05
469.924	426.78
470.134	463.78
470.343	450.8
470.552	406.43
470.762	421.16
470.971	380.08
471.18	413.8
471.39	414.76
471.599	373.11
471.808	463.2
472.018	404.11
472.227	461.65
472.436	491.68
472.645	434.14
472.855	428.13
473.064	504.86
473.273	484.32
473.482	494.01
473.691	500.98
473.901	512.41
474.11	461.26
474.319	553.1
474.528	475.21
474.737	518.23
474.946	520.74
475.155	498.46
475.364	542.44
475.573	493.81
475.783	518.42
475.992	507.76
476.201	542.06
476.41	498.46
476.619	472.5
476.828	506.99
477.037	525.2
477.245	485.29
477.454	543.03
477.663	509.12
477.872	524.43
478.081	588.17
478.29	499.82
478.499	615.87
478.708	547.67
478.917	594.17
479.125	550.97
479.334	563.76
479.543	534.5
479.752	569.18
479.961	581.77
480.169	626.72
480.378	546.51
480.587	711.2
480.796	590.3
481.004	554.26
481.213	613.74
481.422	661.99
481.63	613.36
481.839	651.33
482.048	664.5
482.256	612.39
482.465	627.69
482.674	668.96
482.882	650.17
483.091	702.48
483.299	632.15
483.508	679.81
483.716	646.87
483.925	658.89
484.134	619.56
484.342	647.84
484.551	683.69
484.759	726.5
484.967	694.15
485.176	727.28
485.384	705.58
485.593	697.83
485.801	690.27
486.01	635.83
486.218	625.95
486.426	554.07
486.635	594.95
486.843	616.65
487.051	600.57
487.26	639.51
487.468	628.66
487.676	691.63
487.885	629.63
488.093	673.61
488.301	684.85
488.509	724.18
488.717	740.65
488.926	711.97
489.134	705.97
489.342	732.7
489.55	672.45
489.758	735.22
489.967	708.29
490.175	805.36
490.383	734.45
490.591	798.19
490.799	719.34
491.007	816.21
491.215	745.3
491.423	762.15
491.631	765.64
491.839	758.67
492.047	801.29
492.255	733.09
492.463	674.77
492.671	722.63
492.879	799.55
493.087	741.62
493.295	802.45
493.503	798.97
493.711	798.58
493.919	854.18
494.127	828.41
494.334	839.07
494.542	783.08
494.75	821.83
494.958	795.48
495.166	862.13
495.374	848.95
495.581	840.04
495.789	833.65
495.997	884.02
496.205	819.31
496.412	807.68
496.62	845.85
496.828	868.33
497.035	823.18
497.243	867.16
497.451	850.31
497.658	842.56
497.866	838.1
498.074	907.66
498.281	834.23
498.489	927.42
498.696	839.26
498.904	830.16
499.112	834.81
499.319	953.96
499.527	872.78
499.734	902.04
499.942	826.86
500.149	818.34
500.357	866.2
500.564	839.46
500.771	886.73
500.979	837.33
501.186	835.2
501.394	867.75
501.601	864.84
501.808	888.48
502.016	863.48
502.223	834.61
502.43	894.68
502.638	839.65
502.845	840.62
503.052	939.04
503.26	885.96
503.467	967.33
503.674	930.33
503.881	908.63
504.089	951.64
504.296	952.22
504.503	850.89
504.71	928.58
504.917	834.42
505.125	925.09
505.332	891.77
505.539	930.52
505.746	1003.17
505.953	978.38
506.16	963.26
506.367	1006.86
506.574	1005.5
506.781	1006.66
506.988	950.09
507.195	988.64
507.402	928.19
507.609	977.02
507.816	935.17
508.023	981.09
508.23	953.38
508.437	923.93
508.644	992.91
508.851	1010.73
509.058	993.87
509.265	976.24
509.472	1024.1
509.679	1116.9
509.885	990.77
510.092	995.81
510.299	1044.83
510.506	1005.69
510.713	1025.46
510.92	1011.89
511.126	1053.94
511.333	1041.15
511.54	1056.07
511.746	1114.97
511.953	1087.84
512.16	1083.58
512.367	1044.64
512.573	1044.44
512.78	1050.45
512.987	1045.41
513.193	1041.34
513.4	991.55
513.606	1037.47
513.813	1041.15
514.02	1023.13
514.226	1126.2
514.433	1087.84
514.639	990.39
514.846	1067.5
515.052	1046.38
515.259	1077.38
515.465	1080.29
515.672	1068.86
515.878	1131.63
516.085	1076.02
516.291	1100.24
516.497	1077.38
516.704	1061.69
516.91	1038.24
517.117	972.95
517.323	974.31
517.529	977.6
517.736	1007.05
517.942	996.59
518.148	987.87
518.354	1089
518.561	1047.54
518.767	1018.67
518.973	1076.22
519.179	1108.38
519.386	1085.13
519.592	1073.31
519.798	1033.21
520.004	1180.26
520.21	1110.9
520.417	1145
520.623	1169.8
520.829	1179.48
521.035	1175.22
521.241	1181.81
521.447	1197.31
521.653	1282.36
521.859	1176.58
522.065	1246.71
522.271	1308.52
522.477	1235.09
522.683	1288.56
522.889	1241.68
523.095	1232.77
523.301	1206.8
523.507	1237.61
523.713	1242.26
523.919	1208.74
524.125	1267.64
524.331	1263.18
524.537	1369.16
524.742	1334.09
524.948	1350.18
525.154	1331
525.36	1467.78
525.566	1319.76
525.772	1368.97
525.977	1295.73
526.183	1360.25
526.389	1346.3
526.595	1293.6
526.8	1289.34
527.006	1241.87
527.212	1186.85
527.417	1164.95
527.623	1211.65
527.829	1279.46
528.034	1299.41
528.24	1309.49
528.446	1326.73
528.651	1403.65
528.857	1367.03
529.062	1446.86
529.268	1386.6
529.473	1389.31
529.679	1402.88
529.884	1479.79
530.09	1429.61
530.295	1438.33
530.501	1433.68
530.706	1421.09
530.912	1383.11
531.117	1413.34
531.323	1451.89
531.528	1482.7
531.733	1454.02
531.939	1419.73
532.144	1451.89
532.35	1430.58
532.555	1456.54
532.76	1408.69
532.966	1431.36
533.171	1384.47
533.376	1416.44
533.581	1370.52
533.787	1439.49
533.992	1454.41
534.197	1484.64
534.402	1438.14
534.607	1445.31
534.813	1514.47
535.018	1449.96
535.223	1454.99
535.428	1474.17
535.633	1497.04
535.838	1513.7
536.043	1449.18
536.249	1563.88
536.454	1515.44
536.659	1558.65
536.864	1505.95
537.069	1496.46
537.274	1547.41
537.479	1539.08
537.684	1514.67
537.889	1454.22
538.094	1596.43
538.299	1520.48
538.504	1543.34
538.708	1550.51
538.913	1568.34
539.118	1539.66
539.323	1546.05
539.528	1512.15
539.733	1504.98
539.938	1561.94
540.142	1543.15
540.347	1527.26
540.552	1480.76
540.757	1492.39
540.962	1480.76
541.166	1447.05
541.371	1479.21
541.576	1484.44
541.781	1438.33
541.985	1549.35
542.19	1518.93
542.395	1572.21
542.599	1630.92
542.804	1555.35
543.008	1591.78
543.213	1513.31
543.418	1507.5
543.622	1572.21
543.827	1501.69
544.031	1599.14
544.236	1602.43
544.44	1604.57
544.645	1635.18
544.849	1585.39
545.054	1637.7
545.258	1688.65
545.463	1625.1
545.667	1551.48
545.872	1618.13
546.076	1584.61
546.281	1600.88
546.485	1590.62
546.689	1612.7
546.894	1618.71
547.098	1615.22
547.302	1553.8
547.507	1622.58
547.711	1634.98
547.915	1670.63
548.119	1551.67
548.324	1553.42
548.528	1618.32
548.732	1593.72
548.936	1622.58
549.141	1642.93
549.345	1603.02
549.549	1620.26
549.753	1608.44
549.957	1697.37
550.161	1714.42
550.366	1634.79
550.57	1632.66
550.774	1640.02
550.978	1623.55
551.182	1638.86
551.386	1614.64
551.59	1601.66
551.794	1607.67
551.998	1674.32
552.202	1646.42
552.406	1597.78
552.61	1644.48
552.814	1670.25
553.018	1694.46
553.222	1634.21
553.426	1615.61
553.63	1758.21
553.833	1586.35
554.037	1582.87
554.241	1680.13
554.445	1651.26
554.649	1640.6
554.853	1611.15
555.056	1664.24
555.26	1689.04
555.464	1629.37
555.668	1646.42
555.871	1643.12
556.075	1682.26
556.279	1597.01
556.483	1596.82
556.686	1608.25
556.89	1646.22
557.094	1649.9
557.297	1550.9
557.501	1620.65
557.704	1566.4
557.908	1652.23
558.112	1579.57
558.315	1660.17
558.519	1584.61
558.722	1605.92
558.926	1554.77
559.129	1516.99
559.333	1503.04
559.536	1505.56
559.74	1520.48
559.943	1489.87
560.147	1505.37
560.35	1538.89
560.553	1501.69
560.757	1459.84
560.96	1607.08
561.164	1547.99
561.367	1649.52
561.57	1549.93
561.774	1578.6
561.977	1529.78
562.18	1485.8
562.384	1598.17
562.587	1544.5
562.79	1506.92
562.993	1508.27
563.197	1578.22
563.4	1627.43
563.603	1595.85
563.806	1628.78
564.009	1481.73
564.212	1541.79
564.416	1468.94
564.619	1532.69
564.822	1469.52
565.025	1567.17
565.228	1534.24
565.431	1515.83
565.634	1457.9
565.837	1476.11
566.04	1470.69
566.243	1476.31
566.446	1406.94
566.649	1509.44
566.852	1433.49
567.055	1461.19
567.258	1510.21
567.461	1570.85
567.664	1536.75
567.867	1453.44
568.07	1468.56
568.273	1452.47
568.475	1511.57
568.678	1418.38
568.881	1457.51
569.084	1430.77
569.287	1343.2
569.489	1379.24
569.692	1458.48
569.895	1481.15
570.098	1384.86
570.3	1344.56
570.503	1311.04
570.706	1360.25
570.909	1366.45
571.111	1306.58
571.314	1338.55
571.516	1320.92
571.719	1362.77
571.922	1326.15
572.124	1354.24
572.327	1384.66
572.529	1298.83
572.732	1321.11
572.935	1348.04
573.137	1428.84
573.34	1342.23
573.542	1401.71
573.745	1372.46
573.947	1373.23
574.15	1316.08
574.352	1317.82
574.554	1363.35
574.757	1318.21
574.959	1270.93
575.162	1286.63
575.364	1303.29
575.566	1383.89
575.769	1276.75
575.971	1304.84
576.173	1177.16
576.376	1257.76
576.578	1354.24
576.78	1362.58
576.982	1230.44
577.185	1289.34
577.387	1262.21
577.589	1266.48
577.791	1301.74
577.993	1278.49
578.196	1269.58
578.398	1289.53
578.6	1326.35
578.802	1228.31
579.004	1225.4
579.206	1224.24
579.408	1270.93
579.61	1212.03
579.812	1296.31
580.014	1238.97
580.216	1214.17
580.418	1280.23
580.62	1230.83
580.822	1226.37
581.024	1256.01
581.226	1321.11
581.428	1273.45
581.63	1345.91
581.832	1227.15
582.034	1333.32
582.236	1260.08
582.438	1303.87
582.64	1318.6
582.841	1359.09
583.043	1348.24
583.245	1311.43
583.447	1312.2
583.649	1297.09
583.85	1308.91
584.052	1349.4
584.254	1245.36
584.456	1331.96
584.657	1272.68
584.859	1321.89
585.061	1275.2
585.262	1245.55
585.464	1244.78
585.666	1289.15
585.867	1228.5
586.069	1314.72
586.27	1254.85
586.472	1272.68
586.674	1258.73
586.875	1239.55
587.077	1250.78
587.278	1262.99
587.48	1207.19
587.681	1371.88
587.883	1288.37
588.084	1223.66
588.285	1253.69
588.487	1215.13
588.688	1218.43
588.89	1162.63
589.091	1104.31
589.292	1128.53
589.494	1125.43
589.695	1080.29
589.896	1029.52
590.098	1046.57
590.299	1132.99
590.5	1050.26
590.702	1064.21
590.903	1115.16
591.104	1189.75
591.305	1159.14
591.507	1201.77
591.708	1186.07
591.909	1147.9
592.11	1207.97
592.311	1181.23
592.512	1135.89
592.714	1088.81
592.915	1120.97
593.116	1100.63
593.317	1157.4
593.518	1139.96
593.719	1160.88
593.92	1170.57
594.121	1182.58
594.322	1151
594.523	1136.67
594.724	1096.56
594.925	1110.32
595.126	1136.28
595.327	1154.69
595.528	1151.59
595.729	1153.52
595.929	1128.53
596.13	1138.6
596.331	1165.15
596.532	1140.74
596.733	1201.77
596.934	1189.17
597.135	1185.49
597.335	1167.28
597.536	1095.4
597.737	1156.62
597.938	1112.45
598.138	1119.62
598.339	1125.62
598.54	1165.15
598.74	1154.49
598.941	1143.64
599.142	1187.62
599.342	1169.8
599.543	1121.36
599.744	1131.44
599.944	1133.95
600.145	1146.74
600.345	1145.19
600.546	1197.12
600.746	1190.33
600.947	1219.98
601.147	1174.83
601.348	1190.33
601.548	1117.29
601.749	1162.43
601.949	1089.59
602.15	1107.6
602.35	1121.94
602.551	1166.5
602.751	1103.92
602.951	1122.91
603.152	1080.67
603.352	1180.84
603.552	1146.16
603.753	1136.28
603.953	1148.29
604.153	1139.19
604.354	1159.53
604.554	1131.24
604.754	1136.67
604.954	1095.79
605.155	1135.12
605.355	1145.77
605.555	1182.39
605.755	1213.58
605.955	1177.93
606.155	1164.76
606.356	1135.7
606.556	1192.27
606.756	1167.28
606.956	1101.79
607.156	1178.52
607.356	1102.57
607.556	1172.32
607.756	1143.64
607.956	1199.63
608.156	1138.99
608.356	1119.42
608.556	1164.76
608.756	1124.46
608.956	1080.67
609.156	1122.33
609.356	1065.37
609.556	1065.17
609.755	1094.43
609.955	1103.34
610.155	1069.63
610.355	1123.69
610.555	1089.78
610.755	1092.69
610.954	1010.15
611.154	1115.35
611.354	1142.09
611.554	1067.31
611.753	1091.52
611.953	1025.26
612.153	1097.72
612.352	1091.72
612.552	1028.75
612.752	999.49
612.951	1054.71
613.151	1064.21
613.351	1037.66
613.55	1065.76
613.75	1025.46
613.949	1058.2
614.149	1059.75
614.348	1025.65
614.548	1008.41
614.747	1007.63
614.947	1016.35
615.146	993.29
615.346	1073.7
615.545	1041.54
615.745	1050.26
615.944	1056.46
616.144	1032.43
616.343	1066.92
616.542	966.56
616.742	1044.83
616.941	1012.47
617.14	982.06
617.34	1035.92
617.539	1004.92
617.738	944.47
617.938	1037.86
618.137	1028.75
618.336	991.55
618.535	1050.26
618.734	1017.71
618.934	1047.54
619.133	1002.98
619.332	1028.75
619.531	1001.62
619.73	1043.67
619.929	1052.39
620.128	1015.96
620.328	1082.03
620.527	1005.69
620.726	1006.66
620.925	1027.97
621.124	979.15
621.323	1035.92
621.522	970.24
621.721	970.24
621.92	987.09
622.119	1012.86
622.318	1005.11
622.517	978.96
622.715	1008.79
622.914	950.48
623.113	973.92
623.312	915.41
623.511	981.48
623.71	991.74
623.909	942.92
624.107	1049.29
624.306	917.93
624.505	966.36
624.704	945.05
624.902	936.33
625.101	1024.1
625.3	938.27
625.499	939.43
625.697	933.23
625.896	925.68
626.095	982.25
626.293	906.3
626.492	957.84
626.69	993.87
626.889	933.81
627.088	978.18
627.286	912.89
627.485	892.35
627.683	907.08
627.882	946.21
628.08	838.1
628.279	875.3
628.477	989.22
628.676	881.7
628.874	934.39
629.073	873.36
629.271	855.35
629.469	918.7
629.668	865.81
629.866	877.63
630.065	884.8
630.263	911.92
630.461	865.81
630.66	906.88
630.858	900.88
631.056	922.58
631.254	952.03
631.453	872.78
631.651	903.98
631.849	895.45
632.047	863.1
632.245	868.33
632.444	914.83
632.642	932.65
632.84	965.59
633.038	897.58
633.236	855.35
633.434	893.9
633.632	867.55
633.83	888.28
634.028	916.96
634.227	902.23
634.425	970.04
634.623	922.19
634.821	891
635.019	904.36
635.216	866.58
635.414	936.72
635.612	916.18
635.81	892.93
636.008	979.93
636.206	878.79
636.404	920.25
636.602	876.85
636.8	879.18
636.997	928.19
637.195	921.03
637.393	915.79
637.591	961.52
637.789	938.85
637.986	907.27
638.184	895.06
638.382	971.21
638.58	945.63
638.777	969.85
638.975	881.31
639.173	914.05
639.37	908.82
639.568	910.76
639.765	934.98
639.963	900.68
640.161	943.89
640.358	951.44
640.556	863.48
640.753	868.52
640.951	832.68
641.148	899.33
641.346	861.55
641.543	855.54
641.741	894.48
641.938	848.18
642.136	919.86
642.333	839.65
642.531	934.01
642.728	947.18
642.925	903.59
643.123	868.71
643.32	894.29
643.517	894.48
643.715	903.39
643.912	833.06
644.109	878.01
644.306	882.28
644.504	825.9
644.701	874.72
644.898	884.21
645.095	866.58
645.293	834.81
645.49	894.1
645.687	895.84
645.884	905.14
646.081	807.68
646.278	819.31
646.475	830.35
646.672	849.53
646.87	856.9
647.067	841.78
647.264	884.6
647.461	774.75
647.658	760.02
647.855	824.35
648.052	801.87
648.249	736.97
648.446	795.67
648.642	790.63
648.839	780.95
649.036	778.62
649.233	740.45
649.43	747.82
649.627	726.89
649.824	768.16
650.021	768.93
650.217	778.23
650.414	766.8
650.611	803.03
650.808	806.33
651.004	808.65
651.201	790.44
651.398	817.37
651.595	771.65
651.791	745.1
651.988	787.73
652.185	751.5
652.381	788.5
652.578	729.8
652.775	769.52
652.971	770.29
653.168	752.27
653.364	820.28
653.561	694.54
653.757	792.18
653.954	767.38
654.15	737.55
654.347	815.05
654.543	763.12
654.74	696.86
654.936	743.94
655.133	741.81
655.329	781.53
655.525	734.83
655.722	762.73
655.918	680.97
656.115	728.05
656.311	675.55
656.507	632.73
656.704	606.38
656.9	636.41
657.096	644.94
657.292	628.86
657.489	735.42
657.685	713.33
657.881	698.41
658.077	697.05
658.273	714.3
658.47	786.95
658.666	737.74
658.862	771.45
659.058	716.43
659.254	770.48
659.45	737.35
659.646	746.85
659.842	710.81
660.038	760.6
660.234	692.99
660.43	730.18
660.626	795.87
660.822	788.31
661.018	772.23
661.214	722.63
661.41	678.26
661.606	765.64
661.802	794.51
661.998	719.34
662.194	687.95
662.39	747.82
662.586	765.83
662.781	764.67
662.977	763.32
663.173	746.07
663.369	733.87
663.564	744.13
663.76	761.38
663.956	747.23
664.152	777.27
664.347	694.73
664.543	718.37
664.739	713.33
664.934	673.42
665.13	637.38
665.326	714.69
665.521	738.9
665.717	703.25
665.912	700.54
666.108	621.3
666.304	684.27
666.499	708.87
666.695	609.67
666.89	683.49
667.086	729.99
667.281	702.87
667.477	739.29
667.672	722.43
667.867	702.29
668.063	730.18
668.258	664.31
668.454	653.85
668.649	760.22
668.844	707.32
669.04	739.29
669.235	672.64
669.43	638.15
669.626	662.76
669.821	681.94
670.016	654.82
670.211	650.75
670.407	638.35
670.602	677.68
670.797	695.31
670.992	713.72
671.187	635.05
671.382	691.44
671.578	676.71
671.773	712.55
671.968	616.65
672.163	656.95
672.358	696.47
672.553	633.51
672.748	654.82
672.943	736.77
673.138	655.59
673.333	687.56
673.528	626.14
673.723	667.02
673.918	690.66
674.113	640.48
674.308	726.5
674.503	730.77
674.698	677.87
674.892	676.52
675.087	698.22
675.282	682.52
675.477	657.14
675.672	685.43
675.867	674
676.061	643.58
676.256	645.9
676.451	639.7
676.646	655.4
676.84	629.05
677.035	620.52
677.23	605.99
677.424	696.67
677.619	701.51
677.814	689.89
678.008	697.64
678.203	618.39
678.397	642.42
678.592	669.74
678.787	720.11
678.981	645.32
679.176	707.13
679.37	655.98
679.565	643.19
679.759	640.48
679.954	698.22
680.148	697.44
680.342	707.13
680.537	659.85
680.731	663.15
680.926	696.09
681.12	677.1
681.314	653.07
681.509	639.12
681.703	650.36
681.897	684.27
682.092	645.32
682.286	643
682.48	729.8
682.674	699.96
682.869	643.97
683.063	648.04
683.257	721.66
683.451	669.74
683.645	687.56
683.839	673.61
684.034	689.69
684.228	709.07
684.422	621.11
684.616	609.48
684.81	678.07
685.004	660.05
685.198	653.85
685.392	678.65
685.586	662.18
685.78	680.39
685.974	709.07
686.168	658.5
686.362	705.58
686.556	611.03
686.75	584.87
686.944	641.64
687.138	579.84
687.331	517.26
687.525	526.94
687.719	443.83
687.913	502.53
688.107	526.94
688.301	511.25
688.494	553.87
688.688	517.84
688.882	487.81
689.076	483.93
689.269	535.66
689.463	626.34
689.657	562.4
689.85	566.66
690.044	564.72
690.238	581.39
690.431	544.19
690.625	552.91
690.818	582.36
691.012	585.84
691.205	614.13
691.399	558.91
691.593	622.46
691.786	690.08
691.98	693.57
692.173	684.27
692.366	681.17
692.56	695.89
692.753	754.98
692.947	640.29
693.14	729.02
693.333	696.47
693.527	676.52
693.72	705.77
693.914	701.51
694.107	655.98
694.3	699.38
694.493	659.85
694.687	749.37
694.88	691.82
695.073	767.38
695.266	758.86
695.46	736.58
695.653	753.82
695.846	785.98
696.039	702.87
696.232	742.58
696.425	812.33
696.618	821.44
696.812	805.94
697.005	871.23
697.198	923.16
697.391	863.1
697.584	880.73
697.777	934.78
697.97	902.43
698.163	888.86
698.356	876.08
698.549	980.12
698.742	940.59
698.935	901.26
699.127	945.63
699.32	881.31
699.513	882.08
699.706	961.52
699.899	952.41
700.092	927.61
700.285	971.79
700.477	910.95
700.67	967.91
700.863	985.35
701.056	1027.01
701.248	1033.79
701.441	1001.43
701.634	956.09
701.826	1074.67
702.019	998.52
702.212	1055.68
702.404	990
702.597	1002.21
702.79	1021.19
702.982	1035.53
703.175	1121.36
703.367	1103.15
703.56	1099.27
703.752	1164.18
703.945	1137.64
704.137	1136.67
704.33	1178.13
704.522	1164.57
704.715	1175.61
704.907	1204.67
705.1	1207.77
705.292	1245.94
705.484	1210.1
705.677	1233.15
705.869	1244.97
706.061	1249.81
706.254	1328.48
706.446	1253.11
706.638	1275.39
706.831	1343.59
707.023	1306.97
707.215	1350.95
707.407	1395.9
707.599	1349.4
707.792	1357.54
707.984	1393.19
708.176	1415.08
708.368	1392.8
708.56	1431.36
708.752	1406.75
708.944	1387.38
709.136	1434.65
709.329	1381.18
709.521	1528.81
709.713	1504.21
709.905	1525.32
710.097	1520.29
710.289	1504.79
710.481	1516.6
710.672	1527.07
710.864	1518.15
711.056	1601.08
711.248	1561.17
711.44	1577.83
711.632	1556.13
711.824	1564.07
712.016	1630.92
712.207	1608.05
712.399	1641.57
712.591	1690.59
712.783	1639.63
712.975	1679.55
713.166	1631.3
713.358	1668.7
713.55	1713.45
713.741	1718.49
713.933	1703.57
714.125	1689.81
714.316	1675.09
714.508	1778.36
714.7	1739.22
714.891	1734.18
715.083	1804.32
715.274	1765.38
715.466	1747.55
715.657	1782.04
715.849	1690.98
716.04	1758.6
716.232	1721.2
716.423	1732.44
716.615	1680.13
716.806	1663.85
716.998	1629.95
717.189	1581.7
717.381	1489.48
717.572	1493.36
717.763	1515.25
717.955	1480.96
718.146	1467.39
718.337	1396.87
718.528	1401.91
718.72	1346.49
718.911	1366.84
719.102	1370.33
719.293	1399.97
719.485	1372.65
719.676	1359.86
719.867	1337.39
720.058	1371.29
720.249	1365.68
720.44	1377.88
720.632	1415.47
720.823	1441.24
721.014	1572.02
721.205	1551.67
721.396	1646.03
721.587	1737.09
721.778	1720.23
721.969	1771.38
722.16	1820.4
722.351	1773.13
722.542	1914.37
722.733	1912.62
722.924	1840.16
723.115	1955.05
723.305	1861.28
723.496	1887.82
723.687	1735.15
723.878	1785.91
724.069	1787.27
724.26	1787.27
724.45	1735.93
724.641	1736.51
724.832	1747.16
725.023	1742.9
725.213	1735.54
725.404	1754.33
725.595	1722.17
725.785	1702.21
725.976	1806.45
726.167	1734.96
726.357	1779.71
726.548	1908.94
726.739	1795.6
726.929	1830.09
727.12	1870.39
727.31	1927.74
727.501	1828.34
727.691	1862.64
727.882	1869.03
728.072	1902.74
728.263	1885.31
728.453	1938.78
728.644	1916.5
728.834	1893.25
729.024	1876.39
729.215	1901.77
729.405	1896.54
729.596	2010.47
729.786	2020.93
729.976	2013.37
730.167	2032.94
730.357	1945.17
730.547	1942.46
730.737	2022.09
730.928	2063.17
731.118	2061.81
731.308	2044.18
731.498	2033.52
731.688	2127.88
731.879	2114.12
732.069	2159.65
732.259	2201.31
732.449	2219.33
732.639	2281.52
732.829	2291.4
733.019	2306.9
733.209	2352.82
733.399	2357.47
733.589	2403
733.779	2406.68
733.969	2416.17
734.159	2499.48
734.349	2545.79
734.539	2511.11
734.729	2505.49
734.919	2554.32
735.109	2582.41
735.299	2509.75
735.488	2541.53
735.678	2582.8
735.868	2567.68
736.058	2558.77
736.248	2571.17
736.437	2520.02
736.627	2551.41
736.817	2659.13
737.007	2592.1
737.196	2612.44
737.386	2608.18
737.576	2558.38
737.765	2663.98
737.955	2583.76
738.144	2718.42
738.334	2641.11
738.524	2631.04
738.713	2672.5
738.903	2669.21
739.092	2707.38
739.282	2661.65
739.471	2703.11
739.661	2651.58
739.85	2752.32
740.04	2726.17
740.229	2745.93
740.419	2769.76
740.608	2805.02
740.797	2727.53
740.987	2794.95
741.176	2778.67
741.365	2735.47
741.555	2687.81
741.744	2818.97
741.933	2772.09
742.123	2765.11
742.312	2790.3
742.501	2854.24
742.69	2854.62
742.88	2716.87
743.069	2866.05
743.258	2762.4
743.447	2862.37
743.636	2884.27
743.825	2847.65
744.014	2827.5
744.204	2871.87
744.393	2814.91
744.582	2862.37
744.771	2881.55
744.96	2805.22
745.149	2850.75
745.338	2847.26
745.527	2867.99
745.716	2860.63
745.905	2821.69
746.094	2850.55
746.283	2900.54
746.471	2922.43
746.66	2913.13
746.849	2915.85
747.038	2975.33
747.227	2859.08
747.416	2896.86
747.604	2837.77
747.793	2870.12
747.982	2888.72
748.171	2882.91
748.359	2908.48
748.548	2899.38
748.737	2890.27
748.926	2910.42
749.114	2797.66
749.303	2886.01
749.491	2878.84
749.68	2849.2
749.869	2887.37
750.057	2866.64
750.246	2841.45
750.434	2853.46
750.623	2821.3
750.811	2811.03
751	2845.52
751.188	2855.98
751.377	2842.42
751.565	2808.12
751.754	2774.8
751.942	2795.92
752.131	2866.64
752.319	2781.97
752.507	2757.36
752.696	2836.6
752.884	2856.56
753.072	2799.21
753.261	2859.08
753.449	2844.55
753.637	2842.03
753.825	2869.74
754.014	2829.63
754.202	2786.23
754.39	2883.3
754.578	2841.64
754.766	2799.21
754.955	2820.33
755.143	2883.1
755.331	2754.84
755.519	2782.16
755.707	2760.66
755.895	2768.02
756.083	2780.61
756.271	2721.71
756.459	2722.68
756.647	2795.53
756.835	2767.63
757.023	2716.48
757.211	2700.01
757.399	2720.55
757.587	2743.41
757.775	2715.71
757.963	2730.43
758.151	2717.26
758.339	2658.94
758.526	2671.73
758.714	2681.41
758.902	2611.86
759.09	2520.8
759.278	2345.07
759.465	2206.54
759.653	1904.68
759.841	1718.88
760.028	1479.02
760.216	1276.36
760.404	1218.43
760.591	977.6
760.779	805.75
760.967	735.61
761.154	620.72
761.342	644.16
761.529	648.04
761.717	719.72
761.905	703.84
762.092	759.25
762.28	707.71
762.467	731.35
762.655	656.17
762.842	698.02
763.029	673.61
763.217	710.81
763.404	685.43
763.592	728.05
763.779	666.05
763.966	699.77
764.154	752.27
764.341	813.88
764.528	796.06
764.716	871.43
764.903	918.89
765.09	968.3
765.277	996.2
765.465	1142.29
765.652	1169.02
765.839	1248.65
766.026	1320.15
766.213	1356.57
766.4	1444.14
766.588	1618.52
766.775	1607.67
766.962	1723.53
767.149	1737.09
767.336	1860.31
767.523	1832.22
767.71	1941.49
767.897	2056.19
768.084	2083.12
768.271	2115.09
768.458	2189.49
768.645	2256.14
768.832	2199.95
769.019	2187.36
769.206	2254.59
769.392	2295.86
769.579	2371.22
769.766	2353.21
769.953	2322.4
770.14	2381.88
770.327	2415.98
770.513	2404.55
770.7	2476.04
770.887	2395.44
771.073	2416.75
771.26	2445.82
771.447	2388.85
771.634	2413.85
771.82	2499.1
772.007	2338.67
772.193	2418.11
772.38	2472.17
772.567	2387.69
772.753	2421.99
772.94	2496.97
773.126	2475.46
773.313	2447.37
773.499	2469.26
773.686	2468.49
773.872	2414.24
774.059	2429.35
774.245	2368.51
774.432	2414.04
774.618	2390.79
774.804	2442.72
774.991	2369.87
775.177	2420.82
775.363	2393.89
775.55	2436.52
775.736	2344.49
775.922	2404.16
776.109	2379.36
776.295	2402.8
776.481	2388.66
776.667	2446.01
776.853	2365.61
777.04	2334.61
777.226	2350.69
777.412	2426.25
777.598	2311.16
777.784	2325.69
777.97	2321.62
778.156	2387.69
778.342	2337.71
778.528	2316.97
778.715	2330.15
778.901	2318.52
779.087	2356.69
779.272	2302.64
779.458	2274.93
779.644	2331.51
779.83	2295.08
780.016	2364.64
780.202	2321.24
780.388	2309.61
780.574	2227.27
780.76	2244.71
780.946	2305.54
781.131	2281.71
781.317	2286.17
781.503	2235.21
781.689	2264.28
781.874	2331.31
782.06	2254.01
782.246	2246.84
782.432	2244.32
782.617	2236.18
782.803	2285.98
782.989	2171.28
783.174	2159.65
783.36	2147.83
783.545	2226.69
783.731	2174.18
783.916	2133.3
784.102	2230.18
784.288	2137.95
784.473	2203.44
784.659	2163.14
784.844	2208.48
785.029	2151.51
785.215	2139.89
785.4	2113.73
785.586	2172.44
785.771	2116.06
785.956	2131.75
786.142	2095.72
786.327	2122.65
786.512	2100.37
786.698	2100.17
786.883	2052.9
787.068	2066.27
787.254	2098.43
787.439	2055.8
787.624	2048.25
787.809	2081.38
787.994	2056.97
788.18	2154.42
788.365	1995.74
788.55	2033.13
788.735	2016.09
788.92	2031.2
789.105	2038.17
789.29	2059.1
789.475	2014.34
789.66	2018.02
789.845	1939.94
790.03	1915.53
790.215	2003.3
790.4	2011.82
790.585	2066.46
790.77	1994.58
790.955	1886.66
791.14	1973.07
791.325	2021.7
791.51	1878.33
791.695	1974.04
791.879	1947.5
792.064	1919.99
792.249	2012.99
792.434	1955.25
792.618	1940.72
792.803	2002.91
792.988	1952.73
793.173	1954.09
793.357	1980.82
793.542	1907.01
793.727	1936.65
793.911	1991.87
794.096	1932.39
794.281	2006.4
794.465	2087.58
794.65	1972.88
794.834	1993.42
795.019	2044.76
795.203	2007.56
795.388	2028.87
795.572	2005.43
795.757	1993.03
795.941	2005.43
796.126	1974.82
796.31	1939.17
796.494	1954.47
796.679	1952.73
796.863	1911.46
797.048	2003.1
797.232	1997.29
797.416	1970.75
797.601	1955.64
797.785	2050.57
797.969	2005.04
798.153	1939.56
798.338	1962.61
798.522	2011.44
798.706	2005.43
798.89	2031.78
799.074	2077.89
799.258	2060.07
799.443	1984.12
799.627	1986.44
799.811	2014.34
799.995	1991.48
800.179	1968.81
800.363	1985.86
800.547	2026.74
800.731	2025.39
800.915	1932.58
801.099	2001.94
801.283	1969.97
801.467	1990.12
801.651	1947.69
801.835	2015.12
802.019	1992.64
802.202	2002.72
802.386	1947.11
802.57	1955.44
802.754	1976.56
802.938	1970.55
803.121	1941.49
803.305	2021.9
803.489	1975.4
803.673	1980.82
803.856	2001.36
804.04	1969.97
804.224	1991.09
804.407	1968.62
804.591	1947.89
804.775	2023.45
804.958	1950.02
805.142	2081.18
805.326	1992.06
805.509	1981.02
805.693	2034.68
805.876	2020.93
806.06	2003.49
806.243	1998.65
806.427	2031.39
806.61	2011.05
806.794	2000
806.977	2038.37
807.16	2007.56
807.344	2032.75
807.527	2005.04
807.71	1993.8
807.894	2038.95
808.077	2015.31
808.26	1994.19
808.444	1952.34
808.627	2021.51
808.81	1938.01
808.993	1937.42
809.177	1898.29
809.36	1923.47
809.543	1961.06
809.726	1894.02
809.909	1873.29
810.092	1886.27
810.276	1857.6
810.459	1903.71
810.642	1849.66
810.825	1829.12
811.008	1829.7
811.191	1789.01
811.374	1777.97
811.557	1800.64
811.74	1877.17
811.923	1731.66
812.106	1801.22
812.289	1700.28
812.472	1767.9
812.654	1759.18
812.837	1691.75
813.02	1659.4
813.203	1640.22
813.386	1565.24
813.569	1533.65
813.751	1523.97
813.934	1567.95
814.117	1561.55
814.3	1501.88
814.482	1484.64
814.665	1437.36
814.848	1446.66
815.03	1363.16
815.213	1374.59
815.396	1385.63
815.578	1361.99
815.761	1306.39
815.943	1397.06
816.126	1293.21
816.309	1269.96
816.491	1214.94
816.674	1195.95
816.856	1215.91
817.039	1209.32
817.221	1303.48
817.403	1217.27
817.586	1247.88
817.768	1239.55
817.951	1167.86
818.133	1184.91
818.315	1226.37
818.498	1224.43
818.68	1302.13
818.862	1271.9
819.045	1277.33
819.227	1267.45
819.409	1258.34
819.591	1251.56
819.774	1273.26
819.956	1213.39
820.138	1313.36
820.32	1274.42
820.502	1361.61
820.684	1398.42
820.866	1393.96
821.048	1419.15
821.231	1411.4
821.413	1415.28
821.595	1411.79
821.777	1398.81
821.959	1404.04
822.141	1469.91
822.323	1315.88
822.505	1286.43
822.686	1278.88
822.868	1207.19
823.05	1121.17
823.232	1072.34
823.414	1077.19
823.596	1127.75
823.778	1075.25
823.96	1146.94
824.141	1106.05
824.323	1155.07
824.505	1241.68
824.687	1323.44
824.868	1297.09
825.05	1371.88
825.232	1382.73
825.413	1482.12
825.595	1410.43
825.777	1347.08
825.958	1385.24
826.14	1353.47
826.321	1401.52
826.503	1347.85
826.685	1382.53
826.866	1403.65
827.048	1405.98
827.229	1355.79
827.411	1304.45
827.592	1277.91
827.773	1268.8
827.955	1258.92
828.136	1232.57
828.318	1223.27
828.499	1287.01
828.68	1206.61
828.862	1255.24
829.043	1281.4
829.224	1269.77
829.406	1211.84
829.587	1252.53
829.768	1223.27
829.949	1271.71
830.131	1271.32
830.312	1314.53
830.493	1241.68
830.674	1219.01
830.855	1244.78
831.036	1227.15
831.218	1284.88
831.399	1308.13
831.58	1247.88
831.761	1254.46
831.942	1261.05
832.123	1244.97
832.304	1206.42
832.485	1194.79
832.666	1243.42
832.847	1250.2
833.028	1249.81
833.209	1236.83
833.389	1236.83
833.57	1186.27
833.751	1199.25
833.932	1240.52
834.113	1244
834.294	1237.03
834.475	1246.71
834.655	1268.61
834.836	1306.2
835.017	1252.53
835.198	1184.91
835.378	1268.8
835.559	1270.35
835.74	1229.67
835.92	1238.19
836.101	1209.9
836.281	1260.08
836.462	1255.05
836.643	1284.88
836.823	1296.12
837.004	1312.78
837.184	1359.28
837.365	1293.21
837.545	1320.92
837.726	1279.85
837.906	1351.73
838.087	1288.37
838.267	1308.33
838.448	1248.46
838.628	1273.06
838.808	1291.66
838.989	1341.07
839.169	1250.78
839.349	1331.96
839.53	1338.36
839.71	1340.1
839.89	1265.12
840.07	1335.26
840.251	1252.14
840.431	1314.91
840.611	1287.79
840.791	1251.17
840.971	1283.72
841.151	1297.28
841.332	1272.68
841.512	1295.73
841.692	1216.68
841.872	1300
842.052	1270.93
842.232	1307.94
842.412	1230.05
842.592	1265.7
842.772	1261.25
842.952	1257.37
843.132	1235.09
843.312	1254.27
843.492	1210.87
843.672	1271.51
843.851	1214.94
844.031	1270.16
844.211	1240.32
844.391	1235.48
844.571	1263.38
844.751	1256.4
844.93	1259.5
845.11	1204.87
845.29	1257.56
845.47	1271.71
845.649	1244.58
845.829	1284.3
846.009	1226.37
846.188	1272.68
846.368	1225.79
846.547	1277.33
846.727	1297.09
846.907	1202.93
847.086	1232.57
847.266	1252.33
847.445	1259.7
847.625	1214.75
847.804	1183.17
847.984	1219.01
848.163	1187.43
848.343	1172.12
848.522	1247.49
848.701	1240.9
848.881	1192.27
849.06	1229.86
849.239	1231.41
849.419	1218.04
849.598	1149.84
849.777	1144.22
849.957	1162.43
850.136	1102.18
850.315	1105.09
850.494	1086.68
850.674	1095.01
850.853	1171.73
851.032	1120
851.211	1179.29
851.39	1175.42
851.569	1097.72
851.748	1100.63
851.927	1148.1
852.107	1148.68
852.286	1099.85
852.465	1093.65
852.644	1149.26
852.823	1134.54
853.002	1089
853.181	1116.9
853.359	1111.87
853.538	1069.63
853.717	1105.47
853.896	1065.37
854.075	995.42
854.254	1003.95
854.433	921.22
854.611	962.29
854.79	928.78
854.969	991.16
855.148	1001.04
855.327	971.21
855.505	1003.76
855.684	1000.07
855.863	1012.28
856.041	1000.66
856.22	1036.11
856.399	1013.44
856.577	1096.75
856.756	1068.47
856.934	1187.23
857.113	1149.45
857.291	1094.04
857.47	1028.75
857.648	1099.85
857.827	1086.49
858.005	1103.34
858.184	1042.7
858.362	1127.56
858.541	1072.34
858.719	1095.79
858.898	1073.5
859.076	1043.47
859.254	1142.48
859.433	1049.09
859.611	1059.17
859.789	1026.42
859.967	1134.15
860.146	1139.57
860.324	1007.05
860.502	1018.29
860.68	962.29
860.859	1019.26
861.037	1032.62
861.215	1055.87
861.393	1022.16
861.571	1016.74
861.749	991.74
861.927	1045.99
862.105	1026.23
862.283	1021.39
862.461	1006.27
862.639	964.43
862.817	971.21
862.995	999.11
863.173	996.39
863.351	1020.22
863.529	1022.36
863.707	1042.51
863.885	1023.13
864.063	945.24
864.241	977.6
864.418	1046.96
864.596	981.28
864.774	951.06
864.952	968.3
865.129	1018.09
865.307	972.76
865.485	928.78
865.663	1002.98
865.84	903.01
866.018	961.52
866.196	834.81
866.373	868.13
866.551	851.08
866.728	782.11
866.906	853.41
867.084	877.43
867.261	885.57
867.439	899.33
867.616	914.83
867.794	915.41
867.971	902.81
868.149	924.71
868.326	975.86
868.503	957.45
868.681	911.92
868.858	931.88
869.035	886.15
869.213	948.93
869.39	894.68
869.567	971.79
869.745	903.98
869.922	928.97
870.099	934.98
870.276	957.84
870.454	918.31
870.631	912.89
870.808	915.21
870.985	951.25
871.162	960.16
871.339	937.88
871.517	878.98
871.694	890.41
871.871	923.35
872.048	908.04
872.225	890.41
872.402	911.73
872.579	848.56
872.756	886.73
872.933	853.21
873.11	872.01
873.287	891.58
873.463	874.14
873.64	858.25
873.817	917.34
873.994	881.89
874.171	852.05
874.348	880.53
874.524	819.89
874.701	859.41
874.878	810.2
875.055	846.24
875.231	864.26
875.408	877.43
875.585	794.7
875.762	822.02
875.938	867.55
876.115	831.9
876.291	844.69
876.468	852.63
876.645	761.96
876.821	814.08
876.998	819.31
877.174	835.97
877.351	857.48
877.527	799.55
877.704	847.98
877.88	823.38
878.057	821.44
878.233	839.65
878.409	800.9
878.586	804.78
878.762	828.22
878.938	812.14
879.115	733.67
879.291	803.81
879.467	758.28
879.644	793.54
879.82	804.58
879.996	781.14
880.172	756.15
880.349	755.37
880.525	833.26
880.701	746.27
880.877	738.52
881.053	786.18
881.229	786.95
881.405	819.89
881.581	715.27
881.757	783.47
881.933	784.43
882.109	778.23
882.285	764.87
882.461	721.85
882.637	767.77
882.813	744.33
882.989	749.56
883.165	819.5
883.341	733.87
883.517	780.56
883.693	784.63
883.869	816.79
884.044	731.35
884.22	809.81
884.396	806.91
884.572	793.35
884.747	826.67
884.923	783.66
885.099	798.58
885.275	793.15
885.45	730.38
885.626	736.58
885.801	739.48
885.977	742.2
886.153	728.44
886.328	766.61
886.504	738.52
886.679	793.15
886.855	725.53
887.03	792.18
887.206	766.03
887.381	798.58
887.557	785.79
887.732	797.8
887.908	805.55
888.083	819.11
888.258	738.32
888.434	749.75
888.609	755.37
888.784	792.77
888.96	780.17
889.135	744.91
889.31	727.47
889.485	794.32
889.661	728.25
889.836	769.32
890.011	785.4
890.186	771.84
890.361	744.13
890.537	784.63
890.712	759.05
890.887	771.65
891.062	752.85
891.237	808.46
891.412	720.89
891.587	776.49
891.762	807.88
891.937	795.09
892.112	713.52
892.287	756.73
892.462	683.3
892.637	701.9
892.812	689.11
892.987	684.27
893.161	652.69
893.336	718.56
893.511	692.02
893.686	705.58
893.861	712.17
894.035	682.14
894.21	723.4
894.385	639.32
894.56	676.52
894.734	638.54
894.909	624.21
895.084	660.44
895.258	612.19
895.433	676.13
895.608	624.4
895.782	563.17
895.957	623.62
896.131	597.08
896.306	553.49
896.48	545.54
896.655	550
896.829	492.26
897.004	492.84
897.178	502.14
897.353	503.69
897.527	569.76
897.701	498.85
897.876	483.35
898.05	551.74
898.224	532.37
898.399	569.76
898.573	514.16
898.747	450.61
898.921	501.18
899.096	420.38
899.27	419.22
899.444	421.55
899.618	449.64
899.792	463.98
899.967	422.13
900.141	474.24
900.315	402.36
900.489	443.83
900.663	463.78
900.837	450.61
901.011	394.61
901.185	527.53
901.359	444.99
901.533	443.05
901.707	486.84
901.881	451.58
902.055	395.78
902.229	441.7
902.403	496.33
902.576	443.63
902.75	464.17
902.924	560.27
903.098	517.26
903.272	512.41
903.446	551.16
903.619	533.73
903.793	564.34
903.967	534.5
904.14	579.64
904.314	582.36
904.488	563.37
904.661	611.61
904.835	568.41
905.009	607.35
905.182	630.21
905.356	565.69
905.529	576.16
905.703	532.76
905.876	536.63
906.05	522.1
906.223	501.56
906.397	450.8
906.57	441.31
906.744	441.7
906.917	450.22
907.09	457
907.264	426.39
907.437	422.9
907.61	403.72
907.784	406.05
907.957	429.88
908.13	384.54
908.304	472.89
908.477	384.54
908.65	406.05
908.823	396.16
908.996	457.2
909.17	397.52
909.343	422.13
909.516	403.53
909.689	403.33
909.862	372.91
910.035	414.76
910.208	377.95
910.381	353.54
910.554	469.4
910.727	388.41
910.9	376.4
911.073	381.44
911.246	444.6
911.419	448.09
911.592	402.75
911.765	372.72
911.938	384.54
912.11	381.05
912.283	395.2
912.456	439.56
912.629	420
912.802	334.94
912.974	352.18
913.147	320.02
913.32	300.84
913.493	318.86
913.665	349.08
913.838	356.45
914.01	322.93
914.183	360.32
914.356	356.06
914.528	369.62
914.701	369.23
914.873	401.4
915.046	321.18
915.218	334.36
915.391	249.11
915.563	301.23
915.736	319.25
915.908	359.55
916.081	348.7
916.253	303.36
916.425	340.75
916.598	336.1
916.77	355.48
916.942	325.06
917.115	266.16
917.287	336.68
917.459	309.56
917.632	293.09
917.804	241.55
917.976	312.27
918.148	333.2
918.32	324.87
918.493	352.96
918.665	382.02
918.837	333.97
919.009	382.8
919.181	376.98
919.353	354.32
919.525	372.33
919.697	330.1
919.869	347.73
920.041	402.95
920.213	445.38
920.385	406.24
920.557	337.27
920.729	365.17
920.901	373.3
921.073	353.15
921.244	345.98
921.416	405.46
921.588	341.92
921.76	336.3
921.932	406.63
922.103	351.41
922.275	337.46
922.447	385.51
922.619	308.59
922.79	357.22
922.962	327
923.134	374.85
923.305	324.28
923.477	288.63
923.648	293.67
923.82	331.26
923.991	282.63
924.163	260.35
924.335	330.29
924.506	284.76
924.677	367.68
924.849	287.47
925.02	290.38
925.192	314.98
925.363	296.77
925.535	309.95
925.706	278.56
925.877	353.54
926.049	264.61
926.22	319.44
926.391	308.2
926.562	318.86
926.734	276.24
926.905	352.57
927.076	241.36
927.247	287.86
927.419	245.04
927.59	239.04
927.761	269.45
927.932	273.52
928.103	252.02
928.274	205.13
928.445	198.74
928.616	240.78
928.787	207.07
928.958	250.66
929.129	259.19
929.3	209.39
929.471	177.04
929.642	153.98
929.813	110.77
929.984	207.45
930.155	120.85
930.326	156.11
930.496	147.78
930.667	81.13
930.838	139.06
931.009	105.35
931.18	124.53
931.35	102.25
931.521	127.63
931.692	95.86
931.863	29.21
932.033	117.36
932.204	114.65
932.374	90.63
932.545	49.55
932.716	97.6
932.886	92.37
933.057	23.98
933.227	64.66
933.398	136.93
933.568	62.92
933.739	4.8
933.909	26.88
934.08	87.53
934.25	6.15
934.421	18.75
934.591	61.18
934.761	51.29
934.932	-12.45
935.102	45.68
935.272	28.82
935.443	47.61
935.613	41.61
935.783	59.43
935.953	31.92
936.123	144.29
936.294	6.15
936.464	10.8
936.634	32.31
936.804	4.99
936.974	-14.39
937.144	54.98
937.314	40.06
937.484	32.31
937.655	-10.51
937.825	76.87
937.995	21.07
938.165	75.9
938.334	23.59
938.504	53.23
938.674	24.94
938.844	55.75
939.014	71.64
939.184	96.44
939.354	129.96
939.524	124.34
939.694	48.19
939.863	75.9
940.033	129.57
940.203	129.18
940.373	74.35
940.542	91.4
940.712	67.38
940.882	121.04
941.051	118.33
941.221	101.28
941.391	128.21
941.56	39.86
941.73	45.68
941.899	192.54
942.069	62.14
942.238	95.28
942.408	56.72
942.577	96.83
942.747	77.26
942.916	22.23
943.086	50.91
943.255	103.03
943.425	90.43
943.594	34.24
943.763	-5.28
943.933	-5.86
944.102	0.34
944.271	68.34
944.441	48.97
944.61	45.09
944.779	68.73
944.948	128.79
945.117	17.97
945.287	24.94
945.456	18.36
945.625	-12.45
945.794	69.12
945.963	26.69
946.132	78.42
946.301	22.23
946.47	84.23
946.639	13.13
946.808	50.91
946.977	62.53
947.146	103.41
947.315	51.88
947.484	43.54
947.653	69.12
947.822	30.37
947.991	32.11
948.16	140.81
948.329	90.82
948.498	29.01
948.666	65.44
948.835	87.14
949.004	18.55
949.173	9.64
949.341	66.79
949.51	99.93
949.679	102.44
949.847	62.53
950.016	112.71
950.185	90.43
950.353	40.06
950.522	42.96
950.69	98.76
950.859	5.76
951.028	88.88
951.196	50.71
951.365	27.27
951.533	47.42
951.701	77.64
951.87	73.58
952.038	15.84
952.207	65.05
952.375	132.28
952.543	52.07
952.712	53.43
952.88	42.19
953.048	119.49
953.217	79.39
953.385	53.62
953.553	89.85
953.721	-5.47
953.89	53.81
954.058	1.11
954.226	34.05
954.394	45.09
954.562	20.3
954.73	36.96
954.898	44.9
955.067	77.26
955.235	44.51
955.403	91.59
955.571	120.66
955.739	87.33
955.907	30.76
956.075	17.58
956.243	16.03
956.41	69.7
956.578	25.33
956.746	15.84
956.914	29.79
957.082	85.78
957.25	72.61
957.418	31.34
957.585	61.76
957.753	80.16
957.921	22.04
958.089	50.91
958.256	59.82
958.424	85.39
958.592	64.08
958.759	19.33
958.927	81.91
959.095	9.45
959.262	58.85
959.43	54.39
959.597	29.01
959.765	68.93
959.932	21.65
960.1	80.74
960.267	70.86
960.435	33.47
960.602	73.96
960.77	44.9
960.937	5.96
961.104	54.98
961.272	1.89
961.439	14.48
961.606	56.14
961.774	103.03
961.941	24.94
962.108	89.27
962.275	67.38
962.443	103.61
962.61	66.21
962.777	154.95
962.944	82.49
963.111	55.36
963.278	62.53
963.446	58.08
963.613	68.73
963.78	73.38
963.947	41.8
964.114	71.44
964.281	158.63
964.448	69.7
964.615	51.88
964.782	39.48
964.949	115.81
965.116	87.91
965.282	127.05
965.449	38.7
965.616	29.4
965.783	112.52
965.95	89.08
966.117	11.96
966.283	56.33
966.45	85.2
966.617	71.06
966.784	111.16
966.95	84.23
967.117	80.16
967.284	33.86
967.45	55.36
967.617	128.21
967.784	79
967.95	130.92
968.117	80.94
968.283	125.69
968.45	165.22
968.616	88.69
968.783	122.4
968.949	77.45
969.116	134.41
969.282	83.26
969.449	85.78
969.615	92.95
969.781	17.39
969.948	55.75
970.114	38.31
970.28	127.24
970.447	68.34
970.613	121.43
970.779	83.07
970.945	88.49
971.112	100.51
971.278	68.54
971.444	78.03
971.61	89.46
971.776	65.44
971.942	77.26
972.108	73.77
972.275	84.04
972.441	72.22
972.607	161.34
972.773	62.34
972.939	79.78
973.105	90.04
973.271	70.86
973.437	68.54
973.602	38.51
973.768	86.36
973.934	85.39
974.1	95.08
974.266	4.41
974.432	92.56
974.598	58.46
974.763	94.11
974.929	75.71
975.095	138.29
975.261	76.09
975.426	42.19
975.592	70.48
975.758	141.19
975.923	16.61
976.089	65.83
976.255	104.19
976.42	66.6
976.586	93.92
976.751	91.01
976.917	150.3
977.082	76.29
977.248	-11.67
977.413	28.63
977.579	27.27
977.744	85.2
977.91	19.52
978.075	32.31
978.24	64.86
978.406	40.44
978.571	61.76
978.736	41.41
978.902	95.47
979.067	12.16
979.232	8.48
979.397	79.78
979.563	112.32
979.728	25.53
979.893	72.99
980.058	42.19
980.223	78.81
980.388	65.05
980.554	34.05
980.719	28.82
980.884	78.23
981.049	102.25
981.214	55.94
981.379	94.11
981.544	28.43
981.709	50.33
981.874	68.73
982.039	44.13
982.204	92.56
982.368	82.29
982.533	46.06
982.698	108.06
982.863	105.35
983.028	35.02
983.193	69.89
983.357	44.51
983.522	67.18
983.687	44.51
983.852	63.69
984.016	50.13
984.181	74.35
984.346	91.01
984.51	105.35
984.675	56.14
984.839	79.39
985.004	72.8
985.168	109.81
985.333	67.57
985.498	34.24
985.662	78.03
985.827	89.08
985.991	56.53
986.155	69.7
986.32	86.36
986.484	114.07
986.649	81.52
986.813	22.23
986.977	64.28
987.142	79.78
987.306	23.39
987.47	77.64
987.634	58.46
987.799	75.13
987.963	61.76
988.127	80.36
988.291	144.87
988.455	86.75
988.62	51.88
988.784	73.38
988.948	87.72
989.112	36.18
989.276	70.48
989.44	79.97
989.604	60.59
989.768	58.66
989.932	151.07
990.096	26.11
990.26	38.12
990.424	15.26
990.588	52.46
990.752	106.32
990.915	75.9
991.079	47.03
991.243	20.88
991.407	76.09
991.571	34.44
991.734	99.73
991.898	65.83
992.062	152.43
992.226	58.66
992.389	19.91
992.553	-3.34
992.717	51.29
992.88	53.23
993.044	49.16
993.207	37.93
993.371	90.43
993.535	50.91
993.698	58.08
993.862	86.75
994.025	103.22
994.189	76.29
994.352	45.68
994.515	35.02
994.679	83.65
994.842	68.34
995.006	99.34
995.169	17.2
995.332	37.73
995.496	54.78
995.659	20.68
995.822	58.08
995.985	62.92
996.149	103.8
996.312	49.16
996.475	127.44
996.638	58.27
996.801	103.22
996.964	135.19
997.128	33.86
997.291	59.63
997.454	69.89
997.617	20.1
997.78	97.21
997.943	38.7
998.106	83.26
998.269	42.58
998.432	24.94
998.595	59.63
998.758	9.06
998.92	13.51
999.083	6.93
999.246	54.59
999.409	-6.44
999.572	-6.25
999.735	29.59
999.897	80.16
1000.06	37.34
1000.223	21.46
1000.386	90.82
1000.548	70.48
1000.711	61.56
1000.874	54.39
1001.036	15.65
1001.199	71.06
1001.361	14.29
1001.524	42.77
1001.687	70.09
1001.849	49.55
1002.012	61.76
1002.174	60.79
1002.337	58.27
1002.499	22.23
1002.661	70.48
1002.824	17.97
1002.986	24.56
1003.149	49.16
1003.311	5.18
1003.473	129.57
1003.636	32.31
1003.798	92.95
1003.96	57.49
1004.123	66.79
1004.285	11.77
1004.447	34.05
1004.609	36.96
1004.771	76.87
1004.933	-26.2
1005.096	-11.29
1005.258	-2.18
1005.42	18.94
1005.582	62.34
1005.744	44.51
1005.906	-16.9
1006.068	49.94
1006.23	5.76
1006.392	-21.36
1006.554	19.71
1006.716	61.95
1006.878	84.81
1007.04	-1.6
1007.202	26.88
1007.363	47.03
1007.525	48.78
1007.687	64.28
1007.849	59.82
1008.011	-43.25
1008.172	12.35
1008.334	22.04
1008.496	59.04
1008.658	-21.55
1008.819	-8.19
1008.981	-6.44
1009.143	-1.99
1009.304	14.1
1009.466	24.17
1009.627	83.65
1009.789	132.47
1009.95	42.77
1010.112	16.23
1010.273	65.83
1010.435	11.96
1010.596	7.31
1010.758	20.3
1010.919	5.57
1011.081	21.65
1011.242	30.37
1011.403	25.14
1011.565	11.77
1011.726	12.35
1011.887	0.15
1012.049	10.8
1012.21	55.94
1012.371	67.38
1012.532	-48.49
1012.693	33.86
1012.855	2.86
1013.016	32.11
1013.177	52.26
1013.338	35.79
1013.499	81.33
1013.66	50.33
1013.821	45.68
1013.982	39.67
1014.143	31.34
1014.304	-9.54
1014.465	64.08
1014.626	39.48
1014.787	16.23
1014.948	121.43
1015.109	-45.97
1015.27	71.83
1015.431	7.9
1015.592	6.35
1015.752	78.03
1015.913	32.69
1016.074	19.33
1016.235	51.1
1016.395	35.79
1016.556	22.43
1016.717	13.32
1016.877	59.63
1017.038	7.7
1017.199	40.64
1017.359	17.2
1017.52	39.67
1017.681	10.8
1017.841	14.48
1018.002	13.51
1018.162	-5.09
1018.323	78.81
1018.483	33.28
1018.644	11.38
1018.804	-23.1
1018.964	-13.22
1019.125	21.65
1019.285	40.25
1019.446	-5.09
1019.606	11.38
1019.766	-40.15
1019.926	53.81
1020.087	44.51
1020.247	-32.79
1020.407	35.79
1020.567	66.99
1020.728	3.25
1020.888	-14.97
1021.048	9.06
1021.208	9.64
1021.368	-4.31
1021.528	55.17
1021.688	47.23
1021.848	38.7
1022.008	24.75
1022.168	19.91
1022.328	2.28
1022.488	35.6
1022.648	23.78
1022.808	40.44
1022.968	33.66
1023.128	-26.2
1023.288	8.28
1023.448	13.51
1023.608	29.21
1023.767	26.69
1023.927	1.31
1024.087	-12.06
1024.247	0.73
1024.406	-29.11
1024.566	-10.7
1024.726	-0.24
1024.885	34.24
1025.045	68.54
1025.205	18.55
1025.364	18.55
1025.524	14.1
1025.683	34.24
1025.843	20.1
1026.003	10.8
1026.162	65.83
1026.321	58.66
1026.481	18.55
1026.64	-1.99
1026.8	46.84
1026.959	30.56
1027.119	36.38
1027.278	-9.93
1027.437	3.63
1027.597	30.37
1027.756	34.44
1027.915	36.96
1028.074	34.63
1028.234	-3.73
1028.393	4.41
1028.552	-14.19
1028.711	-35.5
1028.87	71.44
1029.03	-13.8
1029.189	17.97
1029.348	-29.11
1029.507	-1.02
1029.666	-16.52
1029.825	-31.24
1029.984	-12.84
1030.143	25.14
1030.302	-3.34
1030.461	-46.16
1030.62	15.45
1030.779	21.07
1030.938	-9.54
1031.097	-18.07
1031.255	19.13
1031.414	53.43
1031.573	66.6
1031.732	-17.29
1031.891	-9.35
1032.049	51.1
1032.208	-5.47
1032.367	-10.12
1032.525	6.15
1032.684	39.48
1032.843	10.61
1033.001	-41.51
1033.16	120.07
1033.319	41.99
1033.477	47.81
1033.636	-12.25
1033.794	-24.07
1033.953	23.98
1034.111	29.79
1034.27	1.11
1034.428	3.25
1034.587	-10.32
1034.745	23.59
1034.903	29.98
1035.062	35.41
1035.22	-3.54
1035.378	16.61
1035.537	-17.87
1035.695	32.69
1035.853	19.71
1036.011	8.86
1036.17	34.83
1036.328	-54.49
1036.486	10.41
1036.644	30.95
1036.802	-55.46
1036.96	-21.94
1037.119	-7.99
1037.277	-11.87
1037.435	-23.49
1037.593	-33.18
1037.751	10.8
1037.909	36.18
1038.067	36.18
