Data from pine_FLMT105791__133__17-22-32-075.txt Node

Date: Mon Mar 20 17:22:32 GMT 2023
User: antho
Spectrometer: FLMT10579
Trigger mode: 0
Integration Time (sec): 1.000000E-1
Scans to average: 10
Electric dark correction enabled: true
Nonlinearity correction enabled: false
Boxcar width: 0
XAxis mode: Wavelengths
Number of Pixels in Spectrum: 3648
>>>>>Begin Spectral Data<<<<<
345.248	-155.14
345.464	-155.14
345.681	-155.14
345.898	-150.69
346.114	-162.31
346.331	-39.48
346.548	12.06
346.764	-25.72
346.981	-2.86
347.197	0.82
347.414	19.42
347.631	-4.99
347.847	46.35
348.064	17.49
348.28	5.67
348.497	-50.33
348.713	21.55
348.93	29.69
349.146	25.62
349.363	-11.58
349.579	20.39
349.796	2.95
350.012	16.9
350.229	32.21
350.445	9.35
350.661	-27.46
350.878	-8.28
351.094	16.32
351.311	14.58
351.527	18.65
351.743	-31.73
351.96	54.88
352.176	62.05
352.392	32.6
352.609	29.5
352.825	-4.41
353.041	-11.96
353.257	1.99
353.474	26.79
353.69	21.55
353.906	41.7
354.122	-12.74
354.339	69.22
354.555	-1.11
354.771	-11.19
354.987	58.56
355.203	53.52
355.42	-7.31
355.636	-19.33
355.852	-5.57
356.068	11.67
356.284	-15.84
356.5	37.05
356.716	20
356.932	8.38
357.148	40.93
357.364	12.06
357.58	62.05
357.796	40.93
358.012	37.05
358.228	35.31
358.444	-25.14
358.66	57.79
358.876	36.67
359.092	17.29
359.308	12.45
359.524	7.6
359.74	-20.49
359.956	-1.7
360.172	-5.57
360.388	47.13
360.604	17.1
360.819	79.68
361.035	0.63
361.251	27.75
361.467	0.05
361.683	36.86
361.898	38.22
362.114	35.7
362.33	20.2
362.546	29.3
362.762	21.36
362.977	57.98
363.193	-13.9
363.409	52.75
363.624	-32.11
363.84	-4.6
364.056	6.83
364.271	28.53
364.487	13.22
364.703	-17.39
364.918	-18.75
365.134	12.84
365.35	11.67
365.565	108.35
365.781	5.28
365.996	39.96
366.212	103.12
366.427	19.04
366.643	-4.41
366.858	-5.96
367.074	-14.1
367.289	49.45
367.505	121.14
367.72	-17.39
367.936	-11.19
368.151	64.57
368.367	36.09
368.582	-0.53
368.798	-20.1
369.013	62.05
369.228	11.09
369.444	23.69
369.659	38.99
369.874	41.32
370.09	64.57
370.305	-41.99
370.52	-1.11
370.736	61.08
370.951	14.39
371.166	55.46
371.381	72.51
371.597	46.55
371.812	11.29
372.027	-35.79
372.242	13.8
372.458	77.55
372.673	-4.6
372.888	26.2
373.103	28.14
373.318	89.56
373.533	51.97
373.749	24.27
373.964	-23.39
374.179	66.89
374.394	-13.51
374.609	63.02
374.824	-22.81
375.039	48.68
375.254	-3.44
375.469	59.14
375.684	32.6
375.899	55.65
376.114	3.15
376.329	23.88
376.544	40.93
376.759	34.15
376.974	4.7
377.189	19.62
377.404	22.52
377.619	73.87
377.834	-37.15
378.049	-1.7
378.264	-10.03
378.478	26.59
378.693	5.47
378.908	36.09
379.123	-13.51
379.338	61.47
379.553	31.82
379.767	14.39
379.982	52.75
380.197	49.65
380.412	22.52
380.626	29.89
380.841	112.03
381.056	39.96
381.271	80.84
381.485	-6.35
381.7	-17.39
381.915	16.52
382.129	9.15
382.344	30.27
382.559	14.77
382.773	51.97
382.988	-8.86
383.202	27.95
383.417	-10.41
383.632	97.12
383.846	8.57
384.061	19.81
384.275	21.94
384.49	57.2
384.704	43.45
384.919	57.2
385.133	7.22
385.348	28.14
385.562	1.02
385.777	82.78
385.991	27.56
386.206	15.94
386.42	-16.42
386.634	79.29
386.849	38.22
387.063	26.2
387.277	-35.99
387.492	30.66
387.706	-31.53
387.92	22.33
388.135	51.78
388.349	21.36
388.563	-0.92
388.778	37.44
388.992	27.37
389.206	46.94
389.42	113.39
389.635	16.9
389.849	57.98
390.063	78.32
390.277	41.7
390.491	99.05
390.706	30.66
390.92	63.21
391.134	22.33
391.348	51.97
391.562	-33.66
391.776	16.9
391.99	-14.68
392.205	91.5
392.419	14.97
392.633	25.62
392.847	85.3
393.061	30.27
393.275	98.28
393.489	51.39
393.703	41.51
393.917	58.95
394.131	-11
394.345	58.75
394.559	61.27
394.773	17.87
394.986	47.9
395.2	35.89
395.414	68.44
395.628	2.76
395.842	44.03
396.056	20
396.27	-19.91
396.484	41.32
396.697	56.43
396.911	64.95
397.125	60.69
397.339	70.38
397.553	28.53
397.766	74.45
397.98	78.32
398.194	63.99
398.408	33.95
398.621	85.3
398.835	68.05
399.049	69.41
399.262	94.02
399.476	55.46
399.69	63.4
399.903	120.56
400.117	57.01
400.331	70.96
400.544	30.85
400.758	179.65
400.971	24.46
401.185	52.94
401.398	32.79
401.612	83.17
401.826	48.29
402.039	66.89
402.253	31.24
402.466	59.34
402.68	67.86
402.893	71.73
403.106	51.97
403.32	29.69
403.533	70.18
403.747	47.32
403.96	70.18
404.174	100.8
404.387	16.71
404.6	49.26
404.814	82.78
405.027	65.15
405.24	51.97
405.454	61.66
405.667	101.77
405.88	-4.02
406.094	49.84
406.307	103.9
406.52	79.29
406.733	11.09
406.947	19.62
407.16	99.25
407.373	109.32
407.586	34.15
407.799	15.74
408.012	97.7
408.226	65.34
408.439	112.23
408.652	23.69
408.865	85.1
409.078	97.12
409.291	101.38
409.504	42.29
409.717	66.5
409.93	75.8
410.143	78.71
410.357	7.8
410.57	14
410.783	47.32
410.996	72.12
411.209	69.99
411.421	88.59
411.634	48.49
411.847	14
412.06	80.26
412.273	82.58
412.486	63.6
412.699	114.94
412.912	69.41
413.125	95.95
413.338	72.32
413.55	93.24
413.763	75.8
413.976	94.98
414.189	45.77
414.402	65.73
414.615	126.57
414.827	25.04
415.04	103.51
415.253	63.21
415.466	106.03
415.678	137.42
415.891	84.13
416.104	74.83
416.316	66.89
416.529	37.64
416.742	99.63
416.954	114.55
417.167	71.54
417.38	84.91
417.592	136.64
417.805	47.71
418.017	37.83
418.23	102.35
418.442	63.79
418.655	74.06
418.868	77.55
419.08	143.23
419.293	119.78
419.505	90.72
419.718	97.31
419.93	132.57
420.142	70.38
420.355	132.18
420.567	133.15
420.78	109.32
420.992	111.07
421.205	133.54
421.417	30.08
421.629	90.92
421.842	59.72
422.054	43.64
422.266	107.97
422.479	141.87
422.691	84.52
422.903	131.41
423.115	89.56
423.328	85.3
423.54	63.79
423.752	88.2
423.964	96.73
424.177	102.15
424.389	93.05
424.601	195.93
424.813	96.53
425.025	104.87
425.238	127.15
425.45	94.98
425.662	87.62
425.874	378.44
426.086	99.63
426.298	138.58
426.51	107
426.722	103.32
426.934	79.29
427.146	144.39
427.358	86.46
427.57	150.01
427.782	126.18
427.994	113.39
428.206	93.05
428.418	71.35
428.63	142.26
428.842	149.04
429.054	145.36
429.266	161.05
429.478	106.22
429.69	129.47
429.902	69.8
430.114	124.63
430.325	119.4
430.537	110.1
430.749	105.64
430.961	58.17
431.173	89.95
431.384	127.53
431.596	20.78
431.808	99.63
432.02	133.35
432.231	163.57
432.443	180.04
432.655	160.86
432.867	108.35
433.078	127.53
433.29	212.4
433.502	146.13
433.713	154.08
433.925	138.38
434.136	169.38
434.348	113
434.56	75.22
434.771	263.16
434.983	68.83
435.194	109.9
435.406	125.02
435.617	192.44
435.829	242.04
436.04	160.86
436.252	196.12
436.463	222.66
436.675	191.66
436.886	154.27
437.098	167.06
437.309	223.44
437.521	155.82
437.732	174.42
437.943	167.64
438.155	193.8
438.366	115.13
438.578	199.41
438.789	196.31
439	206
439.211	161.83
439.423	188.95
439.634	173.06
439.845	184.88
440.057	210.85
440.268	213.36
440.479	174.23
440.69	200
440.902	182.56
441.113	178.49
441.324	162.02
441.535	249.01
441.746	262.38
441.957	164.15
442.168	157.56
442.38	215.69
442.591	224.21
442.802	210.65
443.013	172.29
443.224	217.24
443.435	180.23
443.646	196.51
443.857	194.38
444.068	179.65
444.279	168.03
444.49	274.01
444.701	217.05
444.912	311.01
445.123	247.66
445.334	217.63
445.545	234.48
445.756	206.39
445.967	221.89
446.178	213.56
446.388	268.58
446.599	255.41
446.81	262.58
447.021	206.58
447.232	238.94
447.443	267.23
447.653	205.23
447.864	270.71
448.075	257.73
448.286	251.92
448.496	247.08
448.707	258.89
448.918	225.57
449.129	325.54
449.339	220.15
449.55	247.85
449.761	234.29
449.971	275.17
450.182	230.22
450.393	260.44
450.603	238.55
450.814	310.63
451.024	282.14
451.235	292.22
451.446	337.56
451.656	317.21
451.867	252.31
452.077	285.44
452.288	337.56
452.498	314.5
452.709	271.29
452.919	289.89
453.13	259.48
453.34	299.39
453.55	201.35
453.761	301.52
453.971	271.1
454.182	335.62
454.392	309.27
454.602	320.31
454.813	296.48
455.023	333.68
455.233	250.37
455.444	317.41
455.654	218.4
455.864	268.58
456.075	291.44
456.285	257.73
456.495	273.43
456.705	329.42
456.916	344.53
457.126	365.07
457.336	297.26
457.546	252.11
457.756	278.85
457.967	300.36
458.177	278.27
458.387	293.38
458.597	252.11
458.807	286.02
459.017	285.83
459.227	283.89
459.437	289.7
459.647	331.55
459.857	293.38
460.068	273.04
460.278	324.38
460.488	330.39
460.698	358.29
460.908	318.96
461.117	255.02
461.327	282.73
461.537	326.51
461.747	303.07
461.957	309.85
462.167	373.21
462.377	356.54
462.587	302.1
462.797	367.39
463.007	316.24
463.216	356.16
463.426	336.97
463.636	351.89
463.846	272.65
464.056	304.62
464.265	368.75
464.475	299.97
464.685	329.22
464.895	357.32
465.104	299.19
465.314	349.76
465.524	327.67
465.733	291.06
465.943	388.51
466.153	384.06
466.362	353.25
466.572	367.97
466.782	323.61
466.991	355.96
467.201	392.39
467.41	278.85
467.62	346.66
467.829	351.12
468.039	365.07
468.249	334.26
468.458	337.94
468.668	360.81
468.877	356.54
469.086	382.12
469.296	390.26
469.505	304.62
469.715	430.36
469.924	386.19
470.134	418.15
470.343	422.22
470.552	374.56
470.762	346.86
470.971	352.67
471.18	395.49
471.39	329.22
471.599	309.08
471.808	394.32
472.018	363.91
472.227	400.52
472.436	418.93
472.645	391.81
472.855	347.44
473.064	425.32
473.273	401.69
473.482	402.66
473.691	445.86
473.901	409.44
474.11	385.02
474.319	480.15
474.528	440.63
474.737	494.3
474.946	428.04
475.155	447.02
475.364	477.64
475.573	455.35
475.783	465.62
475.992	479.38
476.201	472.4
476.41	441.21
476.619	432.88
476.828	433.07
477.037	420.09
477.245	469.11
477.454	469.11
477.663	448.38
477.872	448.38
478.081	520.45
478.29	456.32
478.499	541.57
478.708	482.48
478.917	520.45
479.125	484.42
479.334	483.84
479.543	481.7
479.752	487.9
479.961	520.26
480.169	549.52
480.378	483.45
480.587	610.35
480.796	538.08
481.004	529.56
481.213	549.71
481.422	540.22
481.63	506.5
481.839	540.6
482.048	602.41
482.256	537.31
482.465	540.6
482.674	555.72
482.882	551.45
483.091	619.65
483.299	579.55
483.508	597.18
483.716	546.03
483.925	608.03
484.134	544.28
484.342	532.27
484.551	605.12
484.759	596.98
484.967	588.27
485.176	593.69
485.384	599.89
485.593	609.38
485.801	563.08
486.01	601.05
486.218	549.52
486.426	497.59
486.635	539.05
486.843	519.68
487.051	545.06
487.26	553.39
487.468	543.7
487.676	615.97
487.885	551.45
488.093	576.83
488.301	616.75
488.509	621.59
488.717	628.18
488.926	596.4
489.134	581.68
489.342	616.36
489.55	625.08
489.758	637.48
489.967	607.64
490.175	719.24
490.383	620.62
490.591	722.14
490.799	573.15
491.007	699.28
491.215	631.86
491.423	644.26
491.631	648.71
491.839	633.8
492.047	670.22
492.255	633.8
492.463	569.08
492.671	626.63
492.879	727.18
493.087	661.31
493.295	684.36
493.503	709.55
493.711	709.36
493.919	741.71
494.127	723.69
494.334	735.32
494.542	647.16
494.75	671.77
494.958	677
495.166	743.65
495.374	712.46
495.581	722.14
495.789	724.47
495.997	747.91
496.205	702.19
496.412	718.66
496.62	669.83
496.828	740.55
497.035	700.44
497.243	748.69
497.451	733.38
497.658	722.53
497.866	729.89
498.074	794.02
498.281	679.52
498.489	810.49
498.696	754.5
498.904	741.91
499.112	708.19
499.319	806.23
499.527	769.22
499.734	778.72
499.942	702.77
500.149	732.03
500.357	761.86
500.564	738.23
500.771	752.56
500.979	704.71
501.186	739.39
501.394	766.32
501.601	743.84
501.808	772.32
502.016	730.86
502.223	721.37
502.43	735.9
502.638	737.06
502.845	724.08
503.052	843.04
503.26	767.48
503.467	827.93
503.674	771.74
503.881	785.11
504.089	842.07
504.296	832.58
504.503	759.73
504.71	768.64
504.917	752.95
505.125	779.69
505.332	797.32
505.539	821.54
505.746	865.52
505.953	814.56
506.16	844.98
506.367	871.72
506.574	887.41
506.781	896.9
506.988	834.13
507.195	865.9
507.402	830.26
507.609	880.44
507.816	815.72
508.023	824.44
508.23	829.48
508.437	774.26
508.644	871.52
508.851	895.35
509.058	897.87
509.265	877.34
509.472	890.12
509.679	972.27
509.885	884.89
510.092	900.78
510.299	896.32
510.506	884.7
510.713	902.14
510.92	886.05
511.126	909.69
511.333	921.7
511.54	960.07
511.746	950.57
511.953	963.17
512.16	1005.21
512.367	918.8
512.573	954.64
512.78	952.51
512.987	932.55
513.193	935.85
513.4	858.93
513.606	946.12
513.813	944.18
514.02	966.85
514.226	992.23
514.433	985.45
514.639	908.34
514.846	968.98
515.052	929.26
515.259	949.41
515.465	968.78
515.672	940.11
515.878	1052.48
516.085	979.83
516.291	994.75
516.497	942.24
516.704	983.9
516.91	911.63
517.117	861.64
517.323	827.16
517.529	904.07
517.736	900.59
517.942	900.97
518.148	898.45
518.354	943.98
518.561	958.71
518.767	929.45
518.973	983.9
519.179	1009.67
519.386	948.44
519.592	953.48
519.798	983.7
520.004	1055.58
520.21	1010.05
520.417	1046.48
520.623	1083.48
520.829	1125.53
521.035	1067.6
521.241	1090.46
521.447	1107.12
521.653	1163.5
521.859	1069.92
522.065	1126.49
522.271	1216.39
522.477	1158.66
522.683	1147.42
522.889	1142.58
523.095	1136.38
523.301	1126.69
523.507	1104.6
523.713	1111.38
523.919	1103.05
524.125	1198.96
524.331	1151.1
524.537	1224.53
524.742	1215.04
524.948	1203.8
525.154	1210
525.36	1324.31
525.566	1207.09
525.772	1288.27
525.977	1172.61
526.183	1239.26
526.389	1275.49
526.595	1201.86
526.8	1178.03
527.006	1130.18
527.212	1119.33
527.417	1104.41
527.623	1098.21
527.829	1197.41
528.034	1199.54
528.24	1180.74
528.446	1171.25
528.651	1256.31
528.857	1271.81
529.062	1343.88
529.268	1266.38
529.473	1272.77
529.679	1296.6
529.884	1386.31
530.09	1297.77
530.295	1318.11
530.501	1316.37
530.706	1328.57
530.912	1296.8
531.117	1321.4
531.323	1317.34
531.528	1328.19
531.733	1354.15
531.939	1365
532.144	1355.89
532.35	1361.7
532.555	1365.19
532.76	1371.97
532.966	1352.02
533.171	1358.99
533.376	1306.1
533.581	1283.04
533.787	1361.51
533.992	1380.69
534.197	1382.05
534.402	1325.28
534.607	1340
534.813	1422.93
535.018	1358.6
535.223	1373.33
535.428	1388.63
535.633	1458
535.838	1437.46
536.043	1420.8
536.249	1488.03
536.454	1411.11
536.659	1441.92
536.864	1396.58
537.069	1403.55
537.274	1413.24
537.479	1407.62
537.684	1427.77
537.889	1368.1
538.094	1466.91
538.299	1439.59
538.504	1441.14
538.708	1414.4
538.913	1452.38
539.118	1411.11
539.323	1450.05
539.528	1414.21
539.733	1411.5
539.938	1412.08
540.142	1441.53
540.347	1403.17
540.552	1383.6
540.757	1382.63
540.962	1369.26
541.166	1357.05
541.371	1375.85
541.576	1403.55
541.781	1332.84
541.985	1420.99
542.19	1423.32
542.395	1514.38
542.599	1513.8
542.804	1445.02
543.008	1479.89
543.213	1439.2
543.418	1393.67
543.622	1465.55
543.827	1400.65
544.031	1502.36
544.236	1518.83
544.44	1480.47
544.645	1518.64
544.849	1479.89
545.054	1541.5
545.258	1587.03
545.463	1516.31
545.667	1448.89
545.872	1530.26
546.076	1497.33
546.281	1537.63
546.485	1485.7
546.689	1516.12
546.894	1549.25
547.098	1489.58
547.302	1441.33
547.507	1495.58
547.711	1507.79
547.915	1554.68
548.119	1490.55
548.324	1498.1
548.528	1541.5
548.732	1505.85
548.936	1528.91
549.141	1523.48
549.345	1462.07
549.549	1514.76
549.753	1496.94
549.957	1561.84
550.161	1591.29
550.366	1522.13
550.57	1452.18
550.774	1523.48
550.978	1496.36
551.182	1556.23
551.386	1497.13
551.59	1487.45
551.794	1501.4
551.998	1526.78
552.202	1507.98
552.406	1463.62
552.61	1531.23
552.814	1551.77
553.018	1577.73
553.222	1529.49
553.426	1539.56
553.63	1594.2
553.833	1533.17
554.037	1512.05
554.241	1602.34
554.445	1539.95
554.649	1531.43
554.853	1523.1
555.056	1601.37
555.26	1600.98
555.464	1537.24
555.668	1560.49
555.871	1607.18
556.075	1552.93
556.279	1511.28
556.483	1464.39
556.686	1525.03
556.89	1568.24
557.094	1531.04
557.297	1478.92
557.501	1551.58
557.704	1424.48
557.908	1521.35
558.112	1498.1
558.315	1551.19
558.519	1474.27
558.722	1471.56
558.926	1469.04
559.129	1433.2
559.333	1419.05
559.536	1419.05
559.74	1408.98
559.943	1391.93
560.147	1408.59
560.35	1433.97
560.553	1396.97
560.757	1397.93
560.96	1515.54
561.164	1482.8
561.367	1542.86
561.57	1439.4
561.774	1468.46
561.977	1439.4
562.18	1452.18
562.384	1521.74
562.587	1437.07
562.79	1441.72
562.993	1458.58
563.197	1445.79
563.4	1495.58
563.603	1502.56
563.806	1544.99
564.009	1394.06
564.212	1437.65
564.416	1380.5
564.619	1429.71
564.822	1397.35
565.025	1460.71
565.228	1404.72
565.431	1402.39
565.634	1328.77
565.837	1351.44
566.04	1341.17
566.243	1354.92
566.446	1270.84
566.649	1393.67
566.852	1317.53
567.055	1363.84
567.258	1372.36
567.461	1439.78
567.664	1435.72
567.867	1298.74
568.07	1364.8
568.273	1347.56
568.475	1410.72
568.678	1346.98
568.881	1340
569.084	1332.45
569.287	1247.2
569.489	1267.74
569.692	1349.69
569.895	1320.82
570.098	1267.93
570.3	1290.02
570.503	1246.81
570.706	1278.01
570.909	1243.71
571.111	1214.46
571.314	1190.43
571.516	1215.81
571.719	1222.01
571.922	1242.74
572.124	1221.82
572.327	1254.95
572.529	1185.78
572.732	1205.93
572.935	1251.07
573.137	1299.12
573.34	1224.53
573.542	1270.45
573.745	1248.56
573.947	1260.96
574.15	1206.71
574.352	1220.85
574.554	1281.49
574.757	1214.26
574.959	1214.65
575.162	1200.7
575.364	1190.04
575.566	1277.62
575.769	1162.34
575.971	1234.41
576.173	1123.01
576.376	1182.88
576.578	1222.98
576.78	1267.74
576.982	1134.83
577.185	1148.78
577.387	1180.55
577.589	1191.21
577.791	1198.76
577.993	1223.95
578.196	1178.81
578.398	1192.56
578.6	1219.88
578.802	1149.36
579.004	1129.79
579.206	1109.45
579.408	1175.13
579.61	1140.83
579.812	1194.31
580.014	1142.77
580.216	1128.24
580.418	1142.77
580.62	1128.63
580.822	1088.33
581.024	1153.62
581.226	1186.56
581.428	1135.21
581.63	1209.42
581.832	1089.1
582.034	1190.04
582.236	1140.25
582.438	1196.05
582.64	1232.09
582.841	1207.67
583.043	1258.63
583.245	1175.51
583.447	1194.11
583.649	1111.19
583.85	1177.64
584.052	1211.36
584.254	1134.44
584.456	1205.54
584.657	1124.17
584.859	1145.68
585.061	1154.01
585.262	1132.11
585.464	1092.98
585.666	1174.93
585.867	1111.58
586.069	1202.25
586.27	1172.61
586.472	1153.62
586.674	1131.53
586.875	1126.69
587.077	1119.91
587.278	1137.15
587.48	1131.53
587.681	1245.65
587.883	1144.9
588.084	1078.45
588.285	1104.41
588.487	1119.91
588.688	1089.1
588.89	1013.15
589.091	1001.14
589.292	1036.01
589.494	990.68
589.695	975.76
589.896	932.94
590.098	917.05
590.299	1023.23
590.5	944.95
590.702	969.37
590.903	972.66
591.104	1068.37
591.305	1048.22
591.507	1062.75
591.708	1045.51
591.909	1023.03
592.11	1087.36
592.311	1053.45
592.512	1032.14
592.714	958.32
592.915	1012.96
593.116	1012.96
593.317	1023.03
593.518	1019.55
593.719	1065.85
593.92	1055.39
594.121	1097.43
594.322	1020.13
594.523	1021.68
594.724	997.46
594.925	1016.25
595.126	1022.84
595.327	1021.87
595.528	1014.12
595.729	1023.42
595.929	1037.37
596.13	1018.19
596.331	1034.46
596.532	1049
596.733	1079.22
596.934	1092.01
597.135	1073.21
597.335	1042.02
597.536	1018.38
597.737	1049.96
597.938	1004.63
598.138	1036.21
598.339	989.32
598.54	1034.08
598.74	993.78
598.941	1030.98
599.142	1060.43
599.342	1081.74
599.543	1000.37
599.744	992.62
599.944	1010.25
600.145	1030.78
600.345	1020.52
600.546	1080.77
600.746	1082.71
600.947	1120.1
601.147	1045.9
601.348	1098.6
601.548	1018.38
601.749	1009.28
601.949	967.43
602.15	1003.47
602.35	1010.63
602.551	1068.56
602.751	983.12
602.951	1016.25
603.152	979.25
603.352	1024.97
603.552	1014.32
603.753	1029.43
603.953	1063.14
604.153	1043.38
604.354	985.06
604.554	1030.4
604.754	1032.14
604.954	992.62
605.155	1055
605.355	1011.22
605.555	1037.95
605.755	1087.94
605.955	1073.8
606.155	1070.7
606.356	1002.5
606.556	1033.88
606.756	1006.37
606.956	987.19
607.156	1067.98
607.356	994.75
607.556	1016.45
607.756	1015.48
607.956	1049.58
608.156	1013.73
608.356	980.41
608.556	1034.08
608.756	1012.18
608.956	937.79
609.156	999.59
609.356	957.16
609.556	939.33
609.755	1001.92
609.955	974.02
610.155	1013.15
610.355	949.8
610.555	970.33
610.755	992.03
610.954	901.17
611.154	970.14
611.354	981.18
611.554	936.43
611.753	956.58
611.953	924.22
612.153	991.65
612.352	993.97
612.552	924.03
612.752	861.45
612.951	949.6
613.151	967.82
613.351	941.08
613.55	955.42
613.75	957.35
613.949	922.48
614.149	952.32
614.348	952.51
614.548	918.8
614.747	896.71
614.947	902.52
615.146	859.9
615.346	955.22
615.545	959.1
615.745	951.54
615.944	945.34
616.144	928.68
616.343	927.9
616.542	890.9
616.742	932.75
616.941	910.27
617.14	832.58
617.34	867.26
617.539	937.2
617.738	878.5
617.938	966.27
618.137	903.88
618.336	865.52
618.535	934.1
618.734	905.24
618.934	929.26
619.133	960.65
619.332	965.88
619.531	889.15
619.73	892.25
619.929	920.93
620.128	942.43
620.328	981.18
620.527	869.2
620.726	902.33
620.925	929.26
621.124	881.21
621.323	900.2
621.522	856.41
621.721	852.34
621.92	869.2
622.119	932.75
622.318	869.59
622.517	896.13
622.715	889.74
622.914	791.12
623.113	823.86
623.312	807.59
623.511	891.67
623.71	864.94
623.909	835.49
624.107	931.59
624.306	814.76
624.505	834.71
624.704	828.12
624.902	845.95
625.101	881.6
625.3	840.72
625.499	836.07
625.697	813.4
625.896	808.17
626.095	864.94
626.293	817.86
626.492	807.78
626.69	860.67
626.889	828.51
627.088	864.35
627.286	805.26
627.485	781.62
627.683	811.66
627.882	833.16
628.08	768.26
628.279	800.03
628.477	873.27
628.676	780.85
628.874	823.28
629.073	800.42
629.271	764.19
629.469	835.29
629.668	790.15
629.866	788.21
630.065	769.81
630.263	840.33
630.461	775.04
630.66	778.14
630.858	819.02
631.056	834.52
631.254	839.75
631.453	751.98
631.651	824.06
631.849	797.71
632.047	807.78
632.245	789.57
632.444	819.99
632.642	797.71
632.84	831.61
633.038	773.87
633.236	768.64
633.434	775.23
633.632	753.14
633.83	777.56
634.028	800.61
634.227	787.63
634.425	853.12
634.623	799.06
634.821	820.18
635.019	796.74
635.216	799.64
635.414	820.37
635.612	803.52
635.81	776.39
636.008	847.31
636.206	801.39
636.404	816.69
636.602	743.07
636.8	794.41
636.997	824.44
637.195	811.85
637.393	835.29
637.591	874.82
637.789	786.66
637.986	793.64
638.184	785.69
638.382	824.64
638.58	815.92
638.777	846.53
638.975	765.16
639.173	799.64
639.37	809.52
639.568	802.16
639.765	819.21
639.963	762.64
640.161	846.14
640.358	821.15
640.556	783.17
640.753	781.04
640.951	746.56
641.148	804.68
641.346	786.47
641.543	794.8
641.741	815.34
641.938	776.39
642.136	798.09
642.333	744.81
642.531	838.78
642.728	826.38
642.925	771.55
643.123	792.28
643.32	805.65
643.517	748.11
643.715	771.55
643.912	756.44
644.109	763.8
644.306	765.93
644.504	701.8
644.701	773.29
644.898	783.76
645.095	740.74
645.293	732.41
645.49	770
645.687	755.47
645.884	793.64
646.081	671.19
646.278	716.72
646.475	740.55
646.672	743.46
646.87	760.12
647.067	740.74
647.264	734.93
647.461	672.55
647.658	659.56
647.855	750.63
648.052	706.84
648.249	631.08
648.446	681.65
648.642	668.48
648.839	677.2
649.036	646.78
649.233	657.05
649.43	644.06
649.627	642.9
649.824	692.89
650.021	646.97
650.217	648.13
650.414	651.62
650.611	683.78
650.808	687.27
651.004	708
651.201	719.04
651.398	751.4
651.595	682.62
651.791	664.8
651.988	726.6
652.185	663.44
652.381	674.68
652.578	606.09
652.775	687.27
652.971	639.61
653.168	645.81
653.364	719.82
653.561	619.26
653.757	652.2
653.954	684.94
654.15	647.16
654.347	724.28
654.543	662.66
654.74	615.78
654.936	626.43
655.133	695.41
655.329	673.9
655.525	629.15
655.722	666.15
655.918	588.65
656.115	645.42
656.311	596.98
656.507	564.63
656.704	520.07
656.9	557.85
657.096	549.13
657.292	560.75
657.489	608.03
657.685	594.27
657.881	592.53
658.077	571.6
658.273	635.35
658.47	696.57
658.666	616.36
658.862	641.74
659.058	616.75
659.254	674.29
659.45	603.76
659.646	641.55
659.842	625.27
660.038	664.6
660.234	607.45
660.43	616.36
660.626	711.88
660.822	664.02
661.018	687.08
661.214	634.96
661.41	611.71
661.606	672.16
661.802	667.7
661.998	606.86
662.194	582.26
662.39	621.01
662.586	658.98
662.781	654.91
662.977	641.74
663.173	670.03
663.369	615.97
663.564	653.75
663.76	683.01
663.956	615.2
664.152	659.56
664.347	566.76
664.543	635.35
664.739	602.8
664.934	553.2
665.13	562.5
665.326	617.33
665.521	611.51
665.717	578.77
665.912	592.91
666.108	551.84
666.304	585.94
666.499	584.2
666.695	516.58
666.89	589.81
667.086	625.08
667.281	605.31
667.477	640.96
667.672	603.76
667.867	608.61
668.063	621.59
668.258	576.45
668.454	562.11
668.649	674.87
668.844	572.96
669.04	602.99
669.235	552.03
669.43	565.6
669.626	538.28
669.821	561.14
670.016	546.61
670.211	565.6
670.407	568.7
670.602	578.97
670.797	559.59
670.992	600.08
671.187	533.05
671.382	631.28
671.578	547
671.773	581.48
671.968	525.3
672.163	552.62
672.358	562.5
672.553	540.99
672.748	588.46
672.943	651.04
673.138	569.08
673.333	608.03
673.528	540.8
673.723	575.67
673.918	553.58
674.113	491
674.308	609
674.503	594.46
674.698	589.04
674.892	594.46
675.087	594.85
675.282	581.48
675.477	532.08
675.672	600.47
675.867	525.68
676.061	500.89
676.256	500.3
676.451	534.02
676.646	557.07
676.84	545.25
677.035	507.67
677.23	509.6
677.424	542.15
677.619	605.31
677.814	576.25
678.008	595.05
678.203	525.49
678.397	533.24
678.592	543.9
678.787	593.69
678.981	515.22
679.176	542.54
679.37	550.48
679.565	522.39
679.759	526.85
679.954	560.37
680.148	626.05
680.342	578.58
680.537	578.19
680.731	540.6
680.926	581.48
681.12	560.95
681.314	486.16
681.509	537.5
681.703	572.96
681.897	578
682.092	533.43
682.286	542.93
682.48	622.17
682.674	584.97
682.869	530.33
683.063	561.72
683.257	606.86
683.451	513.48
683.645	583.23
683.839	535.57
684.034	521.62
684.228	570.83
684.422	505.73
684.616	520.45
684.81	547
685.004	535.57
685.198	526.65
685.392	590.59
685.586	524.33
685.78	589.81
685.974	568.7
686.168	578.77
686.362	602.6
686.556	511.15
686.75	479.19
686.944	480.35
687.138	479.38
687.331	395.87
687.525	435.98
687.719	394.13
687.913	434.82
688.107	447.8
688.301	407.5
688.494	467.95
688.688	436.95
688.882	423.39
689.076	426.29
689.269	448.57
689.463	526.46
689.657	454.58
689.85	466.01
690.044	483.45
690.238	453.8
690.431	435.59
690.625	449.74
690.818	506.5
691.012	510.96
691.205	531.3
691.399	485.77
691.593	523.36
691.786	553.39
691.98	567.92
692.173	573.93
692.366	590.2
692.56	601.05
692.753	624.69
692.947	527.23
693.14	626.82
693.333	588.27
693.527	554.75
693.72	574.12
693.914	600.47
694.107	564.05
694.3	579.55
694.493	585.75
694.687	639.03
694.88	584.58
695.073	672.55
695.266	643.68
695.46	644.45
695.653	670.41
695.846	648.52
696.039	598.92
696.232	626.43
696.425	692.5
696.618	660.92
696.812	696.38
697.005	762.06
697.198	808.36
697.391	736.29
697.584	755.08
697.777	794.99
697.97	796.93
698.163	810.69
698.356	786.47
698.549	858.15
698.742	822.51
698.935	809.14
699.127	803.13
699.32	751.59
699.513	787.24
699.706	808.75
699.899	850.6
700.092	806.81
700.285	850.99
700.477	754.89
700.67	842.07
700.863	884.5
701.056	937.4
701.248	902.14
701.441	910.27
701.634	880.63
701.826	989.13
702.019	866.87
702.212	950.96
702.404	854.47
702.597	881.02
702.79	912.79
702.982	942.43
703.175	992.42
703.367	986.42
703.56	979.44
703.752	1070.31
703.945	1025.36
704.137	1028.85
704.33	1057.91
704.522	1073.6
704.715	1061.98
704.907	1103.05
705.1	1098.21
705.292	1105.76
705.484	1114.29
705.677	1121.84
705.869	1131.92
706.061	1186.17
706.254	1199.93
706.446	1146.64
706.638	1136.18
706.831	1226.08
707.023	1149.36
707.215	1270.45
707.407	1263.28
707.599	1261.92
707.792	1302.03
707.984	1265.02
708.176	1291.95
708.368	1272.97
708.56	1303.77
708.752	1307.07
708.944	1255.92
709.136	1296.6
709.329	1336.13
709.521	1462.26
709.713	1361.9
709.905	1389.41
710.097	1414.4
710.289	1354.73
710.481	1371
710.672	1406.85
710.864	1421.18
711.056	1469.04
711.248	1446.76
711.44	1453.93
711.632	1466.91
711.824	1495.78
712.016	1548.48
712.207	1539.95
712.399	1517.48
712.591	1576.57
712.783	1560.29
712.975	1603.69
713.166	1540.15
713.358	1554.29
713.55	1631.59
713.741	1628.3
713.933	1625.2
714.125	1621.33
714.316	1555.84
714.508	1681.39
714.7	1691.07
714.891	1624.81
715.083	1688.36
715.274	1644.38
715.466	1680.03
715.657	1697.27
715.849	1620.55
716.04	1679.45
716.232	1618.42
716.423	1687.97
716.615	1571.92
716.806	1593.04
716.998	1535.69
717.189	1497.33
717.381	1445.6
717.572	1428.74
717.763	1458.38
717.955	1443.85
718.146	1400.26
718.337	1335.74
718.528	1315.01
718.72	1298.35
718.911	1320.44
719.102	1278.59
719.293	1371.59
719.485	1333.42
719.676	1299.32
719.867	1274.71
720.058	1253.21
720.249	1281.11
720.44	1345.04
720.632	1328.19
720.823	1407.82
721.014	1515.54
721.205	1528.52
721.396	1552.35
721.587	1635.66
721.778	1625.01
721.969	1662.79
722.16	1744.55
722.351	1658.91
722.542	1805.39
722.733	1844.13
722.924	1735.44
723.115	1791.82
723.305	1804.8
723.496	1770.32
723.687	1640.7
723.878	1738.74
724.069	1674.61
724.26	1700.96
724.45	1649.42
724.641	1670.15
724.832	1696.11
725.023	1662.59
725.213	1659.88
725.404	1638.18
725.595	1651.36
725.785	1624.23
725.976	1667.24
726.167	1687.01
726.357	1706.38
726.548	1750.36
726.739	1720.72
726.929	1708.32
727.12	1769.35
727.31	1767.6
727.501	1744.16
727.691	1786.2
727.882	1749
728.072	1797.64
728.263	1782.33
728.453	1833.67
728.644	1798.02
728.834	1834.45
729.024	1808.1
729.215	1786.2
729.405	1829.02
729.596	1875.52
729.786	1835.03
729.976	1881.14
730.167	1909.81
730.357	1831.15
730.547	1876.49
730.737	1934.03
730.928	1937.33
731.118	1983.05
731.308	1936.55
731.498	1924.15
731.688	2032.84
731.879	2033.62
732.069	2045.05
732.259	2085.74
732.449	2088.45
732.639	2140.18
732.829	2127.97
733.019	2173.5
733.209	2232.6
733.399	2257.98
733.589	2285.68
733.779	2294.6
733.969	2266.31
734.159	2364.93
734.349	2379.26
734.539	2408.91
734.729	2398.06
734.919	2440.1
735.109	2474.01
735.299	2374.81
735.488	2448.63
735.678	2435.64
735.868	2466.45
736.058	2407.94
736.248	2393.02
736.437	2360.66
736.627	2387.4
736.817	2502.88
737.007	2438.74
737.196	2505.2
737.386	2451.73
737.576	2436.23
737.765	2513.72
737.955	2441.07
738.144	2562.55
738.334	2554.41
738.524	2520.7
738.713	2539.49
738.903	2502.88
739.092	2537.17
739.282	2503.84
739.471	2555.38
739.661	2532.91
739.85	2546.08
740.04	2575.72
740.229	2627.84
740.419	2613.12
740.608	2614.28
740.797	2561.19
740.987	2669.11
741.176	2694.3
741.365	2558.48
741.555	2577.47
741.744	2684.61
741.933	2606.14
742.123	2666.4
742.312	2675.89
742.501	2689.45
742.69	2715.22
742.88	2630.36
743.069	2752.23
743.258	2658.65
743.447	2748.35
743.636	2725.68
743.825	2702.24
744.014	2722
744.204	2733.82
744.393	2688.29
744.582	2714.25
744.771	2799.31
744.96	2727.04
745.149	2762.11
745.338	2694.68
745.527	2770.83
745.716	2710.18
745.905	2699.14
746.094	2782.06
746.283	2795.82
746.471	2744.67
746.66	2801.83
746.849	2774.32
747.038	2811.71
747.227	2778.19
747.416	2738.28
747.604	2724.13
747.793	2733.05
747.982	2812.87
748.171	2779.74
748.359	2815.39
748.548	2746.42
748.737	2768.89
748.926	2739.44
749.114	2713.09
749.303	2751.65
749.491	2778.58
749.68	2692.17
749.869	2789.43
750.057	2728.01
750.246	2748.35
750.434	2669.3
750.623	2729.95
750.811	2718.9
751	2784.58
751.188	2706.12
751.377	2772.38
751.565	2715.03
751.754	2676.67
751.942	2674.54
752.131	2736.92
752.319	2703.21
752.507	2643.15
752.696	2716.38
752.884	2765.79
753.072	2716.58
753.261	2673.95
753.449	2762.5
753.637	2643.73
753.825	2751.07
754.014	2635.4
754.202	2683.84
754.39	2704.18
754.578	2734.02
754.766	2685.19
754.955	2648.77
755.143	2750.87
755.331	2657.87
755.519	2625.9
755.707	2640.82
755.895	2627.45
756.083	2661.75
756.271	2604.01
756.459	2629.59
756.647	2686.74
756.835	2608.47
757.023	2627.26
757.211	2591.61
757.399	2598.2
757.587	2625.71
757.775	2583.67
757.963	2561.97
758.151	2541.04
758.339	2543.56
758.526	2531.74
758.714	2619.12
758.902	2490.09
759.09	2428.67
759.278	2269.22
759.465	2105.31
759.653	1854.79
759.841	1663.76
760.028	1419.05
760.216	1257.86
760.404	1181.33
760.591	954.06
760.779	814.56
760.967	704.9
761.154	552.81
761.342	627.01
761.529	606.86
761.717	676.03
761.905	665.38
762.092	715.75
762.28	664.6
762.467	675.84
762.655	606.28
762.842	644.06
763.029	650.85
763.217	656.66
763.404	669.83
763.592	693.47
763.779	642.32
763.966	687.46
764.154	719.82
764.341	784.34
764.528	755.86
764.716	810.49
764.903	846.53
765.09	912.21
765.277	908.72
765.465	1091.81
765.652	1112.74
765.839	1185.59
766.026	1279.75
766.213	1309.2
766.4	1389.99
766.588	1540.15
766.775	1520.96
766.962	1607.96
767.149	1631.79
767.336	1806.74
767.523	1748.04
767.71	1870.68
767.897	1976.46
768.084	2014.24
768.271	2036.53
768.458	2067.33
768.645	2128.56
768.832	2098.91
769.019	2127.39
769.206	2154.52
769.392	2153.74
769.579	2239.57
769.766	2242.48
769.953	2255.27
770.14	2276
770.327	2255.07
770.513	2308.35
770.7	2382.17
770.887	2276.97
771.073	2359.89
771.26	2335.87
771.447	2278.52
771.634	2274.64
771.82	2389.73
772.007	2263.98
772.193	2311.26
772.38	2342.26
772.567	2294.4
772.753	2323.27
772.94	2379.07
773.126	2348.46
773.313	2373.26
773.499	2365.7
773.686	2387.79
773.872	2295.76
774.059	2316.68
774.245	2332.18
774.432	2278.9
774.618	2221.36
774.804	2327.15
774.991	2231.24
775.177	2343.03
775.363	2316.88
775.55	2276.38
775.736	2252.75
775.922	2297.31
776.109	2264.57
776.295	2315.72
776.481	2286.27
776.667	2319.2
776.853	2271.35
777.04	2230.66
777.226	2254.49
777.412	2329.86
777.598	2245.97
777.784	2257.59
777.97	2240.74
778.156	2327.34
778.342	2223.1
778.528	2245.58
778.715	2166.34
778.901	2202.37
779.087	2240.35
779.272	2177.96
779.458	2201.79
779.644	2230.47
779.83	2219.81
780.016	2270.77
780.202	2203.73
780.388	2169.63
780.574	2169.24
780.76	2146.96
780.946	2230.85
781.131	2170.79
781.317	2163.24
781.503	2119.45
781.689	2157.62
781.874	2286.46
782.06	2096.97
782.246	2172.15
782.432	2153.94
782.617	2164.2
782.803	2201.4
782.989	2070.82
783.174	2129.33
783.36	2055.51
783.545	2083.61
783.731	2145.22
783.916	2064.43
784.102	2143.86
784.288	2012.5
784.473	2108.02
784.659	2109.76
784.844	2120.03
785.029	2021.41
785.215	2077.99
785.4	1972.59
785.586	2089.42
785.771	1997
785.956	2082.25
786.142	1997
786.327	2042.92
786.512	2042.34
786.698	2039.82
786.883	1977.82
787.068	1964.65
787.254	2022.96
787.439	2016.18
787.624	1984.6
787.809	1984.99
787.994	1976.46
788.18	2008.43
788.365	1937.91
788.55	1962.32
788.735	1941.59
788.92	1916.98
789.105	1903.81
789.29	1955.93
789.475	1885.98
789.66	1890.63
789.845	1895.09
790.03	1893.15
790.215	1924.73
790.4	1922.41
790.585	1952.83
790.77	1887.53
790.955	1799.38
791.14	1881.33
791.325	1974.72
791.51	1824.57
791.695	1877.85
791.879	1850.14
792.064	1838.71
792.249	1946.05
792.434	1846.07
792.618	1892.18
792.803	1910.01
792.988	1860.99
793.173	1880.75
793.357	1904.39
793.542	1854.4
793.727	1839.29
793.911	1929.19
794.096	1879.78
794.281	1893.54
794.465	1982.47
794.65	1871.45
794.834	1903.23
795.019	1943.33
795.203	1929.77
795.388	1921.05
795.572	1969.88
795.757	1919.11
795.941	1897.61
796.126	1911.17
796.31	1847.04
796.494	1903.03
796.679	1864.09
796.863	1821.47
797.048	1939.85
797.232	1921.63
797.416	1898.77
797.601	1882.69
797.785	1922.99
797.969	1941.59
798.153	1875.13
798.338	1924.54
798.522	1966.2
798.706	1948.76
798.89	1935
799.074	2022.58
799.258	1978.98
799.443	1956.7
799.627	1939.07
799.811	1952.25
799.995	1904.97
800.179	1908.07
800.363	1914.08
800.547	1969.49
800.731	1987.9
800.915	1904
801.099	1879.2
801.283	1932.87
801.467	1926.28
801.651	1903.81
801.835	1957.67
802.019	1940.62
802.202	1938.68
802.386	1871.45
802.57	1853.43
802.754	1879.2
802.938	1848.2
803.121	1895.67
803.305	1976.46
803.489	1941.59
803.673	1935.97
803.856	1938.1
804.04	1897.61
804.224	1902.84
804.407	1889.47
804.591	1864.67
804.775	1864.09
804.958	1883.85
805.142	1995.06
805.326	1915.24
805.509	1899.55
805.693	1889.08
805.876	1915.24
806.06	1909.43
806.243	1942.75
806.427	1980.92
806.61	1972.59
806.794	1928.61
806.977	1959.8
807.16	1942.36
807.344	1961.74
807.527	1914.85
807.71	1922.99
807.894	1943.53
808.077	1957.67
808.26	1889.86
808.444	1890.25
808.627	1933.84
808.81	1898.97
808.993	1827.08
809.177	1813.91
809.36	1834.64
809.543	1904.58
809.726	1797.25
809.909	1768.77
810.092	1796.47
810.276	1783.3
810.459	1796.86
810.642	1813.72
810.825	1726.72
811.008	1796.86
811.191	1673.44
811.374	1677.51
811.557	1721.49
811.74	1784.27
811.923	1689.72
812.106	1670.15
812.289	1660.07
812.472	1660.46
812.654	1680.61
812.837	1633.34
813.02	1599.04
813.203	1600.01
813.386	1481.63
813.569	1479.7
813.751	1435.91
813.934	1518.45
814.117	1483.18
814.3	1415.37
814.482	1400.07
814.665	1383.79
814.848	1352.21
815.03	1294.86
815.213	1311.91
815.396	1344.07
815.578	1274.13
815.761	1279.75
815.943	1315.2
816.126	1241.19
816.309	1238.48
816.491	1170.67
816.674	1113.51
816.856	1153.43
817.039	1156.72
817.221	1277.04
817.403	1204.38
817.586	1203.41
817.768	1181.13
817.951	1145.68
818.133	1119.71
818.315	1157.69
818.498	1198.96
818.68	1259.79
818.862	1227.05
819.045	1268.71
819.227	1186.17
819.409	1202.64
819.591	1240.03
819.774	1187.53
819.956	1171.83
820.138	1270.84
820.32	1237.71
820.502	1286.72
820.684	1328.77
820.866	1303.97
821.048	1384.76
821.231	1381.27
821.413	1390.38
821.595	1364.42
821.777	1355.89
821.959	1348.53
822.141	1402.97
822.323	1309
822.505	1243.91
822.686	1237.71
822.868	1183.26
823.05	1072.05
823.232	1049.19
823.414	1034.46
823.596	1098.01
823.778	1082.71
823.96	1115.26
824.141	1140.83
824.323	1113.32
824.505	1148.58
824.687	1199.73
824.868	1264.64
825.05	1332.45
825.232	1368.68
825.413	1403.75
825.595	1315.59
825.777	1257.86
825.958	1339.04
826.14	1267.54
826.321	1346.01
826.503	1314.24
826.685	1364.42
826.866	1329.54
827.048	1346.2
827.229	1283.43
827.411	1226.27
827.592	1225.5
827.773	1223.37
827.955	1210.97
828.136	1189.66
828.318	1173.19
828.499	1200.31
828.68	1140.64
828.862	1172.22
829.043	1217.56
829.224	1178.61
829.406	1140.64
829.587	1177.26
829.768	1151.49
829.949	1180.16
830.131	1181.33
830.312	1237.71
830.493	1190.24
830.674	1192.18
830.855	1176.48
831.036	1209.42
831.218	1239.06
831.399	1233.83
831.58	1186.17
831.761	1198.76
831.942	1234.61
832.123	1202.06
832.304	1141.61
832.485	1176.09
832.666	1214.46
832.847	1202.83
833.028	1203.61
833.209	1195.28
833.389	1169.51
833.57	1148
833.751	1162.34
833.932	1195.66
834.113	1199.73
834.294	1183.07
834.475	1214.65
834.655	1249.52
834.836	1232.09
835.017	1241.58
835.198	1135.21
835.378	1213.87
835.559	1260.37
835.74	1194.5
835.92	1190.63
836.101	1175.9
836.281	1219.11
836.462	1244.1
836.643	1217.36
836.823	1234.8
837.004	1220.46
837.184	1300.48
837.365	1289.82
837.545	1281.88
837.726	1226.27
837.906	1253.59
838.087	1226.86
838.267	1244.68
838.448	1166.6
838.628	1236.16
838.808	1212.52
838.989	1274.52
839.169	1204.57
839.349	1275.1
839.53	1233.44
839.71	1226.27
839.89	1226.27
840.07	1294.47
840.251	1226.08
840.431	1250.3
840.611	1242.94
840.791	1189.27
840.971	1227.82
841.151	1223.37
841.332	1206.9
841.512	1259.79
841.692	1154.39
841.872	1245.07
842.052	1214.26
842.232	1252.04
842.412	1155.56
842.592	1206.9
842.772	1211.16
842.952	1233.44
843.132	1185.01
843.312	1184.23
843.492	1168.54
843.672	1215.81
843.851	1135.21
844.031	1207.87
844.211	1192.76
844.391	1159.63
844.571	1191.4
844.751	1199.54
844.93	1190.24
845.11	1175.71
845.29	1194.31
845.47	1205.16
845.649	1199.54
845.829	1206.32
846.009	1182.68
846.188	1216.2
846.368	1171.64
846.547	1195.28
846.727	1215.62
846.907	1135.6
847.086	1219.49
847.266	1223.37
847.445	1169.12
847.625	1126.88
847.804	1117.97
847.984	1203.22
848.163	1141.99
848.343	1141.03
848.522	1176.87
848.701	1145.48
848.881	1128.24
849.06	1176.09
849.239	1176.48
849.419	1155.94
849.598	1115.64
849.777	1115.45
849.957	1101.5
850.136	1061.59
850.315	1033.11
850.494	1070.7
850.674	1060.23
850.853	1089.49
851.032	1094.33
851.211	1090.26
851.39	1102.86
851.569	1063.53
851.748	1041.05
851.927	1120.1
852.107	1101.5
852.286	1047.06
852.465	1045.7
852.644	1093.75
852.823	1103.44
853.002	1079.8
853.181	1082.9
853.359	1088.13
853.538	1061.59
853.717	1091.62
853.896	1009.47
854.075	970.33
854.254	953.67
854.433	871.52
854.611	945.53
854.79	873.46
854.969	964.72
855.148	1007.53
855.327	938.17
855.505	938.56
855.684	958.9
855.863	1006.76
856.041	974.02
856.22	997.85
856.399	937.98
856.577	1013.93
856.756	1025.75
856.934	1151.49
857.113	1136.76
857.291	1041.63
857.47	1018.19
857.648	1033.11
857.827	1063.53
858.005	1073.8
858.184	1021.29
858.362	1092.59
858.541	1032.14
858.719	1049.58
858.898	1009.08
859.076	1024.78
859.254	1091.81
859.433	1043.18
859.611	993.2
859.789	951.15
859.967	1095.88
860.146	1075.35
860.324	973.43
860.502	997.65
860.68	964.72
860.859	967.04
861.037	984.09
861.215	983.7
861.393	1026.33
861.571	1015.28
861.749	971.5
861.927	995.52
862.105	1024.2
862.283	979.44
862.461	975.76
862.639	950.77
862.817	964.52
862.995	973.24
863.173	962.78
863.351	987.19
863.529	992.81
863.707	1017.03
863.885	970.14
864.063	898.84
864.241	955.61
864.418	1024.97
864.596	929.26
864.774	947.47
864.952	958.9
865.129	917.05
865.307	933.33
865.485	858.74
865.663	992.03
865.84	857.96
866.018	899.23
866.196	807.2
866.373	834.13
866.551	813.01
866.728	748.3
866.906	806.04
867.084	840.33
867.261	888.19
867.439	866.49
867.616	910.85
867.794	870.55
867.971	857.19
868.149	882.37
868.326	910.27
868.503	906.79
868.681	897.68
868.858	875.79
869.035	819.99
869.213	904.85
869.39	870.75
869.567	961.03
869.745	842.07
869.922	919.57
870.099	896.13
870.276	907.56
870.454	911.44
870.631	926.35
870.808	876.17
870.985	883.92
871.162	945.73
871.339	886.05
871.517	829.48
871.694	829.29
871.871	848.86
872.048	870.36
872.225	845.56
872.402	883.73
872.579	828.51
872.756	884.89
872.933	833.36
873.11	855.25
873.287	861.64
873.463	864.74
873.64	855.83
873.817	870.94
873.994	827.74
874.171	824.06
874.348	815.92
874.524	790.73
874.701	877.53
874.878	755.86
875.055	874.43
875.231	856.41
875.408	858.74
875.585	775.04
875.762	816.31
875.938	800.61
876.115	803.91
876.291	777.94
876.468	796.54
876.645	753.34
876.821	806.62
876.998	787.24
877.174	815.92
877.351	779.11
877.527	737.45
877.704	817.47
877.88	788.21
878.057	769.03
878.233	824.44
878.409	771.16
878.586	796.93
878.762	771.36
878.938	791.12
879.115	754.89
879.291	790.92
879.467	709.94
879.644	740.94
879.82	782.21
879.996	745.59
880.172	699.67
880.349	758.76
880.525	809.14
880.701	738.03
880.877	709.74
881.053	784.34
881.229	744.62
881.405	794.41
881.581	725.63
881.757	747.14
881.933	753.73
882.109	798.09
882.285	754.31
882.461	701.99
882.637	731.44
882.813	713.04
882.989	734.35
883.165	834.71
883.341	709.55
883.517	769.42
883.693	751.01
883.869	744.62
884.044	757.6
884.22	762.25
884.396	784.53
884.572	752.76
884.747	773.87
884.923	749.27
885.099	766.71
885.275	799.06
885.45	741.33
885.626	712.26
885.801	719.04
885.977	726.79
886.153	656.08
886.328	743.26
886.504	720.98
886.679	772.71
886.855	701.8
887.03	739.78
887.206	754.31
887.381	778.52
887.557	767.48
887.732	745.2
887.908	757.6
888.083	782.59
888.258	732.99
888.434	739.39
888.609	720.21
888.784	756.63
888.96	726.02
889.135	702.38
889.31	693.28
889.485	763.03
889.661	710.33
889.836	756.44
890.011	767.48
890.186	722.73
890.361	685.33
890.537	718.66
890.712	743.46
890.887	709.94
891.062	723.5
891.237	782.21
891.412	707.61
891.587	746.75
891.762	751.21
891.937	796.54
892.112	706.84
892.287	725.63
892.462	695.02
892.637	684.56
892.812	671.19
892.987	665.57
893.161	661.5
893.336	683.98
893.511	693.66
893.686	697.34
893.861	658.4
894.035	673.71
894.21	685.14
894.385	617.52
894.56	651.81
894.734	626.63
894.909	609.19
895.084	607.06
895.258	619.07
895.433	616.36
895.608	577.61
895.782	538.28
895.957	588.46
896.131	591.17
896.306	531.11
896.48	491.78
896.655	532.47
896.829	478.8
897.004	468.53
897.178	530.72
897.353	478.6
897.527	539.05
897.701	521.42
897.876	453.03
898.05	545.25
898.224	511.93
898.399	549.9
898.573	474.54
898.747	413.89
898.921	445.28
899.096	393.36
899.27	415.05
899.444	396.26
899.618	442.18
899.792	444.7
899.967	451.29
900.141	465.43
900.315	388.32
900.489	440.63
900.663	440.44
900.837	443.15
901.011	389.87
901.185	489.07
901.359	436.56
901.533	430.75
901.707	464.07
901.881	435.79
902.055	396.84
902.229	433.46
902.403	487.9
902.576	414.86
902.75	458.65
902.924	535.95
903.098	495.46
903.272	538.28
903.446	513.28
903.619	520.84
903.793	527.23
903.967	502.05
904.14	562.3
904.314	558.82
904.488	534.02
904.661	571.6
904.835	541.57
905.009	587.1
905.182	574.51
905.356	577.8
905.529	559.59
905.703	491.97
905.876	510.77
906.05	488.49
906.223	497.2
906.397	423.58
906.57	464.46
906.744	407.5
906.917	405.17
907.09	441.02
907.264	418.93
907.437	397.62
907.61	392.97
907.784	402.07
907.957	423.77
908.13	373.59
908.304	412.34
908.477	370.3
908.65	389.09
908.823	362.16
908.996	416.6
909.17	385.99
909.343	346.66
909.516	408.66
909.689	364.49
909.862	359.26
910.035	352.67
910.208	343.56
910.381	342.01
910.554	454.97
910.727	357.32
910.9	357.71
911.073	362.74
911.246	424.35
911.419	432.3
911.592	408.47
911.765	352.67
911.938	372.24
912.11	375.14
912.283	388.51
912.456	425.71
912.629	357.71
912.802	348.79
912.974	325.35
913.147	318.76
913.32	268.58
913.493	285.63
913.665	321.28
913.838	338.33
914.01	308.69
914.183	334.07
914.356	319.15
914.528	356.54
914.701	409.63
914.873	345.5
915.046	326.9
915.218	294.54
915.391	230.03
915.563	280.01
915.736	316.83
915.908	337.75
916.081	329.42
916.253	308.69
916.425	323.41
916.598	344.53
916.77	330.77
916.942	310.04
917.115	242.81
917.287	322.44
917.459	297.26
917.632	273.43
917.804	236.03
917.976	316.05
918.148	294.54
918.32	287.57
918.493	349.37
918.665	357.9
918.837	332.13
919.009	367.2
919.181	402.07
919.353	364.87
919.525	351.12
919.697	319.54
919.869	322.83
920.041	399.75
920.213	435.4
920.385	365.65
920.557	338.14
920.729	374.76
920.901	347.63
921.073	352.67
921.244	330.39
921.416	385.8
921.588	368.36
921.76	320.89
921.932	420.09
922.103	327.29
922.275	347.82
922.447	339.49
922.619	264.9
922.79	328.06
922.962	318.76
923.134	367.01
923.305	306.94
923.477	263.74
923.648	302.29
923.82	307.33
923.991	220.73
924.163	274.78
924.335	293.58
924.506	272.07
924.677	332.13
924.849	269.74
925.02	285.63
925.192	314.31
925.363	274.39
925.535	295.32
925.706	296.87
925.877	321.86
926.049	266.26
926.22	303.26
926.391	306.75
926.562	317.6
926.734	257.34
926.905	332.91
927.076	262.77
927.247	262.19
927.419	235.06
927.59	250.18
927.761	236.61
927.932	240.1
928.103	287.18
928.274	188.76
928.445	179.65
928.616	198.06
928.787	208.33
928.958	229.25
929.129	212.98
929.3	215.3
929.471	167.25
929.642	153.5
929.813	121.53
929.984	193.41
930.155	125.79
930.326	172.1
930.496	113.97
930.667	74.06
930.838	137.22
931.009	94.6
931.18	150.78
931.35	108.93
931.521	119.98
931.692	87.43
931.863	48.1
932.033	97.31
932.204	94.4
932.374	106.03
932.545	52.75
932.716	137.42
932.886	101.57
933.057	47.9
933.227	41.7
933.398	139.16
933.568	33.95
933.739	-3.05
933.909	31.05
934.08	94.98
934.25	-15.26
934.421	24.07
934.591	47.13
934.761	37.83
934.932	9.15
935.102	12.64
935.272	39.57
935.443	48.49
935.613	22.72
935.783	39.57
935.953	7.6
936.123	189.92
936.294	-3.63
936.464	14.97
936.634	34.54
936.804	-13.9
936.974	-18.75
937.144	64.95
937.314	49.84
937.484	36.09
937.655	9.15
937.825	77.55
937.995	-18.16
938.165	77.35
938.334	21.36
938.504	15.74
938.674	21.36
938.844	39.38
939.014	69.02
939.184	66.7
939.354	98.67
939.524	119.2
939.694	32.99
939.863	60.89
940.033	117.85
940.203	114.94
940.373	59.14
940.542	110.87
940.712	60.69
940.882	107
941.051	100.8
941.221	86.85
941.391	126.95
941.56	67.86
941.73	36.28
941.899	141.29
942.069	58.75
942.238	111.65
942.408	76.77
942.577	93.05
942.747	74.06
942.916	20.39
943.086	33.57
943.255	104.67
943.425	106.03
943.594	46.55
943.763	4.7
943.933	7.8
944.102	-23.98
944.271	45.19
944.441	65.34
944.61	20.59
944.779	33.95
944.948	143.03
945.117	32.21
945.287	21.55
945.456	-20.88
945.625	19.62
945.794	72.9
945.963	39.96
946.132	55.46
946.301	40.35
946.47	81.23
946.639	5.86
946.808	22.14
946.977	47.9
947.146	100.22
947.315	53.91
947.484	62.24
947.653	30.27
947.822	45.19
947.991	2.76
948.16	129.08
948.329	106.03
948.498	40.15
948.666	57.79
948.835	82.39
949.004	4.89
949.173	6.83
949.341	30.66
949.51	72.12
949.679	76.58
949.847	88.01
950.016	121.53
950.185	100.8
950.353	19.62
950.522	32.79
950.69	96.34
950.859	31.44
951.028	97.5
951.196	66.89
951.365	31.82
951.533	35.7
951.701	79.48
951.87	76.97
952.038	26.2
952.207	49.65
952.375	89.37
952.543	49.45
952.712	35.5
952.88	31.05
953.048	100.8
953.217	82.97
953.385	44.42
953.553	99.44
953.721	18.65
953.89	66.31
954.058	-3.05
954.226	45.97
954.394	65.15
954.562	15.16
954.73	60.3
954.898	41.32
955.067	80.45
955.235	6.64
955.403	67.86
955.571	119.78
955.739	70.96
955.907	21.55
956.075	43.25
956.243	48.29
956.41	74.06
956.578	-8.48
956.746	15.94
956.914	30.66
957.082	76
957.25	56.24
957.418	1.79
957.585	73.28
957.753	88.01
957.921	1.99
958.089	57.2
958.256	90.14
958.424	52.94
958.592	60.5
958.759	28.72
958.927	81.03
959.095	22.14
959.262	56.62
959.43	70.38
959.597	14.39
959.765	27.56
959.932	9.74
960.1	114.36
960.267	50.42
960.435	30.27
960.602	95.18
960.77	45.97
960.937	-3.63
961.104	55.85
961.272	-25.33
961.439	30.85
961.606	49.26
961.774	83.36
961.941	40.74
962.108	76
962.275	55.85
962.443	86.07
962.61	46.16
962.777	134.32
962.944	79.29
963.111	67.08
963.278	71.93
963.446	92.08
963.613	66.7
963.78	71.54
963.947	81.62
964.114	59.14
964.281	135.28
964.448	64.37
964.615	61.27
964.782	75.61
964.949	107.58
965.116	59.53
965.282	110.29
965.449	58.17
965.616	17.87
965.783	60.69
965.95	49.84
966.117	21.17
966.283	45.58
966.45	76.38
966.617	82.97
966.784	113
966.95	84.33
967.117	80.45
967.284	35.89
967.45	49.07
967.617	114.94
967.784	96.92
967.95	135.28
968.117	65.54
968.283	117.07
968.45	160.28
968.616	89.17
968.783	110.87
968.949	64.37
969.116	112.81
969.282	84.13
969.449	91.3
969.615	100.41
969.781	18.26
969.948	57.98
970.114	21.75
970.28	108.55
970.447	56.43
970.613	116.68
970.779	66.31
970.945	76.19
971.112	71.93
971.278	80.84
971.444	74.83
971.61	109.32
971.776	63.21
971.942	94.79
972.108	102.35
972.275	109.9
972.441	97.89
972.607	129.86
972.773	55.65
972.939	107.19
973.105	66.31
973.271	32.02
973.437	51.39
973.602	12.25
973.768	102.15
973.934	82
974.1	82.78
974.266	-24.56
974.432	88.59
974.598	37.83
974.763	109.71
974.929	51.59
975.095	128.7
975.261	44.22
975.426	44.61
975.592	49.26
975.758	116.88
975.923	34.54
976.089	52.55
976.255	84.72
976.42	77.74
976.586	76.19
976.751	83.55
976.917	139.35
977.082	74.25
977.248	18.65
977.413	6.05
977.579	69.22
977.744	71.54
977.91	18.84
978.075	60.3
978.24	69.99
978.406	78.32
978.571	44.22
978.736	12.06
978.902	64.95
979.067	41.7
979.232	29.3
979.397	56.24
979.563	107.58
979.728	51.97
979.893	60.69
980.058	43.45
980.223	82.39
980.388	62.63
980.554	46.35
980.719	57.98
980.884	61.27
981.049	105.64
981.214	36.28
981.379	77.16
981.544	51.39
981.709	66.5
981.874	57.98
982.039	49.65
982.204	68.25
982.368	54.3
982.533	33.37
982.698	114.75
982.863	103.9
983.028	53.52
983.193	63.79
983.357	65.92
983.522	84.13
983.687	45.77
983.852	35.7
984.016	67.67
984.181	70.96
984.346	84.72
984.51	70.57
984.675	55.27
984.839	93.63
985.004	69.22
985.168	117.27
985.333	92.47
985.498	51.97
985.662	93.43
985.827	91.88
985.991	65.53
986.155	49.07
986.32	100.99
986.484	94.79
986.649	69.22
986.813	8.57
986.977	68.44
987.142	66.12
987.306	41.9
987.47	26.98
987.634	28.72
987.799	82.78
987.963	86.85
988.127	77.55
988.291	131.41
988.455	87.04
988.62	62.44
988.784	84.33
988.948	92.47
989.112	38.02
989.276	57.79
989.44	27.95
989.604	55.27
989.768	19.81
989.932	116.68
990.096	29.5
990.26	11.09
990.424	39.19
990.588	63.4
990.752	109.52
990.915	64.57
991.079	64.57
991.243	46.55
991.407	69.02
991.571	37.25
991.734	71.15
991.898	79.48
992.062	139.93
992.226	57.98
992.389	33.76
992.553	6.44
992.717	36.67
992.88	40.74
993.044	57.4
993.207	48.49
993.371	68.05
993.535	76.19
993.698	61.66
993.862	101.96
994.025	86.27
994.189	54.69
994.352	61.47
994.515	57.01
994.679	93.24
994.842	61.66
995.006	70.57
995.169	-3.05
995.332	45.77
995.496	93.63
995.659	1.4
995.822	26.98
995.985	33.57
996.149	107.38
996.312	44.42
996.475	121.53
996.638	41.9
996.801	99.25
996.964	126.76
997.128	46.94
997.291	44.42
997.454	63.99
997.617	11.09
997.78	85.88
997.943	36.86
998.106	74.06
998.269	41.12
998.432	34.92
998.595	37.05
998.758	-5.76
998.92	46.74
999.083	-11.96
999.246	27.17
999.409	27.56
999.572	4.89
999.735	41.12
999.897	41.7
1000.06	11.48
1000.223	57.98
1000.386	87.23
1000.548	76.38
1000.711	70.77
1000.874	64.37
1001.036	-0.53
1001.199	72.51
1001.361	37.44
1001.524	33.95
1001.687	68.25
1001.849	15.94
1002.012	68.05
1002.174	45.77
1002.337	61.47
1002.499	34.92
1002.661	80.26
1002.824	13.03
1002.986	11.67
1003.149	56.24
1003.311	-6.73
1003.473	92.27
1003.636	25.82
1003.798	57.79
1003.96	74.83
1004.123	49.65
1004.285	22.72
1004.447	30.85
1004.609	24.46
1004.771	115.52
1004.933	-26.3
1005.096	25.04
1005.258	8.77
1005.42	31.05
1005.582	65.73
1005.744	46.74
1005.906	5.09
1006.068	36.47
1006.23	-6.73
1006.392	-21.85
1006.554	4.5
1006.716	55.65
1006.878	54.1
1007.04	21.17
1007.202	39.96
1007.363	44.22
1007.525	28.92
1007.687	45.77
1007.849	72.9
1008.011	7.8
1008.172	-11.38
1008.334	41.9
1008.496	39.19
1008.658	-25.91
1008.819	15.94
1008.981	-2.86
1009.143	-12.16
1009.304	24.27
1009.466	34.73
1009.627	88.01
1009.789	135.48
1009.95	32.6
1010.112	-5.76
1010.273	44.03
1010.435	20.78
1010.596	23.49
1010.758	22.91
1010.919	21.75
1011.081	15.35
1011.242	19.62
1011.403	47.13
1011.565	12.84
1011.726	59.72
1011.887	-2.86
1012.049	6.44
1012.21	54.69
1012.371	106.8
1012.532	-56.53
1012.693	35.31
1012.855	6.64
1013.016	13.8
1013.177	69.02
1013.338	-5.18
1013.499	87.23
1013.66	48.29
1013.821	51.78
1013.982	38.02
1014.143	45.77
1014.304	15.94
1014.465	27.95
1014.626	59.14
1014.787	9.35
1014.948	76.38
1015.109	-41.03
1015.27	53.52
1015.431	18.45
1015.592	24.07
1015.752	51
1015.913	37.83
1016.074	37.64
1016.235	14.97
1016.395	19.42
1016.556	34.92
1016.717	9.15
1016.877	53.52
1017.038	-9.25
1017.199	36.86
1017.359	-5.18
1017.52	24.27
1017.681	20.97
1017.841	25.24
1018.002	36.28
1018.162	-1.5
1018.323	89.75
1018.483	47.13
1018.644	12.45
1018.804	-19.13
1018.964	-11.19
1019.125	36.67
1019.285	14
1019.446	-16.03
1019.606	9.93
1019.766	-30.37
1019.926	24.07
1020.087	51.39
1020.247	-6.35
1020.407	36.67
1020.567	59.92
1020.728	13.22
1020.888	11.67
1021.048	19.04
1021.208	-3.63
1021.368	-23.98
1021.528	40.15
1021.688	60.69
1021.848	39.19
1022.008	47.52
1022.168	4.89
1022.328	15.74
1022.488	34.92
1022.648	-8.86
1022.808	17.49
1022.968	36.09
1023.128	4.12
1023.288	-4.21
1023.448	9.35
1023.608	37.83
1023.767	22.33
1023.927	-7.31
1024.087	-33.47
1024.247	-23.98
1024.406	-8.09
1024.566	-1.11
1024.726	-10.41
1024.885	9.93
1025.045	25.24
1025.205	6.83
1025.364	16.9
1025.524	32.02
1025.683	-2.08
1025.843	50.04
1026.003	-1.5
1026.162	49.65
1026.321	80.65
1026.481	-4.02
1026.64	7.02
1026.8	44.03
1026.959	1.4
1027.119	32.02
1027.278	-2.66
1027.437	-9.06
1027.597	16.52
1027.756	25.62
1027.915	-0.92
1028.074	37.25
1028.234	-26.11
1028.393	17.1
1028.552	1.4
1028.711	-61.18
1028.87	49.84
1029.03	-16.23
1029.189	3.73
1029.348	-39.09
1029.507	23.69
1029.666	19.04
1029.825	-23.01
1029.984	-9.64
1030.143	4.89
1030.302	10.51
1030.461	-50.13
1030.62	22.91
1030.779	39.19
1030.938	4.89
1031.097	-21.46
1031.255	32.4
1031.414	80.07
1031.573	53.91
1031.732	-50.33
1031.891	-10.41
1032.049	48.49
1032.208	23.3
1032.367	-1.11
1032.525	6.25
1032.684	-13.9
1032.843	20.97
1033.001	-36.96
1033.16	157.76
1033.319	43.45
1033.477	42.87
1033.636	-1.5
1033.794	-28.63
1033.953	30.27
1034.111	30.27
1034.27	13.03
1034.428	24.27
1034.587	-15.84
1034.745	12.84
1034.903	-19.13
1035.062	41.12
1035.22	-23.98
1035.378	22.91
1035.537	-27.27
1035.695	21.17
1035.853	0.63
1036.011	44.42
1036.17	17.68
1036.328	-46.26
1036.486	24.07
1036.644	34.73
1036.802	-70.67
1036.96	10.32
1037.119	-13.71
1037.277	-6.35
1037.435	-29.4
1037.593	-29.98
1037.751	-3.83
1037.909	48.87
1038.067	48.87
