Data from pine_FLMT105791__106__17-22-05-076.txt Node

Date: Mon Mar 20 17:22:05 GMT 2023
User: antho
Spectrometer: FLMT10579
Trigger mode: 0
Integration Time (sec): 1.000000E-1
Scans to average: 10
Electric dark correction enabled: true
Nonlinearity correction enabled: false
Boxcar width: 0
XAxis mode: Wavelengths
Number of Pixels in Spectrum: 3648
>>>>>Begin Spectral Data<<<<<
345.248	-153.25
345.464	-153.25
345.681	-153.25
345.898	-189.68
346.114	-166.82
346.331	-38.56
346.548	1.94
346.764	5.81
346.981	-18.02
347.197	-0.97
347.414	30.61
347.631	-15.5
347.847	69.75
348.064	-7.75
348.28	11.04
348.497	-36.62
348.713	-1.74
348.93	33.91
349.146	23.06
349.363	-0.97
349.579	18.02
349.796	-3.49
350.012	-15.5
350.229	11.62
350.445	-16.08
350.661	-1.94
350.878	0.97
351.094	20.54
351.311	10.27
351.527	26.93
351.743	-8.91
351.96	39.72
352.176	41.85
352.392	30.03
352.609	45.92
352.825	12.79
353.041	-2.52
353.257	-17.24
353.474	24.22
353.69	12.4
353.906	34.87
354.122	-31
354.339	42.62
354.555	11.82
354.771	-1.36
354.987	68.78
355.203	39.33
355.42	0.77
355.636	-21.51
355.852	-10.27
356.068	-19.96
356.284	-44.17
356.5	53.47
356.716	14.34
356.932	11.04
357.148	31.97
357.364	27.51
357.58	58.12
357.796	49.21
358.012	46.89
358.228	44.37
358.444	-48.63
358.66	40.49
358.876	-2.91
359.092	0.39
359.308	30.03
359.524	23.44
359.74	-6.01
359.956	-20.15
360.172	28.87
360.388	55.8
360.604	-12.4
360.819	88.15
361.035	33.13
361.251	23.06
361.467	-15.69
361.683	32.74
361.898	23.06
362.114	48.44
362.33	16.47
362.546	21.89
362.762	-1.16
362.977	23.44
363.193	-38.94
363.409	46.69
363.624	-16.66
363.84	-29.64
364.056	8.91
364.271	3.87
364.487	31.97
364.703	5.23
364.918	-9.3
365.134	12.98
365.35	1.16
365.565	115.86
365.781	15.69
365.996	32.36
366.212	70.14
366.427	19.37
366.643	-10.46
366.858	1.74
367.074	16.27
367.289	49.6
367.505	99.59
367.72	-50.37
367.936	-24.8
368.151	35.07
368.367	23.44
368.582	17.82
368.798	7.17
369.013	77.89
369.228	4.65
369.444	3.29
369.659	55.41
369.874	13.95
370.09	63.36
370.305	-53.09
370.52	-22.09
370.736	64.91
370.951	18.21
371.166	66.07
371.381	66.84
371.597	36.62
371.812	-24.41
372.027	-34.1
372.242	7.94
372.458	84.09
372.673	-12.01
372.888	24.61
373.103	19.57
373.318	99.59
373.533	29.06
373.749	23.83
373.964	-29.84
374.179	65.1
374.394	-8.14
374.609	40.69
374.824	-9.69
375.039	48.44
375.254	5.42
375.469	68.2
375.684	24.02
375.899	57.54
376.114	-7.36
376.329	32.74
376.544	35.84
376.759	29.64
376.974	-6.2
377.189	10.46
377.404	6.2
377.619	64.71
377.834	-9.11
378.049	-31
378.264	-15.69
378.478	4.26
378.693	-11.62
378.908	32.55
379.123	4.07
379.338	66.26
379.553	45.72
379.767	48.05
379.982	47.27
380.197	53.86
380.412	10.85
380.626	21.51
380.841	80.6
381.056	38.17
381.271	84.86
381.485	-6.01
381.7	-12.98
381.915	38.56
382.129	-4.46
382.344	47.66
382.559	16.86
382.773	54.64
382.988	-22.67
383.202	28.87
383.417	-11.24
383.632	100.17
383.846	9.49
384.061	21.7
384.275	16.66
384.49	44.37
384.704	29.84
384.919	33.71
385.133	27.51
385.348	30.42
385.562	-9.69
385.777	51.73
385.991	41.27
386.206	-1.36
386.42	13.95
386.634	59.87
386.849	35.65
387.063	42.04
387.277	-7.75
387.492	4.46
387.706	-37.39
387.92	-5.04
388.135	53.86
388.349	14.72
388.563	21.7
388.778	39.14
388.992	18.02
389.206	55.02
389.42	89.9
389.635	21.31
389.849	24.99
390.063	51.73
390.277	31
390.491	89.7
390.706	51.54
390.92	59.48
391.134	30.81
391.348	68.97
391.562	-19.57
391.776	9.88
391.99	8.33
392.205	43.98
392.419	-23.64
392.633	10.85
392.847	57.16
393.061	13.37
393.275	99.59
393.489	17.44
393.703	37.01
393.917	65.1
394.131	31.77
394.345	22.67
394.559	83.89
394.773	25.38
394.986	28.67
395.2	37.2
395.414	83.51
395.628	6.78
395.842	39.91
396.056	-1.16
396.27	-8.14
396.484	43.4
396.697	53.28
396.911	65.87
397.125	39.72
397.339	54.44
397.553	41.07
397.766	90.87
397.98	79.44
398.194	53.67
398.408	22.47
398.621	59.29
398.835	63.16
399.049	43.4
399.262	83.89
399.476	88.93
399.69	65.29
399.903	124.58
400.117	9.69
400.331	55.22
400.544	7.75
400.758	159.45
400.971	57.16
401.185	73.62
401.398	29.26
401.612	77.89
401.826	80.41
402.039	49.6
402.253	24.8
402.466	56.19
402.68	40.49
402.893	64.52
403.106	65.29
403.32	4.65
403.533	71.11
403.747	55.41
403.96	49.79
404.174	54.44
404.387	18.41
404.6	17.44
404.814	86.22
405.027	18.21
405.24	52.12
405.454	35.46
405.667	80.6
405.88	1.16
406.094	72.07
406.307	97.45
406.52	66.84
406.733	33.52
406.947	-9.3
407.16	107.92
407.373	80.02
407.586	18.79
407.799	19.18
408.012	76.92
408.226	35.65
408.439	92.03
408.652	11.04
408.865	36.42
409.078	90.09
409.291	74.21
409.504	28.29
409.717	57.16
409.93	69.56
410.143	41.07
410.357	-18.6
410.57	-3.68
410.783	19.96
410.996	74.21
411.209	65.29
411.421	111.4
411.634	45.92
411.847	10.85
412.06	58.51
412.273	47.47
412.486	47.66
412.699	153.84
412.912	26.54
413.125	73.62
413.338	54.25
413.55	82.92
413.763	75.17
413.976	80.99
414.189	32.16
414.402	32.94
414.615	122.06
414.827	14.34
415.04	93.97
415.253	70.14
415.466	98.23
415.678	116.83
415.891	66.65
416.104	41.46
416.316	58.51
416.529	31.19
416.742	101.72
416.954	83.7
417.167	56.96
417.38	59.67
417.592	122.06
417.805	27.9
418.017	-6.59
418.23	85.83
418.442	42.24
418.655	41.85
418.868	65.1
419.08	96.49
419.293	107.34
419.505	79.82
419.718	88.54
419.93	104.24
420.142	77.31
420.355	89.12
420.567	84.09
420.78	94.74
420.992	86.99
421.205	131.17
421.417	8.33
421.629	69.75
421.842	50.96
422.054	2.52
422.266	71.69
422.479	83.31
422.691	36.81
422.903	104.82
423.115	44.56
423.328	67.04
423.54	94.35
423.752	79.82
423.964	49.99
424.177	70.52
424.389	88.15
424.601	169.72
424.813	70.72
425.025	116.05
425.238	102.69
425.45	56.96
425.662	64.52
425.874	360.56
426.086	67.42
426.298	88.93
426.51	86.41
426.722	103.46
426.934	49.99
427.146	82.73
427.358	33.13
427.57	122.25
427.782	97.26
427.994	78.27
428.206	65.1
428.418	31.77
428.63	92.61
428.842	114.5
429.054	107.92
429.266	110.82
429.478	28.87
429.69	95.71
429.902	44.95
430.114	110.24
430.325	104.62
430.537	60.64
430.749	86.8
430.961	44.56
431.173	74.21
431.384	100.75
431.596	27.32
431.808	75.76
432.02	88.93
432.231	118.38
432.443	142.02
432.655	103.27
432.867	61.03
433.078	121.67
433.29	176.31
433.502	123.8
433.713	133.49
433.925	124.39
434.136	132.14
434.348	53.67
434.56	27.51
434.771	208.86
434.983	79.05
435.194	68.01
435.406	94.35
435.617	130.59
435.829	164.3
436.04	145.31
436.252	154.42
436.463	162.36
436.675	133.1
436.886	153.06
437.098	153.45
437.309	166.62
437.521	149.57
437.732	132.33
437.943	123.03
438.155	123.61
438.366	71.88
438.578	197.62
438.789	132.72
439	147.64
439.211	137.17
439.423	129.42
439.634	180.38
439.845	163.33
440.057	139.69
440.268	190.65
440.479	99
440.69	133.1
440.902	138.14
441.113	127.87
441.324	128.07
441.535	167.59
441.746	222.81
441.957	116.05
442.168	115.86
442.38	151.7
442.591	184.64
442.802	120.9
443.013	156.16
443.224	166.04
443.435	142.02
443.646	142.4
443.857	124.39
444.068	164.1
444.279	154.03
444.49	222.23
444.701	155.58
444.912	264.85
445.123	220.87
445.334	175.15
445.545	187.35
445.756	178.05
445.967	143.76
446.178	179.41
446.388	214.28
446.599	192.58
446.81	193.17
447.021	164.1
447.232	213.12
447.443	245.67
447.653	142.02
447.864	193.36
448.075	181.93
448.286	190.84
448.496	180.38
448.707	223.97
448.918	174.76
449.129	260.59
449.339	172.44
449.55	194.13
449.761	175.34
449.971	216.8
450.182	178.25
450.393	214.87
450.603	173.6
450.814	228.82
451.024	216.8
451.235	237.92
451.446	248.19
451.656	260.59
451.867	233.27
452.077	208.67
452.288	260.4
452.498	245.28
452.709	201.3
452.919	246.06
453.13	217.58
453.34	287.33
453.55	138.92
453.761	235.6
453.971	197.62
454.182	244.12
454.392	243.35
454.602	266.4
454.813	216.61
455.023	253.03
455.233	164.88
455.444	221.45
455.654	165.85
455.864	217
456.075	201.88
456.285	192.97
456.495	210.41
456.705	224.36
456.916	272.21
457.126	282.87
457.336	227.46
457.546	153.06
457.756	202.08
457.967	258.07
458.177	202.08
458.387	238.89
458.597	212.54
458.807	195.88
459.017	227.07
459.227	241.6
459.437	242.57
459.647	236.76
459.857	249.16
460.068	217.58
460.278	270.08
460.488	242.38
460.698	310.58
460.908	237.92
461.117	187.16
461.327	203.05
461.537	231.53
461.747	260.78
461.957	264.66
462.167	343.13
462.377	280.35
462.587	255.36
462.797	282.68
463.007	250.32
463.216	276.86
463.426	291.01
463.636	275.31
463.846	205.76
464.056	228.04
464.265	301.08
464.475	237.34
464.685	277.64
464.895	300.31
465.104	250.13
465.314	292.56
465.524	250.32
465.733	246.64
465.943	324.14
466.153	327.24
466.362	284.42
466.572	278.22
466.782	243.73
466.991	278.41
467.201	361.53
467.41	239.47
467.62	274.15
467.829	275.7
468.039	281.13
468.249	288.49
468.458	257.49
468.668	300.5
468.877	270.66
469.086	335.38
469.296	348.75
469.505	227.85
469.715	363.47
469.924	295.46
470.134	349.52
470.343	340.22
470.552	274.93
470.762	290.43
470.971	245.48
471.18	295.85
471.39	296.63
471.599	277.25
471.808	345.65
472.018	275.12
472.227	323.56
472.436	366.76
472.645	321.04
472.855	266.6
473.064	347.97
473.273	305.73
473.482	344.87
473.691	351.46
473.901	338.09
474.11	321.43
474.319	397.38
474.528	348.16
474.737	367.73
474.946	374.71
475.155	350.68
475.364	356.69
475.573	341.58
475.783	337.12
475.992	366.96
476.201	375.48
476.41	323.36
476.619	335.38
476.828	357.08
477.037	343.9
477.245	339.64
477.454	423.92
477.663	343.51
477.872	331.5
478.081	413.46
478.29	353.39
478.499	435.74
478.708	378.39
478.917	441.55
479.125	382.84
479.334	413.65
479.543	362.11
479.752	410.94
479.961	424.5
480.169	434.58
480.378	412.29
480.587	517.89
480.796	419.85
481.004	419.08
481.213	439.61
481.422	429.93
481.63	408.81
481.839	451.82
482.048	489.99
482.256	456.47
482.465	446.39
482.674	441.74
482.882	461.31
483.091	533.58
483.299	478.75
483.508	500.06
483.716	472.55
483.925	464.61
484.134	470.81
484.342	427.21
484.551	485.92
484.759	490.96
484.967	468.67
485.176	493.67
485.384	482.82
485.593	504.71
485.801	475.07
486.01	464.61
486.218	488.82
486.426	408.61
486.635	437.87
486.843	429.73
487.051	473.13
487.26	446.2
487.468	466.35
487.676	468.87
487.885	448.91
488.093	490.96
488.301	469.45
488.509	508.59
488.717	501.22
488.926	462.28
489.134	495.61
489.342	506.07
489.55	466.16
489.758	506.07
489.967	492.89
490.175	590.15
490.383	496.77
490.591	587.05
490.799	477.01
491.007	557.41
491.215	539.39
491.423	511.3
491.631	546.95
491.839	525.64
492.047	550.82
492.255	489.02
492.463	459.18
492.671	525.64
492.879	559.35
493.087	530.48
493.295	577.56
493.503	553.54
493.711	600.42
493.919	584.15
494.127	582.79
494.334	606.04
494.542	514.98
494.75	559.15
494.958	536.29
495.166	603.72
495.374	581.63
495.581	560.9
495.789	585.12
495.997	641.5
496.205	573.1
496.412	551.21
496.62	568.45
496.828	584.54
497.035	570.2
497.243	619.22
497.451	592.67
497.658	579.69
497.866	584.34
498.074	647.12
498.281	580.66
498.489	623.87
498.696	572.52
498.904	579.89
499.112	563.22
499.319	681.22
499.527	593.64
499.734	640.14
499.942	560.7
500.149	599.65
500.357	620.38
500.564	562.06
500.771	610.11
500.979	557.8
501.186	595.39
501.394	576.79
501.601	606.82
501.808	649.05
502.016	597.13
502.223	581.82
502.43	651.77
502.638	620.96
502.845	588.02
503.052	663
503.26	589.57
503.467	668.82
503.674	608.56
503.881	633.36
504.089	713.96
504.296	668.23
504.503	595.58
504.71	650.8
504.917	568.84
505.125	650.41
505.332	652.15
505.539	643.05
505.746	716.48
505.953	660.68
506.16	669.4
506.367	710.08
506.574	736.43
506.781	719.77
506.988	636.65
507.195	683.73
507.402	666.88
507.609	704.46
507.816	644.02
508.023	662.42
508.23	672.11
508.437	643.63
508.644	669.01
508.851	730.81
509.058	707.76
509.265	692.45
509.472	727.52
509.679	788.36
509.885	701.17
510.092	681.8
510.299	688.77
510.506	699.81
510.713	733.53
510.92	727.91
511.126	717.83
511.333	753.68
511.54	728.3
511.746	786.23
511.953	778.28
512.16	799.79
512.367	723.65
512.573	720.16
512.78	734.88
512.987	731.98
513.193	719.19
513.4	691.48
513.606	722.48
513.813	780.61
514.02	746.12
514.226	786.61
514.433	790.29
514.639	713.38
514.846	745.54
515.052	733.72
515.259	745.73
515.465	748.25
515.672	762.78
515.878	826.91
516.085	771.11
516.291	789.52
516.497	723.26
516.704	739.92
516.91	725.2
517.117	706.4
517.323	662.42
517.529	682.57
517.736	732.95
517.942	723.45
518.148	683.35
518.354	727.52
518.561	764.91
518.767	712.41
518.973	777.31
519.179	779.45
519.386	747.09
519.592	745.15
519.798	736.05
520.004	816.84
520.21	766.08
520.417	823.62
520.623	846.68
520.829	880.77
521.035	865.08
521.241	822.46
521.447	862.95
521.653	958.86
521.859	864.11
522.065	860.24
522.271	948.01
522.477	890.66
522.683	928.82
522.889	888.52
523.095	890.85
523.301	854.04
523.507	866.63
523.713	908.09
523.919	836.41
524.125	955.95
524.331	900.15
524.537	946.65
524.742	920.69
524.948	948.97
525.154	942.39
525.36	1040.04
525.566	934.64
525.772	977.45
525.977	890.46
526.183	954.01
526.389	965.44
526.595	873.8
526.8	909.84
527.006	853.07
527.212	848.23
527.417	819.36
527.623	842.61
527.829	943.16
528.034	877.48
528.24	903.44
528.446	895.31
528.651	979
528.857	938.32
529.062	1032.09
529.268	996.25
529.473	1009.04
529.679	990.82
529.884	1062.51
530.09	1014.85
530.295	1035.58
530.501	1024.54
530.706	978.81
530.912	957.89
531.117	1001.67
531.323	984.62
531.528	1051.66
531.733	1044.69
531.939	998.38
532.144	1022.99
532.35	1031.51
532.555	1044.3
532.76	1057.86
532.966	1047.2
533.171	1035.39
533.376	975.71
533.581	979.2
533.787	997.22
533.992	1016.59
534.197	1073.17
534.402	1008.65
534.607	1022.99
534.813	1106.1
535.018	1038.87
535.223	1000.12
535.428	1045.65
535.633	1086.92
535.838	1063.67
536.043	1069.48
536.249	1145.43
536.454	1059.6
536.659	1069.1
536.864	1057.86
537.069	1068.9
537.274	1074.91
537.479	1068.52
537.684	1092.73
537.889	1036.55
538.094	1137.1
538.299	1093.32
538.504	1091.38
538.708	1089.83
538.913	1085.95
539.118	1095.64
539.323	1088.08
539.528	1043.52
539.733	1070.65
539.938	1110.17
540.142	1117.15
540.347	1074.91
540.552	1047.98
540.757	1095.45
540.962	1053.79
541.166	1031.12
541.371	999.35
541.576	1067.16
541.781	976.1
541.985	1076.27
542.19	1099.9
542.395	1145.82
542.599	1170.62
542.804	1148.34
543.008	1142.91
543.213	1085.37
543.418	1072.97
543.622	1112.5
543.827	1028.22
544.031	1161.51
544.236	1153.38
544.44	1115.6
544.645	1187.67
544.849	1122.18
545.054	1151.44
545.258	1214.41
545.463	1165.78
545.667	1133.23
545.872	1128.38
546.076	1157.25
546.281	1157.06
546.485	1120.05
546.689	1147.56
546.894	1172.56
547.098	1128.58
547.302	1124.12
547.507	1131.29
547.711	1164.03
547.915	1206.46
548.119	1105.33
548.324	1143.3
548.528	1191.74
548.732	1121.6
548.936	1158.8
549.141	1180.11
549.345	1120.44
549.549	1125.87
549.753	1153.57
549.957	1209.95
550.161	1188.45
550.366	1117.15
550.57	1147.76
550.774	1113.85
550.978	1163.45
551.182	1140.01
551.386	1137.68
551.59	1171.4
551.794	1162.29
551.998	1146.79
552.202	1137.1
552.406	1110.75
552.61	1155.51
552.814	1157.64
553.018	1232.62
553.222	1148.15
553.426	1145.82
553.63	1214.8
553.833	1161.71
554.037	1084.6
554.241	1162.68
554.445	1135.36
554.649	1140.59
554.853	1123.73
555.056	1159.96
555.26	1216.54
555.464	1163.45
555.668	1178.37
555.871	1187.09
556.075	1206.08
556.279	1138.65
556.483	1114.63
556.686	1130.52
556.89	1130.71
557.094	1176.24
557.297	1093.51
557.501	1176.24
557.704	1095.06
557.908	1187.48
558.112	1124.9
558.315	1196.58
558.519	1136.13
558.722	1143.69
558.926	1111.33
559.129	1083.24
559.333	1072.39
559.536	1083.24
559.74	1042.75
559.943	1070.45
560.147	1060.38
560.35	1110.95
560.553	1097.77
560.757	1025.89
560.96	1160.16
561.164	1060.96
561.367	1143.3
561.57	1123.73
561.774	1104.94
561.977	1100.68
562.18	1062.7
562.384	1194.45
562.587	1078.98
562.79	1076.46
562.993	1075.49
563.197	1092.93
563.4	1163.65
563.603	1175.85
563.806	1207.43
564.009	1070.07
564.212	1134.39
564.416	1044.3
564.619	1088.86
564.822	1047.4
565.025	1146.4
565.228	1067.55
565.431	1072.2
565.634	1007.49
565.837	1053.98
566.04	1098.16
566.243	1069.29
566.446	965.64
566.649	1046.43
566.852	1033.45
567.055	1008.65
567.258	1070.07
567.461	1095.83
567.664	1128.38
567.867	974.94
568.07	1068.71
568.273	1045.65
568.475	1103.39
568.678	1028.02
568.881	1036.94
569.084	1010.78
569.287	946.07
569.489	995.67
569.692	1058.25
569.895	1014.07
570.098	986.75
570.3	962.92
570.503	952.46
570.706	948.39
570.909	992.37
571.111	920.88
571.314	955.76
571.516	950.14
571.719	987.34
571.922	952.85
572.124	962.15
572.327	959.24
572.529	926.5
572.732	934.83
572.935	961.18
573.137	1026.47
573.34	949.56
573.542	970.29
573.745	964.67
573.947	998.38
574.15	966.99
574.352	934.06
574.554	1016.01
574.757	939.67
574.959	931.15
575.162	897.44
575.364	921.46
575.566	1020.47
575.769	874.96
575.971	907.9
576.173	861.98
576.376	897.63
576.578	951.3
576.78	986.37
576.982	840.09
577.185	903.44
577.387	874.57
577.589	870.31
577.791	923.4
577.993	929.41
578.196	908.87
578.398	932.7
578.6	941.42
578.802	823.43
579.004	861.59
579.206	884.46
579.408	899.18
579.61	864.11
579.812	905.96
580.014	901.51
580.216	889.3
580.418	925.72
580.62	843.19
580.822	825.56
581.024	890.07
581.226	917.59
581.428	902.28
581.63	979.39
581.832	881.74
582.034	930.37
582.236	906.16
582.438	927.08
582.64	926.69
582.841	951.69
583.043	998.19
583.245	915.07
583.447	949.94
583.649	918.75
583.85	935.22
584.052	921.66
584.254	858.11
584.456	932.31
584.657	889.3
584.859	914.1
585.061	899.57
585.262	899.57
585.464	872.64
585.666	906.35
585.867	850.16
586.069	939.48
586.27	914.68
586.472	911.58
586.674	893.17
586.875	860.63
587.077	871.67
587.278	888.33
587.48	872.83
587.681	986.95
587.883	917.78
588.084	822.65
588.285	848.23
588.487	873.8
588.688	886.01
588.89	824.78
589.091	819.74
589.292	849.19
589.494	809.67
589.695	781.38
589.896	700.2
590.098	701.17
590.299	781
590.5	743.8
590.702	784.1
590.903	800.76
591.104	848.03
591.305	838.73
591.507	884.65
591.708	838.73
591.909	797.27
592.11	886.01
592.311	848.23
592.512	831.76
592.714	760.65
592.915	780.61
593.116	809.67
593.317	837.96
593.518	833.69
593.719	799.01
593.92	857.53
594.121	858.69
594.322	835.63
594.523	840.48
594.724	767.63
594.925	816.64
595.126	842.41
595.327	821.88
595.528	852.1
595.729	816.06
595.929	815.09
596.13	846.29
596.331	844.74
596.532	815.48
596.733	911.58
596.934	840.48
597.135	864.69
597.335	841.44
597.536	798.24
597.737	826.72
597.938	813.35
598.138	828.27
598.339	814.32
598.54	842.99
598.74	810.44
598.941	838.93
599.142	878.45
599.342	835.05
599.543	805.21
599.744	818.39
599.944	826.72
600.145	799.01
600.345	810.44
600.546	898.21
600.746	860.63
600.947	876.12
601.147	861.59
601.348	858.3
601.548	786.23
601.749	842.03
601.949	761.43
602.15	808.31
602.35	836.79
602.551	842.61
602.751	759.88
602.951	794.17
603.152	745.15
603.352	837.18
603.552	809.28
603.753	880.19
603.953	821.1
604.153	811.41
604.354	828.27
604.554	797.46
604.754	835.24
604.954	774.41
605.155	838.93
605.355	803.86
605.555	842.99
605.755	867.99
605.955	816.45
606.155	840.67
606.356	825.36
606.556	842.41
606.756	835.63
606.956	747.28
607.156	846.29
607.356	795.53
607.556	815.09
607.756	811.61
607.956	854.04
608.156	808.12
608.356	794.17
608.556	839.51
608.756	799.01
608.956	764.53
609.156	805.79
609.356	766.85
609.556	775.38
609.755	807.54
609.955	786.23
610.155	799.01
610.355	807.34
610.555	788.55
610.755	777.7
610.954	721.51
611.154	785.45
611.354	830.21
611.554	779.25
611.753	770.92
611.953	738.95
612.153	818.97
612.352	835.44
612.552	727.71
612.752	698.27
612.951	739.15
613.151	774.41
613.351	775.57
613.55	727.33
613.75	787
613.949	787
614.149	781
614.348	745.93
614.548	717.25
614.747	685.67
614.947	731.59
615.146	672.69
615.346	779.83
615.545	754.45
615.745	741.86
615.944	783.13
616.144	751.93
616.343	776.35
616.542	684.9
616.742	741.08
616.941	747.86
617.14	694.97
617.34	723.65
617.539	741.86
617.738	686.45
617.938	790.68
618.137	710.86
618.336	679.86
618.535	719.38
618.734	708.34
618.934	747.09
619.133	745.54
619.332	757.55
619.531	725
619.73	715.7
619.929	773.83
620.128	758.52
620.328	749.61
620.527	725.97
620.726	696.72
620.925	739.92
621.124	695.55
621.323	758.91
621.522	663.78
621.721	675.4
621.92	681.8
622.119	745.54
622.318	693.62
622.517	708.73
622.715	699.43
622.914	649.05
623.113	681.8
623.312	668.23
623.511	718.61
623.71	683.54
623.909	692.84
624.107	737.01
624.306	641.69
624.505	653.9
624.704	659.32
624.902	680.63
625.101	757.75
625.3	695.94
625.499	663.2
625.697	662.03
625.896	688
626.095	687.42
626.293	624.25
626.492	661.45
626.69	703.69
626.889	629.87
627.088	728.49
627.286	656.03
627.485	649.63
627.683	624.45
627.882	691.48
628.08	621.73
628.279	656.22
628.477	718.61
628.676	616.89
628.874	662.03
629.073	637.62
629.271	603.14
629.469	686.25
629.668	629.87
629.866	637.82
630.065	613.4
630.263	675.6
630.461	607.79
630.66	669.01
630.858	675.21
631.056	712.21
631.254	683.73
631.453	625.8
631.651	664.94
631.849	637.04
632.047	666.68
632.245	617.86
632.444	659.52
632.642	678.89
632.84	678.12
633.038	629.87
633.236	594.03
633.434	635.1
633.632	613.98
633.83	638.4
634.028	671.92
634.227	669.78
634.425	737.79
634.623	651.77
634.821	655.83
635.019	656.61
635.216	619.22
635.414	692.26
635.612	665.72
635.81	632.97
636.008	691.29
636.206	658.55
636.404	699.62
636.602	632.2
636.8	618.83
636.997	693.03
637.195	686.83
637.393	643.43
637.591	747.09
637.789	657.58
637.986	638.98
638.184	657.77
638.382	702.53
638.58	684.7
638.777	734.11
638.975	640.92
639.173	657.97
639.37	653.9
639.568	671.53
639.765	671.53
639.963	626.77
640.161	712.41
640.358	682.96
640.556	584.54
640.753	605.27
640.951	600.81
641.148	634.52
641.346	619.99
641.543	653.7
641.741	657.77
641.938	598.87
642.136	640.72
642.333	592.67
642.531	688
642.728	707.95
642.925	647.89
643.123	626.19
643.32	655.25
643.517	600.62
643.715	628.52
643.912	588.6
644.109	655.64
644.306	614.95
644.504	601.97
644.701	622.9
644.898	666.88
645.095	604.69
645.293	597.52
645.49	648.28
645.687	635.49
645.884	625.22
646.081	552.57
646.278	596.55
646.475	601.59
646.672	601
646.87	611.85
647.067	615.92
647.264	634.91
647.461	560.9
647.658	556.83
647.855	597.13
648.052	560.7
648.249	498.71
648.446	575.04
648.642	532.8
648.839	538.81
649.036	550.82
649.233	536.68
649.43	545.98
649.627	542.69
649.824	542.49
650.021	531.84
650.217	567.49
650.414	542.1
650.611	547.72
650.808	592.48
651.004	579.3
651.201	619.8
651.398	616.5
651.595	586.47
651.791	548.11
651.988	599.65
652.185	541.91
652.381	603.91
652.578	494.83
652.775	570.39
652.971	523.51
653.168	570.2
653.364	577.95
653.561	482.82
653.757	553.92
653.954	560.7
654.15	530.09
654.347	611.27
654.543	561.09
654.74	509.56
654.936	496.77
655.133	561.67
655.329	560.32
655.525	553.34
655.722	575.43
655.918	527.96
656.115	528.93
656.311	483.79
656.507	480.88
656.704	435.54
656.9	483.4
657.096	484.17
657.292	454.34
657.489	532.61
657.685	511.69
657.881	489.02
658.077	479.72
658.273	500.06
658.47	550.63
658.666	528.93
658.862	547.53
659.058	506.07
659.254	545.79
659.45	488.82
659.646	548.3
659.842	537.45
660.038	600.04
660.234	492.7
660.43	518.47
660.626	583.37
660.822	561.67
661.018	557.6
661.214	523.12
661.41	473.32
661.606	528.35
661.802	553.34
661.998	512.27
662.194	489.6
662.39	559.35
662.586	528.93
662.781	531.64
662.977	561.87
663.173	560.51
663.369	545.59
663.564	534.55
663.76	587.64
663.956	527.77
664.152	564.77
664.347	462.28
664.543	544.62
664.739	497.54
664.934	470.42
665.13	465.77
665.326	547.92
665.521	563.61
665.717	489.79
665.912	467.12
666.108	456.47
666.304	491.15
666.499	537.07
666.695	446.2
666.89	482.43
667.086	561.67
667.281	547.34
667.477	570.97
667.672	504.52
667.867	511.69
668.063	516.14
668.258	482.43
668.454	511.88
668.649	564.77
668.844	514.79
669.04	507.81
669.235	495.99
669.43	471.39
669.626	464.22
669.821	491.54
670.016	472.74
670.211	486.5
670.407	469.06
670.602	508.59
670.797	480.69
670.992	538.81
671.187	458.6
671.382	530.67
671.578	478.94
671.773	498.9
671.968	440
672.163	485.14
672.358	508.97
672.553	458.41
672.748	465.19
672.943	560.12
673.138	490.37
673.333	481.07
673.528	432.64
673.723	503.74
673.918	494.25
674.113	426.83
674.308	585.31
674.503	520.21
674.698	481.66
674.892	492.31
675.087	487.47
675.282	525.44
675.477	440.19
675.672	488.24
675.867	502.39
676.061	447.17
676.256	430.51
676.451	456.86
676.646	481.66
676.84	439.61
677.035	444.26
677.23	437.87
677.424	516.34
677.619	496.77
677.814	518.86
678.008	522.15
678.203	425.47
678.397	458.79
678.592	471.39
678.787	550.63
678.981	446.97
679.176	494.83
679.37	478.75
679.565	439.81
679.759	418.3
679.954	490.18
680.148	565.55
680.342	529.7
680.537	497.93
680.731	477.97
680.926	499.48
681.12	481.07
681.314	452.4
681.509	467.32
681.703	464.61
681.897	486.5
682.092	482.04
682.286	419.66
682.48	514.98
682.674	521.18
682.869	435.54
683.063	451.04
683.257	563.61
683.451	450.07
683.645	515.95
683.839	482.62
684.034	455.5
684.228	510.52
684.422	451.24
684.616	429.93
684.81	458.02
685.004	443.68
685.198	450.66
685.392	516.34
685.586	452.21
685.78	464.22
685.974	512.85
686.168	495.22
686.362	544.43
686.556	428.96
686.75	396.21
686.944	435.54
687.138	467.32
687.331	381.68
687.525	397.76
687.719	350.49
687.913	374.9
688.107	390.98
688.301	379.74
688.494	423.92
688.688	373.54
688.882	361.53
689.076	341.58
689.269	377.23
689.463	469.06
689.657	371.41
689.85	409.58
690.044	392.92
690.238	404.16
690.431	378.58
690.625	404.54
690.818	426.44
691.012	418.69
691.205	431.28
691.399	425.47
691.593	471.77
691.786	462.09
691.98	479.14
692.173	541.91
692.366	461.7
692.56	485.72
692.753	548.89
692.947	463.83
693.14	528.93
693.333	538.81
693.527	440.39
693.72	489.6
693.914	480.49
694.107	505.87
694.3	498.12
694.493	479.52
694.687	553.73
694.88	466.54
695.073	575.62
695.266	568.65
695.46	540.17
695.653	557.02
695.846	587.44
696.039	501.22
696.232	534.94
696.425	591.32
696.618	601.39
696.812	583.18
697.005	613.02
697.198	681.02
697.391	600.81
697.584	640.92
697.777	672.5
697.97	659.71
698.163	635.3
698.356	642.85
698.549	709.5
698.742	686.45
698.935	616.7
699.127	667.07
699.32	642.08
699.513	644.98
699.706	690.13
699.899	694
700.092	648.47
700.285	697.3
700.477	657.19
700.67	714.54
700.863	743.8
701.056	799.21
701.248	740.89
701.441	766.27
701.634	713.96
701.826	832.34
702.019	722.29
702.212	799.01
702.404	751.93
702.597	725.2
702.79	764.33
702.982	759.1
703.175	808.51
703.367	829.82
703.56	826.33
703.752	885.81
703.945	854.23
704.137	880.39
704.33	880.77
704.522	874.38
704.715	881.94
704.907	889.49
705.1	911.77
705.292	912.74
705.484	897.05
705.677	918.75
705.869	931.92
706.061	964.86
706.254	996.05
706.446	966.22
706.638	939.87
706.831	1023.18
707.023	980.55
707.215	1107.27
707.407	1058.63
707.599	1059.41
707.792	1078.98
707.984	1090.22
708.176	1081.11
708.368	1063.09
708.56	1084.98
708.752	1078.4
708.944	1082.66
709.136	1100.68
709.329	1111.14
709.521	1233.2
709.713	1146.79
709.905	1175.27
710.097	1223.9
710.289	1179.92
710.481	1197.55
710.672	1259.16
710.864	1189.41
711.056	1290.74
711.248	1239.59
711.44	1259.74
711.632	1251.8
711.824	1270.4
712.016	1317.87
712.207	1296.36
712.399	1286.48
712.591	1356.62
712.783	1317.67
712.975	1350.81
713.166	1302.18
713.358	1307.99
713.55	1405.64
713.741	1384.32
713.933	1413.97
714.125	1392.85
714.316	1366.69
714.508	1458.34
714.7	1441.29
714.891	1436.44
715.083	1467.25
715.274	1444
715.466	1454.46
715.657	1488.17
715.849	1409.12
716.04	1450.97
716.232	1387.62
716.423	1477.13
716.615	1437.41
716.806	1401.95
716.998	1377.93
717.189	1333.76
717.381	1258.78
717.572	1267.88
717.763	1267.69
717.955	1284.16
718.146	1273.89
718.337	1181.47
718.528	1173.53
718.72	1151.83
718.911	1216.35
719.102	1158.61
719.293	1224.87
719.485	1190.38
719.676	1181.28
719.867	1146.21
720.058	1184.18
720.249	1157.06
720.44	1175.85
720.632	1222.74
720.823	1277.18
721.014	1374.83
721.205	1377.93
721.396	1396.34
721.587	1471.12
721.778	1495.34
721.969	1514.52
722.16	1549.78
722.351	1591.63
722.542	1677.66
722.733	1665.64
722.924	1574.39
723.115	1632.9
723.305	1647.05
723.496	1668.74
723.687	1575.55
723.878	1576.13
724.069	1601.9
724.26	1571.29
724.45	1532.35
724.641	1478.49
724.832	1573.81
725.023	1553.85
725.213	1543.58
725.404	1533.9
725.595	1523.43
725.785	1492.43
725.976	1552.3
726.167	1599.19
726.357	1555.79
726.548	1667.58
726.739	1581.36
726.929	1678.63
727.12	1688.89
727.31	1695.87
727.501	1637.16
727.691	1648.21
727.882	1670.1
728.072	1699.16
728.263	1679.98
728.453	1733.65
728.644	1721.25
728.834	1716.79
729.024	1699.74
729.215	1667.97
729.405	1703.81
729.596	1782.09
729.786	1787.32
729.976	1817.74
730.167	1829.17
730.357	1777.24
730.547	1794.29
730.737	1783.06
730.928	1818.51
731.118	1887.1
731.308	1850.67
731.498	1820.26
731.688	1957.62
731.879	1922.36
732.069	1958.2
732.259	1974.67
732.449	2018.85
732.639	2073.48
732.829	2082.4
733.019	2116.11
733.209	2153.11
733.399	2126.76
733.589	2212.01
733.779	2204.26
733.969	2241.66
734.159	2265.68
734.349	2263.94
734.539	2326.9
734.729	2360.81
734.919	2393.55
735.109	2375.92
735.299	2342.6
735.488	2406.15
735.678	2349.96
735.868	2386.97
736.058	2394.72
736.248	2386.97
736.437	2336.98
736.627	2336.2
736.817	2409.25
737.007	2367.2
737.196	2386.58
737.386	2358.1
737.576	2383.67
737.765	2435.98
737.955	2428.43
738.144	2514.26
738.334	2444.51
738.524	2408.67
738.713	2450.9
738.903	2451.48
739.092	2493.33
739.282	2477.83
739.471	2528.4
739.661	2500.7
739.85	2524.91
740.04	2528.21
740.229	2557.66
740.419	2560.37
740.608	2590.79
740.797	2596.21
740.987	2643.68
741.176	2615.98
741.365	2564.44
741.555	2572.58
741.744	2620.04
741.933	2573.93
742.123	2630.89
742.312	2603.58
742.501	2645.04
742.69	2636.51
742.88	2572.38
743.069	2704.32
743.258	2632.06
743.447	2689.79
743.636	2708.01
743.825	2660.54
744.014	2702.58
744.204	2692.12
744.393	2619.85
744.582	2704.91
744.771	2721.18
744.96	2671.19
745.149	2763.22
745.338	2703.16
745.527	2730.29
745.716	2704.13
745.905	2680.88
746.094	2780.08
746.283	2713.82
746.471	2726.22
746.66	2786.28
746.849	2728.93
747.038	2764.58
747.227	2733.77
747.416	2786.28
747.604	2724.47
747.793	2719.63
747.982	2740.55
748.171	2727.96
748.359	2748.5
748.548	2765.55
748.737	2786.09
748.926	2716.34
749.114	2657.63
749.303	2738.23
749.491	2726.99
749.68	2677.39
749.869	2773.1
750.057	2702.97
750.246	2683.98
750.434	2727.19
750.623	2733
750.811	2699.29
751	2733.77
751.188	2726.8
751.377	2694.06
751.565	2677.59
751.754	2706.84
751.942	2694.44
752.131	2741.14
752.319	2653.17
752.507	2589.43
752.696	2720.79
752.884	2734.55
753.072	2688.82
753.261	2701.42
753.449	2687.47
753.637	2657.24
753.825	2741.52
754.014	2659.76
754.202	2708.59
754.39	2752.76
754.578	2737.07
754.766	2638.26
754.955	2637.48
755.143	2740.75
755.331	2646.2
755.519	2682.04
755.707	2672.16
755.895	2678.56
756.083	2688.82
756.271	2642.32
756.459	2624.69
756.647	2702.39
756.835	2644.84
757.023	2654.72
757.211	2659.96
757.399	2607.45
757.587	2603.77
757.775	2553.39
757.963	2618.11
758.151	2607.26
758.339	2564.63
758.526	2591.95
758.714	2607.64
758.902	2497.98
759.09	2456.91
759.278	2275.95
759.465	2127.54
759.653	1836.34
759.841	1729
760.028	1464.92
760.216	1256.45
760.404	1205.11
760.591	988.5
760.779	815.29
760.967	764.72
761.154	600.42
761.342	655.83
761.529	629.1
761.717	702.72
761.905	640.92
762.092	682.18
762.28	659.13
762.467	662.62
762.655	619.02
762.842	642.08
763.029	656.42
763.217	657.77
763.404	669.59
763.592	699.43
763.779	620.57
763.966	711.25
764.154	743.21
764.341	780.22
764.528	773.44
764.716	829.82
764.903	849.58
765.09	927.08
765.277	946.07
765.465	1061.54
765.652	1110.17
765.839	1166.75
766.026	1292.49
766.213	1294.23
766.4	1382.77
766.588	1551.14
766.775	1510.07
766.962	1601.9
767.149	1660.8
767.336	1786.35
767.523	1717.76
767.71	1877.02
767.897	1943.28
768.084	2019.81
768.271	1983.97
768.458	2068.06
768.645	2138
768.832	2095.76
769.019	2149.04
769.206	2149.24
769.392	2240.88
769.579	2299.39
769.766	2251.15
769.953	2234.87
770.14	2328.84
770.327	2274.59
770.513	2337.95
770.7	2415.45
770.887	2279.24
771.073	2340.27
771.26	2345.5
771.447	2307.53
771.634	2310.63
771.82	2398.59
772.007	2313.34
772.193	2349.19
772.38	2399.37
772.567	2369.14
772.753	2347.83
772.94	2378.25
773.126	2366.43
773.313	2387.74
773.499	2394.91
773.686	2382.32
773.872	2322.64
774.059	2350.35
774.245	2307.53
774.432	2327.1
774.618	2300.17
774.804	2314.7
774.991	2267.23
775.177	2357.13
775.363	2299.2
775.55	2312.95
775.736	2301.14
775.922	2319.54
776.109	2317.6
776.295	2312.37
776.481	2323.03
776.667	2342.4
776.853	2297.26
777.04	2295.32
777.226	2315.67
777.412	2375.73
777.598	2284.28
777.784	2254.44
777.97	2248.24
778.156	2279.24
778.342	2216.08
778.528	2259.29
778.715	2231.39
778.901	2218.99
779.087	2276.34
779.272	2223.83
779.458	2226.16
779.644	2255.22
779.83	2175.59
780.016	2295.71
780.202	2252.12
780.388	2206.01
780.574	2134.71
780.76	2178.11
780.946	2219.18
781.131	2198.84
781.317	2186.24
781.503	2158.54
781.689	2188.37
781.874	2288.93
782.06	2143.23
782.246	2170.74
782.432	2158.34
782.617	2200
782.803	2204.65
782.989	2106.23
783.174	2130.06
783.36	2086.85
783.545	2150.79
783.731	2139.55
783.916	2076
784.102	2135.29
784.288	2077.36
784.473	2088.4
784.659	2117.08
784.844	2156.41
785.029	2076.58
785.215	2101.19
785.4	2028.15
785.586	2131.03
785.771	2080.46
785.956	2079.3
786.142	2094.99
786.327	2086.46
786.512	2076.2
786.698	2050.04
786.883	2002.77
787.068	2012.06
787.254	2043.84
787.439	2008.77
787.624	2032.8
787.809	1974.48
787.994	2004.12
788.18	2095.18
788.365	1924.88
788.55	1969.63
788.735	1982.81
788.92	1949.48
789.105	1968.67
789.29	1947.93
789.475	1931.27
789.66	1948.13
789.845	1929.53
790.03	1913.84
790.215	1946.38
790.4	1922.94
790.585	2016.91
790.77	1960.72
790.955	1871.99
791.14	1948.52
791.325	1987.85
791.51	1857.45
791.695	1886.9
791.879	1901.44
792.064	1883.22
792.249	1976.61
792.434	1917.71
792.618	1899.89
792.803	1894.46
792.988	1905.12
793.173	1879.93
793.357	1940.57
793.542	1884.77
793.727	1882.84
793.911	1934.18
794.096	1905.7
794.281	1948.52
794.465	2000.25
794.65	1894.46
794.834	1908.41
795.019	1979.13
795.203	1972.93
795.388	1959.17
795.572	1976.8
795.757	1947.55
795.941	1941.35
796.126	1952.39
796.31	1882.64
796.494	1916.55
796.679	1918.1
796.863	1919.26
797.048	1953.55
797.232	1955.49
797.416	1925.85
797.601	1908.22
797.785	2051.98
797.969	1963.24
798.153	1945.22
798.338	1957.43
798.522	1984.17
798.706	1941.35
798.89	1974.09
799.074	2049.26
799.258	2041.9
799.443	1946
799.627	1946.38
799.811	2020.98
799.995	1918.87
800.179	1949.48
800.363	1953.55
800.547	1973.12
800.731	1946.58
800.915	1866.37
801.099	1921
801.283	1923.72
801.467	1997.15
801.651	1921.97
801.835	1990.56
802.019	1944.25
802.202	1945.8
802.386	1903.37
802.57	1904.92
802.754	1921.59
802.938	1915.77
803.121	1873.92
803.305	1984.94
803.489	1939.6
803.673	1955.88
803.856	1964.6
804.04	1941.35
804.224	1951.81
804.407	1908.41
804.591	1907.25
804.775	1976.03
804.958	1923.13
805.142	2032.99
805.326	1971.57
805.509	1964.79
805.693	2006.64
805.876	2047.33
806.06	1964.79
806.243	1970.99
806.427	1981.26
806.61	1994.24
806.794	1931.85
806.977	2003.73
807.16	1931.66
807.344	1994.63
807.527	1959.37
807.71	1939.6
807.894	1955.1
808.077	1979.9
808.26	1911.32
808.444	1903.37
808.627	1961.5
808.81	1924.88
808.993	1869.66
809.177	1876.05
809.36	1888.45
809.543	1896.59
809.726	1834.4
809.909	1879.93
810.092	1808.44
810.276	1818.51
810.459	1842.34
810.642	1827.04
810.825	1781.31
811.008	1797.2
811.191	1736.17
811.374	1736.36
811.557	1751.67
811.74	1831.11
811.923	1670.49
812.106	1706.91
812.289	1686.38
812.472	1719.51
812.654	1704.39
812.837	1702.26
813.02	1617.01
813.203	1619.92
813.386	1529.05
813.569	1537.77
813.751	1497.86
813.934	1524.79
814.117	1521.11
814.3	1420.94
814.482	1455.04
814.665	1399.63
814.848	1379.09
815.03	1344.02
815.213	1331.24
815.396	1343.06
815.578	1323.1
815.761	1288.03
815.943	1375.61
816.126	1250.25
816.309	1239.4
816.491	1216.54
816.674	1174.3
816.856	1182.25
817.039	1168.88
817.221	1252.38
817.403	1219.06
817.586	1204.14
817.768	1227.19
817.951	1149.7
818.133	1156.67
818.315	1183.6
818.498	1229.91
818.68	1315.74
818.862	1251.22
819.045	1285.51
819.227	1262.26
819.409	1220.61
819.591	1272.92
819.774	1244.44
819.956	1224.09
820.138	1275.63
820.32	1264.98
820.502	1319.61
820.684	1391.49
820.866	1368.44
821.048	1406.22
821.231	1413.77
821.413	1408.54
821.595	1363.21
821.777	1396.53
821.959	1343.83
822.141	1453.69
822.323	1320
822.505	1286.09
822.686	1220.41
822.868	1194.45
823.05	1109.59
823.232	1116.37
823.414	1022.6
823.596	1119.67
823.778	1055.15
823.96	1119.47
824.141	1107.85
824.323	1134.97
824.505	1175.46
824.687	1229.52
824.868	1257.81
825.05	1334.72
825.232	1361.07
825.413	1410.67
825.595	1364.76
825.777	1313.41
825.958	1341.12
826.14	1336.27
826.321	1384.71
826.503	1355.46
826.685	1407.77
826.866	1392.66
827.048	1380.84
827.229	1345.19
827.411	1295.98
827.592	1284.16
827.773	1261.29
827.955	1243.08
828.136	1258.39
828.318	1207.43
828.499	1247.93
828.68	1225.26
828.862	1244.63
829.043	1269.43
829.224	1227.39
829.406	1196.39
829.587	1233.59
829.768	1201.62
829.949	1220.03
830.131	1211.5
830.312	1265.94
830.493	1186.51
830.674	1255.68
830.855	1199.88
831.036	1220.03
831.218	1262.26
831.399	1288.61
831.58	1217.31
831.761	1233.98
831.942	1222.35
832.123	1199.1
832.304	1158.22
832.485	1189.8
832.666	1189.03
832.847	1225.64
833.028	1209.56
833.209	1244.44
833.389	1211.11
833.57	1187.09
833.751	1183.99
833.932	1264.78
834.113	1240.76
834.294	1194.65
834.475	1195.61
834.655	1276.02
834.836	1285.9
835.017	1266.91
835.198	1183.41
835.378	1229.91
835.559	1325.23
835.74	1230.68
835.92	1222.93
836.101	1222.16
836.281	1251.8
836.462	1257.81
836.643	1265.94
836.823	1299.27
837.004	1265.17
837.184	1326.39
837.365	1292.1
837.545	1334.14
837.726	1266.33
837.906	1341.7
838.087	1296.75
838.267	1235.53
838.448	1249.48
838.628	1272.53
838.808	1232.04
838.989	1317.87
839.169	1238.82
839.349	1290.55
839.53	1323.1
839.71	1311.67
839.89	1262.84
840.07	1312.44
840.251	1245.99
840.431	1305.47
840.611	1284.93
840.791	1251.8
840.971	1288.42
841.151	1236.88
841.332	1249.09
841.512	1322.52
841.692	1220.61
841.872	1273.31
842.052	1270.4
842.232	1320.39
842.412	1206.66
842.592	1239.79
842.772	1265.56
842.952	1272.34
843.132	1271.37
843.312	1236.49
843.492	1232.04
843.672	1259.74
843.851	1187.09
844.031	1237.85
844.211	1220.41
844.391	1179.15
844.571	1239.59
844.751	1227.19
844.93	1253.54
845.11	1223.71
845.29	1234.94
845.47	1262.84
845.649	1231.84
845.829	1246.38
846.009	1223.9
846.188	1228.16
846.368	1221.77
846.547	1201.62
846.727	1276.21
846.907	1196.78
847.086	1226.61
847.266	1236.88
847.445	1190.77
847.625	1211.7
847.804	1194.45
847.984	1201.62
848.163	1159.96
848.343	1192.13
848.522	1199.1
848.701	1227
848.881	1164.03
849.06	1188.06
849.239	1215.96
849.419	1212.47
849.598	1143.88
849.777	1148.73
849.957	1150.66
850.136	1078.98
850.315	1077.43
850.494	1089.05
850.674	1110.17
850.853	1172.75
851.032	1092.93
851.211	1158.8
851.39	1128.19
851.569	1073.17
851.748	1063.09
851.927	1126.06
852.107	1106.88
852.286	1078.4
852.465	1068.9
852.644	1141.95
852.823	1137.49
853.002	1135.94
853.181	1100.68
853.359	1127.61
853.538	1062.51
853.717	1150.28
853.896	1056.89
854.075	1016.59
854.254	990.82
854.433	934.25
854.611	1004.97
854.79	927.66
854.969	985.4
855.148	1002.25
855.327	950.52
855.505	1000.51
855.684	987.72
855.863	1008.45
856.041	969.12
856.22	1013.1
856.399	1015.04
856.577	1087.89
856.756	1046.82
856.934	1145.43
857.113	1145.24
857.291	1073.55
857.47	1042.17
857.648	1051.27
857.827	1061.15
858.005	1080.92
858.184	1048.75
858.362	1120.05
858.541	1060.57
858.719	1076.46
858.898	1064.83
859.076	1044.3
859.254	1122.18
859.433	1042.36
859.611	1035.58
859.789	980.17
859.967	1088.47
860.146	1111.53
860.324	1003.61
860.502	1025.12
860.68	979.97
860.859	1012.72
861.037	1043.91
861.215	1036.16
861.393	1027.83
861.571	1023.95
861.749	1006.32
861.927	1018.72
862.105	1045.65
862.283	1004.77
862.461	977.07
862.639	955.76
862.817	997.6
862.995	998.57
863.173	994.7
863.351	990.44
863.529	1012.33
863.707	1043.72
863.885	1016.4
864.063	957.11
864.241	948.78
864.418	1039.07
864.596	973.58
864.774	923.98
864.952	970.87
865.129	1009.81
865.307	931.15
865.485	910.42
865.663	981.52
865.84	908.09
866.018	947.81
866.196	831.95
866.373	869.73
866.551	842.8
866.728	764.72
866.906	853.84
867.084	846.09
867.261	899.57
867.439	881.74
867.616	892.98
867.794	932.7
867.971	904.99
868.149	897.05
868.326	948.39
868.503	919.72
868.681	917.59
868.858	914.87
869.035	855.01
869.213	939.09
869.39	884.26
869.567	967.57
869.745	878.64
869.922	903.44
870.099	937.35
870.276	924.17
870.454	912.94
870.631	911.58
870.808	867.99
870.985	939.48
871.162	944.71
871.339	928.05
871.517	876.51
871.694	877.48
871.871	885.81
872.048	840.28
872.225	876.71
872.402	887.36
872.579	851.33
872.756	883.68
872.933	843.96
873.11	838.34
873.287	912.55
873.463	857.72
873.64	827.69
873.817	864.69
873.994	865.28
874.171	827.11
874.348	852.29
874.524	795.72
874.701	862.18
874.878	781
875.055	855.01
875.231	856.75
875.408	875.93
875.585	791.46
875.762	850.16
875.938	842.22
876.115	814.51
876.291	795.53
876.468	822.46
876.645	790.49
876.821	812.19
876.998	812.38
877.174	817.81
877.351	801.14
877.527	805.41
877.704	851.91
877.88	826.72
878.057	797.27
878.233	849
878.409	787.58
878.586	798.43
878.762	787
878.938	789.71
879.115	718.8
879.291	796.3
879.467	751.74
879.644	780.41
879.82	803.66
879.996	770.92
880.172	717.25
880.349	776.54
880.525	810.25
880.701	731.59
880.877	713.38
881.053	753.1
881.229	770.53
881.405	815.29
881.581	742.83
881.757	762.98
881.933	784.29
882.109	792.62
882.285	780.8
882.461	705.24
882.637	761.04
882.813	707.76
882.989	765.88
883.165	790.49
883.341	740.11
883.517	798.24
883.693	773.44
883.869	802.31
884.044	723.45
884.22	788.16
884.396	805.02
884.572	754.06
884.747	808.31
884.923	767.82
885.099	784.48
885.275	793.98
885.45	757.75
885.626	724.81
885.801	734.69
885.977	763.56
886.153	694.39
886.328	743.21
886.504	724.42
886.679	754.65
886.855	689.16
887.03	760.65
887.206	811.99
887.381	768.21
887.557	776.54
887.732	747.28
887.908	788.55
888.083	785.45
888.258	776.15
888.434	730.81
888.609	729.26
888.784	800.18
888.96	738.76
889.135	709.89
889.31	726.16
889.485	769.56
889.661	740.11
889.836	781.96
890.011	750.38
890.186	728.1
890.361	736.63
890.537	779.83
890.712	758.13
890.887	778.67
891.062	759.49
891.237	780.8
891.412	697.49
891.587	779.64
891.762	790.68
891.937	789.71
892.112	721.71
892.287	741.28
892.462	702.53
892.637	668.82
892.812	696.91
892.987	698.27
893.161	710.66
893.336	698.07
893.511	704.08
893.686	669.2
893.861	700.4
894.035	672.69
894.21	696.33
894.385	656.42
894.56	674.05
894.734	640.33
894.909	603.91
895.084	617.08
895.258	629.1
895.433	655.64
895.608	622.12
895.782	581.63
895.957	606.24
896.131	598.87
896.306	544.04
896.48	559.35
896.655	516.72
896.829	519.63
897.004	508.01
897.178	515.37
897.353	492.12
897.527	540.94
897.701	525.83
897.876	459.18
898.05	520.41
898.224	496.96
898.399	564.77
898.573	504.32
898.747	418.69
898.921	501.03
899.096	399.89
899.27	405.51
899.444	394.86
899.618	442.32
899.792	473.32
899.967	435.16
900.141	478.56
900.315	416.94
900.489	440.19
900.663	462.67
900.837	453.17
901.011	412.88
901.185	519.24
901.359	459.96
901.533	473.13
901.707	466.16
901.881	456.08
902.055	397.38
902.229	408.23
902.403	487.66
902.576	441.74
902.75	456.27
902.924	550.44
903.098	510.72
903.272	526.22
903.446	546.95
903.619	507.23
903.793	561.48
903.967	517.5
904.14	574.07
904.314	575.04
904.488	541.72
904.661	599.65
904.835	534.94
905.009	604.1
905.182	608.17
905.356	590.35
905.529	577.75
905.703	536.29
905.876	543.85
906.05	505.87
906.223	476.42
906.397	434.96
906.57	449.11
906.744	414.62
906.917	440.19
907.09	464.8
907.264	477.39
907.437	419.27
907.61	396.79
907.784	399.51
907.957	434.58
908.13	366.96
908.304	458.99
908.477	419.27
908.65	407.45
908.823	343.32
908.996	475.46
909.17	393.69
909.343	383.23
909.516	434.58
909.689	381.29
909.862	367.54
910.035	398.54
910.208	354.56
910.381	362.5
910.554	460.15
910.727	389.24
910.9	390.01
911.073	361.14
911.246	427.02
911.419	434.19
911.592	389.82
911.765	381.49
911.938	398.73
912.11	416.75
912.283	379.94
912.456	431.48
912.629	380.71
912.802	401.44
912.974	342.74
913.147	322.4
913.32	273.38
913.493	306.12
913.665	328.4
913.838	341.77
914.01	345.65
914.183	351.84
914.356	337.12
914.528	380.71
914.701	433.22
914.873	403.58
915.046	322.59
915.218	321.62
915.391	279.38
915.563	280.74
915.736	344.68
915.908	394.66
916.081	360.37
916.253	271.05
916.425	296.82
916.598	350.1
916.77	333.63
916.942	308.25
917.115	256.72
917.287	348.94
917.459	318.33
917.632	290.04
917.804	209.25
917.976	312.51
918.148	330.92
918.32	305.93
918.493	336.35
918.665	376.06
918.837	339.45
919.009	373.54
919.181	387.3
919.353	332.86
919.525	343.51
919.697	343.9
919.869	324.91
920.041	414.62
920.213	452.4
920.385	392.73
920.557	338.86
920.729	386.91
920.901	365.79
921.073	355.14
921.244	346.81
921.416	399.89
921.588	368.31
921.76	331.31
921.932	425.28
922.103	345.84
922.275	347
922.447	357.85
922.619	315.23
922.79	324.33
922.962	320.85
923.134	346.81
923.305	338.86
923.477	282.87
923.648	301.28
923.82	302.83
923.991	277.45
924.163	254.58
924.335	297.01
924.506	273.96
924.677	338.48
924.849	285.97
925.02	300.5
925.192	323.56
925.363	298.76
925.535	308.06
925.706	281.9
925.877	313.48
926.049	272.6
926.22	323.95
926.391	304.96
926.562	300.11
926.734	287.33
926.905	335.76
927.076	267.56
927.247	293.72
927.419	256.33
927.59	239.08
927.761	230.17
927.932	253.23
928.103	279
928.274	227.07
928.445	223.39
928.616	231.53
928.787	221.84
928.958	241.22
929.129	227.07
929.3	235.4
929.471	187.35
929.642	150.74
929.813	105.59
929.984	198.98
930.155	110.44
930.326	142.6
930.496	140.47
930.667	85.06
930.838	136.4
931.009	105.98
931.18	119.74
931.35	101.33
931.521	115.09
931.692	65.1
931.863	62.77
932.033	110.44
932.204	99.97
932.374	95.9
932.545	64.13
932.716	119.74
932.886	87.38
933.057	34.1
933.227	47.66
933.398	141.82
933.568	42.62
933.739	-8.91
933.909	25.57
934.08	76.53
934.25	-6.97
934.421	-5.23
934.591	79.44
934.761	10.46
934.932	-8.72
935.102	30.81
935.272	-4.07
935.443	54.64
935.613	9.49
935.783	41.07
935.953	-0.77
936.123	172.63
936.294	-0.58
936.464	2.32
936.634	15.5
936.804	0.97
936.974	0.39
937.144	52.51
937.314	43.79
937.484	27.12
937.655	4.65
937.825	59.87
937.995	-14.72
938.165	68.01
938.334	14.14
938.504	34.49
938.674	5.81
938.844	12.98
939.014	56.38
939.184	55.99
939.354	115.47
939.524	93.58
939.694	77.11
939.863	60.06
940.033	116.05
940.203	118.19
940.373	73.82
940.542	110.82
940.712	86.02
940.882	93.19
941.051	113.34
941.221	84.09
941.391	109.47
941.56	24.99
941.73	49.21
941.899	163.33
942.069	60.45
942.238	72.07
942.408	65.68
942.577	95.32
942.747	56.77
942.916	20.34
943.086	31.58
943.255	101.14
943.425	63.36
943.594	48.05
943.763	-17.44
943.933	13.56
944.102	-24.99
944.271	30.03
944.441	67.04
944.61	27.9
944.779	50.96
944.948	112.37
945.117	13.56
945.287	10.85
945.456	10.46
945.625	3.49
945.794	63.74
945.963	37.59
946.132	73.62
946.301	33.32
946.47	75.76
946.639	-21.7
946.808	17.24
946.977	60.64
947.146	89.9
947.315	37.78
947.484	64.32
947.653	23.83
947.822	28.48
947.991	28.48
948.16	106.95
948.329	105.98
948.498	33.32
948.666	49.21
948.835	76.34
949.004	8.33
949.173	15.11
949.341	49.99
949.51	58.32
949.679	103.46
949.847	41.46
950.016	108.3
950.185	89.32
950.353	20.92
950.522	59.87
950.69	82.54
950.859	44.95
951.028	72.85
951.196	61.42
951.365	23.06
951.533	23.64
951.701	82.73
951.87	83.51
952.038	10.46
952.207	63.36
952.375	116.25
952.543	27.71
952.712	49.02
952.88	34.1
953.048	126.32
953.217	39.52
953.385	49.99
953.553	87.19
953.721	1.94
953.89	47.08
954.058	2.32
954.226	27.9
954.394	57.93
954.562	12.79
954.73	52.51
954.898	43.21
955.067	68.78
955.235	28.29
955.403	94.94
955.571	114.31
955.739	44.17
955.907	31
956.075	24.61
956.243	23.06
956.41	49.21
956.578	17.05
956.746	-8.72
956.914	28.09
957.082	58.9
957.25	57.35
957.418	10.46
957.585	56.38
957.753	68.2
957.921	23.64
958.089	61.22
958.256	70.91
958.424	46.31
958.592	80.6
958.759	5.23
958.927	97.45
959.095	21.51
959.262	35.46
959.43	53.09
959.597	24.41
959.765	61.03
959.932	-3.68
960.1	80.99
960.267	50.57
960.435	39.14
960.602	80.79
960.77	34.49
960.937	0.58
961.104	32.36
961.272	-2.52
961.439	26.35
961.606	50.37
961.774	83.89
961.941	37.59
962.108	66.07
962.275	52.7
962.443	69.17
962.61	60.06
962.777	105.98
962.944	83.7
963.111	70.72
963.278	66.84
963.446	53.47
963.613	43.98
963.78	59.29
963.947	77.5
964.114	57.16
964.281	140.85
964.448	77.69
964.615	30.03
964.782	49.99
964.949	75.76
965.116	95.9
965.282	109.08
965.449	71.3
965.616	33.32
965.783	88.15
965.95	70.72
966.117	5.62
966.283	59.48
966.45	70.33
966.617	86.99
966.784	96.68
966.95	101.91
967.117	101.52
967.284	39.52
967.45	36.62
967.617	114.31
967.784	76.34
967.95	116.05
968.117	54.44
968.283	101.14
968.45	163.72
968.616	87.19
968.783	100.36
968.949	61.42
969.116	135.82
969.282	45.53
969.449	90.29
969.615	83.12
969.781	39.72
969.948	61.22
970.114	37.2
970.28	125.16
970.447	86.41
970.613	115.28
970.779	71.11
970.945	110.24
971.112	86.99
971.278	65.1
971.444	57.74
971.61	112.37
971.776	53.28
971.942	70.91
972.108	91.84
972.275	47.08
972.441	74.4
972.607	160.04
972.773	52.12
972.939	90.87
973.105	69.17
973.271	25.19
973.437	66.26
973.602	56.57
973.768	73.43
973.934	85.44
974.1	91.06
974.266	-20.34
974.432	76.92
974.598	30.03
974.763	104.24
974.929	68.01
975.095	125.74
975.261	47.47
975.426	34.29
975.592	86.8
975.758	131.36
975.923	6.97
976.089	36.04
976.255	77.5
976.42	87.96
976.586	77.69
976.751	61.81
976.917	144.34
977.082	73.43
977.248	32.74
977.413	7.17
977.579	43.21
977.744	86.02
977.91	22.86
978.075	34.87
978.24	58.32
978.406	45.53
978.571	56.19
978.736	11.62
978.902	97.84
979.067	24.8
979.232	-9.49
979.397	57.16
979.563	92.42
979.728	30.22
979.893	72.46
980.058	56.19
980.223	103.65
980.388	61.81
980.554	77.69
980.719	53.86
980.884	41.07
981.049	115.47
981.214	31
981.379	61.03
981.544	65.29
981.709	76.53
981.874	38.56
982.039	38.94
982.204	104.62
982.368	53.28
982.533	54.64
982.698	75.17
982.863	107.14
983.028	53.86
983.193	80.41
983.357	59.87
983.522	66.84
983.687	67.23
983.852	40.88
984.016	33.52
984.181	38.17
984.346	58.32
984.51	73.43
984.675	79.24
984.839	79.05
985.004	59.87
985.168	79.63
985.333	76.14
985.498	57.35
985.662	96.49
985.827	71.11
985.991	55.02
986.155	38.94
986.32	92.22
986.484	82.54
986.649	90.67
986.813	16.08
986.977	60.45
987.142	93.97
987.306	17.05
987.47	48.05
987.634	54.25
987.799	70.52
987.963	56.19
988.127	61.61
988.291	137.95
988.455	53.28
988.62	48.44
988.784	74.01
988.948	99
989.112	14.92
989.276	62.97
989.44	84.47
989.604	51.15
989.768	31.97
989.932	131.17
990.096	17.44
990.26	44.37
990.424	6.78
990.588	44.17
990.752	150.93
990.915	88.15
991.079	49.99
991.243	29.26
991.407	76.72
991.571	26.74
991.734	88.35
991.898	68.97
992.062	132.33
992.226	49.21
992.389	36.81
992.553	6.2
992.717	49.41
992.88	30.03
993.044	45.92
993.207	33.91
993.371	84.09
993.535	59.48
993.698	72.07
993.862	58.12
994.025	74.01
994.189	56.19
994.352	56.57
994.515	62
994.679	100.75
994.842	54.25
995.006	56.38
995.169	25.57
995.332	46.69
995.496	80.99
995.659	11.43
995.822	26.35
995.985	48.44
996.149	96.29
996.312	28.09
996.475	109.47
996.638	14.14
996.801	120.51
996.964	117.6
997.128	42.62
997.291	52.89
997.454	60.84
997.617	-25.38
997.78	95.32
997.943	8.91
998.106	85.64
998.269	22.09
998.432	56.96
998.595	44.37
998.758	-6.2
998.92	26.16
999.083	6.01
999.246	21.12
999.409	9.88
999.572	-12.01
999.735	12.4
999.897	52.89
1000.06	17.24
1000.223	37.2
1000.386	73.82
1000.548	72.85
1000.711	51.34
1000.874	59.87
1001.036	1.36
1001.199	49.79
1001.361	12.59
1001.524	37.97
1001.687	73.43
1001.849	6.97
1002.012	65.49
1002.174	34.68
1002.337	69.36
1002.499	28.48
1002.661	80.21
1002.824	8.72
1002.986	-3.49
1003.149	68.78
1003.311	18.41
1003.473	120.12
1003.636	21.12
1003.798	63.55
1003.96	71.69
1004.123	44.37
1004.285	22.67
1004.447	39.91
1004.609	28.09
1004.771	101.52
1004.933	14.72
1005.096	5.23
1005.258	12.4
1005.42	8.33
1005.582	64.32
1005.744	41.85
1005.906	-9.69
1006.068	31.58
1006.23	-19.96
1006.392	-37.78
1006.554	-0.97
1006.716	52.89
1006.878	49.6
1007.04	11.24
1007.202	31.39
1007.363	43.21
1007.525	37.59
1007.687	49.21
1007.849	69.94
1008.011	-25.57
1008.172	-9.69
1008.334	11.82
1008.496	59.67
1008.658	-15.89
1008.819	3.49
1008.981	-11.43
1009.143	12.59
1009.304	23.25
1009.466	51.73
1009.627	66.07
1009.789	104.04
1009.95	36.23
1010.112	-6.97
1010.273	52.31
1010.435	13.37
1010.596	0.58
1010.758	21.12
1010.919	14.92
1011.081	6.2
1011.242	-3.1
1011.403	62.39
1011.565	22.09
1011.726	61.22
1011.887	-7.36
1012.049	28.29
1012.21	55.41
1012.371	78.86
1012.532	-35.84
1012.693	31.19
1012.855	-15.89
1013.016	15.11
1013.177	60.06
1013.338	46.31
1013.499	95.32
1013.66	52.51
1013.821	43.59
1013.982	39.14
1014.143	30.03
1014.304	7.17
1014.465	55.02
1014.626	60.64
1014.787	22.67
1014.948	120.32
1015.109	-42.62
1015.27	69.36
1015.431	6.2
1015.592	-22.09
1015.752	72.07
1015.913	29.64
1016.074	18.79
1016.235	35.07
1016.395	29.64
1016.556	18.79
1016.717	4.46
1016.877	45.92
1017.038	15.89
1017.199	33.52
1017.359	39.52
1017.52	32.94
1017.681	25.96
1017.841	21.7
1018.002	37.2
1018.162	13.17
1018.323	64.32
1018.483	37.39
1018.644	43.59
1018.804	-31.58
1018.964	-24.61
1019.125	-8.52
1019.285	15.11
1019.446	10.66
1019.606	-11.43
1019.766	-54.83
1019.926	46.89
1020.087	27.12
1020.247	-17.44
1020.407	28.67
1020.567	45.14
1020.728	-7.36
1020.888	-33.91
1021.048	-28.29
1021.208	-5.62
1021.368	-18.6
1021.528	62.77
1021.688	44.56
1021.848	49.99
1022.008	26.16
1022.168	-10.66
1022.328	13.76
1022.488	32.55
1022.648	7.94
1022.808	31.97
1022.968	-2.71
1023.128	-30.42
1023.288	-13.37
1023.448	17.63
1023.608	38.17
1023.767	49.02
1023.927	-25.57
1024.087	-24.99
1024.247	-14.34
1024.406	21.51
1024.566	-9.11
1024.726	-18.79
1024.885	11.43
1025.045	30.22
1025.205	11.04
1025.364	10.07
1025.524	50.57
1025.683	15.31
1025.843	19.96
1026.003	21.51
1026.162	90.29
1026.321	53.47
1026.481	22.47
1026.64	17.44
1026.8	17.82
1026.959	10.66
1027.119	8.91
1027.278	-9.3
1027.437	-0.58
1027.597	20.15
1027.756	24.99
1027.915	26.93
1028.074	65.87
1028.234	-4.46
1028.393	5.42
1028.552	-3.68
1028.711	-35.26
1028.87	52.12
1029.03	-25.38
1029.189	6.97
1029.348	-53.67
1029.507	8.52
1029.666	-19.96
1029.825	-20.34
1029.984	4.46
1030.143	11.24
1030.302	9.3
1030.461	-47.47
1030.62	21.31
1030.779	27.9
1030.938	0.77
1031.097	-17.82
1031.255	35.46
1031.414	51.92
1031.573	62
1031.732	-14.72
1031.891	5.62
1032.049	49.41
1032.208	62.58
1032.367	-30.42
1032.525	-12.4
1032.684	17.44
1032.843	4.26
1033.001	-30.42
1033.16	161.78
1033.319	70.14
1033.477	43.21
1033.636	0.97
1033.794	-45.14
1033.953	37.2
1034.111	41.46
1034.27	-20.54
1034.428	1.74
1034.587	5.81
1034.745	35.07
1034.903	4.65
1035.062	33.71
1035.22	-18.41
1035.378	20.34
1035.537	-33.52
1035.695	32.74
1035.853	-4.65
1036.011	13.76
1036.17	24.22
1036.328	-65.68
1036.486	41.66
1036.644	27.71
1036.802	-72.07
1036.96	-9.69
1037.119	18.6
1037.277	-31.97
1037.435	-54.83
1037.593	-29.64
1037.751	-24.99
1037.909	49.79
1038.067	49.79
