Data from pine_FLMT105791__173__17-23-27-073.txt Node

Date: Mon Mar 20 17:23:27 GMT 2023
User: antho
Spectrometer: FLMT10579
Trigger mode: 0
Integration Time (sec): 1.000000E-1
Scans to average: 10
Electric dark correction enabled: true
Nonlinearity correction enabled: false
Boxcar width: 0
XAxis mode: Wavelengths
Number of Pixels in Spectrum: 3648
>>>>>Begin Spectral Data<<<<<
345.248	-157.63
345.464	-157.63
345.681	-157.63
345.898	-177.59
346.114	-163.44
346.331	-49.52
346.548	25.85
346.764	-7.86
346.981	0.66
347.197	-20.07
347.414	15.39
347.631	-16
347.847	68.28
348.064	11.51
348.28	18.87
348.497	-38.09
348.713	-9.03
348.93	18.87
349.146	29.14
349.363	-9.22
349.579	41.16
349.796	-0.89
350.012	-6.12
350.229	40.19
350.445	29.34
350.661	-20.26
350.878	8.22
351.094	13.26
351.311	48.13
351.527	18.49
351.743	-0.11
351.96	12.29
352.176	26.43
352.392	20.23
352.609	54.72
352.825	-22.39
353.041	-14.64
353.257	1.82
353.474	14.03
353.69	10.16
353.906	-0.5
354.122	-0.11
354.339	48.71
354.555	12.67
354.771	-15.03
354.987	45.22
355.203	58.59
355.42	-17.94
355.636	-9.41
355.852	-14.06
356.068	-3.21
356.284	-43.9
356.5	59.95
356.716	15.77
356.932	-3.99
357.148	27.79
357.364	7.25
357.58	45.81
357.796	64.79
358.012	34.37
358.228	-7.28
358.444	-35.57
358.66	64.79
358.876	52.59
359.092	-24.53
359.308	13.64
359.524	17.71
359.74	-2.63
359.956	-29.95
360.172	20.81
360.388	37.67
360.604	-7.09
360.819	89.98
361.035	4.73
361.251	36.12
361.467	-9.61
361.683	35.73
361.898	30.69
362.114	52
362.33	24.69
362.546	35.92
362.762	14.81
362.977	30.31
363.193	4.34
363.409	13.06
363.624	-34.99
363.84	-12.9
364.056	-6.89
364.271	29.14
364.487	33.21
364.703	-16.39
364.918	-37.89
365.134	-2.63
365.35	-0.69
365.565	114.2
365.781	8.22
365.996	15.77
366.212	55.88
366.427	22.17
366.643	-15.42
366.858	-1.86
367.074	-33.05
367.289	85.52
367.505	115.55
367.72	-48.55
367.936	-38.47
368.151	27.01
368.367	8.8
368.582	21.59
368.798	-1.66
369.013	59.17
369.228	-4.18
369.444	37.09
369.659	49.68
369.874	33.6
370.09	54.91
370.305	-52.42
370.52	-20.46
370.736	46
370.951	-0.11
371.166	64.79
371.381	88.24
371.597	44.26
371.812	-6.7
372.027	-7.86
372.242	8.22
372.458	66.34
372.673	2.02
372.888	16.55
373.103	39.61
373.318	79.9
373.533	41.16
373.749	34.96
373.964	-26.08
374.179	54.72
374.394	-21.43
374.609	68.47
374.824	10.54
375.039	42.9
375.254	5.31
375.469	45.81
375.684	26.82
375.899	45.81
376.114	-18.13
376.329	11.9
376.544	52.97
376.759	22.94
376.974	0.47
377.189	-6.31
377.404	14.22
377.619	45.22
377.834	-23.17
378.049	-18.52
378.264	-12.51
378.478	0.47
378.693	-5.93
378.908	15.97
379.123	7.25
379.338	66.34
379.553	20.62
379.767	31.86
379.982	48.13
380.197	24.49
380.412	21.97
380.626	42.9
380.841	88.04
381.056	37.09
381.271	103.35
381.485	-20.46
381.7	-29.18
381.915	38.44
382.129	12.29
382.344	26.24
382.559	2.6
382.773	43.67
382.988	-11.93
383.202	13.64
383.417	-9.8
383.632	97.92
383.846	8.41
384.061	29.72
384.275	-20.84
384.49	44.06
384.704	35.34
384.919	24.88
385.133	23.52
385.348	36.31
385.562	-8.44
385.777	51.23
385.991	2.79
386.206	5.12
386.42	-25.49
386.634	37.86
386.849	28.56
387.063	9.77
387.277	-30.34
387.492	-12.71
387.706	-11.35
387.92	-23.36
388.135	17.52
388.349	42.9
388.563	19.26
388.778	25.27
388.992	35.92
389.206	4.73
389.42	52.59
389.635	-6.12
389.849	44.64
390.063	27.79
390.277	36.89
390.491	90.56
390.706	15.39
390.92	42.32
391.134	22.56
391.348	30.89
391.562	-31.11
391.776	21.78
391.99	-39.83
392.205	33.21
392.419	-3.6
392.633	4.34
392.847	65.95
393.061	-16.58
393.275	102.38
393.489	31.86
393.703	56.65
393.917	64.99
394.131	1.44
394.345	33.99
394.559	39.99
394.773	9.38
394.986	48.52
395.2	33.21
395.414	48.13
395.628	-14.26
395.842	14.61
396.056	-13.87
396.27	-19.1
396.484	50.07
396.697	4.92
396.911	72.93
397.125	32.82
397.339	42.71
397.553	37.09
397.766	59.56
397.98	62.08
398.194	41.54
398.408	4.73
398.621	31.66
398.835	33.99
399.049	23.91
399.262	63.05
399.476	51.81
399.69	35.15
399.903	108.77
400.117	13.26
400.331	52.78
400.544	15.97
400.758	128.34
400.971	42.9
401.185	70.41
401.398	-18.33
401.612	69.25
401.826	50.65
402.039	44.84
402.253	-3.99
402.466	29.14
402.68	27.98
402.893	32.82
403.106	33.21
403.32	-7.86
403.533	52.59
403.747	60.72
403.96	48.13
404.174	34.57
404.387	-39.44
404.6	40.38
404.814	44.45
405.027	20.04
405.24	30.5
405.454	10.93
405.667	61.5
405.88	-20.65
406.094	30.89
406.307	74.09
406.52	49.29
406.733	15.97
406.947	-16.58
407.16	110.32
407.373	58.79
407.586	-3.41
407.799	5.31
408.012	77.77
408.226	42.71
408.439	89.59
408.652	-15.23
408.865	25.46
409.078	70.8
409.291	31.86
409.504	-3.6
409.717	49.87
409.93	66.92
410.143	39.41
410.357	-28.98
410.57	3.18
410.783	20.04
410.996	51.42
411.209	27.79
411.421	64.99
411.634	42.71
411.847	-16.39
412.06	38.25
412.273	34.18
412.486	1.63
412.699	117.88
412.912	32.63
413.125	60.72
413.338	38.06
413.55	77.39
413.763	23.52
413.976	29.34
414.189	15.19
414.402	25.66
414.615	67.7
414.827	2.41
415.04	45.22
415.253	61.11
415.466	77.19
415.678	85.91
415.891	15.39
416.104	39.22
416.316	-14.84
416.529	10.93
416.742	57.04
416.954	60.92
417.167	41.74
417.38	24.3
417.592	52.39
417.805	9.96
418.017	-47.58
418.23	63.44
418.442	10.16
418.655	30.89
418.868	25.85
419.08	85.91
419.293	78.74
419.505	39.61
419.718	70.41
419.93	82.62
420.142	27.21
420.355	79.9
420.567	83
420.78	39.99
420.992	43.09
421.205	115.36
421.417	13.26
421.629	15.39
421.842	2.99
422.054	-4.38
422.266	49.29
422.479	66.73
422.691	2.6
422.903	68.86
423.115	9.96
423.328	31.66
423.54	37.28
423.752	39.02
423.964	13.84
424.177	37.86
424.389	29.14
424.601	141.13
424.813	29.53
425.025	89.4
425.238	71.77
425.45	29.14
425.662	47.74
425.874	354.83
426.086	38.44
426.298	53.36
426.51	60.14
426.722	44.06
426.934	28.95
427.146	71.96
427.358	38.44
427.57	77
427.782	30.89
427.994	49.29
428.206	1.44
428.418	-11.16
428.63	73.32
428.842	74.29
429.054	48.32
429.266	90.56
429.478	11.9
429.69	52.59
429.902	6.67
430.114	95.79
430.325	65.37
430.537	44.84
430.749	25.66
430.961	-12.13
431.173	58.01
431.384	56.46
431.596	-10.77
431.808	49.87
432.02	42.9
432.231	48.91
432.443	76.03
432.655	45.03
432.867	29.53
433.078	67.31
433.29	125.24
433.502	59.37
433.713	77
433.925	59.17
434.136	95.02
434.348	18.68
434.56	15.39
434.771	147.52
434.983	7.44
435.194	37.09
435.406	48.91
435.617	106.25
435.829	102.77
436.04	61.89
436.252	90.95
436.463	103.15
436.675	102.38
436.886	50.84
437.098	84.36
437.309	107.22
437.521	38.06
437.732	80.49
437.943	101.99
438.155	64.79
438.366	5.51
438.578	130.86
438.789	100.05
439	106.84
439.211	62.08
439.423	103.74
439.634	108.19
439.845	113.62
440.057	87.85
440.268	129.12
440.479	42.12
440.69	92.5
440.902	85.52
441.113	58.98
441.324	78.55
441.535	120.4
441.746	148.68
441.957	43.67
442.168	48.52
442.38	98.89
442.591	112.65
442.802	76.42
443.013	49.1
443.224	103.74
443.435	50.46
443.646	94.05
443.857	77.39
444.068	77
444.279	78.94
444.49	157.79
444.701	76.8
444.912	188.79
445.123	124.27
445.334	118.27
445.545	109.55
445.756	88.62
445.967	70.6
446.178	113.23
446.388	119.24
446.599	136.48
446.81	128.54
447.021	99.47
447.232	158.18
447.443	185.69
447.653	86.69
447.864	131.44
448.075	93.85
448.286	130.67
448.496	141.52
448.707	158.37
448.918	120.59
449.129	226.18
449.339	120.79
449.55	146.36
449.761	123.5
449.971	177.55
450.182	90.95
450.393	157.02
450.603	83.78
450.814	160.7
451.024	115.94
451.235	153.92
451.446	184.72
451.656	201.97
451.867	96.95
452.077	164.18
452.288	197.32
452.498	181.82
452.709	89.2
452.919	163.41
453.13	109.35
453.34	193.63
453.55	103.54
453.761	172.71
453.971	146.55
454.182	186.27
454.392	174.07
454.602	203.71
454.813	166.7
455.023	192.08
455.233	128.34
455.444	162.05
455.654	83.39
455.864	155.47
456.075	118.65
456.285	153.14
456.495	144.62
456.705	176.78
456.916	233.74
457.126	210.49
457.336	156.82
457.546	104.9
457.756	149.27
457.967	171.93
458.177	160.31
458.387	171.93
458.597	156.43
458.807	175.42
459.017	163.41
459.227	142.87
459.437	152.95
459.647	173.87
459.857	194.41
460.068	171.35
460.278	201.77
460.488	186.08
460.698	234.9
460.908	179.1
461.117	118.27
461.327	139.58
461.537	165.93
461.747	154.3
461.957	154.11
462.167	269.97
462.377	214.37
462.587	170.97
462.797	225.99
463.007	210.3
463.216	196.15
463.426	249.63
463.636	215.92
463.846	131.44
464.056	173.29
464.265	223.28
464.475	144.62
464.685	180.85
464.895	215.14
465.104	192.08
465.314	221.73
465.524	200.61
465.733	153.53
465.943	272.49
466.153	255.05
466.362	233.74
466.572	208.75
466.782	198.67
466.991	209.72
467.201	265.71
467.41	147.52
467.62	207.58
467.829	215.14
468.039	212.04
468.249	206.81
468.458	183.37
468.668	230.25
468.877	212.04
469.086	269
469.296	272.68
469.505	171.74
469.715	302.13
469.924	249.82
470.134	309.5
470.343	281.6
470.552	229.48
470.762	207.97
470.971	215.92
471.18	228.12
471.39	230.06
471.599	203.9
471.808	279.46
472.018	215.14
472.227	272.68
472.436	256.02
472.645	230.06
472.855	182.2
473.064	322.48
473.273	237.23
473.482	291.28
473.691	307.75
473.901	285.47
474.11	251.18
474.319	349.79
474.528	251.18
474.737	291.28
474.946	292.25
475.155	254.47
475.364	334.49
475.573	291.28
475.783	282.76
475.992	290.31
476.201	329.84
476.41	293.22
476.619	255.25
476.828	289.73
477.037	263
477.245	290.51
477.454	336.23
477.663	259.9
477.872	311.82
478.081	346.31
478.29	264.74
478.499	368.01
478.708	315.69
478.917	377.69
479.125	289.35
479.334	331.58
479.543	289.35
479.752	330.81
479.961	331.19
480.169	387.38
480.378	290.31
480.587	434.07
480.796	341.66
481.004	354.25
481.213	380.41
481.422	357.54
481.63	343.01
481.839	363.94
482.048	407.72
482.256	372.85
482.465	365.49
482.674	380.21
482.882	375.76
483.091	447.25
483.299	398.81
483.508	407.53
483.716	382.93
483.925	392.61
484.134	357.35
484.342	380.99
484.551	413.54
484.759	382.93
484.967	391.64
485.176	426.52
485.384	430.59
485.593	452.67
485.801	407.53
486.01	405.01
486.218	365.1
486.426	328.87
486.635	359.48
486.843	382.15
487.051	393
487.26	367.43
487.468	403.66
487.676	422.84
487.885	384.48
488.093	377.11
488.301	421.67
488.509	450.35
488.717	460.62
488.926	401.14
489.134	419.35
489.342	450.35
489.55	391.64
489.758	445.51
489.967	430.59
490.175	519.9
490.383	437.56
490.591	508.47
490.799	402.3
491.007	486
491.215	425.74
491.423	463.91
491.631	451.32
491.839	456.74
492.047	488.9
492.255	420.9
492.463	412.76
492.671	450.93
492.879	489.49
493.087	438.72
493.295	462.94
493.503	490.26
493.711	472.44
493.919	511.77
494.127	495.1
494.334	529.59
494.542	473.21
494.75	494.14
494.958	485.81
495.166	525.14
495.374	512.15
495.581	518.94
495.789	482.32
495.997	580.93
496.205	518.74
496.412	522.42
496.62	494.33
496.828	541.22
497.035	474.96
497.243	562.34
497.451	484.45
497.658	533.66
497.866	521.65
498.074	567.37
498.281	503.82
498.489	625.11
498.696	540.05
498.904	505.57
499.112	521.07
499.319	618.72
499.527	524.75
499.734	566.21
499.942	532.69
500.149	524.94
500.357	555.94
500.564	508.28
500.771	524.94
500.979	513.7
501.186	507.12
501.394	546.45
501.601	514.48
501.808	594.69
502.016	534.63
502.223	500.53
502.43	539.86
502.638	521.26
502.845	496.46
503.052	600.7
503.26	538.12
503.467	637.32
503.674	551.29
503.881	592.56
504.089	636.93
504.296	592.37
504.503	514.29
504.71	555.55
504.917	523
505.125	591.01
505.332	553.81
505.539	581.32
505.746	634.41
505.953	630.34
506.16	584.81
506.367	650.68
506.574	623.37
506.781	633.63
506.988	568.73
507.195	623.37
507.402	627.24
507.609	638.28
507.816	592.37
508.023	581.9
508.23	606.32
508.437	547.42
508.644	643.32
508.851	667.35
509.058	666.57
509.265	633.25
509.472	654.95
509.679	716.56
509.885	610.97
510.092	643.13
510.299	631.31
510.506	645.84
510.713	642.55
510.92	626.66
511.126	661.15
511.333	686.72
511.54	652.43
511.746	708.03
511.953	695.83
512.16	700.09
512.367	632.86
512.573	647.97
512.78	689.63
512.987	643.71
513.193	620.65
513.4	612.52
513.606	622.59
513.813	661.15
514.02	671.22
514.226	742.91
514.433	734.19
514.639	640.42
514.846	673.93
515.052	615.03
515.259	667.93
515.465	671.22
515.672	706.29
515.878	728.96
516.085	660.57
516.291	729.35
516.497	668.7
516.704	671.22
516.91	657.66
517.117	594.69
517.323	580.16
517.529	618.91
517.736	617.94
517.942	634.41
518.148	604.77
518.354	643.13
518.561	652.43
518.767	649.33
518.973	710.55
519.179	708.61
519.386	684.4
519.592	658.63
519.798	646.81
520.004	753.76
520.21	693.11
520.417	750.46
520.623	740
520.829	779.53
521.035	738.45
521.241	740.39
521.447	793.67
521.653	869.62
521.859	759.96
522.065	799.87
522.271	858.38
522.477	790.18
522.683	829.9
522.889	783.21
523.095	786.5
523.301	801.03
523.507	744.46
523.713	799.48
523.919	761.31
524.125	848.69
524.331	777.2
524.537	892.87
524.742	844.43
524.948	854.31
525.154	847.34
525.36	947.5
525.566	869.23
525.772	890.93
525.977	792.31
526.183	884.54
526.389	907.79
526.595	833.97
526.8	804.13
527.006	803.36
527.212	755.89
527.417	756.47
527.623	756.66
527.829	797.35
528.034	819.63
528.24	838.42
528.446	808.59
528.651	861.09
528.857	857.41
529.062	937.62
529.268	871.56
529.473	913.41
529.679	866.71
529.884	912.24
530.09	922.12
530.295	939.95
530.501	924.84
530.706	913.6
530.912	870.2
531.117	887.25
531.323	900.42
531.528	917.09
531.733	917.09
531.939	871.94
532.144	953.9
532.35	918.83
532.555	951.77
532.76	959.52
532.966	964.17
533.171	916.51
533.376	885.51
533.581	910.31
533.787	922.71
533.992	917.47
534.197	967.27
534.402	916.89
534.607	943.05
534.813	1010.28
535.018	938.01
535.223	925.03
535.428	957.97
535.633	995.55
535.838	966.49
536.043	991.29
536.249	1012.6
536.454	915.54
536.659	985.87
536.864	940.34
537.069	943.63
537.274	978.7
537.479	985.48
537.684	994.78
537.889	933.55
538.094	1037.02
538.299	961.07
538.504	1002.72
538.708	990.13
538.913	1031.59
539.118	968.82
539.323	1007.57
539.528	967.07
539.733	988
539.938	995.55
540.142	1013.96
540.347	973.47
540.552	930.07
540.757	947.89
540.962	948.86
541.166	909.92
541.371	943.44
541.576	948.86
541.781	902.75
541.985	958.94
542.19	949.83
542.395	1013.96
542.599	1039.34
542.804	1019.97
543.008	1046.9
543.213	973.08
543.418	960.29
543.622	997.3
543.827	950.22
544.031	1057.75
544.236	1027.91
544.44	990.9
544.645	1119.94
544.849	988.77
545.054	1047.87
545.258	1117.03
545.463	1081
545.667	969.59
545.872	1006.6
546.076	1044.77
546.281	1041.47
546.485	1009.89
546.689	1027.52
546.894	1067.63
547.098	1030.62
547.302	1011.83
547.507	1020.35
547.711	1067.24
547.915	1106.76
548.119	987.42
548.324	1011.44
548.528	1060.85
548.732	1055.62
548.936	1054.45
549.141	1076.35
549.345	1031.98
549.549	1005.63
549.753	1031.78
549.957	1134.66
550.161	1104.44
550.366	1058.33
550.57	1001.56
550.774	1033.33
550.978	1033.72
551.182	1101.92
551.386	1017.83
551.59	1014.35
551.794	1022.1
551.998	1057.55
552.202	1036.82
552.406	985.48
552.61	1048.25
552.814	1060.27
553.018	1070.53
553.222	1051.35
553.426	1069.18
553.63	1129.24
553.833	1028.1
554.037	1004.85
554.241	1066.85
554.445	1080.03
554.649	1046.7
554.853	1028.3
555.056	1076.35
555.26	1072.47
555.464	1066.66
555.668	1094.37
555.871	1110.64
556.075	1095.14
556.279	1031.59
556.483	998.85
556.686	1045.15
556.89	1069.76
557.094	1056.39
557.297	954.29
557.501	1058.13
557.704	976.95
557.908	1047.09
558.112	978.7
558.315	1102.11
558.519	1049.42
558.722	1050.97
558.926	1021.9
559.129	940.92
559.333	945.76
559.536	985.29
559.74	959.32
559.943	948.28
560.147	973.27
560.35	993.81
560.553	995.36
560.757	936.27
560.96	1059.68
561.164	968.82
561.367	1065.5
561.57	1010.47
561.774	1038.76
561.977	981.99
562.18	983.15
562.384	1072.08
562.587	995.55
562.79	978.12
562.993	979.28
563.197	1018.61
563.4	1057.17
563.603	1040.5
563.806	1092.23
564.009	998.46
564.212	1031.01
564.416	948.47
564.619	1010.28
564.822	928.13
565.025	1016.67
565.228	969.01
565.431	960.68
565.634	918.25
565.837	970.56
566.04	928.52
566.243	926
566.446	858.57
566.649	962.81
566.852	936.65
567.055	932
567.258	959.9
567.461	1000.79
567.664	979.09
567.867	902.94
568.07	954.09
568.273	968.04
568.475	970.95
568.678	924.45
568.881	938.98
569.084	957.39
569.287	853.92
569.489	864.58
569.692	924.45
569.895	916.51
570.098	896.74
570.3	878.14
570.503	814.98
570.706	850.24
570.909	868.07
571.111	831.84
571.314	811.69
571.516	851.99
571.719	872.14
571.922	836.49
572.124	872.14
572.327	858.38
572.529	822.15
572.732	862.45
572.935	862.84
573.137	913.21
573.34	892.87
573.542	929.68
573.745	876.21
573.947	889.77
574.15	892.48
574.352	846.95
574.554	916.12
574.757	827.19
574.959	838.23
575.162	854.89
575.364	820.02
575.566	943.82
575.769	816.73
575.971	862.45
576.173	740.58
576.376	845.98
576.578	871.17
576.78	884.92
576.982	734.77
577.185	807.23
577.387	785.73
577.589	778.17
577.791	835.33
577.993	855.09
578.196	827.19
578.398	840.56
578.6	860.71
578.802	803.94
579.004	790.57
579.206	781.46
579.408	821.76
579.61	774.68
579.812	851.21
580.014	789.99
580.216	777.98
580.418	800.84
580.62	741.16
580.822	740.78
581.024	796.19
581.226	848.11
581.428	760.34
581.63	893.26
581.832	789.02
582.034	867.29
582.236	819.05
582.438	849.47
582.64	887.25
582.841	871.75
583.043	899.65
583.245	828.93
583.447	849.86
583.649	834.55
583.85	841.33
584.052	869.62
584.254	789.41
584.456	869.23
584.657	798.13
584.859	844.43
585.061	828.16
585.262	798.71
585.464	769.26
585.666	851.79
585.867	786.5
586.069	876.4
586.27	805.1
586.472	799.48
586.674	788.05
586.875	778.56
587.077	756.66
587.278	797.16
587.48	766.74
587.681	907.4
587.883	832.61
588.084	767.71
588.285	768.09
588.487	780.11
588.688	789.21
588.89	736.71
589.091	721.01
589.292	743.68
589.494	723.15
589.695	691.95
589.896	641.77
590.098	640.22
590.299	684.98
590.5	663.28
590.702	690.79
590.903	726.83
591.104	754.14
591.305	729.15
591.507	786.89
591.708	774.1
591.909	741.94
592.11	796.38
592.311	778.75
592.512	737.29
592.714	685.75
592.915	707.45
593.116	706.68
593.317	751.82
593.518	714.81
593.719	762.86
593.92	758.79
594.121	771.19
594.322	747.95
594.523	749.11
594.724	697.57
594.925	741.55
595.126	758.6
595.327	763.44
595.528	743.49
595.729	741.75
595.929	723.92
596.13	721.01
596.331	730.51
596.532	740.78
596.733	802.97
596.934	778.94
597.135	748.53
597.335	750.27
597.536	716.56
597.737	737.68
597.938	712.3
598.138	788.24
598.339	759.96
598.54	749.69
598.74	740.78
598.941	791.73
599.142	796.38
599.342	764.8
599.543	724.89
599.744	699.12
599.944	739.81
600.145	770.61
600.345	722.76
600.546	833.58
600.746	792.89
600.947	807.43
601.147	773.33
601.348	795.22
601.548	727.02
601.749	781.66
601.949	730.51
602.15	716.95
602.35	749.11
602.551	782.43
602.751	713.65
602.951	764.41
603.152	638.48
603.352	760.34
603.552	761.7
603.753	786.69
603.953	761.31
604.153	755.31
604.354	721.79
604.554	740.58
604.754	742.91
604.954	689.82
605.155	747.36
605.355	746.2
605.555	764.03
605.755	771.97
605.955	730.31
606.155	770.61
606.356	735.93
606.556	746.4
606.756	727.41
606.956	687.88
607.156	765.96
607.356	708.23
607.556	731.86
607.756	727.21
607.956	777.78
608.156	757.05
608.356	743.88
608.556	784.95
608.756	737.68
608.956	683.81
609.156	745.23
609.356	688.08
609.556	687.3
609.755	740.39
609.955	719.08
610.155	710.16
610.355	709.97
610.555	698.35
610.755	752.59
610.954	653.98
611.154	722.95
611.354	769.26
611.554	664.05
611.753	704.74
611.953	671.41
612.153	731.28
612.352	718.3
612.552	703.38
612.752	637.12
612.951	681.88
613.151	692.53
613.351	656.11
613.55	721.79
613.75	685.17
613.949	654.56
614.149	716.36
614.348	689.43
614.548	676.65
614.747	653.98
614.947	640.8
615.146	623.37
615.346	705.51
615.545	679.55
615.745	689.05
615.944	725.86
616.144	668.12
616.343	725.66
616.542	650.88
616.742	678.58
616.941	691.56
617.14	632.86
617.34	669.28
617.539	661.15
617.738	667.73
617.938	692.92
618.137	656.5
618.336	643.32
618.535	691.76
618.734	639.83
618.934	687.5
619.133	678.97
619.332	705.13
619.531	632.67
619.73	673.55
619.929	698.73
620.128	674.9
620.328	709.39
620.527	623.37
620.726	643.52
620.925	693.89
621.124	645.26
621.323	685.56
621.522	611.35
621.721	613.87
621.92	611.35
622.119	658.05
622.318	634.02
622.517	621.23
622.715	639.06
622.914	579.38
623.113	626.27
623.312	562.34
623.511	651.46
623.71	653.59
623.909	604.38
624.107	688.66
624.306	550.52
624.505	598.37
624.704	596.24
624.902	626.08
625.101	666.96
625.3	628.6
625.499	603.99
625.697	617.94
625.896	571.64
626.095	623.17
626.293	593.92
626.492	576.48
626.69	639.45
626.889	600.12
627.088	632.08
627.286	556.52
627.485	527.85
627.683	587.91
627.882	632.47
628.08	523
628.279	566.79
628.477	644.48
628.676	557.69
628.874	597.02
629.073	564.47
629.271	527.46
629.469	563.89
629.668	576.09
629.866	572.02
630.065	567.18
630.263	625.11
630.461	570.28
630.66	553.04
630.858	605.15
631.056	643.71
631.254	618.52
631.453	529.59
631.651	614.65
631.849	610.58
632.047	610
632.245	584.81
632.444	600.89
632.642	590.43
632.84	610.38
633.038	581.13
633.236	544.51
633.434	537.73
633.632	558.85
633.83	571.05
634.028	609.22
634.227	577.45
634.425	637.7
634.623	566.02
634.821	601.28
635.019	577.64
635.216	592.75
635.414	576.48
635.612	615.03
635.81	580.16
636.008	612.32
636.206	550.9
636.404	620.65
636.602	552.26
636.8	570.09
636.997	593.92
637.195	617.75
637.393	588.3
637.591	643.52
637.789	586.17
637.986	571.44
638.184	596.63
638.382	664.05
638.58	601.08
638.777	651.07
638.975	603.99
639.173	588.88
639.37	560.79
639.568	607.67
639.765	600.31
639.963	581.9
640.161	621.43
640.358	640.8
640.556	555.17
640.753	543.15
640.951	564.66
641.148	618.33
641.346	563.89
641.543	572.8
641.741	589.07
641.938	557.3
642.136	557.88
642.333	527.27
642.531	620.46
642.728	625.5
642.925	564.08
643.123	568.34
643.32	566.6
643.517	558.27
643.715	575.9
643.912	574.54
644.109	587.33
644.306	559.43
644.504	520.68
644.701	566.79
644.898	567.37
645.095	553.81
645.293	540.44
645.49	606.9
645.687	579.58
645.884	585.2
646.081	500.14
646.278	549.16
646.475	541.6
646.672	532.3
646.87	561.95
647.067	559.04
647.264	559.24
647.461	518.35
647.658	485.22
647.855	568.54
648.052	516.42
648.249	446.67
648.446	502.27
648.642	496.65
648.839	491.81
649.036	493.36
649.233	474.96
649.43	467.59
649.627	459.26
649.824	499.56
650.021	460.62
650.217	494.33
650.414	489.68
650.611	517.97
650.808	516.03
651.004	509.64
651.201	530.17
651.398	553.42
651.595	498.2
651.791	454.03
651.988	526.1
652.185	455
652.381	539.47
652.578	504.02
652.775	499.17
652.971	487.94
653.168	504.79
653.364	515.06
653.561	436.79
653.757	481.93
653.954	519.32
654.15	492.39
654.347	539.09
654.543	502.08
654.74	479.22
654.936	426.32
655.133	506.92
655.329	500.92
655.525	497.82
655.722	496.65
655.918	457.91
656.115	512.93
656.311	426.13
656.507	423.81
656.704	346.69
656.9	396.49
657.096	426.32
657.292	380.21
657.489	467.79
657.685	467.4
657.881	439.89
658.077	453.45
658.273	441.05
658.47	525.33
658.666	444.73
658.862	491.62
659.058	451.51
659.254	509.25
659.45	415.28
659.646	484.06
659.842	447.83
660.038	543.15
660.234	430.2
660.43	472.44
660.626	518.94
660.822	513.9
661.018	520.87
661.214	498.98
661.41	435.04
661.606	483.87
661.802	485.61
661.998	486
662.194	468.56
662.39	467.01
662.586	511.57
662.781	495.1
662.977	502.47
663.173	498.98
663.369	471.86
663.564	483.48
663.76	505.37
663.956	470.89
664.152	511.38
664.347	422.45
664.543	473.99
664.739	478.83
664.934	398.23
665.13	410.44
665.326	470.5
665.521	455.97
665.717	405.59
665.912	428.84
666.108	372.27
666.304	437.37
666.499	434.66
666.695	386.03
666.89	434.46
667.086	484.64
667.281	447.83
667.477	522.62
667.672	456.16
667.867	474.76
668.063	450.16
668.258	416.83
668.454	433.69
668.649	489.49
668.844	446.47
669.04	463.91
669.235	438.14
669.43	432.14
669.626	398.23
669.821	397.26
670.016	409.86
670.211	453.64
670.407	395.71
670.602	413.54
670.797	439.89
670.992	458.29
671.187	401.72
671.382	467.79
671.578	425.36
671.773	458.29
671.968	397.07
672.163	447.06
672.358	441.05
672.553	397.46
672.748	410.44
672.943	479.61
673.138	430.78
673.333	441.05
673.528	376.92
673.723	444.54
673.918	394.74
674.113	370.33
674.308	471.86
674.503	440.27
674.698	434.85
674.892	453.26
675.087	454.42
675.282	435.04
675.477	400.56
675.672	465.46
675.867	422.84
676.061	375.95
676.256	393.19
676.451	386.03
676.646	434.27
676.84	380.6
677.035	373.04
677.23	403.66
677.424	417.41
677.619	448.02
677.814	456.94
678.008	466.04
678.203	343.98
678.397	382.54
678.592	413.73
678.787	467.59
678.981	384.67
679.176	407.72
679.37	421.48
679.565	383.89
679.759	385.64
679.954	416.83
680.148	442.41
680.342	476.89
680.537	438.14
680.731	389.13
680.926	430.39
681.12	443.57
681.314	354.44
681.509	381.76
681.703	399.2
681.897	418.38
682.092	411.79
682.286	379.24
682.48	460.62
682.674	436.01
682.869	398.81
683.063	399.98
683.257	450.54
683.451	397.84
683.645	431.36
683.839	427.49
684.034	374.01
684.228	471.66
684.422	358.13
684.616	371.11
684.81	403.85
685.004	397.84
685.198	420.12
685.392	430.59
685.586	383.89
685.78	428.46
685.974	426.13
686.168	434.07
686.362	457.91
686.556	349.02
686.75	346.5
686.944	337.78
687.138	383.89
687.331	308.72
687.525	286.63
687.719	253.31
687.913	311.24
688.107	328.87
688.301	283.53
688.494	349.99
688.688	275.98
688.882	274.62
689.076	283.73
689.269	309.5
689.463	354.44
689.657	303.1
689.85	325.96
690.044	302.13
690.238	316.86
690.431	317.63
690.625	297.68
690.818	360.45
691.012	341.85
691.205	388.74
691.399	310.85
691.593	376.14
691.786	412.37
691.98	408.5
692.173	429.23
692.366	417.41
692.56	414.31
692.753	451.9
692.947	353.67
693.14	446.09
693.333	430.97
693.527	373.04
693.72	424
693.914	396.49
694.107	401.33
694.3	421.67
694.493	407.14
694.687	444.73
694.88	402.49
695.073	469.53
695.266	435.04
695.46	434.46
695.653	480.19
695.846	459.84
696.039	366.65
696.232	401.52
696.425	472.82
696.618	456.94
696.812	448.8
697.005	520.29
697.198	576.48
697.391	527.07
697.584	523.2
697.777	546.06
697.97	532.11
698.163	584.42
698.356	517.77
698.549	623.95
698.742	563.69
698.935	553.42
699.127	569.89
699.32	515.06
699.513	534.82
699.706	566.02
699.899	581.52
700.092	533.66
700.285	585.58
700.477	540.64
700.67	577.64
700.863	592.17
701.056	648.36
701.248	649.33
701.441	636.93
701.634	590.23
701.826	685.36
702.019	578.42
702.212	649.52
702.404	599.53
702.597	571.64
702.79	623.17
702.982	644.29
703.175	666.18
703.367	682.65
703.56	692.73
703.752	746.4
703.945	688.66
704.137	680.33
704.33	734.38
704.522	731.86
704.715	757.83
704.907	754.34
705.1	779.72
705.292	737.1
705.484	739.03
705.677	765.58
705.869	807.23
706.061	793.28
706.254	836.29
706.446	756.86
706.638	771.39
706.831	859.74
707.023	786.69
707.215	859.35
707.407	851.79
707.599	853.15
707.792	878.53
707.984	863.03
708.176	895.39
708.368	854.12
708.56	889.38
708.752	872.14
708.944	852.57
709.136	867.49
709.329	872.52
709.521	1013.18
709.713	964.36
709.905	943.05
710.097	996.33
710.289	887.44
710.481	931.81
710.672	975.02
710.864	962.04
711.056	1004.66
711.248	998.65
711.44	1017.64
711.632	994.59
711.824	1029.07
712.016	1071.7
712.207	1056.78
712.399	1050.58
712.591	1108.31
712.783	1082.74
712.975	1073.44
713.166	1035.08
713.358	1055.81
713.55	1099.79
713.741	1162.76
713.933	1091.27
714.125	1083.13
714.316	1073.25
714.508	1150.75
714.7	1155.98
714.891	1136.6
715.083	1217.01
715.274	1128.46
715.466	1102.11
715.657	1185.23
715.849	1061.04
716.04	1136.02
716.232	1056.58
716.423	1161.6
716.615	1100.37
716.806	1091.46
716.998	1065.3
717.189	1011.44
717.381	958.35
717.572	940.72
717.763	973.85
717.955	962.04
718.146	943.05
718.337	913.02
718.528	911.86
718.72	869.04
718.911	898.68
719.102	896.16
719.293	933.17
719.485	933.55
719.676	876.98
719.867	863.03
720.058	851.02
720.249	860.9
720.44	886.28
720.632	881.44
720.823	952.93
721.014	1017.64
721.205	1009.7
721.396	1056.2
721.587	1113.55
721.778	1101.92
721.969	1124.59
722.16	1182.13
722.351	1149
722.542	1234.64
722.733	1309.62
722.924	1180.39
723.115	1237.35
723.305	1242.97
723.496	1247.23
723.687	1130.01
723.878	1179.03
724.069	1129.24
724.26	1147.84
724.45	1134.86
724.641	1107.93
724.832	1171.28
725.023	1121.68
725.213	1121.88
725.404	1140.09
725.595	1124.01
725.785	1114.71
725.976	1190.46
726.167	1133.7
726.357	1148.61
726.548	1225.92
726.739	1146.68
726.929	1231.54
727.12	1228.44
727.31	1226.5
727.501	1226.11
727.691	1235.61
727.882	1235.8
728.072	1257.11
728.263	1218.17
728.453	1303.22
728.644	1291.6
728.834	1264.48
729.024	1247.23
729.215	1242
729.405	1260.6
729.596	1337.91
729.786	1312.14
729.976	1317.76
730.167	1328.41
730.357	1264.48
730.547	1344.11
730.737	1321.63
730.928	1344.49
731.118	1424.9
731.308	1341.39
731.498	1354.76
731.688	1398.16
731.879	1414.63
732.069	1482.25
732.259	1474.5
732.449	1447.76
732.639	1529.13
732.829	1505.5
733.019	1537.08
733.209	1599.08
733.399	1570.98
733.589	1589.58
733.779	1607.41
733.969	1593.46
734.159	1659.53
734.349	1692.08
734.539	1725.98
734.729	1722.11
734.919	1732.76
735.109	1751.36
735.299	1688.98
735.488	1740.71
735.678	1694.79
735.868	1744.19
736.058	1715.52
736.248	1735.28
736.437	1678.32
736.627	1662.24
736.817	1784.49
737.007	1756.59
737.196	1748.26
737.386	1751.36
737.576	1731.79
737.765	1797.86
737.955	1782.75
738.144	1854.24
738.334	1836.22
738.524	1810.65
738.713	1798.44
738.903	1822.27
739.092	1823.63
739.282	1844.75
739.471	1852.5
739.661	1799.8
739.85	1860.44
740.04	1861.02
740.229	1898.8
740.419	1910.23
740.608	1930.97
740.797	1874.2
740.987	1967
741.176	1946.08
741.365	1855.02
741.555	1866.45
741.744	1932.9
741.933	1911.59
742.123	1948.79
742.312	1950.73
742.501	1959.64
742.69	1969.72
742.88	1891.44
743.069	2030.16
743.258	1910.23
743.447	1994.32
743.636	1997.61
743.825	1940.85
744.014	1964.48
744.204	1981.73
744.393	1946.27
744.582	2021.45
744.771	2052.06
744.96	2009.82
745.149	2030.75
745.338	2012.73
745.527	2043.53
745.716	1982.7
745.905	2002.26
746.094	2022.8
746.283	2015.63
746.471	2019.7
746.66	2100.69
746.849	2045.66
747.038	2060.78
747.227	1977.85
747.416	2040.82
747.604	2034.62
747.793	2032.88
747.982	2007.3
748.171	2025.51
748.359	2054.19
748.548	2028.23
748.737	2023.96
748.926	2012.92
749.114	1984.83
749.303	2045.66
749.491	2007.88
749.68	1965.07
749.869	2049.54
750.057	2000.33
750.246	1981.92
750.434	2002.26
750.623	2029.39
750.811	2003.43
751	2066.01
751.188	2002.26
751.377	1989.86
751.565	1988.51
751.754	1952.47
751.942	1944.53
752.131	1992.38
752.319	1933.48
752.507	1969.72
752.696	2035.2
752.884	2014.66
753.072	1986.96
753.261	1987.93
753.449	1982.11
753.637	1985.21
753.825	2036.36
754.014	1979.4
754.202	1976.5
754.39	2039.66
754.578	2008.08
754.766	1968.94
754.955	1937.75
755.143	2022.61
755.331	1955.77
755.519	1953.83
755.707	1962.35
755.895	1907.91
756.083	1975.14
756.271	1933.68
756.459	1956.15
756.647	1948.79
756.835	1933.87
757.023	1900.93
757.211	1964.1
757.399	1919.34
757.587	1925.93
757.775	1920.31
757.963	1897.25
758.151	1913.14
758.339	1904.03
758.526	1886.6
758.714	1927.87
758.902	1862.57
759.09	1805.8
759.278	1680.45
759.465	1581.83
759.653	1352.63
759.841	1308.46
760.028	1017.83
760.216	911.47
760.404	916.51
760.591	700.86
760.779	591.4
760.967	538.5
761.154	433.49
761.342	492
761.529	469.53
761.717	492.39
761.905	449.96
762.092	519.71
762.28	455.77
762.467	510.41
762.655	456.74
762.842	467.4
763.029	447.64
763.217	446.28
763.404	479.99
763.592	489.29
763.779	467.59
763.966	511.19
764.154	538.12
764.341	565.24
764.528	532.3
764.716	581.71
764.903	610.77
765.09	649.72
765.277	698.35
765.465	787.66
765.652	812.27
765.839	875.43
766.026	943.44
766.213	967.46
766.4	998.46
766.588	1174.96
766.775	1109.67
766.962	1204.8
767.149	1199.76
767.336	1369.1
767.523	1251.11
767.71	1386.34
767.897	1446.6
768.084	1489.8
768.271	1501.62
768.458	1529.91
768.645	1554.13
768.832	1520.8
769.019	1563.81
769.206	1600.82
769.392	1624.46
769.579	1714.55
769.766	1680.45
769.953	1634.14
770.14	1690.72
770.327	1685.49
770.513	1746.32
770.7	1808.71
770.887	1678.71
771.073	1761.82
771.26	1710.09
771.447	1686.26
771.634	1688.59
771.82	1785.85
772.007	1678.71
772.193	1731.02
772.38	1770.35
772.567	1705.83
772.753	1704.67
772.94	1762.99
773.126	1756.79
773.313	1776.55
773.499	1785.07
773.686	1769.77
773.872	1719.2
774.059	1743.42
774.245	1699.05
774.432	1691.49
774.618	1652.16
774.804	1733.92
774.991	1664.56
775.177	1780.62
775.363	1721.14
775.55	1767.64
775.736	1686.84
775.922	1681.61
776.109	1709.51
776.295	1716.87
776.481	1733.34
776.667	1711.64
776.853	1663.59
777.04	1693.04
777.226	1682
777.412	1779.26
777.598	1665.92
777.784	1706.41
777.97	1688.78
778.156	1670.38
778.342	1691.3
778.528	1717.26
778.715	1620.39
778.901	1658.17
779.087	1682.39
779.272	1633.56
779.458	1618.26
779.644	1665.14
779.83	1609.73
780.016	1696.14
780.202	1670.57
780.388	1632.01
780.574	1582.8
780.76	1606.83
780.946	1642.09
781.131	1658.56
781.317	1602.18
781.503	1595.98
781.689	1612.06
781.874	1679.09
782.06	1617.68
782.246	1582.41
782.432	1599.27
782.617	1669.99
782.803	1672.12
782.989	1546.38
783.174	1596.95
783.36	1531.07
783.545	1572.53
783.731	1589
783.916	1545.6
784.102	1584.16
784.288	1571.76
784.473	1549.86
784.659	1526.62
784.844	1606.05
785.029	1548.51
785.215	1540.56
785.4	1488.45
785.586	1622.52
785.771	1496.97
785.956	1512.67
786.142	1542.31
786.327	1506.85
786.512	1495.42
786.698	1527.97
786.883	1463.84
787.068	1504.14
787.254	1513.44
787.439	1475.27
787.624	1509.18
787.809	1499.49
787.994	1458.8
788.18	1551.61
788.365	1465
788.55	1469.46
788.735	1478.18
788.92	1489.8
789.105	1472.37
789.29	1500.46
789.475	1451.83
789.66	1455.12
789.845	1394.09
790.03	1415.79
790.215	1484.96
790.4	1475.08
790.585	1490.58
790.77	1444.27
790.955	1387.7
791.14	1431.68
791.325	1504.14
791.51	1372.78
791.695	1416.76
791.879	1391.19
792.064	1364.64
792.249	1480.5
792.434	1377.24
792.618	1414.63
792.803	1452.99
792.988	1403.59
793.173	1385.57
793.357	1454.93
793.542	1375.69
793.727	1389.83
793.911	1419.67
794.096	1394.29
794.281	1456.28
794.465	1477.6
794.65	1408.24
794.834	1459.38
795.019	1459.97
795.203	1449.31
795.388	1451.83
795.572	1454.15
795.757	1430.13
795.941	1430.9
796.126	1459.77
796.31	1390.22
796.494	1438.46
796.679	1434.59
796.863	1395.06
797.048	1502.01
797.232	1481.08
797.416	1448.92
797.601	1384.99
797.785	1476.43
797.969	1488.45
798.153	1411.72
798.338	1409.59
798.522	1470.43
798.706	1455.12
798.89	1430.32
799.074	1520.03
799.258	1506.66
799.443	1444.85
799.627	1435.36
799.811	1492.9
799.995	1446.99
800.179	1437.49
800.363	1440.01
800.547	1431.68
800.731	1474.11
800.915	1413.08
801.099	1430.32
801.283	1467.52
801.467	1453.18
801.651	1439.62
801.835	1513.25
802.019	1464.03
802.202	1479.92
802.386	1404.94
802.57	1437.49
802.754	1394.67
802.938	1380.14
803.121	1424.51
803.305	1471.4
803.489	1424.7
803.673	1461.52
803.856	1449.89
804.04	1447.18
804.224	1476.63
804.407	1419.28
804.591	1401.84
804.775	1418.12
804.958	1420.05
805.142	1535.53
805.326	1436.91
805.509	1450.28
805.693	1490.38
805.876	1461.32
806.06	1456.67
806.243	1465.58
806.427	1518.48
806.61	1495.23
806.794	1446.99
806.977	1453.96
807.16	1452.22
807.344	1442.34
807.527	1441.95
807.71	1457.64
807.894	1449.89
808.077	1493.87
808.26	1430.71
808.444	1408.24
808.627	1505.5
808.81	1412.11
808.993	1367.55
809.177	1372.59
809.36	1384.02
809.543	1448.54
809.726	1349.53
809.909	1398.16
810.092	1298.77
810.276	1343.91
810.459	1368.13
810.642	1329.77
810.825	1307.49
811.008	1349.53
811.191	1244.33
811.374	1267.19
811.557	1289.27
811.74	1382.66
811.923	1251.11
812.106	1260.6
812.289	1225.14
812.472	1251.11
812.654	1294.7
812.837	1269.9
813.02	1219.53
813.203	1222.63
813.386	1130.21
813.569	1100.18
813.751	1059.68
813.934	1159.27
814.117	1124.4
814.3	1063.17
814.482	1073.63
814.665	1011.83
814.848	1026.17
815.03	965.72
815.213	982.57
815.396	973.08
815.578	967.85
815.761	937.43
815.943	1000.79
816.126	904.88
816.309	927.55
816.491	871.17
816.674	820.79
816.856	877.17
817.039	876.4
817.221	969.59
817.403	899.26
817.586	871.17
817.768	907.79
817.951	868.07
818.133	840.75
818.315	882.79
818.498	897.52
818.68	956.22
818.862	918.25
819.045	953.12
819.227	939.95
819.409	912.63
819.591	928.71
819.774	936.07
819.956	869.42
820.138	954.29
820.32	944.21
820.502	942.66
820.684	987.8
820.866	970.75
821.048	1041.47
821.231	1055.23
821.413	1043.6
821.595	1007.76
821.777	1035.27
821.959	1009.31
822.141	1098.43
822.323	944.6
822.505	936.27
822.686	935.49
822.868	881.05
823.05	813.63
823.232	841.33
823.414	755.89
823.596	831.26
823.778	823.12
823.96	817.89
824.141	805.68
824.323	781.66
824.505	884.73
824.687	898.1
824.868	917.09
825.05	1001.37
825.232	1007.57
825.413	1062.98
825.595	1007.18
825.777	963.59
825.958	1001.17
826.14	954.87
826.321	1031.2
826.503	991.1
826.685	1010.86
826.866	1021.9
827.048	1010.09
827.229	959.13
827.411	956.8
827.592	941.5
827.773	911.47
827.955	889.38
828.136	923.87
828.318	845.98
828.499	941.5
828.68	841.91
828.862	915.92
829.043	910.69
829.224	913.21
829.406	850.82
829.587	868.07
829.768	869.04
829.949	918.25
830.131	865.36
830.312	943.44
830.493	885.12
830.674	888.02
830.855	894.81
831.036	887.06
831.218	947.7
831.399	947.89
831.58	895.19
831.761	904.49
831.942	904.49
832.123	915.54
832.304	849.47
832.485	876.01
832.666	892.67
832.847	899.26
833.028	899.65
833.209	889.77
833.389	888.61
833.57	845.98
833.751	890.93
833.932	929.68
834.113	907.21
834.294	872.72
834.475	924.84
834.655	939.17
834.836	940.34
835.017	919.61
835.198	861.09
835.378	910.69
835.559	943.24
835.74	897.32
835.92	899.07
836.101	869.81
836.281	913.41
836.462	937.24
836.643	952.15
836.823	952.74
837.004	920.38
837.184	978.7
837.365	968.62
837.545	943.82
837.726	933.17
837.906	946.73
838.087	899.46
838.267	927.35
838.448	882.21
838.628	947.7
838.808	949.64
838.989	984.9
839.169	904.69
839.349	948.86
839.53	951.77
839.71	976.76
839.89	901.78
840.07	1000.79
840.251	893.84
840.431	964.75
840.611	951.57
840.791	895.39
840.971	948.09
841.151	928.32
841.332	903.33
841.512	965.52
841.692	850.05
841.872	907.79
842.052	920.96
842.232	941.69
842.412	872.52
842.592	920.96
842.772	942.27
842.952	942.08
843.132	894.03
843.312	885.51
843.492	873.69
843.672	918.83
843.851	895.77
844.031	932.97
844.211	910.69
844.391	852.37
844.571	904.49
844.751	917.67
844.93	927.35
845.11	888.99
845.29	906.24
845.47	956.42
845.649	906.04
845.829	923.67
846.009	916.51
846.188	922.12
846.368	905.27
846.547	868.07
846.727	925.22
846.907	879.5
847.086	931.42
847.266	944.21
847.445	885.31
847.625	856.06
847.804	871.75
847.984	888.61
848.163	849.47
848.343	885.51
848.522	865.94
848.701	898.29
848.881	841.14
849.06	861.09
849.239	893.45
849.419	897.91
849.598	808.78
849.777	839.39
849.957	839.78
850.136	783.79
850.315	807.43
850.494	782.82
850.674	800.26
850.853	839.59
851.032	834.55
851.211	878.14
851.39	803.36
851.569	792.7
851.748	797.54
851.927	837.65
852.107	830.87
852.286	779.14
852.465	795.03
852.644	858.38
852.823	850.05
853.002	801.23
853.181	841.52
853.359	829.9
853.538	766.93
853.717	867.87
853.896	770.42
854.075	695.05
854.254	717.91
854.433	651.85
854.611	736.51
854.79	672.77
854.969	724.89
855.148	750.27
855.327	679.16
855.505	732.06
855.684	699.9
855.863	767.13
856.041	706.68
856.22	739.23
856.399	694.86
856.577	781.66
856.756	770.42
856.934	894.81
857.113	866.32
857.291	769.26
857.47	753.95
857.648	787.08
857.827	791.54
858.005	778.36
858.184	749.5
858.362	832.42
858.541	772.36
858.719	781.85
858.898	763.25
859.076	746.2
859.254	829.51
859.433	745.81
859.611	756.86
859.789	703.77
859.967	822.54
860.146	797.74
860.324	733.8
860.502	776.81
860.68	720.24
860.859	708.03
861.037	747.36
861.215	768.87
861.393	760.54
861.571	749.3
861.749	702.8
861.927	745.62
862.105	721.6
862.283	722.95
862.461	696.99
862.639	679.94
862.817	733.03
862.995	729.54
863.173	727.8
863.351	749.88
863.529	712.1
863.707	781.85
863.885	738.26
864.063	681.88
864.241	698.93
864.418	752.98
864.596	690.98
864.774	655.92
864.952	711.13
865.129	714.81
865.307	688.08
865.485	658.82
865.663	739.61
865.84	674.13
866.018	698.54
866.196	562.34
866.373	622.98
866.551	634.6
866.728	559.24
866.906	613.87
867.084	617.17
867.261	636.54
867.439	682.85
867.616	662.89
867.794	648.36
867.971	703.77
868.149	627.43
868.326	718.88
868.503	694.66
868.681	671.61
868.858	666.57
869.035	628.4
869.213	680.52
869.39	648.75
869.567	726.63
869.745	662.7
869.922	686.91
870.099	690.4
870.276	690.98
870.454	678.58
870.631	715.01
870.808	632.28
870.985	698.73
871.162	737.68
871.339	694.86
871.517	600.7
871.694	621.04
871.871	632.47
872.048	658.24
872.225	616.58
872.402	646.23
872.579	601.86
872.756	654.56
872.933	606.12
873.11	621.23
873.287	652.62
873.463	605.15
873.64	616.58
873.817	657.47
873.994	633.05
874.171	607.67
874.348	631.5
874.524	603.22
874.701	624.53
874.878	594.88
875.055	636.54
875.231	618.33
875.408	648.36
875.585	544.9
875.762	631.7
875.938	608.25
876.115	621.04
876.291	619.49
876.468	618.33
876.645	547.61
876.821	600.5
876.998	579
877.174	611.16
877.351	586.94
877.527	573.96
877.704	629.95
877.88	613.1
878.057	587.13
878.233	637.51
878.409	591.01
878.586	609.03
878.762	594.69
878.938	575.51
879.115	543.74
879.291	609.61
879.467	511.38
879.644	567.57
879.82	591.98
879.996	540.05
880.172	523.39
880.349	537.54
880.525	582.29
880.701	559.24
880.877	544.7
881.053	572.41
881.229	566.99
881.405	620.46
881.581	518.74
881.757	558.65
881.933	588.68
882.109	581.9
882.285	573.96
882.461	524.94
882.637	563.69
882.813	525.52
882.989	524.17
883.165	593.92
883.341	565.63
883.517	582.68
883.693	566.79
883.869	564.27
884.044	514.29
884.22	572.99
884.396	616.97
884.572	564.85
884.747	593.14
884.923	576.09
885.099	561.17
885.275	624.53
885.45	552.07
885.626	545.48
885.801	522.81
885.977	546.84
886.153	497.82
886.328	572.99
886.504	545.29
886.679	575.12
886.855	513.51
887.03	579
887.206	586.17
887.381	561.56
887.557	554.97
887.732	592.75
887.908	552.84
888.083	576.28
888.258	536.37
888.434	558.27
888.609	544.51
888.784	583.07
888.96	562.53
889.135	534.82
889.31	549.16
889.485	556.72
889.661	561.75
889.836	593.53
890.011	574.35
890.186	540.83
890.361	521.26
890.537	547.42
890.712	536.95
890.887	551.49
891.062	536.95
891.237	628.21
891.412	507.31
891.587	554.2
891.762	595.47
891.937	561.95
892.112	499.75
892.287	529.79
892.462	516.22
892.637	495.88
892.812	483.67
892.987	516.61
893.161	491.62
893.336	498.01
893.511	491.62
893.686	521.45
893.861	501.69
894.035	496.46
894.21	487.36
894.385	462.94
894.56	501.11
894.734	449.96
894.909	458.87
895.084	458.68
895.258	449.57
895.433	440.86
895.608	466.43
895.782	389.9
895.957	419.16
896.131	421.09
896.306	371.69
896.48	378.66
896.655	403.46
896.829	332.94
897.004	355.8
897.178	362.78
897.353	345.92
897.527	411.21
897.701	371.49
897.876	311.82
898.05	384.48
898.224	397.65
898.399	398.81
898.573	374.98
898.747	297.48
898.921	364.13
899.096	275.98
899.27	306.4
899.444	278.3
899.618	310.85
899.792	320.93
899.967	307.36
900.141	346.89
900.315	294
900.489	297.1
900.663	325.96
900.837	304.65
901.011	296.9
901.185	373.82
901.359	351.54
901.533	321.89
901.707	308.14
901.881	303.1
902.055	272.3
902.229	321.89
902.403	388.93
902.576	324.99
902.75	303.3
902.924	421.48
903.098	371.69
903.272	381.18
903.446	397.26
903.619	348.24
903.793	386.8
903.967	387.96
904.14	409.08
904.314	420.71
904.488	392.23
904.661	442.41
904.835	385.06
905.009	426.52
905.182	472.82
905.356	412.57
905.529	408.69
905.703	376.34
905.876	358.9
906.05	368.78
906.223	354.06
906.397	309.69
906.57	304.26
906.744	306.98
906.917	296.32
907.09	326.35
907.264	335.46
907.437	306.4
907.61	265.32
907.784	279.08
907.957	304.26
908.13	268.42
908.304	325.58
908.477	277.14
908.65	281.4
908.823	241.68
908.996	318.02
909.17	268.61
909.343	275.2
909.516	278.69
909.689	297.1
909.862	226.38
910.035	276.56
910.208	267.06
910.381	252.92
910.554	367.23
910.727	276.17
910.9	266.29
911.073	259.9
911.246	294.96
911.419	335.07
911.592	318.79
911.765	229.67
911.938	270.94
912.11	281.4
912.283	264.35
912.456	312.21
912.629	278.5
912.802	261.45
912.974	234.13
913.147	226.57
913.32	175.81
913.493	187.05
913.665	215.14
913.838	228.12
914.01	215.72
914.183	237.03
914.356	201.58
914.528	231.61
914.701	310.27
914.873	266.68
915.046	249.05
915.218	221.92
915.391	191.89
915.563	206.81
915.736	235.1
915.908	258.35
916.081	237.03
916.253	203.71
916.425	214.95
916.598	257.96
916.77	214.95
916.942	182.59
917.115	143.45
917.287	259.51
917.459	237.81
917.632	203.13
917.804	158.95
917.976	218.82
918.148	185.88
918.32	228.7
918.493	249.24
918.665	258.54
918.837	219.4
919.009	272.88
919.181	305.43
919.353	261.64
919.525	238.78
919.697	240.52
919.869	252.34
920.041	272.1
920.213	349.21
920.385	227.15
920.557	265.9
920.729	245.95
920.901	255.63
921.073	224.44
921.244	233.16
921.416	281.4
921.588	242.85
921.76	219.79
921.932	317.63
922.103	230.25
922.275	207.2
922.447	236.26
922.619	178.72
922.79	247.69
922.962	239.94
923.134	232.19
923.305	208.94
923.477	184.72
923.648	180.27
923.82	216.69
923.991	162.25
924.163	165.93
924.335	216.69
924.506	190.15
924.677	243.23
924.849	222.89
925.02	194.22
925.192	228.12
925.363	209.91
925.535	220.76
925.706	197.51
925.877	257.57
926.049	154.88
926.22	201.19
926.391	195.77
926.562	267.65
926.734	178.91
926.905	228.31
927.076	149.27
927.247	175.42
927.419	147.72
927.59	148.49
927.761	193.05
927.932	155.85
928.103	189.57
928.274	126.02
928.445	132.41
928.616	162.44
928.787	165.35
928.958	177.55
929.129	144.81
929.3	167.28
929.471	126.02
929.642	79.13
929.813	21.78
929.984	156.82
930.155	62.27
930.326	120.98
930.496	107.61
930.667	37.28
930.838	107.61
931.009	64.79
931.18	91.14
931.35	71.77
931.521	80.87
931.692	51.23
931.863	14.81
932.033	52.78
932.204	94.44
932.374	65.57
932.545	14.61
932.716	99.47
932.886	91.72
933.057	1.63
933.227	21.78
933.398	95.99
933.568	44.84
933.739	-5.93
933.909	25.07
934.08	57.43
934.25	-7.28
934.421	-1.28
934.591	19.26
934.761	-4.76
934.932	-34.02
935.102	17.32
935.272	13.06
935.443	14.03
935.613	-0.69
935.783	20.42
935.953	-14.06
936.123	130.67
936.294	-36.15
936.464	19.07
936.634	5.7
936.804	-6.31
936.974	-28.4
937.144	19.84
937.314	36.7
937.484	16.16
937.655	4.34
937.825	57.62
937.995	-12.51
938.165	41.54
938.334	-2.44
938.504	9.96
938.674	-4.38
938.844	8.61
939.014	51.62
939.184	13.26
939.354	65.37
939.524	65.18
939.694	6.09
939.863	26.43
940.033	93.08
940.203	99.47
940.373	59.95
940.542	52.78
940.712	36.7
940.882	75.06
941.051	93.08
941.221	61.3
941.391	103.15
941.56	5.51
941.73	3.57
941.899	123.3
942.069	19.46
942.238	62.85
942.408	28.17
942.577	89.79
942.747	42.51
942.916	1.05
943.086	-0.11
943.255	86.49
943.425	43.67
943.594	18.87
943.763	-53.78
943.933	10.54
944.102	-26.85
944.271	25.27
944.441	45.42
944.61	2.41
944.779	32.24
944.948	95.99
945.117	-12.51
945.287	26.43
945.456	-32.47
945.625	5.12
945.794	20.23
945.963	-2.24
946.132	63.05
946.301	36.31
946.47	51.04
946.639	-39.83
946.808	17.91
946.977	33.21
947.146	58.98
947.315	15.19
947.484	41.54
947.653	18.1
947.822	8.99
947.991	0.47
948.16	118.65
948.329	27.4
948.498	-3.02
948.666	15
948.835	56.46
949.004	-32.47
949.173	-26.08
949.341	31.66
949.51	36.89
949.679	88.82
949.847	52.59
950.016	83.97
950.185	70.02
950.353	-21.81
950.522	18.87
950.69	55.49
950.859	6.28
951.028	73.7
951.196	26.62
951.365	7.64
951.533	38.44
951.701	63.63
951.87	84.75
952.038	-16
952.207	19.07
952.375	98.31
952.543	11.32
952.712	10.93
952.88	-0.31
953.048	98.12
953.217	43.48
953.385	18.87
953.553	99.67
953.721	-8.64
953.89	47.55
954.058	-13.09
954.226	-26.66
954.394	10.74
954.562	-10.58
954.73	36.31
954.898	12.67
955.067	75.45
955.235	6.67
955.403	53.36
955.571	104.7
955.739	49.1
955.907	18.29
956.075	-5.34
956.243	-3.6
956.41	69.44
956.578	-27.63
956.746	-17.74
956.914	-3.02
957.082	49.49
957.25	37.67
957.418	-6.7
957.585	13.26
957.753	48.13
957.921	-4.76
958.089	43.48
958.256	38.64
958.424	52.97
958.592	54.72
958.759	24.11
958.927	72.35
959.095	-0.31
959.262	19.26
959.43	39.41
959.597	-2.44
959.765	10.93
959.932	-20.46
960.1	55.88
960.267	34.37
960.435	40.96
960.602	62.47
960.77	8.22
960.937	-11.54
961.104	14.22
961.272	-24.91
961.439	-10.77
961.606	35.73
961.774	78.74
961.941	44.84
962.108	27.59
962.275	36.12
962.443	81.26
962.61	64.79
962.777	92.3
962.944	53.75
963.111	70.6
963.278	37.09
963.446	39.02
963.613	20.04
963.78	56.46
963.947	50.65
964.114	47.94
964.281	122.14
964.448	73.9
964.615	27.79
964.782	40.57
964.949	51.04
965.116	58.2
965.282	66.15
965.449	2.99
965.616	5.7
965.783	57.82
965.95	38.83
966.117	-9.99
966.283	58.98
966.45	33.02
966.617	37.28
966.784	72.54
966.95	77.39
967.117	105.09
967.284	9.57
967.45	10.16
967.617	71.38
967.784	36.51
967.95	90.17
968.117	22.94
968.283	59.75
968.45	124.27
968.616	59.75
968.783	66.15
968.949	64.02
969.116	90.37
969.282	51.81
969.449	44.06
969.615	51.04
969.781	-21.04
969.948	18.29
970.114	14.42
970.28	103.54
970.447	38.44
970.613	77
970.779	49.29
970.945	53.36
971.112	53.36
971.278	31.86
971.444	34.37
971.61	70.02
971.776	8.22
971.942	57.04
972.108	51.23
972.275	42.32
972.441	72.74
972.607	106.06
972.773	38.06
972.939	70.99
973.105	50.26
973.271	3.37
973.437	25.27
973.602	-7.09
973.768	43.67
973.934	68.86
974.1	88.82
974.266	-35.76
974.432	48.13
974.598	8.41
974.763	70.6
974.929	15.19
975.095	107.8
975.261	17.91
975.426	6.67
975.592	19.26
975.758	104.51
975.923	10.93
976.089	4.92
976.255	79.32
976.42	59.75
976.586	60.34
976.751	47.74
976.917	121.95
977.082	49.29
977.248	8.61
977.413	-29.76
977.579	24.69
977.744	32.05
977.91	-5.34
978.075	1.05
978.24	52.97
978.406	44.45
978.571	45.42
978.736	23.14
978.902	55.88
979.067	-8.44
979.232	-5.15
979.397	52.59
979.563	93.85
979.728	12.09
979.893	19.84
980.058	6.67
980.223	70.6
980.388	52.59
980.554	19.26
980.719	37.86
980.884	58.98
981.049	64.21
981.214	14.61
981.379	61.5
981.544	22.56
981.709	29.53
981.874	22.17
982.039	20.42
982.204	59.56
982.368	21.39
982.533	15
982.698	79.13
982.863	83.39
983.028	27.4
983.193	41.54
983.357	58.01
983.522	53.75
983.687	9.77
983.852	21.78
984.016	23.91
984.181	46
984.346	39.8
984.51	52.97
984.675	43.87
984.839	58.2
985.004	65.37
985.168	73.12
985.333	37.86
985.498	25.07
985.662	85.14
985.827	40.57
985.991	32.24
986.155	32.63
986.32	42.12
986.484	85.72
986.649	55.88
986.813	-1.08
986.977	32.82
987.142	47.36
987.306	-18.52
987.47	11.9
987.634	40.38
987.799	40.57
987.963	58.01
988.127	59.37
988.291	97.15
988.455	20.42
988.62	55.88
988.784	55.3
988.948	78.94
989.112	25.27
989.276	32.63
989.44	33.79
989.604	14.61
989.768	35.92
989.932	129.12
990.096	3.57
990.26	12.87
990.424	2.99
990.588	19.65
990.752	73.7
990.915	38.44
991.079	13.64
991.243	1.24
991.407	57.24
991.571	19.84
991.734	49.29
991.898	87.27
992.062	112.45
992.226	0.47
992.389	15.58
992.553	3.96
992.717	8.99
992.88	42.12
993.044	41.35
993.207	18.87
993.371	55.3
993.535	46.58
993.698	54.52
993.862	64.6
994.025	94.44
994.189	55.69
994.352	26.04
994.515	40.19
994.679	80.1
994.842	25.27
995.006	46.39
995.169	9.77
995.332	18.29
995.496	15.77
995.659	-1.08
995.822	12.09
995.985	13.26
996.149	62.85
996.312	34.57
996.475	95.99
996.638	14.61
996.801	87.07
996.964	101.6
997.128	50.65
997.291	9.77
997.454	51.62
997.617	-16.39
997.78	73.32
997.943	24.69
998.106	42.71
998.269	26.04
998.432	15.97
998.595	16.36
998.758	-7.86
998.92	0.47
999.083	-17.36
999.246	18.68
999.409	-10.38
999.572	-33.05
999.735	-0.69
999.897	24.11
1000.06	14.61
1000.223	6.86
1000.386	45.61
1000.548	57.24
1000.711	46.58
1000.874	44.06
1001.036	-15.03
1001.199	71.38
1001.361	13.64
1001.524	23.14
1001.687	58.79
1001.849	-14.26
1002.012	30.11
1002.174	25.66
1002.337	37.47
1002.499	9.38
1002.661	68.67
1002.824	-39.64
1002.986	5.51
1003.149	12.67
1003.311	-17.36
1003.473	85.72
1003.636	0.08
1003.798	52.59
1003.96	54.14
1004.123	31.86
1004.285	22.75
1004.447	-4.96
1004.609	19.26
1004.771	84.55
1004.933	-17.16
1005.096	5.31
1005.258	-33.44
1005.42	17.91
1005.582	65.95
1005.744	19.65
1005.906	10.35
1006.068	27.4
1006.23	-22.78
1006.392	-40.22
1006.554	-3.02
1006.716	47.55
1006.878	42.12
1007.04	-27.04
1007.202	1.82
1007.363	25.46
1007.525	20.04
1007.687	30.31
1007.849	74.48
1008.011	-26.46
1008.172	-26.85
1008.334	-2.05
1008.496	39.8
1008.658	-25.88
1008.819	0.27
1008.981	-2.83
1009.143	9.57
1009.304	3.57
1009.466	43.29
1009.627	75.06
1009.789	108.39
1009.95	38.25
1010.112	-7.86
1010.273	18.1
1010.435	3.37
1010.596	0.86
1010.758	9.77
1010.919	22.56
1011.081	-35.38
1011.242	18.87
1011.403	31.27
1011.565	-8.44
1011.726	45.61
1011.887	-31.5
1012.049	14.42
1012.21	30.5
1012.371	68.67
1012.532	-68.51
1012.693	24.69
1012.855	2.6
1013.016	19.46
1013.177	65.57
1013.338	6.09
1013.499	85.33
1013.66	51.62
1013.821	36.51
1013.982	5.51
1014.143	17.32
1014.304	-13.68
1014.465	37.86
1014.626	29.72
1014.787	9.19
1014.948	76.61
1015.109	-40.02
1015.27	51.23
1015.431	-6.12
1015.592	7.06
1015.752	60.53
1015.913	30.11
1016.074	41.54
1016.235	7.83
1016.395	-9.41
1016.556	31.86
1016.717	3.37
1016.877	53.94
1017.038	0.47
1017.199	45.42
1017.359	12.29
1017.52	13.64
1017.681	-2.44
1017.841	39.02
1018.002	3.76
1018.162	25.66
1018.323	77.19
1018.483	5.12
1018.644	-2.24
1018.804	-33.05
1018.964	-41.96
1019.125	21.59
1019.285	21.39
1019.446	-25.69
1019.606	7.83
1019.766	-49.13
1019.926	38.83
1020.087	24.11
1020.247	-25.69
1020.407	39.02
1020.567	45.81
1020.728	12.29
1020.888	-21.81
1021.048	7.83
1021.208	-35.38
1021.368	-23.17
1021.528	81.26
1021.688	36.7
1021.848	39.02
1022.008	11.51
1022.168	-22.01
1022.328	18.1
1022.488	37.47
1022.648	-19.49
1022.808	22.36
1022.968	49.29
1023.128	-12.51
1023.288	4.34
1023.448	-10.19
1023.608	50.84
1023.767	15.39
1023.927	-7.09
1024.087	-13.09
1024.247	-42.16
1024.406	2.02
1024.566	-54.94
1024.726	-19.68
1024.885	16.16
1025.045	30.89
1025.205	-2.63
1025.364	11.51
1025.524	21.39
1025.683	4.15
1025.843	-7.67
1026.003	14.81
1026.162	52.59
1026.321	16.36
1026.481	20.04
1026.64	24.49
1026.8	21.59
1026.959	-0.5
1027.119	0.66
1027.278	13.45
1027.437	-38.28
1027.597	13.64
1027.756	19.26
1027.915	37.09
1028.074	27.98
1028.234	-14.26
1028.393	22.75
1028.552	-5.93
1028.711	-67.73
1028.87	37.67
1029.03	-43.51
1029.189	6.86
1029.348	-51.26
1029.507	-12.32
1029.666	0.86
1029.825	-16.58
1029.984	-19.88
1030.143	16.94
1030.302	-3.21
1030.461	-47.97
1030.62	49.87
1030.779	18.29
1030.938	-25.3
1031.097	-32.66
1031.255	3.18
1031.414	49.49
1031.573	47.74
1031.732	-38.47
1031.891	-8.83
1032.049	31.66
1032.208	44.64
1032.367	18.87
1032.525	-13.09
1032.684	-22.2
1032.843	9.57
1033.001	-49.32
1033.16	159.53
1033.319	56.07
1033.477	22.36
1033.636	-11.35
1033.794	-36.54
1033.953	25.46
1034.111	18.68
1034.27	-24.91
1034.428	21.2
1034.587	-9.22
1034.745	15.97
1034.903	-22.01
1035.062	31.66
1035.22	-37.7
1035.378	39.02
1035.537	-10.19
1035.695	15.77
1035.853	-7.48
1036.011	39.8
1036.17	35.92
1036.328	-60.37
1036.486	41.74
1036.644	11.32
1036.802	-74.32
1036.96	-25.88
1037.119	22.56
1037.277	-8.83
1037.435	-20.07
1037.593	-19.49
1037.751	15.19
1037.909	45.03
1038.067	45.03
