Data from pine_FLMT105791__186__17-23-40-073.txt Node

Date: Mon Mar 20 17:23:40 GMT 2023
User: antho
Spectrometer: FLMT10579
Trigger mode: 0
Integration Time (sec): 1.000000E-1
Scans to average: 10
Electric dark correction enabled: true
Nonlinearity correction enabled: false
Boxcar width: 0
XAxis mode: Wavelengths
Number of Pixels in Spectrum: 3648
>>>>>Begin Spectral Data<<<<<
345.248	-176.02
345.464	-176.02
345.681	-176.02
345.898	-176.21
346.114	-164.2
346.331	-59
346.548	15.4
346.764	-14.24
346.981	-14.63
347.197	-10.56
347.414	23.93
347.631	-5.72
347.847	62.48
348.064	-2.03
348.28	9.01
348.497	6.49
348.713	-11.14
348.93	59.77
349.146	45.63
349.363	-28
349.579	-7.65
349.796	-0.68
350.012	-14.05
350.229	19.28
350.445	-1.26
350.661	-16.18
350.878	-22.96
351.094	14.63
351.311	25.67
351.527	-1.26
351.743	-13.08
351.96	24.7
352.176	1.65
352.392	6.49
352.609	36.52
352.825	-16.76
353.041	12.3
353.257	0.87
353.474	-13.08
353.69	0.29
353.906	6.1
354.122	-6.88
354.339	48.34
354.555	23.73
354.771	-8.62
354.987	44.27
355.203	70.23
355.42	-11.53
355.636	-33.03
355.852	-1.26
356.068	17.73
356.284	-35.36
356.5	65.2
356.716	17.53
356.932	-8.82
357.148	15.6
357.364	-6.49
357.58	31.1
357.796	65
358.012	34.39
358.228	16.37
358.444	-79.53
358.66	70.62
358.876	3
359.092	-2.03
359.308	7.46
359.524	-0.68
359.74	-25.09
359.956	-48.53
360.172	15.6
360.388	15.21
360.604	-18.5
360.819	72.95
361.035	-26.83
361.251	40.4
361.467	-14.24
361.683	53.18
361.898	3
362.114	33.23
362.33	-9.78
362.546	36.13
362.762	7.85
362.977	25.87
363.193	-51.63
363.409	39.23
363.624	-5.33
363.84	-24.9
364.056	-10.17
364.271	42.33
364.487	-10.37
364.703	-19.67
364.918	-21.8
365.134	15.79
365.35	-16.95
365.565	89.8
365.781	3.97
365.996	-7.46
366.212	61.51
366.427	-9.2
366.643	-15.79
366.858	-7.65
367.074	-30.52
367.289	49.31
367.505	104.33
367.72	-48.53
367.936	-7.27
368.151	40.2
368.367	15.6
368.582	9.98
368.798	-0.29
369.013	68.1
369.228	15.6
369.444	-15.02
369.659	47.76
369.874	28
370.09	67.71
370.305	-29.55
370.52	-17.73
370.736	51.25
370.951	-2.81
371.166	51.05
371.381	78.37
371.597	41.95
371.812	2.62
372.027	-36.91
372.242	-6.68
372.458	72.95
372.673	-28.38
372.888	5.13
373.103	26.83
373.318	64.42
373.533	35.75
373.749	10.17
373.964	-27.42
374.179	75.85
374.394	7.85
374.609	84.76
374.824	-7.65
375.039	38.07
375.254	-14.43
375.469	50.86
375.684	27.8
375.899	38.85
376.114	-2.03
376.329	9.01
376.544	24.7
376.759	48.53
376.974	-15.4
377.189	1.65
377.404	-0.87
377.619	36.91
377.834	-45.82
378.049	-70.43
378.264	-34.97
378.478	12.69
378.693	-24.51
378.908	34.58
379.123	-2.81
379.338	71.78
379.553	7.46
379.767	23.93
379.982	13.08
380.197	27.8
380.412	-4.55
380.626	3.97
380.841	43.5
381.056	9.01
381.271	63.26
381.485	-35.17
381.7	-32.65
381.915	40.4
382.129	-8.04
382.344	11.92
382.559	-4.94
382.773	50.86
382.988	-24.7
383.202	13.47
383.417	-16.18
383.632	98.13
383.846	28.19
384.061	-2.62
384.275	9.59
384.49	12.3
384.704	26.83
384.919	21.8
385.133	0.87
385.348	-3.39
385.562	-42.53
385.777	50.66
385.991	3.78
386.206	8.82
386.42	17.92
386.634	54.93
386.849	16.57
387.063	24.7
387.277	-5.13
387.492	-24.12
387.706	-22.38
387.92	-10.75
388.135	61.13
388.349	39.04
388.563	29.74
388.778	-9.78
388.992	45.43
389.206	46.4
389.42	75.08
389.635	19.47
389.849	8.23
390.063	20.44
390.277	8.04
390.491	68.3
390.706	19.08
390.92	19.86
391.134	5.91
391.348	18.89
391.562	-28.38
391.776	2.42
391.99	-34.97
392.205	20.83
392.419	-29.74
392.633	-11.53
392.847	76.63
393.061	-14.24
393.275	67.91
393.489	25.87
393.703	24.51
393.917	61.9
394.131	-12.88
394.345	20.83
394.559	64.42
394.773	35.94
394.986	16.76
395.2	-0.1
395.414	45.82
395.628	-27.8
395.842	16.57
396.056	-12.69
396.27	-42.14
396.484	25.87
396.697	18.5
396.911	77.4
397.125	23.15
397.339	44.27
397.553	30.52
397.766	77.4
397.98	36.72
398.194	31.68
398.408	2.23
398.621	3.58
398.835	28.58
399.049	14.05
399.262	72.56
399.476	14.24
399.69	29.16
399.903	64.03
400.117	-5.72
400.331	41.75
400.544	-41.17
400.758	121.96
400.971	27.42
401.185	54.93
401.398	-6.1
401.612	67.52
401.826	30.52
402.039	20.63
402.253	-7.46
402.466	38.27
402.68	19.08
402.893	18.12
403.106	1.45
403.32	24.12
403.533	36.72
403.747	24.9
403.96	26.25
404.174	25.09
404.387	-36.91
404.6	24.7
404.814	47.37
405.027	7.85
405.24	24.9
405.454	-6.88
405.667	37.88
405.88	-37.3
406.094	19.08
406.307	65.2
406.52	16.57
406.733	-15.21
406.947	-34
407.16	79.34
407.373	66.55
407.586	-7.46
407.799	-14.05
408.012	60.74
408.226	3.78
408.439	61.71
408.652	-19.67
408.865	-0.87
409.078	47.37
409.291	41.37
409.504	-29.74
409.717	26.83
409.93	18.7
410.143	2.62
410.357	-36.72
410.57	-36.33
410.783	16.57
410.996	41.95
411.209	16.18
411.421	29.16
411.634	-13.27
411.847	-22.57
412.06	13.47
412.273	7.07
412.486	2.62
412.699	105.3
412.912	21.22
413.125	58.61
413.338	15.21
413.55	49.11
413.763	17.34
413.976	30.71
414.189	-10.75
414.402	21.99
414.615	67.91
414.827	-13.85
415.04	40.59
415.253	40.59
415.466	21.22
415.678	73.53
415.891	26.83
416.104	-3.78
416.316	6.3
416.529	-2.42
416.742	31.87
416.954	67.13
417.167	19.67
417.38	16.18
417.592	76.05
417.805	-7.27
418.017	-11.53
418.23	45.63
418.442	8.62
418.655	-2.81
418.868	28.77
419.08	52.21
419.293	50.28
419.505	15.79
419.718	11.92
419.93	60.93
420.142	2.03
420.355	78.56
420.567	64.03
420.78	41.95
420.992	13.66
421.205	55.12
421.417	-30.71
421.629	-21.41
421.842	-41.95
422.054	-40.59
422.266	58.8
422.479	47.37
422.691	9.4
422.903	62.48
423.115	-23.35
423.328	1.65
423.54	24.51
423.752	17.53
423.964	-11.33
424.177	34.97
424.389	28.58
424.601	118.28
424.813	34.2
425.025	59.19
425.238	43.69
425.45	6.88
425.662	-4.55
425.874	288.59
426.086	25.28
426.298	22.96
426.51	39.62
426.722	8.23
426.934	14.24
427.146	68.68
427.358	-10.56
427.57	64.03
427.782	20.63
427.994	39.43
428.206	-33.42
428.418	-29.35
428.63	28.38
428.842	41.75
429.054	33.42
429.266	49.7
429.478	15.79
429.69	20.83
429.902	-12.3
430.114	14.82
430.325	50.86
430.537	-2.03
430.749	17.53
430.961	-35.75
431.173	18.7
431.384	20.44
431.596	-43.3
431.808	-7.85
432.02	11.33
432.231	33.03
432.443	38.65
432.655	20.44
432.867	-6.49
433.078	8.82
433.29	84.96
433.502	46.01
433.713	59.19
433.925	18.5
434.136	54.15
434.348	-11.14
434.56	-23.35
434.771	98.91
434.983	-1.07
435.194	-3.39
435.406	-11.33
435.617	42.33
435.829	76.05
436.04	34.2
436.252	30.32
436.463	52.8
436.675	50.47
436.886	15.4
437.098	18.12
437.309	75.27
437.521	7.27
437.732	41.37
437.943	36.91
438.155	19.08
438.366	-17.15
438.578	75.66
438.789	44.08
439	40.01
439.211	16.57
439.423	53.18
439.634	51.83
439.845	22.18
440.057	26.83
440.268	39.82
440.479	-9.4
440.69	24.51
440.902	25.09
441.113	33.23
441.324	-7.85
441.535	31.87
441.746	79.53
441.957	-17.15
442.168	-18.7
442.38	44.08
442.591	81.28
442.802	-16.95
443.013	30.13
443.224	14.63
443.435	2.03
443.646	34.2
443.857	18.7
444.068	-18.89
444.279	9.78
444.49	72.95
444.701	39.82
444.912	113.44
445.123	58.22
445.334	38.27
445.545	21.6
445.756	35.17
445.967	-13.47
446.178	34.2
446.388	75.27
446.599	70.43
446.81	69.46
447.021	48.15
447.232	61.13
447.443	95.03
447.653	-14.05
447.864	89.8
448.075	25.87
448.286	69.85
448.496	54.73
448.707	62.29
448.918	35.94
449.129	111.5
449.339	10.17
449.55	20.25
449.761	21.22
449.971	92.9
450.182	13.85
450.393	59.77
450.603	13.66
450.814	68.68
451.024	48.92
451.235	63.65
451.446	108.79
451.656	89.41
451.867	3
452.077	36.33
452.288	95.81
452.498	98.33
452.709	36.13
452.919	57.83
453.13	38.07
453.34	74.3
453.55	14.82
453.761	55.12
453.971	62.1
454.182	67.91
454.392	47.95
454.602	97.36
454.813	53.18
455.023	109.37
455.233	4.36
455.444	45.82
455.654	-13.27
455.864	29.74
456.075	6.68
456.285	17.53
456.495	27.22
456.705	62.29
456.916	96.97
457.126	97.16
457.336	59.38
457.546	-20.63
457.756	13.66
457.967	104.33
458.177	42.92
458.387	49.5
458.597	23.35
458.807	22.77
459.017	44.27
459.227	47.56
459.437	58.03
459.647	66.75
459.857	75.46
460.068	6.49
460.278	82.25
460.488	59.77
460.698	113.44
460.908	43.11
461.117	-7.65
461.327	-4.55
461.537	68.1
461.747	73.72
461.957	57.06
462.167	151.99
462.377	82.25
462.587	48.34
462.797	96.39
463.007	59
463.216	87.86
463.426	98.33
463.636	84.18
463.846	12.5
464.056	45.63
464.265	101.81
464.475	34.39
464.685	55.31
464.895	96.78
465.104	79.53
465.314	99.49
465.524	48.73
465.733	36.72
465.943	135.72
466.153	97.75
466.362	96.39
466.572	74.3
466.782	34.97
466.991	49.89
467.201	119.45
467.41	29.93
467.62	95.23
467.829	56.09
468.039	71.98
468.249	70.04
468.458	39.62
468.668	71.59
468.877	82.25
469.086	114.02
469.296	96
469.505	6.88
469.715	127.97
469.924	74.3
470.134	108.01
470.343	126.03
470.552	74.5
470.762	82.63
470.971	39.43
471.18	84.57
471.39	50.28
471.599	16.57
471.808	109.76
472.018	47.95
472.227	121.96
472.436	95.81
472.645	53.57
472.855	35.17
473.064	93.1
473.273	39.43
473.482	77.6
473.691	63.06
473.901	86.31
474.11	69.46
474.319	151.03
474.528	48.73
474.737	109.18
474.946	71.59
475.155	81.08
475.364	105.11
475.573	57.45
475.783	92.13
475.992	84.96
476.201	139.4
476.41	82.83
476.619	45.24
476.828	90.19
477.037	61.51
477.245	64.42
477.454	104.53
477.663	70.43
477.872	59.77
478.081	115.57
478.29	41.17
478.499	126.23
478.708	56.09
478.917	125.06
479.125	81.66
479.334	90.77
479.543	89.41
479.752	95.03
479.961	105.88
480.169	96.97
480.378	64.03
480.587	195.59
480.796	100.07
481.004	89.41
481.213	100.85
481.422	95.61
481.63	94.45
481.839	94.65
482.048	141.34
482.256	106.46
482.465	66.94
482.674	127.2
482.882	91.55
483.091	162.84
483.299	129.13
483.508	132.62
483.716	78.18
483.925	100.85
484.134	56.86
484.342	83.02
484.551	108.01
484.759	124.87
484.967	97.94
485.176	136.49
485.384	114.21
485.593	141.92
485.801	133.78
486.01	121
486.218	99.1
486.426	83.6
486.635	144.83
486.843	123.51
487.051	123.71
487.26	85.35
487.468	147.73
487.676	152.38
487.885	81.28
488.093	87.09
488.301	107.05
488.509	117.7
488.717	120.61
488.926	100.07
489.134	107.82
489.342	110.53
489.55	90.38
489.758	89.61
489.967	90.77
490.175	226.01
490.383	62.68
490.591	124.1
490.799	43.5
491.007	138.43
491.215	137.27
491.423	120.03
491.631	93.1
491.839	112.86
492.047	158.97
492.255	82.83
492.463	72.95
492.671	111.7
492.879	159.94
493.087	90.58
493.295	148.89
493.503	138.24
493.711	122.16
493.919	157.61
494.127	175.83
494.334	184.35
494.542	61.51
494.75	110.34
494.958	127.2
495.166	150.64
495.374	136.69
495.581	120.22
495.789	116.54
495.997	149.67
496.205	124.68
496.412	116.93
496.62	104.33
496.828	145.41
497.035	108.79
497.243	151.03
497.451	137.46
497.658	151.99
497.866	117.7
498.074	158.39
498.281	119.83
498.489	198.49
498.696	158.39
498.904	105.11
499.112	103.36
499.319	183.58
499.527	136.11
499.734	163.04
499.942	101.81
500.149	116.93
500.357	114.21
500.564	103.56
500.771	154.71
500.979	114.21
501.186	151.8
501.394	153.54
501.601	139.79
501.808	184.16
502.016	129.52
502.223	137.66
502.43	153.35
502.638	147.54
502.845	109.56
503.052	191.13
503.26	129.33
503.467	178.93
503.674	145.02
503.881	146.76
504.089	252.16
504.296	180.48
504.503	101.81
504.71	169.43
504.917	115.76
505.125	134.94
505.332	142.31
505.539	163.43
505.746	210.89
505.953	192.88
506.16	174.66
506.367	211.67
506.574	189
506.781	179.12
506.988	126.42
507.195	170.59
507.402	128.36
507.609	198.88
507.816	157.61
508.023	149.09
508.23	142.5
508.437	121.58
508.644	170.01
508.851	209.34
509.058	198.69
509.265	167.49
509.472	171.56
509.679	264.37
509.885	117.7
510.092	151.03
510.299	147.15
510.506	167.49
510.713	176.21
510.92	205.66
511.126	186.29
511.333	197.33
511.54	183.58
511.746	234.14
511.953	197.53
512.16	207.21
512.367	168.27
512.573	154.32
512.78	174.86
512.987	188.23
513.193	192.1
513.4	117.12
513.606	171.56
513.813	201.21
514.02	215.54
514.226	256.62
514.433	222.13
514.639	156.45
514.846	195.39
515.052	136.88
515.259	188.61
515.465	194.43
515.672	164.78
515.878	267.47
516.085	176.6
516.291	213.99
516.497	154.71
516.704	188.61
516.91	141.34
517.117	135.33
517.323	121.38
517.529	173.31
517.736	191.52
517.942	216.9
518.148	162.65
518.354	193.07
518.561	182.41
518.767	165.17
518.973	225.81
519.179	225.23
519.386	165.75
519.592	154.9
519.798	192.49
520.004	212.83
520.21	166.53
520.417	178.34
520.623	201.79
520.829	224.26
521.035	199.46
521.241	205.28
521.447	220.58
521.653	300.21
521.859	200.43
522.065	239.96
522.271	295.56
522.477	241.51
522.683	260.88
522.889	235.89
523.095	255.26
523.301	210.51
523.507	204.31
523.713	253.13
523.919	212.83
524.125	261.07
524.331	208.96
524.537	257.78
524.742	230.07
524.948	238.79
525.154	260.11
525.36	345.16
525.566	243.06
525.772	309.51
525.977	203.14
526.183	266.89
526.389	285.29
526.595	243.25
526.8	214.96
527.006	214.19
527.212	226.59
527.417	190.55
527.623	212.83
527.829	256.42
528.034	234.14
528.24	241.12
528.446	195.2
528.651	282.58
528.857	249.84
529.062	287.42
529.268	242.47
529.473	223.49
529.679	234.34
529.884	320.36
530.09	270.76
530.295	315.52
530.501	278.71
530.706	252.74
530.912	212.44
531.117	270.18
531.323	255.26
531.528	276.38
531.733	281.61
531.939	247.12
532.144	273.28
532.35	262.24
532.555	300.02
532.76	315.32
532.966	290.14
533.171	303.7
533.376	259.33
533.581	266.11
533.787	249.26
533.992	286.26
534.197	336.25
534.402	269.21
534.607	261.46
534.813	377.13
535.018	282.58
535.223	235.31
535.428	238.21
535.633	320.36
535.838	294.21
536.043	278.9
536.249	358.14
536.454	252.16
536.659	318.42
536.864	241.31
537.069	272.89
537.274	310.48
537.479	318.04
537.684	326.37
537.889	268.24
538.094	348.65
538.299	300.79
538.504	290.33
538.708	286.26
538.913	303.51
539.118	288.59
539.323	311.64
539.528	290.72
539.733	291.11
539.938	307.38
540.142	335.28
540.347	301.76
540.552	292.46
540.757	298.86
540.962	276.38
541.166	272.31
541.371	264.76
541.576	306.6
541.781	205.08
541.985	303.7
542.19	292.46
542.395	336.64
542.599	328.89
542.804	306.02
543.008	357.95
543.213	308.35
543.418	259.52
543.622	305.44
543.827	272.89
544.031	359.89
544.236	300.02
544.44	296.34
544.645	365.7
544.849	275.22
545.054	325.59
545.258	397.08
545.463	350.78
545.667	303.31
545.872	311.84
546.076	330.44
546.281	317.45
546.485	281.03
546.689	327.53
546.894	323.65
547.098	310.29
547.302	252.94
547.507	306.8
547.711	304.86
547.915	361.05
548.119	298.08
548.324	310.87
548.528	362.21
548.732	350.97
548.936	332.95
549.141	362.21
549.345	275.8
549.549	320.94
549.753	323.46
549.957	390.89
550.161	356.98
550.366	298.66
550.57	282.19
550.774	348.84
550.978	307.77
551.182	335.67
551.386	306.8
551.59	304.28
551.794	319
551.998	362.02
552.202	295.17
552.406	273.86
552.61	302.34
552.814	288.78
553.018	392.05
553.222	309.32
553.426	334.31
553.63	400.57
553.833	280.45
554.037	283.16
554.241	353.69
554.445	292.85
554.649	317.26
554.853	316.49
555.056	372.48
555.26	332.37
555.464	309.7
555.668	306.02
555.871	338.38
556.075	347.87
556.279	297.11
556.483	261.66
556.686	329.08
556.89	345.74
557.094	333.92
557.297	292.66
557.501	371.12
557.704	274.64
557.908	343.42
558.112	294.01
558.315	371.32
558.519	286.26
558.722	322.69
558.926	350.97
559.129	287.81
559.333	282.77
559.536	292.66
559.74	268.44
559.943	276.77
560.147	270.18
560.35	286.84
560.553	288.01
560.757	223.87
560.96	381.2
561.164	260.88
561.367	348.84
561.57	278.32
561.774	324.62
561.977	306.99
562.18	288.59
562.384	393.98
562.587	325.01
562.79	265.14
562.993	291.11
563.197	341.29
563.4	363.95
563.603	342.45
563.806	397.47
564.009	296.14
564.212	317.26
564.416	264.37
564.619	316.49
564.822	271.34
565.025	350.97
565.228	320.94
565.431	303.12
565.634	215.74
565.837	303.89
566.04	300.79
566.243	305.44
566.446	225.81
566.649	320.94
566.852	262.24
567.055	258.17
567.258	334.5
567.461	362.4
567.664	342.84
567.867	255.26
568.07	294.59
568.273	307.96
568.475	345.16
568.678	290.91
568.881	282.97
569.084	323.27
569.287	249.64
569.489	252.36
569.692	316.29
569.895	339.74
570.098	268.82
570.3	239.37
570.503	213.03
570.706	248.09
570.909	262.43
571.111	233.56
571.314	213.99
571.516	286.46
571.719	292.85
571.922	272.12
572.124	253.91
572.327	289.17
572.529	220
572.732	195.59
572.935	260.69
573.137	298.47
573.34	253.13
573.542	270.96
573.745	262.04
573.947	268.82
574.15	256.42
574.352	235.31
574.554	295.76
574.757	222.52
574.959	265.34
575.162	225.23
575.364	248.87
575.566	334.31
575.769	230.46
575.971	264.56
576.173	191.33
576.376	258.36
576.578	278.12
576.78	343.03
576.982	200.43
577.185	260.11
577.387	204.31
577.589	236.86
577.791	261.66
577.993	284.91
578.196	252.55
578.398	277.93
578.6	322.1
578.802	202.56
579.004	242.28
579.206	235.69
579.408	257.01
579.61	242.09
579.812	249.45
580.014	222.32
580.216	235.69
580.418	208.96
580.62	195.98
580.822	169.63
581.024	239.37
581.226	270.57
581.428	236.08
581.63	291.11
581.832	227.36
582.034	265.34
582.236	235.5
582.438	247.51
582.64	305.83
582.841	303.31
583.043	337.41
583.245	257.2
583.447	284.32
583.649	223.1
583.85	257.01
584.052	308.54
584.254	208.57
584.456	300.02
584.657	219.81
584.859	241.89
585.061	263.79
585.262	224.46
585.464	190.74
585.666	258.94
585.867	244.99
586.069	296.92
586.27	265.14
586.472	248.09
586.674	237.63
586.875	266.11
587.077	248.87
587.278	247.51
587.48	263.01
587.681	361.24
587.883	239.37
588.084	197.53
588.285	236.86
588.487	233.76
588.688	267.86
588.89	196.36
589.091	213.41
589.292	241.31
589.494	222.91
589.695	223.49
589.896	176.21
590.098	186.09
590.299	240.54
590.5	199.08
590.702	207.21
590.903	211.86
591.104	256.81
591.305	205.86
591.507	263.4
591.708	236.47
591.909	201.79
592.11	281.22
592.311	233.95
592.512	233.95
592.714	192.1
592.915	175.24
593.116	189.97
593.317	233.37
593.518	189.19
593.719	220.97
593.92	243.44
594.121	258.75
594.322	239.37
594.523	219.22
594.724	203.73
594.925	213.03
595.126	264.76
595.327	254.1
595.528	256.42
595.729	224.46
595.929	216.51
596.13	228.72
596.331	213.22
596.532	223.87
596.733	253.91
596.934	263.79
597.135	273.47
597.335	231.04
597.536	216.32
597.737	245.38
597.938	180.48
598.138	251.77
598.339	208.76
598.54	236.47
598.74	243.06
598.941	247.71
599.142	275.8
599.342	257.59
599.543	170.21
599.744	233.17
599.944	235.5
600.145	218.45
600.345	204.11
600.546	288.01
600.746	256.04
600.947	304.47
601.147	261.46
601.348	257.39
601.548	217.29
601.749	226.97
601.949	203.14
602.15	226.39
602.35	251.97
602.551	265.14
602.751	191.13
602.951	215.16
603.152	187.26
603.352	257.39
603.552	215.93
603.753	257.01
603.953	221.94
604.153	229.69
604.354	226.59
604.554	231.82
604.754	228.52
604.954	194.62
605.155	211.48
605.355	197.14
605.555	251.97
605.755	281.42
605.955	209.54
606.155	252.94
606.356	235.89
606.556	236.08
606.756	233.37
606.956	160.71
607.156	259.52
607.356	193.65
607.556	255.65
607.756	238.99
607.956	268.05
608.156	262.24
608.356	207.41
608.556	269.79
608.756	225.62
608.956	233.37
609.156	245.96
609.356	198.49
609.556	199.27
609.755	233.95
609.955	195.2
610.155	242.67
610.355	222.71
610.555	231.04
610.755	231.04
610.954	176.79
611.154	226.39
611.354	262.24
611.554	214.77
611.753	189.58
611.953	186.29
612.153	233.17
612.352	217.68
612.552	174.66
612.752	159.74
612.951	194.23
613.151	218.64
613.351	200.24
613.55	237.24
613.75	247.9
613.949	217.68
614.149	226.97
614.348	219.42
614.548	189.39
614.747	166.53
614.947	197.33
615.146	138.63
615.346	244.99
615.545	211.09
615.745	244.22
615.944	243.25
616.144	196.36
616.343	285.87
616.542	197.33
616.742	258.94
616.941	209.54
617.14	152.38
617.34	231.04
617.539	207.02
617.738	182.22
617.938	264.95
618.137	213.22
618.336	166.14
618.535	223.29
618.734	207.02
618.934	216.9
619.133	215.35
619.332	224.65
619.531	188.61
619.73	205.08
619.929	262.04
620.128	214.38
620.328	267.86
620.527	168.46
620.726	169.82
620.925	188.81
621.124	184.93
621.323	210.31
621.522	165.36
621.721	142.5
621.92	167.88
622.119	219.22
622.318	186.48
622.517	207.99
622.715	199.27
622.914	131.46
623.113	170.4
623.312	121.96
623.511	217.87
623.71	183.77
623.909	192.88
624.107	226.39
624.306	173.31
624.505	179.51
624.704	197.14
624.902	181.83
625.101	232.4
625.3	223.87
625.499	191.91
625.697	167.11
625.896	175.24
626.095	195.78
626.293	133.39
626.492	142.5
626.69	231.04
626.889	156.26
627.088	212.44
627.286	151.03
627.485	162.26
627.683	129.13
627.882	213.41
628.08	125.65
628.279	175.44
628.477	249.45
628.676	188.61
628.874	203.14
629.073	150.83
629.271	171.95
629.469	196.17
629.668	203.34
629.866	201.79
630.065	150.06
630.263	205.47
630.461	173.11
630.66	163.43
630.858	199.27
631.056	216.51
631.254	205.66
631.453	152.38
631.651	208.96
631.849	182.99
632.047	218.84
632.245	186.29
632.444	189.58
632.642	201.21
632.84	201.79
633.038	176.41
633.236	153.93
633.434	146.18
633.632	151.8
633.83	156.84
634.028	188.03
634.227	178.15
634.425	246.35
634.623	169.43
634.821	187.06
635.019	162.46
635.216	138.63
635.414	201.4
635.612	182.03
635.81	199.08
636.008	240.34
636.206	146.18
636.404	198.88
636.602	146.18
636.8	176.21
636.997	187.26
637.195	211.48
637.393	160.71
637.591	247.9
637.789	187.26
637.986	144.63
638.184	164.78
638.382	208.76
638.58	204.5
638.777	257.2
638.975	167.3
639.173	170.01
639.37	195.39
639.568	186.09
639.765	193.65
639.963	181.44
640.161	223.87
640.358	216.71
640.556	171.76
640.753	126.42
640.951	153.74
641.148	197.72
641.346	167.3
641.543	184.54
641.741	188.61
641.938	136.49
642.136	206.24
642.333	145.41
642.531	217.48
642.728	246.16
642.925	192.68
643.123	150.83
643.32	198.69
643.517	137.08
643.715	190.74
643.912	164.39
644.109	204.5
644.306	172.73
644.504	140.37
644.701	193.46
644.898	174.28
645.095	127.2
645.293	164.01
645.49	209.54
645.687	165.94
645.884	193.84
646.081	118.28
646.278	141.53
646.475	182.41
646.672	155.87
646.87	178.15
647.067	197.14
647.264	171.56
647.461	159.55
647.658	142.69
647.855	190.36
648.052	191.71
648.249	98.13
648.446	142.89
648.642	136.49
648.839	151.8
649.036	154.71
649.233	130.1
649.43	138.24
649.627	137.08
649.824	146.38
650.021	166.14
650.217	145.99
650.414	133.78
650.611	156.45
650.808	190.74
651.004	166.53
651.201	186.09
651.398	191.71
651.595	140.37
651.791	129.33
651.988	182.61
652.185	141.53
652.381	156.84
652.578	129.71
652.775	157.03
652.971	146.96
653.168	124.1
653.364	162.46
653.561	112.47
653.757	137.08
653.954	159.36
654.15	129.33
654.347	235.11
654.543	156.84
654.74	129.91
654.936	83.6
655.133	158.58
655.329	160.91
655.525	135.33
655.722	194.23
655.918	143.08
656.115	176.79
656.311	122.55
656.507	128.16
656.704	100.65
656.9	111.7
657.096	112.66
657.292	102.01
657.489	166.33
657.685	164.59
657.881	112.66
658.077	131.07
658.273	132.43
658.47	184.16
658.666	147.93
658.862	146.57
659.058	125.65
659.254	180.48
659.45	114.41
659.646	150.64
659.842	122.55
660.038	182.03
660.234	115.38
660.43	129.33
660.626	206.83
660.822	198.49
661.018	175.63
661.214	156.45
661.41	98.33
661.606	173.31
661.802	156.06
661.998	150.64
662.194	102.01
662.39	174.28
662.586	139.01
662.781	157.42
662.977	163.62
663.173	166.33
663.369	151.03
663.564	162.26
663.76	168.46
663.956	146.18
664.152	212.06
664.347	102.01
664.543	146.38
664.739	148.51
664.934	105.69
665.13	78.37
665.326	184.93
665.521	156.45
665.717	101.62
665.912	140.18
666.108	66.16
666.304	144.44
666.499	128.94
666.695	75.46
666.89	133.98
667.086	154.51
667.281	145.41
667.477	196.56
667.672	152.77
667.867	156.26
668.063	150.06
668.258	112.47
668.454	118.28
668.649	199.66
668.844	133.39
669.04	152.58
669.235	112.86
669.43	105.11
669.626	94.45
669.821	110.34
670.016	130.1
670.211	136.88
670.407	120.8
670.602	112.86
670.797	120.41
670.992	158
671.187	108.01
671.382	161.88
671.578	115.57
671.773	141.92
671.968	121
672.163	125.06
672.358	168.08
672.553	117.31
672.748	103.75
672.943	184.74
673.138	143.28
673.333	162.46
673.528	103.75
673.723	173.5
673.918	133.59
674.113	119.06
674.308	222.91
674.503	169.82
674.698	149.09
674.892	144.24
675.087	180.67
675.282	148.7
675.477	130.3
675.672	177.38
675.867	129.13
676.061	113.63
676.256	82.25
676.451	96.58
676.646	133.39
676.84	90.38
677.035	101.04
677.23	92.51
677.424	147.93
677.619	177.18
677.814	177.38
678.008	176.99
678.203	53.96
678.397	95.42
678.592	152.38
678.787	184.54
678.981	127.58
679.176	120.8
679.37	157.61
679.565	101.43
679.759	114.21
679.954	157.03
680.148	174.47
680.342	190.94
680.537	146.57
680.731	120.03
680.926	160.33
681.12	144.83
681.314	83.8
681.509	140.37
681.703	118.67
681.897	153.93
682.092	117.31
682.286	107.24
682.48	193.65
682.674	158.58
682.869	151.22
683.063	115.76
683.257	190.16
683.451	79.53
683.645	154.71
683.839	117.12
684.034	119.64
684.228	144.63
684.422	101.62
684.616	105.69
684.81	151.8
685.004	107.82
685.198	122.74
685.392	153.16
685.586	89.61
685.78	121.38
685.974	153.93
686.168	163.43
686.362	179.12
686.556	121.77
686.75	111.7
686.944	115.57
687.138	175.63
687.331	90.58
687.525	135.72
687.719	60.35
687.913	148.89
688.107	110.15
688.301	105.11
688.494	145.99
688.688	85.15
688.882	70.81
689.076	90.77
689.269	71.2
689.463	171.18
689.657	101.62
689.85	104.14
690.044	83.8
690.238	131.65
690.431	81.47
690.625	79.34
690.818	106.85
691.012	108.21
691.205	118.86
691.399	77.79
691.593	105.11
691.786	178.93
691.98	151.61
692.173	174.86
692.366	141.73
692.56	160.52
692.753	203.92
692.947	102.01
693.14	193.46
693.333	143.47
693.527	99.49
693.72	156.06
693.914	149.48
694.107	145.99
694.3	139.21
694.493	136.11
694.687	163.23
694.88	107.43
695.073	207.21
695.266	156.06
695.46	154.9
695.653	211.86
695.846	173.89
696.039	57.64
696.232	134.17
696.425	162.65
696.618	147.15
696.812	127
697.005	201.79
697.198	234.53
697.391	175.83
697.584	170.01
697.777	212.83
697.97	215.54
698.163	236.08
698.356	177.38
698.549	258.94
698.742	190.74
698.935	165.56
699.127	207.21
699.32	191.52
699.513	178.34
699.706	222.13
699.899	191.71
700.092	185.9
700.285	223.1
700.477	157.03
700.67	218.84
700.863	216.9
701.056	299.24
701.248	232.4
701.441	230.66
701.634	215.35
701.826	303.7
702.019	162.65
702.212	271.34
702.404	196.17
702.597	181.06
702.79	230.07
702.982	233.17
703.175	243.06
703.367	269.41
703.56	264.17
703.752	325.4
703.945	266.69
704.137	288.78
704.33	278.71
704.522	270.18
704.715	272.12
704.907	296.34
705.1	299.44
705.292	309.9
705.484	247.9
705.677	303.51
705.869	299.63
706.061	320.75
706.254	329.08
706.446	287.62
706.638	282.19
706.831	350
707.023	294.59
707.215	399.22
707.407	357.95
707.599	375.58
707.792	388.56
707.984	368.22
708.176	406.38
708.368	330.24
708.56	347.29
708.752	366.86
708.944	321.52
709.136	375.97
709.329	335.67
709.521	446.88
709.713	447.85
709.905	409.68
710.097	422.08
710.289	340.51
710.481	395.15
710.672	433.51
710.864	371.32
711.056	444.75
711.248	441.26
711.44	436.61
711.632	407.74
711.824	424.6
712.016	468.58
712.207	415.88
712.399	462.77
712.591	518.56
712.783	469.55
712.975	477.3
713.166	443
713.358	450.56
713.55	514.3
713.741	521.28
713.933	490.28
714.125	494.73
714.316	470.71
714.508	531.93
714.7	562.74
714.891	525.15
715.083	614.66
715.274	521.86
715.466	541.62
715.657	548.01
715.849	458.12
716.04	573.78
716.232	452.3
716.423	589.67
716.615	514.69
716.806	508.68
716.998	505
717.189	502.29
717.381	431.18
717.572	435.06
717.763	500.74
717.955	487.37
718.146	501.9
718.337	456.18
718.528	422.85
718.72	396.12
718.911	474
719.102	445.72
719.293	498.41
719.485	474.39
719.676	456.18
719.867	438.55
720.058	435.64
720.249	445.13
720.44	452.88
720.632	460.05
720.823	486.01
721.014	545.3
721.205	501.13
721.396	554.02
721.587	589.67
721.778	561.58
721.969	581.53
722.16	652.44
722.351	575.53
722.542	703.21
722.733	690.61
722.924	600.52
723.115	660.58
723.305	697.01
723.496	645.47
723.687	604.01
723.878	637.72
724.069	609.63
724.26	667.56
724.45	613.89
724.641	598.19
724.832	632.68
725.023	667.36
725.213	622.8
725.404	621.06
725.595	661.94
725.785	609.24
725.976	655.93
726.167	632.68
726.357	634.62
726.548	733.43
726.739	675.69
726.929	687.9
727.12	681.31
727.31	729.17
727.501	719.67
727.691	715.22
727.882	716.77
728.072	750.48
728.263	719.67
728.453	749.7
728.644	764.62
728.834	737.89
729.024	744.67
729.215	729.56
729.405	732.85
729.596	825.65
729.786	804.34
729.976	800.47
730.167	817.52
730.357	773.54
730.547	759.59
730.737	808.22
730.928	854.72
731.118	878.55
731.308	817.71
731.498	833.02
731.688	895.02
731.879	866.53
732.069	910.52
732.259	899.47
732.449	854.13
732.639	963.6
732.829	965.35
733.019	963.99
733.209	984.14
733.399	995.18
733.589	1024.83
733.779	1019.79
733.969	1000.03
734.159	1046.72
734.349	1063.19
734.539	1100.58
734.729	1050.59
734.919	1147.27
735.109	1151.34
735.299	1106.59
735.488	1108.33
735.678	1131
735.868	1124.99
736.058	1113.17
736.248	1127.9
736.437	1075.39
736.627	1067.06
736.817	1160.84
737.007	1154.64
737.196	1191.64
737.386	1143.01
737.576	1096.51
737.765	1163.94
737.955	1152.31
738.144	1249.38
738.334	1155.99
738.524	1155.41
738.713	1210.24
738.903	1182.54
739.092	1237.56
739.282	1214.7
739.471	1222.25
739.661	1200.94
739.85	1214.5
740.04	1253.25
740.229	1305.18
740.419	1284.06
740.608	1255.77
740.797	1257.32
740.987	1309.25
741.176	1332.3
741.365	1264.1
741.555	1272.43
741.744	1317.77
741.933	1268.37
742.123	1346.83
742.312	1356.71
742.501	1368.34
742.69	1371.63
742.88	1286
743.069	1393.91
743.258	1316.61
743.447	1389.65
743.636	1376.86
743.825	1333.85
744.014	1328.04
744.204	1377.45
744.393	1339.47
744.582	1403.21
744.771	1429.95
744.96	1328.82
745.149	1360.78
745.338	1337.73
745.527	1360.59
745.716	1376.28
745.905	1343.54
746.094	1396.82
746.283	1379.38
746.471	1426.08
746.66	1468.12
746.849	1410.77
747.038	1441.19
747.227	1398.76
747.416	1467.34
747.604	1403.99
747.793	1418.52
747.982	1412.13
748.171	1405.35
748.359	1455.53
748.548	1423.75
748.737	1391.01
748.926	1402.44
749.114	1353.62
749.303	1399.34
749.491	1403.41
749.68	1382.1
749.869	1454.94
750.057	1427.82
750.246	1401.66
750.434	1405.35
750.623	1445.64
750.811	1423.17
751	1424.33
751.188	1406.9
751.377	1460.37
751.565	1405.35
751.754	1379.77
751.942	1422.4
752.131	1462.11
752.319	1377.25
752.507	1377.64
752.696	1434.02
752.884	1455.72
753.072	1410.77
753.261	1411.93
753.449	1399.34
753.637	1419.88
753.825	1479.55
754.014	1412.9
754.202	1425.5
754.39	1453.2
754.578	1452.62
754.766	1375.12
754.955	1395.85
755.143	1488.27
755.331	1385.97
755.519	1390.23
755.707	1423.56
755.895	1404.18
756.083	1454.94
756.271	1352.07
756.459	1376.09
756.647	1438.09
756.835	1396.24
757.023	1393.91
757.211	1366.79
757.399	1376.67
757.587	1398.56
757.775	1368.73
757.963	1368.73
758.151	1399.53
758.339	1368.34
758.526	1358.46
758.714	1385
758.902	1365.43
759.09	1311.96
759.278	1214.31
759.465	1131
759.653	961.86
759.841	904.32
760.028	749.32
760.216	639.27
760.404	666.59
760.591	547.63
760.779	416.27
760.967	366.86
761.154	282.77
761.342	350.97
761.529	358.92
761.717	364.15
761.905	315.71
762.092	401.54
762.28	337.6
762.467	355.62
762.655	311.25
762.842	349.62
763.029	352.72
763.217	352.52
763.404	373.64
763.592	333.92
763.779	285.29
763.966	351.75
764.154	385.46
764.341	417.82
764.528	431.38
764.716	446.49
764.903	428.28
765.09	472.84
765.277	489.89
765.465	605.36
765.652	573.59
765.839	633.07
766.026	694.29
766.213	708.63
766.4	715.8
766.588	845.42
766.775	824.88
766.962	881.45
767.149	904.12
767.336	954.11
767.523	936.09
767.71	1007.19
767.897	1067.26
768.084	1120.34
768.271	1110.46
768.458	1145.34
768.645	1158.71
768.832	1137.78
769.019	1117.05
769.206	1187.96
769.392	1218.96
769.579	1280.18
769.766	1238.72
769.953	1200.55
770.14	1259.45
770.327	1261
770.513	1279.22
770.7	1349.16
770.887	1213.54
771.073	1277.28
771.26	1278.05
771.447	1211.02
771.634	1225.16
771.82	1348.77
772.007	1237.95
772.193	1248.6
772.38	1315.25
772.567	1265.27
772.753	1248.8
772.94	1323
773.126	1344.12
773.313	1329.59
773.499	1319.13
773.686	1316.22
773.872	1292.97
774.059	1308.67
774.245	1234.27
774.432	1258.29
774.618	1221.29
774.804	1275.73
774.991	1216.44
775.177	1285.61
775.363	1277.67
775.55	1288.13
775.736	1256.74
775.922	1236.59
776.109	1262.55
776.295	1264.49
776.481	1268.75
776.667	1276.12
776.853	1239.69
777.04	1220.9
777.226	1228.84
777.412	1298.2
777.598	1220.9
777.784	1209.27
777.97	1222.64
778.156	1255.39
778.342	1233.88
778.528	1220.32
778.715	1203.27
778.901	1222.45
779.087	1230.2
779.272	1196.87
779.458	1198.04
779.644	1248.8
779.83	1202.1
780.016	1317
780.202	1248.41
780.388	1193.39
780.574	1155.8
780.76	1203.85
780.946	1232.52
781.131	1231.55
781.317	1192.61
781.503	1186.02
781.689	1158.9
781.874	1300.92
782.06	1227.87
782.246	1218.19
782.432	1171.88
782.617	1212.37
782.803	1232.72
782.989	1114.92
783.174	1150.57
783.36	1142.43
783.545	1182.54
783.731	1164.32
783.916	1105.62
784.102	1155.8
784.288	1161.22
784.473	1185.05
784.659	1169.36
784.844	1226.71
785.029	1136.04
785.215	1133.91
785.4	1101.55
785.586	1215.47
785.771	1127.71
785.956	1169.17
786.142	1170.14
786.327	1089.15
786.512	1135.26
786.698	1114.34
786.883	1083.14
787.068	1104.65
787.254	1116.47
787.439	1094.57
787.624	1111.82
787.809	1110.27
787.994	1123.25
788.18	1152.7
788.365	1076.75
788.55	1104.26
788.735	1101.55
788.92	1095.74
789.105	1088.57
789.29	1104.84
789.475	1086.05
789.66	1074.43
789.845	1076.75
790.03	1038.58
790.215	1044.98
790.4	1089.73
790.585	1121.12
790.77	1064.35
790.955	996.73
791.14	1067.45
791.325	1111.43
791.51	986.66
791.695	1050.98
791.879	1023.66
792.064	986.46
792.249	1087.02
792.434	1058.34
792.618	1053.5
792.803	1073.26
792.988	1013.59
793.173	1066.87
793.357	1084.31
793.542	1025.99
793.727	1042.07
793.911	1084.69
794.096	1034.71
794.281	1053.5
794.465	1155.61
794.65	1038.78
794.834	1060.09
795.019	1080.24
795.203	1054.08
795.388	1084.69
795.572	1111.62
795.757	1069.58
795.941	1077.72
796.126	1081.21
796.31	1033.74
796.494	1065.71
796.679	1036.06
796.863	1047.88
797.048	1126.93
797.232	1106.01
797.416	1061.06
797.601	1057.38
797.785	1104.26
797.969	1114.34
798.153	1033.54
798.338	1061.83
798.522	1085.28
798.706	1073.46
798.89	1113.17
799.074	1167.62
799.258	1112.59
799.443	1088.96
799.627	1061.64
799.811	1108.91
799.995	1065.9
800.179	1074.62
800.363	1076.56
800.547	1062.03
800.731	1123.44
800.915	1027.34
801.099	1069.39
801.283	1093.22
801.467	1050.01
801.651	1084.31
801.835	1120.73
802.019	1064.54
802.202	1084.69
802.386	1046.33
802.57	1060.48
802.754	1037.23
802.938	1035.87
803.121	1053.69
803.305	1106.59
803.489	1068.03
803.673	1065.32
803.856	1090.51
804.04	1094.38
804.224	1088.18
804.407	1069.58
804.591	1090.31
804.775	1110.07
804.958	1089.54
805.142	1153.47
805.326	1049.24
805.509	1085.47
805.693	1114.14
805.876	1116.27
806.06	1069.19
806.243	1094.19
806.427	1155.8
806.61	1128.09
806.794	1074.23
806.977	1101.55
807.16	1080.04
807.344	1094.96
807.527	1100.39
807.71	1038.39
807.894	1083.14
808.077	1123.25
808.26	1053.89
808.444	1065.13
808.627	1104.07
808.81	1058.73
808.993	1049.04
809.177	1063.58
809.36	1078.3
809.543	1079.66
809.726	955.27
809.909	1009.71
810.092	988.4
810.276	983.95
810.459	1010.88
810.642	989.95
810.825	1006.81
811.008	1014.75
811.191	938.41
811.374	956.43
811.557	942.68
811.74	1042.84
811.923	911.48
812.106	913.23
812.289	908.97
812.472	932.02
812.654	948.68
812.837	897.92
813.02	875.06
813.203	906.83
813.386	811.9
813.569	841.15
813.751	790.97
813.934	882.23
814.117	860.72
814.3	791.94
814.482	817.52
814.665	782.64
814.848	776.05
815.03	751.64
815.213	786.13
815.396	748.54
815.578	747.38
815.761	727.42
815.943	766.75
816.126	662.91
816.309	685.96
816.491	669.11
816.674	601.49
816.856	668.91
817.039	658.26
817.221	699.33
817.403	685.38
817.586	685.96
817.768	710.57
817.951	625.9
818.133	587.93
818.315	637.91
818.498	700.49
818.68	720.06
818.862	675.69
819.045	717.54
819.227	683.83
819.409	676.47
819.591	692.36
819.774	676.66
819.956	630.36
820.138	726.07
820.32	719.09
820.502	726.84
820.684	751.06
820.866	758.23
821.048	769.47
821.231	752.22
821.413	743.7
821.595	759.2
821.777	738.47
821.959	737.5
822.141	791.55
822.323	731.3
822.505	711.92
822.686	681.51
822.868	670.46
823.05	613.31
823.232	608.46
823.414	571.84
823.596	612.92
823.778	582.5
823.96	642.76
824.141	563.32
824.323	617.76
824.505	655.54
824.687	675.11
824.868	691.19
825.05	738.08
825.232	747.77
825.413	812.29
825.595	770.05
825.777	699.14
825.958	731.11
826.14	758.04
826.321	773.15
826.503	752.42
826.685	746.22
826.866	785.74
827.048	748.35
827.229	727.81
827.411	692.94
827.592	687.32
827.773	717.93
827.955	681.12
828.136	715.61
828.318	639.27
828.499	706.69
828.68	651.48
828.862	696.81
829.043	709.02
829.224	714.25
829.406	656.51
829.587	648.38
829.768	625.9
829.949	681.7
830.131	638.88
830.312	713.28
830.493	677.63
830.674	696.04
830.855	670.85
831.036	648.76
831.218	729.36
831.399	725.1
831.58	701.46
831.761	687.9
831.942	704.56
832.123	669.11
832.304	606.72
832.485	672.98
832.666	668.52
832.847	679.37
833.028	666.39
833.209	669.49
833.389	677.63
833.57	599.55
833.751	650.12
833.932	685.77
834.113	649.54
834.294	671.24
834.475	693.71
834.655	699.91
834.836	725.87
835.017	696.81
835.198	618.73
835.378	686.54
835.559	699.33
835.74	671.43
835.92	667.17
836.101	667.36
836.281	701.85
836.462	680.54
836.643	714.25
836.823	729.36
837.004	703.98
837.184	757.65
837.365	696.04
837.545	717.35
837.726	695.46
837.906	751.25
838.087	711.34
838.267	695.65
838.448	670.46
838.628	680.34
838.808	701.66
838.989	733.04
839.169	636.75
839.349	718.51
839.53	734.79
839.71	717.54
839.89	711.34
840.07	768.11
840.251	673.17
840.431	732.85
840.611	717.54
840.791	643.53
840.971	705.34
841.151	691.19
841.332	678.02
841.512	731.3
841.692	651.48
841.872	695.26
842.052	698.36
842.232	728.59
842.412	651.09
842.592	712.51
842.772	692.16
842.952	702.62
843.132	663.49
843.312	670.46
843.492	664.26
843.672	727.42
843.851	647.99
844.031	684.99
844.211	666.97
844.391	678.99
844.571	693.71
844.751	727.42
844.93	671.04
845.11	632.68
845.29	685.77
845.47	685.38
845.649	672.4
845.829	702.24
846.009	645.47
846.188	688.87
846.368	655.54
846.547	694.1
846.727	710.57
846.907	638.49
847.086	660
847.266	706.31
847.445	682.67
847.625	638.88
847.804	627.26
847.984	667.75
848.163	658.64
848.343	647.79
848.522	682.86
848.701	674.53
848.881	639.85
849.06	642.56
849.239	677.82
849.419	683.44
849.598	613.11
849.777	631.33
849.957	653.61
850.136	594.51
850.315	573.2
850.494	614.28
850.674	601.68
850.853	660.58
851.032	621.44
851.211	668.72
851.39	626.48
851.569	558.09
851.748	585.02
851.927	633.26
852.107	621.44
852.286	567.2
852.465	564.1
852.644	645.86
852.823	621.25
853.002	618.73
853.181	598.39
853.359	633.65
853.538	598.97
853.717	617.57
853.896	572.62
854.075	543.56
854.254	546.66
854.433	473.62
854.611	551.5
854.79	519.34
854.969	568.94
855.148	583.08
855.327	534.65
855.505	566.61
855.684	519.15
855.863	544.91
856.041	520.89
856.22	556.35
856.399	524.38
856.577	585.41
856.756	587.15
856.934	670.27
857.113	691
857.291	576.88
857.47	553.25
857.648	599.16
857.827	603.43
858.005	608.27
858.184	578.04
858.362	651.48
858.541	570.1
858.719	617.38
858.898	583.47
859.076	560.03
859.254	649.93
859.433	569.13
859.611	584.24
859.789	505.39
859.967	643.92
860.146	658.26
860.324	537.75
860.502	551.5
860.68	520.5
860.859	555.38
861.037	535.61
861.215	578.24
861.393	562.55
861.571	567.58
861.749	545.69
861.927	563.71
862.105	572.04
862.283	568.36
862.461	545.3
862.639	499.19
862.817	549.95
862.995	544.33
863.173	540.85
863.351	561.38
863.529	552.28
863.707	582.69
863.885	548.98
864.063	473.42
864.241	518.95
864.418	593.35
864.596	510.43
864.774	487.95
864.952	533.48
865.129	590.83
865.307	508.88
865.485	511.2
865.663	566.81
865.84	474.58
866.018	558.86
866.196	435.64
866.373	482.53
866.551	483.11
866.728	394.18
866.906	450.75
867.084	461.99
867.261	506.94
867.439	490.28
867.616	538.91
867.794	497.06
867.971	517.4
868.149	487.95
868.326	547.63
868.503	538.71
868.681	498.22
868.858	461.6
869.035	459.28
869.213	544.33
869.39	486.4
869.567	578.43
869.745	472.07
869.922	501.32
870.099	534.06
870.276	536.78
870.454	525.15
870.631	536.2
870.808	496.67
870.985	533.68
871.162	566.42
871.339	524.18
871.517	502.68
871.694	479.43
871.871	483.88
872.048	481.75
872.225	475.94
872.402	500.16
872.579	438.74
872.756	487.37
872.933	477.3
873.11	457.53
873.287	489.7
873.463	451.92
873.64	453.47
873.817	524.38
873.994	474.39
874.171	483.88
874.348	460.44
874.524	439.52
874.701	469.35
874.878	402.9
875.055	474.97
875.231	468.77
875.408	502.87
875.585	413.94
875.762	485.05
875.938	452.5
876.115	464.12
876.291	459.08
876.468	438.55
876.645	417.43
876.821	460.25
876.998	454.24
877.174	472.65
877.351	455.4
877.527	421.3
877.704	454.63
877.88	433.12
878.057	407.74
878.233	505.2
878.409	437
878.586	421.69
878.762	428.67
878.938	426.73
879.115	385.27
879.291	406.38
879.467	441.07
879.644	403.28
879.82	486.98
879.996	379.07
880.172	372.29
880.349	440.1
880.525	457.34
880.701	411.03
880.877	371.32
881.053	454.24
881.229	416.65
881.405	476.91
881.581	389.92
881.757	393.02
881.933	427.7
882.109	463.15
882.285	419.95
882.461	387.01
882.637	399.99
882.813	407.35
882.989	413.36
883.165	479.43
883.341	374.22
883.517	432.54
883.693	433.9
883.869	458.7
884.044	397.86
884.22	434.67
884.396	442.03
884.572	435.45
884.747	451.92
884.923	462.18
885.099	468.19
885.275	440.29
885.45	382.36
885.626	406
885.801	413.75
885.977	411.03
886.153	392.24
886.328	428.47
886.504	413.75
886.679	429.83
886.855	368.41
887.03	421.11
887.206	452.69
887.381	443.39
887.557	431.38
887.732	434.67
887.908	465.87
888.083	456.37
888.258	427.7
888.434	415.3
888.609	408.13
888.784	463.73
888.96	401.15
889.135	398.63
889.31	353.69
889.485	432.93
889.661	400.38
889.836	445.13
890.011	387.59
890.186	388.95
890.361	393.6
890.537	412.58
890.712	424.98
890.887	406.77
891.062	412.2
891.237	458.12
891.412	398.83
891.587	409.68
891.762	446.68
891.937	453.47
892.112	396.31
892.287	403.48
892.462	384.88
892.637	336.25
892.812	360.08
892.987	364.34
893.161	364.54
893.336	380.42
893.511	377.13
893.686	367.25
893.861	402.9
894.035	374.42
894.21	391.27
894.385	335.67
894.56	367.25
894.734	332.76
894.909	325.4
895.084	326.75
895.258	339.93
895.433	366.28
895.608	344.97
895.782	309.12
895.957	324.82
896.131	311.25
896.306	313.39
896.48	291.3
896.655	318.04
896.829	248.29
897.004	258.75
897.178	261.66
897.353	257.2
897.527	325.01
897.701	291.69
897.876	212.64
898.05	315.32
898.224	295.76
898.399	312.42
898.573	269.99
898.747	222.52
898.921	284.52
899.096	208.96
899.27	231.82
899.444	220.39
899.618	215.16
899.792	236.66
899.967	228.91
900.141	273.47
900.315	192.68
900.489	230.66
900.663	249.84
900.837	246.74
901.011	212.44
901.185	294.4
901.359	266.89
901.533	234.14
901.707	261.85
901.881	244.02
902.055	183.38
902.229	260.11
902.403	307.19
902.576	233.17
902.75	240.15
902.924	347.68
903.098	282
903.272	278.71
903.446	319.97
903.619	279.48
903.793	297.5
903.967	291.88
904.14	316.29
904.314	315.13
904.488	318.04
904.661	334.12
904.835	300.21
905.009	340.9
905.182	367.64
905.356	294.4
905.529	290.14
905.703	287.42
905.876	300.6
906.05	270.96
906.223	250.61
906.397	224.07
906.57	188.03
906.744	222.91
906.917	201.79
907.09	224.46
907.264	227.56
907.437	208.96
907.61	181.44
907.784	211.28
907.957	228.14
908.13	223.29
908.304	248.87
908.477	196.75
908.65	250.81
908.823	169.63
908.996	279.87
909.17	221.55
909.343	206.83
909.516	225.81
909.689	236.66
909.862	212.06
910.035	201.79
910.208	210.12
910.381	208.38
910.554	298.08
910.727	216.71
910.9	228.91
911.073	190.94
911.246	274.06
911.419	238.6
911.592	240.54
911.765	191.91
911.938	176.21
912.11	219.22
912.283	209.93
912.456	250.22
912.629	229.11
912.802	220.58
912.974	166.72
913.147	171.56
913.32	150.83
913.493	195.2
913.665	228.33
913.838	197.14
914.01	168.27
914.183	176.41
914.356	165.17
914.528	210.7
914.701	254.49
914.873	214.77
915.046	177.38
915.218	180.09
915.391	152.96
915.563	143.66
915.736	208.38
915.908	213.41
916.081	182.99
916.253	128.55
916.425	169.04
916.598	172.92
916.77	174.86
916.942	134.56
917.115	112.28
917.287	193.46
917.459	167.49
917.632	165.94
917.804	116.35
917.976	197.91
918.148	143.47
918.32	180.67
918.493	197.72
918.665	199.46
918.837	164.2
919.009	206.44
919.181	238.41
919.353	191.33
919.525	175.44
919.697	170.01
919.869	174.08
920.041	220
920.213	279.48
920.385	188.61
920.557	189.19
920.729	191.33
920.901	215.93
921.073	180.09
921.244	141.73
921.416	241.12
921.588	212.64
921.76	161.68
921.932	252.94
922.103	187.45
922.275	189.58
922.447	172.92
922.619	127.97
922.79	150.06
922.962	165.94
923.134	211.48
923.305	158.39
923.477	108.98
923.648	153.54
923.82	170.01
923.991	105.88
924.163	92.32
924.335	131.07
924.506	121.77
924.677	187.64
924.849	141.92
925.02	154.13
925.192	174.66
925.363	141.73
925.535	155.48
925.706	137.66
925.877	164.98
926.049	158.78
926.22	159.36
926.391	187.64
926.562	175.83
926.734	115.76
926.905	193.07
927.076	95.42
927.247	140.56
927.419	106.66
927.59	140.18
927.761	164.59
927.932	116.93
928.103	155.09
928.274	97.55
928.445	101.04
928.616	127.78
928.787	110.92
928.958	158.19
929.129	147.34
929.3	140.37
929.471	95.42
929.642	56.09
929.813	35.75
929.984	115.38
930.155	48.15
930.326	116.93
930.496	82.63
930.667	31.68
930.838	80.31
931.009	41.37
931.18	64.23
931.35	65.58
931.521	90.96
931.692	43.5
931.863	4.75
932.033	56.48
932.204	66.16
932.374	43.5
932.545	26.83
932.716	81.47
932.886	81.86
933.057	-5.91
933.227	48.73
933.398	101.62
933.568	27.8
933.739	-4.94
933.909	13.27
934.08	40.01
934.25	-38.65
934.421	-10.75
934.591	12.11
934.761	-10.37
934.932	-34.97
935.102	26.64
935.272	-12.5
935.443	-15.02
935.613	16.18
935.783	42.14
935.953	-33.62
936.123	158.78
936.294	-27.42
936.464	7.46
936.634	-4.75
936.804	-28.19
936.974	-15.79
937.144	3.39
937.314	16.95
937.484	12.5
937.655	-10.17
937.825	45.82
937.995	-7.85
938.165	70.81
938.334	-0.48
938.504	-2.42
938.674	-42.53
938.844	-32.07
939.014	25.67
939.184	17.53
939.354	77.79
939.524	63.45
939.694	-11.72
939.863	13.47
940.033	81.47
940.203	69.26
940.373	50.66
940.542	79.73
940.712	22.77
940.882	54.54
941.051	46.6
941.221	60.35
941.391	62.29
941.56	-0.29
941.73	-2.23
941.899	124.68
942.069	9.78
942.238	85.54
942.408	31.48
942.577	55.12
942.747	21.8
942.916	-43.88
943.086	-1.45
943.255	48.15
943.425	28.77
943.594	12.69
943.763	-46.4
943.933	-13.27
944.102	-34.97
944.271	40.4
944.441	40.59
944.61	-5.13
944.779	17.92
944.948	102.59
945.117	-48.15
945.287	16.57
945.456	-38.65
945.625	2.62
945.794	32.07
945.963	30.71
946.132	27.61
946.301	-34.58
946.47	41.56
946.639	11.33
946.808	-3.58
946.977	10.75
947.146	40.01
947.315	17.15
947.484	34
947.653	11.33
947.822	-12.5
947.991	-27.61
948.16	94.06
948.329	68.1
948.498	-0.87
948.666	6.88
948.835	29.35
949.004	-10.75
949.173	-26.64
949.341	30.13
949.51	41.37
949.679	45.63
949.847	41.56
950.016	95.23
950.185	65
950.353	-4.36
950.522	1.45
950.69	57.06
950.859	-12.5
951.028	32.26
951.196	8.82
951.365	14.24
951.533	-3.39
951.701	32.45
951.87	52.41
952.038	6.88
952.207	18.5
952.375	81.28
952.543	8.82
952.712	0.1
952.88	-4.94
953.048	63.45
953.217	30.32
953.385	11.33
953.553	48.53
953.721	-26.83
953.89	11.92
954.058	-17.34
954.226	-13.27
954.394	51.25
954.562	-27.22
954.73	36.13
954.898	19.86
955.067	28.19
955.235	9.2
955.403	50.66
955.571	79.53
955.739	27.61
955.907	-30.32
956.075	15.6
956.243	12.69
956.41	50.47
956.578	-11.14
956.746	-19.86
956.914	4.94
957.082	47.18
957.25	28
957.418	-29.35
957.585	26.83
957.753	40.2
957.921	-24.12
958.089	29.55
958.256	43.5
958.424	31.48
958.592	49.89
958.759	-2.42
958.927	44.27
959.095	-4.94
959.262	12.11
959.43	36.52
959.597	-6.3
959.765	8.82
959.932	-13.08
960.1	53.57
960.267	24.7
960.435	9.59
960.602	37.68
960.77	-1.84
960.937	3.97
961.104	9.01
961.272	-21.6
961.439	-13.08
961.606	62.48
961.774	33.62
961.941	6.68
962.108	33.03
962.275	23.73
962.443	55.9
962.61	34
962.777	80.31
962.944	22.96
963.111	16.18
963.278	10.17
963.446	39.23
963.613	19.67
963.78	43.88
963.947	43.3
964.114	47.37
964.281	65
964.448	52.02
964.615	9.78
964.782	29.74
964.949	77.4
965.116	15.02
965.282	70.04
965.449	55.12
965.616	-4.36
965.783	63.06
965.95	49.31
966.117	-21.41
966.283	31.1
966.45	30.9
966.617	40.59
966.784	85.54
966.95	45.24
967.117	52.6
967.284	-17.15
967.45	-10.17
967.617	64.42
967.784	31.87
967.95	92.32
968.117	45.43
968.283	60.74
968.45	117.7
968.616	37.68
968.783	75.27
968.949	12.3
969.116	42.72
969.282	19.67
969.449	35.17
969.615	37.49
969.781	-11.33
969.948	35.36
970.114	-18.12
970.28	79.73
970.447	21.8
970.613	70.43
970.779	28.19
970.945	36.72
971.112	34
971.278	26.06
971.444	-12.69
971.61	50.08
971.776	27.42
971.942	57.83
972.108	62.1
972.275	-2.03
972.441	58.22
972.607	97.55
972.773	34
972.939	33.81
973.105	27.03
973.271	5.13
973.437	-4.36
973.602	-0.29
973.768	44.66
973.934	12.3
974.1	44.85
974.266	-33.23
974.432	58.41
974.598	-4.55
974.763	73.91
974.929	9.78
975.095	86.12
975.261	27.61
975.426	-17.34
975.592	22.38
975.758	90.58
975.923	-21.41
976.089	30.13
976.255	42.33
976.42	43.3
976.586	64.61
976.751	27.42
976.917	98.13
977.082	37.3
977.248	-16.18
977.413	-26.45
977.579	32.07
977.744	23.35
977.91	-10.95
978.075	-10.56
978.24	41.56
978.406	19.86
978.571	10.17
978.736	-9.01
978.902	55.51
979.067	-14.82
979.232	-11.53
979.397	18.31
979.563	82.63
979.728	-14.82
979.893	11.33
980.058	6.88
980.223	58.03
980.388	31.48
980.554	24.51
980.719	-11.53
980.884	28
981.049	50.47
981.214	11.33
981.379	12.3
981.544	5.72
981.709	36.33
981.874	9.2
982.039	30.71
982.204	45.82
982.368	24.12
982.533	-1.65
982.698	61.71
982.863	68.68
983.028	23.93
983.193	21.8
983.357	33.81
983.522	7.27
983.687	0.1
983.852	-2.42
984.016	-14.82
984.181	34.2
984.346	34.58
984.51	57.25
984.675	25.48
984.839	64.23
985.004	22.57
985.168	52.41
985.333	56.28
985.498	6.1
985.662	52.41
985.827	31.1
985.991	7.07
986.155	16.76
986.32	66.94
986.484	68.1
986.649	35.55
986.813	-29.55
986.977	20.05
987.142	57.64
987.306	-5.13
987.47	10.56
987.634	4.55
987.799	20.83
987.963	15.98
988.127	66.16
988.291	102.4
988.455	53.96
988.62	28
988.784	50.47
988.948	53.18
989.112	-27.42
989.276	16.18
989.44	9.2
989.604	-13.85
989.768	30.9
989.932	78.76
990.096	6.3
990.26	-32.84
990.424	-40.78
990.588	10.37
990.752	103.36
990.915	39.04
991.079	19.08
991.243	6.88
991.407	38.65
991.571	9.59
991.734	46.79
991.898	27.61
992.062	121.19
992.226	12.5
992.389	-21.02
992.553	-38.46
992.717	5.72
992.88	9.01
993.044	21.02
993.207	21.99
993.371	61.13
993.535	31.1
993.698	13.85
993.862	51.25
994.025	54.35
994.189	45.05
994.352	36.13
994.515	44.08
994.679	61.32
994.842	3.39
995.006	30.13
995.169	-7.27
995.332	-0.87
995.496	55.9
995.659	-30.71
995.822	20.25
995.985	21.02
996.149	35.17
996.312	18.7
996.475	84.57
996.638	16.37
996.801	58.03
996.964	93.87
997.128	-0.48
997.291	21.22
997.454	37.68
997.617	-45.05
997.78	76.43
997.943	19.28
998.106	56.67
998.269	-8.62
998.432	15.6
998.595	34.78
998.758	-19.47
998.92	-8.23
999.083	-20.83
999.246	17.53
999.409	-28.97
999.572	-51.63
999.735	-6.68
999.897	44.85
1000.06	-1.26
1000.223	13.66
1000.386	55.12
1000.548	36.72
1000.711	7.85
1000.874	68.49
1001.036	-24.9
1001.199	66.94
1001.361	3.2
1001.524	36.13
1001.687	64.03
1001.849	-7.65
1002.012	15.21
1002.174	43.5
1002.337	61.13
1002.499	2.03
1002.661	50.47
1002.824	-22.38
1002.986	-15.02
1003.149	12.11
1003.311	-6.49
1003.473	61.32
1003.636	-4.75
1003.798	0.1
1003.96	33.42
1004.123	14.24
1004.285	12.3
1004.447	10.95
1004.609	7.65
1004.771	84.96
1004.933	-42.53
1005.096	-7.27
1005.258	-27.42
1005.42	15.02
1005.582	31.68
1005.744	23.15
1005.906	-39.43
1006.068	20.05
1006.23	-20.63
1006.392	-22.77
1006.554	-10.56
1006.716	49.5
1006.878	40.98
1007.04	-24.12
1007.202	7.85
1007.363	2.62
1007.525	32.84
1007.687	21.6
1007.849	63.26
1008.011	-46.98
1008.172	-43.88
1008.334	-10.37
1008.496	21.22
1008.658	-31.68
1008.819	-31.87
1008.981	-41.37
1009.143	0.48
1009.304	0.1
1009.466	32.26
1009.627	46.4
1009.789	122.35
1009.95	12.3
1010.112	-4.36
1010.273	24.7
1010.435	-15.4
1010.596	-0.1
1010.758	-16.95
1010.919	3.39
1011.081	-13.66
1011.242	-12.69
1011.403	34.97
1011.565	5.72
1011.726	40.59
1011.887	-41.95
1012.049	9.59
1012.21	40.4
1012.371	47.76
1012.532	-74.69
1012.693	-1.26
1012.855	7.07
1013.016	3
1013.177	46.98
1013.338	-14.24
1013.499	88.83
1013.66	29.35
1013.821	42.92
1013.982	29.16
1014.143	26.25
1014.304	-28.19
1014.465	40.78
1014.626	52.6
1014.787	17.73
1014.948	65.2
1015.109	-66.75
1015.27	55.51
1015.431	7.85
1015.592	-17.53
1015.752	54.73
1015.913	39.62
1016.074	29.93
1016.235	7.46
1016.395	26.64
1016.556	15.98
1016.717	-8.04
1016.877	59.19
1017.038	-9.2
1017.199	19.86
1017.359	4.75
1017.52	19.67
1017.681	-14.82
1017.841	0.48
1018.002	1.84
1018.162	-19.08
1018.323	59
1018.483	-8.62
1018.644	-23.35
1018.804	-47.18
1018.964	-33.42
1019.125	-5.13
1019.285	6.1
1019.446	-6.3
1019.606	-29.74
1019.766	-50.86
1019.926	28
1020.087	22.77
1020.247	-34.2
1020.407	34
1020.567	46.4
1020.728	-2.81
1020.888	-37.88
1021.048	-23.54
1021.208	-31.29
1021.368	2.23
1021.528	49.11
1021.688	57.64
1021.848	18.89
1022.008	19.28
1022.168	-47.37
1022.328	29.35
1022.488	15.02
1022.648	-3.2
1022.808	17.15
1022.968	-17.92
1023.128	-27.03
1023.288	-11.72
1023.448	-4.55
1023.608	51.63
1023.767	34.78
1023.927	-23.54
1024.087	-39.23
1024.247	-57.83
1024.406	12.88
1024.566	-24.7
1024.726	-28.19
1024.885	-1.45
1025.045	43.5
1025.205	-9.2
1025.364	5.33
1025.524	4.17
1025.683	-12.5
1025.843	23.93
1026.003	5.72
1026.162	58.41
1026.321	42.72
1026.481	9.98
1026.64	10.95
1026.8	7.85
1026.959	12.11
1027.119	25.48
1027.278	-5.52
1027.437	-41.17
1027.597	1.65
1027.756	9.98
1027.915	8.43
1028.074	13.27
1028.234	-30.52
1028.393	8.04
1028.552	-13.66
1028.711	-70.62
1028.87	28.77
1029.03	-36.72
1029.189	-1.84
1029.348	-46.6
1029.507	-1.65
1029.666	-19.47
1029.825	-28.58
1029.984	-33.81
1030.143	12.5
1030.302	-31.48
1030.461	-49.11
1030.62	1.26
1030.779	13.27
1030.938	-37.49
1031.097	-28.58
1031.255	24.32
1031.414	44.08
1031.573	35.17
1031.732	-50.66
1031.891	-2.42
1032.049	24.9
1032.208	24.51
1032.367	-34.78
1032.525	-4.55
1032.684	-16.18
1032.843	-3.78
1033.001	-77.4
1033.16	154.32
1033.319	43.11
1033.477	23.54
1033.636	15.21
1033.794	-65.39
1033.953	32.65
1034.111	13.08
1034.27	9.4
1034.428	38.27
1034.587	-42.72
1034.745	7.07
1034.903	2.42
1035.062	41.56
1035.22	-32.45
1035.378	10.75
1035.537	-22.77
1035.695	18.89
1035.853	-6.49
1036.011	48.73
1036.17	8.43
1036.328	-65.2
1036.486	-0.87
1036.644	12.69
1036.802	-82.63
1036.96	-35.17
1037.119	4.55
1037.277	-11.72
1037.435	-26.64
1037.593	-46.79
1037.751	-8.62
1037.909	13.27
1038.067	13.27
