Data from pine_FLMT105791__17__17-19-51-080.txt Node

Date: Mon Mar 20 17:19:51 GMT 2023
User: antho
Spectrometer: FLMT10579
Trigger mode: 0
Integration Time (sec): 1.000000E-1
Scans to average: 10
Electric dark correction enabled: true
Nonlinearity correction enabled: false
Boxcar width: 0
XAxis mode: Wavelengths
Number of Pixels in Spectrum: 3648
>>>>>Begin Spectral Data<<<<<
345.248	-174.16
345.464	-174.16
345.681	-174.16
345.898	-174.74
346.114	-181.91
346.331	-42.41
346.548	8.93
346.764	-2.7
346.981	-17.61
347.197	-14.51
347.414	9.12
347.631	-3.86
347.847	61.82
348.064	-5.41
348.28	52.91
348.497	-44.35
348.713	-1.92
348.93	21.13
349.146	9.51
349.363	8.35
349.579	23.46
349.796	-7.35
350.012	-21.49
350.229	29.66
350.445	14.74
350.661	-22.26
350.878	9.12
351.094	4.08
351.311	23.46
351.527	20.94
351.743	-8.7
351.96	19
352.176	37.22
352.392	27.92
352.609	6.02
352.825	-1.92
353.041	13.58
353.257	-0.18
353.474	6.8
353.69	1.37
353.906	4.08
354.122	-11.61
354.339	42.83
354.555	3.5
354.771	-8.7
354.987	53.3
355.203	54.07
355.42	-7.54
355.636	-23.43
355.852	-8.51
356.068	25.78
356.284	-26.72
356.5	83.52
356.716	28.69
356.932	13.38
357.148	47.68
357.364	-12.38
357.58	61.05
357.796	70.35
358.012	40.12
358.228	12.03
358.444	-33.7
358.66	56.01
358.876	31.4
359.092	-13.35
359.308	23.27
359.524	19.78
359.74	-17.61
359.956	-17.03
360.172	13
360.388	54.07
360.604	-1.15
360.819	63.76
361.035	28.3
361.251	34.89
361.467	-1.92
361.683	41.09
361.898	30.24
362.114	28.5
362.33	16.1
362.546	37.99
362.762	15.52
362.977	-18.58
363.193	-32.92
363.409	42.06
363.624	-37.76
363.84	-28.66
364.056	-9.67
364.271	42.83
364.487	22.3
364.703	-30.79
364.918	-6.18
365.134	-10.25
365.35	10.67
365.565	118.78
365.781	23.65
365.996	33.53
366.212	82.55
366.427	38.96
366.643	-19.55
366.858	20.17
367.074	-12.38
367.289	49.42
367.505	112
367.72	-39.51
367.936	-6.38
368.151	54.65
368.367	37.99
368.582	21.13
368.798	-6.96
369.013	43.22
369.228	6.6
369.444	29.08
369.659	76.74
369.874	54.07
370.09	58.72
370.305	-43.77
370.52	-13.16
370.736	61.82
370.951	1.57
371.166	48.45
371.381	70.73
371.597	26.95
371.812	-25.17
372.027	-1.73
372.242	-7.93
372.458	77.32
372.673	11.83
372.888	-2.89
373.103	49.03
373.318	116.07
373.533	64.15
373.749	18.23
373.964	-46.1
374.179	80.03
374.394	-23.23
374.609	48.45
374.824	-27.11
375.039	70.73
375.254	-5.41
375.469	71.51
375.684	32.76
375.899	59.88
376.114	24.23
376.329	22.1
376.544	46.71
376.759	56.01
376.974	-2.5
377.189	28.3
377.404	17.65
377.619	25.4
377.834	-30.79
378.049	-43.58
378.264	-20.33
378.478	33.73
378.693	-19.75
378.908	50.97
379.123	-3.28
379.338	74.22
379.553	36.44
379.767	53.88
379.982	44.77
380.197	46.13
380.412	27.72
380.626	34.5
380.841	92.82
381.056	32.18
381.271	94.76
381.485	-11.03
381.7	-5.41
381.915	19.78
382.129	17.26
382.344	42.06
382.559	-5.41
382.773	68.8
382.988	-7.15
383.202	44.97
383.417	-2.7
383.632	130.41
383.846	37.22
384.061	25.59
384.275	25.59
384.49	44.97
384.704	50.97
384.919	26.17
385.133	24.04
385.348	39.54
385.562	-8.9
385.777	61.24
385.991	24.82
386.206	2.53
386.42	3.31
386.634	63.57
386.849	49.81
387.063	26.37
387.277	-4.83
387.492	-9.09
387.706	14.93
387.92	2.92
388.135	39.93
388.349	29.66
388.563	39.35
388.778	57.95
388.992	70.93
389.206	36.63
389.42	105.41
389.635	19.39
389.849	52.52
390.063	73.64
390.277	46.9
390.491	84.3
390.706	68.41
390.92	54.65
391.134	34.12
391.348	68.02
391.562	7.96
391.776	12.42
391.99	12.03
392.205	28.88
392.419	-0.76
392.633	5.25
392.847	108.51
393.061	-5.6
393.275	68.02
393.489	24.82
393.703	50.39
393.917	76.93
394.131	8.15
394.345	54.46
394.559	46.71
394.773	24.62
394.986	50.97
395.2	30.43
395.414	68.99
395.628	-15.68
395.842	55.43
396.056	35.47
396.27	-29.05
396.484	38.57
396.697	51.17
396.911	71.12
397.125	87.01
397.339	72.09
397.553	63.18
397.766	79.84
397.98	71.9
398.194	71.9
398.408	27.92
398.621	43.22
398.835	48.26
399.049	79.45
399.262	94.76
399.476	85.26
399.69	69.57
399.903	130.8
400.117	53.1
400.331	77.71
400.544	37.22
400.758	166.25
400.971	74.03
401.185	92.24
401.398	17.07
401.612	123.24
401.826	54.85
402.039	88.56
402.253	42.64
402.466	72.48
402.68	57.75
402.893	55.43
403.106	80.03
403.32	52.91
403.533	83.52
403.747	71.9
403.96	56.78
404.174	76.35
404.387	-5.8
404.6	81.97
404.814	99.02
405.027	72.28
405.24	70.15
405.454	43.22
405.667	96.89
405.88	2.53
406.094	73.06
406.307	99.02
406.52	89.53
406.733	46.9
406.947	8.35
407.16	122.85
407.373	130.21
407.586	47.1
407.799	13.19
408.012	78.68
408.226	79.07
408.439	123.82
408.652	10.28
408.865	88.75
409.078	96.11
409.291	75.77
409.504	22.88
409.717	70.93
409.93	116.26
410.143	56.4
410.357	35.28
410.57	24.43
410.783	39.73
410.996	87.59
411.209	52.33
411.421	92.24
411.634	77.32
411.847	30.05
412.06	49.81
412.273	91.27
412.486	91.66
412.699	155.98
412.912	89.14
413.125	113.94
413.338	82.16
413.55	93.98
413.763	92.63
413.976	110.65
414.189	53.68
414.402	78.48
414.615	134.48
414.827	53.88
415.04	103.28
415.253	93.98
415.466	136.22
415.678	147.07
415.891	71.12
416.104	70.54
416.316	76.35
416.529	38.77
416.742	90.69
416.954	126.15
417.167	87.01
417.38	54.46
417.592	144.16
417.805	85.65
418.017	48.84
418.23	127.89
418.442	85.85
418.655	81.39
418.868	106
419.08	119.36
419.293	141.45
419.505	113.16
419.718	115.3
419.93	139.13
420.142	82.16
420.355	132.73
420.567	163.35
420.78	128.28
420.992	85.65
421.205	178.26
421.417	63.76
421.629	74.42
421.842	60.08
422.054	45.74
422.266	130.99
422.479	132.54
422.691	105.41
422.903	136.22
423.115	82.94
423.328	130.02
423.54	125.95
423.752	88.36
423.964	102.51
424.177	133.31
424.389	90.69
424.601	224.57
424.813	117.23
425.025	120.33
425.238	122.46
425.45	107.93
425.662	84.88
425.874	389.84
426.086	139.51
426.298	145.52
426.51	136.61
426.722	118.2
426.934	118.78
427.146	123.43
427.358	64.15
427.57	160.05
427.782	123.05
427.994	123.24
428.206	99.6
428.418	72.28
428.63	143.58
428.842	155.6
429.054	127.7
429.266	157.53
429.478	100.38
429.69	150.36
429.902	110.84
430.114	134.28
430.325	145.71
430.537	105.22
430.749	115.1
430.961	63.95
431.173	104.64
431.384	107.55
431.596	33.92
431.808	118.01
432.02	148.04
432.231	169.35
432.443	189.69
432.655	145.71
432.867	111.03
433.078	164.9
433.29	219.34
433.502	180.2
433.713	208.68
433.925	167.22
434.136	210.81
434.348	105.41
434.56	102.31
434.771	247.63
434.983	129.63
435.194	135.64
435.406	168.58
435.617	212.94
435.829	232.13
436.04	202.29
436.252	226.31
436.463	241.04
436.675	199.19
436.886	206.55
437.098	225.34
437.309	259.83
437.521	196.86
437.732	206.36
437.943	195.51
438.155	208.49
438.366	138.16
438.578	253.83
438.789	205.58
439	203.84
439.211	189.89
439.423	211.01
439.634	231.35
439.845	238.13
440.057	236.97
440.268	243.17
440.479	199.77
440.69	207.91
440.902	203.45
441.113	223.79
441.324	207.13
441.535	240.46
441.746	266.61
441.957	185.63
442.168	193.57
442.38	239.29
442.591	243.56
442.802	212.17
443.013	242.39
443.224	228.25
443.435	227.48
443.646	227.86
443.857	243.56
444.068	212.56
444.279	217.59
444.49	306.14
444.701	238.52
444.912	358.84
445.123	276.11
445.334	280.76
445.545	257.31
445.756	243.56
445.967	238.52
446.178	285.99
446.388	274.36
446.599	283.27
446.81	262.16
447.021	223.6
447.232	284.44
447.443	310.59
447.653	217.21
447.864	311.56
448.075	295.67
448.286	296.84
448.496	287.92
448.707	316.99
448.918	268.94
449.129	341.79
449.339	256.34
449.55	315.44
449.761	259.25
449.971	323.77
450.182	259.44
450.393	309.04
450.603	300.91
450.814	319.12
451.024	285.21
451.235	320.47
451.446	363.87
451.656	357.87
451.867	295.48
452.077	316.02
452.288	382.09
452.498	361.35
452.709	295.67
452.919	336.75
453.13	307.88
453.34	330.74
453.55	226.51
453.761	356.7
453.971	313.5
454.182	331.91
454.392	314.47
454.602	397
454.813	352.25
455.023	377.44
455.233	291.22
455.444	341.21
455.654	269.71
455.864	320.09
456.075	299.16
456.285	296.84
456.495	292.19
456.705	346.05
456.916	365.42
457.126	349.73
457.336	348.37
457.546	273.39
457.756	337.72
457.967	382.09
458.177	337.91
458.387	365.23
458.597	291.8
458.807	328.03
459.017	331.91
459.227	329.77
459.437	334.04
459.647	404.56
459.857	358.64
460.068	306.14
460.278	385.77
460.488	346.82
460.698	413.86
460.908	336.56
461.117	312.14
461.327	300.13
461.537	376.47
461.747	337.52
461.957	341.98
462.167	467.33
462.377	383.44
462.587	372.2
462.797	396.81
463.007	390.42
463.216	391.58
463.426	419.67
463.636	405.14
463.846	304.39
464.056	361.94
464.265	420.06
464.475	358.45
464.685	388.48
464.895	392.16
465.104	342.95
465.314	411.73
465.524	381.5
465.733	379.37
465.943	450.67
466.153	451.64
466.362	426.65
466.572	393.52
466.782	351.86
466.991	418.51
467.201	486.9
467.41	335.39
467.62	408.24
467.829	398.55
468.039	409.02
468.249	383.05
468.458	416.38
468.668	435.75
468.877	437.5
469.086	480.9
469.296	461.52
469.505	409.02
469.715	483.03
469.924	433.82
470.134	460.75
470.343	460.17
470.552	425.49
470.762	433.43
470.971	411.34
471.18	425.49
471.39	438.66
471.599	414.83
471.808	460.17
472.018	385.57
472.227	485.55
472.436	498.92
472.645	457.07
472.855	440.79
473.064	503.18
473.273	474.5
473.482	504.92
473.691	545.61
473.901	508.41
474.11	482.06
474.319	560.72
474.528	492.52
474.737	537.86
474.946	509.77
475.155	512.28
475.364	544.45
475.573	514.42
475.783	515.19
475.992	528.56
476.201	569.44
476.41	513.83
476.619	489.23
476.828	521.2
477.037	493.88
477.245	512.67
477.454	559.95
477.663	555.49
477.872	531.46
478.081	614.58
478.29	495.62
478.499	650.23
478.708	588.04
478.917	617.1
479.125	551.23
479.334	588.04
479.543	565.76
479.752	586.49
479.961	585.33
480.169	616.71
480.378	560.33
480.587	716.3
480.796	624.85
481.004	583.97
481.213	621.17
481.422	617.68
481.63	613.81
481.839	647.91
482.048	679.88
482.256	633.38
482.465	633.18
482.674	678.33
482.882	672.71
483.091	716.49
483.299	656.82
483.508	702.93
483.716	655.66
483.925	645
484.134	655.66
484.342	692.66
484.551	702.74
484.759	702.16
484.967	699.44
485.176	730.64
485.384	705.84
485.593	707
485.801	715.72
486.01	692.47
486.218	641.51
486.426	586.49
486.635	626.59
486.843	629.31
487.051	647.71
487.26	622.53
487.468	687.43
487.676	681.43
487.885	654.11
488.093	703.9
488.301	725.99
488.509	714.17
488.717	754.66
488.926	728.89
489.134	705.84
489.342	745.36
489.55	683.56
489.758	743.04
489.967	736.26
490.175	834.68
490.383	741.29
490.591	850.18
490.799	736.84
491.007	791.67
491.215	775.59
491.423	761.83
491.631	781.79
491.839	793.6
492.047	806.59
492.255	758.92
492.463	732.77
492.671	723.08
492.879	820.92
493.087	796.9
493.295	825.19
493.503	822.28
493.711	844.75
493.919	859.67
494.127	849.99
494.334	858.51
494.542	791.67
494.75	817.44
494.958	824.99
495.166	879.43
495.374	857.15
495.581	877.5
495.789	866.07
495.997	916.05
496.205	856.38
496.412	850.57
496.62	851.34
496.828	898.42
497.035	851.92
497.243	895.9
497.451	863.16
497.658	860.64
497.866	862.97
498.074	942.4
498.281	843.98
498.489	940.27
498.696	883.89
498.904	845.14
499.112	869.94
499.319	930.58
499.527	867.62
499.734	940.47
499.942	834.68
500.149	877.69
500.357	887.38
500.564	856.57
500.771	884.28
500.979	843.79
501.186	862
501.394	865.68
501.601	887.77
501.808	910.43
502.016	892.61
502.223	851.34
502.43	932.91
502.638	876.92
502.845	901.13
503.052	966.43
503.26	895.32
503.467	976.31
503.674	926.9
503.881	928.07
504.089	991.42
504.296	959.26
504.503	853.28
504.71	930.2
504.917	857.74
505.125	955.96
505.332	945.31
505.539	941.24
505.746	1017
505.953	1011.96
506.16	1012.93
506.367	1013.51
506.574	1040.44
506.781	1023.2
506.988	967.01
507.195	990.45
507.402	978.83
507.609	1029.98
507.816	959.84
508.023	957.32
508.23	960.42
508.437	966.81
508.644	1030.56
508.851	1033.46
509.058	1043.34
509.265	1004.98
509.472	1069.69
509.679	1106.51
509.885	1053.03
510.092	1027.26
510.299	1032.3
510.506	1029.78
510.713	1073.18
510.92	1028.23
511.126	1093.14
511.333	1090.43
511.54	1061.17
511.746	1104.18
511.953	1110.58
512.16	1113.29
512.367	1073.96
512.573	1066.4
512.78	1079.96
512.987	1050.32
513.193	1073.57
513.4	981.15
513.606	1050.9
513.813	1099.53
514.02	1081.9
514.226	1151.46
514.433	1149.91
514.639	1035.4
514.846	1084.23
515.052	1072.41
515.259	1088.49
515.465	1103.21
515.672	1083.84
515.878	1183.42
516.085	1110.77
516.291	1138.47
516.497	1115.42
516.704	1079.96
516.91	1049.93
517.117	1014.28
517.323	993.75
517.529	1034.05
517.736	1009.44
517.942	1011.57
518.148	1023.78
518.354	1066.59
518.561	1045.67
518.767	1063.3
518.973	1131.31
519.179	1118.52
519.386	1120.26
519.592	1078.61
519.798	1075.12
520.004	1197.96
520.21	1127.63
520.417	1167.34
520.623	1207.84
520.829	1255.3
521.035	1238.06
521.241	1226.82
521.447	1214.04
521.653	1317.69
521.859	1220.62
522.065	1241.35
522.271	1333.38
522.477	1282.82
522.683	1310.52
522.889	1251.62
523.095	1258.4
523.301	1260.73
523.507	1261.12
523.713	1289.4
523.919	1213.46
524.125	1308
524.331	1302.19
524.537	1338.03
524.742	1347.72
524.948	1352.95
525.154	1366.71
525.36	1444.6
525.566	1353.15
525.772	1363.8
525.977	1325.25
526.183	1396.55
526.389	1399.84
526.595	1320.98
526.8	1302.39
527.006	1245.42
527.212	1199.7
527.417	1216.94
527.623	1226.24
527.829	1306.26
528.034	1303.93
528.24	1314.98
528.446	1310.33
528.651	1392.86
528.857	1376.98
529.062	1420.96
529.268	1406.62
529.473	1425.03
529.679	1423.09
529.884	1510.66
530.09	1452.73
530.295	1481.79
530.501	1474.24
530.706	1437.43
530.912	1427.74
531.117	1428.9
531.323	1483.15
531.528	1496.13
531.733	1494.78
531.939	1415.15
532.144	1510.86
532.35	1428.13
532.555	1507.76
532.76	1441.3
532.966	1451.96
533.171	1444.98
533.376	1403.33
533.581	1427.55
533.787	1462.03
533.992	1501.36
534.197	1470.95
534.402	1465.91
534.607	1438.4
534.813	1523.64
535.018	1435.1
535.223	1465.13
535.428	1479.86
535.633	1532.75
535.838	1561.43
536.043	1508.53
536.249	1616.45
536.454	1543.79
536.659	1589.71
536.864	1517.64
537.069	1536.63
537.274	1529.46
537.479	1525.58
537.684	1555.23
537.889	1503.69
538.094	1639.31
538.299	1531.59
538.504	1583.9
538.708	1573.05
538.913	1588.16
539.118	1540.69
539.323	1580.41
539.528	1511.24
539.733	1525.39
539.938	1543.99
540.142	1597.85
540.347	1525.19
540.552	1497.1
540.757	1536.63
540.962	1522.09
541.166	1477.15
541.371	1494.78
541.576	1532.56
541.781	1440.72
541.985	1574.79
542.19	1553.68
542.395	1565.11
542.599	1625.56
542.804	1571.89
543.008	1625.75
543.213	1516.09
543.418	1517.25
543.622	1596.88
543.827	1502.53
544.031	1620.52
544.236	1642.61
544.44	1583.9
544.645	1679.8
544.849	1597.66
545.054	1628.07
545.258	1701.31
545.463	1637.37
545.667	1543.02
545.872	1639.31
546.076	1600.17
546.281	1589.71
546.485	1587.97
546.689	1643.38
546.894	1654.81
547.098	1635.82
547.302	1602.5
547.507	1614.32
547.711	1619.36
547.915	1690.85
548.119	1575.57
548.324	1607.92
548.528	1674.77
548.732	1612.57
548.936	1654.81
549.141	1698.6
549.345	1621.49
549.549	1638.92
549.753	1630.98
549.957	1708.87
550.161	1750.33
550.366	1667.6
550.57	1631.56
550.774	1660.82
550.978	1668.57
551.182	1657.72
551.386	1604.44
551.59	1611.99
551.794	1613.16
551.998	1686
552.202	1677.09
552.406	1615.67
552.61	1672.64
552.814	1700.73
553.018	1714.29
553.222	1660.04
553.426	1649
553.63	1744.13
553.833	1675.74
554.037	1600.56
554.241	1668.18
554.445	1691.43
554.649	1675.93
554.853	1644.54
555.056	1679.03
555.26	1688.52
555.464	1686.78
555.668	1664.3
555.871	1689.88
556.075	1685.81
556.279	1626.14
556.483	1604.24
556.686	1661.4
556.89	1661.2
557.094	1663.14
557.297	1597.85
557.501	1683.68
557.704	1544.57
557.908	1685.62
558.112	1597.46
558.315	1686.78
558.519	1598.62
558.722	1637.37
558.926	1597.66
559.129	1550.38
559.333	1500.98
559.536	1547.48
559.74	1531.01
559.943	1506.01
560.147	1517.64
560.35	1556.58
560.553	1553.09
560.757	1503.11
560.96	1635.44
561.164	1576.54
561.367	1642.99
561.57	1551.35
561.774	1626.52
561.977	1570.72
562.18	1540.89
562.384	1620.91
562.587	1549.99
562.79	1565.3
562.993	1579.44
563.197	1593.97
563.4	1616.84
563.603	1629.43
563.806	1683.87
564.009	1540.31
564.212	1556.78
564.416	1491.68
564.619	1539.34
564.822	1495.16
565.025	1592.62
565.228	1506.21
565.431	1541.47
565.634	1447.7
565.837	1488.58
566.04	1483.54
566.243	1488.58
566.446	1413.21
566.649	1536.63
566.852	1430.26
567.055	1475.6
567.258	1521.9
567.461	1576.92
567.664	1558.13
567.867	1466.49
568.07	1500.2
568.273	1514.15
568.475	1519.77
568.678	1452.73
568.881	1461.84
569.084	1485.67
569.287	1356.05
569.489	1404.68
569.692	1517.44
569.895	1449.25
570.098	1406.04
570.3	1374.85
570.503	1367.1
570.706	1374.07
570.909	1385.31
571.111	1352.95
571.314	1343.07
571.516	1389.77
571.719	1400.23
571.922	1372.91
572.124	1368.84
572.327	1395.58
572.529	1320.79
572.732	1324.86
572.935	1407.01
573.137	1465.52
573.34	1356.05
573.542	1421.54
573.745	1358.18
573.947	1392.28
574.15	1363.42
574.352	1333
574.554	1388.02
574.757	1322.34
574.959	1309.94
575.162	1292.31
575.364	1305.29
575.566	1420.18
575.769	1293.67
575.971	1345.78
576.173	1243.29
576.376	1333.19
576.578	1375.82
576.78	1426.96
576.982	1223.72
577.185	1359.35
577.387	1305.87
577.589	1272.94
577.791	1364.77
577.993	1334.55
578.196	1292.5
578.398	1294.64
578.6	1363.42
578.802	1254.53
579.004	1265.77
579.206	1271.97
579.408	1308.58
579.61	1247.94
579.812	1320.79
580.014	1305.87
580.216	1289.6
580.418	1315.56
580.62	1272.16
580.822	1231.67
581.024	1294.25
581.226	1306.07
581.428	1272.94
581.63	1383.76
581.832	1258.99
582.034	1366.9
582.236	1282.04
582.438	1313.43
582.64	1346.95
582.841	1379.3
583.043	1356.63
583.245	1351.02
583.447	1359.35
583.649	1340.94
583.85	1302.77
584.052	1344.43
584.254	1284.75
584.456	1388.22
584.657	1281.46
584.859	1327.18
585.061	1295.6
585.262	1271.77
585.464	1235.93
585.666	1330.28
585.867	1253.56
586.069	1335.9
586.27	1300.06
586.472	1307.81
586.674	1261.7
586.875	1266.35
587.077	1272.16
587.278	1311.49
587.48	1243.1
587.681	1388.8
587.883	1295.41
588.084	1199.7
588.285	1273.32
588.487	1243.1
588.688	1258.79
588.89	1183.04
589.091	1145.84
589.292	1187.3
589.494	1159.98
589.695	1142.93
589.896	1067.56
590.098	1068.73
590.299	1147.58
590.5	1093.72
590.702	1123.56
590.903	1142.93
591.104	1219.07
591.305	1178.58
591.507	1229.73
591.708	1191.95
591.909	1179.74
592.11	1225.47
592.311	1188.46
592.512	1164.24
592.714	1112.71
592.915	1150.29
593.116	1124.91
593.317	1175.09
593.518	1150.68
593.719	1151.26
593.92	1190.01
594.121	1231.86
594.322	1213.46
594.523	1180.32
594.724	1131.31
594.925	1141.57
595.126	1155.91
595.327	1166.96
595.528	1183.04
595.729	1170.83
595.929	1161.92
596.13	1177.81
596.331	1189.04
596.532	1166.57
596.733	1227.02
596.934	1203.77
597.135	1206.87
597.335	1172.19
597.536	1152.04
597.737	1172.38
597.938	1150.29
598.138	1215.01
598.339	1128.01
598.54	1183.81
598.74	1153.2
598.941	1178.19
599.142	1227.6
599.342	1195.82
599.543	1176.26
599.744	1168.12
599.944	1149.52
600.145	1142.74
600.345	1186.72
600.546	1239.61
600.746	1203.77
600.947	1234.77
601.147	1189.04
601.348	1244.45
601.548	1130.53
601.749	1191.17
601.949	1126.85
602.15	1184.78
602.35	1169.86
602.551	1195.44
602.751	1137.7
602.951	1174.51
603.152	1105.93
603.352	1196.21
603.552	1162.31
603.753	1198.73
603.953	1177.81
604.153	1183.04
604.354	1143.9
604.554	1153.97
604.754	1166.96
604.954	1138.47
605.155	1191.17
605.355	1184.39
605.555	1203.19
605.755	1230.5
605.955	1186.72
606.155	1198.54
606.356	1155.14
606.556	1192.14
606.756	1220.43
606.956	1131.69
607.156	1213.26
607.356	1107.67
607.556	1211.13
607.756	1164.24
607.956	1222.17
608.156	1171.02
608.356	1162.89
608.556	1191.17
608.756	1164.44
608.956	1116.78
609.156	1170.25
609.356	1121.62
609.556	1077.44
609.755	1177.81
609.955	1120.46
610.155	1125.69
610.355	1152.62
610.555	1124.72
610.755	1104.38
610.954	1053.03
611.154	1116
611.354	1146.22
611.554	1106.7
611.753	1084.81
611.953	1076.28
612.153	1145.84
612.352	1134.99
612.552	1067.95
612.752	1016.41
612.951	1088.68
613.151	1105.34
613.351	1081.32
613.55	1071.63
613.75	1078.41
613.949	1080.74
614.149	1070.28
614.348	1086.36
614.548	1049.74
614.747	990.65
614.947	1051.87
615.146	1001.11
615.346	1074.73
615.545	1093.91
615.745	1069.69
615.944	1090.81
616.144	1046.25
616.343	1081.13
616.542	1060.01
616.742	1043.15
616.941	1050.13
617.14	965.85
617.34	1078.8
617.539	991.61
617.738	1006.34
617.938	1062.33
618.137	1037.34
618.336	1014.48
618.535	1066.79
618.734	1064.85
618.934	1063.49
619.133	1034.63
619.332	1028.23
619.531	1023.39
619.73	1047.61
619.929	1087.33
620.128	1063.49
620.328	1088.88
620.527	1009.63
620.726	1046.25
620.925	1038.5
621.124	1044.12
621.323	1034.05
621.522	998.01
621.721	1010.41
621.92	992.2
622.119	1075.7
622.318	1010.21
622.517	1026.3
622.715	1014.28
622.914	983.09
623.113	977.86
623.312	969.14
623.511	1034.05
623.71	987.35
623.909	978.05
624.107	1095.08
624.306	938.92
624.505	955.58
624.704	973.79
624.902	972.63
625.101	1050.9
625.3	1002.27
625.499	946.47
625.697	951.32
625.896	952.48
626.095	973.6
626.293	932.52
626.492	959.84
626.69	1024.94
626.889	955.77
627.088	1002.08
627.286	937.17
627.485	948.02
627.683	932.33
627.882	950.15
628.08	875.37
628.279	911.21
628.477	997.81
628.676	894.93
628.874	939.11
629.073	891.83
629.271	872.07
629.469	948.41
629.668	913.34
629.866	892.42
630.065	897.65
630.263	931.94
630.461	889.12
630.66	932.72
630.858	922.06
631.056	986.19
631.254	970.88
631.453	941.05
631.651	973.01
631.849	899.58
632.047	911.6
632.245	914.89
632.444	935.82
632.642	964.88
632.84	961.97
633.038	947.44
633.236	883.31
633.434	907.53
633.632	907.72
633.83	912.37
634.028	985.8
634.227	928.84
634.425	1003.82
634.623	920.51
634.821	956.35
635.019	952.09
635.216	915.67
635.414	981.93
635.612	939.69
635.81	910.05
636.008	971.66
636.206	905.78
636.404	956.16
636.602	905.4
636.8	930.39
636.997	947.83
637.195	933.49
637.393	981.73
637.591	1033.46
637.789	945.5
637.986	924.58
638.184	941.05
638.382	983.67
638.58	988.9
638.777	970.11
638.975	936.2
639.173	950.73
639.37	945.12
639.568	951.7
639.765	972.05
639.963	930.2
640.161	979.99
640.358	944.34
640.556	878.47
640.753	892.61
640.951	889.12
641.148	912.57
641.346	901.72
641.543	902.1
641.741	969.91
641.938	908.88
642.136	925.55
642.333	881.18
642.531	988.9
642.728	965.65
642.925	925.55
643.123	880.6
643.32	926.13
643.517	890.48
643.715	927.68
643.912	899.2
644.109	914.31
644.306	916.05
644.504	882.15
644.701	910.24
644.898	907.14
645.095	874.98
645.293	866.45
645.49	918.57
645.687	900.55
645.884	904.04
646.081	815.89
646.278	850.18
646.475	831.97
646.672	877.11
646.87	876.53
647.067	843.59
647.264	872.27
647.461	830.8
647.658	810.85
647.855	880.79
648.052	814.92
648.249	744.01
648.446	789.34
648.642	820.15
648.839	809.3
649.036	816.85
649.233	755.82
649.43	761.44
649.627	731.41
649.824	801.74
650.021	786.44
650.217	780.62
650.414	787.99
650.611	817.82
650.808	846.5
651.004	822.47
651.201	826.74
651.398	884.08
651.595	804.07
651.791	777.52
651.988	854.44
652.185	774.81
652.381	840.3
652.578	761.44
652.775	794.96
652.971	810.27
653.168	800.97
653.364	832.16
653.561	766.29
653.757	797.48
653.954	812.2
654.15	774.62
654.347	819.95
654.543	806.97
654.74	752.92
654.936	729.47
655.133	780.24
655.329	770.94
655.525	774.42
655.722	799.22
655.918	708.36
656.115	767.84
656.311	688.98
656.507	632.41
656.704	600.44
656.9	650.43
657.096	659.34
657.292	681.62
657.489	718.24
657.685	738
657.881	726.57
658.077	699.64
658.273	725.41
658.47	800.58
658.666	768.22
658.862	795.93
659.058	743.04
659.254	807.17
659.45	761.25
659.646	749.04
659.842	739.16
660.038	807.36
660.234	743.23
660.43	765.12
660.626	833.13
660.822	783.72
661.018	808.52
661.214	805.23
661.41	736.26
661.606	790.12
661.802	800.77
661.998	783.72
662.194	748.85
662.39	792.25
662.586	769.58
662.781	805.81
662.977	770.94
663.173	796.9
663.369	758.73
663.564	749.04
663.76	777.33
663.956	730.44
664.152	779.65
664.347	690.34
664.543	750.79
664.739	757.76
664.934	695.57
665.13	672.71
665.326	755.05
665.521	744.2
665.717	701.38
665.912	713.39
666.108	641.71
666.304	703.32
666.499	739.74
666.695	676.39
666.89	695.96
667.086	741.87
667.281	758.54
667.477	815.3
667.672	701.77
667.867	717.66
668.063	757.96
668.258	698.09
668.454	715.91
668.649	757.96
668.844	733.93
669.04	744.01
669.235	717.27
669.43	695.96
669.626	646.55
669.821	702.54
670.016	673.29
670.211	707.19
670.407	694.41
670.602	706.22
670.797	678.33
670.992	756.79
671.187	650.04
671.382	739.74
671.578	687.63
671.773	717.46
671.968	663.41
672.163	699.44
672.358	724.44
672.553	669.61
672.748	680.46
672.943	755.44
673.138	693.24
673.333	707.97
673.528	654.3
673.723	706.61
673.918	685.49
674.113	618.65
674.308	768.81
674.503	700.99
674.698	747.3
674.892	672.9
675.087	734.32
675.282	717.07
675.477	697.31
675.672	717.66
675.867	690.92
676.061	647.71
676.256	652.36
676.451	679.68
676.646	711.65
676.84	656.24
677.035	650.81
677.23	638.8
677.424	708.55
677.619	732.57
677.814	718.62
678.008	721.53
678.203	628.73
678.397	670.19
678.592	675.03
678.787	769.39
678.981	678.33
679.176	685.88
679.37	670.96
679.565	692.27
679.759	686.85
679.954	696.15
680.148	747.88
680.342	747.69
680.537	713.39
680.731	698.86
680.926	698.47
681.12	720.17
681.314	651.39
681.509	665.93
681.703	691.89
681.897	689.18
682.092	669.8
682.286	666.12
682.48	781.4
682.674	746.91
682.869	675.61
683.063	681.04
683.257	756.99
683.451	672.9
683.645	741.1
683.839	712.04
684.034	700.61
684.228	748.85
684.422	649.07
684.616	657.4
684.81	702.16
685.004	685.88
685.198	664.76
685.392	723.86
685.586	677.36
685.78	737.61
685.974	703.9
686.168	705.26
686.362	735.67
686.556	618.84
686.75	617.88
686.944	607.03
687.138	646.36
687.331	534.95
687.525	519.45
687.719	512.09
687.913	545.8
688.107	547.35
688.301	526.23
688.494	586.49
688.688	545.22
688.882	519.65
689.076	501.43
689.269	545.8
689.463	666.7
689.657	550.84
689.85	590.36
690.044	593.85
690.238	581.26
690.431	582.61
690.625	574.48
690.818	641.71
691.012	614.97
691.205	635.7
691.399	614
691.593	645.39
691.786	689.95
691.98	702.93
692.173	772.87
692.366	722.5
692.56	736.26
692.753	747.3
692.947	696.73
693.14	743.42
693.333	768.42
693.527	672.71
693.72	742.07
693.914	726.57
694.107	705.06
694.3	729.86
694.493	702.93
694.687	791.09
694.88	712.42
695.073	815.5
695.266	797.09
695.46	795.35
695.653	833.13
695.846	783.92
696.039	757.76
696.232	797.09
696.425	808.91
696.618	858.12
696.812	847.27
697.005	917.8
697.198	949.38
697.391	900.55
697.584	920.32
697.777	932.52
697.97	913.73
698.163	936.78
698.356	959.06
698.549	999.75
698.742	947.63
698.935	930.2
699.127	960.81
699.32	925.35
699.513	922.25
699.706	1002.27
699.899	978.05
700.092	944.53
700.285	964.3
700.477	925.55
700.67	989.68
700.863	991.81
701.056	1072.99
701.248	1044.51
701.441	1035.4
701.634	1015.25
701.826	1119.49
702.019	991.61
702.212	1104.18
702.404	1027.26
702.597	1023
702.79	1041.41
702.982	1073.57
703.175	1149.32
703.367	1120.26
703.56	1155.14
703.752	1217.14
703.945	1174.32
704.137	1186.72
704.33	1205.9
704.522	1228.57
704.715	1204.35
704.907	1234.57
705.1	1294.83
705.292	1281.85
705.484	1267.12
705.677	1252.4
705.869	1260.34
706.061	1301.61
706.254	1326.99
706.446	1293.47
706.638	1330.87
706.831	1365.74
707.023	1334.74
707.215	1420.57
707.407	1409.14
707.599	1398.48
707.792	1438.01
707.984	1399.84
708.176	1450.41
708.368	1443.82
708.56	1466.49
708.752	1433.94
708.944	1451.96
709.136	1494
709.329	1455.25
709.521	1576.92
709.713	1534.3
709.905	1519.38
710.097	1577.12
710.289	1524.23
710.481	1587.19
710.672	1580.99
710.864	1578.67
711.056	1665.66
711.248	1603.47
711.44	1633.69
711.632	1639.7
711.824	1667.4
712.016	1705.57
712.207	1673.41
712.399	1671.47
712.591	1748.2
712.783	1710.61
712.975	1732.89
713.166	1675.35
713.358	1700.15
713.55	1771.83
713.741	1772.03
713.933	1769.51
714.125	1771.64
714.316	1731.73
714.508	1833.45
714.7	1834.61
714.891	1797.41
715.083	1870.84
715.274	1816.59
715.466	1796.63
715.657	1871.03
715.849	1732.31
716.04	1810.97
716.232	1742.58
716.423	1794.31
716.615	1708.48
716.806	1681.94
716.998	1659.46
717.189	1623.62
717.381	1582.74
717.572	1531.2
717.763	1538.76
717.955	1546.89
718.146	1459.9
718.337	1449.63
718.528	1445.95
718.72	1376.59
718.911	1415.15
719.102	1417.47
719.293	1453.9
719.485	1404.68
719.676	1401
719.867	1384.15
720.058	1379.11
720.249	1411.46
720.44	1418.25
720.632	1468.04
720.823	1503.49
721.014	1621.68
721.205	1619.55
721.396	1691.24
721.587	1788.88
721.778	1807.1
721.969	1838.87
722.16	1851.46
722.351	1876.07
722.542	1954.73
722.733	1975.46
722.924	1903.97
723.115	1976.43
723.305	1920.83
723.496	1945.24
723.687	1815.62
723.878	1849.53
724.069	1827.63
724.26	1829.18
724.45	1767.96
724.641	1804.77
724.832	1818.53
725.023	1841.78
725.213	1824.92
725.404	1787.72
725.595	1782.1
725.785	1769.32
725.976	1875.68
726.167	1824.15
726.357	1850.3
726.548	1938.84
726.739	1835.38
726.929	1927.99
727.12	1933.81
727.31	1976.04
727.501	1890.8
727.691	1946.79
727.882	1892.35
728.072	1944.27
728.263	1942.14
728.453	2009.37
728.644	2025.45
728.834	1996.58
729.024	1961.51
729.215	1927.03
729.405	1981.08
729.596	2067.69
729.786	2090.35
729.976	2071.56
730.167	2085.71
730.357	2014.99
730.547	2041.92
730.737	2102.75
730.928	2079.89
731.118	2194.78
731.308	2102.75
731.498	2074.08
731.688	2213.19
731.879	2215.71
732.069	2253.1
732.259	2294.56
732.449	2317.81
732.639	2382.53
732.829	2354.04
733.019	2464.87
733.209	2469.13
733.399	2462.35
733.589	2537.91
733.779	2518.54
733.969	2538.88
734.159	2587.7
734.349	2584.99
734.539	2631.49
734.729	2612.89
734.919	2692.52
735.109	2709.76
735.299	2608.63
735.488	2708.02
735.678	2699.11
735.868	2672.57
736.058	2719.06
736.248	2678.96
736.437	2623.55
736.627	2609.4
736.817	2706.08
737.007	2659.78
737.196	2746.58
737.386	2690
737.576	2667.53
737.765	2750.06
737.955	2726.43
738.144	2807.8
738.334	2767.89
738.524	2693.49
738.713	2778.93
738.903	2773.9
739.092	2820.98
739.282	2806.44
739.471	2816.52
739.661	2781.65
739.85	2858.95
740.04	2836.28
740.229	2881.81
740.419	2907.19
740.608	2909.71
740.797	2853.72
740.987	2916.11
741.176	2896.92
741.365	2859.14
741.555	2876
741.744	2967.64
741.933	2927.34
742.123	2922.69
742.312	2919.21
742.501	2921.14
742.69	2977.33
742.88	2876.39
743.069	3014.72
743.258	2881.23
743.447	3011.43
743.636	2952.14
743.825	3010.85
744.014	2985.66
744.204	3000.58
744.393	2936.06
744.582	3034.87
744.771	3036.42
744.96	2986.44
745.149	2995.15
745.338	2984.69
745.527	3036.62
745.716	2999.22
745.905	2968.22
746.094	3052.12
746.283	3093.77
746.471	3046.3
746.66	3071.49
746.849	3032.35
747.038	3088.73
747.227	2986.82
747.416	3088.15
747.604	3023.64
747.793	2982.17
747.982	3002.32
748.171	3033.32
748.359	3007.55
748.548	3016.47
748.737	3022.28
748.926	2995.74
749.114	2923.08
749.303	3015.11
749.491	2989.15
749.68	2968.61
749.869	3058.9
750.057	2975.2
750.246	2919.59
750.434	2957.57
750.623	2944.97
750.811	2980.43
751	3001.16
751.188	3006.2
751.377	2995.74
751.565	2963.77
751.754	2928.51
751.942	2914.17
752.131	3034.87
752.319	2955.63
752.507	2900.41
752.696	2973.26
752.884	3008.91
753.072	2961.25
753.261	2930.06
753.449	2962.8
753.637	2918.04
753.825	3041.46
754.014	2917.66
754.202	2968.8
754.39	2997.67
754.578	2971.71
754.766	2906.81
754.955	2942.07
755.143	3031.39
755.331	2947.11
755.519	2914.75
755.707	2893.05
755.895	2887.24
756.083	2924.44
756.271	2882.2
756.459	2899.44
756.647	2920.17
756.835	2870.77
757.023	2863.21
757.211	2876.58
757.399	2857.79
757.587	2873.48
757.775	2817.1
757.963	2853.53
758.151	2850.81
758.339	2832.02
758.526	2804.12
758.714	2813.23
758.902	2682.45
759.09	2632.27
759.278	2473.59
759.465	2291.08
759.653	1971.98
759.841	1802.06
760.028	1525.58
760.216	1352.18
760.404	1279.72
760.591	1021.84
760.779	887.96
760.967	788.18
761.154	611.09
761.342	688.21
761.529	680.46
761.717	745.94
761.905	727.73
762.092	784.5
762.28	722.31
762.467	769.19
762.655	656.43
762.842	685.3
763.029	751.17
763.217	698.67
763.404	735.48
763.592	759.7
763.779	724.44
763.966	753.89
764.154	802.13
764.341	847.08
764.528	841.85
764.716	901.91
764.903	959.26
765.09	987.35
765.277	1027.07
765.465	1203.96
765.652	1195.63
765.839	1270.42
766.026	1407.2
766.213	1394.61
766.4	1561.04
766.588	1693.95
766.775	1716.62
766.962	1780.55
767.149	1848.36
767.336	1977.21
767.523	1909.2
767.71	2043.86
767.897	2141.31
768.084	2209.51
768.271	2223.07
768.458	2268.02
768.645	2326.34
768.832	2262.6
769.019	2311.42
769.206	2350.56
769.392	2377.49
769.579	2552.83
769.766	2411.39
769.953	2452.66
770.14	2513.69
770.327	2479.98
770.513	2515.05
770.7	2595.26
770.887	2484.82
771.073	2587.7
771.26	2533.07
771.447	2522.99
771.634	2539.85
771.82	2624.52
772.007	2493.54
772.193	2568.14
772.38	2625.29
772.567	2544.89
772.753	2551.28
772.94	2598.75
773.126	2592.16
773.313	2585.38
773.499	2615.99
773.686	2568.14
773.872	2521.25
774.059	2564.65
774.245	2512.34
774.432	2551.47
774.618	2495.29
774.804	2540.82
774.991	2469.52
775.177	2544.69
775.363	2531.13
775.55	2529.19
775.736	2462.54
775.922	2504.59
776.109	2491.41
776.295	2505.75
776.481	2496.84
776.667	2496.26
776.853	2473.01
777.04	2450.14
777.226	2457.31
777.412	2542.95
777.598	2467.19
777.784	2438.33
777.97	2453.63
778.156	2448.21
778.342	2461.96
778.528	2446.85
778.715	2383.69
778.901	2441.62
779.087	2441.62
779.272	2428.44
779.458	2432.51
779.644	2439.1
779.83	2411.59
780.016	2513.69
780.202	2404.81
780.388	2389.69
780.574	2332.93
780.76	2391.24
780.946	2414.11
781.131	2398.22
781.317	2409.84
781.503	2373.03
781.689	2356.95
781.874	2432.13
782.06	2339.32
782.246	2374
782.432	2366.64
782.617	2340.1
782.803	2398.61
782.989	2281.97
783.174	2307.93
783.36	2293.21
783.545	2271.12
783.731	2286.23
783.916	2232.37
784.102	2290.5
784.288	2312.58
784.473	2287.01
784.659	2232.37
784.844	2294.95
785.029	2247.68
785.215	2286.23
785.4	2219
785.586	2303.48
785.771	2184.71
785.956	2280.81
786.142	2238.77
786.327	2177.93
786.512	2225.59
786.698	2166.69
786.883	2141.31
787.068	2187.03
787.254	2198.85
787.439	2163.59
787.624	2162.43
787.809	2134.14
787.994	2176.77
788.18	2229.47
788.365	2122.9
788.55	2147.7
788.735	2135.3
788.92	2166.5
789.105	2095.97
789.29	2116.7
789.475	2088.03
789.66	2083.77
789.845	2049.67
790.03	2050.64
790.215	2086.87
790.4	2096.75
790.585	2131.24
790.77	2028.74
790.955	2030.49
791.14	2076.6
791.325	2113.6
791.51	1984.76
791.695	2045.99
791.879	2058.19
792.064	1996.19
792.249	2108.57
792.434	2024.09
792.618	2073.31
792.803	2071.76
792.988	1999.49
793.173	2020.41
793.357	2042.69
793.542	2033.59
793.727	2070.4
793.911	2067.88
794.096	2048.7
794.281	2113.99
794.465	2148.67
794.65	2064.78
794.834	2119.42
795.019	2106.24
795.203	2112.83
795.388	2077.57
795.572	2147.32
795.757	2088.81
795.941	2112.83
796.126	2090.16
796.31	2035.91
796.494	2072.14
796.679	2039.21
796.863	2039.59
797.048	2108.76
797.232	2082.02
797.416	2083.77
797.601	2061.29
797.785	2154.29
797.969	2149.64
798.153	2043.86
798.338	2110.7
798.522	2134.34
798.706	2111.47
798.89	2139.57
799.074	2164.56
799.258	2170.18
799.443	2109.73
799.627	2102.37
799.811	2118.64
799.995	2110.12
800.179	2070.79
800.363	2089.39
800.547	2106.24
800.731	2121.55
800.915	2037.85
801.099	2073.89
801.283	2098.69
801.467	2051.22
801.651	2055.67
801.835	2146.35
802.019	2118.25
802.202	2121.74
802.386	2020.8
802.57	2030.49
802.754	2007.62
802.938	2023.9
803.121	2034.94
803.305	2122.32
803.489	2069.82
803.673	2116.12
803.856	2109.73
804.04	2048.12
804.224	2092.1
804.407	2086.67
804.591	2051.99
804.775	2050.83
804.958	2084.54
805.142	2138.99
805.326	2108.18
805.509	2077.76
805.693	2167.08
805.876	2138.79
806.06	2110.5
806.243	2083.19
806.427	2101.98
806.61	2159.14
806.794	2081.25
806.977	2170.18
807.16	2081.25
807.344	2127.55
807.527	2122.71
807.71	2060.71
807.894	2076.6
808.077	2116.32
808.26	2074.47
808.444	2048.31
808.627	2116.7
808.81	2067.3
808.993	2003.36
809.177	2012.27
809.36	2013.24
809.543	2087.45
809.726	1990.58
809.909	1977.98
810.092	1963.45
810.276	1967.33
810.459	1979.14
810.642	1959.58
810.825	1923.34
811.008	1936.13
811.191	1850.11
811.374	1865.8
811.557	1889.05
811.74	2007.82
811.923	1825.89
812.106	1837.9
812.289	1829.76
812.472	1826.08
812.654	1853.6
812.837	1811.55
813.02	1743.93
813.203	1769.7
813.386	1665.08
813.569	1608.7
813.751	1611.8
813.934	1650.55
814.117	1590.1
814.3	1578.47
814.482	1531.98
814.665	1512.6
814.848	1474.82
815.03	1455.64
815.213	1410.88
815.396	1436.46
815.578	1417.86
815.761	1379.69
815.943	1454.48
816.126	1364.97
816.309	1334.55
816.491	1272.94
816.674	1240.39
816.856	1282.43
817.039	1239.42
817.221	1353.53
817.403	1286.3
817.586	1305.68
817.768	1309.36
817.951	1238.06
818.133	1241.74
818.315	1261.12
818.498	1301.03
818.68	1369.23
818.862	1294.64
819.045	1361.87
819.227	1366.32
819.409	1322.34
819.591	1344.23
819.774	1293.09
819.956	1285.72
820.138	1379.5
820.32	1346.95
820.502	1377.17
820.684	1422.9
820.866	1448.47
821.048	1505.43
821.231	1494.78
821.413	1465.33
821.595	1450.99
821.777	1475.4
821.959	1473.66
822.141	1543.21
822.323	1420.57
822.505	1341.52
822.686	1311.1
822.868	1230.7
823.05	1187.11
823.232	1202.41
823.414	1135.37
823.596	1185.75
823.778	1166.57
823.96	1167.15
824.141	1165.41
824.323	1194.47
824.505	1287.47
824.687	1306.84
824.868	1345.98
825.05	1398.29
825.232	1445.76
825.413	1520.54
825.595	1430.26
825.777	1416.89
825.958	1428.32
826.14	1426.19
826.321	1472.11
826.503	1437.81
826.685	1439.36
826.866	1469.2
827.048	1493.42
827.229	1395.38
827.411	1404.1
827.592	1375.62
827.773	1331.83
827.955	1299.48
828.136	1313.23
828.318	1277.39
828.499	1307.42
828.68	1242.9
828.862	1318.85
829.043	1327.38
829.224	1305.48
829.406	1255.11
829.587	1306.65
829.768	1259.37
829.949	1318.08
830.131	1315.56
830.312	1368.65
830.493	1315.17
830.674	1321.57
830.855	1291.15
831.036	1308.97
831.218	1336.48
831.399	1363.03
831.58	1309.94
831.761	1326.6
831.942	1320.4
832.123	1280.88
832.304	1255.89
832.485	1289.21
832.666	1276.42
832.847	1306.45
833.028	1308.2
833.209	1307.42
833.389	1262.09
833.57	1227.6
833.751	1281.65
833.932	1345.4
834.113	1305.68
834.294	1251.82
834.475	1317.5
834.655	1343.07
834.836	1358.38
835.017	1340.17
835.198	1272.55
835.378	1311.68
835.559	1388.41
835.74	1287.66
835.92	1281.27
836.101	1289.4
836.281	1310.91
836.462	1329.12
836.643	1347.72
836.823	1347.72
837.004	1378.92
837.184	1428.51
837.365	1379.11
837.545	1370.39
837.726	1334.93
837.906	1390.15
838.087	1365.55
838.267	1351.02
838.448	1300.25
838.628	1370.58
838.808	1321.18
838.989	1417.86
839.169	1306.45
839.349	1350.43
839.53	1391.12
839.71	1378.53
839.89	1357.8
840.07	1432.58
840.251	1329.7
840.431	1420.96
840.611	1357.02
840.791	1340.94
840.971	1358.57
841.151	1337.65
841.332	1330.87
841.512	1389.38
841.692	1258.99
841.872	1328.73
842.052	1350.82
842.232	1363.22
842.412	1278.94
842.592	1300.25
842.772	1377.37
842.952	1338.81
843.132	1315.17
843.312	1335.71
843.492	1277
843.672	1344.43
843.851	1254.53
844.031	1302.97
844.211	1302.19
844.391	1265.38
844.571	1302.97
844.751	1325.44
844.93	1324.67
845.11	1275.45
845.29	1316.53
845.47	1324.47
845.649	1311.88
845.829	1322.53
846.009	1280.69
846.188	1304.13
846.368	1296.19
846.547	1319.43
846.727	1324.86
846.907	1276.81
847.086	1288.82
847.266	1343.07
847.445	1314.78
847.625	1247.75
847.804	1272.55
847.984	1264.22
848.163	1232.83
848.343	1252.98
848.522	1290.57
848.701	1254.92
848.881	1252.59
849.06	1250.65
849.239	1257.24
849.419	1283.4
849.598	1215.01
849.777	1209.39
849.957	1168.51
850.136	1151.07
850.315	1145.64
850.494	1153.78
850.674	1152.81
850.853	1232.44
851.032	1171.22
851.211	1233.6
851.39	1184.78
851.569	1154.94
851.748	1137.51
851.927	1203.19
852.107	1190.4
852.286	1132.27
852.465	1139.83
852.644	1218.1
852.823	1168.51
853.002	1180.91
853.181	1165.79
853.359	1206.67
853.538	1109.99
853.717	1195.82
853.896	1080.74
854.075	1052.26
854.254	1050.51
854.433	986
854.611	1029.98
854.79	979.8
854.969	1039.47
855.148	1067.56
855.327	971.27
855.505	1060.01
855.684	1013.51
855.863	1040.83
856.041	1031.91
856.22	1093.14
856.399	1038.89
856.577	1145.06
856.756	1111.74
856.934	1218.49
857.113	1201.83
857.291	1116
857.47	1087.52
857.648	1105.15
857.827	1121.23
858.005	1139.44
858.184	1075.12
858.362	1191.95
858.541	1100.5
858.719	1119.49
858.898	1094.49
859.076	1111.16
859.254	1154.94
859.433	1099.14
859.611	1107.86
859.789	1037.73
859.967	1164.44
860.146	1165.21
860.324	1064.27
860.502	1081.71
860.68	1081.32
860.859	1075.31
861.037	1111.74
861.215	1087.52
861.393	1081.32
861.571	1060.59
861.749	1076.09
861.927	1124.33
862.105	1076.48
862.283	1050.51
862.461	1031.14
862.639	1015.25
862.817	1045.86
862.995	1060.98
863.173	1033.46
863.351	1066.59
863.529	1069.11
863.707	1087.71
863.885	1094.3
864.063	979.02
864.241	1016.8
864.418	1093.91
864.596	997.43
864.774	1013.7
864.952	1049.74
865.129	1065.43
865.307	997.81
865.485	950.73
865.663	1051.29
865.84	946.47
866.018	964.3
866.196	911.98
866.373	874.2
866.551	888.35
866.728	819.76
866.906	871.3
867.084	889.51
867.261	940.85
867.439	940.27
867.616	982.51
867.794	952.48
867.971	941.63
868.149	953.45
868.326	982.12
868.503	984.64
868.681	968.17
868.858	942.21
869.035	912.57
869.213	981.73
869.39	938.92
869.567	1047.8
869.745	933.88
869.922	958.87
870.099	978.83
870.276	966.81
870.454	982.12
870.631	955
870.808	951.7
870.985	983.28
871.162	1001.3
871.339	973.98
871.517	897.65
871.694	894.16
871.871	928.07
872.048	951.51
872.225	912.57
872.402	946.47
872.579	878.66
872.756	960.03
872.933	886.02
873.11	922.06
873.287	939.3
873.463	890.28
873.64	872.65
873.817	952.09
873.994	902.68
874.171	912.76
874.348	928.65
874.524	837
874.701	913.53
874.878	839.14
875.055	913.73
875.231	861.42
875.408	898.03
875.585	840.1
875.762	886.99
875.938	872.85
876.115	860.64
876.291	872.65
876.468	876.72
876.645	819.95
876.821	864.32
876.998	821.7
877.174	884.67
877.351	862
877.527	852.5
877.704	853.09
877.88	888.35
878.057	834.68
878.233	871.1
878.409	844.75
878.586	849.21
878.762	847.27
878.938	849.21
879.115	797.48
879.291	852.31
879.467	812.01
879.644	805.81
879.82	848.82
879.996	778.69
880.172	786.44
880.349	817.05
880.525	849.99
880.701	779.27
880.877	807.36
881.053	807.75
881.229	834.87
881.405	872.27
881.581	780.82
881.757	819.37
881.933	822.86
882.109	853.67
882.285	790.5
882.461	774.23
882.637	764.54
882.813	754.47
882.989	816.85
883.165	851.92
883.341	800
883.517	839.72
883.693	818.99
883.869	824.8
884.044	777.14
884.22	847.27
884.396	848.82
884.572	832.35
884.747	844.56
884.923	823.25
885.099	834.29
885.275	847.85
885.45	780.04
885.626	787.6
885.801	759.89
885.977	798.84
886.153	735.48
886.328	808.72
886.504	785.66
886.679	836.42
886.855	765.9
887.03	803.29
887.206	827.32
887.381	828.29
887.557	825.96
887.732	818.6
887.908	833.13
888.083	831
888.258	775.97
888.434	780.04
888.609	783.34
888.784	848.82
888.96	818.99
889.135	786.24
889.31	740.13
889.485	772.68
889.661	767.45
889.836	828.09
890.011	816.85
890.186	781.01
890.361	785.27
890.537	790.89
890.712	804.84
890.887	819.57
891.062	776.56
891.237	855.41
891.412	784.3
891.587	784.3
891.762	813.37
891.937	864.71
892.112	732.96
892.287	769.77
892.462	748.07
892.637	709.32
892.812	716.49
892.987	717.27
893.161	732.77
893.336	742.46
893.511	742.07
893.686	727.92
893.861	738
894.035	703.9
894.21	745.56
894.385	694.6
894.56	693.24
894.734	652.17
894.909	678.71
895.084	712.62
895.258	643.45
895.433	681.04
895.608	626.59
895.782	571.57
895.957	629.69
896.131	601.02
896.306	542.31
896.48	569.44
896.655	547.93
896.829	517.71
897.004	552.2
897.178	531.46
897.353	531.46
897.527	587.07
897.701	529.72
897.876	491.36
898.05	577.38
898.224	533.01
898.399	611.48
898.573	545.8
898.747	456.68
898.921	514.42
899.096	406.11
899.27	438.47
899.444	426.84
899.618	439.43
899.792	508.02
899.967	461.72
900.141	503.76
900.315	448.35
900.489	438.47
900.663	463.85
900.837	468.88
901.011	398.75
901.185	523.52
901.359	494.27
901.533	487.48
901.707	477.8
901.881	486.9
902.055	396.42
902.229	464.04
902.403	543.28
902.576	461.72
902.75	479.35
902.924	579.32
903.098	526.04
903.272	572.15
903.446	550.84
903.619	550.26
903.793	584.55
903.967	572.54
904.14	594.63
904.314	564.79
904.488	606.25
904.661	610.13
904.835	565.76
905.009	631.05
905.182	653.72
905.356	620.98
905.529	632.6
905.703	576.41
905.876	529.53
906.05	556.85
906.223	539.8
906.397	444.08
906.57	463.85
906.744	457.45
906.917	465.59
907.09	492.91
907.264	483.22
907.437	431.68
907.61	383.83
907.784	463.27
907.957	457.65
908.13	428.78
908.304	474.89
908.477	407.08
908.65	445.25
908.823	399.72
908.996	491.36
909.17	391.77
909.343	436.92
909.516	454.55
909.689	409.4
909.862	391
910.035	401.85
910.208	363.1
910.381	370.65
910.554	489.03
910.727	408.05
910.9	395.45
911.073	387.51
911.246	465.01
911.419	464.62
911.592	428.2
911.765	415.99
911.938	404.37
912.11	410.95
912.283	411.92
912.456	440.21
912.629	423.35
912.802	375.5
912.974	381.89
913.147	344.69
913.32	297.03
913.493	328.61
913.665	330.16
913.838	358.64
914.01	354.57
914.183	342.95
914.356	350.12
914.528	399.33
914.701	439.24
914.873	427.23
915.046	366
915.218	321.64
915.391	292.77
915.563	292.19
915.736	351.86
915.908	368.14
916.081	346.82
916.253	351.86
916.425	345.47
916.598	381.5
916.77	369.69
916.942	322.61
917.115	246.08
917.287	342.56
917.459	304.59
917.632	309.04
917.804	257.89
917.976	328.81
918.148	352.44
918.32	335.59
918.493	379.76
918.665	407.85
918.837	361.35
919.009	423.55
919.181	402.04
919.353	372.01
919.525	362.9
919.697	356.9
919.869	362.13
920.041	426.45
920.213	484
920.385	398.75
920.557	374.14
920.729	407.85
920.901	390.61
921.073	382.67
921.244	368.91
921.416	420.06
921.588	387.12
921.76	339.85
921.932	412.5
922.103	371.62
922.275	345.66
922.447	345.85
922.619	314.27
922.79	364.07
922.962	365.62
923.134	373.17
923.305	329
923.477	291.02
923.648	316.99
923.82	350.12
923.991	274.94
924.163	294.51
924.335	313.69
924.506	294.51
924.677	352.83
924.849	301.29
925.02	323.96
925.192	311.37
925.363	334.42
925.535	346.24
925.706	313.11
925.877	372.98
926.049	293.16
926.22	319.12
926.391	335.39
926.562	344.89
926.734	312.14
926.905	335.78
927.076	237.55
927.247	315.82
927.419	243.56
927.59	259.25
927.761	270.49
927.932	255.96
928.103	272.62
928.274	214.3
928.445	219.73
928.616	233.48
928.787	259.06
928.958	255.57
929.129	241.43
929.3	214.69
929.471	186.4
929.642	142.61
929.813	147.46
929.984	238.71
930.155	121.5
930.326	192.99
930.496	148.62
930.667	102.51
930.838	147.07
931.009	109.68
931.18	125.37
931.35	121.88
931.521	128.47
931.692	73.06
931.863	41.48
932.033	68.8
932.204	99.6
932.374	108.71
932.545	51.94
932.716	117.81
932.886	88.36
933.057	37.22
933.227	54.27
933.398	127.31
933.568	37.22
933.739	16.48
933.909	37.6
934.08	95.73
934.25	6.99
934.421	26.56
934.591	60.85
934.761	43.8
934.932	-21.88
935.102	35.86
935.272	26.75
935.443	34.7
935.613	15.13
935.783	43.22
935.953	19.39
936.123	154.24
936.294	-6.57
936.464	4.08
936.634	38.38
936.804	-16.45
936.974	-30.4
937.144	51.94
937.314	35.08
937.484	29.85
937.655	5.05
937.825	55.23
937.995	-10.45
938.165	81.78
938.334	28.11
938.504	56.4
938.674	35.86
938.844	36.83
939.014	68.02
939.184	64.53
939.354	128.28
939.524	101.54
939.694	80.23
939.863	44
940.033	150.75
940.203	119.75
940.373	77.71
940.542	115.1
940.712	77.32
940.882	106.77
941.051	85.46
941.221	77.9
941.391	128.08
941.56	35.47
941.73	44.38
941.899	161.02
942.069	69.18
942.238	103.86
942.408	70.93
942.577	94.18
942.747	82.75
942.916	10.28
943.086	32.76
943.255	89.91
943.425	72.87
943.594	55.04
943.763	-16.84
943.933	14.16
944.102	-19.94
944.271	19.97
944.441	71.7
944.61	27.33
944.779	32.95
944.948	107.35
945.117	11.83
945.287	29.27
945.456	4.28
945.625	1.76
945.794	62.6
945.963	20.55
946.132	67.83
946.301	19
946.47	76.35
946.639	18.62
946.808	25.59
946.977	46.9
947.146	97.28
947.315	37.22
947.484	34.12
947.653	47.29
947.822	20.55
947.991	30.43
948.16	111.23
948.329	87.01
948.498	71.32
948.666	58.33
948.835	45.16
949.004	5.83
949.173	15.71
949.341	38.18
949.51	80.03
949.679	87.01
949.847	72.09
950.016	133.7
950.185	116.85
950.353	49.81
950.522	55.62
950.69	82.75
950.859	33.53
951.028	74.22
951.196	51.36
951.365	29.66
951.533	47.48
951.701	104.25
951.87	93.98
952.038	25.98
952.207	31.02
952.375	107.35
952.543	35.86
952.712	69.96
952.88	33.53
953.048	139.32
953.217	48.45
953.385	36.25
953.553	82.94
953.721	23.65
953.89	57.17
954.058	25.59
954.226	26.37
954.394	62.6
954.562	1.76
954.73	36.63
954.898	49.81
955.067	99.41
955.235	37.02
955.403	79.07
955.571	101.35
955.739	57.75
955.907	11.06
956.075	29.85
956.243	5.83
956.41	63.95
956.578	-11.61
956.746	3.31
956.914	44.97
957.082	67.63
957.25	77.13
957.418	25.4
957.585	49.03
957.753	69.18
957.921	11.45
958.089	52.13
958.256	46.9
958.424	70.54
958.592	70.35
958.759	30.82
958.927	97.08
959.095	44.97
959.262	67.25
959.43	44.19
959.597	18.23
959.765	50
959.932	46.71
960.1	71.32
960.267	57.17
960.435	77.13
960.602	97.86
960.77	39.93
960.937	22.88
961.104	32.57
961.272	21.13
961.439	19.78
961.606	72.28
961.774	83.91
961.941	44.58
962.108	77.13
962.275	64.53
962.443	79.45
962.61	82.94
962.777	143.39
962.944	92.82
963.111	56.59
963.278	72.28
963.446	80.61
963.613	70.15
963.78	86.23
963.947	87.98
964.114	59.69
964.281	169.74
964.448	70.93
964.615	40.12
964.782	75.19
964.949	106.96
965.116	88.17
965.282	112.39
965.449	37.8
965.616	33.15
965.783	73.25
965.95	70.73
966.117	17.26
966.283	57.95
966.45	72.48
966.617	61.24
966.784	120.33
966.95	104.25
967.117	74.8
967.284	47.48
967.45	50.97
967.617	117.62
967.784	61.82
967.95	125.95
968.117	79.65
968.283	113.16
968.45	172.26
968.616	105.61
968.783	137
968.949	106.38
969.116	138.74
969.282	81.97
969.449	104.83
969.615	81.2
969.781	53.68
969.948	63.18
970.114	59.69
970.28	130.6
970.447	67.63
970.613	91.66
970.779	32.37
970.945	79.65
971.112	65.5
971.278	84.1
971.444	61.43
971.61	116.26
971.776	55.23
971.942	116.65
972.108	104.25
972.275	71.9
972.441	95.34
972.607	156.76
972.773	41.48
972.939	109.48
973.105	112.97
973.271	32.18
973.437	76.55
973.602	51.17
973.768	91.08
973.934	66.67
974.1	73.25
974.266	0.79
974.432	75.19
974.598	53.68
974.763	112.39
974.929	38.77
975.095	123.43
975.261	48.65
975.426	44.97
975.592	40.7
975.758	128.08
975.923	-3.67
976.089	43.61
976.255	103.86
976.42	64.73
976.586	106.19
976.751	88.17
976.917	128.08
977.082	81.58
977.248	24.82
977.413	-10.25
977.579	65.89
977.744	79.26
977.91	40.9
978.075	48.26
978.24	92.63
978.406	63.76
978.571	55.23
978.736	23.46
978.902	68.6
979.067	14.16
979.232	25.98
979.397	69.18
979.563	105.41
979.728	21.72
979.893	56.2
980.058	27.14
980.223	114.71
980.388	55.82
980.554	82.94
980.719	32.18
980.884	65.5
981.049	87.01
981.214	51.55
981.379	74.42
981.544	49.81
981.709	35.67
981.874	28.69
982.039	54.46
982.204	93.21
982.368	54.27
982.533	19.39
982.698	96.7
982.863	100.76
983.028	62.4
983.193	85.26
983.357	87.01
983.522	72.87
983.687	59.11
983.852	44.77
984.016	75.38
984.181	54.07
984.346	62.6
984.51	89.72
984.675	45.74
984.839	79.26
985.004	78.48
985.168	89.33
985.333	93.21
985.498	37.8
985.662	88.95
985.827	104.25
985.991	52.13
986.155	59.69
986.32	93.98
986.484	105.22
986.649	78.87
986.813	-11.22
986.977	55.82
987.142	100.18
987.306	25.2
987.47	35.47
987.634	43.42
987.799	63.37
987.963	81.58
988.127	79.26
988.291	124.01
988.455	80.03
988.62	56.4
988.784	88.75
988.948	74.22
989.112	39.35
989.276	50.58
989.44	56.59
989.604	36.63
989.768	19.39
989.932	124.79
990.096	30.43
990.26	29.47
990.424	8.15
990.588	54.27
990.752	104.06
990.915	109.1
991.079	36.05
991.243	44.19
991.407	88.36
991.571	73.06
991.734	96.5
991.898	71.32
992.062	138.16
992.226	28.88
992.389	35.47
992.553	-10.64
992.717	0.98
992.88	43.03
993.044	55.04
993.207	49.42
993.371	75.19
993.535	62.6
993.698	56.4
993.862	107.93
994.025	115.3
994.189	73.25
994.352	63.95
994.515	62.4
994.679	90.5
994.842	34.12
995.006	77.13
995.169	36.44
995.332	46.32
995.496	87.01
995.659	30.82
995.822	27.92
995.985	51.94
996.149	85.07
996.312	47.87
996.475	131.76
996.638	39.15
996.801	66.47
996.964	117.23
997.128	46.52
997.291	49.42
997.454	70.54
997.617	15.71
997.78	90.3
997.943	25.98
998.106	84.1
998.269	46.9
998.432	60.66
998.595	50.58
998.758	13.58
998.92	21.33
999.083	-5.41
999.246	43.03
999.409	-7.35
999.572	-29.05
999.735	11.83
999.897	43.8
1000.06	5.63
1000.223	28.69
1000.386	64.15
1000.548	50.78
1000.711	89.72
1000.874	59.88
1001.036	5.05
1001.199	87.2
1001.361	20.55
1001.524	33.92
1001.687	86.81
1001.849	18.03
1002.012	65.89
1002.174	50.39
1002.337	55.62
1002.499	34.5
1002.661	82.94
1002.824	-7.54
1002.986	4.47
1003.149	24.62
1003.311	-4.63
1003.473	105.61
1003.636	23.27
1003.798	74.8
1003.96	68.99
1004.123	47.68
1004.285	49.62
1004.447	32.37
1004.609	23.85
1004.771	112.78
1004.933	-2.31
1005.096	25.59
1005.258	-0.95
1005.42	42.25
1005.582	79.45
1005.744	39.73
1005.906	-2.12
1006.068	51.36
1006.23	5.63
1006.392	-6.77
1006.554	14.35
1006.716	71.7
1006.878	70.15
1007.04	7.96
1007.202	29.08
1007.363	43.22
1007.525	32.57
1007.687	47.48
1007.849	85.07
1008.011	11.25
1008.172	-1.53
1008.334	-0.95
1008.496	61.24
1008.658	-27.88
1008.819	-4.25
1008.981	-30.79
1009.143	-2.12
1009.304	33.15
1009.466	62.02
1009.627	79.07
1009.789	122.27
1009.95	54.85
1010.112	13.58
1010.273	29.08
1010.435	9.7
1010.596	26.75
1010.758	15.71
1010.919	19.78
1011.081	-27.88
1011.242	25.2
1011.403	39.35
1011.565	31.6
1011.726	44.97
1011.887	1.76
1012.049	22.68
1012.21	49.81
1012.371	83.33
1012.532	-36.02
1012.693	9.7
1012.855	8.93
1013.016	36.05
1013.177	53.49
1013.338	28.11
1013.499	85.65
1013.66	38.96
1013.821	61.63
1013.982	48.07
1014.143	40.51
1014.304	14.35
1014.465	53.68
1014.626	46.71
1014.787	13.19
1014.948	104.25
1015.109	-56.56
1015.27	85.46
1015.431	-4.83
1015.592	-24.98
1015.752	72.09
1015.913	34.5
1016.074	30.24
1016.235	41.48
1016.395	22.3
1016.556	14.93
1016.717	-4.44
1016.877	75.19
1017.038	-14.51
1017.199	53.49
1017.359	40.32
1017.52	24.62
1017.681	16.87
1017.841	16.48
1018.002	7.38
1018.162	-4.83
1018.323	59.5
1018.483	5.05
1018.644	16.29
1018.804	-20.91
1018.964	-38.35
1019.125	-13.16
1019.285	35.28
1019.446	8.54
1019.606	-8.12
1019.766	-20.71
1019.926	34.12
1020.087	13.58
1020.247	-37.96
1020.407	32.95
1020.567	45.93
1020.728	12.8
1020.888	4.47
1021.048	-3.67
1021.208	-18.58
1021.368	-8.12
1021.528	76.35
1021.688	42.06
1021.848	44
1022.008	32.76
1022.168	-9.67
1022.328	35.67
1022.488	23.46
1022.648	3.31
1022.808	40.51
1022.968	11.45
1023.128	-13.74
1023.288	-23.62
1023.448	7.57
1023.608	33.15
1023.767	24.82
1023.927	8.73
1024.087	-31.37
1024.247	-17.61
1024.406	18.23
1024.566	-29.24
1024.726	-12.19
1024.885	17.07
1025.045	43.03
1025.205	8.54
1025.364	-1.15
1025.524	16.68
1025.683	15.52
1025.843	39.93
1026.003	17.26
1026.162	52.72
1026.321	51.17
1026.481	18.03
1026.64	-21.49
1026.8	1.18
1026.959	16.87
1027.119	-0.57
1027.278	-35.44
1027.437	-5.22
1027.597	31.4
1027.756	25.59
1027.915	31.4
1028.074	19
1028.234	-2.12
1028.393	-9.86
1028.552	-12.77
1028.711	-74
1028.87	57.56
1029.03	-23.43
1029.189	8.73
1029.348	-81.16
1029.507	-24.78
1029.666	10.67
1029.825	-19.55
1029.984	-23.81
1030.143	31.4
1030.302	-4.05
1030.461	-64.89
1030.62	5.25
1030.779	7.77
1030.938	-9.86
1031.097	-32.53
1031.255	27.53
1031.414	33.34
1031.573	24.23
1031.732	-41.45
1031.891	4.28
1032.049	81.2
1032.208	15.13
1032.367	-2.12
1032.525	-0.76
1032.684	30.63
1032.843	7.18
1033.001	-65.47
1033.16	138.55
1033.319	37.8
1033.477	21.72
1033.636	-10.06
1033.794	-41.64
1033.953	36.63
1034.111	31.4
1034.27	-4.63
1034.428	18.03
1034.587	-10.06
1034.745	19.2
1034.903	-3.86
1035.062	-2.31
1035.22	-33.5
1035.378	27.72
1035.537	-33.89
1035.695	30.82
1035.853	-0.76
1036.011	29.08
1036.17	25.78
1036.328	-57.91
1036.486	14.16
1036.644	9.32
1036.802	-83.88
1036.96	-12.58
1037.119	-3.47
1037.277	-1.34
1037.435	-22.07
1037.593	-32.34
1037.751	-6.18
1037.909	25.01
1038.067	25.01
