Data from pine_FLMT105791__9__17-19-43-080.txt Node

Date: Mon Mar 20 17:19:43 GMT 2023
User: antho
Spectrometer: FLMT10579
Trigger mode: 0
Integration Time (sec): 1.000000E-1
Scans to average: 10
Electric dark correction enabled: true
Nonlinearity correction enabled: false
Boxcar width: 0
XAxis mode: Wavelengths
Number of Pixels in Spectrum: 3648
>>>>>Begin Spectral Data<<<<<
345.248	-180.44
345.464	-180.44
345.681	-180.44
345.898	-155.45
346.114	-165.14
346.331	-60.9
346.548	31.9
346.764	5.94
346.981	-5.3
347.197	-31.65
347.414	37.52
347.631	-9.56
347.847	51.67
348.064	14.27
348.28	9.62
348.497	-41.91
348.713	-1.61
348.93	30.16
349.146	10.2
349.363	-12.85
349.579	40.62
349.796	1.87
350.012	-22.35
350.229	29.58
350.445	-13.05
350.661	7.49
350.878	6.91
351.094	42.95
351.311	22.41
351.527	17.37
351.743	-3.16
351.96	29.19
352.176	29.77
352.392	25.32
352.609	31.52
352.825	17.95
353.041	6.91
353.257	7.69
353.474	-14.6
353.69	12.14
353.906	-8.59
354.122	-20.02
354.339	35
354.555	12.34
354.771	-9.36
354.987	57.28
355.203	52.25
355.42	-5.68
355.636	-3.55
355.852	-37.65
356.068	27.84
356.284	-43.27
356.5	66.78
356.716	3.04
356.932	-13.43
357.148	9.24
357.364	-14.21
357.58	29.38
357.796	59.61
358.012	52.63
358.228	7.1
358.444	-51.99
358.66	56.32
358.876	21.05
359.092	-9.95
359.308	-8.4
359.524	27.84
359.74	4.59
359.956	-8.4
360.172	1.1
360.388	45.08
360.604	16.02
360.819	81.31
361.035	20.86
361.251	10.01
361.467	-11.88
361.683	48.18
361.898	34.42
362.114	53.8
362.33	18.92
362.546	57.09
362.762	0.32
362.977	33.26
363.193	-23.51
363.409	42.17
363.624	-44.05
363.84	-32.61
364.056	-17.7
364.271	1.49
364.487	21.64
364.703	7.1
364.918	-10.33
365.134	-0.45
365.35	13.3
365.565	114.44
365.781	10.79
365.996	18.54
366.212	44.88
366.427	28.61
366.643	-18.08
366.858	14.27
367.074	-53.54
367.289	63.48
367.505	86.15
367.72	-50.25
367.936	-8.01
368.151	24.15
368.367	16.6
368.582	14.27
368.798	-15.18
369.013	65.81
369.228	16.79
369.444	12.53
369.659	40.23
369.874	51.67
370.09	45.85
370.305	-78.53
370.52	7.88
370.736	68.13
370.951	-10.53
371.166	87.32
371.381	58.06
371.597	62.9
371.812	-11.88
372.027	-26.03
372.242	12.72
372.458	59.22
372.673	-7.81
372.888	-7.23
373.103	44.5
373.318	108.43
373.533	23.19
373.749	59.42
373.964	-22.15
374.179	82.47
374.394	7.1
374.609	72.2
374.824	-31.65
375.039	44.11
375.254	-30.1
375.469	65.81
375.684	11.17
375.899	40.43
376.114	14.47
376.329	16.21
376.544	31.52
376.759	21.44
376.974	-12.85
377.189	-20.99
377.404	-0.65
377.619	71.62
377.834	-41.72
378.049	-20.8
378.264	-33
378.478	40.23
378.693	-20.8
378.908	23.38
379.123	-29.32
379.338	45.66
379.553	40.23
379.767	26.67
379.982	46.63
380.197	42.56
380.412	24.93
380.626	53.6
380.841	106.5
381.056	41.59
381.271	62.9
381.485	1.29
381.7	-16.53
381.915	42.17
382.129	-1.81
382.344	29.58
382.559	23.19
382.773	29.97
382.988	-26.22
383.202	26.67
383.417	0.9
383.632	109.6
383.846	12.34
384.061	46.82
384.275	24.74
384.49	42.56
384.704	34.42
384.919	32.29
385.133	10.79
385.348	23.77
385.562	-13.43
385.777	37.33
385.991	25.32
386.206	28.22
386.42	4.78
386.634	55.35
386.849	45.85
387.063	28.42
387.277	-18.86
387.492	1.68
387.706	-22.73
387.92	-7.62
388.135	44.3
388.349	58.45
388.563	37.72
388.778	20.86
388.992	51.67
389.206	37.33
389.42	86.93
389.635	20.47
389.849	29.19
390.063	59.22
390.277	28.42
390.491	74.72
390.706	46.63
390.92	39.07
391.134	15.63
391.348	61.55
391.562	-34.16
391.776	0.52
391.99	0.71
392.205	66
392.419	-20.41
392.633	21.44
392.847	83.05
393.061	5.75
393.275	74.14
393.489	16.99
393.703	30.16
393.917	60.58
394.131	10.79
394.345	37.91
394.559	55.15
394.773	2.65
394.986	34.03
395.2	18.54
395.414	33.26
395.628	-14.4
395.842	27.06
396.056	-4.33
396.27	-24.28
396.484	22.99
396.697	39.27
396.911	86.73
397.125	52.05
397.339	41.78
397.553	30.35
397.766	85.96
397.98	69.49
398.194	73.17
398.408	24.54
398.621	33.45
398.835	40.43
399.049	30.74
399.262	73.75
399.476	53.99
399.69	57.87
399.903	117.35
400.117	26.87
400.331	52.44
400.544	11.37
400.758	163.65
400.971	39.85
401.185	41.01
401.398	-10.53
401.612	91.38
401.826	46.63
402.039	56.12
402.253	16.21
402.466	50.31
402.68	53.8
402.893	56.51
403.106	45.66
403.32	38.88
403.533	55.73
403.747	22.99
403.96	47.4
404.174	64.45
404.387	9.82
404.6	20.86
404.814	64.84
405.027	18.73
405.24	52.63
405.454	39.65
405.667	63.48
405.88	-19.44
406.094	42.56
406.307	91.58
406.52	18.54
406.733	19.12
406.947	17.95
407.16	83.63
407.373	74.53
407.586	15.24
407.799	6.33
408.012	85.18
408.226	56.7
408.439	92.55
408.652	12.53
408.865	30.16
409.078	87.7
409.291	55.35
409.504	-10.72
409.717	44.69
409.93	42.75
410.143	59.8
410.357	12.34
410.57	-6.85
410.783	13.89
410.996	43.72
411.209	29.19
411.421	87.12
411.634	32.29
411.847	-0.65
412.06	25.7
412.273	27.64
412.486	39.46
412.699	117.73
412.912	39.65
413.125	56.12
413.338	37.52
413.55	88.67
413.763	47.6
413.976	37.13
414.189	46.43
414.402	7.49
414.615	90.22
414.827	24.15
415.04	56.9
415.253	83.44
415.466	83.25
415.678	87.32
415.891	21.83
416.104	45.08
416.316	53.02
416.529	6.33
416.742	79.37
416.954	78.4
417.167	39.85
417.38	32.87
417.592	76.47
417.805	9.04
418.017	-19.63
418.23	59.22
418.442	40.43
418.655	11.75
418.868	45.08
419.08	91
419.293	89.64
419.505	59.61
419.718	65.42
419.93	80.92
420.142	44.5
420.355	102.23
420.567	98.17
420.78	95.26
420.992	50.31
421.205	116.38
421.417	3.81
421.629	34.42
421.842	22.02
422.054	-1.03
422.266	63.68
422.479	84.02
422.691	27.06
422.903	82.08
423.115	36.94
423.328	50.5
423.54	39.07
423.752	39.85
423.964	29.58
424.177	81.7
424.389	24.15
424.601	169.27
424.813	50.12
425.025	81.12
425.238	90.22
425.45	35.78
425.662	53.6
425.874	365.54
426.086	53.22
426.298	62.9
426.51	68.13
426.722	53.8
426.934	40.62
427.146	101.65
427.358	43.72
427.57	80.92
427.782	69.68
427.994	60.38
428.206	40.43
428.418	15.44
428.63	102.43
428.842	96.23
429.054	56.51
429.266	92.16
429.478	60.38
429.69	91.58
429.902	14.47
430.114	96.62
430.325	62.9
430.537	49.15
430.749	51.67
430.961	9.04
431.173	73.17
431.384	106.11
431.596	31.32
431.808	24.74
432.02	64.45
432.231	107.08
432.443	108.43
432.655	73.37
432.867	59.22
433.078	81.89
433.29	170.43
433.502	97.39
433.713	114.83
433.925	73.95
434.136	116.57
434.348	63.87
434.56	38.68
434.771	168.5
434.983	21.44
435.194	58.06
435.406	65.62
435.617	97
435.829	122.58
436.04	85.57
436.252	115.8
436.463	121.03
436.675	128.97
436.886	85.57
437.098	60.19
437.309	147.76
437.521	72.4
437.732	87.12
437.943	79.76
438.155	113.47
438.366	42.75
438.578	146.99
438.789	100.68
439	112.31
439.211	100.1
439.423	96.62
439.634	134.4
439.845	109.79
440.057	140.6
440.268	133.04
440.479	96.42
440.69	96.81
440.902	95.26
441.113	122.96
441.324	84.22
441.535	118.7
441.746	175.66
441.957	52.25
442.168	71.04
442.38	98.36
442.591	152.22
442.802	94.29
443.013	89.83
443.224	114.63
443.435	116.76
443.646	107.66
443.857	103.2
444.068	92.16
444.279	86.54
444.49	167.14
444.701	119.67
444.912	231.66
445.123	149.9
445.334	150.86
445.545	130.13
445.756	120.45
445.967	105.33
446.178	105.33
446.388	143.11
446.599	180.12
446.81	168.69
447.021	145.63
447.232	176.05
447.443	185.74
447.653	106.3
447.864	185.74
448.075	138.85
448.286	163.26
448.496	170.43
448.707	166.56
448.918	163.85
449.129	248.51
449.339	128.39
449.55	169.66
449.761	163.07
449.971	213.06
450.182	123.35
450.393	179.93
450.603	138.66
450.814	186.9
451.024	166.95
451.235	178.38
451.446	222.36
451.656	227.01
451.867	136.33
452.077	162.88
452.288	236.31
452.498	207.83
452.709	150.86
452.919	195.43
453.13	125.48
453.34	237.47
453.55	123.16
453.761	207.24
453.971	190.97
454.182	194.26
454.392	159.2
454.602	206.86
454.813	182.06
455.023	199.5
455.233	138.85
455.444	182.64
455.654	118.12
455.864	184.38
456.075	160.75
456.285	171.4
456.495	158.03
456.705	189.03
456.916	233.79
457.126	259.56
457.336	188.06
457.546	124.71
457.756	163.46
457.967	236.31
458.177	163.07
458.387	186.13
458.597	166.75
458.807	175.86
459.017	173.73
459.227	170.63
459.437	201.82
459.647	224.49
459.857	207.24
460.068	187.48
460.278	253.16
460.488	219.26
460.698	262.27
460.908	181.28
461.117	183.03
461.327	166.75
461.537	188.06
461.747	198.53
461.957	224.68
462.167	315.36
462.377	231.08
462.587	202.6
462.797	242.7
463.007	205.69
463.216	245.61
463.426	257.43
463.636	241.54
463.846	187.68
464.056	172.18
464.265	258.59
464.475	204.92
464.685	205.5
464.895	246.96
465.104	209.76
465.314	217.51
465.524	214.22
465.733	183.61
465.943	285.13
466.153	271.18
466.362	250.06
466.572	240.96
466.782	199.5
466.991	235.34
467.201	279.51
467.41	161.91
467.62	239.41
467.829	229.53
468.039	244.25
468.249	237.86
468.458	213.06
468.668	265.56
468.877	268.28
469.086	291.72
469.296	274.48
469.505	226.81
469.715	288.23
469.924	263.24
470.134	293.66
470.343	278.54
470.552	238.63
470.762	236.5
470.971	194.46
471.18	275.64
471.39	260.53
471.599	215.96
471.808	261.49
472.018	235.73
472.227	305.28
472.436	289.2
472.645	241.34
472.855	242.7
473.064	317.29
473.273	273.31
473.482	294.43
473.691	314.39
473.901	312.84
474.11	283.78
474.319	374.45
474.528	277.19
474.737	359.53
474.946	300.82
475.155	304.51
475.364	332.02
475.573	283.78
475.783	297.14
475.992	319.81
476.201	334.34
476.41	310.32
476.619	264.01
476.828	328.53
477.037	286.68
477.245	292.11
477.454	354.49
477.663	290.17
477.872	309.16
478.081	366.51
478.29	286.68
478.499	370.19
478.708	299.86
478.917	388.79
479.125	337.25
479.334	344.42
479.543	316.71
479.752	354.11
479.961	338.41
480.169	375.22
480.378	329.89
480.587	449.43
480.796	392.08
481.004	353.91
481.213	372.12
481.422	382.97
481.63	356.24
481.839	392.47
482.048	418.62
482.256	384.91
482.465	364.37
482.674	411.65
482.882	417.07
483.091	431.22
483.299	374.45
483.508	437.8
483.716	358.56
483.925	386.46
484.134	378.32
484.342	380.84
484.551	397.5
484.759	434.12
484.967	408.35
485.176	433.93
485.384	430.44
485.593	453.11
485.801	404.09
486.01	418.04
486.218	391.5
486.426	324.27
486.635	383.36
486.843	367.09
487.051	409.13
487.26	393.82
487.468	409.71
487.676	444.78
487.885	370.19
488.093	417.65
488.301	414.94
488.509	461.25
488.717	475.39
488.926	429.28
489.134	426.95
489.342	465.51
489.55	420.95
489.758	438.77
489.967	418.43
490.175	534.29
490.383	424.44
490.591	546.5
490.799	439.16
491.007	513.95
491.215	457.18
491.423	463.57
491.631	472.1
491.839	475.2
492.047	485.66
492.255	454.66
492.463	387.62
492.671	471.13
492.879	528.28
493.087	494.96
493.295	506.58
493.503	493.02
493.711	535.84
493.919	527.32
494.127	528.87
494.334	542.04
494.542	480.82
494.75	471.9
494.958	510.07
495.166	568
495.374	507.17
495.581	501.93
495.789	512.98
495.997	573.23
496.205	521.7
496.412	508.33
496.62	520.53
496.828	539.52
497.035	520.92
497.243	528.09
497.451	491.08
497.658	551.53
497.866	530.42
498.074	611.6
498.281	511.82
498.489	595.13
498.696	527.7
498.904	525.18
499.112	538.36
499.319	609.66
499.527	520.34
499.734	578.27
499.942	537.2
500.149	485.66
500.357	562.38
500.564	502.13
500.771	558.51
500.979	515.11
501.186	505.81
501.394	578.27
501.601	547.08
501.808	588.15
502.016	531.38
502.223	546.5
502.43	544.56
502.638	554.63
502.845	506
503.052	640.66
503.26	552.89
503.467	626.13
503.674	567.23
503.881	579.63
504.089	637.75
504.296	580.21
504.503	546.5
504.71	585.44
504.917	531
505.125	550.57
505.332	590.28
505.539	589.12
505.746	674.95
505.953	630.58
506.16	598.61
506.367	660.23
506.574	627.1
506.781	669.91
506.988	562.96
507.195	617.8
507.402	593.19
507.609	624
507.816	590.09
508.023	615.47
508.23	607.91
508.437	556.96
508.644	633.68
508.851	669.91
509.058	666.43
509.265	630.97
509.472	668.17
509.679	729.2
509.885	634.65
510.092	670.11
510.299	635.23
510.506	641.82
510.713	647.05
510.92	660.42
511.126	664.29
511.333	710.02
511.54	685.99
511.746	723.19
511.953	698.78
512.16	709.05
512.367	696.65
512.573	682.31
512.78	715.64
512.987	682.7
513.193	718.16
513.4	627.87
513.606	673.79
513.813	678.24
514.02	718.35
514.226	775.89
514.433	723
514.639	631.36
514.846	709.44
515.052	674.18
515.259	690.45
515.465	677.86
515.672	687.93
515.878	775.31
516.085	691.03
516.291	742.57
516.497	666.23
516.704	695.49
516.91	665.65
517.117	649.38
517.323	599.2
517.529	650.73
517.736	637.75
517.942	668.75
518.148	644.14
518.354	698.01
518.561	649.38
518.767	696.65
518.973	738.89
519.179	753.61
519.386	670.69
519.592	646.47
519.798	688.13
520.004	747.41
520.21	704.4
520.417	773.18
520.623	775.89
520.829	792.17
521.035	763.3
521.241	783.06
521.447	797.4
521.653	871.41
521.859	772.21
522.065	787.71
522.271	883.62
522.477	809.02
522.683	828.2
522.889	820.65
523.095	816.97
523.301	801.27
523.507	780.35
523.713	828.59
523.919	809.61
524.125	858.62
524.331	838.28
524.537	903.77
524.742	857.46
524.948	894.66
525.154	883.42
525.36	940.38
525.566	890.01
525.772	939.22
525.977	849.71
526.183	895.63
526.389	889.43
526.595	850.29
526.8	847.39
527.006	816.97
527.212	806.31
527.417	799.72
527.623	779.19
527.829	877.61
528.034	852.62
528.24	840.22
528.446	824.52
528.651	888.65
528.857	877.03
529.062	949.1
529.268	899.12
529.473	934.57
529.679	909.38
529.884	969.25
530.09	935.93
530.295	987.85
530.501	964.6
530.706	931.86
530.912	887.3
531.117	926.82
531.323	909.77
531.528	987.85
531.733	1008.2
531.939	959.95
532.144	991.53
532.35	948.33
532.555	1014.4
532.76	972.93
532.966	984.37
533.171	970.42
533.376	984.37
533.581	934.57
533.787	943.68
533.992	958.98
534.197	1022.92
534.402	934.77
534.607	976.03
534.813	1064.77
535.018	966.93
535.223	922.56
535.428	1002.77
535.633	1018.27
535.838	994.05
536.043	1007.03
536.249	1067.68
536.454	997.35
536.659	1005.48
536.864	962.47
537.069	999.28
537.274	1034.35
537.479	1006.84
537.684	992.7
537.889	970.61
538.094	1086.47
538.299	1012.65
538.504	1030.67
538.708	1039
538.913	1043.65
539.118	1003.35
539.323	1071.94
539.528	977.78
539.733	1048.69
539.938	1055.66
540.142	1033
540.347	1049.66
540.552	1007.23
540.757	1019.05
540.962	1005.1
541.166	964.99
541.371	968.28
541.576	1030.86
541.781	919.85
541.985	1037.26
542.19	1034.35
542.395	1089.18
542.599	1100.42
542.804	1092.67
543.008	1109.14
543.213	1033
543.418	1022.73
543.622	1071.36
543.827	978.94
544.031	1120.76
544.236	1081.24
544.44	1056.05
544.645	1152.73
544.849	1070.97
545.054	1084.34
545.258	1137.04
545.463	1133.16
545.667	1040.16
545.872	1094.41
546.076	1096.93
546.281	1079.88
546.485	1037.06
546.689	1092.86
546.894	1094.8
547.098	1083.18
547.302	1029.51
547.507	1070.97
547.711	1081.63
547.915	1115.92
548.119	1035.32
548.324	1080.66
548.528	1130.84
548.732	1060.9
548.936	1106.43
549.141	1148.08
549.345	1058.18
549.549	1101.39
549.753	1080.66
549.957	1122.89
550.161	1160.68
550.366	1104.1
550.57	1084.53
550.774	1097.71
550.978	1083.56
551.182	1118.24
551.386	1083.37
551.59	1077.36
551.794	1086.08
551.998	1113.59
552.202	1097.51
552.406	1021.18
552.61	1091.7
552.814	1096.16
553.018	1161.26
553.222	1082.79
553.426	1054.7
553.63	1179.08
553.833	1087.83
554.037	1056.05
554.241	1124.25
554.445	1122.31
554.649	1070.39
554.853	1091.89
555.056	1157.96
555.26	1127.54
555.464	1111.46
555.668	1131.61
555.871	1137.04
556.075	1141.3
556.279	1047.53
556.483	1052.18
556.686	1082.01
556.89	1111.66
557.094	1120.96
557.297	1022.53
557.501	1120.57
557.704	1037.84
557.908	1138.59
558.112	1035.9
558.315	1171.91
558.519	1085.69
558.722	1076.01
558.926	1078.53
559.129	1044.81
559.333	977.2
559.536	1023.5
559.74	1047.33
559.943	1014.01
560.147	1023.5
560.35	1051.21
560.553	1028.93
560.757	990.56
560.96	1109.91
561.164	1035.9
561.367	1108.94
561.57	1030.67
561.774	1069.03
561.977	1024.66
562.18	1027.96
562.384	1125.99
562.587	1070.2
562.79	1028.93
562.993	1029.9
563.197	1075.62
563.4	1125.8
563.603	1088.41
563.806	1145.18
564.009	1032.03
564.212	1041.52
564.416	1009.16
564.619	1066.51
564.822	976.23
565.025	1111.27
565.228	1015.75
565.431	1024.86
565.634	965.77
565.837	1018.27
566.04	969.45
566.243	968.67
566.446	891.95
566.649	1012.26
566.852	963.83
567.055	984.17
567.258	1017.11
567.461	1076.2
567.664	1048.69
567.867	934.77
568.07	1025.05
568.273	984.17
568.475	1034.74
568.678	971.97
568.881	985.14
569.084	981.27
569.287	905.9
569.489	951.62
569.692	1008.39
569.895	962.86
570.098	917.52
570.3	922.95
570.503	892.92
570.706	932.63
570.909	910.35
571.111	889.24
571.314	867.92
571.516	887.49
571.719	911.71
571.922	897.57
572.124	896.6
572.327	916.36
572.529	876.64
572.732	883.42
572.935	906.87
573.137	994.44
573.34	899.31
573.542	941.74
573.745	966.73
573.947	923.33
574.15	896.4
574.352	886.72
574.554	997.93
574.757	896.21
574.959	887.3
575.162	879.74
575.364	903.57
575.566	981.85
575.769	844.87
575.971	888.65
576.173	818.13
576.376	872.19
576.578	897.76
576.78	970.03
576.982	811.93
577.185	863.47
577.387	878
577.589	834.4
577.791	880.13
577.993	916.94
578.196	895.05
578.398	893.69
578.6	880.9
578.802	839.64
579.004	809.02
579.206	852.81
579.408	879.94
579.61	876.25
579.812	902.99
580.014	859.59
580.216	827.04
580.418	851.26
580.62	819.1
580.822	797.01
581.024	833.82
581.226	892.53
581.428	844.29
581.63	958.98
581.832	849.71
582.034	897.95
582.236	878.58
582.438	900.47
582.64	927.98
582.841	925.08
583.043	980.49
583.245	896.79
583.447	890.01
583.649	853.59
583.85	915.78
584.052	897.76
584.254	877.61
584.456	910.16
584.657	853
584.859	907.06
585.061	843.9
585.262	883.42
585.464	827.82
585.666	901.64
585.867	834.02
586.069	931.67
586.27	887.69
586.472	851.65
586.674	843.9
586.875	854.55
587.077	837.7
587.278	875.87
587.48	816.39
587.681	955.11
587.883	862.11
588.084	806.7
588.285	820.45
588.487	819.68
588.688	861.53
588.89	772.99
589.091	737.34
589.292	788.68
589.494	752.64
589.695	763.69
589.896	701.69
590.098	687.54
590.299	769.89
590.5	711.96
590.702	758.84
590.903	764.85
591.104	803.6
591.305	814.45
591.507	867.73
591.708	778.8
591.909	794.69
592.11	862.3
592.311	853.2
592.512	783.64
592.714	750.12
592.915	753.22
593.116	774.92
593.317	780.35
593.518	788.87
593.719	793.33
593.92	830.72
594.121	844.09
594.322	819.49
594.523	802.24
594.724	752.26
594.925	785.39
595.126	809.22
595.327	817.74
595.528	763.69
595.729	827.62
595.929	783.45
596.13	813.48
596.331	797.21
596.532	798.76
596.733	876.64
596.934	819.49
597.135	810.96
597.335	826.27
597.536	771.05
597.737	785.58
597.938	785.97
598.138	793.91
598.339	811.16
598.54	831.11
598.74	805.92
598.941	795.07
599.142	877.03
599.342	802.63
599.543	758.07
599.744	796.04
599.944	780.54
600.145	758.26
600.345	803.21
600.546	900.47
600.746	851.26
600.947	880.32
601.147	828.59
601.348	846.22
601.548	764.46
601.749	793.33
601.949	745.67
602.15	787.32
602.35	787.91
602.551	819.29
602.751	756.91
602.951	783.45
603.152	712.73
603.352	822.59
603.552	776.47
603.753	848.55
603.953	834.21
604.153	793.72
604.354	779.38
604.554	805.15
604.754	815.22
604.954	778.8
605.155	791.39
605.355	782.09
605.555	822.59
605.755	837.5
605.955	785.97
606.155	824.72
606.356	794.3
606.556	832.85
606.756	801.47
606.956	763.11
607.156	857.85
607.356	771.05
607.556	813.87
607.756	774.54
607.956	850.29
608.156	810.57
608.356	755.74
608.556	802.82
608.756	803.21
608.956	752.64
609.156	798.56
609.356	761.36
609.556	744.7
609.755	801.66
609.955	744.12
610.155	768.92
610.355	789.07
610.555	751.67
610.755	771.82
610.954	719.71
611.154	780.54
611.354	823.36
611.554	750.12
611.753	757.87
611.953	721.26
612.153	789.46
612.352	794.3
612.552	723.39
612.752	724.94
612.951	769.5
613.151	767.37
613.351	723.19
613.55	740.24
613.75	778.99
613.949	766.01
614.149	758.46
614.348	754.77
614.548	706.73
614.747	715.25
614.947	730.36
615.146	663.71
615.346	766.98
615.545	760.97
615.745	761.94
615.944	755.16
616.144	734.24
616.343	748.19
616.542	697.04
616.742	735.59
616.941	704.79
617.14	692.78
617.34	716.61
617.539	707.5
617.738	681.54
617.938	789.26
618.137	735.21
618.336	660.23
618.535	703.04
618.734	708.28
618.934	753.81
619.133	735.79
619.332	743.34
619.531	684.44
619.73	696.26
619.929	758.84
620.128	726.88
620.328	776.09
620.527	697.23
620.726	685.41
620.925	730.94
621.124	704.01
621.323	745.67
621.522	674.37
621.721	683.28
621.92	665.84
622.119	713.51
622.318	664.49
622.517	694.33
622.715	665.46
622.914	635.43
623.113	695.1
623.312	641.63
623.511	697.43
623.71	690.06
623.909	654.99
624.107	742.57
624.306	637.56
624.505	656.35
624.704	637.17
624.902	660.42
625.101	740.63
625.3	677.66
625.499	652.86
625.697	636.98
625.896	634.07
626.095	671.46
626.293	610.05
626.492	641.82
626.69	667.2
626.889	648.99
627.088	707.69
627.286	617.8
627.485	641.82
627.683	612.56
627.882	653.83
628.08	555.02
628.279	623.8
628.477	697.81
628.676	584.66
628.874	622.64
629.073	604.62
629.271	606.56
629.469	650.54
629.668	641.63
629.866	609.46
630.065	636.2
630.263	671.08
630.461	582.15
630.66	611.79
630.858	647.24
631.056	656.93
631.254	669.14
631.453	630.2
631.651	660.23
631.849	604.43
632.047	644.73
632.245	631.36
632.444	647.63
632.642	654.99
632.84	644.34
633.038	639.69
633.236	597.65
633.434	588.15
633.632	620.7
633.83	592.61
634.028	640.46
634.227	620.31
634.425	685.22
634.623	627.1
634.821	640.08
635.019	670.49
635.216	607.91
635.414	660.81
635.612	646.86
635.81	612.76
636.008	684.64
636.206	599.58
636.404	623.03
636.602	590.48
636.8	638.91
636.997	648.6
637.195	631.16
637.393	675.73
637.591	666.62
637.789	629.42
637.986	630.58
638.184	615.86
638.382	695.29
638.58	670.49
638.777	697.62
638.975	649.76
639.173	646.47
639.37	634.85
639.568	659.06
639.765	664.1
639.963	627.48
640.161	688.9
640.358	651.7
640.556	606.95
640.753	598.61
640.951	574.01
641.148	635.81
641.346	603.07
641.543	605.01
641.741	613.92
641.938	596.68
642.136	633.49
642.333	585.83
642.531	652.28
642.728	639.11
642.925	618.96
643.123	618.18
643.32	643.56
643.517	617.8
643.715	610.43
643.912	582.15
644.109	641.63
644.306	618.57
644.504	565.87
644.701	609.27
644.898	614.31
645.095	586.41
645.293	607.53
645.49	632.33
645.687	599.78
645.884	646.47
646.081	560.64
646.278	576.14
646.475	579.24
646.672	569.16
646.87	599.39
647.067	618.38
647.264	597.45
647.461	554.63
647.658	524.99
647.855	603.46
648.052	560.45
648.249	494.77
648.446	581.95
648.642	536.42
648.839	532.16
649.036	554.05
649.233	500.77
649.43	515.88
649.627	485.47
649.824	542.82
650.021	558.31
650.217	503.29
650.414	552.7
650.611	554.63
650.808	585.44
651.004	551.53
651.201	579.43
651.398	593.77
651.595	560.83
651.791	521.12
651.988	590.28
652.185	521.5
652.381	562.77
652.578	494.18
652.775	545.53
652.971	541.85
653.168	540.88
653.364	595.71
653.561	506.58
653.757	556.96
653.954	556.96
654.15	483.14
654.347	598.61
654.543	546.11
654.74	504.45
654.936	494.77
655.133	539.91
655.329	580.6
655.525	532.55
655.722	555.6
655.918	531
656.115	514.14
656.311	474.03
656.507	444.78
656.704	411.45
656.9	460.09
657.096	450.01
657.292	448.46
657.489	506.78
657.685	514.92
657.881	488.76
658.077	486.63
658.273	489.15
658.47	545.92
658.666	474.23
658.862	518.98
659.058	483.72
659.254	554.25
659.45	497.67
659.646	526.54
659.842	502.13
660.038	581.18
660.234	487.21
660.43	501.35
660.626	558.31
660.822	545.53
661.018	523.63
661.214	536.42
661.41	476.55
661.606	531.97
661.802	517.63
661.998	534.68
662.194	475.97
662.39	542.62
662.586	541.27
662.781	539.33
662.977	560.06
663.173	558.51
663.369	519.57
663.564	533.13
663.76	542.23
663.956	500.58
664.152	579.24
664.347	452.53
664.543	506
664.739	495.73
664.934	484.5
665.13	473.84
665.326	535.84
665.521	519.57
665.717	481.4
665.912	462.99
666.108	395.18
666.304	488.76
666.499	483.14
666.695	436.64
666.89	471.32
667.086	512.98
667.281	512.01
667.477	552.5
667.672	481.78
667.867	513.37
668.063	516.66
668.258	463.57
668.454	473.65
668.649	551.73
668.844	476.36
669.04	492.05
669.235	495.15
669.43	448.46
669.626	457.95
669.821	473.84
670.016	423.85
670.211	481.4
670.407	431.02
670.602	458.15
670.797	477.13
670.992	536.42
671.187	458.15
671.382	492.25
671.578	454.47
671.773	474.62
671.968	425.02
672.163	481.59
672.358	504.84
672.553	474.42
672.748	468.8
672.943	533.52
673.138	497.67
673.333	491.67
673.528	434.9
673.723	449.62
673.918	465.51
674.113	421.72
674.308	514.53
674.503	480.04
674.698	466.48
674.892	500.19
675.087	513.56
675.282	484.5
675.477	451.56
675.672	482.56
675.867	452.53
676.061	423.08
676.256	402.54
676.451	422.89
676.646	467.83
676.84	441.68
677.035	414.75
677.23	407
677.424	456.99
677.619	492.63
677.814	485.08
678.008	502.71
678.203	426.95
678.397	439.55
678.592	452.14
678.787	507.55
678.981	431.22
679.176	474.81
679.37	447.88
679.565	421.92
679.759	413.78
679.954	468.61
680.148	494.77
680.342	509.49
680.537	442.84
680.731	414.94
680.926	468.03
681.12	475.2
681.314	411.65
681.509	445.36
681.703	454.08
681.897	458.92
682.092	462.99
682.286	430.25
682.48	509.49
682.674	498.25
682.869	447.49
683.063	441.87
683.257	537.39
683.451	456.02
683.645	439.94
683.839	453.11
684.034	448.65
684.228	504.84
684.422	388.4
684.616	395.37
684.81	463.77
685.004	445.36
685.198	439.55
685.392	492.44
685.586	383.55
685.78	459.12
685.974	466.48
686.168	464.74
686.362	518.02
686.556	415.72
686.75	410.29
686.944	412.42
687.138	414.55
687.331	311.87
687.525	356.24
687.719	345
687.913	380.65
688.107	372.71
688.301	339.19
688.494	382.39
688.688	317.49
688.882	328.92
689.076	328.72
689.269	360.5
689.463	441.87
689.657	373.29
689.85	352.94
690.044	387.04
690.238	376.39
690.431	387.04
690.625	365.15
690.818	419.4
691.012	395.57
691.205	450.98
691.399	385.3
691.593	424.05
691.786	464.35
691.98	457.18
692.173	505.62
692.366	457.18
692.56	479.85
692.753	502.9
692.947	430.05
693.14	521.5
693.333	477.72
693.527	428.31
693.72	485.85
693.914	470.55
694.107	461.44
694.3	480.43
694.493	483.33
694.687	529.06
694.88	459.12
695.073	531
695.266	532.55
695.46	494.77
695.653	558.12
695.846	537.78
696.039	484.3
696.232	483.14
696.425	533.13
696.618	533.13
696.812	516.47
697.005	596.87
697.198	666.23
697.391	569.16
697.584	624
697.777	648.99
697.97	668.94
698.163	602.49
698.356	620.31
698.549	679.41
698.742	640.27
698.935	626.13
699.127	639.88
699.32	627.1
699.513	579.43
699.706	629.42
699.899	641.43
700.092	613.34
700.285	661.97
700.477	604.04
700.67	652.67
700.863	692.58
701.056	760.78
701.248	708.66
701.441	714.09
701.634	652.67
701.826	810.38
702.019	678.83
702.212	722.23
702.404	661.39
702.597	651.51
702.79	718.54
702.982	716.8
703.175	765.04
703.367	751.87
703.56	769.31
703.752	832.27
703.945	799.53
704.137	799.92
704.33	810.57
704.522	823.17
704.715	851.26
704.907	819.87
705.1	868.5
705.292	894.27
705.484	840.8
705.677	887.3
705.869	871.6
706.061	893.89
706.254	935.93
706.446	893.5
706.638	893.5
706.831	946.97
707.023	930.31
707.215	994.44
707.407	975.84
707.599	986.3
707.792	1025.25
707.984	971.77
708.176	1010.71
708.368	974.68
708.56	997.54
708.752	986.3
708.944	1001.22
709.136	1030.09
709.329	1025.83
709.521	1145.56
709.713	1093.25
709.905	1114.76
710.097	1129.48
710.289	1056.83
710.481	1089.96
710.672	1094.99
710.864	1097.13
711.056	1177.92
711.248	1142.08
711.44	1184.12
711.632	1138.01
711.824	1176.76
712.016	1215.51
712.207	1214.34
712.399	1187.8
712.591	1257.35
712.783	1201.56
712.975	1230.04
713.166	1194.58
713.358	1220.74
713.55	1292.81
713.741	1289.52
713.933	1269.17
714.125	1255.8
714.316	1234.88
714.508	1360.62
714.7	1311.02
714.891	1302.5
715.083	1330.4
715.274	1303.27
715.466	1313.93
715.657	1352.68
715.849	1262.2
716.04	1329.04
716.232	1278.47
716.423	1355.97
716.615	1272.08
716.806	1258.32
716.998	1248.25
717.189	1178.89
717.381	1125.8
717.572	1124.06
717.763	1188.96
717.955	1124.64
718.146	1147.89
718.337	1079.11
718.528	1046.36
718.72	997.15
718.911	1080.27
719.102	1011.68
719.293	1112.24
719.485	1033.58
719.676	1055.86
719.867	1044.23
720.058	1049.46
720.249	1009.16
720.44	1068.65
720.632	1117.66
720.823	1153.31
721.014	1248.64
721.205	1194.77
721.396	1253.09
721.587	1338.54
721.778	1334.08
721.969	1356.36
722.16	1396.27
722.351	1368.95
722.542	1466.6
722.733	1502.83
722.924	1429.21
723.115	1482.68
723.305	1478.23
723.496	1466.8
723.687	1362.75
723.878	1380.38
724.069	1381.35
724.26	1405.18
724.45	1351.13
724.641	1345.12
724.832	1373.41
725.023	1374.96
725.213	1334.85
725.404	1324.59
725.595	1380.97
725.785	1344.73
725.976	1425.53
726.167	1372.44
726.357	1387.36
726.548	1463.7
726.739	1357.72
726.929	1449.75
727.12	1460.79
727.31	1489.08
727.501	1411.19
727.691	1445.48
727.882	1465.44
728.072	1513.88
728.263	1470.86
728.453	1514.65
728.644	1493.34
728.834	1483.26
729.024	1460.98
729.215	1455.36
729.405	1554.18
729.596	1561.73
729.786	1575.49
729.976	1582.08
730.167	1587.5
730.357	1547.78
730.547	1619.86
730.737	1596.8
730.928	1637.68
731.118	1642.33
731.308	1602.61
731.498	1615.21
731.688	1741.72
731.879	1673.14
732.069	1709.75
732.259	1707.04
732.449	1721.19
732.639	1764.78
732.829	1823.29
733.019	1834.14
733.209	1872.31
733.399	1882.19
733.589	1956.2
733.779	1907.38
733.969	1905.83
734.159	1981.78
734.349	2022.27
734.539	2042.42
734.729	2024.59
734.919	2070.12
735.109	2092.21
735.299	2002.7
735.488	2068.19
735.678	2071.67
735.868	2069.54
736.058	2054.62
736.248	2069.74
736.437	2019.17
736.627	2006.19
736.817	2126.31
737.007	2077.49
737.196	2111.39
737.386	2083.49
737.576	2059.27
737.765	2123.99
737.955	2129.22
738.144	2172.42
738.334	2163.12
738.524	2114.11
738.713	2123.41
738.903	2138.13
739.092	2151.69
739.282	2179.59
739.471	2148.2
739.661	2172.04
739.85	2189.09
740.04	2187.34
740.229	2207.3
740.419	2259.61
740.608	2263.48
740.797	2221.25
740.987	2309.98
741.176	2256.7
741.365	2255.15
741.555	2179.59
741.744	2272.4
741.933	2291.97
742.123	2247.6
742.312	2318.51
742.501	2307.27
742.69	2367.72
742.88	2285.38
743.069	2397.36
743.258	2274.72
743.447	2361.52
743.636	2370.05
743.825	2339.24
744.014	2345.05
744.204	2323.16
744.393	2321.61
744.582	2381.67
744.771	2430.3
744.96	2337.11
745.149	2365.4
745.338	2310.95
745.527	2376.44
745.716	2378.76
745.905	2367.53
746.094	2383.61
746.283	2416.74
746.471	2376.25
746.66	2436.5
746.849	2409.18
747.038	2467.11
747.227	2359
747.416	2416.16
747.604	2355.13
747.793	2338.08
747.982	2377.6
748.171	2416.74
748.359	2453.36
748.548	2397.75
748.737	2415.19
748.926	2378.76
749.114	2316.18
749.303	2416.16
749.491	2358.03
749.68	2304.36
749.869	2393.88
750.057	2373.92
750.246	2359
750.434	2375.86
750.623	2358.61
750.811	2333.81
751	2391.55
751.188	2392.71
751.377	2389.81
751.565	2329.75
751.754	2307.27
751.942	2365.78
752.131	2397.75
752.319	2342.53
752.507	2293.9
752.696	2366.56
752.884	2369.66
753.072	2343.89
753.261	2351.64
753.449	2331.88
753.637	2309.01
753.825	2434.56
754.014	2322.58
754.202	2320.06
754.39	2411.51
754.578	2360.16
754.766	2330.71
754.955	2320.83
755.143	2382.64
755.331	2329.36
755.519	2330.71
755.707	2342.34
755.895	2286.15
756.083	2335.17
756.271	2245.47
756.459	2292.93
756.647	2376.44
756.835	2303.59
757.023	2285.96
757.211	2266.2
757.399	2288.87
757.587	2277.63
757.775	2237.91
757.963	2253.8
758.151	2267.36
758.339	2259.42
758.526	2266.78
758.714	2294.48
758.902	2220.67
759.09	2137.16
759.278	2022.46
759.465	1856.81
759.653	1592.54
759.841	1440.45
760.028	1247.67
760.216	1064.77
760.404	1068.06
760.591	830.34
760.779	721.06
760.967	618.57
761.154	508.13
761.342	544.75
761.529	543.78
761.717	582.73
761.905	576.72
762.092	615.66
762.28	584.66
762.467	588.54
762.655	526.93
762.842	541.85
763.029	559.28
763.217	573.43
763.404	596.1
763.592	586.8
763.779	554.44
763.966	582.53
764.154	649.96
764.341	677.86
764.528	683.67
764.716	701.11
764.903	773.18
765.09	805.34
765.277	825.3
765.465	964.6
765.652	1006.06
765.839	1021.37
766.026	1110.11
766.213	1107.01
766.4	1213.37
766.588	1329.04
766.775	1328.85
766.962	1423.2
767.149	1441.41
767.336	1550.88
767.523	1519.88
767.71	1641.17
767.897	1699.29
768.084	1745.4
768.271	1756.25
768.458	1808.76
768.645	1838.79
768.832	1812.44
769.019	1829.88
769.206	1858.17
769.392	1950.58
769.579	2014.71
769.766	1957.75
769.953	1951.16
770.14	1985.84
770.327	1978.09
770.513	2037.38
770.7	2078.65
770.887	1969.96
771.073	2066.06
771.26	2008.13
771.447	1975.96
771.634	2012.58
771.82	2073.42
772.007	1986.81
772.193	2022.08
772.38	2071.29
772.567	2026.92
772.753	2003.48
772.94	2087.95
773.126	2061.79
773.313	2079.81
773.499	2059.08
773.686	2038.35
773.872	2020.53
774.059	2039.71
774.245	1988.94
774.432	2002.89
774.618	1916.1
774.804	1994.37
774.991	1960.46
775.177	2025.56
775.363	2014.33
775.55	2023.82
775.736	1951.94
775.922	2005.61
776.109	2017.04
776.295	1971.51
776.481	2014.52
776.667	2018.78
776.853	1977.13
777.04	1968.99
777.226	1975.19
777.412	2037.19
777.598	1930.43
777.784	1967.63
777.97	1933.34
778.156	1974.41
778.342	1941.67
778.528	1928.88
778.715	1907.38
778.901	1932.18
779.087	1965.31
779.272	1914.93
779.458	1894.01
779.644	1947.87
779.83	1886.45
780.016	1997.47
780.202	1932.76
780.388	1885.48
780.574	1792.29
780.76	1877.35
780.946	1950.58
781.131	1874.25
781.317	1927.72
781.503	1851.97
781.689	1871.15
781.874	1970.73
782.06	1883.35
782.246	1873.47
782.432	1867.08
782.617	1884.32
782.803	1936.05
782.989	1825.42
783.174	1858.94
783.36	1809.53
783.545	1791.32
783.731	1863.2
783.916	1767.3
784.102	1852.74
784.288	1812.05
784.473	1828.52
784.659	1827.75
784.844	1880.64
785.029	1773.3
785.215	1790.16
785.4	1745.79
785.586	1830.46
785.771	1741.53
785.956	1815.15
786.142	1775.63
786.327	1760.13
786.512	1810.7
786.698	1765.36
786.883	1751.41
787.068	1701.81
787.254	1773.5
787.439	1747.92
787.624	1726.03
787.809	1707.04
787.994	1717.12
788.18	1848.67
788.365	1700.07
788.55	1705.1
788.735	1686.31
788.92	1719.05
789.105	1681.66
789.29	1719.05
789.475	1637.68
789.66	1677.4
789.845	1671.2
790.03	1666.36
790.215	1709.56
790.4	1708.98
790.585	1712.66
790.77	1630.12
790.955	1609.59
791.14	1684.57
791.325	1730.68
791.51	1550.88
791.695	1637.87
791.879	1625.47
792.064	1619.66
792.249	1680.89
792.434	1622.18
792.618	1632.26
792.803	1653.57
792.988	1609.01
793.173	1602.22
793.357	1658.41
793.542	1605.91
793.727	1655.51
793.911	1676.24
794.096	1623.73
794.281	1661.71
794.465	1697.16
794.65	1628.57
794.834	1661.32
795.019	1721.57
795.203	1679.72
795.388	1706.85
795.572	1697.55
795.757	1652.21
795.941	1685.15
796.126	1688.25
796.31	1625.67
796.494	1629.74
796.679	1645.62
796.863	1627.41
797.048	1681.47
797.232	1671.59
797.416	1685.92
797.601	1643.49
797.785	1751.41
797.969	1717.12
798.153	1652.41
798.338	1713.24
798.522	1722.93
798.706	1726.61
798.89	1697.35
799.074	1751.22
799.258	1709.75
799.443	1697.94
799.627	1662.09
799.811	1747.73
799.995	1687.67
800.179	1642.72
800.363	1665.77
800.547	1686.51
800.731	1731.07
800.915	1613.85
801.099	1630.51
801.283	1640.78
801.467	1676.82
801.651	1632.64
801.835	1699.68
802.019	1681.66
802.202	1726.42
802.386	1629.74
802.57	1650.08
802.754	1649.89
802.938	1644.27
803.121	1655.89
803.305	1659.19
803.489	1659.19
803.673	1647.37
803.856	1696.97
804.04	1646.01
804.224	1676.43
804.407	1640.2
804.591	1670.62
804.775	1678.76
804.958	1683.02
805.142	1740.95
805.326	1646.98
805.509	1670.04
805.693	1715.37
805.876	1683.41
806.06	1698.71
806.243	1706.27
806.427	1733.2
806.61	1739.79
806.794	1668.49
806.977	1713.05
807.16	1698.13
807.344	1670.62
807.527	1668.49
807.71	1677.59
807.894	1718.09
808.077	1705.88
808.26	1673.72
808.444	1667.32
808.627	1714.6
808.81	1643.11
808.993	1582.46
809.177	1609.2
809.36	1635.36
809.543	1669.65
809.726	1564.83
809.909	1587.31
810.092	1555.92
810.276	1539.06
810.459	1596.41
810.642	1571.42
810.825	1543.71
811.008	1526.86
811.191	1496.83
811.374	1513.88
811.557	1494.31
811.74	1598.16
811.923	1467.38
812.106	1442.58
812.289	1399.37
812.472	1445.87
812.654	1479.78
812.837	1450.13
813.02	1373.8
813.203	1398.6
813.386	1311.02
813.569	1312.96
813.751	1265.49
813.934	1316.84
814.117	1322.84
814.3	1258.9
814.482	1249.61
814.665	1205.24
814.848	1181.6
815.03	1154.28
815.213	1175.98
815.396	1171.52
815.578	1140.53
815.761	1096.93
815.943	1196.32
816.126	1082.98
816.309	1042.49
816.491	1033
816.674	990.18
816.856	1042.88
817.039	982.04
817.221	1098.09
817.403	1058.38
817.586	1039
817.768	1079.11
817.951	1039.39
818.133	1001.61
818.315	1024.28
818.498	1045.01
818.68	1123.28
818.862	1081.04
819.045	1094.03
819.227	1110.49
819.409	1062.64
819.591	1081.04
819.774	1054.89
819.956	1046.36
820.138	1098.87
820.32	1066.71
820.502	1142.66
820.684	1172.88
820.866	1142.85
821.048	1196.13
821.231	1225.19
821.413	1180.82
821.595	1176.95
821.777	1181.99
821.959	1190.9
822.141	1240.69
822.323	1126.38
822.505	1085.69
822.686	1041.71
822.868	1035.32
823.05	960.15
823.232	953.75
823.414	902.02
823.596	965.57
823.778	919.85
823.96	954.14
824.141	930.5
824.323	938.06
824.505	1004.32
824.687	1067.68
824.868	1088.02
825.05	1128.13
825.232	1138.2
825.413	1236.62
825.595	1170.17
825.777	1134.13
825.958	1159.9
826.14	1144.98
826.321	1177.14
826.503	1174.43
826.685	1154.28
826.866	1172.3
827.048	1173.85
827.229	1148.28
827.411	1073.88
827.592	1071.94
827.773	1106.62
827.955	1055.47
828.136	1065.55
828.318	1011.88
828.499	1093.83
828.68	989.02
828.862	1055.66
829.043	1066.71
829.224	1039.39
829.406	1024.08
829.587	1035.71
829.768	1019.82
829.949	1038.23
830.131	1030.09
830.312	1100.61
830.493	1038.42
830.674	1072.71
830.855	1040.36
831.036	1051.98
831.218	1108.17
831.399	1119.21
831.58	1043.26
831.761	1052.76
831.942	1078.33
832.123	1057.02
832.304	1024.08
832.485	1040.94
832.666	1013.23
832.847	1073.49
833.028	1050.24
833.209	1030.86
833.389	997.35
833.57	975.45
833.751	991.15
833.932	1062.06
834.113	1036.1
834.294	1028.73
834.475	1047.33
834.655	1087.83
834.836	1061.67
835.017	1065.35
835.198	985.72
835.378	1057.02
835.559	1081.43
835.74	1025.44
835.92	1057.02
836.101	1000.45
836.281	1091.7
836.462	1077.17
836.643	1106.43
836.823	1107.01
837.004	1081.24
837.184	1131.03
837.365	1100.42
837.545	1092.09
837.726	1087.24
837.906	1118.05
838.087	1061.28
838.267	1103.71
838.448	1047.53
838.628	1067.87
838.808	1087.83
838.989	1130.64
839.169	1020.98
839.349	1111.08
839.53	1126.77
839.71	1113.98
839.89	1078.14
840.07	1164.16
840.251	1073.1
840.431	1127.35
840.611	1098.48
840.791	1053.53
840.971	1097.32
841.151	1067.48
841.332	1044.04
841.512	1139.36
841.692	1026.6
841.872	1105.46
842.052	1074.46
842.232	1092.28
842.412	1038.23
842.592	1063.03
842.772	1099.45
842.952	1097.71
843.132	1049.85
843.312	1061.86
843.492	1023.11
843.672	1099.45
843.851	1010.33
844.031	1044.23
844.211	1070.2
844.391	1019.63
844.571	1050.05
844.751	1101.97
844.93	1057.02
845.11	1011.1
845.29	1071.36
845.47	1068.65
845.649	1076.4
845.829	1055.47
846.009	989.6
846.188	1062.45
846.368	1043.85
846.547	1024.08
846.727	1045.4
846.907	1009.75
847.086	1020.79
847.266	1045.59
847.445	1045.4
847.625	995.6
847.804	1004.51
847.984	1067.48
848.163	1001.22
848.343	1005.68
848.522	1045.59
848.701	1056.83
848.881	975.65
849.06	1003.16
849.239	1009.94
849.419	1000.64
849.598	967.9
849.777	978.55
849.957	965.38
850.136	932.83
850.315	908.03
850.494	916.17
850.674	939.03
850.853	964.22
851.032	939.22
851.211	1042.3
851.39	952.59
851.569	906.48
851.748	886.33
851.927	975.84
852.107	993.08
852.286	940.58
852.465	911.32
852.644	960.15
852.823	973.32
853.002	910.16
853.181	1004.13
853.359	977.58
853.538	890.98
853.717	994.44
853.896	908.8
854.075	866.76
854.254	802.63
854.433	787.91
854.611	863.85
854.79	780.54
854.969	828.79
855.148	873.74
855.327	801.86
855.505	864.44
855.684	822.97
855.863	872.77
856.041	809.8
856.22	880.13
856.399	873.35
856.577	980.1
856.756	880.71
856.934	998.7
857.113	990.76
857.291	906.87
857.47	880.71
857.648	910.74
857.827	917.52
858.005	939.22
858.184	900.28
858.362	961.5
858.541	909.38
858.719	885.94
858.898	891.95
859.076	915.97
859.254	950.65
859.433	860.37
859.611	884.78
859.789	842.15
859.967	959.95
860.146	954.33
860.324	869.47
860.502	905.51
860.68	811.35
860.859	867.92
861.037	861.72
861.215	878.39
861.393	886.14
861.571	889.24
861.749	830.72
861.927	854.17
862.105	885.94
862.283	874.51
862.461	840.6
862.639	828.98
862.817	851.65
862.995	848.35
863.173	820.07
863.351	838.47
863.529	874.51
863.707	890.2
863.885	859.98
864.063	768.34
864.241	814.06
864.418	909
864.596	845.64
864.774	797.59
864.952	851.07
865.129	846.42
865.307	817.35
865.485	746.83
865.663	829.75
865.84	770.66
866.018	792.75
866.196	674.37
866.373	731.72
866.551	711.57
866.728	680.96
866.906	718.16
867.084	721.64
867.261	747.99
867.439	748.57
867.616	802.24
867.794	762.91
867.971	799.14
868.149	777.25
868.326	822.59
868.503	769.11
868.681	781.51
868.858	769.5
869.035	753.42
869.213	809.61
869.39	745.28
869.567	853.78
869.745	778.02
869.922	778.8
870.099	805.34
870.276	808.25
870.454	790.04
870.631	796.82
870.808	742.57
870.985	797.21
871.162	837.5
871.339	812.9
871.517	718.16
871.694	718.74
871.871	745.47
872.048	789.26
872.225	722.03
872.402	769.11
872.579	746.83
872.756	777.06
872.933	716.8
873.11	739.27
873.287	770.66
873.463	728.62
873.64	723.39
873.817	759.42
873.994	743.73
874.171	692.97
874.348	740.24
874.524	691.42
874.701	748.57
874.878	653.25
875.055	742.18
875.231	685.8
875.408	762.33
875.585	668.75
875.762	704.21
875.938	697.04
876.115	700.53
876.291	719.32
876.468	701.3
876.645	645.69
876.821	692.97
876.998	694.33
877.174	733.46
877.351	670.3
877.527	661.58
877.704	703.82
877.88	676.69
878.057	676.89
878.233	715.64
878.409	677.47
878.586	697.43
878.762	671.85
878.938	661.19
879.115	613.15
879.291	701.69
879.467	635.04
879.644	640.08
879.82	690.45
879.996	624
880.172	596.48
880.349	642.21
880.525	686.19
880.701	650.73
880.877	637.17
881.053	695.49
881.229	654.41
881.405	709.44
881.581	617.99
881.757	638.53
881.933	619.93
882.109	700.14
882.285	642.59
882.461	604.62
882.637	627.87
882.813	599.58
882.989	615.66
883.165	665.46
883.341	605.98
883.517	666.43
883.693	666.62
883.869	673.01
884.044	628.45
884.22	652.86
884.396	681.54
884.572	652.67
884.747	671.27
884.923	645.31
885.099	677.28
885.275	709.83
885.45	631.36
885.626	623.22
885.801	644.53
885.977	622.45
886.153	586.99
886.328	628.45
886.504	637.75
886.679	667.01
886.855	638.53
887.03	651.12
887.206	665.65
887.381	653.44
887.557	657.32
887.732	681.34
887.908	688.71
888.083	670.69
888.258	648.02
888.434	642.79
888.609	645.89
888.784	658.29
888.96	650.54
889.135	595.13
889.31	612.37
889.485	643.95
889.661	595.9
889.836	674.76
890.011	647.44
890.186	612.18
890.361	607.53
890.537	626.51
890.712	650.73
890.887	631.16
891.062	641.24
891.237	693.16
891.412	624.38
891.587	622.25
891.762	656.93
891.937	685.8
892.112	617.8
892.287	644.73
892.462	567.81
892.637	556.38
892.812	538.75
892.987	589.12
893.161	591.64
893.336	597.26
893.511	552.7
893.686	563.55
893.861	583.7
894.035	585.25
894.21	595.51
894.385	555.02
894.56	597.45
894.734	528.28
894.909	534.87
895.084	511.04
895.258	550.95
895.433	554.63
895.608	511.04
895.782	479.65
895.957	494.38
896.131	508.72
896.306	425.79
896.48	464.54
896.655	459.5
896.829	421.34
897.004	427.15
897.178	444.97
897.353	402.35
897.527	483.92
897.701	438.39
897.876	385.69
898.05	483.53
898.224	440.71
898.399	476.17
898.573	441.29
898.747	365.92
898.921	421.72
899.096	334.34
899.27	338.41
899.444	330.27
899.618	356.62
899.792	375.81
899.967	362.44
900.141	409.71
900.315	366.7
900.489	360.5
900.663	354.11
900.837	396.73
901.011	323.49
901.185	418.24
901.359	396.73
901.533	391.89
901.707	374.45
901.881	380.26
902.055	326.4
902.229	365.73
902.403	445.75
902.576	387.62
902.75	365.34
902.924	484.88
903.098	418.62
903.272	440.32
903.446	508.33
903.619	458.73
903.793	456.99
903.967	424.05
904.14	491.67
904.314	482.56
904.488	464.54
904.661	501.74
904.835	476.17
905.009	509.1
905.182	554.63
905.356	493.99
905.529	475.58
905.703	423.47
905.876	453.5
906.05	418.43
906.223	425.21
906.397	350.42
906.57	381.42
906.744	339.19
906.917	380.65
907.09	382.39
907.264	386.27
907.437	332.79
907.61	313.61
907.784	366.51
907.957	375.22
908.13	344.22
908.304	388.59
908.477	297.72
908.65	361.47
908.823	296.95
908.996	418.04
909.17	336.09
909.343	315.36
909.516	313.42
909.689	328.14
909.862	311.09
910.035	311.09
910.208	279.13
910.381	309.54
910.554	409.71
910.727	314.77
910.9	323.11
911.073	302.96
911.246	373.09
911.419	368.83
911.592	346.16
911.765	314.58
911.938	306.25
912.11	314
912.283	320.59
912.456	348.29
912.629	341.71
912.802	312.26
912.974	278.93
913.147	244.83
913.32	227.98
913.493	260.33
913.665	264.4
913.838	305.09
914.01	282.81
914.183	276.41
914.356	278.16
914.528	323.3
914.701	351.2
914.873	321.17
915.046	289.78
915.218	246.96
915.391	217.32
915.563	227.59
915.736	273.51
915.908	334.15
916.081	290.94
916.253	259.94
916.425	279.32
916.598	304.12
916.77	288.43
916.942	232.24
917.115	211.51
917.287	311.67
917.459	272.34
917.632	249.29
917.804	208.99
917.976	285.71
918.148	259.56
918.32	254.13
918.493	311.29
918.665	311.67
918.837	310.71
919.009	351.97
919.181	339.96
919.353	304.51
919.525	295.21
919.697	300.63
919.869	312.26
920.041	327.17
920.213	388.59
920.385	318.26
920.557	292.88
920.729	305.67
920.901	314.39
921.073	284.55
921.244	293.27
921.416	339.38
921.588	318.65
921.76	286.29
921.932	328.14
922.103	302.96
922.275	298.89
922.447	294.82
922.619	200.85
922.79	302.76
922.962	286.1
923.134	293.46
923.305	241.34
923.477	246.38
923.648	254.71
923.82	268.47
923.991	205.5
924.163	194.46
924.335	232.43
924.506	231.46
924.677	288.04
924.849	230.11
925.02	241.93
925.192	289.01
925.363	256.65
925.535	224.88
925.706	221
925.877	291.72
926.049	227.78
926.22	265.18
926.391	244.06
926.562	277.58
926.734	232.43
926.905	277.96
927.076	198.33
927.247	238.24
927.419	196.59
927.59	189.23
927.761	205.69
927.932	218.09
928.103	215.96
928.274	182.25
928.445	157.26
928.616	182.64
928.787	198.14
928.958	231.66
929.129	209.18
929.3	178.38
929.471	156.48
929.642	105.33
929.813	72.78
929.984	194.26
930.155	79.18
930.326	140.6
930.496	106.88
930.667	64.65
930.838	125.48
931.009	90.42
931.18	108.24
931.35	98.36
931.521	111.34
931.692	83.25
931.863	50.89
932.033	71.23
932.204	72.98
932.374	74.53
932.545	62.52
932.716	97
932.886	102.23
933.057	24.54
933.227	48.95
933.398	140.79
933.568	43.33
933.739	1.49
933.909	28.61
934.08	81.12
934.25	-12.08
934.421	21.25
934.591	56.32
934.761	18.15
934.932	-16.34
935.102	29.97
935.272	25.7
935.443	28.22
935.613	26.67
935.783	27.06
935.953	1.87
936.123	154.35
936.294	-14.01
936.464	-9.95
936.634	26.29
936.804	-13.43
936.974	-32.42
937.144	18.92
937.314	41.4
937.484	-5.88
937.655	-26.8
937.825	35.58
937.995	-0.65
938.165	78.4
938.334	9.82
938.504	40.82
938.674	19.12
938.844	8.27
939.014	58.83
939.184	69.1
939.354	91.38
939.524	89.45
939.694	29.97
939.863	38.3
940.033	103.59
940.203	92.16
940.373	90.22
940.542	98.36
940.712	40.43
940.882	90.8
941.051	118.51
941.221	75.88
941.391	98.17
941.56	32.29
941.73	19.7
941.899	150.28
942.069	28.22
942.238	75.69
942.408	57.48
942.577	102.43
942.747	45.66
942.916	3.62
943.086	27.45
943.255	78.4
943.425	45.47
943.594	38.49
943.763	-16.34
943.933	18.15
944.102	-3.36
944.271	44.88
944.441	44.88
944.61	3.42
944.779	41.2
944.948	117.35
945.117	-3.36
945.287	29.77
945.456	-25.45
945.625	1.49
945.794	54.18
945.963	34.81
946.132	41.01
946.301	37.52
946.47	55.73
946.639	-1.42
946.808	31.71
946.977	49.53
947.146	91.97
947.315	29.77
947.484	65.42
947.653	42.17
947.822	52.44
947.991	5.17
948.16	127.23
948.329	79.76
948.498	22.8
948.666	37.72
948.835	55.73
949.004	8.85
949.173	20.09
949.341	21.64
949.51	55.15
949.679	93.71
949.847	58.25
950.016	124.13
950.185	94.29
950.353	10.01
950.522	39.65
950.69	95.45
950.859	14.08
951.028	102.43
951.196	49.34
951.365	19.7
951.533	33.65
951.701	63.1
951.87	58.06
952.038	14.66
952.207	60.77
952.375	126.45
952.543	33.84
952.712	23.38
952.88	4.97
953.048	112.89
953.217	27.84
953.385	53.22
953.553	78.6
953.721	-12.66
953.89	66.58
954.058	34.03
954.226	11.37
954.394	46.63
954.562	-20.21
954.73	40.43
954.898	42.37
955.067	77.82
955.235	32.1
955.403	73.56
955.571	114.05
955.739	63.68
955.907	12.53
956.075	23.96
956.243	19.31
956.41	49.53
956.578	-26.41
956.746	10.59
956.914	30.55
957.082	65.03
957.25	61.93
957.418	6.52
957.585	27.84
957.753	81.12
957.921	27.25
958.089	32.48
958.256	40.82
958.424	60.97
958.592	35.78
958.759	19.5
958.927	74.72
959.095	21.25
959.262	40.23
959.43	47.21
959.597	18.54
959.765	35.97
959.932	15.44
960.1	91.77
960.267	43.92
960.435	18.92
960.602	77.63
960.77	9.04
960.937	-7.04
961.104	63.29
961.272	-6.46
961.439	28.61
961.606	72.01
961.774	55.93
961.941	25.32
962.108	68.33
962.275	50.7
962.443	83.05
962.61	57.28
962.777	111.15
962.944	65.42
963.111	73.75
963.278	71.04
963.446	66
963.613	29.58
963.78	34.23
963.947	76.27
964.114	50.12
964.281	142.15
964.448	73.75
964.615	34.23
964.782	64.45
964.949	67.94
965.116	109.4
965.282	79.76
965.449	29.19
965.616	13.89
965.783	97.2
965.95	69.68
966.117	-1.42
966.283	49.53
966.45	48.18
966.617	55.73
966.784	75.88
966.95	77.82
967.117	86.73
967.284	38.49
967.45	46.24
967.617	86.73
967.784	76.85
967.95	99.13
968.117	66.2
968.283	84.99
968.45	140.21
968.616	56.32
968.783	97.78
968.949	65.81
969.116	95.84
969.282	65.81
969.449	67.94
969.615	71.23
969.781	11.56
969.948	36.55
970.114	20.86
970.28	93.32
970.447	48.57
970.613	111.15
970.779	43.92
970.945	85.18
971.112	39.85
971.278	46.24
971.444	74.53
971.61	78.6
971.776	57.87
971.942	71.43
972.108	48.57
972.275	44.88
972.441	96.62
972.607	139.63
972.773	27.64
972.939	85.96
973.105	51.86
973.271	49.15
973.437	28.03
973.602	51.67
973.768	105.14
973.934	68.33
974.1	66
974.266	-24.28
974.432	68.91
974.598	72.01
974.763	93.9
974.929	55.93
975.095	112.7
975.261	65.62
975.426	-8.78
975.592	65.23
975.758	123.93
975.923	10.4
976.089	41.59
976.255	88.09
976.42	58.06
976.586	72.4
976.751	75.11
976.917	143.31
977.082	96.42
977.248	21.64
977.413	14.27
977.579	45.85
977.744	75.69
977.91	17.57
978.075	51.86
978.24	85.57
978.406	35
978.571	35.58
978.736	31.52
978.902	77.24
979.067	42.37
979.232	20.09
979.397	49.15
979.563	120.06
979.728	24.93
979.893	40.23
980.058	20.28
980.223	73.56
980.388	87.51
980.554	52.05
980.719	27.25
980.884	57.87
981.049	83.05
981.214	41.01
981.379	59.61
981.544	56.12
981.709	62.71
981.874	30.93
982.039	58.25
982.204	86.54
982.368	50.7
982.533	15.63
982.698	93.32
982.863	64.65
983.028	36.75
983.193	42.17
983.357	68.52
983.522	65.62
983.687	29
983.852	46.05
984.016	41.59
984.181	57.87
984.346	63.87
984.51	81.31
984.675	63.29
984.839	65.81
985.004	85.96
985.168	79.37
985.333	88.09
985.498	38.88
985.662	63.87
985.827	75.11
985.991	53.99
986.155	5.17
986.32	85.57
986.484	98.94
986.649	72.01
986.813	-1.81
986.977	45.47
987.142	64.65
987.306	47.79
987.47	22.99
987.634	60.19
987.799	64.26
987.963	80.73
988.127	63.87
988.291	134.2
988.455	35.39
988.62	39.65
988.784	77.05
988.948	58.06
989.112	23.96
989.276	64.84
989.44	42.56
989.604	35
989.768	37.91
989.932	135.36
990.096	21.83
990.26	9.62
990.424	5.36
990.588	32.68
990.752	129.16
990.915	69.1
991.079	57.87
991.243	29.38
991.407	71.23
991.571	45.47
991.734	56.12
991.898	51.08
992.062	114.83
992.226	44.88
992.389	14.27
992.553	-8.2
992.717	18.92
992.88	50.7
993.044	50.5
993.207	20.09
993.371	75.88
993.535	37.91
993.698	63.68
993.862	69.88
994.025	83.63
994.189	51.67
994.352	61.93
994.515	52.63
994.679	75.3
994.842	11.56
995.006	73.56
995.169	45.08
995.332	10.98
995.496	78.02
995.659	-2.2
995.822	40.43
995.985	35
996.149	103.4
996.312	39.27
996.475	99.33
996.638	29.38
996.801	84.6
996.964	117.15
997.128	24.35
997.291	44.88
997.454	57.28
997.617	-2.97
997.78	77.63
997.943	10.79
998.106	76.08
998.269	18.73
998.432	32.68
998.595	34.62
998.758	-9.17
998.92	-8.59
999.083	-11.3
999.246	21.44
999.409	12.14
999.572	-25.06
999.735	29
999.897	55.93
1000.06	22.22
1000.223	19.12
1000.386	76.85
1000.548	75.69
1000.711	69.49
1000.874	62.71
1001.036	-7.81
1001.199	80.53
1001.361	19.31
1001.524	50.12
1001.687	72.2
1001.849	27.25
1002.012	49.15
1002.174	28.03
1002.337	85.77
1002.499	37.52
1002.661	56.12
1002.824	2.45
1002.986	3.42
1003.149	47.21
1003.311	21.25
1003.473	111.73
1003.636	2.84
1003.798	39.85
1003.96	64.45
1004.123	45.85
1004.285	6.72
1004.447	16.21
1004.609	23.57
1004.771	73.56
1004.933	-0.26
1005.096	21.25
1005.258	-2.78
1005.42	34.03
1005.582	87.9
1005.744	29.58
1005.906	-6.85
1006.068	28.03
1006.23	-5.49
1006.392	-37.46
1006.554	-17.31
1006.716	63.29
1006.878	61.55
1007.04	-9.36
1007.202	18.15
1007.363	40.04
1007.525	32.68
1007.687	35.78
1007.849	54.57
1008.011	-29.9
1008.172	-3.94
1008.334	2.26
1008.496	54.18
1008.658	-25.45
1008.819	24.15
1008.981	-14.01
1009.143	-9.56
1009.304	24.35
1009.466	53.41
1009.627	82.86
1009.789	139.82
1009.95	53.22
1010.112	-1.03
1010.273	54.96
1010.435	0.71
1010.596	9.24
1010.758	11.56
1010.919	6.91
1011.081	-11.3
1011.242	25.9
1011.403	30.55
1011.565	10.4
1011.726	32.1
1011.887	-5.3
1012.049	14.08
1012.21	58.06
1012.371	91.77
1012.532	-61.09
1012.693	24.54
1012.855	12.34
1013.016	13.3
1013.177	53.8
1013.338	7.1
1013.499	85.57
1013.66	61.55
1013.821	65.62
1013.982	47.21
1014.143	44.11
1014.304	4
1014.465	10.98
1014.626	60.19
1014.787	-3.36
1014.948	95.45
1015.109	-49.47
1015.27	72.2
1015.431	-7.81
1015.592	-20.21
1015.752	43.53
1015.913	47.98
1016.074	43.53
1016.235	-5.1
1016.395	22.22
1016.556	27.25
1016.717	4.2
1016.877	56.12
1017.038	1.87
1017.199	15.24
1017.359	27.25
1017.52	23.77
1017.681	-2.2
1017.841	33.07
1018.002	38.3
1018.162	-0.06
1018.323	72.59
1018.483	12.14
1018.644	4.39
1018.804	-21.57
1018.964	-14.79
1019.125	24.74
1019.285	18.73
1019.446	-6.46
1019.606	-22.15
1019.766	-45.79
1019.926	32.48
1020.087	35
1020.247	-37.07
1020.407	25.12
1020.567	60.38
1020.728	30.16
1020.888	-13.24
1021.048	9.24
1021.208	7.1
1021.368	9.43
1021.528	55.73
1021.688	57.28
1021.848	49.34
1022.008	42.95
1022.168	8.07
1022.328	40.43
1022.488	20.86
1022.648	-2.78
1022.808	28.8
1022.968	47.21
1023.128	5.94
1023.288	1.87
1023.448	-4.71
1023.608	40.23
1023.767	27.06
1023.927	-11.11
1024.087	5.36
1024.247	-28.74
1024.406	-26.61
1024.566	-25.06
1024.726	-28.35
1024.885	-3.16
1025.045	54.38
1025.205	27.45
1025.364	-1.81
1025.524	41.59
1025.683	15.24
1025.843	18.34
1026.003	-1.03
1026.162	78.79
1026.321	48.18
1026.481	37.33
1026.64	-1.61
1026.8	32.87
1026.959	7.1
1027.119	11.56
1027.278	5.94
1027.437	3.04
1027.597	6.72
1027.756	2.45
1027.915	31.13
1028.074	14.66
1028.234	-10.33
1028.393	36.36
1028.552	-9.17
1028.711	-65.74
1028.87	39.07
1029.03	-20.41
1029.189	15.44
1029.348	-57.22
1029.507	7.88
1029.666	9.43
1029.825	-27
1029.984	-6.46
1030.143	28.22
1030.302	-30.29
1030.461	-42.11
1030.62	30.35
1030.779	7.3
1030.938	-34.55
1031.097	-21.38
1031.255	37.33
1031.414	54.96
1031.573	56.9
1031.732	-55.28
1031.891	7.69
1032.049	51.86
1032.208	32.29
1032.367	-12.27
1032.525	-1.42
1032.684	-3.94
1032.843	14.66
1033.001	-58.77
1033.16	157.26
1033.319	69.88
1033.477	0.52
1033.636	-10.91
1033.794	-27.19
1033.953	38.88
1034.111	15.44
1034.27	-9.17
1034.428	34.03
1034.587	-4.71
1034.745	1.49
1034.903	-2.58
1035.062	32.29
1035.22	-30.1
1035.378	44.69
1035.537	-29.32
1035.695	52.83
1035.853	-7.81
1036.011	39.85
1036.17	40.62
1036.328	-43.46
1036.486	19.89
1036.644	34.62
1036.802	-82.99
1036.96	-8.4
1037.119	6.33
1037.277	-10.14
1037.435	-48.7
1037.593	-28.16
1037.751	13.5
1037.909	45.66
1038.067	45.66
