Data from pine_FLMT105791__57__17-20-57-078.txt Node

Date: Mon Mar 20 17:20:57 GMT 2023
User: antho
Spectrometer: FLMT10579
Trigger mode: 0
Integration Time (sec): 1.000000E-1
Scans to average: 10
Electric dark correction enabled: true
Nonlinearity correction enabled: false
Boxcar width: 0
XAxis mode: Wavelengths
Number of Pixels in Spectrum: 3648
>>>>>Begin Spectral Data<<<<<
345.248	-151.91
345.464	-151.91
345.681	-151.91
345.898	-178.84
346.114	-155.01
346.331	-24.62
346.548	22.26
346.764	5.22
346.981	-15.52
347.197	-9.9
347.414	8.31
347.631	-25.4
347.847	66.63
348.064	-17.07
348.28	38.54
348.497	-45.16
348.713	-3.31
348.93	55.2
349.146	-7.18
349.363	-6.8
349.579	17.23
349.796	39.51
350.012	10.25
350.229	36.02
350.445	32.15
350.661	-13
350.878	-0.02
351.094	31.76
351.311	23.04
351.527	2.7
351.743	-8.54
351.96	40.09
352.176	-0.6
352.392	46.87
352.609	41.06
352.825	27.88
353.041	19.16
353.257	8.9
353.474	37.18
353.69	31.56
353.906	26.14
354.122	6.77
354.339	47.06
354.555	13.93
354.771	-5.63
354.987	56.56
355.203	69.54
355.42	-8.73
355.636	3.67
355.852	-18.81
356.068	13.35
356.284	-25.4
356.5	88.91
356.716	52.1
356.932	6.57
357.148	38.93
357.364	26.72
357.58	41.45
357.796	70.12
358.012	52.88
358.228	25.75
358.444	-51.36
358.66	56.95
358.876	28.66
359.092	4.83
359.308	30.21
359.524	16.84
359.74	-2.73
359.956	5.8
360.172	32.73
360.388	61.21
360.604	3.67
360.819	90.08
361.035	27.69
361.251	43.58
361.467	-8.35
361.683	24.4
361.898	63.34
362.114	47.65
362.33	40.09
362.546	42.61
362.762	23.23
362.977	25.17
363.193	-0.4
363.409	64.31
363.624	-19.78
363.84	-1.37
364.056	10.25
364.271	14.32
364.487	11.61
364.703	-22.3
364.918	-13.38
365.134	-0.21
365.35	27.5
365.565	95.89
365.781	30.21
365.996	16.45
366.212	83.88
366.427	42.22
366.643	22.65
366.858	12.77
367.074	-9.32
367.289	78.26
367.505	99.38
367.72	-37.99
367.936	19.16
368.151	46.29
368.367	35.83
368.582	23.62
368.798	-5.44
369.013	88.14
369.228	14.71
369.444	38.54
369.659	84.85
369.874	41.06
370.09	70.12
370.305	-33.53
370.52	-2.34
370.736	70.9
370.951	-6.02
371.166	78.45
371.381	62.95
371.597	44.55
371.812	7.54
372.027	-13.58
372.242	20.91
372.458	82.33
372.673	4.25
372.888	18
373.103	40.28
373.318	96.86
373.533	52.68
373.749	28.08
373.964	-33.92
374.179	61.6
374.394	-2.73
374.609	66.83
374.824	-40.32
375.039	86.78
375.254	13.35
375.469	72.64
375.684	30.01
375.899	72.45
376.114	21.3
376.329	30.21
376.544	57.91
376.759	46.1
376.974	14.13
377.189	12.58
377.404	21.49
377.619	77.87
377.834	-29.08
378.049	-15.32
378.264	-29.47
378.478	45.32
378.693	-8.54
378.908	60.63
379.123	4.25
379.338	77.29
379.553	16.06
379.767	61.79
379.982	48.61
380.197	43
380.412	28.27
380.626	51.52
380.841	81.36
381.056	34.86
381.271	99.18
381.485	7.93
381.7	-2.34
381.915	44.74
382.129	34.86
382.344	62.76
382.559	32.53
382.773	52.88
382.988	-25.4
383.202	32.73
383.417	2.7
383.632	144.52
383.846	35.05
384.061	39.9
384.275	10.64
384.49	44.93
384.704	50.55
384.919	37.18
385.133	44.55
385.348	58.11
385.562	1.73
385.777	71.48
385.991	16.06
386.206	17.03
386.42	6.77
386.634	82.91
386.849	32.53
387.063	35.44
387.277	-13.19
387.492	-13.58
387.706	5.8
387.92	-25.2
388.135	60.82
388.349	38.35
388.563	14.9
388.778	36.21
388.992	85.23
389.206	70.12
389.42	105.77
389.635	26.33
389.849	56.75
390.063	53.07
390.277	29.43
390.491	67.41
390.706	51.13
390.92	48.03
391.134	12.96
391.348	55.01
391.562	-8.73
391.776	25.36
391.99	3.67
392.205	41.25
392.419	1.92
392.633	17.61
392.847	64.11
393.061	-4.86
393.275	92.98
393.489	40.67
393.703	52.49
393.917	96.86
394.131	31.76
394.345	47.06
394.559	82.91
394.773	2.5
394.986	68.76
395.2	31.76
395.414	52.88
395.628	12.58
395.842	27.11
396.056	12.96
396.27	-23.27
396.484	38.15
396.697	46.48
396.911	89.3
397.125	67.8
397.339	73.41
397.553	51.71
397.766	82.13
397.98	76.32
398.194	91.43
398.408	2.12
398.621	49.39
398.835	68.76
399.049	38.15
399.262	75.35
399.476	67.41
399.69	61.79
399.903	86.2
400.117	44.74
400.331	63.34
400.544	8.31
400.758	160.6
400.971	77.1
401.185	72.83
401.398	-3.89
401.612	80.58
401.826	60.05
402.039	43
402.253	51.33
402.466	26.91
402.68	51.91
402.893	47.26
403.106	49.58
403.32	58.88
403.533	46.48
403.747	29.24
403.96	57.91
404.174	83.68
404.387	-21.91
404.6	36.99
404.814	60.05
405.027	40.86
405.24	52.1
405.454	23.43
405.667	77.1
405.88	-6.99
406.094	32.15
406.307	80.78
406.52	54.81
406.733	5.6
406.947	-13.58
407.16	101.89
407.373	67.6
407.586	14.71
407.799	18.2
408.012	65.66
408.226	41.25
408.439	87.56
408.652	-15.52
408.865	59.85
409.078	78.84
409.291	62.56
409.504	24.2
409.717	50.94
409.93	70.31
410.143	43
410.357	-4.67
410.57	16.65
410.783	28.66
410.996	60.43
411.209	9.67
411.421	100.34
411.634	29.43
411.847	5.8
412.06	52.1
412.273	43.96
412.486	60.24
412.699	138.51
412.912	39.9
413.125	72.25
413.338	36.8
413.55	88.53
413.763	46.48
413.976	65.86
414.189	33.89
414.402	15.68
414.615	107.13
414.827	9.67
415.04	82.91
415.253	56.56
415.466	74.19
415.678	112.55
415.891	81.16
416.104	36.6
416.316	49.39
416.529	28.08
416.742	79.03
416.954	92.98
417.167	59.66
417.38	65.66
417.592	80.58
417.805	21.49
418.017	5.41
418.23	96.08
418.442	30.21
418.655	21.88
418.868	64.11
419.08	106.16
419.293	80.97
419.505	92.98
419.718	82.52
419.93	72.06
420.142	41.83
420.355	106.54
420.567	106.93
420.78	98.99
420.992	44.74
421.205	114.49
421.417	17.42
421.629	37.57
421.842	18.2
422.054	20.91
422.266	80
422.479	86.01
422.691	47.65
422.903	93.95
423.115	44.93
423.328	67.41
423.54	56.17
423.752	42.8
423.964	24.01
424.177	61.98
424.389	69.15
424.601	174.16
424.813	90.46
425.025	93.56
425.238	83.88
425.45	65.47
425.662	51.91
425.874	372.75
426.086	57.72
426.298	85.23
426.51	85.62
426.722	73.8
426.934	34.08
427.146	100.93
427.358	49.78
427.57	109.84
427.782	90.46
427.994	68.38
428.206	72.45
428.418	27.88
428.63	98.21
428.842	85.81
429.054	67.99
429.266	110.42
429.478	51.91
429.69	85.04
429.902	17.61
430.114	73.22
430.325	99.57
430.537	57.72
430.749	59.85
430.961	24.98
431.173	90.46
431.384	100.34
431.596	6.38
431.808	60.82
432.02	71.86
432.231	87.17
432.443	109.45
432.655	64.5
432.867	50.75
433.078	90.27
433.29	116.43
433.502	105.38
433.713	135.99
433.925	102.67
434.136	129.41
434.348	74.19
434.56	41.83
434.771	188.89
434.983	39.12
435.194	74.38
435.406	81.36
435.617	103.06
435.829	142.19
436.04	106.93
436.252	114.49
436.463	151.11
436.675	159.24
436.886	96.86
437.098	95.31
437.309	131.15
437.521	103.25
437.732	105.77
437.943	102.86
438.155	100.54
438.366	53.65
438.578	138.71
438.789	112.55
439	142.58
439.211	73.8
439.423	126.69
439.634	123.21
439.845	149.36
440.057	96.47
440.268	139.29
440.479	94.73
440.69	96.66
440.902	105.77
441.113	115.26
441.324	116.81
441.535	117.78
441.746	173.39
441.957	96.08
442.168	90.66
442.38	138.9
442.591	154.01
442.802	92.4
443.013	111.97
443.224	130.96
443.435	103.25
443.646	110.81
443.857	137.16
444.068	109.64
444.279	86.2
444.49	188.89
444.701	119.91
444.912	192.96
445.123	155.56
445.334	136.38
445.545	141.42
445.756	128.05
445.967	103.25
446.178	141.61
446.388	162.54
446.599	158.08
446.81	162.15
447.021	116.81
447.232	152.27
447.443	206.13
447.653	132.51
447.864	156.92
448.075	157.11
448.286	154.4
448.496	144.33
448.707	166.61
448.918	150.72
449.129	244.49
449.339	126.31
449.55	187.92
449.761	142.78
449.971	191.79
450.182	128.44
450.393	198.57
450.603	155.76
450.814	187.92
451.024	135.41
451.235	186.37
451.446	229.19
451.656	212.52
451.867	125.34
452.077	191.41
452.288	199.54
452.498	223.37
452.709	184.82
452.919	203.42
453.13	149.56
453.34	211.17
453.55	126.69
453.761	194.89
453.971	168.74
454.182	216.79
454.392	175.52
454.602	251.66
454.813	197.22
455.023	185.79
455.233	117.98
455.444	158.08
455.654	124.95
455.864	181.14
456.075	181.33
456.285	171.45
456.495	175.13
456.705	177.46
456.916	211.56
457.126	222.99
457.336	191.99
457.546	98.99
457.756	153.43
457.967	197.41
458.177	173.39
458.387	209.81
458.597	155.37
458.807	188.69
459.017	159.44
459.227	189.66
459.437	148.01
459.647	237.13
459.857	209.04
460.068	147.04
460.278	212.91
460.488	214.85
460.698	271.42
460.908	195.86
461.117	136.77
461.327	143.94
461.537	201.09
461.747	187.53
461.957	183.66
462.167	286.34
462.377	229.77
462.587	204.77
462.797	229.19
463.007	197.61
463.216	246.82
463.426	220.86
463.636	198.96
463.846	135.99
464.056	155.95
464.265	238.29
464.475	169.13
464.685	197.99
464.895	216.21
465.104	232.29
465.314	244.3
465.524	206.71
465.733	182.11
465.943	247.79
466.153	262.32
466.362	278.4
466.572	192.96
466.782	191.21
466.991	206.71
467.201	273.55
467.41	166.61
467.62	216.4
467.829	222.79
468.039	220.47
468.249	222.02
468.458	214.85
468.668	259.99
468.877	225.12
469.086	283.24
469.296	268.91
469.505	198.19
469.715	288.09
469.924	258.83
470.134	299.13
470.343	284.4
470.552	236.16
470.762	239.46
470.971	195.67
471.18	222.02
471.39	215.82
471.599	214.85
471.808	258.25
472.018	223.57
472.227	254.76
472.436	266.77
472.645	231.51
472.855	232.48
473.064	292.54
473.273	248.17
473.482	277.24
473.691	275.88
473.901	281.11
474.11	243.33
474.319	332.84
474.528	257.47
474.737	312.3
474.946	304.55
475.155	273.17
475.364	333.42
475.573	285.76
475.783	270.07
475.992	304.36
476.201	320.44
476.41	266.19
476.619	231.51
476.828	275.3
477.037	230.35
477.245	268.52
477.454	317.34
477.663	262.71
477.872	273.75
478.081	320.83
478.29	251.27
478.499	360.93
478.708	296.03
478.917	362.48
479.125	285.37
479.334	315.6
479.543	283.05
479.752	302.23
479.961	314.24
480.169	329.35
480.378	309.79
480.587	419.83
480.796	332.84
481.004	332.26
481.213	359.38
481.422	311.53
481.63	317.34
481.839	354.54
482.048	371.98
482.256	359.19
482.465	336.72
482.674	400.07
482.882	356.09
483.091	429.91
483.299	358.22
483.508	392.71
483.716	334.97
483.925	370.82
484.134	334.2
484.342	326.64
484.551	392.13
484.759	402.98
484.967	398.72
485.176	393.29
485.384	391.16
485.593	408.6
485.801	385.73
486.01	365.97
486.218	354.54
486.426	307.27
486.635	347.37
486.843	324.12
487.051	362.1
487.26	325.87
487.468	365.97
487.676	396.78
487.885	335.36
488.093	371.2
488.301	399.3
488.509	371.59
488.717	433.4
488.926	399.88
489.134	356.29
489.342	390.58
489.55	360.55
489.758	410.15
489.967	337.49
490.175	488.61
490.383	377.4
490.591	474.47
490.799	360.74
491.007	473.11
491.215	395.81
491.423	404.92
491.631	398.33
491.839	389.42
492.047	446.96
492.255	369.65
492.463	365.78
492.671	408.79
492.879	415.77
493.087	413.05
493.295	422.74
493.503	451.41
493.711	451.41
493.919	456.45
494.127	496.75
494.334	467.88
494.542	407.05
494.75	433.2
494.958	427.78
495.166	494.81
495.374	440.37
495.581	464.01
495.789	454.71
495.997	495.01
496.205	451.61
496.412	437.47
496.62	431.27
496.828	466.33
497.035	467.88
497.243	475.44
497.451	477.18
497.658	479.12
497.866	441.92
498.074	524.46
498.281	466.72
498.489	548.09
498.696	473.31
498.904	483.58
499.112	470.79
499.319	575.99
499.527	466.53
499.734	516.9
499.942	451.8
500.149	447.54
500.357	498.69
500.564	419.06
500.771	485.32
500.979	474.28
501.186	482.03
501.394	500.43
501.601	492.88
501.808	534.53
502.016	467.11
502.223	506.25
502.43	473.89
502.638	492.68
502.845	469.82
503.052	543.44
503.26	497.72
503.467	559.53
503.674	523.49
503.881	533.76
504.089	601.18
504.296	546.93
504.503	464.2
504.71	520.58
504.917	455.48
505.125	512.25
505.332	515.74
505.539	529.11
505.746	597.5
505.953	548.09
506.16	538.02
506.367	563.4
506.574	612.81
506.781	549.06
506.988	484.35
507.195	524.07
507.402	543.06
507.609	573.09
507.816	535.31
508.023	523.49
508.23	515.35
508.437	491.52
508.644	547.51
508.851	619.59
509.058	616.1
509.265	573.67
509.472	594.59
509.679	658.14
509.885	564.95
510.092	578.71
510.299	593.43
510.506	589.75
510.713	582.58
510.92	569.79
511.126	614.74
511.333	662.21
511.54	636.06
511.746	682.17
511.953	640.12
512.16	634.12
512.367	609.71
512.573	577.35
512.78	605.83
512.987	605.44
513.193	596.53
513.4	519.03
513.606	575.8
513.813	628.89
514.02	611.84
514.226	680.42
514.433	626.17
514.639	599.24
514.846	623.27
515.052	598.86
515.259	621.33
515.465	631.02
515.672	596.34
515.878	698.25
516.085	639.54
516.291	646.52
516.497	596.92
516.704	626.76
516.91	609.71
517.117	592.66
517.323	546.16
517.529	579.87
517.736	600.6
517.942	576.77
518.148	594.01
518.354	616.49
518.561	616.1
518.767	629.86
518.973	662.41
519.179	649.42
519.386	614.94
519.592	635.09
519.798	627.53
520.004	687.98
520.21	629.66
520.417	675
520.623	696.89
520.829	690.5
521.035	707.94
521.241	696.89
521.447	713.17
521.653	818.95
521.859	687.59
522.065	691.08
522.271	789.7
522.477	750.75
522.683	768.77
522.889	736.42
523.095	738.16
523.301	749.4
523.507	714.91
523.713	760.44
523.919	695.54
524.125	755.6
524.331	740.49
524.537	817.98
524.742	752.3
524.948	798.22
525.154	791.05
525.36	864.68
525.566	786.4
525.772	844.92
525.977	719.17
526.183	824.57
526.389	849.18
526.595	753.08
526.8	787.76
527.006	729.44
527.212	713.75
527.417	709.49
527.623	731.19
527.829	763.15
528.034	757.15
528.24	798.22
528.446	751.53
528.651	819.73
528.857	801.71
529.062	855.77
529.268	823.02
529.473	842.2
529.679	816.05
529.884	900.71
530.09	870.3
530.295	873.98
530.501	893.16
530.706	856.35
530.912	827.87
531.117	851.31
531.323	833.68
531.528	875.53
531.733	910.6
531.939	862.74
532.144	885.02
532.35	859.06
532.555	911.56
532.76	907.3
532.966	882.11
533.171	872.62
533.376	870.88
533.581	836.39
533.787	865.65
533.992	874.56
534.197	912.92
534.402	845.11
534.607	859.83
534.813	950.12
535.018	872.23
535.223	878.63
535.428	913.5
535.633	953.03
535.838	947.8
536.043	900.33
536.249	991
536.454	919.7
536.659	920.67
536.864	888.31
537.069	895.29
537.274	923.77
537.479	908.66
537.684	926.1
537.889	896.84
538.094	997.2
538.299	925.13
538.504	929.2
538.708	962.52
538.913	959.23
539.118	925.13
539.323	952.64
539.528	918.93
539.733	943.92
539.938	963.3
540.142	965.23
540.347	926.1
540.552	907.69
540.757	924.35
540.962	906.72
541.166	890.83
541.371	894.13
541.576	918.93
541.781	810.82
541.985	924.16
542.19	922.22
542.395	984.22
542.599	1038.47
542.804	986.93
543.008	1009.41
543.213	920.67
543.418	929
543.622	956.32
543.827	930.75
544.031	999.53
544.236	1016.38
544.44	948.96
544.645	1064.82
544.849	980.93
545.054	1006.69
545.258	1072.57
545.463	1041.76
545.667	965.62
545.872	983.25
546.076	995.84
546.281	999.33
546.485	980.73
546.689	1022.19
546.894	1021.42
547.098	997.59
547.302	974.73
547.507	986.35
547.711	1021.23
547.915	1025.68
548.119	966.59
548.324	988.68
548.528	1075.09
548.732	1025.88
548.936	1013.09
549.141	1044.28
549.345	1000.49
549.549	982.48
549.753	1006.5
549.957	1070.82
550.161	1052.23
550.366	1010.18
550.57	966.78
550.774	1021.61
550.978	991.58
551.182	1001.08
551.386	984.03
551.59	990.42
551.794	984.99
551.998	1019.48
552.202	970.08
552.406	958.26
552.61	993.33
552.814	1023.94
553.018	1051.26
553.222	1006.5
553.426	996.43
553.63	1081.48
553.833	981.89
554.037	934.81
554.241	1042.73
554.445	1021.42
554.649	991
554.853	979.57
555.056	1033.04
555.26	1061.14
555.464	1024.71
555.668	1029.56
555.871	1051.06
556.075	1008.83
556.279	990.03
556.483	957.87
556.686	1017.16
556.89	1015.03
557.094	1053.97
557.297	968.91
557.501	1050.68
557.704	961.55
557.908	1035.18
558.112	969.69
558.315	1051.64
558.519	993.33
558.722	989.06
558.926	992.55
559.129	985.96
559.333	918.15
559.536	921.64
559.74	958.84
559.943	932.3
560.147	936.36
560.35	955.35
560.553	960.78
560.757	940.24
560.96	1023.36
561.164	878.05
561.367	1005.53
561.57	939.08
561.774	969.11
561.977	934.81
562.18	926.1
562.384	1026.65
562.587	961.94
562.79	931.91
562.993	918.54
563.197	991.39
563.4	1007.08
563.603	997.2
563.806	1041.38
564.009	925.51
564.212	989.84
564.416	876.88
564.619	989.06
564.822	908.46
565.025	997.01
565.228	956.51
565.431	965.23
565.634	865.26
565.837	894.71
566.04	915.63
566.243	947.6
566.446	855.18
566.649	950.51
566.852	890.45
567.055	904.2
567.258	927.06
567.461	977.44
567.664	983.25
567.867	883.28
568.07	958.84
568.273	945.28
568.475	1000.49
568.678	893.74
568.881	913.7
569.084	918.15
569.287	837.55
569.489	851.89
569.692	907.3
569.895	931.91
570.098	878.63
570.3	866.81
570.503	811.2
570.706	835.81
570.909	840.65
571.111	813.14
571.314	828.83
571.516	854.41
571.719	856.35
571.922	845.11
572.124	830.58
572.327	844.92
572.529	789.12
572.732	814.69
572.935	845.5
573.137	876.69
573.34	803.26
573.542	842.78
573.745	831.74
573.947	837.36
574.15	841.43
574.352	809.46
574.554	853.05
574.757	776.52
574.959	811.01
575.162	805.97
575.364	800.16
575.566	906.14
575.769	762.77
575.971	847.43
576.173	745.91
576.376	802.29
576.578	827.28
576.78	857.12
576.982	724.6
577.185	788.34
577.387	772.26
577.589	742.23
577.791	811.01
577.993	800.35
578.196	755.02
578.398	792.22
578.6	822.63
578.802	769.55
579.004	737
579.206	761.8
579.408	798.03
579.61	758.7
579.812	811.59
580.014	758.7
580.216	748.62
580.418	780.2
580.62	747.46
580.822	703.09
581.024	753.85
581.226	794.15
581.428	778.07
581.63	831.16
581.832	749.59
582.034	826.12
582.236	817.98
582.438	811.01
582.64	839.1
582.841	845.88
583.043	851.7
583.245	808.68
583.447	820.31
583.649	779.04
583.85	792.02
584.052	839.88
584.254	750.95
584.456	825.35
584.657	751.53
584.859	798.8
585.061	750.75
585.262	752.5
585.464	712.39
585.666	817.98
585.867	774.2
586.069	830.77
586.27	798.8
586.472	776.33
586.674	771.29
586.875	785.05
587.077	764.9
587.278	754.24
587.48	755.02
587.681	855.18
587.883	769.74
588.084	714.14
588.285	759.28
588.487	760.64
588.688	783.11
588.89	721.3
589.091	708.13
589.292	721.89
589.494	679.26
589.695	698.25
589.896	625.98
590.098	603.31
590.299	720.92
590.5	654.07
590.702	666.86
590.903	703.29
591.104	793.96
591.305	705.22
591.507	747.46
591.708	732.15
591.909	693.99
592.11	780.59
592.311	726.73
592.512	692.05
592.714	662.6
592.915	685.46
593.116	729.44
593.317	705.03
593.518	703.67
593.719	711.23
593.92	745.52
594.121	754.82
594.322	728.47
594.523	725.18
594.724	676.16
594.925	689.34
595.126	774
595.327	747.46
595.528	729.05
595.729	707.74
595.929	714.33
596.13	710.65
596.331	718.2
596.532	723.82
596.733	780.98
596.934	749.2
597.135	754.82
597.335	740.1
597.536	701.74
597.737	720.34
597.938	698.44
598.138	745.72
598.339	704.06
598.54	720.92
598.74	706.39
598.941	732.35
599.142	775.17
599.342	732.15
599.543	701.54
599.744	713.17
599.944	704.06
600.145	687.59
600.345	758.7
600.546	790.09
600.746	747.27
600.947	795.51
601.147	738.94
601.348	746.1
601.548	684.88
601.749	715.69
601.949	664.54
602.15	689.14
602.35	688.95
602.551	776.91
602.751	693.79
602.951	687.59
603.152	642.84
603.352	752.3
603.552	708.9
603.753	751.34
603.953	762.57
604.153	701.54
604.354	676.16
604.554	714.72
604.754	697.86
604.954	689.92
605.155	731.38
605.355	689.14
605.555	754.63
605.755	764.7
605.955	697.47
606.155	741.45
606.356	730.8
606.556	750.37
606.756	731.77
606.956	651.17
607.156	745.72
607.356	681.59
607.556	689.53
607.756	686.43
607.956	752.3
608.156	705.03
608.356	654.07
608.556	728.28
608.756	688.37
608.956	657.56
609.156	711.81
609.356	640.9
609.556	651.94
609.755	711.04
609.955	665.12
610.155	683.72
610.355	693.6
610.555	701.93
610.755	688.56
610.954	607.58
611.154	680.62
611.354	680.81
611.554	673.64
611.753	666.47
611.953	631.02
612.153	711.62
612.352	692.82
612.552	628.69
612.752	618.04
612.951	667.83
613.151	682.17
613.351	643.03
613.55	643.61
613.75	676.55
613.949	657.95
614.149	675.58
614.348	666.09
614.548	622.11
614.747	603.89
614.947	651.17
615.146	575.41
615.346	664.73
615.545	668.22
615.745	634.51
615.944	682.75
616.144	652.52
616.343	668.41
616.542	625.21
616.742	619.39
616.941	666.67
617.14	580.84
617.34	657.17
617.539	629.47
617.738	603.31
617.938	680.42
618.137	619.59
618.336	583.94
618.535	635.47
618.734	617.84
618.934	639.35
619.133	638.38
619.332	653.69
619.531	605.25
619.73	626.37
619.929	661.63
620.128	623.07
620.328	689.34
620.527	621.52
620.726	641.29
620.925	647.87
621.124	591.3
621.323	653.69
621.522	569.6
621.721	571.15
621.92	571.34
622.119	656.98
622.318	610.87
622.517	581.23
622.715	601.18
622.914	516.32
623.113	585.1
623.312	532.98
623.511	607.58
623.71	574.64
623.909	582.58
624.107	634.12
624.306	561.46
624.505	562.04
624.704	570.76
624.902	571.15
625.101	624.82
625.3	601.57
625.499	548.48
625.697	538.41
625.896	554.29
626.095	608.54
626.293	538.99
626.492	513.41
626.69	609.51
626.889	533.95
627.088	596.92
627.286	533.37
627.485	560.11
627.683	548.48
627.882	591.3
628.08	524.46
628.279	562.04
628.477	647.49
628.676	546.54
628.874	596.92
629.073	534.34
629.271	518.26
629.469	567.08
629.668	548.29
629.866	544.8
630.065	524.85
630.263	570.57
630.461	551.58
630.66	548.68
630.858	601.76
631.056	592.85
631.254	583.36
631.453	530.85
631.651	598.66
631.849	549.45
632.047	570.96
632.245	551
632.444	571.73
632.642	579.87
632.84	621.33
633.038	551.19
633.236	526.4
633.434	515.55
633.632	528.72
633.83	524.46
634.028	584.91
634.227	556.43
634.425	659.31
634.623	576.96
634.821	561.85
635.019	585.88
635.216	533.95
635.414	590.91
635.612	591.69
635.81	575.22
636.008	606.99
636.206	557.2
636.404	574.25
636.602	535.69
636.8	547.51
636.997	579.09
637.195	569.6
637.393	521.75
637.591	635.28
637.789	585.68
637.986	539.96
638.184	570.18
638.382	600.41
638.58	567.66
638.777	629.47
638.975	566.5
639.173	577.93
639.37	556.43
639.568	562.04
639.765	582.19
639.963	536.47
640.161	604.48
640.358	572.31
640.556	515.16
640.753	509.54
640.951	507.8
641.148	565.53
641.346	537.05
641.543	544.03
641.741	568.44
641.938	514
642.136	572.31
642.333	531.05
642.531	581.42
642.728	610.87
642.925	553.71
643.123	516.71
643.32	563.79
643.517	525.81
643.715	555.65
643.912	514.96
644.109	534.14
644.306	539.76
644.504	482.41
644.701	541.7
644.898	575.99
645.095	468.27
645.293	519.23
645.49	559.72
645.687	520.58
645.884	562.24
646.081	471.18
646.278	521.55
646.475	528.72
646.672	501.4
646.87	557.78
647.067	500.63
647.264	517.29
647.461	451.22
647.658	483.19
647.855	524.46
648.052	479.31
648.249	432.62
648.446	485.9
648.642	493.46
648.839	473.7
649.036	485.51
649.233	437.85
649.43	448.31
649.627	458.58
649.824	465.56
650.021	448.12
650.217	439.21
650.414	454.51
650.611	487.45
650.808	494.81
651.004	502.37
651.201	490.55
651.398	538.99
651.595	478.35
651.791	458.2
651.988	496.17
652.185	466.14
652.381	502.18
652.578	461.88
652.775	473.89
652.971	456.06
653.168	470.21
653.364	509.35
653.561	397.55
653.757	468.08
653.954	482.8
654.15	458
654.347	549.84
654.543	457.42
654.74	430.1
654.936	401.82
655.133	466.14
655.329	486.29
655.525	470.6
655.722	501.98
655.918	421.38
656.115	487.84
656.311	386.32
656.507	397.17
656.704	370.04
656.9	417.32
657.096	401.23
657.292	365.2
657.489	463.81
657.685	438.63
657.881	439.21
658.077	407.63
658.273	423.9
658.47	493.07
658.666	431.07
658.862	473.89
659.058	417.51
659.254	514.77
659.45	412.67
659.646	450.83
659.842	432.82
660.038	499.08
660.234	423.52
660.43	413.05
660.626	523.49
660.822	469.63
661.018	473.7
661.214	458.2
661.41	400.65
661.606	483.96
661.802	450.45
661.998	456.84
662.194	432.62
662.39	452.38
662.586	455.48
662.781	453.93
662.977	444.83
663.173	474.47
663.369	442.31
663.564	470.21
663.76	483.38
663.956	419.83
664.152	521.94
664.347	408.6
664.543	428.17
664.739	437.66
664.934	410.15
665.13	346.6
665.326	447.15
665.521	462.65
665.717	429.91
665.912	417.7
666.108	357.83
666.304	405.88
666.499	399.1
666.695	324.51
666.89	403.37
667.086	439.6
667.281	453.35
667.477	501.21
667.672	443.08
667.867	420.42
668.063	445.41
668.258	393.1
668.454	429.72
668.649	472.53
668.844	413.44
669.04	452.58
669.235	421
669.43	408.4
669.626	370.04
669.821	420.03
670.016	386.51
670.211	403.95
670.407	397.17
670.602	415.96
670.797	422.16
670.992	468.66
671.187	367.72
671.382	442.5
671.578	409.18
671.773	423.52
671.968	369.85
672.163	402.4
672.358	438.43
672.553	386.51
672.748	403.17
672.943	469.43
673.138	378.95
673.333	434.95
673.528	359
673.723	401.23
673.918	406.27
674.113	376.63
674.308	475.05
674.503	430.49
674.698	449.67
674.892	392.71
675.087	408.6
675.282	450.64
675.477	388.25
675.672	442.12
675.867	378.18
676.061	390.38
676.256	378.95
676.451	372.37
676.646	384.38
676.84	358.22
677.035	350.86
677.23	356.29
677.424	422.74
677.619	418.28
677.814	415.57
678.008	418.09
678.203	344.66
678.397	373.14
678.592	377.4
678.787	435.14
678.981	350.28
679.176	396.39
679.37	398.72
679.565	351.05
679.759	388.64
679.954	406.85
680.148	439.21
680.342	447.15
680.537	405.88
680.731	370.62
680.926	401.04
681.12	413.44
681.314	371.59
681.509	385.93
681.703	399.88
681.897	431.07
682.092	394.65
682.286	358.22
682.48	460.91
682.674	447.93
682.869	374.11
683.063	382.44
683.257	454.32
683.451	350.86
683.645	426.81
683.839	408.6
684.034	380.7
684.228	408.98
684.422	349.89
684.616	348.15
684.81	408.02
685.004	391.93
685.198	373.72
685.392	416.93
685.586	385.15
685.78	427.58
685.974	433.4
686.168	388.64
686.362	451.03
686.556	373.53
686.75	376.05
686.944	369.27
687.138	410.15
687.331	325.09
687.525	358.03
687.719	271.04
687.913	316.95
688.107	334.2
688.301	336.52
688.494	350.86
688.688	308.43
688.882	291.19
689.076	282.85
689.269	309.2
689.463	390
689.657	313.66
689.85	327.03
690.044	311.72
690.238	316.18
690.431	305.91
690.625	332.07
690.818	344.47
691.012	325.48
691.205	378.37
691.399	326.64
691.593	383.99
691.786	402.78
691.98	432.23
692.173	437.27
692.366	407.24
692.56	417.51
692.753	491.33
692.947	372.37
693.14	448.12
693.333	424.68
693.527	370.23
693.72	439.21
693.914	404.53
694.107	410.53
694.3	444.63
694.493	401.04
694.687	437.85
694.88	423.13
695.073	488.42
695.266	429.72
695.46	430.88
695.653	506.63
695.846	456.65
696.039	415.96
696.232	451.03
696.425	484.35
696.618	463.04
696.812	475.25
697.005	541.7
697.198	585.29
697.391	532.59
697.584	523.3
697.777	577.74
697.97	554.29
698.163	566.69
698.356	551.58
698.549	610.09
698.742	604.28
698.935	533.56
699.127	562.63
699.32	548.68
699.513	539.57
699.706	585.29
699.899	592.27
700.092	545.58
700.285	575.41
700.477	531.24
700.67	570.76
700.863	616.88
701.056	676.16
701.248	623.66
701.441	635.47
701.634	624.04
701.826	699.41
702.019	594.79
702.212	681.39
702.404	599.63
702.597	619.59
702.79	636.06
702.982	656.98
703.175	699.02
703.367	674.61
703.56	660.27
703.752	752.5
703.945	708.32
704.137	728.86
704.33	740.87
704.522	739.32
704.715	741.26
704.907	736.8
705.1	759.67
705.292	783.69
705.484	767.61
705.677	803.45
705.869	795.12
706.061	835.42
706.254	842.98
706.446	813.92
706.638	817.6
706.831	853.44
707.023	828.25
707.215	913.11
707.407	891.41
707.599	887.35
707.792	915.63
707.984	890.64
708.176	903.81
708.368	868.17
708.56	942.56
708.752	886.76
708.944	889.09
709.136	913.31
709.329	931.91
709.521	1046.99
709.713	959.42
709.905	952.64
710.097	990.81
710.289	944.89
710.481	950.31
710.672	997.78
710.864	972.01
711.056	1054.55
711.248	1051.06
711.44	1063.66
711.632	1013.86
711.824	1076.83
712.016	1094.27
712.207	1084
712.399	1087.68
712.591	1155.1
712.783	1131.27
712.975	1133.21
713.166	1087.87
713.358	1086.91
713.55	1155.88
713.741	1152.39
713.933	1170.41
714.125	1166.34
714.316	1151.42
714.508	1177.58
714.7	1194.82
714.891	1177
715.083	1270
715.274	1171.96
715.466	1207.8
715.657	1239.19
715.849	1136.31
716.04	1196.18
716.232	1125.85
716.423	1230.86
716.615	1192.89
716.806	1153.75
716.998	1161.11
717.189	1086.52
717.381	1046.22
717.572	1046.61
717.763	1111.71
717.955	1063.66
718.146	1026.84
718.337	1004.18
718.528	969.49
718.72	915.25
718.911	974.92
719.102	967.75
719.293	1001.27
719.485	996.04
719.676	975.69
719.867	942.37
720.058	938.3
720.249	950.7
720.44	969.11
720.632	1012.7
720.823	1012.89
721.014	1118.49
721.205	1096.4
721.396	1148.52
721.587	1210.9
721.778	1215.55
721.969	1230.47
722.16	1306.42
722.351	1270.38
722.542	1337.61
722.733	1382.76
722.924	1299.06
723.115	1331.8
723.305	1367.45
723.496	1358.35
723.687	1263.6
723.878	1259.73
724.069	1269.61
724.26	1262.63
724.45	1215.55
724.641	1240.55
724.832	1250.62
725.023	1281.04
725.213	1245.78
725.404	1228.92
725.595	1261.86
725.785	1223.69
725.976	1279.1
726.167	1294.6
726.357	1264.77
726.548	1377.53
726.739	1278.33
726.929	1313.4
727.12	1354.47
727.31	1400.97
727.501	1355.44
727.691	1352.92
727.882	1371.91
728.072	1375.78
728.263	1371.52
728.453	1460.06
728.644	1399.03
728.834	1371.91
729.024	1371.91
729.215	1409.11
729.405	1413.18
729.596	1455.22
729.786	1427.13
729.976	1471.11
730.167	1435.26
730.357	1448.44
730.547	1445.14
730.737	1491.26
730.928	1496.68
731.118	1559.26
731.308	1474.79
731.498	1486.03
731.688	1585.61
731.879	1570.31
732.069	1603.63
732.259	1593.75
732.449	1641.22
732.639	1696.43
732.829	1712.13
733.019	1669.5
733.209	1756.11
733.399	1696.24
733.589	1777.81
733.779	1817.91
733.969	1808.81
734.159	1825.47
734.349	1892.89
734.539	1919.83
734.729	1895.03
734.919	1933.58
735.109	1967.29
735.299	1902.97
735.488	1942.11
735.678	1940.17
735.868	1936.87
736.058	1970.01
736.248	1926.61
736.437	1885.73
736.627	1852.79
736.817	2025.03
737.007	1966.91
737.196	2031.04
737.386	1950.82
737.576	1929.51
737.765	2020.77
737.955	1950.24
738.144	2075.79
738.334	2027.55
738.524	1975.43
738.713	2031.23
738.903	2019.99
739.092	2038.01
739.282	2028.52
739.471	2076.18
739.661	2079.86
739.85	2095.36
740.04	2083.93
740.229	2094.97
740.419	2149.61
740.608	2162.01
740.797	2112.99
740.987	2203.08
741.176	2193.2
741.365	2116.67
741.555	2086.64
741.744	2176.93
741.933	2113.38
742.123	2162.59
742.312	2190.1
742.501	2187.39
742.69	2206.96
742.88	2131.78
743.069	2242.8
743.258	2185.07
743.447	2217.42
743.636	2235.63
743.825	2199.98
744.014	2194.75
744.204	2194.95
744.393	2168.6
744.582	2241.83
744.771	2269.54
744.96	2171.12
745.149	2230.6
745.338	2190.1
745.527	2233.89
745.716	2212.19
745.905	2198.43
746.094	2245.51
746.283	2234.47
746.471	2244.93
746.66	2323.59
746.849	2240.48
747.038	2297.83
747.227	2232.92
747.416	2292.4
747.604	2218.58
747.793	2208.31
747.982	2243.19
748.171	2254.04
748.359	2294.53
748.548	2307.71
748.737	2268.38
748.926	2226.14
749.114	2187.39
749.303	2233.31
749.491	2210.45
749.68	2197.66
749.869	2278.06
750.057	2204.05
750.246	2189.91
750.434	2220.33
750.623	2230.98
750.811	2241.25
751	2228.08
751.188	2193.2
751.377	2196.88
751.565	2205.02
751.754	2192.04
751.942	2204.44
752.131	2256.56
752.319	2191.27
752.507	2137.79
752.696	2236.99
752.884	2227.11
753.072	2263.73
753.261	2204.05
753.449	2279.23
753.637	2207.54
753.825	2303.64
754.014	2224.2
754.202	2215.29
754.39	2277.87
754.578	2257.33
754.766	2191.27
754.955	2187.78
755.143	2262.76
755.331	2202.11
755.519	2195.53
755.707	2230.01
755.895	2176.73
756.083	2202.89
756.271	2163.95
756.459	2186.03
756.647	2219.75
756.835	2174.6
757.023	2147.87
757.211	2151.16
757.399	2136.82
757.587	2178.48
757.775	2092.26
757.963	2139.15
758.151	2138.76
758.339	2123.65
758.526	2098.65
758.714	2171.5
758.902	2065.14
759.09	2010.69
759.278	1892.31
759.465	1772.19
759.653	1499.01
759.841	1412.79
760.028	1189.59
760.216	1033.24
760.404	1034.59
760.591	866.62
760.779	724.21
760.967	619.2
761.154	504.89
761.342	552.36
761.529	501.01
761.717	587.62
761.905	544.22
762.092	573.28
762.28	537.44
762.467	551.97
762.655	471.18
762.842	501.79
763.029	529.11
763.217	566.69
763.404	547.13
763.592	568.63
763.779	536.66
763.966	566.89
764.154	628.11
764.341	649.62
764.528	599.63
764.716	685.85
764.903	717.62
765.09	713.94
765.277	762.19
765.465	914.47
765.652	896.45
765.839	955.16
766.026	1049.13
766.213	1064.04
766.4	1144.25
766.588	1270.77
766.775	1235.7
766.962	1347.88
767.149	1356.41
767.336	1484.09
767.523	1423.44
767.71	1511.41
767.897	1587.16
768.084	1640.44
768.271	1646.06
768.458	1718.91
768.645	1731.31
768.832	1721.04
769.019	1720.85
769.206	1750.1
769.392	1831.48
769.579	1881.46
769.766	1881.85
769.953	1852.79
770.14	1915.37
770.327	1884.37
770.513	1930.67
770.7	1964.39
770.887	1891.15
771.073	1925.44
771.26	1904.33
771.447	1884.95
771.634	1900.84
771.82	1972.52
772.007	1890.38
772.193	1935.71
772.38	1943.27
772.567	1952.37
772.753	1920.02
772.94	1947.53
773.126	1962.45
773.313	1967.68
773.499	1970.97
773.686	1957.61
773.872	1950.44
774.059	1954.31
774.245	1903.36
774.432	1918.86
774.618	1892.7
774.804	1958.38
774.991	1864.99
775.177	1944.43
775.363	1874.49
775.55	1938.04
775.736	1847.17
775.922	1878.75
776.109	1875.26
776.295	1965.55
776.481	1923.12
776.667	1927.96
776.853	1911.49
777.04	1878.75
777.226	1893.09
777.412	1972.52
777.598	1842.13
777.784	1833.61
777.97	1829.73
778.156	1927.58
778.342	1835.74
778.528	1863.83
778.715	1796.99
778.901	1803.58
779.087	1863.64
779.272	1820.82
779.458	1802.61
779.644	1856.86
779.83	1810.94
780.016	1919.83
780.202	1805.51
780.388	1829.35
780.574	1773.93
780.76	1818.69
780.946	1872.74
781.131	1795.25
781.317	1832.25
781.503	1784.78
781.689	1785.56
781.874	1922.34
782.06	1791.76
782.246	1816.56
782.432	1812.3
782.617	1822.56
782.803	1853.95
782.989	1727.63
783.174	1776.65
783.36	1733.25
783.545	1782.07
783.731	1764.25
783.916	1731.31
784.102	1781.68
784.288	1696.82
784.473	1751.85
784.659	1758.82
784.844	1777.23
785.029	1745.07
785.215	1712.13
785.4	1671.44
785.586	1776.45
785.771	1684.23
785.956	1726.27
786.142	1722.98
786.327	1683.45
786.512	1679.97
786.698	1651.1
786.883	1657.69
787.068	1668.53
787.254	1712.32
787.439	1651.1
787.624	1635.99
787.809	1628.43
787.994	1670.28
788.18	1700.89
788.365	1598.59
788.55	1649.35
788.735	1621.45
788.92	1649.94
789.105	1618.94
789.29	1646.84
789.475	1604.79
789.66	1613.32
789.845	1562.17
790.03	1561.97
790.215	1635.4
790.4	1628.43
790.585	1663.89
790.77	1602.27
790.955	1534.46
791.14	1580.19
791.325	1654.39
791.51	1509.47
791.695	1582.7
791.879	1547.64
792.064	1551.12
792.249	1644.51
792.434	1557.13
792.618	1581.93
792.803	1588.9
792.988	1569.34
793.173	1562.75
793.357	1618.55
793.542	1513.92
793.727	1559.65
793.911	1574.76
794.096	1571.27
794.281	1597.43
794.465	1678.8
794.65	1572.63
794.834	1610.8
795.019	1641.41
795.203	1654
795.388	1629.79
795.572	1627.46
795.757	1585.22
795.941	1560.04
796.126	1580.19
796.31	1550.74
796.494	1613.9
796.679	1567.01
796.863	1549.19
797.048	1650.71
797.232	1584.45
797.416	1584.84
797.601	1581.93
797.785	1628.43
797.969	1614.87
798.153	1565.66
798.338	1607.31
798.522	1624.36
798.706	1599.95
798.89	1626.3
799.074	1703.02
799.258	1648.19
799.443	1620.29
799.627	1615.25
799.811	1644.9
799.995	1604.79
800.179	1573.79
800.363	1631.92
800.547	1613.7
800.731	1641.22
800.915	1531.94
801.099	1557.91
801.283	1578.83
801.467	1608.67
801.651	1587.94
801.835	1659.24
802.019	1610.02
802.202	1592
802.386	1563.91
802.57	1551.12
802.754	1560.81
802.938	1573.02
803.121	1563.33
803.305	1645.29
803.489	1601.5
803.673	1625.91
803.856	1652.26
804.04	1604.4
804.224	1639.67
804.407	1577.09
804.591	1571.47
804.775	1593.55
804.958	1613.32
805.142	1703.22
805.326	1617.58
805.509	1628.43
805.693	1641.41
805.876	1691.4
806.06	1574.37
806.243	1624.75
806.427	1643.15
806.61	1655.17
806.794	1603.05
806.977	1656.52
807.16	1627.85
807.344	1648.19
807.527	1607.31
807.71	1594.91
807.894	1626.88
808.077	1645.29
808.26	1598.4
808.444	1586.58
808.627	1651.29
808.81	1584.64
808.993	1506.56
809.177	1519.16
809.36	1552.48
809.543	1586.19
809.726	1496.49
809.909	1532.91
810.092	1508.11
810.276	1497.07
810.459	1529.81
810.642	1510.82
810.825	1471.49
811.008	1480.6
811.191	1420.93
811.374	1416.66
811.557	1436.62
811.74	1498.23
811.923	1425.38
812.106	1421.51
812.289	1346.72
812.472	1405.23
812.654	1407.36
812.837	1399.23
813.02	1332.19
813.203	1348.27
813.386	1261.47
813.569	1264.38
813.751	1238.03
813.934	1281.82
814.117	1266.7
814.3	1187.27
814.482	1185.91
814.665	1150.26
814.848	1194.44
815.03	1112.29
815.213	1121.97
815.396	1096.21
815.578	1079.93
815.761	1065.59
815.943	1132.24
816.126	1060.75
816.309	1044.86
816.491	997.59
816.674	915.63
816.856	978.41
817.039	988.48
817.221	1052.03
817.403	957.1
817.586	1021.61
817.768	1041.57
817.951	989.64
818.133	919.31
818.315	999.91
818.498	1018.71
818.68	1076.06
818.862	1043.12
819.045	1068.11
819.227	1023.55
819.409	1004.37
819.591	1040.41
819.774	1012.51
819.956	1021.23
820.138	1062.49
820.32	1018.71
820.502	1100.86
820.684	1091.56
820.866	1130.69
821.048	1175.64
821.231	1122.36
821.413	1155.3
821.595	1110.54
821.777	1138.25
821.959	1120.04
822.141	1215.75
822.323	1066.37
822.505	1035.18
822.686	1010.96
822.868	990.81
823.05	950.12
823.232	925.71
823.414	837.94
823.596	936.95
823.778	885.02
823.96	942.76
824.141	882.5
824.323	939.46
824.505	966.78
824.687	1018.9
824.868	1014.64
825.05	1111.12
825.232	1131.08
825.413	1197.73
825.595	1131.27
825.777	1093.69
825.958	1097.56
826.14	1100.08
826.321	1133.02
826.503	1109.19
826.685	1115.58
826.866	1151.81
827.048	1127.98
827.229	1065.4
827.411	1050.09
827.592	1042.54
827.773	1055.71
827.955	991.97
828.136	1028.39
828.318	984.61
828.499	1053.39
828.68	978.6
828.862	1023.16
829.043	1036.14
829.224	1026.07
829.406	973.37
829.587	1013.48
829.768	1007.47
829.949	994.29
830.131	989.64
830.312	1052.42
830.493	1005.73
830.674	1025.1
830.855	1014.83
831.036	992.74
831.218	1079.16
831.399	1065.98
831.58	997.01
831.761	1018.13
831.942	1036.34
832.123	1009.79
832.304	945.47
832.485	1002.43
832.666	997.39
832.847	1031.49
833.028	986.93
833.209	1001.27
833.389	995.84
833.57	948.96
833.751	992.16
833.932	1032.46
834.113	1010.57
834.294	997.59
834.475	1015.22
834.655	1022.19
834.836	1070.82
835.017	1028.39
835.198	967.56
835.378	999.91
835.559	1063.46
835.74	1016.38
835.92	966.01
836.101	981.7
836.281	1048.93
836.462	1029.56
836.643	1041.38
836.823	1092.52
837.004	1010.38
837.184	1085.16
837.365	1054.55
837.545	1070.82
837.726	1045.06
837.906	1074.89
838.087	1054.55
838.267	1048.74
838.448	1003.98
838.628	1058.04
838.808	1044.86
838.989	1092.52
839.169	1013.48
839.349	1068.89
839.53	1088.84
839.71	1085.94
839.89	1020.64
840.07	1119.26
840.251	1023.16
840.431	1054.55
840.611	1050.68
840.791	986.16
840.971	1048.54
841.151	1045.64
841.332	1026.65
841.512	1080.12
841.692	990.03
841.872	1067.92
842.052	1047.58
842.232	1052.42
842.412	1013.48
842.592	1023.94
842.772	1056.49
842.952	1045.06
843.132	1006.89
843.312	1001.46
843.492	1009.41
843.672	1046.03
843.851	962.13
844.031	1008.24
844.211	1011.15
844.391	1004.76
844.571	1048.35
844.751	1036.53
844.93	996.23
845.11	1004.95
845.29	1038.86
845.47	1028.39
845.649	1014.06
845.829	1028.01
846.009	966.2
846.188	1038.28
846.368	998.17
846.547	1022
846.727	1046.61
846.907	936.56
847.086	1042.93
847.266	1016.19
847.445	1008.83
847.625	1006.89
847.804	983.06
847.984	1009.6
848.163	975.89
848.343	953.8
848.522	1014.06
848.701	1014.44
848.881	942.95
849.06	987.51
849.239	1007.28
849.419	981.31
849.598	928.81
849.777	923.96
849.957	967.56
850.136	921.06
850.315	902.65
850.494	894.9
850.674	882.7
850.853	971.24
851.032	915.83
851.211	985.38
851.39	925.71
851.569	887.54
851.748	854.8
851.927	915.05
852.107	900.71
852.286	883.08
852.465	853.63
852.644	936.95
852.823	942.95
853.002	950.51
853.181	930.75
853.359	935.98
853.538	865.26
853.717	951.09
853.896	854.8
854.075	792.99
854.254	832.9
854.433	782.72
854.611	841.04
854.79	770.13
854.969	831.35
855.148	841.04
855.327	742.81
855.505	812.75
855.684	809.27
855.863	833.87
856.041	772.07
856.22	844.14
856.399	804.81
856.577	880.76
856.756	882.31
856.934	979.38
857.113	985.19
857.291	855.77
857.47	861.19
857.648	880.37
857.827	897.03
858.005	919.9
858.184	837.17
858.362	937.14
858.541	886.38
858.719	883.28
858.898	868.75
859.076	842.98
859.254	946.25
859.433	833.68
859.611	852.67
859.789	815.85
859.967	890.64
860.146	907.3
860.324	846.47
860.502	846.66
860.68	800.93
860.859	809.07
861.037	818.76
861.215	850.53
861.393	837.17
861.571	836.58
861.749	797.45
861.927	859.83
862.105	836.97
862.283	839.3
862.461	790.86
862.639	785.24
862.817	817.6
862.995	798.42
863.173	811.4
863.351	822.25
863.529	791.05
863.707	844.33
863.885	814.3
864.063	744.94
864.241	772.07
864.418	839.3
864.596	806.36
864.774	766.45
864.952	778.27
865.129	793.38
865.307	760.64
865.485	743.39
865.663	813.14
865.84	744.75
866.018	779.82
866.196	634.51
866.373	702.71
866.551	693.99
866.728	650.78
866.906	702.51
867.084	699.02
867.261	743.39
867.439	723.63
867.616	771.29
867.794	739.32
867.971	747.27
868.149	742.04
868.326	793.57
868.503	759.47
868.681	768.39
868.858	681.2
869.035	722.66
869.213	760.05
869.39	710.07
869.567	816.24
869.745	713.17
869.922	732.15
870.099	746.88
870.276	774.2
870.454	736.61
870.631	738.74
870.808	735.84
870.985	761.6
871.162	798.8
871.339	754.44
871.517	718.01
871.694	697.09
871.871	717.43
872.048	724.21
872.225	711.62
872.402	737.39
872.579	686.04
872.756	739.52
872.933	691.47
873.11	706
873.287	741.26
873.463	698.64
873.64	677.91
873.817	717.04
873.994	739.9
874.171	688.56
874.348	733.51
874.524	651.17
874.701	708.13
874.878	621.52
875.055	696.51
875.231	704.26
875.408	735.45
875.585	645.55
875.762	695.54
875.938	681.39
876.115	658.34
876.291	687.4
876.468	659.11
876.645	641.87
876.821	654.85
876.998	667.25
877.174	676.94
877.351	666.86
877.527	662.6
877.704	660.66
877.88	669.57
878.057	639.74
878.233	695.15
878.409	643.03
878.586	642.06
878.762	657.37
878.938	640.71
879.115	607.38
879.291	643.42
879.467	607.19
879.644	597.89
879.82	644.39
879.996	612.03
880.172	573.67
880.349	633.15
880.525	670.74
880.701	605.44
880.877	617.84
881.053	654.85
881.229	643.42
881.405	686.43
881.581	612.81
881.757	591.11
881.933	655.43
882.109	651.94
882.285	652.52
882.461	595.37
882.637	599.05
882.813	600.79
882.989	590.91
883.165	675.97
883.341	580.06
883.517	647.87
883.693	650.59
883.869	653.69
884.044	592.85
884.22	640.32
884.396	667.64
884.572	639.16
884.747	690.5
884.923	674.42
885.099	636.83
885.275	660.47
885.45	594.01
885.626	600.79
885.801	606.22
885.977	596.14
886.153	556.81
886.328	616.29
886.504	601.76
886.679	623.85
886.855	600.99
887.03	591.3
887.206	633.15
887.381	612.81
887.557	639.74
887.732	644.19
887.908	676.36
888.083	663.76
888.258	624.82
888.434	607.58
888.609	625.4
888.784	637.02
888.96	598.86
889.135	603.31
889.31	580.06
889.485	619.01
889.661	599.24
889.836	661.44
890.011	618.43
890.186	612.42
890.361	625.4
890.537	653.88
890.712	619.97
890.887	599.24
891.062	615.52
891.237	641.29
891.412	563.21
891.587	609.13
891.762	681.39
891.937	667.06
892.112	573.28
892.287	599.83
892.462	563.21
892.637	537.05
892.812	533.95
892.987	565.92
893.161	529.5
893.336	596.53
893.511	563.4
893.686	593.04
893.861	570.76
894.035	544.22
894.21	584.91
894.385	508.76
894.56	574.64
894.734	545.58
894.909	510.9
895.084	492.68
895.258	473.7
895.433	542.09
895.608	534.34
895.782	472.92
895.957	483.19
896.131	456.06
896.306	419.45
896.48	446.76
896.655	472.15
896.829	409.37
897.004	377.02
897.178	427.39
897.353	393.68
897.527	442.7
897.701	425.84
897.876	377.79
898.05	463.23
898.224	404.33
898.399	454.13
898.573	433.59
898.747	324.7
898.921	434.75
899.096	341.37
899.27	358.8
899.444	326.64
899.618	338.85
899.792	375.27
899.967	340.4
900.141	390.77
900.315	341.56
900.489	356.09
900.663	379.92
900.837	373.72
901.011	311.53
901.185	407.63
901.359	350.67
901.533	350.09
901.707	360.55
901.881	352.8
902.055	287.12
902.229	349.7
902.403	442.12
902.576	373.92
902.75	381.08
902.924	487.26
903.098	387.67
903.272	445.8
903.446	452.96
903.619	404.92
903.793	419.25
903.967	416.73
904.14	472.15
904.314	450.25
904.488	456.26
904.661	482.22
904.835	431.85
905.009	475.83
905.182	512.64
905.356	480.86
905.529	447.15
905.703	445.21
905.876	449.48
906.05	446.57
906.223	419.64
906.397	353.19
906.57	359.38
906.744	377.79
906.917	352.22
907.09	373.33
907.264	394.07
907.437	317.73
907.61	299.52
907.784	337.49
907.957	344.08
908.13	331.49
908.304	376.43
908.477	316.37
908.65	331.29
908.823	299.13
908.996	401.04
909.17	297.58
909.343	352.8
909.516	308.62
909.689	323.35
909.862	310.75
910.035	334.2
910.208	310.37
910.381	292.74
910.554	405.5
910.727	332.07
910.9	315.6
911.073	301.26
911.246	373.33
911.419	325.09
911.592	324.51
911.765	295.84
911.938	303
912.11	324.32
912.283	319.67
912.456	361.9
912.629	318.89
912.802	294.48
912.974	292.74
913.147	236.74
913.32	222.41
913.493	256.12
913.665	305.33
913.838	290.41
914.01	289.83
914.183	279.37
914.356	257.09
914.528	308.62
914.701	351.25
914.873	305.91
915.046	295.64
915.218	265.03
915.391	205.55
915.563	222.6
915.736	280.72
915.908	297.58
916.081	260.38
916.253	278.4
916.425	249.34
916.598	285.76
916.77	292.54
916.942	269.1
917.115	201.29
917.287	304.55
917.459	245.46
917.632	246.04
917.804	193.92
917.976	262.12
918.148	226.09
918.32	257.28
918.493	290.22
918.665	327.61
918.837	296.42
919.009	318.5
919.181	326.06
919.353	291.77
919.525	305.72
919.697	307.27
919.869	262.32
920.041	345.05
920.213	366.55
920.385	320.83
920.557	278.98
920.729	323.74
920.901	277.62
921.073	303.2
921.244	256.31
921.416	339.04
921.588	302.62
921.76	290.8
921.932	365.78
922.103	270.07
922.275	263.48
922.447	303.2
922.619	252.05
922.79	262.51
922.962	295.06
923.134	298.16
923.305	252.44
923.477	247.21
923.648	214.46
923.82	265.42
923.991	225.31
924.163	219.5
924.335	248.37
924.506	212.33
924.677	295.25
924.849	247.21
925.02	257.09
925.192	266.19
925.363	269.29
925.535	251.66
925.706	222.21
925.877	293.51
926.049	214.27
926.22	263.87
926.391	254.57
926.562	245.27
926.734	233.84
926.905	254.37
927.076	190.44
927.247	221.63
927.419	208.65
927.59	182.11
927.761	223.57
927.932	193.15
928.103	228.41
928.274	185.59
928.445	173.19
928.616	202.45
928.787	189.08
928.958	221.44
929.129	212.14
929.3	182.69
929.471	163.51
929.642	137.54
929.813	94.15
929.984	166.61
930.155	101.89
930.326	157.11
930.496	126.69
930.667	75.16
930.838	125.53
931.009	118.94
931.18	111.78
931.35	120.11
931.521	110.61
931.692	69.54
931.863	37.96
932.033	95.89
932.204	102.28
932.374	111.39
932.545	68.76
932.716	107.32
932.886	126.5
933.057	22.46
933.227	48.81
933.398	140.26
933.568	41.83
933.739	19.55
933.909	23.43
934.08	70.51
934.25	18.78
934.421	17.61
934.591	60.05
934.761	23.81
934.932	-2.73
935.102	33.89
935.272	33.7
935.443	30.4
935.613	23.81
935.783	64.89
935.953	26.72
936.123	174.74
936.294	16.45
936.464	7.93
936.634	42.41
936.804	-2.73
936.974	-33.53
937.144	56.95
937.314	21.49
937.484	20.91
937.655	-5.05
937.825	89.69
937.995	7.54
938.165	92.01
938.334	30.79
938.504	34.66
938.674	33.7
938.844	22.07
939.014	75.16
939.184	53.07
939.354	61.79
939.524	95.69
939.694	35.25
939.863	53.85
940.033	102.09
940.203	98.02
940.373	102.28
940.542	108.09
940.712	61.79
940.882	88.72
941.051	103.44
941.221	89.5
941.391	121.85
941.56	62.56
941.73	39.12
941.899	170.87
942.069	40.86
942.238	75.35
942.408	52.68
942.577	118.94
942.747	61.98
942.916	32.34
943.086	32.15
943.255	90.46
943.425	88.91
943.594	33.7
943.763	-19.39
943.933	11.8
944.102	-4.86
944.271	35.63
944.441	52.68
944.61	35.44
944.779	49
944.948	139.87
945.117	3.47
945.287	30.6
945.456	-1.76
945.625	26.72
945.794	51.71
945.963	47.26
946.132	73.41
946.301	54.23
946.47	96.08
946.639	4.25
946.808	2.5
946.977	65.86
947.146	98.21
947.315	28.08
947.484	52.3
947.653	53.65
947.822	-5.44
947.991	7.54
948.16	108.48
948.329	83.88
948.498	24.4
948.666	33.89
948.835	85.62
949.004	17.42
949.173	-12.03
949.341	62.18
949.51	95.69
949.679	88.33
949.847	84.07
950.016	125.14
950.185	94.34
950.353	31.37
950.522	31.37
950.69	85.04
950.859	17.03
951.028	93.56
951.196	66.05
951.365	17.61
951.533	41.45
951.701	98.79
951.87	62.76
952.038	12.77
952.207	40.28
952.375	107.71
952.543	37.18
952.712	26.91
952.88	18.2
953.048	115.84
953.217	55.2
953.385	49
953.553	112.36
953.721	9.48
953.89	58.11
954.058	15.29
954.226	40.09
954.394	48.23
954.562	14.13
954.73	26.33
954.898	35.83
955.067	93.37
955.235	46.1
955.403	83.3
955.571	133.28
955.739	73.8
955.907	19.55
956.075	26.91
956.243	19.94
956.41	62.76
956.578	-18.81
956.746	-2.53
956.914	31.95
957.082	76.32
957.25	67.99
957.418	24.98
957.585	44.16
957.753	103.06
957.921	28.08
958.089	66.63
958.256	73.41
958.424	63.53
958.592	79.61
958.759	33.7
958.927	67.6
959.095	75.16
959.262	54.43
959.43	45.71
959.597	34.08
959.765	51.13
959.932	6.77
960.1	82.52
960.267	33.5
960.435	54.43
960.602	65.08
960.77	46.87
960.937	8.7
961.104	28.46
961.272	-1.37
961.439	32.92
961.606	81.94
961.774	72.25
961.941	30.98
962.108	69.35
962.275	52.68
962.443	101.12
962.61	74.38
962.777	134.06
962.944	74.38
963.111	63.92
963.278	69.15
963.446	56.17
963.613	55.4
963.78	81.94
963.947	77.1
964.114	50.94
964.281	124.18
964.448	87.17
964.615	54.81
964.782	82.52
964.949	92.6
965.116	79.03
965.282	89.3
965.449	65.28
965.616	34.28
965.783	72.06
965.95	55.4
966.117	27.69
966.283	50.94
966.45	67.21
966.617	86.59
966.784	102.48
966.95	99.96
967.117	95.89
967.284	19.55
967.45	45.13
967.617	111.78
967.784	91.43
967.95	133.09
968.117	35.44
968.283	112.94
968.45	135.22
968.616	91.63
968.783	97.63
968.949	73.22
969.116	106.54
969.282	60.43
969.449	85.62
969.615	46.87
969.781	8.7
969.948	68.96
970.114	22.46
970.28	117.98
970.447	73.03
970.613	117.39
970.779	54.43
970.945	79.23
971.112	53.07
971.278	81.55
971.444	80.58
971.61	86.59
971.776	39.31
971.942	99.18
972.108	105.38
972.275	69.15
972.441	96.47
972.607	142.39
972.773	55.4
972.939	76.51
973.105	75.74
973.271	42.03
973.437	39.51
973.602	45.51
973.768	88.91
973.934	70.31
974.1	79.81
974.266	-15.71
974.432	96.66
974.598	38.93
974.763	85.43
974.929	42.41
975.095	126.69
975.261	29.43
975.426	24.59
975.592	73.41
975.758	129.41
975.923	7.93
976.089	46.29
976.255	79.42
976.42	77.87
976.586	72.83
976.751	53.65
976.917	151.88
977.082	67.8
977.248	23.04
977.413	11.8
977.579	43
977.744	78.65
977.91	32.34
978.075	27.69
978.24	92.6
978.406	59.46
978.571	65.28
978.736	28.66
978.902	86.78
979.067	31.18
979.232	-0.02
979.397	64.5
979.563	115.26
979.728	53.26
979.893	42.8
980.058	33.31
980.223	79.42
980.388	62.76
980.554	69.93
980.719	26.53
980.884	36.6
981.049	81.75
981.214	43.19
981.379	80.58
981.544	43.19
981.709	60.05
981.874	63.34
982.039	43.96
982.204	87.75
982.368	72.25
982.533	63.92
982.698	101.7
982.863	120.69
983.028	72.45
983.193	65.66
983.357	72.83
983.522	79.23
983.687	35.63
983.852	17.81
984.016	44.16
984.181	55.4
984.346	73.22
984.51	67.8
984.675	50.75
984.839	85.04
985.004	69.73
985.168	97.63
985.333	56.17
985.498	34.47
985.662	96.28
985.827	69.73
985.991	53.26
986.155	39.12
986.32	66.44
986.484	130.38
986.649	80.39
986.813	0.18
986.977	60.82
987.142	66.25
987.306	38.73
987.47	46.29
987.634	61.6
987.799	70.31
987.963	54.04
988.127	91.24
988.291	145.1
988.455	44.55
988.62	58.69
988.784	97.05
988.948	87.17
989.112	28.85
989.276	64.7
989.44	66.83
989.604	59.66
989.768	56.95
989.932	144.13
990.096	23.04
990.26	13.55
990.424	39.7
990.588	68.57
990.752	152.27
990.915	84.85
991.079	58.88
991.243	19.94
991.407	73.22
991.571	52.1
991.734	73.61
991.898	68.76
992.062	152.27
992.226	69.15
992.389	27.69
992.553	18.78
992.717	19.16
992.88	56.56
993.044	75.55
993.207	44.55
993.371	77.29
993.535	65.86
993.698	53.07
993.862	93.95
994.025	64.31
994.189	57.33
994.352	74.19
994.515	54.23
994.679	89.3
994.842	25.17
995.006	80.78
995.169	36.41
995.332	24.78
995.496	95.69
995.659	10.83
995.822	34.86
995.985	58.69
996.149	102.28
996.312	48.61
996.475	91.43
996.638	17.81
996.801	109.26
996.964	121.66
997.128	54.04
997.291	36.6
997.454	66.83
997.617	-11.45
997.78	85.81
997.943	43.19
998.106	85.04
998.269	38.35
998.432	52.3
998.595	41.83
998.758	3.08
998.92	17.61
999.083	-5.05
999.246	42.03
999.409	-13.38
999.572	4.63
999.735	19.55
999.897	64.31
1000.06	49.97
1000.223	37.76
1000.386	80.97
1000.548	61.79
1000.711	83.3
1000.874	67.8
1001.036	20.52
1001.199	83.1
1001.361	12.19
1001.524	37.76
1001.687	66.83
1001.849	21.68
1002.012	58.5
1002.174	56.56
1002.337	47.06
1002.499	39.9
1002.661	66.83
1002.824	-10.48
1002.986	22.65
1003.149	47.84
1003.311	6.38
1003.473	84.46
1003.636	9.48
1003.798	88.91
1003.96	57.53
1004.123	39.51
1004.285	22.85
1004.447	62.18
1004.609	45.71
1004.771	105.77
1004.933	-13.58
1005.096	26.72
1005.258	19.16
1005.42	39.12
1005.582	103.83
1005.744	49.58
1005.906	-4.28
1006.068	61.01
1006.23	-2.34
1006.392	-36.83
1006.554	-1.95
1006.716	83.49
1006.878	72.45
1007.04	11.22
1007.202	11.03
1007.363	45.9
1007.525	64.31
1007.687	57.33
1007.849	102.67
1008.011	-14.16
1008.172	2.89
1008.334	34.28
1008.496	47.26
1008.658	-19.97
1008.819	32.53
1008.981	-14.93
1009.143	23.04
1009.304	9.67
1009.466	66.05
1009.627	97.63
1009.789	117.98
1009.95	43.19
1010.112	-0.79
1010.273	60.43
1010.435	27.3
1010.596	38.93
1010.758	2.5
1010.919	25.17
1011.081	-20.75
1011.242	14.32
1011.403	51.52
1011.565	28.27
1011.726	53.85
1011.887	6.57
1012.049	22.46
1012.21	43.96
1012.371	87.17
1012.532	-31.4
1012.693	38.54
1012.855	2.12
1013.016	67.21
1013.177	98.79
1013.338	25.95
1013.499	121.08
1013.66	47.84
1013.821	67.02
1013.982	30.01
1014.143	32.53
1014.304	13.93
1014.465	39.9
1014.626	67.6
1014.787	16.65
1014.948	102.86
1015.109	-61.24
1015.27	67.99
1015.431	-2.15
1015.592	19.55
1015.752	107.32
1015.913	12.19
1016.074	28.85
1016.235	41.64
1016.395	26.33
1016.556	21.3
1016.717	28.66
1016.877	68.57
1017.038	11.8
1017.199	40.28
1017.359	26.53
1017.52	40.86
1017.681	14.71
1017.841	51.71
1018.002	25.17
1018.162	-8.93
1018.323	76.51
1018.483	32.92
1018.644	27.11
1018.804	-15.13
1018.964	9.48
1019.125	14.71
1019.285	30.6
1019.446	8.31
1019.606	6.38
1019.766	-24.43
1019.926	50.75
1020.087	48.81
1020.247	-8.93
1020.407	35.83
1020.567	65.08
1020.728	38.15
1020.888	-23.65
1021.048	10.64
1021.208	-17.65
1021.368	-21.91
1021.528	41.83
1021.688	56.75
1021.848	25.36
1022.008	37.38
1022.168	-7.18
1022.328	15.48
1022.488	61.21
1022.648	14.51
1022.808	31.56
1022.968	24.59
1023.128	-24.04
1023.288	8.31
1023.448	14.32
1023.608	60.05
1023.767	64.11
1023.927	0.76
1024.087	-7.18
1024.247	-15.13
1024.406	-6.22
1024.566	-38.38
1024.726	-9.51
1024.885	16.65
1025.045	44.16
1025.205	54.04
1025.364	16.84
1025.524	31.76
1025.683	-1.37
1025.843	22.07
1026.003	35.25
1026.162	60.24
1026.321	53.07
1026.481	27.88
1026.64	10.06
1026.8	20.71
1026.959	46.48
1027.119	30.01
1027.278	3.67
1027.437	-7.96
1027.597	25.17
1027.756	11.61
1027.915	20.33
1028.074	29.82
1028.234	6.96
1028.393	25.75
1028.552	24.2
1028.711	-54.07
1028.87	60.82
1029.03	-15.32
1029.189	-0.6
1029.348	-45.74
1029.507	-6.8
1029.666	1.73
1029.825	-7.57
1029.984	-13.77
1030.143	36.41
1030.302	-20.55
1030.461	-44.38
1030.62	-3.12
1030.779	31.56
1030.938	-13.58
1031.097	-8.54
1031.255	64.31
1031.414	92.4
1031.573	48.23
1031.732	-57.17
1031.891	19.94
1032.049	61.21
1032.208	15.87
1032.367	21.68
1032.525	9.86
1032.684	30.4
1032.843	-0.98
1033.001	-51.36
1033.16	145.49
1033.319	58.11
1033.477	54.81
1033.636	-18.23
1033.794	-30.63
1033.953	51.33
1034.111	49.39
1034.27	2.31
1034.428	21.3
1034.587	-14.55
1034.745	7.73
1034.903	30.98
1035.062	35.63
1035.22	-17.07
1035.378	40.48
1035.537	-6.99
1035.695	33.7
1035.853	13.55
1036.011	41.06
1036.17	42.22
1036.328	-22.88
1036.486	28.08
1036.644	14.9
1036.802	-60.08
1036.96	-0.98
1037.119	8.9
1037.277	-6.8
1037.435	-19.97
1037.593	-27.53
1037.751	26.53
1037.909	12.77
1038.067	12.77
