Data from pine_FLMT105791__137__17-22-36-075.txt Node

Date: Mon Mar 20 17:22:36 GMT 2023
User: antho
Spectrometer: FLMT10579
Trigger mode: 0
Integration Time (sec): 1.000000E-1
Scans to average: 10
Electric dark correction enabled: true
Nonlinearity correction enabled: false
Boxcar width: 0
XAxis mode: Wavelengths
Number of Pixels in Spectrum: 3648
>>>>>Begin Spectral Data<<<<<
345.248	-171.13
345.464	-171.13
345.681	-171.13
345.898	-173.45
346.114	-133.35
346.331	-17.29
346.548	37.93
346.764	-10.12
346.981	7.31
347.197	-8.19
347.414	25.33
347.631	-33.18
347.847	41.41
348.064	-5.28
348.28	27.08
348.497	-43.64
348.713	-21.36
348.93	-5.47
349.146	22.62
349.363	2.47
349.579	55.75
349.796	10.03
350.012	-12.64
350.229	23.39
350.445	-5.86
350.661	-23.49
350.878	9.64
351.094	8.09
351.311	23.78
351.527	-28.72
351.743	-18.84
351.96	21.65
352.176	24.56
352.392	35.02
352.609	24.75
352.825	2.66
353.041	7.51
353.257	-9.15
353.474	-4.5
353.69	11.19
353.906	6.54
354.122	-40.15
354.339	64.66
354.555	12.16
354.771	-20.97
354.987	57.11
355.203	28.24
355.42	-15.94
355.636	-32.02
355.852	-29.5
356.068	23.98
356.284	-48.49
356.5	51.29
356.716	11
356.932	19.52
357.148	22.81
357.364	-6.25
357.58	12.55
357.796	48.78
358.012	43.54
358.228	26.11
358.444	-65.34
358.66	55.94
358.876	48
359.092	-12.06
359.308	16.81
359.524	38.12
359.74	-4.12
359.956	9.06
360.172	18.16
360.388	25.14
360.604	-10.51
360.819	94.5
361.035	17.2
361.251	41.61
361.467	-27.37
361.683	33.47
361.898	40.83
362.114	29.21
362.33	-12.45
362.546	48.78
362.762	19.91
362.977	27.85
363.193	-31.24
363.409	26.69
363.624	-27.75
363.84	-5.67
364.056	-10.9
364.271	13.71
364.487	5.57
364.703	21.26
364.918	-27.75
365.134	11.77
365.35	0.53
365.565	92.18
365.781	-3.73
365.996	11
366.212	54.01
366.427	27.08
366.643	-19.04
366.858	-23.3
367.074	-17.29
367.289	49.74
367.505	95.66
367.72	-41.9
367.936	-32.02
368.151	52.07
368.367	7.12
368.582	-0.05
368.798	0.73
369.013	71.64
369.228	13.13
369.444	32.11
369.659	66.21
369.874	40.25
370.09	55.17
370.305	-42.87
370.52	-17.49
370.736	68.54
370.951	10.22
371.166	52.46
371.381	61.37
371.597	29.21
371.812	-20.78
372.027	-39.38
372.242	-17.1
372.458	97.41
372.673	12.74
372.888	15.26
373.103	54.01
373.318	100.12
373.533	39.28
373.749	35.41
373.964	-16.71
374.179	55.75
374.394	3.44
374.609	70.48
374.824	-20
375.039	67.96
375.254	-19.81
375.469	52.07
375.684	33.66
375.899	46.26
376.114	2.08
376.329	61.18
376.544	53.43
376.759	50.71
376.974	-7.22
377.189	25.53
377.404	-3.34
377.619	52.84
377.834	-36.09
378.049	-20
378.264	-3.15
378.478	21.26
378.693	-16.13
378.908	46.64
379.123	13.71
379.338	60.4
379.553	28.43
379.767	26.88
379.982	30.18
380.197	27.46
380.412	13.32
380.626	34.63
380.841	94.11
381.056	41.8
381.271	86.56
381.485	4.02
381.7	-10.32
381.915	24.36
382.129	14.1
382.344	24.75
382.559	-10.12
382.773	68.54
382.988	-36.67
383.202	13.13
383.417	-3.92
383.632	128.02
383.846	1.31
384.061	28.82
384.275	11.96
384.49	41.03
384.704	45.68
384.919	4.8
385.133	36.76
385.348	48.97
385.562	-5.86
385.777	55.17
385.991	18.16
386.206	-5.28
386.42	17.2
386.634	62.92
386.849	20.88
387.063	42.38
387.277	-1.99
387.492	0.53
387.706	-9.15
387.92	-0.05
388.135	60.01
388.349	19.71
388.563	9.83
388.778	25.33
388.992	52.07
389.206	54.01
389.42	97.02
389.635	16.42
389.849	54.59
390.063	64.47
390.277	21.46
390.491	91.21
390.706	41.61
390.92	71.44
391.134	35.6
391.348	68.34
391.562	-26.59
391.776	16.61
391.99	3.63
392.205	71.44
392.419	12.74
392.633	10.03
392.847	91.98
393.061	-6.44
393.275	121.04
393.489	13.71
393.703	36.96
393.917	72.03
394.131	8.48
394.345	63.11
394.559	66.79
394.773	20.88
394.986	33.28
395.2	19.91
395.414	52.65
395.628	13.9
395.842	28.04
396.056	20.1
396.27	-12.45
396.484	37.54
396.697	52.26
396.911	88.69
397.125	56.53
397.339	85.78
397.553	63.5
397.766	71.06
397.98	67.18
398.194	76.29
398.408	37.15
398.621	37.34
398.835	79.19
399.049	48.97
399.262	77.26
399.476	84.04
399.69	68.15
399.903	115.81
400.117	50.33
400.331	81.71
400.544	35.21
400.758	174.71
400.971	33.28
401.185	81.52
401.398	-2.76
401.612	94.5
401.826	70.86
402.039	74.93
402.253	31.73
402.466	79.97
402.68	41.41
402.893	64.66
403.106	45.87
403.32	53.43
403.533	87.33
403.747	73.38
403.96	44.51
404.174	87.33
404.387	27.66
404.6	66.02
404.814	78.23
405.027	73.19
405.24	57.69
405.454	71.64
405.667	91.01
405.88	-1.79
406.094	68.54
406.307	100.7
406.52	62.14
406.733	23.01
406.947	16.23
407.16	92.76
407.373	103.99
407.586	40.25
407.799	24.75
408.012	104.19
408.226	68.34
408.439	115.42
408.652	25.14
408.865	68.54
409.078	82.1
409.291	93.14
409.504	14.1
409.717	88.49
409.93	76.87
410.143	62.34
410.357	30.95
410.57	9.06
410.783	77.45
410.996	65.05
411.209	75.51
411.421	103.99
411.634	68.93
411.847	35.6
412.06	54.59
412.273	49.16
412.486	89.27
412.699	153.59
412.912	65.24
413.125	99.15
413.338	87.14
413.55	89.27
413.763	79.78
413.976	82.29
414.189	40.83
414.402	70.28
414.615	115.81
414.827	58.66
415.04	99.34
415.253	96.83
415.466	117.75
415.678	153.79
415.891	73.38
416.104	86.56
416.316	64.66
416.529	61.56
416.742	91.21
416.954	109.61
417.167	75.32
417.38	87.33
417.592	112.52
417.805	40.44
418.017	48.19
418.23	103.8
418.442	85.98
418.655	69.12
418.868	76.29
419.08	133.44
419.293	119.49
419.505	115.42
419.718	99.93
419.93	142.55
420.142	91.98
420.355	133.06
420.567	137.71
420.78	118.72
420.992	72.41
421.205	150.49
421.417	29.01
421.629	111.94
421.842	82.68
422.054	48.39
422.266	125.31
422.479	123.56
422.691	104.96
422.903	126.86
423.115	95.47
423.328	96.44
423.54	128.6
423.752	88.88
423.964	97.6
424.177	116.59
424.389	116.01
424.601	212.49
424.813	113.29
425.025	109.03
425.238	142.74
425.45	73.58
425.662	112.13
425.874	368.85
426.086	122.21
426.298	146.42
426.51	125.89
426.722	104.19
426.934	93.92
427.146	112.91
427.358	60.79
427.57	151.07
427.782	125.69
427.994	100.31
428.206	108.26
428.418	63.5
428.63	127.44
428.842	146.81
429.054	127.82
429.266	145.46
429.478	81.91
429.69	130.15
429.902	82.88
430.114	135.77
430.325	139.06
430.537	101.67
430.749	93.92
430.961	58.66
431.173	99.15
431.384	144.68
431.596	48.19
431.808	105.93
432.02	107.29
432.231	165.22
432.443	168.51
432.655	134.41
432.867	128.41
433.078	155.14
433.29	197.19
433.502	165.61
433.713	189.82
433.925	145.07
434.136	167.54
434.348	121.24
434.56	88.88
434.771	258.02
434.983	82.49
435.194	112.13
435.406	137.51
435.617	170.26
435.829	201.64
436.04	185.95
436.252	179.75
436.463	210.94
436.675	206.29
436.886	180.91
437.098	193.51
437.309	225.86
437.521	167.35
437.732	176.84
437.943	175.87
438.155	153.4
438.366	113.68
438.578	218.69
438.789	178.2
439	201.45
439.211	182.85
439.423	181.88
439.634	156.5
439.845	200.67
440.057	188.27
440.268	219.47
440.479	159.21
440.69	177.04
440.902	165.99
441.113	148.75
441.324	178.78
441.535	184.4
441.746	228.96
441.957	143.52
442.168	172
442.38	199.12
442.591	218.89
442.802	165.41
443.013	186.34
443.224	198.54
443.435	184.4
443.646	175.68
443.857	214.43
444.068	180.72
444.279	194.47
444.49	260.35
444.701	215.59
444.912	305.88
445.123	244.46
445.334	214.62
445.545	224.31
445.756	202.22
445.967	202.8
446.178	239.23
446.388	251.82
446.599	244.85
446.81	227.02
447.021	213.46
447.232	242.33
447.443	254.54
447.653	192.54
447.864	247.37
448.075	226.64
448.286	257.83
448.496	232.45
448.707	268.29
448.918	220.63
449.129	317.89
449.339	231.67
449.55	243.88
449.761	232.84
449.971	284.57
450.182	234.97
450.393	242.91
450.603	231.87
450.814	273.72
451.024	265.77
451.235	286.12
451.446	289.6
451.656	291.35
451.867	225.28
452.077	264.22
452.288	302.97
452.498	313.43
452.709	235.94
452.919	286.12
453.13	242.33
453.34	289.99
453.55	205.71
453.761	286.89
453.971	282.24
454.182	303.36
454.392	284.57
454.602	325.64
454.813	259.57
455.023	294.83
455.233	213.46
455.444	282.44
455.654	211.91
455.864	259.57
456.075	272.75
456.285	238.65
456.495	258.02
456.705	280.69
456.916	311.5
457.126	307.04
457.336	308.4
457.546	221.79
457.756	252.79
457.967	324.09
458.177	288.44
458.387	277.79
458.597	268.87
458.807	241.75
459.017	270.42
459.227	266.55
459.437	262.67
459.647	302
459.857	283.79
460.068	290.18
460.278	323.12
460.488	296.38
460.698	349.86
460.908	271.2
461.117	259.96
461.327	251.63
461.537	304.52
461.747	311.3
461.957	281.85
462.167	391.51
462.377	337.46
462.587	293.87
462.797	355.28
463.007	317.89
463.216	352.38
463.426	346.18
463.636	335.13
463.846	267.32
464.056	281.66
464.265	354.7
464.475	277.2
464.685	311.5
464.895	340.37
465.104	324.09
465.314	357.61
465.524	291.73
465.733	291.35
465.943	392.29
466.153	361.87
466.362	375.24
466.572	293.28
466.782	298.9
466.991	310.53
467.201	376.98
467.41	268.68
467.62	349.28
467.829	329.71
468.039	311.69
468.249	322.54
468.458	321.77
468.668	340.75
468.877	329.9
469.086	396.55
469.296	375.43
469.505	347.15
469.715	386.67
469.924	341.72
470.134	393.84
470.343	398.49
470.552	310.92
470.762	358
470.971	312.47
471.18	363.23
471.39	356.64
471.599	339.78
471.808	383.96
472.018	342.5
472.227	386.67
472.436	420.38
472.645	353.35
472.855	332.03
473.064	436.46
473.273	363.42
473.482	416.12
473.691	396.75
473.901	412.44
474.11	369.82
474.319	456.23
474.528	393.26
474.737	427.16
474.946	416.7
475.155	403.53
475.364	451.19
475.573	414.18
475.783	397.13
475.992	437.24
476.201	463.98
476.41	427.16
476.619	393.84
476.828	429.3
477.037	415.35
477.245	431.62
477.454	454.48
477.663	393.06
477.872	413.41
478.081	480.06
478.29	417.48
478.499	522.88
478.708	459.71
478.917	517.06
479.125	452.35
479.334	460.68
479.543	453.32
479.752	470.56
479.961	461.07
480.169	505.83
480.378	422.13
480.587	568.02
480.796	502.73
481.004	463.2
481.213	506.79
481.422	485.29
481.63	484.13
481.839	503.89
482.048	562.59
482.256	507.38
482.465	534.69
482.674	504.86
482.882	518.42
483.091	609.29
483.299	522.49
483.508	536.63
483.716	514.54
483.925	537.21
484.134	502.73
484.342	501.37
484.551	548.64
484.759	534.11
484.967	565.31
485.176	561.82
485.384	550.58
485.593	612.19
485.801	552.91
486.01	516.87
486.218	522.29
486.426	469.4
486.635	512.8
486.843	478.12
487.051	526.75
487.26	516.87
487.468	532.95
487.676	545.74
487.885	493.43
488.093	532.76
488.301	543.03
488.509	559.11
488.717	589.14
488.926	565.31
489.134	540.7
489.342	585.07
489.55	545.93
489.758	588.17
489.967	556.2
490.175	691.63
490.383	581.19
490.591	654.04
490.799	575.38
491.007	625.17
491.215	602.7
491.423	604.06
491.631	557.17
491.839	601.92
492.047	638.35
492.255	565.31
492.463	559.69
492.671	611.22
492.879	659.08
493.087	620.14
493.295	624.4
493.503	643.77
493.711	660.82
493.919	688.72
494.127	704.42
494.334	682.14
494.542	601.15
494.75	663.34
494.958	659.08
495.166	683.3
495.374	647.45
495.581	662.37
495.789	680.2
495.997	743.55
496.205	674.77
496.412	669.93
496.62	664.7
496.828	721.47
497.035	658.69
497.243	718.37
497.451	662.18
497.658	676.9
497.866	691.63
498.074	736.77
498.281	664.5
498.489	747.82
498.696	710.42
498.904	685.04
499.112	687.37
499.319	752.08
499.527	634.47
499.734	750.14
499.942	668.77
500.149	648.42
500.357	694.73
500.564	634.67
500.771	728.05
500.979	665.47
501.186	674
501.394	722.05
501.601	704.03
501.808	713.91
502.016	701.7
502.223	664.12
502.43	704.03
502.638	708.49
502.845	639.7
503.052	766.03
503.26	705.97
503.467	753.24
503.674	733.48
503.881	725.53
504.089	787.15
504.296	745.1
504.503	676.52
504.71	733.09
504.917	685.43
505.125	735.42
505.332	716.62
505.539	760.8
505.746	822.02
505.953	785.21
506.16	778.62
506.367	816.4
506.574	820.86
506.781	839.26
506.988	737.55
507.195	801.1
507.402	739.68
507.609	800.52
507.816	782.5
508.023	755.95
508.23	755.95
508.437	725.53
508.644	788.31
508.851	823.38
509.058	795.67
509.265	785.6
509.472	816.4
509.679	905.14
509.885	801.1
510.092	812.33
510.299	832.1
510.506	807.88
510.713	855.15
510.92	829.77
511.126	836.55
511.333	851.08
511.54	863.48
511.746	908.24
511.953	891.58
512.16	927.42
512.367	869.88
512.573	855.54
512.78	861.74
512.987	869.1
513.193	827.45
513.4	779.59
513.606	847.01
513.813	883.05
514.02	867.16
514.226	923.93
514.433	926.84
514.639	820.08
514.846	871.62
515.052	860.77
515.259	823.57
515.465	882.28
515.672	863.29
515.878	962.68
516.085	906.3
516.291	938.46
516.497	892.16
516.704	859.8
516.91	831.9
517.117	840.81
517.323	777.07
517.529	852.05
517.736	843.33
517.942	815.63
518.148	867.16
518.354	904.17
518.561	849.73
518.767	887.9
518.973	911.34
519.179	925.09
519.386	892.74
519.592	854.57
519.798	910.56
520.004	973.14
520.21	923.16
520.417	962.1
520.623	985.35
520.829	977.6
521.035	1000.46
521.241	1000.85
521.447	995.42
521.653	1113.42
521.859	994.46
522.065	1020.22
522.271	1109.93
522.477	1050.64
522.683	1084.16
522.889	1053.94
523.095	1004.72
523.301	1027.39
523.507	1040.18
523.713	1039.02
523.919	1011.89
524.125	1101.02
524.331	1051.42
524.537	1104.12
524.742	1140.35
524.948	1123.3
525.154	1118.07
525.36	1200.22
525.566	1141.9
525.772	1200.02
525.977	1096.17
526.183	1121.17
526.389	1183.55
526.595	1070.21
526.8	1097.34
527.006	1046.19
527.212	1022.16
527.417	1013.06
527.623	1039.02
527.829	1074.28
528.034	1113.42
528.24	1100.24
528.446	1072.92
528.651	1173.28
528.857	1140.74
529.062	1202.73
529.268	1154.49
529.473	1161.08
529.679	1172.9
529.884	1271.51
530.09	1208.93
530.295	1235.09
530.501	1224.63
530.706	1204.87
530.912	1157.59
531.117	1196.15
531.323	1216.88
531.528	1239.35
531.733	1218.62
531.939	1203.32
532.144	1240.13
532.35	1231.99
532.555	1286.05
532.76	1248.46
532.966	1228.5
533.171	1199.44
533.376	1206.8
533.581	1166.31
533.787	1218.43
533.992	1234.7
534.197	1243.03
534.402	1198.86
534.607	1249.43
534.813	1330.8
535.018	1225.98
535.223	1257.56
535.428	1255.43
535.633	1285.08
535.838	1322.08
536.043	1270.55
536.249	1375.17
536.454	1261.25
536.659	1278.68
536.864	1256.79
537.069	1289.73
537.274	1289.34
537.479	1272.1
537.684	1282.75
537.889	1251.36
538.094	1350.95
538.299	1260.47
538.504	1310.46
538.708	1324.8
538.913	1340.49
539.118	1298.06
539.323	1284.69
539.528	1283.33
539.733	1308.52
539.938	1319.95
540.142	1303.29
540.347	1285.85
540.552	1253.11
540.757	1286.24
540.962	1287.98
541.166	1229.86
541.371	1228.89
541.576	1287.01
541.781	1156.82
541.985	1273.84
542.19	1296.9
542.395	1358.51
542.599	1374.59
542.804	1347.08
543.008	1407.91
543.213	1307.16
543.418	1271.13
543.622	1320.15
543.827	1297.09
544.031	1386.6
544.236	1379.43
544.44	1349.21
544.645	1440.46
544.849	1331.58
545.054	1380.01
545.258	1439.88
545.463	1385.83
545.667	1339.91
545.872	1380.21
546.076	1376.53
546.281	1362.96
546.485	1358.51
546.689	1347.85
546.894	1414.5
547.098	1379.43
547.302	1323.05
547.507	1359.86
547.711	1378.27
547.915	1406.56
548.119	1357.93
548.324	1370.91
548.528	1422.06
548.732	1356.96
548.936	1412.18
549.141	1394.16
549.345	1369.94
549.549	1328.86
549.753	1367.23
549.957	1453.06
550.161	1442.79
550.366	1395.71
550.57	1377.11
550.774	1395.9
550.978	1382.53
551.182	1400.36
551.386	1398.03
551.59	1349.21
551.794	1348.04
551.998	1425.16
552.202	1384.86
552.406	1338.16
552.61	1387.96
552.814	1393.77
553.018	1486.38
553.222	1399
553.426	1382.34
553.63	1489.87
553.833	1391.64
554.037	1342.62
554.241	1407.14
554.445	1428.45
554.649	1386.02
554.853	1386.6
555.056	1460.42
555.26	1443.37
555.464	1422.83
555.668	1394.16
555.871	1424.57
556.075	1441.04
556.279	1360.44
556.483	1377.88
556.686	1405.78
556.89	1373.81
557.094	1427.09
557.297	1320.92
557.501	1428.45
557.704	1310.65
557.908	1414.11
558.112	1319.76
558.315	1428.64
558.519	1346.69
558.722	1332.74
558.926	1348.82
559.129	1299.22
559.333	1282.17
559.536	1275.78
559.74	1296.9
559.943	1284.3
560.147	1283.72
560.35	1302.51
560.553	1312.4
560.757	1252.72
560.96	1388.54
561.164	1250.01
561.367	1349.79
561.57	1291.47
561.774	1355.41
561.977	1288.37
562.18	1283.91
562.384	1417.21
562.587	1326.93
562.79	1295.54
562.993	1300.77
563.197	1336.61
563.4	1386.41
563.603	1367.23
563.806	1409.85
564.009	1288.18
564.212	1327.51
564.416	1272.68
564.619	1332.74
564.822	1239.35
565.025	1332.35
565.228	1294.96
565.431	1302.32
565.634	1231.8
565.837	1224.63
566.04	1226.57
566.243	1226.37
566.446	1132.79
566.649	1255.63
566.852	1174.25
567.055	1232.77
567.258	1273.26
567.461	1292.83
567.664	1301.93
567.867	1185.1
568.07	1246.71
568.273	1221.33
568.475	1275.78
568.678	1227.34
568.881	1210.48
569.084	1227.15
569.287	1117.29
569.489	1148.49
569.692	1200.6
569.895	1242.45
570.098	1159.14
570.3	1160.69
570.503	1108.77
570.706	1154.69
570.909	1152.36
571.111	1100.05
571.314	1092.49
571.516	1117.1
571.719	1145.19
571.922	1093.07
572.124	1093.27
572.327	1137.05
572.529	1094.62
572.732	1114.77
572.935	1132.6
573.137	1210.48
573.34	1135.7
573.542	1166.89
573.745	1131.44
573.947	1148.1
574.15	1108.77
574.352	1121.36
574.554	1176.97
574.757	1096.95
574.959	1081.84
575.162	1082.42
575.364	1103.73
575.566	1198.28
575.769	1058.01
575.971	1107.02
576.173	991.74
576.376	1099.08
576.578	1097.53
576.78	1156.62
576.982	1025.65
577.185	1059.56
577.387	1053.36
577.589	1033.01
577.791	1091.14
577.993	1069.63
578.196	1067.11
578.398	1075.64
578.6	1091.91
578.802	1027.2
579.004	1025.46
579.206	1038.63
579.408	1079.9
579.61	1026.42
579.812	1073.89
580.014	1040.57
580.216	1036.5
580.418	1016.54
580.62	1028.36
580.822	977.99
581.024	1045.61
581.226	1081.64
581.428	1044.44
581.63	1132.99
581.832	1040.96
582.034	1089.2
582.236	1042.89
582.438	1050.06
582.64	1125.62
582.841	1122.52
583.043	1148.68
583.245	1082.61
583.447	1100.24
583.649	1025.46
583.85	1062.85
584.052	1106.83
584.254	1053.55
584.456	1114.19
584.657	1015.19
584.859	1029.14
585.061	1065.76
585.262	1040.76
585.464	990
585.666	1057.23
585.867	1002.21
586.069	1103.34
586.27	1060.91
586.472	1034.76
586.674	1013.44
586.875	1030.49
587.077	1026.04
587.278	1035.53
587.48	1029.33
587.681	1141.51
587.883	1063.43
588.084	981.09
588.285	988.06
588.487	1020.61
588.688	996.39
588.89	965.78
589.091	934.78
589.292	935.36
589.494	916.76
589.695	886.54
589.896	864.84
590.098	853.21
590.299	904.56
590.5	870.85
590.702	889.45
590.903	925.68
591.104	1001.24
591.305	950.28
591.507	1023.13
591.708	965.2
591.909	955.51
592.11	1017.9
592.311	948.54
592.512	947.18
592.714	916.38
592.915	917.73
593.116	955.71
593.317	969.66
593.518	950.67
593.719	966.56
593.92	964.23
594.121	999.11
594.322	964.43
594.523	954.74
594.724	906.88
594.925	944.47
595.126	976.63
595.327	977.79
595.528	959.19
595.729	985.74
595.929	944.86
596.13	962.88
596.331	947.18
596.532	941.37
596.733	999.69
596.934	989.03
597.135	977.21
597.335	984.38
597.536	930.71
597.737	954.16
597.938	948.93
598.138	972.18
598.339	945.05
598.54	965.98
598.74	945.63
598.941	965.78
599.142	991.94
599.342	972.37
599.543	925.48
599.744	941.95
599.944	927.61
600.145	930.91
600.345	943.5
600.546	1013.83
600.746	994.46
600.947	1041.92
601.147	963.65
601.348	997.75
601.548	926.64
601.749	977.02
601.949	934.01
602.15	933.23
602.35	925.09
602.551	999.3
602.751	894.1
602.951	957.45
603.152	873.56
603.352	946.02
603.552	951.25
603.753	981.86
603.953	969.46
604.153	944.28
604.354	943.69
604.554	965.59
604.754	933.43
604.954	895.65
605.155	938.85
605.355	919.09
605.555	989.42
605.755	991.74
605.955	944.86
606.155	978.18
606.356	938.27
606.556	961.71
606.756	942.73
606.956	901.46
607.156	1006.66
607.356	908.43
607.556	965.01
607.756	941.56
607.956	992.32
608.156	958.81
608.356	919.28
608.556	931.49
608.756	945.63
608.956	892.35
609.156	952.03
609.356	901.65
609.556	887.31
609.755	924.51
609.955	875.69
610.155	923.54
610.355	942.14
610.555	877.24
610.755	906.69
610.954	875.88
611.154	910.76
611.354	924.13
611.554	876.08
611.753	897.19
611.953	862.13
612.153	900.1
612.352	910.37
612.552	869.1
612.752	806.52
612.951	896.61
613.151	892.74
613.351	858.83
613.55	885.38
613.75	904.17
613.949	896.23
614.149	875.3
614.348	875.69
614.548	861.55
614.747	825.51
614.947	845.46
615.146	782.5
615.346	895.84
615.545	843.33
615.745	872.2
615.944	899.13
616.144	847.79
616.343	860.58
616.542	838.1
616.742	829.19
616.941	816.01
617.14	797.22
617.34	854.96
617.539	866.78
617.738	826.09
617.938	900.1
618.137	845.27
618.336	843.72
618.535	836.55
618.734	831.71
618.934	826.67
619.133	834.81
619.332	838.1
619.531	795.87
619.73	827.83
619.929	866.97
620.128	872.4
620.328	900.29
620.527	828.22
620.726	810.2
620.925	837.52
621.124	818.34
621.323	861.74
621.522	816.6
621.721	818.92
621.92	798.97
622.119	863.1
622.318	762.35
622.517	820.86
622.715	829.77
622.914	786.18
623.113	799.35
623.312	752.47
623.511	821.25
623.71	786.76
623.909	786.76
624.107	839.26
624.306	776.68
624.505	757.7
624.704	785.79
624.902	776.88
625.101	837.13
625.3	768.74
625.499	761.57
625.697	761.38
625.896	752.47
626.095	791.41
626.293	733.87
626.492	745.88
626.69	805.55
626.889	760.41
627.088	779.59
627.286	737.16
627.485	731.73
627.683	761.57
627.882	782.88
628.08	725.15
628.279	732.9
628.477	830.55
628.676	712.17
628.874	769.13
629.073	723.4
629.271	701.9
629.469	754.79
629.668	712.55
629.866	711.59
630.065	742.2
630.263	733.48
630.461	734.64
630.66	718.75
630.858	751.3
631.056	770.87
631.254	770.87
631.453	727.28
631.651	775.91
631.849	744.33
632.047	750.33
632.245	751.69
632.444	728.44
632.642	769.52
632.84	761.77
633.038	725.15
633.236	732.51
633.434	733.28
633.632	688.34
633.83	708.68
634.028	766.42
634.227	725.73
634.425	817.37
634.623	738.52
634.821	713.91
635.019	736
635.216	726.89
635.414	761.18
635.612	742.2
635.81	722.63
636.008	798.97
636.206	711.2
636.404	753.43
636.602	694.54
636.8	728.83
636.997	749.95
637.195	750.92
637.393	753.43
637.591	810.01
637.789	733.67
637.986	714.88
638.184	734.83
638.382	805.75
638.58	768.16
638.777	790.63
638.975	736.58
639.173	750.72
639.37	745.88
639.568	746.27
639.765	776.1
639.963	717.98
640.161	760.6
640.358	752.66
640.556	719.92
640.753	710.81
640.951	695.7
641.148	754.21
641.346	713.33
641.543	722.43
641.741	765.06
641.938	708.68
642.136	752.66
642.333	685.62
642.531	769.13
642.728	777.65
642.925	717.4
643.123	738.52
643.32	720.5
643.517	689.3
643.715	709.26
643.912	694.34
644.109	726.7
644.306	725.73
644.504	662.57
644.701	668.57
644.898	754.02
645.095	677.87
645.293	704.03
645.49	718.56
645.687	710.81
645.884	729.22
646.081	642.8
646.278	673.8
646.475	672.25
646.672	660.63
646.87	714.1
647.067	692.21
647.264	710.23
647.461	637.38
647.658	625.56
647.855	678.26
648.052	649.59
648.249	598.05
648.446	658.5
648.642	630.21
648.839	620.33
649.036	611.42
649.233	587.39
649.43	614.32
649.627	585.65
649.824	629.82
650.021	619.17
650.217	566.47
650.414	610.45
650.611	663.15
650.808	664.5
651.004	635.83
651.201	655.2
651.398	718.17
651.595	643.97
651.791	611.42
651.988	633.89
652.185	592.62
652.381	629.44
652.578	589.72
652.775	609.48
652.971	612.58
653.168	626.34
653.364	655.01
653.561	597.27
653.757	611.22
653.954	643
654.15	600.37
654.347	665.47
654.543	624.4
654.74	572.67
654.936	579.84
655.133	586.62
655.329	598.44
655.525	632.92
655.722	646.87
655.918	572.28
656.115	597.47
656.311	538.38
656.507	513.58
656.704	485.29
656.9	542.06
657.096	524.04
657.292	513.58
657.489	574.02
657.685	603.47
657.881	546.51
658.077	540.12
658.273	552.13
658.47	642.8
658.666	560.27
658.862	636.22
659.058	573.25
659.254	644.35
659.45	576.35
659.646	618.59
659.842	589.72
660.038	609.67
660.234	571.31
660.43	592.62
660.626	690.85
660.822	631.37
661.018	625.56
661.214	599.6
661.41	552.91
661.606	628.08
661.802	634.09
661.998	569.57
662.194	543.22
662.39	598.05
662.586	607.74
662.781	581.39
662.977	613.36
663.173	638.54
663.369	582.55
663.564	589.72
663.76	613.16
663.956	574.99
664.152	642.03
664.347	558.72
664.543	571.89
664.739	553.49
664.934	528.69
665.13	515.71
665.326	599.41
665.521	604.25
665.717	534.89
665.912	546.51
666.108	497.49
666.304	561.04
666.499	538.18
666.695	506.41
666.89	582.55
667.086	591.46
667.281	552.32
667.477	581
667.672	590.88
667.867	546.32
668.063	589.91
668.258	536.05
668.454	566.47
668.649	610.45
668.844	543.99
669.04	568.6
669.235	537.21
669.43	523.84
669.626	503.11
669.821	543.61
670.016	513.58
670.211	539.15
670.407	514.74
670.602	539.54
670.797	525.59
670.992	588.17
671.187	476.38
671.382	558.52
671.578	531.4
671.773	568.41
671.968	494.2
672.163	519.39
672.358	575.77
672.553	485.68
672.748	505.63
672.943	628.47
673.138	553.87
673.333	555.42
673.528	497.88
673.723	554.46
673.918	517.64
674.113	499.24
674.308	593.4
674.503	521.91
674.698	544.58
674.892	541.67
675.087	569.18
675.282	544.96
675.477	521.52
675.672	543.99
675.867	524.04
676.061	491.1
676.256	476.96
676.451	507.96
676.646	548.64
676.84	481.61
677.035	473.28
677.23	489.74
677.424	528.11
677.619	563.56
677.814	563.37
678.008	556.97
678.203	430.65
678.397	506.6
678.592	501.18
678.787	566.08
678.981	523.07
679.176	532.95
679.37	529.27
679.565	485.09
679.759	490.13
679.954	521.13
680.148	587.39
680.342	550.39
680.537	566.47
680.731	497.3
680.926	533.34
681.12	532.37
681.314	485.68
681.509	487.03
681.703	522.29
681.897	553.68
682.092	521.52
682.286	485.29
682.48	574.99
682.674	561.24
682.869	510.67
683.063	525.59
683.257	587.2
683.451	490.52
683.645	512.99
683.839	514.16
684.034	513.58
684.228	561.43
684.422	478.51
684.616	488.78
684.81	509.51
685.004	505.44
685.198	539.34
685.392	522.29
685.586	495.17
685.78	536.44
685.974	537.41
686.168	529.85
686.362	569.18
686.556	479.48
686.75	447.12
686.944	439.95
687.138	498.85
687.331	405.08
687.525	438.98
687.719	363.03
687.913	421.35
688.107	434.14
688.301	382.99
688.494	438.98
688.688	399.46
688.882	368.46
689.076	374.27
689.269	420.58
689.463	484.9
689.657	439.37
689.85	424.45
690.044	460.88
690.238	419.22
690.431	427.94
690.625	420.96
690.818	471.34
691.012	487.61
691.205	502.34
691.399	449.06
691.593	497.69
691.786	535.28
691.98	542.64
692.173	550.97
692.366	527.14
692.56	546.9
692.753	608.51
692.947	510.86
693.14	584.1
693.333	577.32
693.527	505.83
693.72	553.1
693.914	514.54
694.107	511.06
694.3	553.68
694.493	549.03
694.687	591.27
694.88	542.83
695.073	603.86
695.266	617.23
695.46	565.69
695.653	632.54
695.846	642.42
696.039	566.47
696.232	589.52
696.425	646.49
696.618	610.64
696.812	603.28
697.005	682.91
697.198	754.4
697.391	688.53
697.584	722.43
697.777	743.17
697.97	742.78
698.163	722.63
698.356	684.07
698.549	795.67
698.742	750.92
698.935	692.79
699.127	742
699.32	698.41
699.513	723.4
699.706	738.52
699.899	760.6
700.092	728.05
700.285	768.74
700.477	707.13
700.67	792.57
700.863	838.88
701.056	854.96
701.248	826.86
701.441	843.14
701.634	803.62
701.826	903.98
702.019	817.95
702.212	903.59
702.404	806.52
702.597	833.26
702.79	837.52
702.982	900.1
703.175	875.88
703.367	880.53
703.56	895.26
703.752	977.99
703.945	945.44
704.137	930.91
704.33	941.95
704.522	965.2
704.715	973.34
704.907	994.07
705.1	998.14
705.292	1036.31
705.484	1007.24
705.677	1049.29
705.869	1056.07
706.061	1072.92
706.254	1112.06
706.446	1062.46
706.638	1039.79
706.831	1099.85
707.023	1077.77
707.215	1160.3
707.407	1135.31
707.599	1145
707.792	1176.97
707.984	1175.03
708.176	1182.39
708.368	1138.02
708.56	1219.01
708.752	1180.26
708.944	1180.07
709.136	1203.7
709.329	1191.5
709.521	1286.24
709.713	1267.45
709.905	1248.85
710.097	1309.68
710.289	1247.88
710.481	1248.07
710.672	1311.43
710.864	1291.28
711.056	1348.24
711.248	1342.04
711.44	1362.38
711.632	1344.36
711.824	1372.26
712.016	1429.81
712.207	1397.06
712.399	1389.7
712.591	1479.6
712.783	1444.34
712.975	1439.69
713.166	1379.63
713.358	1428.45
713.55	1496.07
713.741	1487.16
713.933	1489.67
714.125	1451.12
714.316	1416.44
714.508	1536.95
714.7	1507.31
714.891	1487.35
715.083	1572.79
715.274	1522.22
715.466	1517.77
715.657	1549.35
715.849	1485.61
716.04	1537.53
716.232	1449.96
716.423	1513.5
716.615	1461.19
716.806	1448.21
716.998	1412.76
717.189	1361.22
717.381	1337.58
717.572	1303.48
717.763	1336.23
717.955	1284.69
718.146	1292.63
718.337	1239.93
718.528	1216.49
718.72	1171.35
718.911	1265.12
719.102	1188.4
719.293	1259.11
719.485	1216.1
719.676	1232.77
719.867	1142.09
720.058	1196.34
720.249	1177.55
720.44	1243.23
720.632	1250.4
720.823	1234.9
721.014	1345.53
721.205	1377.49
721.396	1438.33
721.587	1486.19
721.778	1513.12
721.969	1509.82
722.16	1555.55
722.351	1531.33
722.542	1678.38
722.733	1731.28
722.924	1615.03
723.115	1671.6
723.305	1598.17
723.496	1626.46
723.687	1549.74
723.878	1568.72
724.069	1559.23
724.26	1601.08
724.45	1495.1
724.641	1523.58
724.832	1541.6
725.023	1544.12
725.213	1528.23
725.404	1513.5
725.595	1524.74
725.785	1476.31
725.976	1527.45
726.167	1521.06
726.357	1566.2
726.548	1616.97
726.739	1536.75
726.929	1598.17
727.12	1604.57
727.31	1625.68
727.501	1601.66
727.691	1610.18
727.882	1616
728.072	1653.78
728.263	1633.05
728.453	1678
728.644	1664.24
728.834	1658.82
729.024	1621.42
729.215	1666.76
729.405	1677.03
729.596	1751.23
729.786	1748.33
729.976	1748.33
730.167	1778.94
730.357	1696.21
730.547	1732.05
730.737	1757.24
730.928	1828.73
731.118	1843.46
731.308	1768.09
731.498	1824.08
731.688	1874.65
731.879	1873.68
732.069	1926.19
732.259	1917.08
732.449	1940.14
732.639	1990.51
732.829	2026.16
733.019	2008.53
733.209	2069.95
733.399	2077.12
733.589	2124.97
733.779	2126.52
733.969	2079.83
734.159	2163.72
734.349	2213.9
734.539	2237.93
734.729	2196.27
734.919	2262.53
735.109	2267.57
735.299	2217.39
735.488	2242.38
735.678	2253.23
735.868	2248.39
736.058	2208.86
736.248	2189.49
736.437	2190.26
736.627	2155.78
736.817	2338.48
737.007	2273.19
737.196	2320.46
737.386	2287.72
737.576	2234.44
737.765	2288.69
737.955	2296.63
738.144	2402.03
738.334	2348.17
738.524	2296.44
738.713	2334.22
738.903	2342.74
739.092	2390.6
739.282	2330.54
739.471	2356.89
739.661	2355.14
739.85	2388.47
740.04	2364.06
740.229	2406.49
740.419	2435.55
740.608	2438.07
740.797	2390.02
740.987	2464.22
741.176	2453.57
741.365	2443.1
741.555	2410.94
741.744	2505.88
741.933	2426.44
742.123	2455.89
742.312	2507.62
742.501	2572.33
742.69	2532.42
742.88	2448.53
743.069	2553.15
743.258	2500.84
743.447	2550.63
743.636	2523.12
743.825	2531.26
744.014	2528.93
744.204	2548.7
744.393	2499.87
744.582	2574.27
744.771	2586.09
744.96	2513.82
745.149	2562.45
745.338	2503.17
745.527	2575.63
745.716	2563.42
745.905	2556.64
746.094	2529.9
746.283	2600.81
746.471	2565.36
746.66	2597.13
746.849	2590.16
747.038	2651.38
747.227	2534.75
747.416	2549.47
747.604	2550.63
747.793	2572.33
747.982	2594.81
748.171	2586.86
748.359	2620.96
748.548	2552.77
748.737	2581.05
748.926	2572.33
749.114	2508.98
749.303	2602.95
749.491	2557.41
749.68	2501.81
749.869	2556.45
750.057	2528.35
750.246	2529.52
750.434	2553.73
750.623	2529.32
750.811	2558
751	2585.51
751.188	2518.67
751.377	2558.58
751.565	2537.27
751.754	2496.19
751.942	2532.23
752.131	2543.47
752.319	2525.06
752.507	2435.94
752.696	2503.36
752.884	2602.36
753.072	2516.92
753.261	2541.92
753.449	2506.46
753.637	2453.37
753.825	2579.7
754.014	2515.95
754.202	2500.84
754.39	2584.35
754.578	2565.16
754.766	2532.81
754.955	2462.67
755.143	2553.93
755.331	2469.26
755.519	2475.85
755.707	2464.61
755.895	2462.09
756.083	2496.97
756.271	2426.05
756.459	2459.96
756.647	2507.23
756.835	2471.58
757.023	2453.37
757.211	2457.05
757.399	2412.69
757.587	2434.39
757.775	2385.37
757.963	2415.79
758.151	2415.01
758.339	2371.61
758.526	2416.37
758.714	2411.72
758.902	2334.8
759.09	2261.37
759.278	2104.05
759.465	1991.29
759.653	1699.89
759.841	1578.02
760.028	1322.66
760.216	1149.45
760.404	1121.94
760.591	899.91
760.779	758.86
760.967	680.59
761.154	529.66
761.342	583.71
761.529	588.56
761.717	638.15
761.905	602.51
762.092	669.15
762.28	650.17
762.467	631.76
762.655	560.46
762.842	589.52
763.029	631.18
763.217	633.89
763.404	619.56
763.592	655.01
763.779	574.99
763.966	655.01
764.154	700.35
764.341	734.45
764.528	705.97
764.716	777.65
764.903	812.14
765.09	852.83
765.277	898.36
765.465	1029.14
765.652	1016.93
765.839	1080.29
766.026	1201.38
766.213	1216.68
766.4	1295.35
766.588	1416.44
766.775	1418.76
766.962	1545.47
767.149	1537.34
767.336	1648.93
767.523	1620.65
767.71	1727.98
767.897	1780.49
768.084	1874.84
768.271	1847.14
768.458	1909.72
768.645	1975.98
768.832	1940.72
769.019	1939.94
769.206	1984.7
769.392	2018.22
769.579	2131.56
769.766	2091.45
769.953	2046.12
770.14	2159.26
770.327	2094.17
770.513	2169.15
770.7	2207.89
770.887	2109.67
771.073	2186.78
771.26	2169.92
771.447	2085.45
771.634	2119.55
771.82	2182.32
772.007	2148.8
772.193	2176.51
772.38	2224.75
772.567	2177.86
772.753	2155.2
772.94	2213.9
773.126	2200.53
773.313	2213.13
773.499	2157.13
773.686	2187.55
773.872	2165.85
774.059	2194.72
774.245	2159.26
774.432	2166.82
774.618	2103.47
774.804	2175.93
774.991	2099.4
775.177	2180.58
775.363	2134.66
775.55	2146.86
775.736	2130.98
775.922	2112.96
776.109	2149.96
776.295	2121.48
776.481	2143.76
776.667	2178.06
776.853	2125.75
777.04	2092.81
777.226	2128.65
777.412	2178.64
777.598	2068.59
777.784	2075.18
777.97	2084.28
778.156	2109.47
778.342	2082.35
778.528	2101.53
778.715	2012.02
778.901	2021.9
779.087	2068.78
779.272	2044.76
779.458	2039.14
779.644	2088.35
779.83	2052.51
780.016	2128.85
780.202	2041.27
780.388	1998.84
780.574	1993.42
780.76	2017.83
780.946	2068.01
781.131	1997.68
781.317	2017.44
781.503	1958.54
781.689	2023.64
781.874	2128.46
782.06	1998.84
782.246	1970.17
782.432	1984.89
782.617	2009.69
782.803	2076.73
782.989	1966.49
783.174	2005.04
783.36	1930.26
783.545	1959.32
783.731	1991.09
783.916	1918.05
784.102	1997.68
784.288	1939.56
784.473	1930.64
784.659	1922.12
784.844	1961.25
785.029	1917.08
785.215	1933.55
785.4	1857.99
785.586	1951.95
785.771	1854.5
785.956	1916.69
786.142	1910.69
786.327	1889.37
786.512	1890.34
786.698	1873.1
786.883	1839.39
787.068	1857.41
787.254	1883.17
787.439	1812.65
787.624	1879.88
787.809	1805.68
787.994	1886.08
788.18	1881.24
788.365	1793.66
788.55	1838.81
788.735	1825.05
788.92	1831.25
789.105	1800.25
789.29	1831.44
789.475	1757.05
789.66	1775.45
789.845	1747.55
790.03	1785.72
790.215	1834.54
790.4	1825.05
790.585	1827.76
790.77	1775.06
790.955	1702.21
791.14	1781.65
791.325	1830.48
791.51	1688.26
791.695	1754.91
791.879	1755.69
792.064	1712.1
792.249	1801.99
792.434	1746.39
792.618	1744.06
792.803	1775.06
792.988	1762.28
793.173	1736.9
793.357	1778.36
793.542	1722.17
793.727	1727.79
793.911	1808.19
794.096	1759.18
794.281	1783.39
794.465	1837.45
794.65	1739.61
794.834	1774.48
795.019	1808
795.203	1804.9
795.388	1777.39
795.572	1818.85
795.757	1775.45
795.941	1804.51
796.126	1831.83
796.31	1762.86
796.494	1803.35
796.679	1767.9
796.863	1743.48
797.048	1824.66
797.232	1805.48
797.416	1748.91
797.601	1779.52
797.785	1850.43
797.969	1824.28
798.153	1726.82
798.338	1803.54
798.522	1827.96
798.706	1838.42
798.89	1821.95
799.074	1913.4
799.258	1869.81
799.443	1782.23
799.627	1804.9
799.811	1836.29
799.995	1765.76
800.179	1785.33
800.363	1773.71
800.547	1814.59
800.731	1827.76
800.915	1736.7
801.099	1820.79
801.283	1768.48
801.467	1807.61
801.651	1754.72
801.835	1823.5
802.019	1802.77
802.202	1806.84
802.386	1798.31
802.57	1757.82
802.754	1739.41
802.938	1735.73
803.121	1766.73
803.305	1815.36
803.489	1793.47
803.673	1805.29
803.856	1817.11
804.04	1790.37
804.224	1788.82
804.407	1739.61
804.591	1717.71
804.775	1798.89
804.958	1749.3
805.142	1888.99
805.326	1789.4
805.509	1763.44
805.693	1829.12
805.876	1839.78
806.06	1787.66
806.243	1819.82
806.427	1855.66
806.61	1851.4
806.794	1780.88
806.977	1831.06
807.16	1816.91
807.344	1820.79
807.527	1813.04
807.71	1766.73
807.894	1801.22
808.077	1820.79
808.26	1760.53
808.444	1758.01
808.627	1843.84
808.81	1767.31
808.993	1697.18
809.177	1699.5
809.36	1733.8
809.543	1761.7
809.726	1681.87
809.909	1712.68
810.092	1672.57
810.276	1648.74
810.459	1702.6
810.642	1656.68
810.825	1653.2
811.008	1660.56
811.191	1613.87
811.374	1596.82
811.557	1641.18
811.74	1643.12
811.923	1577.64
812.106	1552.25
812.289	1563.49
812.472	1517.96
812.654	1582.29
812.837	1533.46
813.02	1504.98
813.203	1460.61
813.386	1424.57
813.569	1410.24
813.751	1338.94
813.934	1396.68
814.117	1367.42
814.3	1322.66
814.482	1325.96
814.665	1284.11
814.848	1272.29
815.03	1226.57
815.213	1235.09
815.396	1241.29
815.578	1195.37
815.761	1163.02
815.943	1233.15
816.126	1158.37
816.309	1138.22
816.491	1097.34
816.674	1030.88
816.856	1099.47
817.039	1087.84
817.221	1160.11
817.403	1094.24
817.586	1089.78
817.768	1119.81
817.951	1063.24
818.133	1053.74
818.315	1073.7
818.498	1099.47
818.68	1185.68
818.862	1153.52
819.045	1188.59
819.227	1160.69
819.409	1131.05
819.591	1135.5
819.774	1136.47
819.956	1107.02
820.138	1164.95
820.32	1156.24
820.502	1213
820.684	1251.95
820.866	1220.17
821.048	1256.79
821.231	1321.5
821.413	1266.09
821.595	1268.22
821.777	1272.87
821.959	1230.25
822.141	1322.86
822.323	1187.62
822.505	1163.4
822.686	1149.45
822.868	1094.24
823.05	1008.6
823.232	1011.51
823.414	984.57
823.596	1024.1
823.778	1020.42
823.96	1060.52
824.141	1003.17
824.323	1046.57
824.505	1093.27
824.687	1090.17
824.868	1140.74
825.05	1230.25
825.232	1234.7
825.413	1316.46
825.595	1226.57
825.777	1191.3
825.958	1224.24
826.14	1213.97
826.321	1264.73
826.503	1222.3
826.685	1253.69
826.866	1260.08
827.048	1269.19
827.229	1211.65
827.411	1179.87
827.592	1151.2
827.773	1125.24
827.955	1112.45
828.136	1127.56
828.318	1058.39
828.499	1135.89
828.68	1068.47
828.862	1126.4
829.043	1127.75
829.224	1132.6
829.406	1053.74
829.587	1080.48
829.768	1100.82
829.949	1115.16
830.131	1109.54
830.312	1133.95
830.493	1111.29
830.674	1107.22
830.855	1101.99
831.036	1101.99
831.218	1184.33
831.399	1164.37
831.58	1130.08
831.761	1123.69
831.942	1112.84
832.123	1099.66
832.304	1081.25
832.485	1073.89
832.666	1080.09
832.847	1156.82
833.028	1133.37
833.209	1124.65
833.389	1100.24
833.57	1063.24
833.751	1089.59
833.932	1171.15
834.113	1103.15
834.294	1093.27
834.475	1126.79
834.655	1168.63
834.836	1145.97
835.017	1147.32
835.198	1076.02
835.378	1138.02
835.559	1166.89
835.74	1126.2
835.92	1115.16
836.101	1082.03
836.281	1161.47
836.462	1127.37
836.643	1156.82
836.823	1185.3
837.004	1148.68
837.184	1188.4
837.365	1183.75
837.545	1190.72
837.726	1128.92
837.906	1209.71
838.087	1194.98
838.267	1149.84
838.448	1126.98
838.628	1141.51
838.808	1136.47
838.989	1203.12
839.169	1105.09
839.349	1168.05
839.53	1180.84
839.71	1162.24
839.89	1143.45
840.07	1203.51
840.251	1149.26
840.431	1181.62
840.611	1133.76
840.791	1149.84
840.971	1193.43
841.151	1130.85
841.332	1118.26
841.512	1181.23
841.692	1081.25
841.872	1160.5
842.052	1139.57
842.232	1128.72
842.412	1105.67
842.592	1134.92
842.772	1144.8
842.952	1156.43
843.132	1126.4
843.312	1101.79
843.492	1109.93
843.672	1147.9
843.851	1052.58
844.031	1114.97
844.211	1106.05
844.391	1122.72
844.571	1125.62
844.751	1118.45
844.93	1111.09
845.11	1096.75
845.29	1142.48
845.47	1155.27
845.649	1133.76
845.829	1148.49
846.009	1128.14
846.188	1133.57
846.368	1146.35
846.547	1111.29
846.727	1156.82
846.907	1083.77
847.086	1135.31
847.266	1129.11
847.445	1136.47
847.625	1092.88
847.804	1078.74
847.984	1085.32
848.163	1041.92
848.343	1106.25
848.522	1098.69
848.701	1112.06
848.881	1053.94
849.06	1102.18
849.239	1123.3
849.419	1107.41
849.598	1064.98
849.777	1043.67
849.957	1022.55
850.136	970.04
850.315	971.21
850.494	997.94
850.674	1019.84
850.853	1060.72
851.032	1029.14
851.211	1070.79
851.39	1032.62
851.569	987.48
851.748	993.1
851.927	1021.77
852.107	983.22
852.286	940.79
852.465	952.22
852.644	1044.64
852.823	1064.79
853.002	1032.24
853.181	1010.92
853.359	1013.64
853.538	972.56
853.717	1032.43
853.896	933.04
854.075	918.31
854.254	916.76
854.433	823.57
854.611	899.91
854.79	841.59
854.969	933.23
855.148	946.41
855.327	858.45
855.505	919.67
855.684	883.63
855.863	943.89
856.041	893.9
856.22	932.26
856.399	904.17
856.577	1002.59
856.756	990
856.934	1079.7
857.113	1065.17
857.291	1003.95
857.47	955.51
857.648	957.64
857.827	996.2
858.005	1007.82
858.184	918.89
858.362	1046.77
858.541	954.93
858.719	968.3
858.898	935.36
859.076	936.53
859.254	1036.69
859.433	969.46
859.611	955.9
859.789	880.92
859.967	1002.98
860.146	1018.09
860.324	908.04
860.502	931.29
860.68	909.01
860.859	924.51
861.037	909.21
861.215	948.15
861.393	960.36
861.571	948.73
861.749	868.33
861.927	948.15
862.105	933.81
862.283	924.32
862.461	904.56
862.639	887.51
862.817	913.47
862.995	922.38
863.173	888.67
863.351	939.63
863.529	919.86
863.707	962.1
863.885	928.97
864.063	834.03
864.241	865.61
864.418	962.49
864.596	894.1
864.774	880.92
864.952	885.76
865.129	917.54
865.307	877.43
865.485	822.99
865.663	920.25
865.84	845.66
866.018	890.22
866.196	754.98
866.373	792.18
866.551	754.6
866.728	680.39
866.906	745.1
867.084	791.22
867.261	776.68
867.439	793.35
867.616	829
867.794	826.67
867.971	816.98
868.149	836.55
868.326	884.41
868.503	835.78
868.681	853.8
868.858	805.94
869.035	785.98
869.213	855.54
869.39	794.7
869.567	892.74
869.745	810.2
869.922	823.57
870.099	868.91
870.276	864.84
870.454	861.35
870.631	856.9
870.808	849.15
870.985	847.21
871.162	890.61
871.339	854.96
871.517	779.01
871.694	792.38
871.871	791.22
872.048	813.5
872.225	785.4
872.402	834.03
872.579	779.4
872.756	837.52
872.933	764.67
873.11	779.01
873.287	812.53
873.463	780.56
873.64	750.92
873.817	802.65
873.994	801.1
874.171	763.32
874.348	772.42
874.524	756.73
874.701	761.18
874.878	764.28
875.055	808.27
875.231	783.47
875.408	799.74
875.585	741.03
875.762	760.41
875.938	757.5
876.115	773.78
876.291	771.65
876.468	754.02
876.645	703.45
876.821	739.29
876.998	707.9
877.174	760.41
877.351	762.54
877.527	680.59
877.704	765.45
877.88	755.57
878.057	721.47
878.233	781.92
878.409	724.37
878.586	763.12
878.762	733.48
878.938	716.82
879.115	659.27
879.291	739.48
879.467	675.16
879.644	695.7
879.82	756.73
879.996	691.44
880.172	657.92
880.349	691.24
880.525	736.77
880.701	678.65
880.877	695.89
881.053	713.33
881.229	719.53
881.405	734.45
881.581	673.42
881.757	648.23
881.933	703.45
882.109	741.03
882.285	698.8
882.461	674
882.637	702.87
882.813	672.45
882.989	685.04
883.165	745.3
883.341	659.27
883.517	725.73
883.693	715.46
883.869	698.99
884.044	666.64
884.22	713.72
884.396	742
884.572	707.32
884.747	738.9
884.923	706.16
885.099	734.06
885.275	724.37
885.45	681.94
885.626	676.13
885.801	645.9
885.977	684.85
886.153	629.82
886.328	726.5
886.504	666.25
886.679	711.78
886.855	655.01
887.03	708.49
887.206	721.08
887.381	702.87
887.557	696.67
887.732	704.22
887.908	707.71
888.083	738.32
888.258	667.99
888.434	657.53
888.609	687.37
888.784	701.51
888.96	659.08
889.135	689.89
889.31	655.79
889.485	683.69
889.661	666.25
889.836	699.96
890.011	732.51
890.186	650.55
890.361	656.37
890.537	684.07
890.712	688.34
890.887	681.55
891.062	664.12
891.237	718.17
891.412	671.29
891.587	688.72
891.762	712.75
891.937	715.85
892.112	656.56
892.287	649.59
892.462	626.34
892.637	591.46
892.812	616.46
892.987	670.9
893.161	612.19
893.336	609.29
893.511	621.49
893.686	624.98
893.861	642.03
894.035	615.49
894.21	649.2
894.385	567.63
894.56	638.35
894.734	564.53
894.909	558.91
895.084	569.96
895.258	564.72
895.433	578.29
895.608	547.87
895.782	526.94
895.957	531.59
896.131	551.74
896.306	527.72
896.48	485.48
896.655	505.44
896.829	449.83
897.004	429.1
897.178	455.45
897.353	451.58
897.527	485.87
897.701	465.14
897.876	389.19
898.05	485.29
898.224	499.04
898.399	536.24
898.573	458.16
898.747	383.76
898.921	448.48
899.096	375.24
899.27	380.86
899.444	375.05
899.618	383.38
899.792	403.91
899.967	384.73
900.141	457.58
900.315	376.98
900.489	399.26
900.663	413.8
900.837	401.2
901.011	354.12
901.185	478.31
901.359	422.9
901.533	411.08
901.707	415.35
901.881	379.5
902.055	345.4
902.229	384.93
902.403	458.74
902.576	410.5
902.75	426.78
902.924	527.33
903.098	434.53
903.272	478.7
903.446	494.78
903.619	484.13
903.793	479.28
903.967	455.45
904.14	565.11
904.314	534.89
904.488	489.36
904.661	524.43
904.835	503.5
905.009	542.25
905.182	548.26
905.356	530.82
905.529	495.75
905.703	470.76
905.876	504.28
906.05	470.56
906.223	468.24
906.397	398.68
906.57	415.35
906.744	386.28
906.917	395.2
907.09	382.41
907.264	419.61
907.437	362.65
907.61	357.42
907.784	380.66
907.957	378.15
908.13	381.83
908.304	388.41
908.477	361.87
908.65	392.48
908.823	324.09
908.996	413.21
909.17	370.2
909.343	337.46
909.516	351.41
909.689	370.2
909.862	347.53
910.035	330.29
910.208	333.39
910.381	333.39
910.554	431.43
910.727	313.43
910.9	351.41
911.073	345.98
911.246	375.05
911.419	391.9
911.592	397.71
911.765	315.76
911.938	313.43
912.11	357.22
912.283	369.62
912.456	412.44
912.629	341.72
912.802	347.73
912.974	307.43
913.147	281.08
913.32	270.23
913.493	299.87
913.665	309.95
913.838	326.42
914.01	289.02
914.183	314.79
914.356	283.21
914.528	321.77
914.701	381.83
914.873	350.44
915.046	311.11
915.218	265.97
915.391	223.73
915.563	246.01
915.736	290.77
915.908	325.64
916.081	316.53
916.253	272.17
916.425	310.33
916.598	305.49
916.77	312.66
916.942	267.52
917.115	204.16
917.287	292.32
917.459	298.9
917.632	244.85
917.804	230.9
917.976	273.33
918.148	283.02
918.32	274.88
918.493	337.85
918.665	343.08
918.837	302.39
919.009	347.92
919.181	366.52
919.353	306.46
919.525	302.97
919.697	320.02
919.869	342.11
920.041	379.31
920.213	432.98
920.385	354.7
920.557	315.57
920.729	323.32
920.901	351.6
921.073	308.2
921.244	324.67
921.416	344.05
921.588	315.57
921.76	302.2
921.932	401.98
922.103	317.5
922.275	320.22
922.447	350.63
922.619	255.7
922.79	326.22
922.962	302
923.134	328.35
923.305	288.63
923.477	270.42
923.648	277.79
923.82	293.67
923.991	261.32
924.163	259.38
924.335	283.79
924.506	254.15
924.677	354.9
924.849	253.37
925.02	295.42
925.192	293.48
925.363	274.69
925.535	299.48
925.706	254.34
925.877	313.43
926.049	259.38
926.22	280.69
926.391	287.28
926.562	291.54
926.734	263.25
926.905	292.32
927.076	224.7
927.247	251.63
927.419	218.3
927.59	219.66
927.761	240.78
927.932	245.82
928.103	243.49
928.274	189.24
928.445	195.44
928.616	221.4
928.787	200.87
928.958	231.48
929.129	218.5
929.3	193.89
929.471	182.85
929.642	122.4
929.813	98.96
929.984	179.75
930.155	122.98
930.326	135.19
930.496	128.6
930.667	68.93
930.838	140.03
931.009	68.54
931.18	107.68
931.35	120.07
931.521	90.24
931.692	53.81
931.863	45.09
932.033	92.18
932.204	98.76
932.374	117.36
932.545	49.94
932.716	100.7
932.886	95.47
933.057	14.29
933.227	52.46
933.398	111.55
933.568	35.21
933.739	14.29
933.909	30.37
934.08	63.31
934.25	-5.86
934.421	3.63
934.591	74.54
934.761	26.3
934.932	-1.6
935.102	36.57
935.272	24.75
935.443	31.34
935.613	-7.6
935.783	53.04
935.953	-10.12
936.123	157.08
936.294	13.13
936.464	12.35
936.634	51.68
936.804	-9.74
936.974	-14.19
937.144	40.83
937.314	45.29
937.484	8.67
937.655	20.3
937.825	51.29
937.995	-5.86
938.165	61.95
938.334	14.68
938.504	52.65
938.674	3.63
938.844	6.93
939.014	69.7
939.184	64.66
939.354	116.59
939.524	70.48
939.694	72.8
939.863	39.48
940.033	122.4
940.203	121.62
940.373	89.85
940.542	72.41
940.712	54.01
940.882	126.27
941.051	107.68
941.221	63.5
941.391	103.41
941.56	71.44
941.73	53.62
941.899	135.77
942.069	33.08
942.238	92.18
942.408	38.12
942.577	93.34
942.747	58.08
942.916	10.61
943.086	19.71
943.255	63.5
943.425	89.46
943.594	12.35
943.763	-34.92
943.933	26.3
944.102	-24.85
944.271	25.14
944.441	72.99
944.61	32.89
944.779	48.78
944.948	116.78
945.117	-13.61
945.287	32.31
945.456	8.67
945.625	22.62
945.794	57.69
945.963	16.42
946.132	63.5
946.301	37.73
946.47	66.99
946.639	-23.69
946.808	6.15
946.977	56.91
947.146	76.48
947.315	13.51
947.484	66.6
947.653	18.55
947.822	12.35
947.991	17
948.16	111.36
948.329	94.11
948.498	35.99
948.666	53.81
948.835	76.68
949.004	34.24
949.173	-5.86
949.341	57.88
949.51	53.23
949.679	102.25
949.847	64.86
950.016	121.43
950.185	91.59
950.353	27.46
950.522	34.24
950.69	103.41
950.859	41.99
951.028	74.74
951.196	57.69
951.365	17.58
951.533	51.1
951.701	92.18
951.87	59.04
952.038	11.96
952.207	51.1
952.375	113.29
952.543	30.18
952.712	33.08
952.88	2.28
953.048	74.54
953.217	50.33
953.385	37.15
953.553	81.71
953.721	18.16
953.89	60.98
954.058	4.02
954.226	22.81
954.394	46.26
954.562	-10.7
954.73	25.33
954.898	33.28
955.067	81.71
955.235	23.59
955.403	57.69
955.571	103.41
955.739	55.36
955.907	18.55
956.075	32.89
956.243	25.53
956.41	65.63
956.578	-8.38
956.746	-5.67
956.914	-2.95
957.082	69.31
957.25	53.62
957.418	9.25
957.585	39.67
957.753	66.41
957.921	31.34
958.089	34.44
958.256	79.39
958.424	55.56
958.592	27.27
958.759	16.03
958.927	75.71
959.095	24.36
959.262	34.05
959.43	33.66
959.597	14.68
959.765	12.35
959.932	41.41
960.1	95.08
960.267	42.38
960.435	27.27
960.602	56.14
960.77	21.07
960.937	20.49
961.104	64.47
961.272	-12.64
961.439	22.04
961.606	81.71
961.774	83.46
961.941	40.44
962.108	47.81
962.275	69.12
962.443	72.61
962.61	44.9
962.777	130.73
962.944	61.76
963.111	72.99
963.278	59.63
963.446	41.03
963.613	49.16
963.78	54.39
963.947	90.82
964.114	54.39
964.281	125.69
964.448	46.84
964.615	9.45
964.782	69.12
964.949	91.4
965.116	63.11
965.282	102.83
965.449	46.06
965.616	15.26
965.783	85.39
965.95	59.24
966.117	3.05
966.283	59.43
966.45	54.98
966.617	56.53
966.784	93.53
966.95	72.22
967.117	98.18
967.284	43.16
967.45	29.21
967.617	87.72
967.784	86.17
967.95	115.42
968.117	52.07
968.283	94.89
968.45	149.14
968.616	65.05
968.783	93.92
968.949	66.21
969.116	123.56
969.282	52.07
969.449	93.34
969.615	63.5
969.781	24.17
969.948	34.05
970.114	13.13
970.28	111.94
970.447	41.03
970.613	114.84
970.779	63.31
970.945	85.59
971.112	64.66
971.278	48.39
971.444	58.85
971.61	105.16
971.776	47.23
971.942	69.12
972.108	77.06
972.275	48.58
972.441	78.03
972.607	132.47
972.773	39.09
972.939	82.49
973.105	78.61
973.271	48.39
973.437	41.8
973.602	55.75
973.768	76.29
973.934	57.88
974.1	97.6
974.266	4.8
974.432	62.92
974.598	40.25
974.763	99.73
974.929	72.61
975.095	116.97
975.261	51.68
975.426	34.05
975.592	50.52
975.758	121.43
975.923	13.32
976.089	34.05
976.255	110.39
976.42	61.76
976.586	67.96
976.751	64.66
976.917	158.82
977.082	62.34
977.248	25.53
977.413	18.55
977.579	36.57
977.744	61.56
977.91	14.1
978.075	37.54
978.24	97.6
978.406	46.06
978.571	23.98
978.736	8.09
978.902	62.34
979.067	25.72
979.232	11.77
979.397	62.73
979.563	121.43
979.728	34.24
979.893	44.71
980.058	27.46
980.223	69.51
980.388	53.43
980.554	54.78
980.719	24.56
980.884	57.3
981.049	94.11
981.214	23.39
981.379	61.56
981.544	45.09
981.709	25.33
981.874	31.34
982.039	51.29
982.204	88.69
982.368	63.89
982.533	30.95
982.698	81.91
982.863	105.93
983.028	41.03
983.193	48.39
983.357	67.38
983.522	62.53
983.687	56.33
983.852	25.91
984.016	26.49
984.181	68.34
984.346	71.25
984.51	80.55
984.675	66.41
984.839	76.68
985.004	53.43
985.168	92.37
985.333	61.95
985.498	56.53
985.662	85.59
985.827	68.73
985.991	64.28
986.155	40.44
986.32	88.88
986.484	120.27
986.649	49.94
986.813	-4.89
986.977	78.42
987.142	95.86
987.306	4.8
987.47	31.34
987.634	53.43
987.799	81.33
987.963	50.33
988.127	88.88
988.291	140.61
988.455	56.53
988.62	42.96
988.784	77.84
988.948	77.06
989.112	27.85
989.276	50.91
989.44	54.39
989.604	45.29
989.768	28.43
989.932	131.31
990.096	26.49
990.26	19.13
990.424	13.51
990.588	47.61
990.752	113.68
990.915	71.25
991.079	29.98
991.243	45.48
991.407	94.31
991.571	29.79
991.734	85.78
991.898	72.03
992.062	118.52
992.226	20.68
992.389	26.69
992.553	-1.99
992.717	33.28
992.88	52.46
993.044	41.99
993.207	59.24
993.371	63.89
993.535	74.54
993.698	41.22
993.862	64.66
994.025	61.18
994.189	75.71
994.352	33.28
994.515	58.46
994.679	64.86
994.842	22.04
995.006	67.18
995.169	19.13
995.332	43.74
995.496	84.23
995.659	6.54
995.822	24.75
995.985	33.28
996.149	103.8
996.312	48.19
996.475	110.97
996.638	40.83
996.801	99.15
996.964	52.07
997.128	59.63
997.291	34.63
997.454	36.76
997.617	0.15
997.78	77.84
997.943	25.14
998.106	91.79
998.269	12.35
998.432	54.2
998.595	24.94
998.758	12.74
998.92	25.14
999.083	7.7
999.246	24.56
999.409	-18.65
999.572	-1.79
999.735	32.89
999.897	54.39
1000.06	4.41
1000.223	0.92
1000.386	66.41
1000.548	64.28
1000.711	50.13
1000.874	32.69
1001.036	-17.68
1001.199	81.91
1001.361	19.52
1001.524	43.74
1001.687	67.57
1001.849	9.25
1002.012	37.93
1002.174	7.12
1002.337	56.14
1002.499	22.43
1002.661	74.16
1002.824	-3.34
1002.986	36.76
1003.149	44.32
1003.311	-8.38
1003.473	78.42
1003.636	26.3
1003.798	55.94
1003.96	66.6
1004.123	18.75
1004.285	10.41
1004.447	26.69
1004.609	15.65
1004.771	82.88
1004.933	-42.67
1005.096	19.52
1005.258	-5.09
1005.42	2.47
1005.582	81.33
1005.744	49.55
1005.906	-27.17
1006.068	29.79
1006.23	-14.39
1006.392	-30.85
1006.554	10.8
1006.716	46.06
1006.878	26.3
1007.04	-11.09
1007.202	2.86
1007.363	37.54
1007.525	18.36
1007.687	41.22
1007.849	105.16
1008.011	-22.91
1008.172	-8.57
1008.334	2.28
1008.496	42.58
1008.658	-22.91
1008.819	17
1008.981	-18.07
1009.143	25.72
1009.304	0.73
1009.466	48.19
1009.627	63.11
1009.789	97.6
1009.95	9.45
1010.112	0.34
1010.273	57.3
1010.435	-5.67
1010.596	-1.79
1010.758	19.13
1010.919	8.86
1011.081	-22.52
1011.242	-5.09
1011.403	24.56
1011.565	10.61
1011.726	13.71
1011.887	-6.83
1012.049	8.09
1012.21	76.68
1012.371	53.04
1012.532	-66.12
1012.693	25.33
1012.855	6.93
1013.016	11.96
1013.177	77.26
1013.338	15.45
1013.499	67.38
1013.66	39.48
1013.821	44.13
1013.982	13.51
1014.143	50.91
1014.304	-11.09
1014.465	47.42
1014.626	46.64
1014.787	-3.34
1014.948	78.42
1015.109	-32.02
1015.27	52.84
1015.431	-10.51
1015.592	-37.83
1015.752	42.77
1015.913	17.2
1016.074	29.98
1016.235	24.17
1016.395	17.78
1016.556	3.25
1016.717	8.09
1016.877	75.51
1017.038	6.15
1017.199	18.75
1017.359	21.65
1017.52	34.05
1017.681	-6.05
1017.841	14.48
1018.002	11
1018.162	9.25
1018.323	66.6
1018.483	7.7
1018.644	8.09
1018.804	-41.51
1018.964	-16.13
1019.125	-13.61
1019.285	16.61
1019.446	-10.32
1019.606	-31.44
1019.766	-32.21
1019.926	29.59
1020.087	40.64
1020.247	-37.83
1020.407	28.63
1020.567	44.32
1020.728	12.16
1020.888	-5.47
1021.048	-13.22
1021.208	-28.34
1021.368	-23.1
1021.528	33.08
1021.688	39.28
1021.848	16.42
1022.008	35.79
1022.168	-15.94
1022.328	0.34
1022.488	24.94
1022.648	-7.8
1022.808	1.89
1022.968	29.01
1023.128	-10.51
1023.288	-0.82
1023.448	23.59
1023.608	54.59
1023.767	44.32
1023.927	-16.9
1024.087	-10.7
1024.247	-45
1024.406	-8.96
1024.566	-35.5
1024.726	-12.64
1024.885	1.31
1025.045	17.58
1025.205	20.3
1025.364	-36.09
1025.524	25.14
1025.683	-25.04
1025.843	2.47
1026.003	-15.16
1026.162	51.49
1026.321	56.14
1026.481	-10.7
1026.64	-38.02
1026.8	12.74
1026.959	16.23
1027.119	-17.1
1027.278	5.57
1027.437	-16.52
1027.597	-11.87
1027.756	-9.54
1027.915	23.01
1028.074	30.95
1028.234	-4.5
1028.393	28.82
1028.552	-8.19
1028.711	-61.27
1028.87	34.63
1029.03	-29.69
1029.189	-2.76
1029.348	-63.4
1029.507	12.35
1029.666	-9.93
1029.825	-37.44
1029.984	-3.73
1030.143	33.28
1030.302	0.34
1030.461	-30.85
1030.62	30.95
1030.779	10.22
1030.938	-20.78
1031.097	-26.98
1031.255	19.71
1031.414	68.54
1031.573	28.04
1031.732	-32.21
1031.891	1.11
1032.049	51.1
1032.208	38.12
1032.367	-8.96
1032.525	-1.02
1032.684	-20.97
1032.843	11.58
1033.001	-40.15
1033.16	125.69
1033.319	46.84
1033.477	28.82
1033.636	-2.57
1033.794	-71.93
1033.953	54.2
1034.111	15.06
1034.27	-28.53
1034.428	35.6
1034.587	-27.75
1034.745	11.77
1034.903	-21.94
1035.062	-5.86
1035.22	-50.42
1035.378	23.98
1035.537	-28.14
1035.695	14.1
1035.853	-4.31
1036.011	34.63
1036.17	25.72
1036.328	-50.42
1036.486	22.81
1036.644	23.39
1036.802	-75.22
1036.96	-28.72
1037.119	6.15
1037.277	-10.32
1037.435	-44.03
1037.593	-21.55
1037.751	-8.57
1037.909	26.69
1038.067	26.69
