Data from pine_FLMT105791__7__17-19-41-080.txt Node

Date: Mon Mar 20 17:19:41 GMT 2023
User: antho
Spectrometer: FLMT10579
Trigger mode: 0
Integration Time (sec): 1.000000E-1
Scans to average: 10
Electric dark correction enabled: true
Nonlinearity correction enabled: false
Boxcar width: 0
XAxis mode: Wavelengths
Number of Pixels in Spectrum: 3648
>>>>>Begin Spectral Data<<<<<
345.248	-156.27
345.464	-156.27
345.681	-156.27
345.898	-151.43
346.114	-153.56
346.331	-17.74
346.548	23.52
346.764	-11.54
346.981	12.09
347.197	-15.42
347.414	-2.05
347.631	-20.26
347.847	62.08
348.064	0.66
348.28	18.29
348.497	-40.41
348.713	-9.22
348.93	42.9
349.146	29.72
349.363	11.12
349.579	21.59
349.796	2.99
350.012	38.06
350.229	18.68
350.445	-11.35
350.661	-36.34
350.878	10.54
351.094	11.9
351.311	21.97
351.527	7.64
351.743	-17.74
351.96	49.1
352.176	33.6
352.392	11.9
352.609	50.46
352.825	0.86
353.041	29.34
353.257	0.27
353.474	4.54
353.69	25.85
353.906	31.47
354.122	-17.94
354.339	51.23
354.555	10.16
354.771	-5.54
354.987	49.49
355.203	64.79
355.42	9.77
355.636	-9.99
355.852	-17.74
356.068	7.25
356.284	-29.95
356.5	40.57
356.716	25.27
356.932	-2.24
357.148	25.07
357.364	-6.7
357.58	42.9
357.796	72.93
358.012	66.15
358.228	28.17
358.444	-50.29
358.66	64.99
358.876	38.44
359.092	19.26
359.308	34.18
359.524	35.73
359.74	-13.68
359.956	-4.96
360.172	-1.66
360.388	27.79
360.604	17.13
360.819	82.04
361.035	25.85
361.251	52.97
361.467	-7.48
361.683	38.25
361.898	30.31
362.114	14.61
362.33	10.35
362.546	45.61
362.762	26.04
362.977	16.36
363.193	-16.19
363.409	44.26
363.624	-10.19
363.84	10.74
364.056	-2.83
364.271	42.32
364.487	27.21
364.703	-15.42
364.918	-3.21
365.134	-22.01
365.35	-2.63
365.565	92.3
365.781	22.56
365.996	42.51
366.212	88.43
366.427	36.89
366.643	1.44
366.858	9.38
367.074	-14.26
367.289	53.75
367.505	110.71
367.72	-17.55
367.936	-0.11
368.151	46.58
368.367	39.02
368.582	1.44
368.798	-5.54
369.013	63.44
369.228	28.95
369.444	9.19
369.659	58.79
369.874	26.04
370.09	64.79
370.305	-74.51
370.52	-22.78
370.736	68.09
370.951	10.16
371.166	38.44
371.381	60.53
371.597	17.91
371.812	-19.68
372.027	-2.24
372.242	21.2
372.458	67.7
372.673	2.02
372.888	4.92
373.103	24.11
373.318	115.94
373.533	21.59
373.749	45.42
373.964	-27.82
374.179	45.42
374.394	-15.81
374.609	84.36
374.824	-10.96
375.039	66.34
375.254	2.02
375.469	88.24
375.684	25.07
375.899	70.22
376.114	32.82
376.329	57.82
376.544	72.15
376.759	41.93
376.974	-31.11
377.189	-3.21
377.404	4.34
377.619	43.87
377.834	-40.02
378.049	-26.66
378.264	-9.99
378.478	29.14
378.693	-17.36
378.908	35.15
379.123	24.88
379.338	29.34
379.553	23.14
379.767	25.66
379.982	29.72
380.197	33.79
380.412	5.7
380.626	33.41
380.841	117.88
381.056	25.07
381.271	77.97
381.485	20.81
381.7	30.5
381.915	16.55
382.129	21.01
382.344	32.82
382.559	27.98
382.773	63.63
382.988	5.12
383.202	26.62
383.417	-20.46
383.632	138.61
383.846	10.16
384.061	17.71
384.275	10.93
384.49	58.98
384.704	26.43
384.919	54.52
385.133	8.41
385.348	37.09
385.562	-31.31
385.777	78.74
385.991	18.29
386.206	3.37
386.42	-7.67
386.634	56.46
386.849	11.12
387.063	44.64
387.277	-13.68
387.492	37.67
387.706	-2.44
387.92	2.6
388.135	49.68
388.349	48.71
388.563	23.91
388.778	26.62
388.992	40.57
389.206	44.64
389.42	91.72
389.635	20.81
389.849	38.25
390.063	57.62
390.277	39.8
390.491	74.67
390.706	48.32
390.92	61.89
391.134	32.24
391.348	55.3
391.562	-12.71
391.776	10.93
391.99	-10.38
392.205	39.8
392.419	-5.54
392.633	28.76
392.847	66.34
393.061	19.84
393.275	109.74
393.489	26.62
393.703	30.69
393.917	56.07
394.131	16.36
394.345	44.64
394.559	52.97
394.773	1.24
394.986	47.36
395.2	60.92
395.414	52.39
395.628	-14.64
395.842	32.05
396.056	22.94
396.27	-25.3
396.484	7.44
396.697	39.02
396.911	64.6
397.125	46.39
397.339	74.87
397.553	66.92
397.766	95.99
397.98	87.65
398.194	66.15
398.408	27.98
398.621	46.77
398.835	73.51
399.049	34.96
399.262	75.64
399.476	73.32
399.69	42.71
399.903	99.09
400.117	22.17
400.331	52.78
400.544	19.65
400.758	146.17
400.971	36.7
401.185	60.34
401.398	22.36
401.612	71.38
401.826	62.27
402.039	60.72
402.253	14.42
402.466	81.07
402.68	21.01
402.893	39.99
403.106	49.1
403.32	57.24
403.533	47.36
403.747	48.91
403.96	40.19
404.174	83.59
404.387	-4.57
404.6	49.1
404.814	70.6
405.027	31.86
405.24	40.77
405.454	29.92
405.667	88.62
405.88	10.16
406.094	56.46
406.307	70.41
406.52	31.86
406.733	30.31
406.947	12.09
407.16	137.06
407.373	94.05
407.586	13.64
407.799	3.76
408.012	94.05
408.226	45.03
408.439	79.71
408.652	-14.26
408.865	79.32
409.078	89.2
409.291	108.19
409.504	6.86
409.717	47.36
409.93	69.25
410.143	40.77
410.357	-12.9
410.57	15.97
410.783	40.19
410.996	77.58
411.209	51.23
411.421	122.34
411.634	50.65
411.847	17.32
412.06	47.16
412.273	24.88
412.486	65.95
412.699	146.94
412.912	34.18
413.125	93.85
413.338	45.22
413.55	64.99
413.763	62.66
413.976	69.44
414.189	33.02
414.402	42.71
414.615	100.64
414.827	6.86
415.04	75.45
415.253	75.84
415.466	100.64
415.678	139
415.891	39.99
416.104	50.46
416.316	59.17
416.529	24.3
416.742	77.19
416.954	101.8
417.167	49.87
417.38	44.45
417.592	91.53
417.805	25.27
418.017	21.2
418.23	89.01
418.442	82.42
418.655	49.87
418.868	68.47
419.08	133.96
419.293	98.31
419.505	74.29
419.718	70.8
419.93	113.23
420.142	51.23
420.355	99.28
420.567	115.36
420.78	90.95
420.992	76.8
421.205	139.38
421.417	24.11
421.629	55.49
421.842	46.97
422.054	25.46
422.266	94.44
422.479	114.59
422.691	76.03
422.903	88.24
423.115	39.41
423.328	92.3
423.54	97.34
423.752	72.15
423.964	29.92
424.177	107.03
424.389	48.91
424.601	161.08
424.813	96.76
425.025	123.5
425.238	102.96
425.45	79.71
425.662	64.79
425.874	393.78
426.086	90.17
426.298	97.34
426.51	104.12
426.722	74.67
426.934	54.14
427.146	135.12
427.358	35.15
427.57	123.3
427.782	72.15
427.994	90.75
428.206	45.61
428.418	44.84
428.63	91.92
428.842	136.87
429.054	92.3
429.266	121.17
429.478	61.5
429.69	97.54
429.902	48.13
430.114	101.6
430.325	91.72
430.537	77
430.749	82.62
430.961	47.36
431.173	85.52
431.384	107.8
431.596	7.25
431.808	86.1
432.02	97.73
432.231	140.93
432.443	133.19
432.655	118.85
432.867	68.86
433.078	130.09
433.29	170.19
433.502	144.81
433.713	152.56
433.925	101.8
434.136	157.6
434.348	88.62
434.56	35.92
434.771	179.3
434.983	66.73
435.194	105.29
435.406	120.2
435.617	151.01
435.829	204.68
436.04	167.87
436.252	172.71
436.463	186.27
436.675	176
436.886	132.22
437.098	156.05
437.309	211.46
437.521	125.63
437.732	139.97
437.943	170.77
438.155	143.84
438.366	87.65
438.578	180.07
438.789	141.13
439	174.45
439.211	134.15
439.423	141.13
439.634	200.22
439.845	177.55
440.057	166.51
440.268	188.98
440.479	123.89
440.69	172.9
440.902	166.32
441.113	159.92
441.324	143.07
441.535	180.46
441.746	203.9
441.957	142.1
442.168	162.44
442.38	191.7
442.591	179.49
442.802	143.07
443.013	142.68
443.224	168.64
443.435	166.32
443.646	188.79
443.857	168.45
444.068	165.54
444.279	151.78
444.49	262.03
444.701	192.86
444.912	280.63
445.123	236.26
445.334	223.86
445.545	205.65
445.756	183.37
445.967	160.89
446.178	203.32
446.388	220.76
446.599	200.61
446.81	228.51
447.021	162.25
447.232	235.1
447.443	234.13
447.653	177.75
447.864	219.4
448.075	218.24
448.286	211.27
448.496	203.32
448.707	245.36
448.918	182.78
449.129	305.23
449.339	184.72
449.55	249.43
449.761	222.7
449.971	283.34
450.182	210.68
450.393	249.43
450.603	207.2
450.814	247.3
451.024	246.33
451.235	241.68
451.446	294.58
451.656	296.9
451.867	225.99
452.077	235.87
452.288	294.19
452.498	281.98
452.709	228.31
452.919	255.63
453.13	235.1
453.34	265.13
453.55	194.41
453.761	285.66
453.971	249.05
454.182	269.39
454.392	254.66
454.602	307.17
454.813	262.03
455.023	267.84
455.233	202.16
455.444	268.03
455.654	177.94
455.864	224.44
456.075	221.34
456.285	221.92
456.495	232
456.705	265.32
456.916	300
457.126	308.72
457.336	274.62
457.546	207.2
457.756	244.2
457.967	334.1
458.177	238.78
458.387	273.46
458.597	231.22
458.807	247.5
459.017	285.28
459.227	249.24
459.437	250.79
459.647	281.4
459.857	290.31
460.068	253.7
460.278	303.1
460.488	277.33
460.698	335.07
460.908	272.3
461.117	210.68
461.327	244.78
461.537	307.95
461.747	284.89
461.957	271.33
462.167	381.57
462.377	306.01
462.587	288.57
462.797	331.19
463.007	290.51
463.216	317.63
463.426	338.94
463.636	338.56
463.846	243.23
464.056	281.98
464.265	340.3
464.475	270.94
464.685	291.67
464.895	335.65
465.104	302.13
465.314	313.95
465.524	290.9
465.733	294.96
465.943	405.4
466.153	368.59
466.362	354.44
466.572	320.34
466.782	307.36
466.991	316.47
467.201	350.57
467.41	258.15
467.62	317.05
467.829	317.44
468.039	317.05
468.249	318.99
468.458	313.56
468.668	343.4
468.877	342.43
469.086	372.66
469.296	375.56
469.505	321.7
469.715	411.02
469.924	349.79
470.134	385.06
470.343	408.69
470.552	336.43
470.762	343.21
470.971	314.53
471.18	337.39
471.39	356.96
471.599	316.28
471.808	349.21
472.018	327.9
472.227	438.14
472.436	381.57
472.645	331.39
472.855	333.71
473.064	426.32
473.273	360.06
473.482	414.89
473.691	404.04
473.901	396.88
474.11	372.27
474.319	489.49
474.528	388.93
474.737	423.03
474.946	420.12
475.155	419.54
475.364	458.1
475.573	403.85
475.783	448.99
475.992	416.44
476.201	464.88
476.41	388.54
476.619	383.31
476.828	411.02
477.037	393.97
477.245	439.5
477.454	456.74
477.663	429.62
477.872	416.25
478.081	487.74
478.29	399.39
478.499	514.67
478.708	456.55
478.917	522.23
479.125	467.21
479.334	470.11
479.543	448.8
479.752	472.05
479.961	485.81
480.169	526.3
480.378	438.34
480.587	590.82
480.796	510.99
481.004	484.84
481.213	509.05
481.422	500.72
481.63	477.86
481.839	527.46
482.048	560.4
482.256	524.75
482.465	509.64
482.674	539.47
482.882	574.74
483.091	611.55
483.299	530.37
483.508	553.04
483.716	528.43
483.925	540.64
484.134	509.05
484.342	519.52
484.551	534.24
484.759	543.74
484.967	573.96
485.176	581.71
485.384	559.82
485.593	600.31
485.801	579.77
486.01	530.75
486.218	534.82
486.426	459.84
486.635	485.22
486.843	487.16
487.051	548.77
487.26	502.27
487.468	548.77
487.676	577.06
487.885	526.1
488.093	543.74
488.301	557.49
488.509	588.49
488.717	623.37
488.926	577.45
489.134	574.93
489.342	590.04
489.55	529.98
489.758	556.33
489.967	575.32
490.175	697.96
490.383	578.61
490.591	674.71
490.799	550.32
491.007	655.14
491.215	624.92
491.423	617.36
491.631	640.42
491.839	618.13
492.047	661.15
492.255	593.33
492.463	554
492.671	642.55
492.879	664.44
493.087	620.46
493.295	645.84
493.503	646.62
493.711	661.15
493.919	663.86
494.127	676.45
494.334	703
494.542	645.26
494.75	663.28
494.958	647
495.166	705.13
495.374	694.47
495.581	665.99
495.789	663.28
495.997	715.78
496.205	684.4
496.412	677.23
496.62	687.5
496.828	722.95
497.035	668.7
497.243	721.6
497.451	687.3
497.658	703.58
497.866	693.89
498.074	761.51
498.281	661.92
498.489	793.86
498.696	711.52
498.904	708.03
499.112	693.31
499.319	770.03
499.527	736.9
499.734	762.86
499.942	690.79
500.149	693.7
500.357	759.96
500.564	687.5
500.771	724.5
500.979	690.21
501.186	689.82
501.394	715.98
501.601	684.4
501.808	740.2
502.016	710.36
502.223	704.55
502.43	754.73
502.638	729.15
502.845	709.78
503.052	790.18
503.26	712.68
503.467	801.81
503.674	733.03
503.881	752.21
504.089	820.6
504.296	799.68
504.503	686.91
504.71	737.68
504.917	683.43
505.125	772.94
505.332	740.78
505.539	780.49
505.746	864.58
505.953	806.84
506.16	826.99
506.367	825.83
506.574	821.38
506.781	861.87
506.988	769.06
507.195	788.44
507.402	791.15
507.609	841.14
507.816	803.55
508.023	782.63
508.23	778.36
508.437	787.86
508.644	809.75
508.851	833.58
509.058	834.94
509.265	816.92
509.472	863.42
509.679	933.17
509.885	818.08
510.092	846.17
510.299	845.79
510.506	848.11
510.713	848.31
510.92	847.53
511.126	873.3
511.333	926.97
511.54	896.16
511.746	928.9
511.953	921.35
512.16	934.33
512.367	865.74
512.573	861.09
512.78	882.79
512.987	880.66
513.193	878.92
513.4	805.88
513.606	856.64
513.813	899.26
514.02	883.18
514.226	969.01
514.433	911.47
514.639	881.05
514.846	901.2
515.052	862.45
515.259	904.69
515.465	928.71
515.672	911.47
515.878	1005.24
516.085	890.35
516.291	965.52
516.497	896.55
516.704	920.19
516.91	861.09
517.117	862.84
517.323	780.11
517.529	830.29
517.736	819.63
517.942	870.2
518.148	838.23
518.354	899.65
518.561	883.37
518.767	907.21
518.973	923.29
519.179	936.85
519.386	899.46
519.592	851.6
519.798	911.86
520.004	983.15
520.21	936.07
520.417	987.61
520.623	1002.53
520.829	1009.31
521.035	1025.58
521.241	1005.24
521.447	1017.45
521.653	1117.23
521.859	1001.56
522.065	1040.31
522.271	1121.68
522.477	1053.48
522.683	1110.83
522.889	1050
523.095	1054.84
523.301	1071.89
523.507	1016.87
523.713	1064.92
523.919	1031.59
524.125	1056.39
524.331	1038.37
524.537	1137.76
524.742	1121.1
524.948	1129.05
525.154	1098.24
525.36	1191.63
525.566	1119.16
525.772	1173.41
525.977	1099.4
526.183	1150.36
526.389	1169.73
526.595	1091.65
526.8	1103.47
527.006	1068.02
527.212	1035.08
527.417	1010.67
527.623	1010.47
527.829	1078.67
528.034	1084.48
528.24	1115.68
528.446	1091.65
528.651	1171.48
528.857	1161.98
529.062	1224.56
529.268	1142.03
529.473	1191.63
529.679	1155.2
529.884	1275.32
530.09	1215.46
530.295	1287.72
530.501	1231.15
530.706	1227.08
530.912	1179.81
531.117	1185.81
531.323	1211.39
531.528	1242.58
531.733	1248.59
531.939	1155.78
532.144	1245.29
532.35	1220.88
532.555	1252.27
532.76	1249.17
532.966	1234.83
533.171	1221.27
533.376	1161.98
533.581	1165.28
533.787	1186.98
533.992	1246.07
534.197	1242
534.402	1212.55
534.607	1238.71
534.813	1334.61
535.018	1239.29
535.223	1235.41
535.428	1241.03
535.633	1284.24
535.838	1279.78
536.043	1276.49
536.249	1353.99
536.454	1285.21
536.659	1307.49
536.864	1236.77
537.069	1267.58
537.274	1263.7
537.479	1318.34
537.684	1308.26
537.889	1235.41
538.094	1359.99
538.299	1305.36
538.504	1328.8
538.708	1343.52
538.913	1327.25
539.118	1281.52
539.323	1351.27
539.528	1284.24
539.733	1276.68
539.938	1326.28
540.142	1362.51
540.347	1272.81
540.552	1288.69
540.757	1322.6
540.962	1293.92
541.166	1224.56
541.371	1251.88
541.576	1264.67
541.781	1192.79
541.985	1311.17
542.19	1298.57
542.395	1358.64
542.599	1377.43
542.804	1350.69
543.008	1371.42
543.213	1311.56
543.418	1272.03
543.622	1346.24
543.827	1317.56
544.031	1377.62
544.236	1370.07
544.44	1398.35
544.645	1412.89
544.849	1342.75
545.054	1393.51
545.258	1446.21
545.463	1385.57
545.667	1350.69
545.872	1402.62
546.076	1399.9
546.281	1389.25
546.485	1366.77
546.689	1375.88
546.894	1388.09
547.098	1371.81
547.302	1334.03
547.507	1347.79
547.711	1366.39
547.915	1412.11
548.119	1328.41
548.324	1353.41
548.528	1431.29
548.732	1359.99
548.936	1415.4
549.141	1425.29
549.345	1360.77
549.549	1367.74
549.753	1403.2
549.957	1451.05
550.161	1482.44
550.366	1402.23
550.57	1378.01
550.774	1392.93
550.978	1398.74
551.182	1445.05
551.386	1410.56
551.59	1388.47
551.794	1405.52
551.998	1421.02
552.202	1393.12
552.406	1363.87
552.61	1409.4
552.814	1390.22
553.018	1443.3
553.222	1364.64
553.426	1383.05
553.63	1477.79
553.833	1394.67
554.037	1310.2
554.241	1448.92
554.445	1417.92
554.649	1405.91
554.853	1388.67
555.056	1411.14
555.26	1432.26
555.464	1405.91
555.668	1447.76
555.871	1418.12
556.075	1431.68
556.279	1352.44
556.483	1356.31
556.686	1378.01
556.89	1398.35
557.094	1420.25
557.297	1344.88
557.501	1450.47
557.704	1302.64
557.908	1425.09
558.112	1362.9
558.315	1406.88
558.519	1333.45
558.722	1380.92
558.926	1339.65
559.129	1297.8
559.333	1276.29
559.536	1306.52
559.74	1284.24
559.943	1272.03
560.147	1263.51
560.35	1281.33
560.553	1313.88
560.757	1265.25
560.96	1356.51
561.164	1310.01
561.367	1370.07
561.57	1327.64
561.774	1341.39
561.977	1318.53
562.18	1336.36
562.384	1403.59
562.587	1317.95
562.79	1313.3
562.993	1316.59
563.197	1332.87
563.4	1400.29
563.603	1378.01
563.806	1422.57
564.009	1343.72
564.212	1320.66
564.416	1308.65
564.619	1321.82
564.822	1291.41
565.025	1327.25
565.228	1283.66
565.431	1329.19
565.634	1229.99
565.837	1294.12
566.04	1230.57
566.243	1284.62
566.446	1191.63
566.649	1306.91
566.852	1198.41
567.055	1249.94
567.258	1304.58
567.461	1375.49
567.664	1327.44
567.867	1215.46
568.07	1287.14
568.273	1266.99
568.475	1303.61
568.678	1239.29
568.881	1236.96
569.084	1241.42
569.287	1170.51
569.489	1166.05
569.692	1235.61
569.895	1240.64
570.098	1186.98
570.3	1211
570.503	1140.67
570.706	1138.93
570.909	1151.52
571.111	1146.29
571.314	1122.46
571.516	1170.12
571.719	1143.58
571.922	1160.24
572.124	1143.96
572.327	1167.99
572.529	1080.03
572.732	1085.84
572.935	1160.82
573.137	1241.03
573.34	1170.9
573.542	1229.02
573.745	1166.25
573.947	1168.76
574.15	1150.16
574.352	1106.76
574.554	1211.39
574.757	1110.83
574.959	1107.15
575.162	1134.28
575.364	1108.12
575.566	1209.64
575.769	1086.81
575.971	1129.24
576.173	1039.73
576.376	1110.83
576.578	1114.32
576.78	1195.11
576.982	1054.07
577.185	1141.64
577.387	1057.36
577.589	1089.52
577.791	1124.4
577.993	1116.06
578.196	1091.65
578.398	1103.86
578.6	1134.08
578.802	1048.83
579.004	1065.69
579.206	1079.06
579.408	1121.88
579.61	1061.43
579.812	1108.31
580.014	1026.36
580.216	1047.28
580.418	1064.72
580.62	1056.2
580.822	1028.49
581.024	1043.02
581.226	1104.05
581.428	1037.21
581.63	1169.73
581.832	1062.01
582.034	1125.95
582.236	1060.07
582.438	1127.5
582.64	1153.46
582.841	1196.66
583.043	1163.15
583.245	1126.33
583.447	1118.2
583.649	1096.69
583.85	1114.32
584.052	1182.33
584.254	1079.83
584.456	1152.68
584.657	1086.03
584.859	1075.96
585.061	1087.78
585.262	1056.2
585.464	1058.72
585.666	1123.23
585.867	1043.02
586.069	1135.83
586.27	1097.27
586.472	1108.31
586.674	1095.92
586.875	1076.15
587.077	1066.08
587.278	1078.28
587.48	1075.77
587.681	1180.39
587.883	1089.52
588.084	1044.57
588.285	1073.44
588.487	1045.73
588.688	1055.81
588.89	1011.44
589.091	985.67
589.292	1016.48
589.494	986.06
589.695	973.85
589.896	885.31
590.098	900.81
590.299	978.12
590.5	931.62
590.702	968.82
590.903	976.76
591.104	1002.92
591.305	978.7
591.507	1071.5
591.708	1010.09
591.909	1013.38
592.11	1096.3
592.311	1009.12
592.512	1030.62
592.714	936.65
592.915	964.17
593.116	971.92
593.317	992.07
593.518	977.73
593.719	990.71
593.92	1048.45
594.121	1051.16
594.322	991.1
594.523	997.49
594.724	964.94
594.925	991.87
595.126	1028.3
595.327	1027.52
595.528	1001.37
595.729	1004.27
595.929	1003.5
596.13	1012.02
596.331	1026.36
596.532	1001.37
596.733	1048.06
596.934	1037.6
597.135	1053.29
597.335	1022.68
597.536	979.09
597.737	994.78
597.938	1025.78
598.138	1018.61
598.339	979.47
598.54	1040.7
598.74	994.78
598.941	1000.79
599.142	1074.8
599.342	1036.63
599.543	985.67
599.744	996.52
599.944	973.27
600.145	978.89
600.345	1006.79
600.546	1076.35
600.746	1052.13
600.947	1072.86
601.147	1008.73
601.348	1055.62
601.548	988.97
601.749	1015.12
601.949	963.78
602.15	992.07
602.35	1006.4
602.551	1023.45
602.751	989.94
602.951	953.9
603.152	942.27
603.352	1023.45
603.552	1004.47
603.753	1021.13
603.953	1028.49
604.153	1037.4
604.354	982.96
604.554	1002.72
604.754	1017.06
604.954	975.02
605.155	1011.05
605.355	1013.57
605.555	1087.2
605.755	1044.38
605.955	1022.1
606.155	1000.4
606.356	1003.69
606.556	1031.59
606.756	1000.01
606.956	947.5
607.156	1024.81
607.356	1017.06
607.556	1001.17
607.756	1020.16
607.956	1062.01
608.156	990.32
608.356	957.97
608.556	1020.35
608.756	985.29
608.956	935.69
609.156	1012.8
609.356	947.31
609.556	948.47
609.755	967.27
609.955	932.2
610.155	953.32
610.355	967.65
610.555	954.87
610.755	985.87
610.954	903.52
611.154	954.48
611.354	1005.24
611.554	915.54
611.753	948.67
611.953	889.96
612.153	968.43
612.352	956.8
612.552	913.41
612.752	878.34
612.951	926.39
613.151	928.9
613.351	941.5
613.55	939.56
613.75	892.09
613.949	930.84
614.149	937.62
614.348	910.69
614.548	916.7
614.747	849.86
614.947	881.82
615.146	838.62
615.346	943.44
615.545	925.42
615.745	921.93
615.944	939.75
616.144	903.33
616.343	934.91
616.542	883.37
616.742	902.94
616.941	881.82
617.14	836.88
617.34	881.82
617.539	868.84
617.738	847.92
617.938	952.93
618.137	897.52
618.336	869.04
618.535	927.74
618.734	873.88
618.934	885.7
619.133	879.5
619.332	899.26
619.531	865.94
619.73	870.97
619.929	920.57
620.128	893.26
620.328	934.91
620.527	870.39
620.726	861.67
620.925	908.95
621.124	873.11
621.323	849.86
621.522	859.54
621.721	861.67
621.92	835.33
622.119	919.41
622.318	852.37
622.517	874.27
622.715	835.71
622.914	818.86
623.113	865.36
623.312	782.82
623.511	888.02
623.71	820.99
623.909	826.61
624.107	932.78
624.306	802.19
624.505	815.18
624.704	816.53
624.902	804.71
625.101	858.96
625.3	863.81
625.499	797.54
625.697	815.56
625.896	797.35
626.095	848.5
626.293	768.29
626.492	806.65
626.69	858.77
626.889	827.96
627.088	859.93
627.286	781.08
627.485	802.58
627.683	811.69
627.882	830.68
628.08	757.44
628.279	794.44
628.477	862.06
628.676	777.98
628.874	806.26
629.073	770.42
629.271	737.68
629.469	787.86
629.668	775.46
629.866	781.46
630.065	755.69
630.263	796.58
630.461	776.04
630.66	789.02
630.858	821.57
631.056	844.24
631.254	838.23
631.453	734.96
631.651	806.26
631.849	783.79
632.047	833
632.245	793.28
632.444	820.21
632.642	829.9
632.84	842.49
633.038	782.04
633.236	767.51
633.434	735.74
633.632	758.79
633.83	771.39
634.028	818.47
634.227	812.27
634.425	840.94
634.623	793.86
634.821	825.06
635.019	844.82
635.216	748.14
635.414	812.27
635.612	799.09
635.81	803.94
636.008	892.09
636.206	803.55
636.404	800.64
636.602	765.96
636.8	779.33
636.997	842.88
637.195	816.53
637.393	795.41
637.591	843.66
637.789	766.35
637.986	766.93
638.184	806.46
638.382	832.61
638.58	827.38
638.777	862.45
638.975	784.18
639.173	769.26
639.37	791.34
639.568	816.53
639.765	836.29
639.963	751.04
640.161	845.59
640.358	797.16
640.556	759.76
640.753	735.74
640.951	750.85
641.148	814.01
641.346	759.96
641.543	776.81
641.741	823.7
641.938	734.38
642.136	764.8
642.333	735.35
642.531	832.81
642.728	827.38
642.925	780.88
643.123	769.45
643.32	771.97
643.517	770.03
643.715	772.55
643.912	751.24
644.109	773.52
644.306	748.72
644.504	727.8
644.701	783.98
644.898	805.88
645.095	698.15
645.293	756.28
645.49	770.81
645.687	740.78
645.884	797.16
646.081	687.88
646.278	703
646.475	709.97
646.672	717.72
646.87	723.53
647.067	748.14
647.264	730.7
647.461	683.81
647.658	671.22
647.855	731.67
648.052	732.45
648.249	638.48
648.446	703.38
648.642	656.69
648.839	698.93
649.036	670.83
649.233	633.05
649.43	653.98
649.627	637.7
649.824	664.05
650.021	665.41
650.217	632.67
650.414	644.1
650.611	701.64
650.808	678.2
651.004	681.68
651.201	702.22
651.398	697.38
651.595	671.03
651.791	678.39
651.988	734.19
652.185	663.66
652.381	702.03
652.578	643.52
652.775	706.87
652.971	660.18
653.168	699.51
653.364	683.23
653.561	610.77
653.757	675.48
653.954	691.95
654.15	642.16
654.347	740.78
654.543	673.93
654.74	612.9
654.936	627.24
655.133	650.49
655.329	669.28
655.525	629.95
655.722	679.55
655.918	650.88
656.115	664.05
656.311	572.02
656.507	568.54
656.704	525.52
656.9	581.71
657.096	573.77
657.292	562.34
657.489	646.23
657.685	648.36
657.881	596.63
658.077	600.7
658.273	616.39
658.47	675.1
658.666	623.37
658.862	656.69
659.058	602.83
659.254	668.12
659.45	606.32
659.646	676.06
659.842	642.55
660.038	658.05
660.234	609.03
660.43	652.23
660.626	721.4
660.822	684.98
661.018	684.59
661.214	642.93
661.41	603.22
661.606	676.26
661.802	660.18
661.998	648.17
662.194	622.2
662.39	641.58
662.586	679.16
662.781	670.25
662.977	672.58
663.173	660.76
663.369	647.39
663.564	663.28
663.76	666.96
663.956	629.76
664.152	670.45
664.347	590.82
664.543	639.45
664.739	619.3
664.934	557.1
665.13	573.19
665.326	644.68
665.521	617.94
665.717	581.71
665.912	593.14
666.108	573.77
666.304	599.92
666.499	590.82
666.695	562.34
666.89	614.26
667.086	646.42
667.281	628.6
667.477	668.31
667.672	610
667.867	619.3
668.063	617.75
668.258	600.89
668.454	614.45
668.649	686.53
668.844	604.57
669.04	659.98
669.235	618.52
669.43	571.64
669.626	553.23
669.821	575.12
670.016	568.54
670.211	606.51
670.407	580.55
670.602	630.15
670.797	590.23
670.992	622.59
671.187	576.28
671.382	672.19
671.578	616.97
671.773	619.49
671.968	573.57
672.163	582.87
672.358	624.14
672.553	576.87
672.748	587.33
672.943	684.2
673.138	586.17
673.333	617.94
673.528	560.59
673.723	608.45
673.918	573.77
674.113	555.36
674.308	670.06
674.503	601.28
674.698	632.86
674.892	615.42
675.087	615.81
675.282	615.62
675.477	572.41
675.672	616
675.867	593.14
676.061	572.99
676.256	560.98
676.451	561.56
676.646	575.9
676.84	548.97
677.035	528.04
677.23	561.95
677.424	604.96
677.619	616.2
677.814	613.1
678.008	631.5
678.203	533.27
678.397	532.69
678.592	558.07
678.787	607.28
678.981	560.4
679.176	587.13
679.37	582.68
679.565	563.3
679.759	562.72
679.954	611.74
680.148	642.55
680.342	612.13
680.537	601.08
680.731	566.02
680.926	584.62
681.12	606.9
681.314	540.83
681.509	550.71
681.703	595.47
681.897	591.2
682.092	570.86
682.286	552.07
682.48	625.5
682.674	603.6
682.869	563.69
683.063	560.01
683.257	633.05
683.451	537.54
683.645	592.75
683.839	574.54
684.034	570.09
684.228	615.42
684.422	516.03
684.616	528.82
684.81	604.77
685.004	574.93
685.198	596.82
685.392	616.2
685.586	531.34
685.78	598.57
685.974	583.45
686.168	606.12
686.362	639.06
686.556	535.6
686.75	534.63
686.944	546.64
687.138	539.09
687.331	470.11
687.525	456.55
687.719	411.02
687.913	475.34
688.107	455
688.301	466.24
688.494	498.2
688.688	460.04
688.882	412.57
689.076	432.33
689.269	463.91
689.463	522.62
689.657	485.42
689.85	473.02
690.044	512.15
690.238	508.28
690.431	480.19
690.625	479.22
690.818	524.94
691.012	528.43
691.205	541.99
691.399	487.16
691.593	547.03
691.786	595.85
691.98	596.24
692.173	600.89
692.366	604.96
692.56	585.78
692.753	647.2
692.947	565.44
693.14	643.9
693.333	644.87
693.527	563.5
693.72	607.28
693.914	594.5
694.107	601.67
694.3	619.3
694.493	590.62
694.687	665.6
694.88	612.32
695.073	704.55
695.266	656.69
695.46	615.81
695.653	717.53
695.846	690.6
696.039	593.33
696.232	659.4
696.425	716.17
696.618	715.2
696.812	659.6
697.005	765.19
697.198	810.72
697.391	743.68
697.584	753.37
697.777	816.92
697.97	766.35
698.163	806.07
698.356	797.74
698.549	875.04
698.742	839.39
698.935	786.31
699.127	811.88
699.32	773.91
699.513	801.81
699.706	846.37
699.899	837.65
700.092	825.64
700.285	825.83
700.477	781.66
700.67	850.24
700.863	850.82
701.056	935.69
701.248	889.57
701.441	917.47
701.634	829.71
701.826	969.79
702.019	835.91
702.212	936.07
702.404	885.89
702.597	838.42
702.79	894.61
702.982	934.72
703.175	989.16
703.367	970.75
703.56	972.3
703.752	1053.68
703.945	1038.95
704.137	983.74
704.33	1040.31
704.522	1009.12
704.715	1025.97
704.907	1053.1
705.1	1087.2
705.292	1109.28
705.484	1101.15
705.677	1131.18
705.869	1126.72
706.061	1128.85
706.254	1141.83
706.446	1107.35
706.638	1138.35
706.831	1204.99
707.023	1155.98
707.215	1266.8
707.407	1224.56
707.599	1222.43
707.792	1279.59
707.984	1248.78
708.176	1272.23
708.368	1232.51
708.56	1287.14
708.752	1258.66
708.944	1271.45
709.136	1312.91
709.329	1261.57
709.521	1392.74
709.713	1312.91
709.905	1364.25
710.097	1429.94
710.289	1342.94
710.481	1364.64
710.672	1377.62
710.864	1382.08
711.056	1428.39
711.248	1387.12
711.44	1412.3
711.632	1438.27
711.824	1481.67
712.016	1527.2
712.207	1469.27
712.399	1496
712.591	1541.34
712.783	1497.36
712.975	1538.05
713.166	1495.23
713.358	1501.04
713.55	1587.84
713.741	1573.7
713.933	1572.15
714.125	1589.2
714.316	1528.36
714.508	1636.66
714.7	1626.39
714.891	1616.32
715.083	1700.79
715.274	1622.33
715.466	1623.49
715.657	1649.64
715.849	1546.76
716.04	1632.59
716.232	1578.15
716.423	1643.06
716.615	1563.62
716.806	1534.37
716.998	1541.73
717.189	1503.37
717.381	1424.12
717.572	1409.98
717.763	1428.58
717.955	1383.63
718.146	1399.52
718.337	1312.33
718.528	1334.61
718.72	1264.28
718.911	1339.26
719.102	1287.72
719.293	1329.38
719.485	1317.37
719.676	1338.29
719.867	1254.79
720.058	1254.4
720.249	1303.42
720.44	1328.22
720.632	1342.17
720.823	1362.12
721.014	1485.35
721.205	1508.79
721.396	1577.38
721.587	1633.18
721.778	1637.24
721.969	1657.78
722.16	1720.75
722.351	1715.91
722.542	1781.78
722.733	1834.67
722.924	1726.76
723.115	1782.75
723.305	1786.82
723.496	1798.06
723.687	1693.63
723.878	1728.11
724.069	1709.13
724.26	1731.99
724.45	1694.59
724.641	1700.21
724.832	1690.91
725.023	1692.85
725.213	1597.53
725.404	1622.52
725.595	1658.36
725.785	1631.63
725.976	1730.05
726.167	1699.44
726.357	1701.57
726.548	1801.54
726.739	1712.03
726.929	1768.99
727.12	1803.09
727.31	1819.95
727.501	1759.89
727.691	1790.31
727.882	1786.43
728.072	1825.37
728.263	1846.69
728.453	1901.9
728.644	1889.7
728.834	1856.57
729.024	1831.77
729.215	1793.99
729.405	1872.45
729.596	1905.97
729.786	1943.75
729.976	1928.64
730.167	1966.42
730.357	1915.47
730.547	1931.16
730.737	1969.52
730.928	1981.15
731.118	2043.73
731.308	1959.64
731.498	2003.62
731.688	2021.83
731.879	2089.06
732.069	2136.92
732.259	2150.67
732.449	2144.28
732.639	2238.64
732.829	2229.34
733.019	2284.17
733.209	2321.17
733.399	2314.2
733.589	2388.21
733.779	2343.84
733.969	2363.22
734.159	2437.81
734.349	2496.32
734.539	2498.26
734.729	2496.13
734.919	2534.29
735.109	2533.71
735.299	2521.7
735.488	2556.96
735.678	2516.08
735.868	2574.79
736.058	2514.14
736.248	2495.16
736.437	2472.1
736.627	2463.58
736.817	2589.51
737.007	2586.99
737.196	2616.83
737.386	2621.09
737.576	2541.27
737.765	2648.8
737.955	2572.85
738.144	2705.37
738.334	2648.99
738.524	2625.94
738.713	2640.66
738.903	2662.75
739.092	2663.33
739.282	2692.97
739.471	2680.38
739.661	2708.47
739.85	2758.07
740.04	2692
740.229	2764.66
740.419	2786.55
740.608	2781.52
740.797	2730.17
740.987	2834.02
741.176	2786.75
741.365	2758.85
741.555	2727.07
741.744	2808.64
741.933	2792.95
742.123	2790.23
742.312	2830.15
742.501	2866.96
742.69	2846.23
742.88	2744.32
743.069	2871.22
743.258	2776.67
743.447	2929.15
743.636	2816.97
743.825	2852.23
744.014	2869.09
744.204	2907.84
744.393	2802.05
744.582	2926.25
744.771	2910.55
744.96	2844.29
745.149	2915.78
745.338	2865.41
745.527	2898.54
745.716	2881.49
745.905	2842.55
746.094	2902.03
746.283	2915.59
746.471	2921.21
746.66	2946.59
746.849	2907.26
747.038	2997.54
747.227	2868.7
747.416	2930.51
747.604	2895.05
747.793	2883.04
747.982	2905.51
748.171	2944.26
748.359	2935.54
748.548	2903.77
748.737	2930.9
748.926	2914.81
749.114	2823.37
749.303	2911.33
749.491	2891.37
749.68	2874.51
749.869	2925.86
750.057	2869.86
750.246	2873.74
750.434	2882.26
750.623	2857.46
750.811	2874.9
751	2911.91
751.188	2876.45
751.377	2877.61
751.565	2865.6
751.754	2873.16
751.942	2853.2
752.131	2915.01
752.319	2845.07
752.507	2798.76
752.696	2883.62
752.884	2894.47
753.072	2840.61
753.261	2919.27
753.449	2851.46
753.637	2864.25
753.825	2969.45
754.014	2871.61
754.202	2865.41
754.39	2951.63
754.578	2913.85
754.766	2855.91
754.955	2810.97
755.143	2927.41
755.331	2819.49
755.519	2835.77
755.707	2841.77
755.895	2817.36
756.083	2865.99
756.271	2757.69
756.459	2858.82
756.647	2836.35
756.835	2820.27
757.023	2841.38
757.211	2779.97
757.399	2811.74
757.587	2773.77
757.775	2703.24
757.963	2735.99
758.151	2752.45
758.339	2691.62
758.526	2715.25
758.714	2726.88
758.902	2657.71
759.09	2582.34
759.278	2438.58
759.465	2258.01
759.653	1986.38
759.841	1792.24
760.028	1544.83
760.216	1321.44
760.404	1284.62
760.591	1017.25
760.779	875.62
760.967	781.85
761.154	632.08
761.342	657.85
761.529	670.45
761.717	715.98
761.905	684.78
762.092	765.58
762.28	731.28
762.467	710.36
762.655	679.94
762.842	659.6
763.029	684.2
763.217	688.27
763.404	742.52
763.592	738.45
763.779	691.37
763.966	738.65
764.154	772.94
764.341	835.91
764.528	813.04
764.716	889.19
764.903	929.49
765.09	975.21
765.277	1007.95
765.465	1159.46
765.652	1213.52
765.839	1239.87
766.026	1330.54
766.213	1425.48
766.4	1491.35
766.588	1620.58
766.775	1618.65
766.962	1760.86
767.149	1742.84
767.336	1897.83
767.523	1848.82
767.71	1949.57
767.897	2060.78
768.084	2111.15
768.271	2173.15
768.458	2166.56
768.645	2258.01
768.832	2228.17
769.019	2250.07
769.206	2289.2
769.392	2359.73
769.579	2404.68
769.766	2381.62
769.953	2411.26
770.14	2451.18
770.327	2426.57
770.513	2477.33
770.7	2516.28
770.887	2436.06
771.073	2445.75
771.26	2489.54
771.447	2428.7
771.634	2421.92
771.82	2522.48
772.007	2416.69
772.193	2476.95
772.38	2520.34
772.567	2460.67
772.753	2479.66
772.94	2513.37
773.126	2533.71
773.313	2526.35
773.499	2486.05
773.686	2475.78
773.872	2448.85
774.059	2472.68
774.245	2432
774.432	2473.07
774.618	2407.39
774.804	2464.55
774.991	2396.15
775.177	2470.55
775.363	2433.16
775.55	2461.83
775.736	2390.73
775.922	2436.26
776.109	2423.08
776.295	2430.45
776.481	2444.59
776.667	2467.06
776.853	2398.67
777.04	2410.68
777.226	2408.55
777.412	2489.15
777.598	2370.97
777.784	2379.49
777.97	2387.82
778.156	2397.32
778.342	2377.36
778.528	2383.37
778.715	2315.17
778.901	2350.62
779.087	2382.2
779.272	2361.86
779.458	2325.05
779.644	2361.67
779.83	2349.07
780.016	2421.92
780.202	2331.63
780.388	2319.43
780.574	2293.85
780.76	2325.24
780.946	2367.28
781.131	2339.97
781.317	2323.11
781.503	2301.99
781.689	2282.62
781.874	2402.16
782.06	2319.04
782.246	2305.29
782.432	2290.37
782.617	2295.79
782.803	2341.71
782.989	2215
783.174	2276.22
783.36	2215.19
783.545	2281.65
783.731	2252.59
783.916	2185.94
784.102	2264.99
784.288	2218.68
784.473	2248.13
784.659	2181.09
784.844	2243.48
785.029	2171.79
785.215	2229.34
785.4	2137.31
785.586	2255.1
785.771	2175.86
785.956	2230.89
786.142	2178.96
786.327	2161.33
786.512	2170.24
786.698	2136.73
786.883	2113.48
787.068	2141.57
787.254	2122.58
787.439	2146.99
787.624	2126.65
787.809	2109.21
787.994	2096.23
788.18	2158.04
788.365	2076.08
788.55	2062.13
788.735	2078.41
788.92	2097.98
789.105	2053.8
789.29	2125.29
789.475	2054.58
789.66	2140.99
789.845	2045.28
790.03	2133.04
790.215	2149.32
790.4	2124.13
790.585	2345.39
790.77	2053.03
790.955	1963.32
791.14	2025.51
791.325	2102.82
791.51	1945.88
791.695	1998.97
791.879	2023.38
792.064	1965.84
792.249	2050.7
792.434	2012.15
792.618	1989.09
792.803	2016.8
792.988	2006.72
793.173	1995.1
793.357	2021.25
793.542	1942.98
793.727	2008.08
793.911	2033.46
794.096	1972.23
794.281	2057.48
794.465	2095.07
794.65	1994.51
794.834	2037.72
795.019	2061.55
795.203	2058.65
795.388	2081.89
795.572	2057.29
795.757	2023.38
795.941	2049.54
796.126	2059.03
796.31	2000.91
796.494	2035.2
796.679	2035.2
796.863	1985.41
797.048	2027.06
797.232	2024.93
797.416	2028.81
797.601	2006.33
797.785	2088.48
797.969	2081.51
798.153	2001.3
798.338	2086.54
798.522	2111.93
798.706	2059.42
798.89	2085.19
799.074	2168.31
799.258	2104.37
799.443	2037.91
799.627	2062.33
799.811	2117.35
799.995	2066.78
800.179	2024.16
800.363	2056.9
800.547	2053.8
800.731	2128.39
800.915	1998.39
801.099	2033.65
801.283	2043.53
801.467	2023.58
801.651	2028.03
801.835	2061.94
802.019	2016.99
802.202	2083.64
802.386	1986.76
802.57	2019.51
802.754	2041.79
802.938	2006.33
803.121	1977.27
803.305	2056.9
803.489	2020.09
803.673	2020.67
803.856	2053.22
804.04	2068.33
804.224	2054
804.407	2023.96
804.591	2030.36
804.775	2042.56
804.958	2046.83
805.142	2136.73
805.326	2051.86
805.509	2068.91
805.693	2097.78
805.876	2075.31
806.06	2075.5
806.243	2052.83
806.427	2097.98
806.61	2119.48
806.794	2060.39
806.977	2117.54
807.16	2031.33
807.344	2061.94
807.527	2020.67
807.71	2064.26
807.894	2074.14
808.077	2117.16
808.26	2044.89
808.444	2010.98
808.627	2120.84
808.81	2023
808.993	1981.34
809.177	1979.98
809.36	2005.36
809.543	2032.1
809.726	1925.73
809.909	1911.4
810.092	1905.78
810.276	1923.6
810.459	1943.56
810.642	1893.96
810.825	1892.02
811.008	1901.71
811.191	1836.22
811.374	1833.7
811.557	1885.24
811.74	1947.24
811.923	1813.75
812.106	1796.89
812.289	1770.93
812.472	1808.52
812.654	1834.29
812.837	1764.15
813.02	1732.37
813.203	1708.35
813.386	1618.45
813.569	1604.7
813.751	1574.47
813.934	1636.28
814.117	1589.2
814.3	1534.37
814.482	1519.83
814.665	1476.63
814.848	1472.75
815.03	1400.49
815.213	1414.05
815.396	1425.48
815.578	1399.52
815.761	1374.33
815.943	1435.94
816.126	1352.82
816.309	1301.67
816.491	1227.86
816.674	1206.93
816.856	1255.37
817.039	1280.56
817.221	1337.32
817.403	1280.36
817.586	1295.67
817.768	1267.38
817.951	1207.51
818.133	1212.94
818.315	1259.24
818.498	1289.08
818.68	1387.5
818.862	1328.41
819.045	1352.05
819.227	1315.04
819.409	1266.41
819.591	1311.17
819.774	1293.73
819.956	1262.54
820.138	1336.74
820.32	1305.74
820.502	1363.67
820.684	1404.55
820.866	1422.38
821.048	1467.91
821.231	1472.75
821.413	1446.02
821.595	1455.51
821.777	1484.77
821.959	1454.35
822.141	1500.65
822.323	1393.12
822.505	1390.99
822.686	1294.89
822.868	1261.57
823.05	1156.17
823.232	1184.26
823.414	1148.61
823.596	1196.08
823.778	1134.66
823.96	1149
824.141	1169.54
824.323	1157.53
824.505	1250.14
824.687	1325.31
824.868	1300.51
825.05	1418.31
825.232	1434.97
825.413	1488.83
825.595	1444.27
825.777	1398.16
825.958	1421.22
826.14	1391.77
826.321	1462.68
826.503	1388.67
826.685	1436.14
826.866	1465.78
827.048	1451.63
827.229	1418.5
827.411	1366.97
827.592	1374.52
827.773	1332.29
827.955	1286.95
828.136	1280.94
828.318	1257.5
828.499	1301.67
828.68	1277.26
828.862	1293.92
829.043	1296.64
829.224	1306.71
829.406	1238.13
829.587	1265.25
829.768	1247.81
829.949	1278.62
830.131	1290.63
830.312	1337.52
830.493	1253.63
830.674	1292.96
830.855	1283.85
831.036	1271.26
831.218	1349.92
831.399	1369.1
831.58	1290.05
831.761	1308.46
831.942	1291.79
832.123	1280.17
832.304	1207.51
832.485	1266.03
832.666	1282.11
832.847	1324.92
833.028	1305.55
833.209	1312.52
833.389	1254.79
833.57	1230.38
833.751	1260.99
833.932	1297.99
834.113	1281.72
834.294	1270.87
834.475	1291.79
834.655	1330.74
834.836	1325.51
835.017	1335.58
835.198	1245.49
835.378	1262.93
835.559	1325.51
835.74	1261.76
835.92	1271.64
836.101	1309.62
836.281	1341.01
836.462	1325.12
836.643	1310.2
836.823	1314.85
837.004	1375.3
837.184	1393.32
837.365	1348.95
837.545	1340.81
837.726	1343.52
837.906	1385.57
838.087	1341.39
838.267	1327.83
838.448	1323.37
838.628	1351.47
838.808	1340.81
838.989	1384.99
839.169	1305.16
839.349	1355.73
839.53	1384.6
839.71	1366.39
839.89	1311.56
840.07	1386.54
840.251	1336.36
840.431	1345.07
840.611	1331.71
840.791	1284.43
840.971	1358.06
841.151	1310.78
841.332	1324.92
841.512	1365.22
841.692	1270.87
841.872	1348.76
842.052	1345.66
842.232	1335.58
842.412	1270.09
842.592	1327.64
842.772	1318.53
842.952	1314.46
843.132	1275.13
843.312	1285.98
843.492	1273.78
843.672	1354.37
843.851	1246.65
844.031	1325.7
844.211	1258.86
844.391	1267.38
844.571	1295.67
844.751	1295.09
844.93	1332.87
845.11	1256.34
845.29	1297.22
845.47	1321.63
845.649	1291.21
845.829	1290.24
846.009	1256.92
846.188	1310.59
846.368	1288.11
846.547	1309.23
846.727	1305.16
846.907	1242.97
847.086	1299.54
847.266	1309.04
847.445	1281.14
847.625	1250.33
847.804	1230.96
847.984	1277.65
848.163	1203.44
848.343	1275.52
848.522	1277.46
848.701	1280.94
848.881	1223.01
849.06	1238.32
849.239	1276.29
849.419	1276.49
849.598	1189.3
849.777	1209.06
849.957	1212.16
850.136	1150.94
850.315	1110.45
850.494	1116.45
850.674	1135.83
850.853	1222.04
851.032	1124.2
851.211	1203.25
851.39	1182.13
851.569	1106.38
851.748	1148.42
851.927	1218.36
852.107	1185.04
852.286	1116.45
852.465	1109.28
852.644	1155.98
852.823	1175.93
853.002	1176.9
853.181	1168.38
853.359	1175.74
853.538	1109.67
853.717	1196.47
853.896	1090.1
854.075	1041.28
854.254	1001.17
854.433	978.5
854.611	1047.87
854.79	997.1
854.969	1009.5
855.148	1038.18
855.327	978.5
855.505	1052.9
855.684	1008.92
855.863	1031.78
856.041	1025.78
856.22	1079.83
856.399	1018.61
856.577	1136.99
856.756	1120.13
856.934	1236.38
857.113	1206.74
857.291	1089.13
857.47	1087.2
857.648	1111.22
857.827	1096.69
858.005	1143.38
858.184	1096.3
858.362	1194.73
858.541	1153.65
858.719	1084.48
858.898	1072.67
859.076	1080.8
859.254	1175.35
859.433	1086.62
859.611	1061.23
859.789	1036.43
859.967	1128.08
860.146	1138.15
860.324	1030.04
860.502	1076.15
860.68	1021.13
860.859	1047.48
861.037	1099.02
861.215	1087.78
861.393	1084.68
861.571	1048.83
861.749	1043.41
861.927	1084.29
862.105	1091.07
862.283	1054.84
862.461	1037.21
862.639	1006.99
862.817	1023.84
862.995	1013.77
863.173	1030.23
863.351	1059.49
863.529	1065.11
863.707	1089.13
863.885	1069.95
864.063	989.55
864.241	1003.89
864.418	1104.05
864.596	999.04
864.774	990.9
864.952	998.65
865.129	1054.45
865.307	995.17
865.485	931.42
865.663	1038.37
865.84	985.48
866.018	984.7
866.196	867.1
866.373	925.22
866.551	850.63
866.728	808.01
866.906	868.26
867.084	886.28
867.261	948.67
867.439	908.56
867.616	950.22
867.794	935.1
867.971	926.97
868.149	940.92
868.326	980.05
868.503	974.82
868.681	940.72
868.858	928.9
869.035	908.37
869.213	941.69
869.39	945.37
869.567	1010.86
869.745	953.7
869.922	932.97
870.099	930.45
870.276	934.52
870.454	970.37
870.631	974.82
870.808	918.83
870.985	968.43
871.162	1009.89
871.339	946.73
871.517	901.39
871.694	918.83
871.871	925.61
872.048	931.23
872.225	912.63
872.402	942.66
872.579	880.27
872.756	924.26
872.933	849.27
873.11	865.16
873.287	911.66
873.463	884.54
873.64	855.67
873.817	902.17
873.994	910.5
874.171	876.79
874.348	928.71
874.524	855.86
874.701	914.76
874.878	824.67
875.055	889.19
875.231	847.14
875.408	884.73
875.585	826.99
875.762	894.22
875.938	838.23
876.115	860.32
876.291	845.21
876.468	851.21
876.645	820.41
876.821	866.52
876.998	836.68
877.174	877.95
877.351	848.31
877.527	834.94
877.704	866.71
877.88	832.42
878.057	824.48
878.233	889.19
878.409	823.12
878.586	832.03
878.762	806.65
878.938	821.96
879.115	774.88
879.291	819.24
879.467	771.39
879.644	793.86
879.82	811.11
879.996	759.96
880.172	759.76
880.349	801.61
880.525	838.23
880.701	750.66
880.877	768.68
881.053	812.85
881.229	813.82
881.405	854.31
881.581	768.87
881.757	787.08
881.933	791.73
882.109	833.58
882.285	780.88
882.461	745.04
882.637	778.17
882.813	743.3
882.989	791.15
883.165	820.6
883.341	759.38
883.517	825.06
883.693	811.11
883.869	806.65
884.044	760.34
884.22	823.31
884.396	852.18
884.572	820.21
884.747	814.21
884.923	803.55
885.099	831.64
885.275	849.08
885.45	755.11
885.626	780.11
885.801	744.26
885.977	782.82
886.153	751.04
886.328	798.9
886.504	732.45
886.679	803.74
886.855	748.72
887.03	794.64
887.206	805.49
887.381	811.3
887.557	802
887.732	816.53
887.908	821.57
888.083	808.59
888.258	772.55
888.434	776.43
888.609	780.69
888.784	805.49
888.96	757.83
889.135	737.48
889.31	749.5
889.485	782.82
889.661	774.1
889.836	841.91
890.011	804.91
890.186	770.81
890.361	754.14
890.537	789.79
890.712	774.88
890.887	779.14
891.062	781.08
891.237	860.51
891.412	759.57
891.587	769.06
891.762	796.58
891.937	832.03
892.112	787.28
892.287	765.58
892.462	705.32
892.637	694.47
892.812	711.52
892.987	702.8
893.161	695.83
893.336	702.8
893.511	735.74
893.686	756.28
893.861	715.01
894.035	702.8
894.21	711.33
894.385	691.37
894.56	705.51
894.734	631.12
894.909	657.85
895.084	639.45
895.258	662.89
895.433	671.22
895.608	625.5
895.782	596.82
895.957	622.01
896.131	611.93
896.306	554.97
896.48	564.47
896.655	572.99
896.829	492.39
897.004	518.35
897.178	524.55
897.353	496.07
897.527	561.95
897.701	524.17
897.876	494.52
898.05	576.67
898.224	527.07
898.399	581.32
898.573	527.46
898.747	443.57
898.921	504.79
899.096	413.92
899.27	445.12
899.444	424.39
899.618	475.34
899.792	461.2
899.967	462.75
900.141	491.42
900.315	414.89
900.489	448.22
900.663	502.08
900.837	455.39
901.011	414.7
901.185	525.72
901.359	458.68
901.533	464.3
901.707	477.47
901.881	484.45
902.055	423.81
902.229	449.19
902.403	515.84
902.576	464.11
902.75	457.13
902.924	573.57
903.098	527.85
903.272	538.12
903.446	564.08
903.619	540.05
903.793	568.15
903.967	550.13
904.14	600.89
904.314	588.88
904.488	561.37
904.661	583.84
904.835	575.32
905.009	642.16
905.182	666.76
905.356	602.25
905.529	573.77
905.703	539.67
905.876	538.5
906.05	541.8
906.223	517.39
906.397	473.21
906.57	468.76
906.744	468.17
906.917	475.34
907.09	468.95
907.264	469.14
907.437	438.92
907.61	396.68
907.784	430.59
907.957	446.47
908.13	409.08
908.304	468.95
908.477	389.9
908.65	446.47
908.823	399.78
908.996	438.34
909.17	405.21
909.343	389.32
909.516	413.92
909.689	419.54
909.862	378.47
910.035	397.46
910.208	377.69
910.381	372.66
910.554	489.87
910.727	392.03
910.9	414.12
911.073	376.53
911.246	456.16
911.419	424.97
911.592	419.16
911.765	373.04
911.938	393.78
912.11	413.15
912.283	446.86
912.456	456.36
912.629	406.76
912.802	377.89
912.974	335.46
913.147	308.91
913.32	284.5
913.493	310.08
913.665	342.63
913.838	354.06
914.01	338.36
914.183	363.16
914.356	325.38
914.528	370.14
914.701	413.54
914.873	402.49
915.046	345.14
915.218	330.23
915.391	265.13
915.563	303.3
915.736	353.67
915.908	369.17
916.081	346.31
916.253	328.09
916.425	365.29
916.598	374.4
916.77	327.9
916.942	339.72
917.115	259.7
917.287	361.03
917.459	335.26
917.632	308.72
917.804	238.78
917.976	291.86
918.148	338.36
918.32	325.96
918.493	374.4
918.665	394.94
918.837	326.93
919.009	408.89
919.181	385.06
919.353	353.86
919.525	363.36
919.697	368.39
919.869	353.09
920.041	414.7
920.213	467.4
920.385	378.08
920.557	360.64
920.729	395.71
920.901	368.2
921.073	354.44
921.244	381.96
921.416	412.18
921.588	366.46
921.76	368.2
921.932	421.48
922.103	365.49
922.275	344.18
922.447	363.55
922.619	287.8
922.79	351.93
922.962	338.94
923.134	373.82
923.305	326.54
923.477	285.66
923.648	284.89
923.82	326.93
923.991	284.31
924.163	269.97
924.335	302.52
924.506	278.3
924.677	336.62
924.849	274.81
925.02	326.54
925.192	357.54
925.363	311.63
925.535	319.57
925.706	286.44
925.877	333.13
926.049	275.98
926.22	303.3
926.391	324.61
926.562	341.85
926.734	286.25
926.905	348.83
927.076	298.26
927.247	295.55
927.419	252.92
927.59	252.34
927.761	243.62
927.932	246.33
928.103	260.86
928.274	211.07
928.445	230.64
928.616	249.43
928.787	242.85
928.958	259.7
929.129	238.78
929.3	220.18
929.471	198.67
929.642	153.72
929.813	123.89
929.984	222.31
930.155	106.25
930.326	179.88
930.496	130.67
930.667	101.02
930.838	144.03
931.009	85.72
931.18	128.92
931.35	113.04
931.521	140.74
931.692	76.8
931.863	73.7
932.033	122.53
932.204	91.72
932.374	104.51
932.545	58.2
932.716	143.45
932.886	111.1
933.057	28.95
933.227	29.72
933.398	149.07
933.568	47.55
933.739	14.42
933.909	12.29
934.08	83.2
934.25	-10.58
934.421	12.67
934.591	71.96
934.761	4.73
934.932	-3.02
935.102	57.82
935.272	21.39
935.443	44.45
935.613	18.49
935.783	43.87
935.953	3.76
936.123	171.93
936.294	-7.28
936.464	26.24
936.634	14.81
936.804	-4.76
936.974	-6.7
937.144	51.62
937.314	22.17
937.484	0.66
937.655	14.42
937.825	68.28
937.995	35.15
938.165	54.72
938.334	46.97
938.504	71.19
938.674	40.96
938.844	19.65
939.014	83.39
939.184	67.31
939.354	131.64
939.524	96.57
939.694	45.42
939.863	48.13
940.033	121.75
940.203	147.33
940.373	97.15
940.542	116.52
940.712	79.52
940.882	110.9
941.051	116.91
941.221	91.53
941.391	89.2
941.56	36.89
941.73	40.77
941.899	149.27
942.069	58.59
942.238	118.27
942.408	52.97
942.577	104.51
942.747	88.24
942.916	7.44
943.086	19.07
943.255	89.59
943.425	61.5
943.594	60.34
943.763	-1.86
943.933	12.09
944.102	-12.9
944.271	68.09
944.441	65.18
944.61	13.84
944.779	59.75
944.948	134.15
945.117	24.49
945.287	20.81
945.456	-26.27
945.625	44.64
945.794	80.29
945.963	40.38
946.132	75.84
946.301	42.51
946.47	71.96
946.639	25.46
946.808	6.47
946.977	69.25
947.146	98.7
947.315	46
947.484	83
947.653	54.14
947.822	14.42
947.991	40.19
948.16	118.65
948.329	90.75
948.498	35.15
948.666	53.94
948.835	73.51
949.004	2.6
949.173	41.16
949.341	74.87
949.51	73.9
949.679	107.42
949.847	96.37
950.016	152.95
950.185	101.02
950.353	48.91
950.522	31.08
950.69	93.85
950.859	25.27
951.028	100.44
951.196	77.77
951.365	58.2
951.533	43.67
951.701	78.55
951.87	96.37
952.038	12.09
952.207	61.3
952.375	120.2
952.543	41.74
952.712	50.07
952.88	31.08
953.048	111.49
953.217	41.54
953.385	59.75
953.553	128.54
953.721	22.17
953.89	61.89
954.058	35.54
954.226	13.45
954.394	61.5
954.562	-3.02
954.73	40.77
954.898	59.56
955.067	86.88
955.235	15.39
955.403	83.78
955.571	120.01
955.739	75.84
955.907	55.69
956.075	18.49
956.243	24.69
956.41	78.35
956.578	17.13
956.746	19.46
956.914	37.67
957.082	60.92
957.25	80.29
957.418	35.34
957.585	40.96
957.753	88.43
957.921	31.27
958.089	48.13
958.256	83.2
958.424	75.45
958.592	71.77
958.759	21.01
958.927	93.66
959.095	45.61
959.262	51.42
959.43	63.24
959.597	17.71
959.765	36.12
959.932	15.97
960.1	94.82
960.267	46.77
960.435	73.51
960.602	86.49
960.77	42.71
960.937	26.43
961.104	61.69
961.272	-5.15
961.439	22.94
961.606	59.17
961.774	89.4
961.941	15.77
962.108	63.24
962.275	89.59
962.443	102.19
962.61	75.25
962.777	123.5
962.944	94.44
963.111	66.54
963.278	68.28
963.446	75.45
963.613	60.14
963.78	78.74
963.947	102.57
964.114	78.55
964.281	150.23
964.448	85.52
964.615	33.6
964.782	60.53
964.949	127.37
965.116	83.78
965.282	126.21
965.449	56.27
965.616	28.95
965.783	94.82
965.95	109.94
966.117	37.28
966.283	63.24
966.45	74.29
966.617	67.5
966.784	102.19
966.95	91.34
967.117	98.12
967.284	41.74
967.45	34.18
967.617	124.47
967.784	82.04
967.95	148.3
968.117	59.37
968.283	118.65
968.45	166.51
968.616	112.84
968.783	131.64
968.949	102.96
969.116	114.59
969.282	78.94
969.449	105.09
969.615	92.89
969.781	51.04
969.948	58.4
970.114	25.66
970.28	136.87
970.447	61.89
970.613	129.12
970.779	70.6
970.945	101.6
971.112	91.72
971.278	79.13
971.444	86.1
971.61	127.76
971.776	69.83
971.942	81.65
972.108	99.67
972.275	72.54
972.441	91.34
972.607	151.98
972.773	58.79
972.939	92.3
973.105	75.84
973.271	54.72
973.437	70.22
973.602	50.65
973.768	83.59
973.934	65.76
974.1	97.34
974.266	-0.31
974.432	108.97
974.598	55.3
974.763	110.71
974.929	46.97
975.095	151.59
975.261	22.94
975.426	57.04
975.592	68.86
975.758	148.3
975.923	15.58
976.089	28.76
976.255	108.58
976.42	104.12
976.586	90.56
976.751	70.8
976.917	142.48
977.082	88.04
977.248	12.87
977.413	-11.74
977.579	62.66
977.744	82.04
977.91	38.25
978.075	29.34
978.24	93.66
978.406	53.75
978.571	53.55
978.736	25.46
978.902	102.57
979.067	44.64
979.232	-10.58
979.397	80.87
979.563	81.84
979.728	50.65
979.893	59.95
980.058	54.14
980.223	81.26
980.388	91.72
980.554	89.2
980.719	60.34
980.884	71.19
981.049	108.97
981.214	51.04
981.379	79.32
981.544	32.63
981.709	67.12
981.874	53.94
982.039	79.52
982.204	104.51
982.368	43.48
982.533	42.71
982.698	83.78
982.863	111.68
983.028	58.59
983.193	68.67
983.357	66.34
983.522	65.57
983.687	46.77
983.852	50.07
984.016	70.99
984.181	77.39
984.346	68.28
984.51	80.68
984.675	63.63
984.839	96.57
985.004	71.77
985.168	119.04
985.333	85.14
985.498	42.9
985.662	95.02
985.827	101.8
985.991	67.12
986.155	48.52
986.32	69.64
986.484	128.73
986.649	84.17
986.813	42.71
986.977	89.59
987.142	84.94
987.306	39.8
987.47	40.77
987.634	70.22
987.799	68.67
987.963	75.25
988.127	105.09
988.291	153.72
988.455	62.47
988.62	34.96
988.784	112.84
988.948	88.24
989.112	42.51
989.276	75.64
989.44	61.3
989.604	48.71
989.768	60.92
989.932	138.42
990.096	28.76
990.26	2.41
990.424	33.21
990.588	67.89
990.752	126.02
990.915	92.11
991.079	46.58
991.243	46.19
991.407	108.39
991.571	55.88
991.734	81.45
991.898	90.56
992.062	137.64
992.226	72.54
992.389	38.64
992.553	17.32
992.717	38.25
992.88	70.22
993.044	69.64
993.207	43.87
993.371	66.34
993.535	84.17
993.698	54.91
993.862	86.49
994.025	116.14
994.189	60.14
994.352	46.19
994.515	59.37
994.679	58.98
994.842	49.68
995.006	78.35
995.169	33.02
995.332	22.17
995.496	78.35
995.659	7.06
995.822	65.18
995.985	47.36
996.149	110.32
996.312	49.1
996.475	131.25
996.638	40.38
996.801	99.47
996.964	104.32
997.128	63.82
997.291	39.41
997.454	52.78
997.617	-0.5
997.78	80.1
997.943	49.68
998.106	102.57
998.269	33.79
998.432	69.05
998.595	41.93
998.758	-7.28
998.92	14.42
999.083	10.54
999.246	64.02
999.409	6.28
999.572	-15.03
999.735	7.25
999.897	57.62
1000.06	16.55
1000.223	18.49
1000.386	67.12
1000.548	87.46
1000.711	62.27
1000.874	79.13
1001.036	-28.21
1001.199	85.33
1001.361	16.74
1001.524	50.46
1001.687	78.74
1001.849	33.6
1002.012	45.42
1002.174	66.92
1002.337	105.48
1002.499	32.63
1002.661	86.88
1002.824	12.48
1002.986	6.28
1003.149	58.98
1003.311	23.52
1003.473	99.09
1003.636	3.76
1003.798	68.28
1003.96	66.15
1004.123	53.17
1004.285	18.68
1004.447	49.68
1004.609	35.54
1004.771	94.05
1004.933	-8.44
1005.096	15.97
1005.258	10.16
1005.42	12.67
1005.582	74.09
1005.744	48.32
1005.906	15
1006.068	48.52
1006.23	-18.33
1006.392	-13.48
1006.554	-2.24
1006.716	68.28
1006.878	55.3
1007.04	12.29
1007.202	23.52
1007.363	42.12
1007.525	48.13
1007.687	32.44
1007.849	87.65
1008.011	-1.28
1008.172	-14.84
1008.334	39.02
1008.496	35.34
1008.658	-10.58
1008.819	20.81
1008.981	15
1009.143	3.57
1009.304	11.9
1009.466	45.42
1009.627	107.03
1009.789	155.85
1009.95	51.81
1010.112	12.87
1010.273	52.59
1010.435	49.49
1010.596	25.46
1010.758	20.42
1010.919	-0.69
1011.081	-4.38
1011.242	4.34
1011.403	44.06
1011.565	20.81
1011.726	50.84
1011.887	0.27
1012.049	23.91
1012.21	81.07
1012.371	84.94
1012.532	-33.83
1012.693	32.05
1012.855	18.68
1013.016	30.5
1013.177	60.14
1013.338	23.52
1013.499	101.8
1013.66	27.98
1013.821	42.51
1013.982	15.58
1014.143	49.87
1014.304	14.81
1014.465	37.86
1014.626	59.37
1014.787	20.81
1014.948	109.16
1015.109	-38.28
1015.27	51.23
1015.431	0.08
1015.592	-6.89
1015.752	58.59
1015.913	33.6
1016.074	35.34
1016.235	9.57
1016.395	19.84
1016.556	30.31
1016.717	33.6
1016.877	60.72
1017.038	18.29
1017.199	54.33
1017.359	33.02
1017.52	58.01
1017.681	-0.5
1017.841	15
1018.002	29.34
1018.162	11.9
1018.323	66.15
1018.483	4.73
1018.644	20.62
1018.804	10.74
1018.964	4.92
1019.125	19.07
1019.285	2.41
1019.446	-14.84
1019.606	-9.22
1019.766	-55.14
1019.926	55.3
1020.087	31.86
1020.247	-17.74
1020.407	23.14
1020.567	55.88
1020.728	15
1020.888	-10.96
1021.048	10.74
1021.208	-11.74
1021.368	-2.83
1021.528	75.64
1021.688	51.23
1021.848	49.29
1022.008	9.57
1022.168	6.47
1022.328	9.38
1022.488	35.15
1022.648	5.51
1022.808	18.87
1022.968	30.69
1023.128	-11.54
1023.288	3.37
1023.448	15.19
1023.608	38.44
1023.767	50.65
1023.927	-3.79
1024.087	-4.96
1024.247	-10.96
1024.406	19.07
1024.566	-0.89
1024.726	1.24
1024.885	2.41
1025.045	52.2
1025.205	-12.13
1025.364	-1.66
1025.524	27.4
1025.683	6.86
1025.843	42.32
1026.003	36.89
1026.162	85.91
1026.321	78.55
1026.481	34.76
1026.64	9.38
1026.8	38.44
1026.959	43.87
1027.119	21.01
1027.278	19.84
1027.437	-20.84
1027.597	15.97
1027.756	37.28
1027.915	50.07
1028.074	28.17
1028.234	-2.83
1028.393	30.31
1028.552	4.73
1028.711	-56.3
1028.87	47.94
1029.03	-8.83
1029.189	2.79
1029.348	-48.55
1029.507	6.47
1029.666	-1.08
1029.825	-37.7
1029.984	7.25
1030.143	21.97
1030.302	-12.9
1030.461	-9.03
1030.62	21.39
1030.779	35.34
1030.938	-18.13
1031.097	3.96
1031.255	28.76
1031.414	53.94
1031.573	27.01
1031.732	-44.29
1031.891	-4.96
1032.049	56.46
1032.208	7.44
1032.367	-24.53
1032.525	3.96
1032.684	-9.41
1032.843	2.02
1033.001	-50.49
1033.16	163.6
1033.319	36.51
1033.477	22.56
1033.636	10.74
1033.794	-32.08
1033.953	53.17
1034.111	18.87
1034.27	-5.93
1034.428	36.31
1034.587	-6.51
1034.745	26.43
1034.903	10.16
1035.062	32.05
1035.22	-33.44
1035.378	26.43
1035.537	13.64
1035.695	38.64
1035.853	-12.51
1036.011	36.31
1036.17	28.56
1036.328	-63.66
1036.486	20.81
1036.644	43.29
1036.802	-70.06
1036.96	14.61
1037.119	19.65
1037.277	-7.28
1037.435	-44.48
1037.593	-28.59
1037.751	40.19
1037.909	40.19
1038.067	40.19
