Data from pine_FLMT105791__153__17-23-07-074.txt Node

Date: Mon Mar 20 17:23:07 GMT 2023
User: antho
Spectrometer: FLMT10579
Trigger mode: 0
Integration Time (sec): 1.000000E-1
Scans to average: 10
Electric dark correction enabled: true
Nonlinearity correction enabled: false
Boxcar width: 0
XAxis mode: Wavelengths
Number of Pixels in Spectrum: 3648
>>>>>Begin Spectral Data<<<<<
345.248	-145.34
345.464	-145.34
345.681	-145.34
345.898	-182.15
346.114	-164.33
346.331	-22.12
346.548	29.61
346.764	29.61
346.981	-23.09
347.197	-5.46
347.414	5.01
347.631	-38.39
347.847	49.57
348.064	9.66
348.28	26.12
348.497	-47.5
348.713	-13.01
348.93	2.29
349.146	16.05
349.363	-13.01
349.579	41.43
349.796	23.99
350.012	-14.37
350.229	32.9
350.445	-10.69
350.661	-12.63
350.878	6.17
351.094	6.36
351.311	36.39
351.527	24.77
351.743	-15.14
351.96	54.99
352.176	33.29
352.392	20.89
352.609	26.9
352.825	-20.76
353.041	-23.67
353.257	1.52
353.474	-6.23
353.69	-3.52
353.906	4.42
354.122	-12.24
354.339	69.52
354.555	5.01
354.771	-19.02
354.987	50.54
355.203	82.12
355.42	-5.84
355.636	-13.4
355.852	-12.63
356.068	0.74
356.284	-50.6
356.5	50.34
356.716	-7.59
356.932	-8.75
357.148	33.49
357.364	1.52
357.58	29.42
357.796	45.89
358.012	29.03
358.228	19.34
358.444	-56.03
358.66	45.3
358.876	16.63
359.092	-29.09
359.308	18.57
359.524	12.37
359.74	6.75
359.956	-42.46
360.172	5.2
360.388	35.04
360.604	11.98
360.819	89.29
361.035	14.11
361.251	57.7
361.467	-25.61
361.683	20.7
361.898	38.33
362.114	49.18
362.33	28.25
362.546	29.22
362.762	31.94
362.977	8.3
363.193	14.5
363.409	45.5
363.624	-31.61
363.84	-13.21
364.056	-10.69
364.271	16.44
364.487	8.49
364.703	1.13
364.918	-39.56
365.134	-18.05
365.35	3.07
365.565	92.77
365.781	23.8
365.996	25.35
366.212	72.43
366.427	-11.85
366.643	-13.79
366.858	16.05
367.074	-19.79
367.289	53.44
367.505	84.83
367.72	-4.29
367.936	-4.88
368.151	24.96
368.367	12.95
368.582	17.02
368.798	1.32
369.013	71.46
369.228	11.79
369.444	5.01
369.659	76.3
369.874	27.87
370.09	50.92
370.305	-67.84
370.52	-5.65
370.736	80.57
370.951	3.07
371.166	58.29
371.381	99.36
371.597	38.72
371.812	-27.54
372.027	-9.33
372.242	8.88
372.458	92.77
372.673	1.91
372.888	35.23
373.103	32.9
373.318	87.93
373.533	31.16
373.749	33.87
373.964	-49.24
374.179	58.87
374.394	-29.09
374.609	64.29
374.824	-13.59
375.039	60.22
375.254	0.36
375.469	65.84
375.684	43.56
375.899	63.32
376.114	8.49
376.329	11.79
376.544	73.98
376.759	37.55
376.974	3.26
377.189	-8.56
377.404	-2.16
377.619	73.79
377.834	-25.99
378.049	-38.98
378.264	-28.32
378.478	-6.62
378.693	-23.86
378.908	28.64
379.123	-1.97
379.338	50.15
379.553	32.32
379.767	7.33
379.982	35.42
380.197	28.06
380.412	21.47
380.626	47.63
380.841	73.4
381.056	20.7
381.271	68.55
381.485	-1.78
381.7	-18.83
381.915	39.69
382.129	-6.23
382.344	34.65
382.559	22.25
382.773	59.84
382.988	-20.96
383.202	45.89
383.417	-35.88
383.632	117.57
383.846	19.92
384.061	32.32
384.275	28.64
384.49	57.12
384.704	41.24
384.919	33.1
385.133	32.52
385.348	41.43
385.562	-11.46
385.777	62.94
385.991	25.35
386.206	-7.98
386.42	-10.69
386.634	41.43
386.849	17.4
387.063	33.87
387.277	-9.53
387.492	-3.91
387.706	-12.04
387.92	-2.55
388.135	59.84
388.349	15.47
388.563	7.14
388.778	12.95
388.992	42.59
389.206	40.07
389.42	101.69
389.635	18.57
389.849	27.87
390.063	69.72
390.277	22.25
390.491	92.19
390.706	36.78
390.92	60.61
391.134	7.91
391.348	38.72
391.562	-35.29
391.776	-1.78
391.99	-1.97
392.205	43.56
392.419	4.62
392.633	15.27
392.847	48.02
393.061	8.3
393.275	73.01
393.489	12.17
393.703	11.4
393.917	70.69
394.131	7.14
394.345	20.7
394.559	68.17
394.773	13.14
394.986	27.48
395.2	-1.78
395.414	35.04
395.628	-23.09
395.842	7.33
396.056	9.46
396.27	-22.89
396.484	12.95
396.697	17.6
396.911	73.2
397.125	56.15
397.339	55.38
397.553	16.24
397.766	106.14
397.98	60.22
398.194	65.07
398.408	11.01
398.621	43.95
398.835	38.14
399.049	27.29
399.262	61.19
399.476	76.3
399.69	27.09
399.903	95.68
400.117	48.02
400.331	31.74
400.544	3.84
400.758	124.93
400.971	34.45
401.185	56.93
401.398	-5.26
401.612	54.02
401.826	31.74
402.039	36.39
402.253	-11.46
402.466	57.12
402.68	23.99
402.893	43.95
403.106	36.39
403.32	28.45
403.533	30.97
403.747	40.85
403.96	57.32
404.174	62.74
404.387	-11.27
404.6	35.04
404.814	48.21
405.027	40.85
405.24	27.29
405.454	27.09
405.667	89.67
405.88	-11.85
406.094	29.61
406.307	48.79
406.52	65.65
406.733	-10.11
406.947	-29.68
407.16	98.39
407.373	84.64
407.586	2.49
407.799	14.31
408.012	69.33
408.226	65.84
408.439	65.45
408.652	18.95
408.865	45.11
409.078	79.79
409.291	24.77
409.504	-31.42
409.717	68.17
409.93	53.25
410.143	34.07
410.357	-6.81
410.57	-14.18
410.783	7.72
410.996	34.45
411.209	39.3
411.421	84.83
411.634	36
411.847	5.39
412.06	18.18
412.273	59.06
412.486	35.04
412.699	89.48
412.912	20.12
413.125	72.24
413.338	24.96
413.55	60.03
413.763	14.5
413.976	79.6
414.189	15.85
414.402	17.21
414.615	90.25
414.827	-1.78
415.04	56.93
415.253	45.5
415.466	92.39
415.678	119.7
415.891	44.34
416.104	44.34
416.316	24.96
416.529	32.52
416.742	58.67
416.954	68.17
417.167	38.72
417.38	29.61
417.592	85.22
417.805	10.24
418.017	-15.53
418.23	65.65
418.442	4.42
418.655	10.24
418.868	32.71
419.08	74.17
419.293	76.69
419.505	47.24
419.718	45.69
419.93	84.44
420.142	24.19
420.355	82.31
420.567	124.16
420.78	52.47
420.992	39.88
421.205	96.45
421.417	-13.01
421.629	21.67
421.842	14.5
422.054	-4.49
422.266	43.17
422.479	61.97
422.691	25.93
422.903	73.98
423.115	22.25
423.328	38.72
423.54	53.64
423.752	52.86
423.964	18.95
424.177	29.8
424.389	15.85
424.601	132.3
424.813	69.72
425.025	73.59
425.238	52.67
425.45	33.87
425.662	45.3
425.874	339.8
426.086	37.36
426.298	55.96
426.51	47.24
426.722	40.46
426.934	17.79
427.146	77.47
427.358	41.43
427.57	61.58
427.782	70.1
427.994	74.17
428.206	27.48
428.418	-2.16
428.63	69.52
428.842	67
429.054	39.49
429.266	65.84
429.478	31.16
429.69	48.6
429.902	23.99
430.114	64.29
430.325	55.96
430.537	48.6
430.749	43.56
430.961	5.78
431.173	67.59
431.384	60.22
431.596	4.23
431.808	31.55
432.02	58.87
432.231	52.86
432.443	81.92
432.655	49.18
432.867	12.17
433.078	68.94
433.29	106.33
433.502	85.8
433.713	84.83
433.925	53.05
434.136	108.85
434.348	33.68
434.56	-11.85
434.771	150.32
434.983	12.95
435.194	34.45
435.406	38.33
435.617	65.45
435.829	81.54
436.04	79.21
436.252	85.02
436.463	119.12
436.675	55.77
436.886	71.65
437.098	77.66
437.309	95.1
437.521	61
437.732	109.63
437.943	59.25
438.155	54.02
438.366	67.59
438.578	141.4
438.789	80.57
439	119.51
439.211	76.3
439.423	81.54
439.634	85.6
439.845	98.39
440.057	75.34
440.268	114.28
440.479	40.65
440.69	66.23
440.902	61.58
441.113	59.06
441.324	60.8
441.535	95.68
441.746	112.53
441.957	31.35
442.168	56.15
442.38	103.04
442.591	79.4
442.802	54.8
443.013	35.62
443.224	95.49
443.435	49.18
443.646	65.26
443.857	71.46
444.068	52.28
444.279	41.04
444.49	137.72
444.701	67.97
444.912	176.47
445.123	142.37
445.334	88.32
445.545	78.05
445.756	93.74
445.967	69.91
446.178	92.39
446.388	121.06
446.599	100.14
446.81	115.63
447.021	83.67
447.232	134.23
447.443	123.19
447.653	69.14
447.864	118.93
448.075	79.02
448.286	116.6
448.496	98.2
448.707	118.73
448.918	48.79
449.129	188.87
449.339	69.33
449.55	106.92
449.761	101.3
449.971	144.5
450.182	83.47
450.393	100.72
450.603	73.2
450.814	134.62
451.024	118.93
451.235	140.05
451.446	123.77
451.656	141.79
451.867	62.55
452.077	127.84
452.288	154.97
452.498	156.52
452.709	100.52
452.919	131.72
453.13	99.55
453.34	160
453.55	83.86
453.761	123.38
453.971	149.15
454.182	129.2
454.392	111.37
454.602	178.41
454.813	140.24
455.023	155.35
455.233	92
455.444	129.2
455.654	55.96
455.864	111.95
456.075	110.21
456.285	93.94
456.495	98.59
456.705	130.94
456.916	159.42
457.126	168.53
457.336	134.43
457.546	45.5
457.756	100.91
457.967	153.42
458.177	101.49
458.387	116.22
458.597	92.39
458.807	90.84
459.017	96.65
459.227	125.9
459.437	109.63
459.647	164.27
459.857	169.88
460.068	77.47
460.278	177.05
460.488	131.72
460.698	218.32
460.908	149.35
461.117	46.85
461.327	96.45
461.537	114.08
461.747	108.47
461.957	105.95
462.167	221.03
462.377	174.73
462.587	128.81
462.797	170.47
463.007	132.1
463.216	157.68
463.426	153.42
463.636	170.47
463.846	84.83
464.056	83.28
464.265	196.43
464.475	100.72
464.685	128.42
464.895	156.32
465.104	130.17
465.314	153.03
465.524	146.83
465.733	114.47
465.943	183.25
466.153	184.22
466.362	188.87
466.572	163.49
466.782	132.68
466.991	130.36
467.201	214.45
467.41	107.69
467.62	172.6
467.829	133.65
468.039	147.02
468.249	127.26
468.458	130.75
468.668	164.46
468.877	163.3
469.086	188.48
469.296	198.36
469.505	104.59
469.715	224.91
469.924	178.22
470.134	191.39
470.343	206.5
470.552	178.41
470.762	155.35
470.971	143.15
471.18	175.31
471.39	176.47
471.599	111.37
471.808	194.88
472.018	121.64
472.227	190.42
472.436	195.26
472.645	153.8
472.855	131.52
473.064	187.9
473.273	178.8
473.482	183.83
473.691	195.85
473.901	216.58
474.11	173.57
474.319	240.02
474.528	154.38
474.737	221.03
474.946	198.36
475.155	180.15
475.364	209.8
475.573	182.09
475.783	200.11
475.992	200.69
476.201	253.58
476.41	166.98
476.619	164.27
476.828	207.08
477.037	157.87
477.245	178.02
477.454	195.46
477.663	182.28
477.872	177.44
478.081	224.52
478.29	161.17
478.499	267.73
478.708	182.87
478.917	248.93
479.125	204.95
479.334	214.25
479.543	164.65
479.752	203.01
479.961	205.92
480.169	236.15
480.378	188.29
480.587	311.13
480.796	219.29
481.004	197.2
481.213	212.9
481.422	231.88
481.63	204.18
481.839	259.59
482.048	267.15
482.256	226.07
482.465	231.3
482.674	252.42
482.882	245.25
483.091	291.17
483.299	229.75
483.508	266.18
483.716	219.1
483.925	250.87
484.134	207.66
484.342	222.97
484.551	278.96
484.759	256.88
484.967	245.45
485.176	299.11
485.384	253
485.593	276.45
485.801	249.51
486.01	245.64
486.218	244.28
486.426	187.9
486.635	252.42
486.843	216.19
487.051	240.02
487.26	226.07
487.468	272.38
487.676	284
487.885	219.29
488.093	240.8
488.301	262.88
488.509	242.15
488.717	265.98
488.926	254.36
489.134	252.61
489.342	266.76
489.55	238.47
489.758	272.96
489.967	250.48
490.175	365.57
490.383	258.62
490.591	336.12
490.799	228.01
491.007	312.09
491.215	275.09
491.423	271.21
491.631	287.1
491.839	259.01
492.047	327.98
492.255	271.99
492.463	232.46
492.671	278.96
492.879	305.7
493.087	282.64
493.295	299.31
493.503	299.31
493.711	273.73
493.919	322.56
494.127	312.48
494.334	321.98
494.542	245.83
494.75	298.53
494.958	297.37
495.166	317.91
495.374	288.84
495.581	281.48
495.789	309.19
495.997	367.7
496.205	318.1
496.412	311.51
496.62	311.13
496.828	331.47
497.035	296.01
497.243	324.3
497.451	287.29
497.658	341.74
497.866	309.96
498.074	379.71
498.281	288.07
498.489	381.84
498.696	326.43
498.904	323.53
499.112	308.22
499.319	395.41
499.527	347.55
499.734	361.69
499.942	286.91
500.149	317.13
500.357	327.4
500.564	280.51
500.771	344.45
500.979	309.77
501.186	302.79
501.394	335.54
501.601	320.62
501.808	350.07
502.016	335.73
502.223	309.38
502.43	333.02
502.638	341.74
502.845	292.91
503.052	393.66
503.26	309.96
503.467	414.59
503.674	328.37
503.881	374.09
504.089	431.44
504.296	389.98
504.503	292.72
504.71	332.05
504.917	314.23
505.125	376.61
505.332	347.94
505.539	346
505.746	413.42
505.953	381.46
506.16	347.74
506.367	433.38
506.574	426.6
506.781	438.81
506.988	327.98
507.195	389.79
507.402	355.69
507.609	413.42
507.816	379.52
508.023	353.56
508.23	346
508.437	317.33
508.644	390.56
508.851	404.71
509.058	434.54
509.265	409.16
509.472	399.47
509.679	483.17
509.885	355.88
510.092	421.37
510.299	393.08
510.506	392.11
510.713	376.22
510.92	389.79
511.126	403.74
511.333	420.59
511.54	405.09
511.746	458.95
511.953	468.45
512.16	451.4
512.367	392.89
512.573	396.37
512.78	398.51
512.987	415.36
513.193	418.07
513.4	349.88
513.606	399.47
513.813	425.24
514.02	408.39
514.226	495.57
514.433	457.21
514.639	387.85
514.846	430.47
515.052	394.44
515.259	416.14
515.465	410.32
515.672	407.81
515.878	503.32
516.085	401.41
516.291	493.64
516.497	383.2
516.704	411.49
516.91	383.97
517.117	375.64
517.323	356.08
517.529	392.69
517.736	383.78
517.942	391.72
518.148	391.14
518.354	411.87
518.561	419.04
518.767	415.94
518.973	445.2
519.179	422.92
519.386	396.18
519.592	402.38
519.798	401.99
520.004	449.66
520.21	412.26
520.417	482.98
520.623	476.78
520.829	479.69
521.035	459.73
521.241	476.39
521.447	469.03
521.653	575.01
521.859	450.04
522.065	470.39
522.271	546.14
522.477	507.78
522.683	524.83
522.889	498.29
523.095	520.76
523.301	484.14
523.507	435.71
523.713	496.15
523.919	443.07
524.125	546.72
524.331	463.22
524.537	567.07
524.742	544.01
524.948	519.02
525.154	541.1
525.36	643.79
525.566	510.49
525.772	562.8
525.977	490.54
526.183	559.9
526.389	545.75
526.595	486.66
526.8	519.6
527.006	490.34
527.212	457.6
527.417	459.15
527.623	464.57
527.829	515.53
528.034	511.07
528.24	547.5
528.446	464.38
528.651	591.28
528.857	544.2
529.062	621.7
529.268	519.4
529.473	550.79
529.679	517.08
529.884	591.67
530.09	572.88
530.295	585.28
530.501	576.56
530.706	596.32
530.912	548.85
531.117	585.28
531.323	578.3
531.528	582.57
531.733	596.52
531.939	546.14
532.144	592.83
532.35	581.21
532.555	601.55
532.76	610.47
532.966	607.75
533.171	599.23
533.376	571.91
533.581	538
533.787	596.32
533.992	573.65
534.197	660.06
534.402	545.95
534.607	575.59
534.813	708.11
535.018	580.24
535.223	578.11
535.428	622.09
535.633	638.17
535.838	599.03
536.043	591.87
536.249	691.06
536.454	592.64
536.659	615.31
536.864	584.31
537.069	614.73
537.274	631.58
537.479	631.97
537.684	633.71
537.889	575.78
538.094	689.9
538.299	624.22
538.504	590.12
538.708	609.69
538.913	625.58
539.118	622.48
539.323	644.56
539.528	597.1
539.733	633.13
539.938	639.91
540.142	649.41
540.347	604.65
540.552	584.89
540.757	609.11
540.962	609.5
541.166	562.61
541.371	573.46
541.576	606.98
541.781	521.73
541.985	602.72
542.19	639.53
542.395	635.26
542.599	706.37
542.804	687.38
543.008	682.93
543.213	623.64
543.418	608.33
543.622	635.07
543.827	592.25
544.031	674.21
544.236	662.2
544.44	655.41
544.645	751.13
544.849	634.68
545.054	663.16
545.258	740.28
545.463	703.66
545.667	638.17
545.872	659.29
546.076	662.97
546.281	688.16
546.485	602.52
546.689	662.78
546.894	686.8
547.098	661.03
547.302	618.02
547.507	670.53
547.711	668.4
547.915	710.44
548.119	644.37
548.324	636.81
548.528	698.81
548.732	662.39
548.936	682.93
549.141	698.62
549.345	633.71
549.549	672.85
549.753	640.69
549.957	745.31
550.161	724.19
550.366	653.48
550.57	625.58
550.774	656.19
550.978	649.41
551.182	675.37
551.386	654.06
551.59	633.33
551.794	660.65
551.998	683.31
552.202	622.48
552.406	633.13
552.61	653.28
552.814	670.33
553.018	715.86
553.222	672.66
553.426	664.71
553.63	745.51
553.833	639.91
554.037	606.98
554.241	696.3
554.445	675.95
554.649	653.67
554.853	660.45
555.056	708.89
555.26	701.33
555.464	690.1
555.668	669.56
555.871	712.96
556.075	701.33
556.279	649.99
556.483	645.15
556.686	664.71
556.89	668.2
557.094	685.06
557.297	654.83
557.501	685.06
557.704	634.49
557.908	706.76
558.112	611.82
558.315	719.93
558.519	651.15
558.722	669.36
558.926	666.65
559.129	604.46
559.333	595.55
559.536	601.94
559.74	598.84
559.943	634.68
560.147	583.53
560.35	631.78
560.553	600.39
560.757	565.71
560.96	686.41
561.164	604.46
561.367	704.24
561.57	617.05
561.774	638.17
561.977	607.95
562.18	624.61
562.384	717.8
562.587	635.65
562.79	604.46
562.993	613.37
563.197	659.1
563.4	680.41
563.603	695.52
563.806	692.42
564.009	617.05
564.212	640.5
564.416	570.17
564.619	648.25
564.822	606.59
565.025	700.95
565.228	618.6
565.431	626.35
565.634	548.27
565.837	606.4
566.04	563.58
566.243	601.17
566.446	534.71
566.649	643.21
566.852	575.01
567.055	570.36
567.258	634.49
567.461	656.38
567.664	668.4
567.867	578.69
568.07	621.32
568.273	618.99
568.475	630.42
568.678	589.93
568.881	572.68
569.084	614.15
569.287	540.13
569.489	555.63
569.692	609.5
569.895	603.1
570.098	567.84
570.3	544.78
570.503	500.8
570.706	518.44
570.909	524.05
571.111	534.32
571.314	517.66
571.516	554.28
571.719	561.45
571.922	551.95
572.124	538
572.327	577.92
572.529	500.22
572.732	551.76
572.935	582.76
573.137	594.97
573.34	542.46
573.542	564.35
573.745	597.1
573.947	539.55
574.15	543.43
574.352	544.4
574.554	596.32
574.757	526.77
574.959	512.82
575.162	534.32
575.364	500.61
575.566	627.71
575.769	505.07
575.971	546.92
576.173	468.64
576.376	514.56
576.578	572.49
576.78	597.87
576.982	476.59
577.185	507.2
577.387	480.46
577.589	479.3
577.791	532.58
577.993	537.42
578.196	494.41
578.398	546.33
578.6	577.92
578.802	467.09
579.004	483.17
579.206	491.5
579.408	534.71
579.61	474.45
579.812	540.52
580.014	513.01
580.216	467.29
580.418	506.42
580.62	480.07
580.822	468.06
581.024	495.77
581.226	510.69
581.428	481.82
581.63	550.21
581.832	463.22
582.034	562.8
582.236	499.06
582.438	525.6
582.64	540.33
582.841	558.35
583.043	603.3
583.245	560.67
583.447	534.52
583.649	528.7
583.85	534.71
584.052	549.82
584.254	507.2
584.456	530.64
584.657	456.05
584.859	520.57
585.061	510.88
585.262	491.12
585.464	497.9
585.666	518.63
585.867	501.39
586.069	576.95
586.27	529.29
586.472	508.17
586.674	495.77
586.875	489.57
587.077	497.32
587.278	519.79
587.48	471.16
587.681	598.26
587.883	504.87
588.084	455.27
588.285	468.64
588.487	484.72
588.688	502.94
588.89	449.07
589.091	438.81
589.292	476.59
589.494	442.68
589.695	428.54
589.896	404.12
590.098	388.04
590.299	475.42
590.5	415.17
590.702	418.85
590.903	439.77
591.104	488.21
591.305	455.27
591.507	510.88
591.708	503.13
591.909	468.84
592.11	526.19
592.311	493.64
592.512	455.85
592.714	422.72
592.915	426.02
593.116	420.21
593.317	455.27
593.518	445.2
593.719	427.57
593.92	492.09
594.121	519.6
594.322	464.77
594.523	499.25
594.724	436.48
594.925	457.21
595.126	487.44
595.327	485.69
595.528	494.02
595.729	496.15
595.929	462.25
596.13	474.65
596.331	471.35
596.532	481.24
596.733	519.6
596.934	497.12
597.135	458.18
597.335	466.9
597.536	414.01
597.737	484.14
597.938	434.35
598.138	463.6
598.339	457.4
598.54	479.1
598.74	453.53
598.941	471.94
599.142	521.54
599.342	504.87
599.543	426.21
599.744	469.03
599.944	470.19
600.145	466.51
600.345	468.84
600.546	546.92
600.746	508.17
600.947	565.13
601.147	487.24
601.348	489.37
601.548	440.55
601.749	498.48
601.949	447.52
602.15	434.93
602.35	462.44
602.551	465.54
602.751	435.71
602.951	445.2
603.152	381.07
603.352	485.5
603.552	499.45
603.753	499.06
603.953	466.7
604.153	452.17
604.354	453.72
604.554	458.95
604.754	468.45
604.954	424.86
605.155	466.51
605.355	473.1
605.555	488.79
605.755	546.72
605.955	482.01
606.155	509.33
606.356	466.7
606.556	485.5
606.756	476.78
606.956	449.46
607.156	510.1
607.356	483.56
607.556	457.02
607.756	473.87
607.956	501.58
608.156	498.29
608.356	444.81
608.556	483.75
608.756	466.32
608.956	419.82
609.156	474.45
609.356	446.36
609.556	429.7
609.755	465.15
609.955	424.86
610.155	431.44
610.355	470.97
610.555	441.91
610.755	451.4
610.954	407.03
611.154	462.05
611.354	487.05
611.554	417.3
611.753	442.87
611.953	369.64
612.153	483.56
612.352	456.44
612.552	389.79
612.752	360.53
612.951	434.93
613.151	465.74
613.351	434.35
613.55	445.39
613.75	456.44
613.949	421.17
614.149	440.36
614.348	448.69
614.548	427.76
614.747	381.07
614.947	416.72
615.146	357.63
615.346	445.01
615.545	434.16
615.745	433.77
615.944	442.49
616.144	432.41
616.343	449.66
616.542	433.38
616.742	436.09
616.941	440.74
617.14	374.29
617.34	452.56
617.539	429.51
617.738	392.5
617.938	474.84
618.137	434.93
618.336	390.76
618.535	447.33
618.734	403.93
618.934	448.11
619.133	439.19
619.332	426.6
619.531	406.26
619.73	399.67
619.929	456.24
620.128	441.71
620.328	474.26
620.527	364.21
620.726	423.69
620.925	424.66
621.124	377
621.323	414.01
621.522	387.46
621.721	374.29
621.92	395.41
622.119	435.32
622.318	385.14
622.517	401.22
622.715	401.41
622.914	336.51
623.113	401.61
623.312	357.82
623.511	401.99
623.71	376.22
623.909	370.22
624.107	441.13
624.306	368.86
624.505	375.45
624.704	374.29
624.902	377.77
625.101	442.49
625.3	396.18
625.499	345.42
625.697	384.56
625.896	349.29
626.095	412.46
626.293	346.97
626.492	365.37
626.69	388.82
626.889	372.93
627.088	392.5
627.286	352.2
627.485	359.76
627.683	355.69
627.882	406.64
628.08	327.01
628.279	362.86
628.477	403.16
628.676	328.37
628.874	381.26
629.073	355.3
629.271	333.79
629.469	385.33
629.668	356.46
629.866	351.43
630.065	341.74
630.263	352.39
630.461	372.54
630.66	372.54
630.858	397.15
631.056	399.67
631.254	386.88
631.453	354.33
631.651	367.7
631.849	370.61
632.047	397.73
632.245	386.3
632.444	351.43
632.642	364.21
632.84	367.51
633.038	383.97
633.236	331.28
633.434	319.65
633.632	327.59
633.83	329.34
634.028	358.98
634.227	354.53
634.425	409.55
634.623	343.68
634.821	354.91
635.019	359.95
635.216	332.83
635.414	355.11
635.612	393.47
635.81	356.08
636.008	390.17
636.206	330.31
636.404	364.02
636.602	331.86
636.8	342.9
636.997	357.63
637.195	395.21
637.393	344.64
637.591	410.91
637.789	390.17
637.986	338.64
638.184	345.81
638.382	411.1
638.58	382.42
638.777	427.18
638.975	346.39
639.173	386.88
639.37	375.26
639.568	358.21
639.765	384.75
639.963	349.88
640.161	415.94
640.358	391.72
640.556	348.52
640.753	323.91
640.951	314.61
641.148	372.74
641.346	331.28
641.543	357.24
641.741	359.56
641.938	336.7
642.136	343.48
642.333	317.71
642.531	396.18
642.728	415.56
642.925	364.79
643.123	350.84
643.32	367.89
643.517	344.06
643.715	357.82
643.912	330.11
644.109	371.57
644.306	354.14
644.504	307.44
644.701	364.41
644.898	371.57
645.095	325.46
645.293	341.93
645.49	361.5
645.687	337.67
645.884	428.34
646.081	309.38
646.278	322.17
646.475	329.34
646.672	326.43
646.87	407.22
647.067	367.89
647.264	355.3
647.461	326.04
647.658	317.13
647.855	356.85
648.052	325.66
648.249	282.84
648.446	346.19
648.642	315.78
648.839	292.53
649.036	297.56
649.233	293.11
649.43	297.56
649.627	270.63
649.824	315.97
650.021	292.53
650.217	271.41
650.414	312.68
650.611	316.36
650.808	342.13
651.004	321.78
651.201	351.43
651.398	346.78
651.595	307.64
651.791	296.01
651.988	339.99
652.185	298.53
652.381	354.33
652.578	253
652.775	333.99
652.971	281.68
653.168	293.88
653.364	331.28
653.561	270.44
653.757	296.21
653.954	312.68
654.15	319.84
654.347	360.14
654.543	293.11
654.74	254.16
654.936	239.83
655.133	279.35
655.329	296.4
655.525	303.38
655.722	340.38
655.918	272.38
656.115	330.31
656.311	254.16
656.507	242.54
656.704	204.18
656.9	246.41
657.096	257.26
657.292	260.75
657.489	285.16
657.685	303.57
657.881	265.98
658.077	253.2
658.273	273.35
658.47	325.08
658.666	271.02
658.862	315
659.058	246.03
659.254	320.04
659.45	259.59
659.646	315.58
659.842	252.42
660.038	324.69
660.234	238.47
660.43	295.24
660.626	346.39
660.822	315.58
661.018	308.8
661.214	287.29
661.41	273.73
661.606	310.93
661.802	310.16
661.998	289.81
662.194	261.91
662.39	316.94
662.586	303.57
662.781	296.4
662.977	321.78
663.173	327.79
663.369	308.61
663.564	290.59
663.76	322.56
663.956	278.19
664.152	354.14
664.347	252.42
664.543	280.32
664.739	290.59
664.934	232.66
665.13	234.6
665.326	302.41
665.521	263.08
665.717	250.48
665.912	243.31
666.108	203.6
666.304	249.51
666.499	278.19
666.695	227.43
666.89	218.9
667.086	318.68
667.281	280.13
667.477	359.95
667.672	306.86
667.867	288.26
668.063	276.25
668.258	247.19
668.454	258.62
668.649	349.68
668.844	306.09
669.04	280.32
669.235	271.02
669.43	261.33
669.626	232.08
669.821	261.91
670.016	241.96
670.211	297.56
670.407	239.44
670.602	259.59
670.797	253.97
670.992	302.6
671.187	254.75
671.382	289.43
671.578	248.55
671.773	295.04
671.968	222
672.163	273.35
672.358	282.64
672.553	253.97
672.748	244.48
672.943	314.23
673.138	275.67
673.333	257.85
673.528	224.91
673.723	254.16
673.918	258.04
674.113	225.88
674.308	327.21
674.503	285.74
674.698	281.09
674.892	266.18
675.087	277.8
675.282	265.98
675.477	246.03
675.672	263.46
675.867	258.81
676.061	231.11
676.256	194.3
676.451	238.08
676.646	253.58
676.84	234.01
677.035	191.78
677.23	227.04
677.424	257.85
677.619	288.65
677.814	324.69
678.008	305.31
678.203	197.59
678.397	228.2
678.592	274.31
678.787	313.84
678.981	255.33
679.176	255.33
679.37	242.54
679.565	209.41
679.759	228.78
679.954	283.81
680.148	316.16
680.342	299.5
680.537	264.63
680.731	258.81
680.926	229.95
681.12	299.89
681.314	200.3
681.509	234.4
681.703	231.69
681.897	252.81
682.092	233.43
682.286	237.11
682.48	283.81
682.674	276.45
682.869	234.6
683.063	234.6
683.257	330.31
683.451	256.68
683.645	290.01
683.839	241.76
684.034	267.34
684.228	261.53
684.422	230.91
684.616	210.38
684.81	266.95
685.004	266.76
685.198	219.68
685.392	274.51
685.586	222.58
685.78	264.63
685.974	253.2
686.168	257.65
686.362	307.64
686.556	227.62
686.75	218.32
686.944	218.71
687.138	266.18
687.331	203.21
687.525	209.41
687.719	186.16
687.913	211.73
688.107	205.34
688.301	173.95
688.494	225.88
688.688	169.11
688.882	160.58
689.076	167.95
689.269	189.45
689.463	279.54
689.657	170.47
689.85	207.86
690.044	196.23
690.238	219.87
690.431	205.73
690.625	196.23
690.818	202.43
691.012	225.1
691.205	245.64
691.399	163.49
691.593	207.47
691.786	269.08
691.98	240.99
692.173	290.78
692.366	249.9
692.56	230.91
692.753	302.6
692.947	217.35
693.14	337.09
693.333	284
693.527	224.71
693.72	283.03
693.914	224.33
694.107	244.48
694.3	281.09
694.493	249.51
694.687	300.66
694.88	222.58
695.073	306.67
695.266	295.04
695.46	238.66
695.653	323.53
695.846	311.9
696.039	220.45
696.232	222.97
696.425	290.39
696.618	285.94
696.812	272.57
697.005	343.29
697.198	395.79
697.391	314.42
697.584	320.62
697.777	378.74
697.97	336.7
698.163	365.57
698.356	341.54
698.549	429.12
698.742	381.84
698.935	347.74
699.127	346.58
699.32	354.14
699.513	318.1
699.706	356.08
699.899	355.3
700.092	328.18
700.285	398.51
700.477	316.94
700.67	375.84
700.863	371.77
701.056	449.27
701.248	414.97
701.441	435.9
701.634	392.69
701.826	483.95
702.019	366.34
702.212	433.19
702.404	375.26
702.597	347.74
702.79	395.6
702.982	396.57
703.175	395.02
703.367	420.98
703.56	443.26
703.752	494.8
703.945	440.16
704.137	441.13
704.33	468.64
704.522	460.7
704.715	484.53
704.907	468.25
705.1	512.04
705.292	475.42
705.484	448.11
705.677	483.17
705.869	501.97
706.061	509.72
706.254	549.82
706.446	480.46
706.638	470.39
706.831	560.48
707.023	500.42
707.215	611.24
707.407	550.79
707.599	556.41
707.792	597.48
707.984	554.47
708.176	581.6
708.368	556.02
708.56	589.35
708.752	513.98
708.944	548.85
709.136	587.22
709.329	586.63
709.521	633.91
709.713	644.95
709.905	615.7
710.097	649.8
710.289	591.09
710.481	620.15
710.672	590.51
710.864	617.63
711.056	674.21
711.248	654.06
711.44	630.03
711.632	661.23
711.824	653.28
712.016	695.13
712.207	707.92
712.399	680.99
712.591	738.73
712.783	713.15
712.975	719.54
713.166	681.96
713.358	704.43
713.55	756.74
713.741	727.29
713.933	745.31
714.125	724
714.316	690.29
714.508	760.43
714.7	786.19
714.891	737.95
715.083	831.92
715.274	735.04
715.466	748.41
715.657	787.55
715.849	703.66
716.04	752.68
716.232	703.46
716.423	768.76
716.615	717.61
716.806	732.33
716.998	719.93
717.189	674.6
717.381	612.98
717.572	627.32
717.763	695.71
717.955	663.94
718.146	649.8
718.337	647.47
718.528	602.13
718.72	520.18
718.911	616.08
719.102	592.25
719.293	656.77
719.485	622.09
719.676	596.13
719.867	569.58
720.058	556.99
720.249	582.18
720.44	601.17
720.632	608.92
720.823	649.41
721.014	683.12
721.205	661.61
721.396	719.35
721.587	762.75
721.778	747.25
721.969	756.74
722.16	818.74
722.351	743.38
722.542	881.91
722.733	890.43
722.924	780.77
723.115	849.16
723.305	842.38
723.496	858.27
723.687	771.86
723.878	834.44
724.069	824.75
724.26	840.25
724.45	770.89
724.641	762.17
724.832	801.89
725.023	781.54
725.213	767.21
725.404	767.01
725.595	779.22
725.785	727.29
725.976	796.46
726.167	808.67
726.357	776.51
726.548	868.54
726.739	813.51
726.929	851.1
727.12	828.82
727.31	881.13
727.501	813.12
727.691	860.4
727.882	871.83
728.072	885.78
728.263	861.76
728.453	916
728.644	892.95
728.834	875.71
729.024	840.64
729.215	826.49
729.405	878.22
729.596	942.16
729.786	969.29
729.976	927.44
730.167	954.56
730.357	891.79
730.547	905.35
730.737	937.12
730.928	998.54
731.118	1000.48
731.308	959.79
731.498	946.62
731.688	1004.16
731.879	994.67
732.069	1014.62
732.259	1023.73
732.449	1021.4
732.639	1064.22
732.829	1080.3
733.019	1075.85
733.209	1131.84
733.399	1132.23
733.589	1141.14
733.779	1158.77
733.969	1118.28
734.159	1172.33
734.349	1186.28
734.539	1202.56
734.729	1192.87
734.919	1239.76
735.109	1260.87
735.299	1189.58
735.488	1253.12
735.678	1253.32
735.868	1222.51
736.058	1242.47
736.248	1234.14
736.437	1158.19
736.627	1194.81
736.817	1313.38
737.007	1257.58
737.196	1270.95
737.386	1247.31
737.576	1203.33
737.765	1280.64
737.955	1271.34
738.144	1348.25
738.334	1339.15
738.524	1271.14
738.713	1286.45
738.903	1281.99
739.092	1334.69
739.282	1326.36
739.471	1363.95
739.661	1289.16
739.85	1333.72
740.04	1320.36
740.229	1382.16
740.419	1371.7
740.608	1391.65
740.797	1369.95
740.987	1434.08
741.176	1401.92
741.365	1355.42
741.555	1307.37
741.744	1404.44
741.933	1393.59
742.123	1397.85
742.312	1412.58
742.501	1434.67
742.69	1445.71
742.88	1381.77
743.069	1489.11
743.258	1392.82
743.447	1473.42
743.636	1491.43
743.825	1416.65
744.014	1443.97
744.204	1436.41
744.393	1411.03
744.582	1485.43
744.771	1496.28
744.96	1418.58
745.149	1524.18
745.338	1426.72
745.527	1436.41
745.716	1427.69
745.905	1429.43
746.094	1470.12
746.283	1446.1
746.471	1495.5
746.66	1512.55
746.849	1527.08
747.038	1537.93
747.227	1458.11
747.416	1550.33
747.604	1468.18
747.793	1469.93
747.982	1509.65
748.171	1511.39
748.359	1525.34
748.548	1511.97
748.737	1475.74
748.926	1472.06
749.114	1443.77
749.303	1478.07
749.491	1472.45
749.68	1415.68
749.869	1486.98
750.057	1479.62
750.246	1462.57
750.434	1455.4
750.623	1476.71
750.811	1484.07
751	1504.8
751.188	1458.11
751.377	1479.81
751.565	1447.84
751.754	1422.65
751.942	1437.57
752.131	1507.13
752.319	1435.25
752.507	1441.25
752.696	1490.85
752.884	1501.31
753.072	1453.07
753.261	1447.07
753.449	1448.23
753.637	1443.58
753.825	1515.07
754.014	1447.84
754.202	1461.98
754.39	1514.1
754.578	1505.38
754.766	1447.26
754.955	1418.58
755.143	1522.05
755.331	1418
755.519	1449.78
755.707	1417.23
755.895	1417.03
756.083	1431.18
756.271	1407.93
756.459	1440.67
756.647	1493.37
756.835	1442.8
757.023	1365.89
757.211	1425.95
757.399	1444.35
757.587	1440.87
757.775	1383.32
757.963	1412.77
758.151	1448.62
758.339	1394.17
758.526	1381.39
758.714	1413.55
758.902	1384.29
759.09	1340.31
759.278	1257.58
759.465	1193.84
759.653	959.02
759.841	917.94
760.028	791.23
760.216	662.78
760.404	714.31
760.591	579.08
760.779	450.24
760.967	414.01
761.154	313.26
761.342	361.31
761.529	322.56
761.717	355.3
761.905	315.97
762.092	356.85
762.28	308.22
762.467	331.08
762.655	278.77
762.842	342.13
763.029	328.95
763.217	324.49
763.404	352.98
763.592	365.37
763.779	311.71
763.966	348.71
764.154	367.51
764.341	404.12
764.528	387.46
764.716	465.74
764.903	454.89
765.09	470.58
765.277	469.8
765.465	575.4
765.652	586.44
765.839	634.68
766.026	694.16
766.213	675.76
766.4	739.69
766.588	853.42
766.775	790.84
766.962	897.02
767.149	886.94
767.336	985.17
767.523	914.65
767.71	1008.81
767.897	1050.27
768.084	1088.25
768.271	1103.55
768.458	1137.65
768.645	1161.87
768.832	1153.54
769.019	1125.83
769.206	1154.31
769.392	1199.26
769.579	1275.02
769.766	1216.89
769.953	1219.8
770.14	1265.52
770.327	1222.51
770.513	1266.49
770.7	1328.88
770.887	1246.73
771.073	1319.97
771.26	1269.01
771.447	1230.26
771.634	1263.97
771.82	1335.66
772.007	1275.41
772.193	1275.02
772.38	1294.2
772.567	1282.57
772.753	1283.93
772.94	1368.02
773.126	1320.55
773.313	1326.75
773.499	1348.64
773.686	1333.53
773.872	1305.82
774.059	1287.81
774.245	1260.1
774.432	1286.45
774.618	1216.31
774.804	1275.99
774.991	1231.81
775.177	1316.87
775.363	1289.55
775.55	1317.45
775.736	1232.59
775.922	1256.42
776.109	1247.7
776.295	1296.52
776.481	1293.62
776.667	1302.72
776.853	1254.48
777.04	1252.74
777.226	1264.56
777.412	1320.55
777.598	1233.17
777.784	1243.05
777.97	1220.38
778.156	1267.27
778.342	1237.24
778.528	1252.54
778.715	1217.48
778.901	1237.43
779.087	1223.87
779.272	1194.23
779.458	1188.22
779.644	1228.52
779.83	1192.68
780.016	1310.09
780.202	1237.04
780.388	1210.31
780.574	1154.89
780.76	1212.63
780.946	1246.92
781.131	1233.36
781.317	1193.06
781.503	1179.5
781.689	1192.29
781.874	1306.21
782.06	1176.4
782.246	1177.76
782.432	1183.96
782.617	1212.24
782.803	1303.5
782.989	1138.81
783.174	1183.18
783.36	1128.55
783.545	1182.41
783.731	1183.57
783.916	1109.17
784.102	1219.8
784.288	1130.48
784.473	1150.44
784.659	1164.78
784.844	1206.82
785.029	1093.86
785.215	1205.85
785.4	1080.69
785.586	1206.82
785.771	1146.37
785.956	1151.79
786.142	1152.57
786.327	1119.44
786.512	1137.26
786.698	1125.64
786.883	1081.08
787.068	1091.93
787.254	1119.63
787.439	1101.23
787.624	1133.78
787.809	1085.15
787.994	1102.58
788.18	1157.41
788.365	1065.38
788.55	1128.35
788.735	1089.41
788.92	1071.2
789.105	1083.21
789.29	1127.77
789.475	1087.66
789.66	1090.38
789.845	1064.41
790.03	1054.73
790.215	1115.37
790.4	1091.15
790.585	1151.6
790.77	1067.51
790.955	980.52
791.14	1074.3
791.325	1131.06
791.51	986.33
791.695	1020.82
791.879	1003.38
792.064	996.99
792.249	1102.97
792.434	1019.66
792.618	1052.02
792.803	1055.5
792.988	1044.46
793.173	1033.8
793.357	1086.7
793.542	1010.55
793.727	1015.59
793.911	1089.6
794.096	1042.13
794.281	1071.39
794.465	1115.76
794.65	1057.63
794.834	1088.83
795.019	1104.33
795.203	1068.68
795.388	1113.82
795.572	1110.72
795.757	1067.71
795.941	1115.56
796.126	1097.74
796.31	1024.7
796.494	1047.17
796.679	1053.37
796.863	1017.92
797.048	1094.45
797.232	1109.56
797.416	1095.03
797.601	1038.07
797.785	1083.6
797.969	1091.93
798.153	1052.02
798.338	1083.98
798.522	1063.25
798.706	1074.3
798.89	1107.23
799.074	1173.3
799.258	1106.26
799.443	1064.03
799.627	1082.63
799.811	1096.19
799.995	1093.09
800.179	1032.64
800.363	1067.32
800.547	1093.86
800.731	1098.9
800.915	1019.85
801.099	1083.21
801.283	1075.85
801.467	1086.7
801.651	1037.68
801.835	1129.32
802.019	1089.02
802.202	1097.55
802.386	1054.53
802.57	1047.17
802.754	1054.34
802.938	1030.9
803.121	1047.17
803.305	1114.79
803.489	1047.75
803.673	1059.57
803.856	1094.45
804.04	1089.8
804.224	1059.96
804.407	1047.37
804.591	1082.43
804.775	1058.02
804.958	1069.84
805.142	1162.45
805.326	1055.5
805.509	1077.2
805.693	1108.2
805.876	1128.16
806.06	1054.15
806.243	1079.14
806.427	1113.05
806.61	1121.57
806.794	1033.8
806.977	1113.43
807.16	1065.38
807.344	1064.22
807.527	1110.91
807.71	1055.7
807.894	1071
808.077	1144.63
808.26	1059.57
808.444	1036.9
808.627	1117.7
808.81	1068.48
808.993	1042.52
809.177	996.6
809.36	1066.74
809.543	1051.05
809.726	1016.56
809.909	1008.23
810.092	979.55
810.276	1030.51
810.459	1010.36
810.642	1006.48
810.825	941.77
811.008	1000.28
811.191	941.77
811.374	950.1
811.557	938.48
811.74	1056.86
811.923	929.18
812.106	926.66
812.289	886.75
812.472	896.82
812.654	946.23
812.837	920.85
813.02	905.93
813.203	871.06
813.386	790.46
813.569	821.26
813.751	796.66
813.934	841.02
814.117	828.43
814.3	787.16
814.482	784.64
814.665	775.34
814.848	746.48
815.03	704.24
815.213	728.65
815.396	723.42
815.578	726.13
815.761	691.06
815.943	767.01
816.126	693.58
816.309	674.79
816.491	654.06
816.674	594.38
816.856	644.18
817.039	615.31
817.221	698.81
817.403	648.25
817.586	662.97
817.768	689.13
817.951	635.85
818.133	622.28
818.315	653.28
818.498	690.48
818.68	735.63
818.862	667.04
819.045	691.65
819.227	688.16
819.409	662.58
819.591	703.27
819.774	677.89
819.956	612.21
820.138	703.08
820.32	723.23
820.502	712.96
820.684	734.08
820.866	706.95
821.048	761.2
821.231	764.88
821.413	735.43
821.595	724.78
821.777	758.49
821.959	747.64
822.141	812.35
822.323	702.5
822.505	665.1
822.686	708.31
822.868	701.72
823.05	634.88
823.232	607.56
823.414	566.48
823.596	624.03
823.778	572.68
823.96	605.43
824.141	561.45
824.323	607.75
824.505	646.89
824.687	674.4
824.868	675.18
825.05	755.58
825.232	755.58
825.413	825.72
825.595	736.4
825.777	684.67
825.958	723.03
826.14	711.6
826.321	765.27
826.503	719.74
826.685	773.79
826.866	748.8
827.048	778.25
827.229	698.43
827.411	708.5
827.592	653.86
827.773	686.8
827.955	640.88
828.136	678.86
828.318	613.76
828.499	668.2
828.68	604.46
828.862	663.55
829.043	684.28
829.224	670.33
829.406	631.2
829.587	634.68
829.768	648.44
829.949	683.31
830.131	624.03
830.312	675.18
830.493	657.16
830.674	691.26
830.855	640.88
831.036	643.01
831.218	688.93
831.399	696.49
831.58	659.29
831.761	666.65
831.942	706.76
832.123	649.41
832.304	615.31
832.485	621.51
832.666	660.45
832.847	650.18
833.028	638.17
833.209	687.19
833.389	642.82
833.57	595.74
833.751	659.48
833.932	709.86
834.113	677.7
834.294	655.41
834.475	687.38
834.655	692.42
834.836	697.46
835.017	681.57
835.198	612.02
835.378	652.9
835.559	680.99
835.74	681.18
835.92	630.81
836.101	626.93
836.281	694.75
836.462	676.73
836.643	707.15
836.823	701.53
837.004	690.29
837.184	759.65
837.365	696.1
837.545	727.29
837.726	664.52
837.906	739.89
838.087	694.75
838.267	674.98
838.448	651.93
838.628	688.74
838.808	673.82
838.989	748.8
839.169	635.46
839.349	673.63
839.53	695.13
839.71	708.7
839.89	684.48
840.07	731.56
840.251	660.84
840.431	687.38
840.611	678.28
840.791	666.46
840.971	687.19
841.151	661.42
841.332	668.98
841.512	733.49
841.692	633.52
841.872	685.25
842.052	663.94
842.232	725.16
842.412	629.45
842.592	654.83
842.772	680.6
842.952	669.36
843.132	663.36
843.312	673.43
843.492	628.87
843.672	705.79
843.851	606.2
844.031	666.65
844.211	653.28
844.391	660.65
844.571	678.08
844.751	684.67
844.93	673.05
845.11	645.53
845.29	685.83
845.47	678.47
845.649	651.93
845.829	691.45
846.009	632.36
846.188	681.57
846.368	664.33
846.547	687.38
846.727	707.34
846.907	645.73
847.086	653.09
847.266	675.37
847.445	638.17
847.625	626.93
847.804	605.23
847.984	651.35
848.163	617.25
848.343	645.53
848.522	669.95
848.701	665.1
848.881	567.45
849.06	645.34
849.239	676.73
849.419	655.03
849.598	614.92
849.777	625.38
849.957	616.28
850.136	568.81
850.315	589.54
850.494	548.47
850.674	547.5
850.853	614.34
851.032	596.71
851.211	628.48
851.39	579.27
851.569	549.43
851.748	562.03
851.927	601.17
852.107	627.51
852.286	555.83
852.465	547.3
852.644	619.57
852.823	646.31
853.002	585.47
853.181	601.55
853.359	612.79
853.538	558.35
853.717	650.18
853.896	553.89
854.075	545.37
854.254	509.14
854.433	519.79
854.611	555.05
854.79	492.67
854.969	550.6
855.148	551.57
855.327	528.12
855.505	536.45
855.684	508.36
855.863	561.45
856.041	484.34
856.22	563.58
856.399	499.25
856.577	573.85
856.756	575.4
856.934	688.55
857.113	687.77
857.291	541.3
857.47	550.79
857.648	564.93
857.827	586.83
858.005	602.13
858.184	560.48
858.362	622.09
858.541	554.67
858.719	566.87
858.898	551.76
859.076	557.77
859.254	641.27
859.433	537.81
859.611	543.62
859.789	546.14
859.967	611.43
860.146	614.53
860.324	514.56
860.502	565.52
860.68	511.07
860.859	514.56
861.037	549.63
861.215	578.69
861.393	532.77
861.571	530.25
861.749	504.49
861.927	585.86
862.105	550.21
862.283	536.45
862.461	496.74
862.639	502.16
862.817	526.57
862.995	537.62
863.173	500.8
863.351	531.8
863.529	544.01
863.707	573.07
863.885	533.35
864.063	441.52
864.241	484.34
864.418	571.52
864.596	529.48
864.774	497.7
864.952	522.5
865.129	563.38
865.307	494.6
865.485	450.43
865.663	553.31
865.84	479.88
866.018	530.84
866.196	415.75
866.373	486.08
866.551	463.22
866.728	383.59
866.906	432.02
867.084	443.65
867.261	467.29
867.439	467.29
867.616	482.01
867.794	475.23
867.971	495.96
868.149	469.42
868.326	499.45
868.503	511.27
868.681	480.85
868.858	451.4
869.035	456.05
869.213	510.1
869.39	465.93
869.567	562.03
869.745	445.01
869.922	495.57
870.099	525.6
870.276	496.93
870.454	513.4
870.631	486.85
870.808	470.39
870.985	510.3
871.162	537.62
871.339	506.23
871.517	434.54
871.694	456.05
871.871	477.17
872.048	449.85
872.225	437.84
872.402	463.8
872.579	454.5
872.756	460.12
872.933	430.86
873.11	448.3
873.287	481.62
873.463	444.04
873.64	432.99
873.817	483.17
873.994	449.27
874.171	428.34
874.348	443.07
874.524	422.92
874.701	457.21
874.878	393.08
875.055	458.18
875.231	485.11
875.408	465.35
875.585	393.66
875.762	446.17
875.938	445.97
876.115	453.14
876.291	447.52
876.468	445.01
876.645	407.61
876.821	440.36
876.998	423.31
877.174	426.6
877.351	418.66
877.527	424.66
877.704	429.89
877.88	447.91
878.057	420.59
878.233	459.54
878.409	409.74
878.586	444.42
878.762	412.07
878.938	401.22
879.115	344.64
879.291	404.51
879.467	373.51
879.644	382.42
879.82	455.08
879.996	409.94
880.172	348.71
880.349	416.91
880.525	426.6
880.701	353.36
880.877	376.03
881.053	417.49
881.229	436.48
881.405	437.84
881.581	372.35
881.757	416.52
881.933	429.7
882.109	421.17
882.285	401.41
882.461	365.37
882.637	377
882.813	354.72
882.989	390.56
883.165	450.62
883.341	360.73
883.517	429.31
883.693	389.79
883.869	390.37
884.044	368.28
884.22	416.91
884.396	441.13
884.572	408.97
884.747	415.75
884.923	425.05
885.099	430.47
885.275	462.25
885.45	383.97
885.626	384.36
885.801	365.96
885.977	391.92
886.153	345.42
886.328	446.17
886.504	382.62
886.679	415.75
886.855	376.42
887.03	421.37
887.206	412.26
887.381	396.96
887.557	396.57
887.732	421.17
887.908	389.79
888.083	423.69
888.258	404.32
888.434	378.74
888.609	411.68
888.784	428.15
888.96	370.8
889.135	372.54
889.31	353.94
889.485	368.28
889.661	399.09
889.836	459.92
890.011	400.64
890.186	400.83
890.361	373.32
890.537	397.15
890.712	387.27
890.887	400.83
891.062	399.28
891.237	426.02
891.412	350.84
891.587	417.49
891.762	440.94
891.937	439.19
892.112	355.69
892.287	394.05
892.462	333.79
892.637	356.85
892.812	325.85
892.987	335.34
893.161	344.45
893.336	347.55
893.511	359.56
893.686	394.05
893.861	361.89
894.035	361.11
894.21	359.95
894.385	308.22
894.56	352.01
894.734	324.88
894.909	342.51
895.084	321.01
895.258	341.54
895.433	360.14
895.608	328.56
895.782	303.96
895.957	305.31
896.131	308.61
896.306	247
896.48	282.26
896.655	277.61
896.829	251.26
897.004	242.73
897.178	266.76
897.353	251.84
897.527	314.03
897.701	279.54
897.876	235.37
898.05	296.98
898.224	259.98
898.399	315
898.573	267.73
898.747	223.16
898.921	279.54
899.096	217.93
899.27	231.3
899.444	218.51
899.618	232.27
899.792	218.13
899.967	204.56
900.141	248.93
900.315	188.29
900.489	211.35
900.663	238.86
900.837	238.08
901.011	210.96
901.185	294.85
901.359	245.06
901.533	262.11
901.707	241.38
901.881	238.86
902.055	194.88
902.229	214.25
902.403	272.38
902.576	231.11
902.75	244.09
902.924	344.45
903.098	248.55
903.272	263.08
903.446	315.97
903.619	266.76
903.793	242.73
903.967	263.27
904.14	312.87
904.314	311.13
904.488	260.17
904.661	306.86
904.835	300.47
905.009	323.14
905.182	370.61
905.356	298.92
905.529	270.25
905.703	272.96
905.876	270.05
906.05	250.1
906.223	259.2
906.397	214.64
906.57	220.65
906.744	217.93
906.917	228.01
907.09	261.33
907.264	253
907.437	220.65
907.61	159.23
907.784	201.66
907.957	224.52
908.13	210.38
908.304	252.03
908.477	182.48
908.65	208.05
908.823	186.35
908.996	257.65
909.17	225.3
909.343	212.7
909.516	216
909.689	193.71
909.862	216.38
910.035	212.31
910.208	175.31
910.381	188.87
910.554	311.13
910.727	185.58
910.9	184.22
911.073	169.3
911.246	237.7
911.419	232.08
911.592	216.96
911.765	193.13
911.938	178.02
912.11	172.21
912.283	175.12
912.456	226.07
912.629	201.46
912.802	185
912.974	153.42
913.147	147.8
913.32	121.64
913.493	144.12
913.665	154.19
913.838	174.73
914.01	175.12
914.183	158.26
914.356	125.32
914.528	157.29
914.701	226.85
914.873	210.57
915.046	176.28
915.218	179.38
915.391	104.78
915.563	99.36
915.736	194.49
915.908	193.33
916.081	165.43
916.253	154
916.425	163.49
916.598	165.04
916.77	164.27
916.942	142.57
917.115	105.75
917.287	188.87
917.459	165.82
917.632	141.21
917.804	83.86
917.976	161.55
918.148	163.88
918.32	155.55
918.493	184.22
918.665	203.21
918.837	182.28
919.009	211.54
919.181	209.8
919.353	164.27
919.525	150.12
919.697	159.62
919.869	172.79
920.041	209.99
920.213	216.38
920.385	217.93
920.557	158.45
920.729	193.13
920.901	205.53
921.073	186.35
921.244	176.08
921.416	236.34
921.588	168.33
921.76	136.17
921.932	243.7
922.103	157.1
922.275	203.01
922.447	182.87
922.619	117.57
922.79	189.45
922.962	150.9
923.134	197.59
923.305	153.8
923.477	129.78
923.648	109.43
923.82	152.25
923.991	116.99
924.163	104.2
924.335	161.75
924.506	99.36
924.677	197.01
924.849	141.21
925.02	147.41
925.192	185.97
925.363	169.69
925.535	154
925.706	144.7
925.877	207.86
926.049	125.9
926.22	168.72
926.391	148.96
926.562	155.93
926.734	108.47
926.905	180.54
927.076	88.51
927.247	143.34
927.419	100.72
927.59	126.1
927.761	109.82
927.932	142.18
928.103	154.58
928.274	100.33
928.445	82.5
928.616	128.81
928.787	131.52
928.958	142.18
929.129	132.49
929.3	132.68
929.471	88.7
929.642	77.47
929.813	17.4
929.984	129.97
930.155	38.14
930.326	134.04
930.496	82.89
930.667	22.83
930.838	40.85
931.009	38.52
931.18	71.85
931.35	45.5
931.521	94.52
931.692	39.69
931.863	14.69
932.033	66.62
932.204	76.5
932.374	78.63
932.545	18.18
932.716	91.61
932.886	82.5
933.057	-7.98
933.227	17.99
933.398	131.52
933.568	29.8
933.739	-2.74
933.909	29.03
934.08	61.39
934.25	4.62
934.421	-19.79
934.591	43.75
934.761	-13.59
934.932	-36.46
935.102	9.85
935.272	7.72
935.443	14.89
935.613	14.31
935.783	27.29
935.953	-17.28
936.123	151.67
936.294	-12.24
936.464	-16.89
936.634	29.61
936.804	-18.63
936.974	-31.61
937.144	32.52
937.314	22.05
937.484	-27.93
937.655	-5.46
937.825	49.95
937.995	-7.2
938.165	31.16
938.334	-38.39
938.504	7.52
938.674	-30.84
938.844	5.39
939.014	19.92
939.184	22.05
939.354	88.32
939.524	37.17
939.694	23.41
939.863	1.13
940.033	100.14
940.203	70.3
940.373	56.74
940.542	75.92
940.712	31.94
940.882	25.93
941.051	71.46
941.221	70.49
941.391	84.25
941.56	7.91
941.73	-8.17
941.899	119.7
942.069	-0.61
942.238	50.92
942.408	6.75
942.577	68.75
942.747	28.84
942.916	-19.79
943.086	2.1
943.255	75.14
943.425	24.77
943.594	24.19
943.763	-22.89
943.933	2.87
944.102	-31.81
944.271	15.08
944.441	31.55
944.61	5.01
944.779	35.62
944.948	103.82
945.117	-1.97
945.287	0.55
945.456	-64.16
945.625	-1.58
945.794	27.29
945.963	1.52
946.132	53.44
946.301	1.32
946.47	48.6
946.639	-26.38
946.808	9.85
946.977	25.15
947.146	50.15
947.315	2.1
947.484	17.21
947.653	12.76
947.822	-0.03
947.991	-19.99
948.16	81.15
948.329	54.41
948.498	34.65
948.666	17.02
948.835	27.29
949.004	-34.91
949.173	-1.58
949.341	22.25
949.51	42.4
949.679	66.62
949.847	41.62
950.016	112.53
950.185	62.74
950.353	-9.53
950.522	18.76
950.69	47.63
950.859	-11.66
951.028	49.76
951.196	42.98
951.365	-8.17
951.533	14.31
951.701	64.1
951.87	47.24
952.038	3.46
952.207	35.81
952.375	85.22
952.543	10.62
952.712	30.97
952.88	0.55
953.048	89.29
953.217	34.84
953.385	-3.71
953.553	58.67
953.721	-30.06
953.89	50.15
954.058	-27.74
954.226	0.16
954.394	39.69
954.562	-53.51
954.73	35.81
954.898	2.49
955.067	57.51
955.235	7.33
955.403	31.35
955.571	90.45
955.739	53.64
955.907	-13.01
956.075	-4.49
956.243	8.11
956.41	42.98
956.578	-28.32
956.746	-20.76
956.914	-0.23
957.082	48.21
957.25	18.76
957.418	-31.81
957.585	28.06
957.753	49.76
957.921	11.01
958.089	5.2
958.256	37.94
958.424	32.32
958.592	36.97
958.759	2.29
958.927	45.69
959.095	10.43
959.262	10.62
959.43	29.42
959.597	-4.29
959.765	14.11
959.932	-15.14
960.1	56.54
960.267	39.1
960.435	32.52
960.602	56.54
960.77	-38.78
960.937	-11.46
961.104	11.59
961.272	-52.15
961.439	4.81
961.606	13.14
961.774	67.97
961.941	11.98
962.108	37.75
962.275	21.86
962.443	63.32
962.61	28.25
962.777	82.12
962.944	24.77
963.111	26.9
963.278	33.49
963.446	42.4
963.613	21.47
963.78	57.51
963.947	23.6
964.114	12.56
964.281	95.1
964.448	42.4
964.615	5.39
964.782	43.95
964.949	48.02
965.116	36.97
965.282	50.92
965.449	22.25
965.616	2.68
965.783	48.02
965.95	47.82
966.117	14.31
966.283	25.93
966.45	41.43
966.617	42.59
966.784	87.93
966.95	47.24
967.117	65.84
967.284	-4.49
967.45	-4.49
967.617	76.69
967.784	48.99
967.95	75.72
968.117	32.9
968.283	38.33
968.45	119.51
968.616	38.33
968.783	61.58
968.949	34.26
969.116	63.9
969.282	29.03
969.449	24.38
969.615	9.85
969.781	-18.44
969.948	-13.4
970.114	-24.44
970.28	95.87
970.447	38.91
970.613	87.35
970.779	18.76
970.945	23.22
971.112	21.28
971.278	24.96
971.444	49.76
971.61	59.06
971.776	5.2
971.942	34.07
972.108	33.49
972.275	34.65
972.441	43.56
972.607	107.11
972.773	6.36
972.939	57.9
973.105	42.59
973.271	7.33
973.437	17.4
973.602	6.17
973.768	45.3
973.934	30.77
974.1	38.52
974.266	-43.04
974.432	43.17
974.598	29.8
974.763	46.08
974.929	19.15
975.095	82.89
975.261	15.08
975.426	12.17
975.592	18.95
975.758	98.2
975.923	0.55
976.089	20.5
976.255	67.2
976.42	28.45
976.586	51.7
976.751	50.34
976.917	108.85
977.082	59.25
977.248	-9.91
977.413	-30.45
977.579	28.25
977.744	24.38
977.91	-23.09
978.075	17.99
978.24	43.37
978.406	33.49
978.571	-7.59
978.736	8.69
978.902	58.29
979.067	5.59
979.232	-16.89
979.397	37.94
979.563	81.15
979.728	7.14
979.893	39.3
980.058	-11.46
980.223	56.93
980.388	48.79
980.554	31.35
980.719	28.25
980.884	40.65
981.049	55.77
981.214	-3.33
981.379	49.18
981.544	-9.14
981.709	15.85
981.874	21.09
982.039	7.91
982.204	48.99
982.368	31.74
982.533	-13.4
982.698	52.09
982.863	66.04
983.028	-1.97
983.193	59.45
983.357	32.32
983.522	28.64
983.687	-7.98
983.852	-1.58
984.016	10.43
984.181	30.58
984.346	45.11
984.51	31.16
984.675	23.41
984.839	53.83
985.004	67.2
985.168	57.32
985.333	67.39
985.498	14.31
985.662	71.46
985.827	44.92
985.991	3.84
986.155	34.65
986.32	42.01
986.484	78.24
986.649	44.92
986.813	5.2
986.977	26.9
987.142	34.26
987.306	-25.8
987.47	-1.58
987.634	21.86
987.799	25.93
987.963	36
988.127	43.37
988.291	93.35
988.455	58.09
988.62	30
988.784	61.58
988.948	65.65
989.112	27.87
989.276	19.73
989.44	43.95
989.604	-0.23
989.768	-1.78
989.932	90.64
990.096	-11.08
990.26	-0.81
990.424	-20.38
990.588	19.73
990.752	104.2
990.915	39.69
991.079	35.62
991.243	4.81
991.407	41.43
991.571	20.31
991.734	54.99
991.898	45.5
992.062	143.53
992.226	9.66
992.389	5.2
992.553	-22.12
992.717	-19.02
992.88	15.27
993.044	23.02
993.207	34.45
993.371	44.14
993.535	37.17
993.698	17.21
993.862	43.37
994.025	54.6
994.189	36.39
994.352	46.66
994.515	50.92
994.679	46.66
994.842	-4.68
995.006	44.14
995.169	8.49
995.332	4.23
995.496	52.28
995.659	-23.48
995.822	23.41
995.985	31.94
996.149	64.68
996.312	31.16
996.475	74.95
996.638	-0.42
996.801	57.9
996.964	93.35
997.128	3.46
997.291	15.47
997.454	42.01
997.617	-12.24
997.78	50.34
997.943	11.21
998.106	77.47
998.269	-7.78
998.432	53.44
998.595	60.42
998.758	-16.31
998.92	5.2
999.083	-35.1
999.246	3.07
999.409	-5.46
999.572	-45.76
999.735	-18.24
999.897	41.24
1000.06	4.81
1000.223	-0.61
1000.386	35.81
1000.548	56.15
1000.711	26.51
1000.874	38.72
1001.036	-11.66
1001.199	63.52
1001.361	13.34
1001.524	30.97
1001.687	38.72
1001.849	0.94
1002.012	19.92
1002.174	21.47
1002.337	46.66
1002.499	9.66
1002.661	83.28
1002.824	-7.59
1002.986	4.62
1003.149	10.04
1003.311	-11.85
1003.473	76.3
1003.636	12.76
1003.798	49.95
1003.96	4.42
1004.123	35.23
1004.285	-2.94
1004.447	10.43
1004.609	5.2
1004.771	71.27
1004.933	-15.53
1005.096	-11.08
1005.258	-56.03
1005.42	-6.04
1005.582	58.87
1005.744	37.55
1005.906	-37.04
1006.068	29.03
1006.23	-26.38
1006.392	-23.86
1006.554	-6.04
1006.716	48.99
1006.878	37.75
1007.04	-12.63
1007.202	-3.33
1007.363	21.28
1007.525	36.78
1007.687	32.32
1007.849	58.09
1008.011	-22.12
1008.172	-17.47
1008.334	0.74
1008.496	33.87
1008.658	-15.34
1008.819	-8.94
1008.981	-19.41
1009.143	-6.23
1009.304	-5.84
1009.466	56.74
1009.627	59.06
1009.789	100.91
1009.95	32.32
1010.112	-1.58
1010.273	23.99
1010.435	-4.49
1010.596	-0.61
1010.758	-18.83
1010.919	22.44
1011.081	-20.96
1011.242	9.85
1011.403	42.4
1011.565	11.01
1011.726	19.34
1011.887	-27.35
1012.049	-8.94
1012.21	59.64
1012.371	80.37
1012.532	-77.53
1012.693	23.6
1012.855	-23.09
1013.016	4.23
1013.177	53.44
1013.338	23.22
1013.499	80.76
1013.66	54.6
1013.821	48.4
1013.982	35.04
1014.143	16.24
1014.304	-5.84
1014.465	30.58
1014.626	17.79
1014.787	3.26
1014.948	107.69
1015.109	-51.96
1015.27	60.42
1015.431	-8.75
1015.592	7.72
1015.752	47.44
1015.913	26.51
1016.074	28.06
1016.235	-19.6
1016.395	7.14
1016.556	-1.39
1016.717	17.6
1016.877	49.57
1017.038	0.74
1017.199	-3.33
1017.359	37.36
1017.52	33.49
1017.681	-14.56
1017.841	38.91
1018.002	11.59
1018.162	3.65
1018.323	59.25
1018.483	-22.31
1018.644	-4.88
1018.804	-19.41
1018.964	-43.04
1019.125	-16.11
1019.285	-6.62
1019.446	-7.98
1019.606	-8.94
1019.766	-58.35
1019.926	29.22
1020.087	19.54
1020.247	-37.04
1020.407	26.32
1020.567	53.44
1020.728	2.1
1020.888	-52.34
1021.048	-32.58
1021.208	5.2
1021.368	12.95
1021.528	35.62
1021.688	23.02
1021.848	18.57
1022.008	15.85
1022.168	6.36
1022.328	11.4
1022.488	10.82
1022.648	0.55
1022.808	-7.59
1022.968	28.25
1023.128	-37.23
1023.288	-17.47
1023.448	-7.59
1023.608	25.15
1023.767	4.04
1023.927	-30.26
1024.087	-20.57
1024.247	-33.94
1024.406	2.87
1024.566	-41.3
1024.726	-18.83
1024.885	34.84
1025.045	33.49
1025.205	-8.75
1025.364	-21.34
1025.524	8.3
1025.683	6.36
1025.843	19.73
1026.003	1.32
1026.162	64.49
1026.321	36.2
1026.481	4.42
1026.64	11.21
1026.8	-4.29
1026.959	17.79
1027.119	2.1
1027.278	-25.61
1027.437	-3.52
1027.597	2.87
1027.756	17.6
1027.915	23.22
1028.074	5.78
1028.234	-12.63
1028.393	4.62
1028.552	1.32
1028.711	-66.49
1028.87	42.79
1029.03	-25.8
1029.189	-12.24
1029.348	-58.35
1029.507	-22.7
1029.666	6.75
1029.825	-15.92
1029.984	-27.35
1030.143	15.47
1030.302	2.29
1030.461	-32.97
1030.62	13.92
1030.779	7.14
1030.938	-28.13
1031.097	-56.41
1031.255	11.98
1031.414	48.6
1031.573	32.9
1031.732	-25.41
1031.891	-3.71
1032.049	58.09
1032.208	18.76
1032.367	-5.46
1032.525	-1.39
1032.684	4.04
1032.843	1.71
1033.001	-62.23
1033.16	152.06
1033.319	49.18
1033.477	16.82
1033.636	2.29
1033.794	-52.15
1033.953	1.52
1034.111	10.62
1034.27	-20.57
1034.428	11.59
1034.587	-28.71
1034.745	-0.81
1034.903	-13.79
1035.062	41.43
1035.22	-35.68
1035.378	42.79
1035.537	-18.83
1035.695	47.44
1035.853	-20.18
1036.011	73.2
1036.17	20.31
1036.328	-43.82
1036.486	11.01
1036.644	11.01
1036.802	-87.22
1036.96	-18.05
1037.119	-2.36
1037.277	-23.67
1037.435	-40.72
1037.593	-8.94
1037.751	18.95
1037.909	7.14
1038.067	7.14
