Data from pine_FLMT105791__157__17-23-11-073.txt Node

Date: Mon Mar 20 17:23:11 GMT 2023
User: antho
Spectrometer: FLMT10579
Trigger mode: 0
Integration Time (sec): 1.000000E-1
Scans to average: 10
Electric dark correction enabled: true
Nonlinearity correction enabled: false
Boxcar width: 0
XAxis mode: Wavelengths
Number of Pixels in Spectrum: 3648
>>>>>Begin Spectral Data<<<<<
345.248	-157.47
345.464	-157.47
345.681	-157.47
345.898	-177.81
346.114	-154.76
346.331	-46.64
346.548	12.84
346.764	-9.64
346.981	-18.36
347.197	-16.61
347.414	36.67
347.631	-3.63
347.847	50.42
348.064	12.45
348.28	26.01
348.497	-26.69
348.713	-16.81
348.93	31.24
349.146	23.69
349.363	7.8
349.579	26.79
349.796	39.96
350.012	-10.8
350.229	43.06
350.445	21.94
350.661	-18.94
350.878	20
351.094	3.15
351.311	31.44
351.527	24.65
351.743	-14.29
351.96	25.62
352.176	53.72
352.392	10.9
352.609	51.59
352.825	-17.2
353.041	-9.83
353.257	2.76
353.474	-0.15
353.69	-1.7
353.906	11.67
354.122	-49.74
354.339	39.38
354.555	-7.31
354.771	-11.19
354.987	58.17
355.203	51.78
355.42	-24.75
355.636	-15.65
355.852	-19.91
356.068	1.6
356.284	-27.46
356.5	57.01
356.716	12.06
356.932	-4.99
357.148	28.72
357.364	-7.7
357.58	70.18
357.796	59.53
358.012	48.49
358.228	36.86
358.444	-35.6
358.66	57.01
358.876	26.01
359.092	5.47
359.308	17.49
359.524	28.14
359.74	16.9
359.956	2.95
360.172	-23.2
360.388	36.28
360.604	-13.9
360.819	99.25
361.035	35.12
361.251	64.18
361.467	-18.94
361.683	50.81
361.898	36.09
362.114	43.45
362.33	28.34
362.546	64.57
362.762	5.09
362.977	-3.05
363.193	-9.83
363.409	30.66
363.624	-21.26
363.84	-13.13
364.056	-29.79
364.271	40.93
364.487	20.39
364.703	-8.28
364.918	-17.2
365.134	-3.05
365.35	-1.31
365.565	125.6
365.781	25.24
365.996	37.05
366.212	78.32
366.427	48.29
366.643	-12.93
366.858	-16.61
367.074	-36.76
367.289	65.34
367.505	111.26
367.72	-21.65
367.936	-4.6
368.151	32.21
368.367	48.1
368.582	28.14
368.798	12.06
369.013	54.49
369.228	-15.65
369.444	30.47
369.659	74.45
369.874	45.97
370.09	67.86
370.305	-61.37
370.52	-18.94
370.736	65.53
370.951	26.79
371.166	55.65
371.381	69.8
371.597	58.95
371.812	-2.86
372.027	-9.64
372.242	1.99
372.458	100.02
372.673	-4.02
372.888	22.52
373.103	32.99
373.318	107.58
373.533	31.05
373.749	44.8
373.964	-30.56
374.179	71.54
374.394	-19.52
374.609	60.11
374.824	-13.32
375.039	56.43
375.254	9.15
375.469	58.95
375.684	-9.83
375.899	47.52
376.114	32.21
376.329	41.9
376.544	66.7
376.759	55.07
376.974	-8.48
377.189	7.99
377.404	2.57
377.619	69.41
377.834	1.21
378.049	-25.91
378.264	-39.48
378.478	14.58
378.693	8.77
378.908	62.24
379.123	5.86
379.338	87.62
379.553	15.55
379.767	25.24
379.982	44.8
380.197	52.55
380.412	14.39
380.626	23.69
380.841	68.63
381.056	37.83
381.271	81.62
381.485	1.21
381.7	-24.36
381.915	34.73
382.129	11.09
382.344	25.62
382.559	-4.8
382.773	66.89
382.988	-7.31
383.202	37.05
383.417	-22.23
383.632	113
383.846	24.27
384.061	21.17
384.275	28.53
384.49	48.1
384.704	35.12
384.919	30.47
385.133	46.94
385.348	47.13
385.562	-16.03
385.777	69.6
385.991	-4.8
386.206	14
386.42	21.94
386.634	77.16
386.849	53.72
387.063	37.64
387.277	-18.55
387.492	23.69
387.706	-17.39
387.92	7.41
388.135	35.7
388.349	38.99
388.563	32.6
388.778	36.47
388.992	56.24
389.206	69.99
389.42	117.46
389.635	31.05
389.849	50.42
390.063	91.5
390.277	35.31
390.491	96.34
390.706	66.7
390.92	69.6
391.134	39.19
391.348	57.98
391.562	-16.81
391.776	20.78
391.99	8.19
392.205	52.17
392.419	31.05
392.633	12.45
392.847	81.81
393.061	-7.12
393.275	103.9
393.489	20.59
393.703	42.09
393.917	77.35
394.131	18.65
394.345	27.56
394.559	92.08
394.773	17.1
394.986	51.97
395.2	26.59
395.414	61.66
395.628	17.29
395.842	25.82
396.056	23.49
396.27	-32.89
396.484	36.67
396.697	45.19
396.911	104.67
397.125	48.68
397.339	75.61
397.553	29.3
397.766	89.75
397.98	79.87
398.194	77.16
398.408	29.11
398.621	35.89
398.835	79.87
399.049	53.33
399.262	91.5
399.476	63.6
399.69	84.52
399.903	122.88
400.117	49.26
400.331	80.07
400.544	29.5
400.758	170.35
400.971	57.59
401.185	105.06
401.398	6.25
401.612	106.61
401.826	76.38
402.039	72.32
402.253	43.64
402.466	89.56
402.68	64.37
402.893	78.52
403.106	66.12
403.32	27.75
403.533	84.91
403.747	80.84
403.96	85.88
404.174	91.88
404.387	24.65
404.6	49.26
404.814	94.21
405.027	63.02
405.24	59.34
405.454	35.89
405.667	89.56
405.88	35.7
406.094	40.54
406.307	94.02
406.52	68.63
406.733	56.82
406.947	1.4
407.16	134.12
407.373	126.57
407.586	47.32
407.799	35.12
408.012	104.87
408.226	73.87
408.439	127.15
408.652	34.54
408.865	69.02
409.078	104.67
409.291	94.79
409.504	19.04
409.717	75.61
409.93	102.73
410.143	56.43
410.357	32.79
410.57	8.57
410.783	64.37
410.996	78.13
411.209	60.11
411.421	117.07
411.634	64.37
411.847	47.71
412.06	65.92
412.273	79.68
412.486	79.68
412.699	155.05
412.912	61.08
413.125	100.6
413.338	73.87
413.55	103.32
413.763	76
413.976	87.04
414.189	56.24
414.402	59.72
414.615	135.09
414.827	31.24
415.04	106.8
415.253	86.07
415.466	102.54
415.678	165.9
415.891	84.52
416.104	65.92
416.316	88.98
416.529	51.2
416.742	89.56
416.954	103.32
417.167	73.87
417.38	72.9
417.592	109.71
417.805	63.6
418.017	22.33
418.23	103.9
418.442	64.57
418.655	63.21
418.868	88.98
419.08	110.87
419.293	110.1
419.505	84.33
419.718	109.9
419.93	100.6
420.142	68.25
420.355	151.37
420.567	132.18
420.78	125.4
420.992	76.97
421.205	160.86
421.417	58.17
421.629	41.51
421.842	69.22
422.054	51.97
422.266	95.95
422.479	119.2
422.691	78.9
422.903	125.21
423.115	76.97
423.328	78.52
423.54	112.62
423.752	80.84
423.964	64.76
424.177	83.36
424.389	83.17
424.601	183.91
424.813	91.69
425.025	127.92
425.238	105.64
425.45	60.69
425.662	73.28
425.874	366.23
426.086	95.18
426.298	112.23
426.51	111.07
426.722	100.8
426.934	81.62
427.146	142.65
427.358	49.84
427.57	140.13
427.782	93.05
427.994	110.87
428.206	36.28
428.418	41.9
428.63	102.15
428.842	131.6
429.054	105.06
429.266	146.72
429.478	78.9
429.69	123.85
429.902	52.75
430.114	132.96
430.325	112.42
430.537	105.25
430.749	109.71
430.961	45.58
431.173	116.88
431.384	124.63
431.596	52.75
431.808	83.94
432.02	118.82
432.231	129.86
432.443	150.78
432.655	107.97
432.867	74.06
433.078	123.27
433.29	206.39
433.502	167.06
433.713	160.08
433.925	139.55
434.136	165.51
434.348	110.29
434.56	71.54
434.771	225.38
434.983	86.27
435.194	112.23
435.406	110.87
435.617	165.7
435.829	217.05
436.04	148.65
436.252	180.43
436.463	184.11
436.675	172.48
436.886	160.47
437.098	162.99
437.309	229.06
437.521	125.98
437.732	169.38
437.943	141.1
438.155	149.62
438.366	107
438.578	201.74
438.789	165.51
439	177.71
439.211	147.49
439.423	139.74
439.634	178.3
439.845	174.81
440.057	179.65
440.268	166.28
440.479	142.84
440.69	181.59
440.902	159.31
441.113	155.05
441.324	154.08
441.535	188.95
441.746	235.06
441.957	137.22
442.168	137.22
442.38	170.74
442.591	191.86
442.802	139.55
443.013	137.61
443.224	165.31
443.435	152.33
443.646	127.34
443.857	177.13
444.068	148.65
444.279	154.85
444.49	237.39
444.701	186.82
444.912	300.36
445.123	214.91
445.334	210.46
445.545	209.68
445.756	183.91
445.967	170.93
446.178	202.9
446.388	214.14
446.599	211.43
446.81	214.53
447.021	166.67
447.232	237.97
447.443	251.14
447.653	183.91
447.864	222.66
448.075	195.35
448.286	238.16
448.496	223.44
448.707	224.99
448.918	193.02
449.129	308.3
449.339	192.44
449.55	216.08
449.761	196.9
449.971	249.98
450.182	177.52
450.393	223.63
450.603	213.95
450.814	232.35
451.024	213.17
451.235	235.84
451.446	256.96
451.656	265.29
451.867	197.48
452.077	214.91
452.288	278.85
452.498	285.44
452.709	203.48
452.919	234.48
453.13	198.45
453.34	270.33
453.55	175.78
453.761	246.88
453.971	230.22
454.182	213.36
454.392	246.3
454.602	290.48
454.813	226.93
455.023	272.46
455.233	185.27
455.444	236.61
455.654	174.42
455.864	242.43
456.075	241.65
456.285	192.44
456.495	244.56
456.705	251.73
456.916	280.98
457.126	288.73
457.336	245.14
457.546	192.83
457.756	196.31
457.967	299
458.177	238.94
458.387	256.96
458.597	205.23
458.807	233.32
459.017	237.78
459.227	232.74
459.437	253.08
459.647	266.45
459.857	283.11
460.068	218.98
460.278	292.61
460.488	273.81
460.698	335.23
460.908	245.14
461.117	211.43
461.327	193.8
461.537	268.78
461.747	256.96
461.957	268.97
462.167	338.14
462.377	290.86
462.587	262.38
462.797	303.46
463.007	272.65
463.216	266.26
463.426	308.69
463.636	299.78
463.846	237.58
464.056	265.87
464.265	286.41
464.475	246.88
464.685	247.27
464.895	288.15
465.104	292.61
465.314	274.39
465.524	271.1
465.733	247.66
465.943	324.38
466.153	335.62
466.362	303.65
466.572	296.48
466.782	267.81
466.991	283.11
467.201	346.86
467.41	218.01
467.62	302.68
467.829	271.29
468.039	287.38
468.249	295.71
468.458	269.36
468.668	314.5
468.877	301.71
469.086	315.47
469.296	330.97
469.505	276.14
469.715	340.66
469.924	326.71
470.134	341.82
470.343	384.44
470.552	272.46
470.762	295.9
470.971	251.34
471.18	320.51
471.39	303.46
471.599	301.13
471.808	323.61
472.018	286.99
472.227	347.82
472.436	347.24
472.645	299.19
472.855	308.49
473.064	351.89
473.273	337.17
473.482	340.07
473.691	372.43
473.901	362.16
474.11	330.97
474.319	404.21
474.528	325.93
474.737	382.31
474.946	382.51
475.155	350.73
475.364	385.41
475.573	377.27
475.783	353.06
475.992	368.75
476.201	386.19
476.41	349.96
476.619	313.73
476.828	378.82
477.037	346.08
477.245	337.36
477.454	386.57
477.663	365.07
477.872	356.16
478.081	421.06
478.29	327.09
478.499	460.2
478.708	376.89
478.917	453.03
479.125	387.35
479.334	390.84
479.543	389.48
479.752	387.93
479.961	393.36
480.169	421.06
480.378	375.53
480.587	493.33
480.796	448.38
481.004	407.31
481.213	419.32
481.422	434.82
481.63	411.57
481.839	434.04
482.048	461.55
482.256	423.97
482.465	430.75
482.674	445.67
482.882	442.95
483.091	493.14
483.299	484.42
483.508	447.99
483.716	429.78
483.925	463.88
484.134	422.03
484.342	431.14
484.551	466.79
484.759	445.09
484.967	465.82
485.176	451.87
485.384	487.71
485.593	497.59
485.801	504.18
486.01	445.67
486.218	449.54
486.426	410.79
486.635	390.26
486.843	414.28
487.051	460.2
487.26	423.58
487.468	442.18
487.676	477.05
487.885	401.11
488.093	452.25
488.301	473.76
488.509	455.74
488.717	489.84
488.926	460.2
489.134	474.92
489.342	472.99
489.55	448.96
489.758	476.47
489.967	487.52
490.175	554.17
490.383	477.83
490.591	572.96
490.799	445.28
491.007	527.43
491.215	524.72
491.423	500.69
491.631	483.84
491.839	521.23
492.047	556.49
492.255	462.91
492.463	438.69
492.671	517.35
492.879	546.22
493.087	563.85
493.295	530.92
493.503	536.73
493.711	554.75
493.919	580.71
494.127	591.36
494.334	562.69
494.542	497.79
494.75	534.21
494.958	558.23
495.166	604.73
495.374	561.14
495.581	531.69
495.789	571.41
495.997	596.79
496.205	559.78
496.412	537.89
496.62	553
496.828	589.43
497.035	569.28
497.243	606.86
497.451	560.75
497.658	562.3
497.866	567.34
498.074	628.37
498.281	565.21
498.489	634.57
498.696	560.37
498.904	541.96
499.112	584.78
499.319	647.36
499.527	573.73
499.734	645.61
499.942	541.57
500.149	552.81
500.357	601.05
500.564	515.42
500.771	584.2
500.979	543.9
501.186	586.33
501.394	598.53
501.601	595.63
501.808	616.16
502.016	600.66
502.223	584
502.43	582.07
502.638	593.88
502.845	568.7
503.052	655.88
503.26	556.3
503.467	625.85
503.674	615.2
503.881	628.37
504.089	677.78
504.296	644.06
504.503	553.78
504.71	581.68
504.917	556.1
505.125	604.73
505.332	604.54
505.539	616.75
505.746	669.25
505.953	677
506.16	639.61
506.367	697.54
506.574	693.08
506.781	690.56
506.988	602.99
507.195	652.4
507.402	648.91
507.609	651.62
507.816	639.8
508.023	633.02
508.23	615.39
508.437	560.75
508.644	698.7
508.851	679.91
509.058	683.01
509.265	676.23
509.472	686.3
509.679	724.86
509.885	646.78
510.092	680.29
510.299	660.92
510.506	635.93
510.713	695.6
510.92	654.53
511.126	683.39
511.333	729.51
511.54	705.68
511.746	770
511.953	731.44
512.16	734.93
512.367	680.29
512.573	691.34
512.78	700.44
512.987	682.81
513.193	682.23
513.4	629.53
513.606	665.96
513.813	693.28
514.02	657.43
514.226	778.91
514.433	749.85
514.639	683.39
514.846	728.93
515.052	683.98
515.259	674.48
515.465	694.63
515.672	704.71
515.878	763.61
516.085	720.4
516.291	749.27
516.497	669.25
516.704	679.52
516.91	672.93
517.117	613.65
517.323	568.5
517.529	662.47
517.736	637.67
517.942	659.56
518.148	652.01
518.354	687.66
518.561	694.44
518.767	701.61
518.973	741.71
519.179	735.9
519.386	700.25
519.592	660.34
519.798	671.96
520.004	739.97
520.21	719.43
520.417	738.23
520.623	785.69
520.829	761.48
521.035	767.87
521.241	791.89
521.447	801
521.653	844.59
521.859	756.24
522.065	780.07
522.271	881.99
522.477	819.6
522.683	859.12
522.889	807.2
523.095	804.1
523.301	773.1
523.507	767.48
523.713	834.71
523.919	779.49
524.125	852.92
524.331	830.45
524.537	835.68
524.742	877.92
524.948	849.44
525.154	867.26
525.36	962
525.566	857.77
525.772	901.36
525.977	789.37
526.183	860.29
526.389	859.9
526.595	808.75
526.8	832.19
527.006	760.51
527.212	762.64
527.417	754.89
527.623	763.03
527.829	823.86
528.034	860.48
528.24	871.91
528.446	789.57
528.651	860.48
528.857	904.07
529.062	935.85
529.268	837.62
529.473	900.97
529.679	859.32
529.884	933.91
530.09	891.87
530.295	946.7
530.501	920.15
530.706	913.57
530.912	866.49
531.117	894
531.323	899.23
531.528	916.67
531.733	926.55
531.939	883.73
532.144	938.37
532.35	923.45
532.555	949.6
532.76	911.44
532.966	943.4
533.171	906.01
533.376	913.37
533.581	866.68
533.787	895.94
533.992	927.32
534.197	955.03
534.402	906.2
534.607	930.23
534.813	1010.83
535.018	937.98
535.223	933.14
535.428	954.45
535.633	973.24
535.838	960.65
536.043	932.94
536.249	1028.07
536.454	946.7
536.659	953.67
536.864	928.49
537.069	955.61
537.274	967.04
537.479	1000.37
537.684	992.62
537.889	896.32
538.094	1030.78
538.299	969.95
538.504	992.81
538.708	988.93
538.913	980.22
539.118	963.17
539.323	991.26
539.528	941.66
539.733	961.62
539.938	970.53
540.142	973.05
540.347	976.53
540.552	912.4
540.757	953.87
540.962	964.52
541.166	927.9
541.371	906.01
541.576	975.37
541.781	856.6
541.985	971.69
542.19	980.6
542.395	1013.15
542.599	1039.11
542.804	1004.24
543.008	1067.21
543.213	993.2
543.418	950.77
543.622	975.57
543.827	920.74
544.031	1053.06
544.236	1057.13
544.44	1011.22
544.645	1109.45
544.849	972.47
545.054	1013.73
545.258	1071.66
545.463	1059.85
545.667	1004.43
545.872	1003.47
546.076	1036.21
546.281	1015.28
546.485	986.42
546.689	1018.58
546.894	1032.33
547.098	1003.27
547.302	964.52
547.507	1014.32
547.711	1033.3
547.915	1084.65
548.119	1010.05
548.324	1002.11
548.528	1043.57
548.732	1037.56
548.936	1029.04
549.141	1044.93
549.345	1016.64
549.549	1014.32
549.753	1021.68
549.957	1060.81
550.161	1059.46
550.366	1032.72
550.57	1016.06
550.774	1012.18
550.978	1009.86
551.182	1068.18
551.386	1009.08
551.59	1015.48
551.794	997.65
551.998	1029.04
552.202	1020.52
552.406	1009.86
552.61	1023.42
552.814	1031.36
553.018	1095.11
553.222	1022.26
553.426	1041.44
553.63	1133.28
553.833	1024.97
554.037	1005.21
554.241	1045.9
554.445	1045.12
554.649	1041.83
554.853	1012.38
555.056	1048.03
555.26	1085.03
555.464	1028.46
555.668	1037.56
555.871	1076.12
556.075	1091.81
556.279	1021.48
556.483	991.84
556.686	1047.06
556.89	1031.75
557.094	1055
557.297	984.67
557.501	1063.33
557.704	951.35
557.908	1082.71
558.112	972.85
558.315	1103.63
558.519	1019.74
558.722	987.58
558.926	1014.9
559.129	972.08
559.333	932.17
559.536	963.55
559.74	945.34
559.943	938.75
560.147	938.95
560.35	946.31
560.553	952.7
560.757	919.38
560.96	1006.18
561.164	976.73
561.367	1064.3
561.57	960.65
561.774	996.68
561.977	1007.73
562.18	962
562.384	1057.91
562.587	967.82
562.79	978.08
562.993	989.52
563.197	997.07
563.4	1035.82
563.603	1021.48
563.806	1060.62
564.009	955.8
564.212	1016.06
564.416	947.86
564.619	991.07
564.822	949.6
565.025	1021.48
565.228	954.25
565.431	955.8
565.634	895.16
565.837	937.01
566.04	903.49
566.243	906.2
566.446	857.19
566.649	933.72
566.852	911.05
567.055	947.47
567.258	951.15
567.461	1028.26
567.664	1006.18
567.867	888.96
568.07	957.74
568.273	940.11
568.475	995.72
568.678	951.35
568.881	922.67
569.084	945.15
569.287	875.59
569.489	864.94
569.692	932.36
569.895	955.22
570.098	871.14
570.3	879.08
570.503	823.86
570.706	833.74
570.909	862.22
571.111	873.07
571.314	831.03
571.516	887.8
571.719	894.77
571.922	853.12
572.124	870.17
572.327	891.48
572.529	869.2
572.732	812.43
572.935	880.24
573.137	913.18
573.34	865.71
573.542	918.22
573.745	873.65
573.947	870.75
574.15	873.07
574.352	838.01
574.554	898.65
574.757	831.81
574.959	841.3
575.162	833.36
575.364	829.09
575.566	932.75
575.769	818.82
575.971	855.25
576.173	765.35
576.376	821.92
576.578	873.27
576.78	922.48
576.982	773.29
577.185	803.71
577.387	797.9
577.589	805.84
577.791	869
577.993	883.15
578.196	823.09
578.398	872.69
578.6	867.84
578.802	786.66
579.004	840.14
579.206	805.84
579.408	828.32
579.61	776.01
579.812	858.35
580.014	757.21
580.216	793.06
580.418	792.28
580.62	792.09
580.822	761.09
581.024	786.86
581.226	822.51
581.428	807.39
581.63	898.45
581.832	785.31
582.034	864.55
582.236	819.79
582.438	847.5
582.64	887.6
582.841	867.45
583.043	899.23
583.245	845.95
583.447	851.76
583.649	844.4
583.85	872.1
584.052	847.69
584.254	819.41
584.456	862.03
584.657	824.64
584.859	834.13
585.061	841.3
585.262	800.81
585.464	798.67
585.666	838.39
585.867	803.91
586.069	865.32
586.27	798.29
586.472	807.39
586.674	797.9
586.875	781.82
587.077	760.12
587.278	816.5
587.48	783.76
587.681	893.8
587.883	810.49
588.084	746.17
588.285	774.07
588.487	786.86
588.688	802.36
588.89	740.94
589.091	734.93
589.292	749.46
589.494	739.19
589.695	710.13
589.896	654.33
590.098	664.41
590.299	783.17
590.5	694.44
590.702	707.03
590.903	726.21
591.104	767.67
591.305	748.49
591.507	806.81
591.708	778.14
591.909	718.46
592.11	814.17
592.311	762.44
592.512	734.35
592.714	695.6
592.915	716.14
593.116	734.74
593.317	719.04
593.518	745.59
593.719	745.39
593.92	768.64
594.121	779.3
594.322	760.12
594.523	775.04
594.724	723.69
594.925	732.61
595.126	761.48
595.327	763.41
595.528	749.85
595.729	771.94
595.929	720.01
596.13	757.99
596.331	750.43
596.532	752.18
596.733	801.97
596.934	809.91
597.135	785.11
597.335	770.19
597.536	752.56
597.737	763.99
597.938	741.33
598.138	784.14
598.339	740.55
598.54	789.37
598.74	739
598.941	745.01
599.142	822.89
599.342	774.26
599.543	698.7
599.744	757.02
599.944	786.86
600.145	754.89
600.345	789.76
600.546	832.39
600.746	809.33
600.947	860.29
601.147	792.28
601.348	820.18
601.548	724.28
601.749	766.12
601.949	727.76
602.15	726.41
602.35	756.24
602.551	793.44
602.751	701.22
602.951	717.69
603.152	679.52
603.352	804.68
603.552	778.72
603.753	795.57
603.953	791.12
604.153	770.39
604.354	729.89
604.554	761.86
604.754	747.72
604.954	729.51
605.155	772.13
605.355	747.53
605.555	779.11
605.755	814.95
605.955	774.26
606.155	798.48
606.356	757.79
606.556	749.66
606.756	783.76
606.956	692.69
607.156	814.17
607.356	707.03
607.556	770.77
607.756	737.84
607.956	833.74
608.156	783.37
608.356	740.16
608.556	791.51
608.756	758.57
608.956	714.39
609.156	765.93
609.356	683.2
609.556	703.93
609.755	744.23
609.955	713.81
610.155	777.94
610.355	749.46
610.555	725.05
610.755	738.03
610.954	675.26
611.154	740.55
611.354	745.98
611.554	721.37
611.753	708
611.953	681.07
612.153	731.25
612.352	749.46
612.552	689.98
612.752	646
612.951	716.53
613.151	741.71
613.351	652.78
613.55	709.94
613.75	728.34
613.949	728.93
614.149	714.2
614.348	716.53
614.548	694.44
614.747	671.38
614.947	673.51
615.146	626.24
615.346	739.97
615.545	709.16
615.745	699.28
615.944	723.89
616.144	694.05
616.343	722.53
616.542	686.49
616.742	688.24
616.941	693.28
617.14	613.06
617.34	726.99
617.539	684.56
617.738	650.07
617.938	758.76
618.137	683.39
618.336	671
618.535	713.43
618.734	669.83
618.934	711.88
619.133	667.12
619.332	709.55
619.531	673.51
619.73	693.28
619.929	733.19
620.128	728.73
620.328	747.33
620.527	662.66
620.726	679.33
620.925	713.23
621.124	647.16
621.323	677.19
621.522	665.96
621.721	636.31
621.92	646.58
622.119	671.77
622.318	630.89
622.517	681.65
622.715	668.09
622.914	586.33
623.113	635.15
623.312	605.9
623.511	674.87
623.71	665.96
623.909	628.95
624.107	691.14
624.306	611.51
624.505	634.57
624.704	622.56
624.902	630.5
625.101	712.07
625.3	638.64
625.499	637.48
625.697	614.03
625.896	570.83
626.095	661.89
626.293	594.46
626.492	614.61
626.69	640.96
626.889	595.82
627.088	664.02
627.286	616.94
627.485	598.34
627.683	599.7
627.882	649.3
628.08	559.01
628.279	619.07
628.477	688.63
628.676	596.6
628.874	645.03
629.073	601.44
629.271	602.21
629.469	612.68
629.668	602.8
629.866	623.91
630.065	601.44
630.263	652.98
630.461	571.99
630.66	626.43
630.858	624.3
631.056	621.59
631.254	620.62
631.453	574.51
631.651	656.85
631.849	610.16
632.047	608.41
632.245	614.42
632.444	593.88
632.642	629.73
632.84	613.65
633.038	584.78
633.236	564.63
633.434	572.38
633.632	563.27
633.83	554.36
634.028	623.72
634.227	590.2
634.425	656.46
634.623	600.47
634.821	592.91
635.019	588.07
635.216	568.89
635.414	647.16
635.612	614.23
635.81	589.62
636.008	662.66
636.206	613.84
636.404	606.67
636.602	541.57
636.8	621.98
636.997	627.01
637.195	632.44
637.393	606.28
637.591	633.21
637.789	608.61
637.986	607.06
638.184	622.56
638.382	626.43
638.58	604.73
638.777	673.32
638.975	645.61
639.173	629.34
639.37	619.07
639.568	621.01
639.765	648.33
639.963	609.38
640.161	657.05
640.358	658.01
640.556	569.28
640.753	579.35
640.951	598.53
641.148	607.64
641.346	596.98
641.543	603.57
641.741	615.58
641.938	560.75
642.136	578
642.333	552.62
642.531	642.32
642.728	632.83
642.925	593.69
643.123	599.11
643.32	613.26
643.517	565.6
643.715	618.49
643.912	594.27
644.109	611.51
644.306	598.73
644.504	576.64
644.701	578.97
644.898	630.7
645.095	591.17
645.293	596.21
645.49	624.69
645.687	609.77
645.884	629.34
646.081	523.36
646.278	562.5
646.475	569.28
646.672	560.95
646.87	607.83
647.067	584.2
647.264	594.08
647.461	498.95
647.658	528.01
647.855	620.62
648.052	566.95
648.249	476.67
648.446	580.71
648.642	538.28
648.839	529.17
649.036	535.18
649.233	504.37
649.43	511.35
649.627	493.52
649.824	517.93
650.021	534.02
650.217	538.08
650.414	509.8
650.611	548.35
650.808	542.93
651.004	548.74
651.201	561.14
651.398	591.17
651.595	492.36
651.791	504.95
651.988	565.4
652.185	494.3
652.381	537.31
652.578	483.84
652.775	546.42
652.971	521.23
653.168	527.62
653.364	535.37
653.561	469.11
653.757	499.53
653.954	562.5
654.15	528.59
654.347	612.1
654.543	518.13
654.74	482.87
654.936	499.53
655.133	516.77
655.329	549.32
655.525	516.19
655.722	533.05
655.918	495.46
656.115	551.07
656.311	471.05
656.507	434.82
656.704	433.07
656.9	443.54
657.096	436.17
657.292	435.79
657.489	496.04
657.685	495.46
657.881	485
658.077	477.25
658.273	494.1
658.47	536.92
658.666	500.11
658.862	507.86
659.058	477.83
659.254	557.85
659.45	488.87
659.646	496.24
659.842	504.18
660.038	513.87
660.234	463.49
660.43	496.04
660.626	576.25
660.822	527.62
661.018	550.87
661.214	517.74
661.41	486.55
661.606	518.9
661.802	524.13
661.998	518.9
662.194	522
662.39	523.36
662.586	517.93
662.781	553
662.977	525.49
663.173	536.15
663.369	490.81
663.564	503.4
663.76	581.68
663.956	479.57
664.152	556.3
664.347	461.36
664.543	503.98
664.739	498.75
664.934	488.68
665.13	454.77
665.326	543.9
665.521	504.95
665.717	469.3
665.912	468.72
666.108	435.01
666.304	447.8
666.499	465.04
666.695	417.38
666.89	466.79
667.086	516.58
667.281	480.35
667.477	512.32
667.672	488.1
667.867	500.69
668.063	485.39
668.258	461.94
668.454	488.1
668.649	559.78
668.844	476.67
669.04	493.52
669.235	509.41
669.43	472.02
669.626	457.87
669.821	475.5
670.016	433.85
670.211	468.53
670.407	463.3
670.602	446.25
670.797	476.09
670.992	503.6
671.187	456.52
671.382	530.53
671.578	438.5
671.773	485.39
671.968	444.31
672.163	476.09
672.358	491.2
672.553	434.62
672.748	442.76
672.943	554.55
673.138	487.9
673.333	503.4
673.528	430.17
673.723	466.59
673.918	476.67
674.113	402.07
674.308	532.66
674.503	472.21
674.698	489.26
674.892	475.5
675.087	463.69
675.282	463.49
675.477	421.45
675.672	480.35
675.867	431.33
676.061	416.02
676.256	419.51
676.451	410.79
676.646	451.87
676.84	413.89
677.035	415.83
677.23	430.36
677.424	473.37
677.619	507.08
677.814	495.27
678.008	475.5
678.203	405.37
678.397	407.5
678.592	447.8
678.787	500.11
678.981	443.73
679.176	441.21
679.37	442.95
679.565	406.72
679.759	454.77
679.954	470.85
680.148	508.83
680.342	482.48
680.537	493.33
680.731	440.24
680.926	488.1
681.12	472.6
681.314	411.57
681.509	460.2
681.703	459.81
681.897	447.41
682.092	447.8
682.286	427.65
682.48	540.8
682.674	490.42
682.869	424.16
683.063	455.16
683.257	527.23
683.451	406.53
683.645	461.75
683.839	444.31
684.034	451.87
684.228	482.87
684.422	400.14
684.616	444.31
684.81	465.82
685.004	449.15
685.198	429.97
685.392	483.06
685.586	428.23
685.78	448.38
685.974	478.22
686.168	474.15
686.362	502.24
686.556	411.57
686.75	391.03
686.944	406.14
687.138	434.82
687.331	344.92
687.525	375.92
687.719	311.79
687.913	374.37
688.107	373.98
688.301	369.72
688.494	386.19
688.688	359.26
688.882	326.9
689.076	308.11
689.269	394.32
689.463	475.5
689.657	385.02
689.85	362.36
690.044	389.29
690.238	353.64
690.431	383.09
690.625	371.27
690.818	390.26
691.012	392.77
691.205	398.78
691.399	394.91
691.593	388.71
691.786	442.95
691.98	418.35
692.173	454.97
692.366	430.94
692.56	468.34
692.753	493.52
692.947	400.33
693.14	479.96
693.333	501.27
693.527	412.54
693.72	457.87
693.914	450.12
694.107	452.84
694.3	480.35
694.493	434.04
694.687	500.89
694.88	436.95
695.073	506.7
695.266	487.52
695.46	447.6
695.653	520.07
695.846	496.62
696.039	441.79
696.232	460.2
696.425	524.33
696.618	478.99
696.812	506.89
697.005	524.52
697.198	611.51
697.391	540.99
697.584	560.75
697.777	592.33
697.97	593.3
698.163	580.9
698.356	561.14
698.549	634.38
698.742	585.36
698.935	534.79
699.127	599.89
699.32	542.73
699.513	559.4
699.706	574.51
699.899	599.7
700.092	548.93
700.285	616.16
700.477	548.93
700.67	586.91
700.863	639.8
701.056	700.44
701.248	664.8
701.441	668.09
701.634	618.88
701.826	700.83
702.019	563.27
702.212	682.43
702.404	613.06
702.597	640
702.79	631.28
702.982	620.62
703.175	668.86
703.367	673.9
703.56	693.28
703.752	759.34
703.945	669.45
704.137	702.58
704.33	716.53
704.522	716.72
704.715	718.46
704.907	729.31
705.1	737.84
705.292	743.65
705.484	725.83
705.677	743.26
705.869	776.01
706.061	759.54
706.254	804.29
706.446	754.11
706.638	726.41
706.831	821.92
707.023	807.2
707.215	858.54
707.407	839.17
707.599	811.46
707.792	874.04
707.984	827.93
708.176	856.22
708.368	805.65
708.56	856.6
708.752	834.32
708.944	813.79
709.136	854.09
709.329	844.98
709.521	991.26
709.713	886.25
709.905	900.59
710.097	923.25
710.289	867.26
710.481	912.79
710.672	905.82
710.864	918.6
711.056	961.62
711.248	960.26
711.44	918.8
711.632	958.9
711.824	978.08
712.016	1018.77
712.207	1015.67
712.399	1006.57
712.591	1044.15
712.783	1012.18
712.975	1029.81
713.166	986.22
713.358	1038.34
713.55	1059.65
713.741	1042.8
713.933	1045.12
714.125	1011.22
714.316	980.6
714.508	1123.78
714.7	1089.88
714.891	1057.52
715.083	1141.8
715.274	1053.65
715.466	1093.75
715.657	1101.11
715.849	1003.27
716.04	1090.07
716.232	1008.31
716.423	1115.06
716.615	1015.09
716.806	1013.93
716.998	1000.95
717.189	986.61
717.381	880.24
717.572	932.94
717.763	981.18
717.955	921.12
718.146	922.09
718.337	881.21
718.528	872.88
718.72	804.87
718.911	877.34
719.102	836.46
719.293	875.98
719.485	858.54
719.676	855.44
719.867	844.79
720.058	792.86
720.249	843.04
720.44	868.23
720.632	865.9
720.823	897.68
721.014	917.44
721.205	929.45
721.396	991.07
721.587	1065.27
721.778	1021.68
721.969	1072.63
722.16	1101.5
722.351	1046.67
722.542	1174.93
722.733	1179.39
722.924	1108.09
723.115	1123.78
723.305	1116.42
723.496	1141.8
723.687	1054.61
723.878	1090.46
724.069	1086
724.26	1073.21
724.45	1052.48
724.641	1057.71
724.832	1086.39
725.023	1063.33
725.213	1037.37
725.404	1030.01
725.595	1042.41
725.785	1005.79
725.976	1054.42
726.167	1034.85
726.357	1051.13
726.548	1134.44
726.739	1082.71
726.929	1105.57
727.12	1113.9
727.31	1136.18
727.501	1123.2
727.691	1154.39
727.882	1137.15
728.072	1150.91
728.263	1097.82
728.453	1160.98
728.644	1173.77
728.834	1145.09
729.024	1152.07
729.215	1154.01
729.405	1186.36
729.596	1210
729.786	1230.34
729.976	1221.62
730.167	1235.38
730.357	1192.56
730.547	1167.18
730.737	1239.06
730.928	1273.55
731.118	1303.77
731.308	1202.44
731.498	1243.52
731.688	1282.85
731.879	1280.91
732.069	1346.4
732.259	1370.81
732.449	1334.19
732.639	1352.6
732.829	1359.38
733.019	1407.04
733.209	1437.65
733.399	1420.6
733.589	1482.02
733.779	1484.73
733.969	1435.33
734.159	1499.65
734.349	1535.88
734.539	1571.53
734.729	1554.48
734.919	1589.74
735.109	1597.3
735.299	1555.26
735.488	1554.09
735.678	1595.94
735.868	1578.7
736.058	1620.36
736.248	1553.71
736.437	1525.61
736.627	1552.93
736.817	1627.91
737.007	1594.39
737.196	1606.21
737.386	1600.21
737.576	1551.96
737.765	1604.86
737.955	1602.53
738.144	1682.16
738.334	1633.53
738.524	1583.35
738.713	1625.01
738.903	1634.69
739.092	1674.41
739.282	1647.87
739.471	1635.66
739.661	1641.47
739.85	1642.06
740.04	1678.09
740.229	1688.75
740.419	1673.64
740.608	1731.76
740.797	1712.77
740.987	1777.68
741.176	1764.5
741.365	1675.77
741.555	1672.67
741.744	1736.22
741.933	1706.38
742.123	1755.01
742.312	1763.92
742.501	1782.52
742.69	1778.45
742.88	1691.66
743.069	1821.66
743.258	1739.51
743.447	1825.53
743.636	1799.77
743.825	1764.7
744.014	1799.19
744.204	1797.83
744.393	1760.05
744.582	1824.57
744.771	1852.08
744.96	1792.6
745.149	1812.55
745.338	1812.55
745.527	1826.5
745.716	1782.14
745.905	1783.3
746.094	1776.32
746.283	1839.68
746.471	1816.43
746.66	1891.99
746.849	1835.42
747.038	1884.24
747.227	1840.65
747.416	1850.53
747.604	1818.75
747.793	1798.6
747.982	1832.9
748.171	1838.32
748.359	1849.17
748.548	1837.93
748.737	1806.35
748.926	1821.66
749.114	1774
749.303	1846.46
749.491	1819.72
749.68	1735.05
749.869	1835.42
750.057	1804.8
750.246	1808.68
750.434	1796.67
750.623	1817.98
750.811	1788.53
751	1835.61
751.188	1796.47
751.377	1824.95
751.565	1811.59
751.754	1768.19
751.942	1751.72
752.131	1838.9
752.319	1761.79
752.507	1758.3
752.696	1815.46
752.884	1811.78
753.072	1782.91
753.261	1784.85
753.449	1783.49
753.637	1764.31
753.825	1869.52
754.014	1743.58
754.202	1773.03
754.39	1829.02
754.578	1838.71
754.766	1769.35
754.955	1765.47
755.143	1843.17
755.331	1779.23
755.519	1815.07
755.707	1797.25
755.895	1754.24
756.083	1750.75
756.271	1697.47
756.459	1741.25
756.647	1775.16
756.835	1743.97
757.023	1684.1
757.211	1763.34
757.399	1749.59
757.587	1768.57
757.775	1684.49
757.963	1700.96
758.151	1724.79
758.339	1666.86
758.526	1703.28
758.714	1715.29
758.902	1719.56
759.09	1612.03
759.278	1528.52
759.465	1422.35
759.653	1262.12
759.841	1169.31
760.028	1005.79
760.216	841.69
760.404	862.8
760.591	683.78
760.779	593.69
760.967	543.32
761.154	416.02
761.342	465.24
761.529	425.71
761.717	482.87
761.905	431.52
762.092	478.41
762.28	437.92
762.467	455.16
762.655	386.38
762.842	429.97
763.029	447.99
763.217	429.2
763.404	443.73
763.592	450.32
763.779	438.3
763.966	451.09
764.154	501.47
764.341	539.44
764.528	528.2
764.716	552.23
764.903	579.74
765.09	622.17
765.277	631.28
765.465	717.49
765.652	756.63
765.839	782.98
766.026	843.62
766.213	873.85
766.4	937.01
766.588	1078.06
766.775	1003.08
766.962	1105.38
767.149	1114.68
767.336	1211.94
767.523	1151.1
767.71	1226.47
767.897	1297.19
768.084	1313.27
768.271	1363.64
768.458	1386.89
768.645	1395.42
768.832	1406.65
769.019	1398.13
769.206	1403.36
769.392	1483.38
769.579	1532.01
769.766	1494.23
769.953	1464.2
770.14	1525.42
770.327	1494.81
770.513	1523.1
770.7	1580.64
770.887	1511.47
771.073	1532.4
771.26	1518.83
771.447	1494.61
771.634	1508.95
771.82	1638.18
772.007	1507.4
772.193	1526.58
772.38	1613.19
772.567	1521.55
772.753	1539.95
772.94	1606.99
773.126	1612.8
773.313	1602.14
773.499	1593.43
773.686	1585.48
773.872	1543.25
774.059	1585.48
774.245	1526.78
774.432	1552.16
774.618	1507.79
774.804	1588.58
774.991	1487.64
775.177	1572.5
775.363	1525.42
775.55	1588.58
775.736	1493.26
775.922	1527.55
776.109	1526.39
776.295	1570.37
776.481	1560.29
776.667	1568.04
776.853	1521.93
777.04	1497.33
777.226	1525.81
777.412	1605.63
777.598	1522.13
777.784	1496.36
777.97	1488.03
778.156	1560.29
778.342	1502.95
778.528	1477.18
778.715	1409.95
778.901	1484.35
779.087	1516.12
779.272	1472.14
779.458	1454.32
779.644	1502.95
779.83	1457.61
780.016	1563.78
780.202	1492.87
780.388	1453.54
780.574	1383.21
780.76	1432.42
780.946	1508.95
781.131	1428.16
781.317	1417.5
781.503	1424.87
781.689	1427.19
781.874	1568.24
782.06	1416.92
782.246	1445.21
782.432	1423.32
782.617	1460.52
782.803	1503.53
782.989	1370.23
783.174	1439.01
783.36	1384.37
783.545	1423.9
783.731	1437.65
783.916	1341.75
784.102	1416.15
784.288	1395.8
784.473	1413.82
784.659	1353.57
784.844	1450.44
785.029	1378.37
785.215	1384.57
785.4	1330.12
785.586	1417.89
785.771	1317.34
785.956	1382.63
786.142	1398.71
786.327	1345.62
786.512	1380.69
786.698	1386.7
786.883	1359.57
787.068	1355.5
787.254	1370.42
787.439	1361.51
787.624	1331.29
787.809	1329.74
787.994	1331.48
788.18	1401.62
788.365	1303.19
788.55	1333.42
788.735	1308.42
788.92	1319.08
789.105	1329.35
789.29	1345.43
789.475	1310.75
789.66	1303.58
789.845	1278.59
790.03	1272.77
790.215	1321.99
790.4	1317.14
790.585	1359.38
790.77	1300.87
790.955	1215.23
791.14	1288.47
791.325	1364.42
791.51	1195.47
791.695	1298.74
791.879	1260.18
792.064	1241.39
792.249	1319.66
792.434	1263.09
792.618	1283.04
792.803	1352.6
792.988	1244.68
793.173	1281.3
793.357	1339.42
793.542	1225.5
793.727	1265.02
793.911	1303
794.096	1263.28
794.281	1290.99
794.465	1296.02
794.65	1256.89
794.834	1285.95
795.019	1318.69
795.203	1314.04
795.388	1331.09
795.572	1317.53
795.757	1285.56
795.941	1327.99
796.126	1305.71
796.31	1254.76
796.494	1280.52
796.679	1270.84
796.863	1274.52
797.048	1332.84
797.232	1318.5
797.416	1313.65
797.601	1288.27
797.785	1341.55
797.969	1328.77
798.153	1246.42
798.338	1284.21
798.522	1331.09
798.706	1330.51
798.89	1308.62
799.074	1423.12
799.258	1362.29
799.443	1343.3
799.627	1328.77
799.811	1334
799.995	1290.4
800.179	1292.15
800.363	1308.42
800.547	1324.31
800.731	1344.65
800.915	1292.34
801.099	1277.62
801.283	1269.09
801.467	1300.48
801.651	1296.99
801.835	1362.29
802.019	1340.39
802.202	1317.92
802.386	1255.14
802.57	1276.84
802.754	1291.95
802.938	1233.44
803.121	1258.82
803.305	1352.4
803.489	1308.04
803.673	1293.31
803.856	1337.29
804.04	1320.44
804.224	1308.42
804.407	1262.12
804.591	1259.6
804.775	1308.04
804.958	1321.6
805.142	1391.73
805.326	1297.77
805.509	1316.75
805.693	1342.72
805.876	1343.69
806.06	1300.09
806.243	1333.42
806.427	1332.45
806.61	1336.9
806.794	1267.93
806.977	1319.47
807.16	1287.5
807.344	1346.98
807.527	1313.85
807.71	1264.06
807.894	1309
808.077	1340.39
808.26	1262.51
808.444	1274.91
808.627	1333.42
808.81	1306.68
808.993	1253.01
809.177	1216.39
809.36	1260.37
809.543	1290.6
809.726	1217.75
809.909	1242.94
810.092	1185.78
810.276	1217.56
810.459	1209.03
810.642	1229.18
810.825	1195.08
811.008	1211.16
811.191	1129.01
811.374	1138.51
811.557	1175.51
811.74	1243.71
811.923	1131.14
812.106	1130.56
812.289	1101.31
812.472	1128.04
812.654	1155.17
812.837	1095.11
813.02	1069.73
813.203	1090.46
813.386	993.78
813.569	995.52
813.751	977.89
813.934	1013.73
814.117	1014.32
814.3	934.1
814.482	967.04
814.665	929.65
814.848	932.36
815.03	877.92
815.213	896.13
815.396	909.11
815.578	870.75
815.761	835.49
815.943	919.57
816.126	827.74
816.309	848.08
816.491	811.46
816.674	794.61
816.856	809.52
817.039	777.17
817.221	860.67
817.403	813.98
817.586	796.16
817.768	838.78
817.951	793.44
818.133	775.23
818.315	794.8
818.498	841.11
818.68	880.63
818.862	873.27
819.045	838.97
819.227	839.94
819.409	806.42
819.591	839.17
819.774	848.08
819.956	826.96
820.138	873.85
820.32	851.57
820.502	847.89
820.684	901.17
820.866	899.23
821.048	914.34
821.231	950.38
821.413	900.78
821.595	928.1
821.777	930.23
821.959	894.39
822.141	984.28
822.323	875.2
822.505	865.32
822.686	829.67
822.868	823.28
823.05	758.18
823.232	779.3
823.414	713.62
823.596	751.98
823.778	729.31
823.96	755.66
824.141	744.23
824.323	738.61
824.505	766.12
824.687	803.13
824.868	831.22
825.05	886.05
825.232	923.45
825.413	976.15
825.595	922.48
825.777	868.81
825.958	921.7
826.14	868.04
826.321	891.67
826.503	909.89
826.685	900.97
826.866	922.67
827.048	932.55
827.229	880.44
827.411	882.37
827.592	852.92
827.773	867.65
827.955	821.73
828.136	828.12
828.318	797.9
828.499	817.27
828.68	762.25
828.862	860.29
829.043	834.13
829.224	809.33
829.406	784.34
829.587	794.02
829.768	802.94
829.949	810.88
830.131	810.11
830.312	856.41
830.493	794.22
830.674	775.81
830.855	809.91
831.036	801.58
831.218	849.05
831.399	871.52
831.58	844.98
831.761	818.44
831.942	787.24
832.123	827.74
832.304	785.5
832.485	823.28
832.666	809.14
832.847	840.52
833.028	806.23
833.209	815.53
833.389	804.49
833.57	778.72
833.751	787.63
833.932	846.53
834.113	843.43
834.294	805.26
834.475	828.51
834.655	883.73
834.836	835.87
835.017	823.09
835.198	768.84
835.378	808.75
835.559	871.14
835.74	833.94
835.92	820.57
836.101	812.04
836.281	851.76
836.462	846.34
836.643	869.2
836.823	859.9
837.004	860.67
837.184	905.04
837.365	875.4
837.545	896.71
837.726	822.31
837.906	890.32
838.087	835.87
838.267	820.18
838.448	792.28
838.628	844.79
838.808	880.05
838.989	900.59
839.169	801.58
839.349	874.62
839.53	866.49
839.71	866.49
839.89	800.03
840.07	880.63
840.251	823.86
840.431	874.43
840.611	859.32
840.791	795.19
840.971	855.25
841.151	807.01
841.332	807.2
841.512	884.31
841.692	813.59
841.872	832.19
842.052	833.16
842.232	877.14
842.412	764.19
842.592	827.35
842.772	829.87
842.952	831.81
843.132	840.33
843.312	819.21
843.492	783.56
843.672	830.26
843.851	805.84
844.031	841.88
844.211	831.22
844.391	802.55
844.571	825.02
844.751	854.47
844.93	825.99
845.11	818.44
845.29	806.04
845.47	852.92
845.649	825.02
845.829	835.68
846.009	830.84
846.188	828.51
846.368	813.21
846.547	817.66
846.727	843.24
846.907	790.73
847.086	831.03
847.266	838.39
847.445	806.23
847.625	761.48
847.804	798.48
847.984	836.07
848.163	783.76
848.343	782.21
848.522	833.36
848.701	806.42
848.881	777.56
849.06	806.04
849.239	810.3
849.419	838.78
849.598	771.55
849.777	763.61
849.957	763.8
850.136	706.45
850.315	709.16
850.494	740.55
850.674	715.36
850.853	766.51
851.032	757.02
851.211	827.54
851.39	745.2
851.569	708.97
851.748	707.23
851.927	793.64
852.107	750.04
852.286	718.08
852.465	740.16
852.644	732.61
852.823	768.84
853.002	747.72
853.181	732.03
853.359	742.88
853.538	714.2
853.717	773.29
853.896	706.26
854.075	673.13
854.254	656.27
854.433	670.41
854.611	704.51
854.79	610.74
854.969	672.55
855.148	668.28
855.327	636.7
855.505	662.66
855.684	650.07
855.863	661.11
856.041	636.31
856.22	687.46
856.399	636.7
856.577	720.79
856.756	699.48
856.934	809.33
857.113	832.19
857.291	698.7
857.47	680.29
857.648	714.01
857.827	757.79
858.005	765.35
858.184	721.56
858.362	760.89
858.541	704.51
858.719	693.08
858.898	691.53
859.076	667.51
859.254	782.01
859.433	688.82
859.611	704.9
859.789	665.38
859.967	742.1
860.146	755.47
860.324	654.53
860.502	658.4
860.68	643.68
860.859	657.82
861.037	666.35
861.215	697.93
861.393	709.94
861.571	704.9
861.749	678.74
861.927	670.61
862.105	677.58
862.283	676.61
862.461	672.35
862.639	651.23
862.817	675.84
862.995	688.43
863.173	654.33
863.351	660.34
863.529	692.31
863.707	721.18
863.885	688.82
864.063	588.85
864.241	630.11
864.418	719.63
864.596	653.17
864.774	587.68
864.952	642.71
865.129	684.36
865.307	638.83
865.485	608.61
865.663	662.08
865.84	610.55
866.018	667.51
866.196	549.71
866.373	588.07
866.551	548.35
866.728	544.09
866.906	559.01
867.084	592.91
867.261	575.48
867.439	602.21
867.616	622.56
867.794	594.66
867.971	573.54
868.149	607.25
868.326	645.03
868.503	641.74
868.681	595.82
868.858	578.77
869.035	566.76
869.213	618.88
869.39	610.35
869.567	676.81
869.745	607.64
869.922	635.15
870.099	631.28
870.276	650.26
870.454	615.58
870.631	606.28
870.808	621.98
870.985	622.75
871.162	666.15
871.339	630.31
871.517	575.67
871.694	557.46
871.871	605.31
872.048	622.95
872.225	581.29
872.402	644.84
872.579	554.36
872.756	610.74
872.933	574.12
873.11	553.97
873.287	595.43
873.463	586.72
873.64	540.6
873.817	595.63
873.994	589.23
874.171	553.39
874.348	578.77
874.524	531.11
874.701	561.92
874.878	522.58
875.055	590.78
875.231	598.53
875.408	571.8
875.585	504.37
875.762	561.33
875.938	581.68
876.115	577.22
876.291	553
876.468	554.55
876.645	513.48
876.821	554.75
876.998	556.88
877.174	567.15
877.351	531.88
877.527	546.22
877.704	561.72
877.88	526.85
878.057	536.34
878.233	585.75
878.409	543.7
878.586	566.18
878.762	546.03
878.938	533.24
879.115	469.11
879.291	527.04
879.467	472.4
879.644	514.64
879.82	524.91
879.996	522.78
880.172	480.35
880.349	517.74
880.525	540.02
880.701	526.46
880.877	522.78
881.053	532.66
881.229	535.57
881.405	557.46
881.581	481.32
881.757	488.29
881.933	516.38
882.109	540.99
882.285	524.13
882.461	460.39
882.637	473.76
882.813	471.24
882.989	482.67
883.165	564.24
883.341	522.39
883.517	565.21
883.693	536.15
883.869	533.63
884.044	494.69
884.22	524.91
884.396	557.46
884.572	535.18
884.747	549.13
884.923	507.28
885.099	534.98
885.275	550.1
885.45	518.32
885.626	480.93
885.801	510.38
885.977	502.63
886.153	469.5
886.328	523.36
886.504	476.47
886.679	517.16
886.855	490.42
887.03	525.3
887.206	558.82
887.381	515.8
887.557	548.16
887.732	539.05
887.908	540.6
888.083	540.99
888.258	490.04
888.434	495.46
888.609	529.95
888.784	547
888.96	498.17
889.135	468.34
889.31	492.75
889.485	498.95
889.661	513.67
889.836	529.17
890.011	533.05
890.186	503.21
890.361	460.97
890.537	511.93
890.712	519.29
890.887	527.82
891.062	512.9
891.237	571.41
891.412	496.04
891.587	502.63
891.762	535.57
891.937	545.06
892.112	459.81
892.287	518.32
892.462	438.89
892.637	463.49
892.812	424.74
892.987	461.17
893.161	470.47
893.336	469.3
893.511	458.07
893.686	482.48
893.861	470.47
894.035	469.69
894.21	463.1
894.385	428.04
894.56	459.42
894.734	401.69
894.909	448.57
895.084	438.5
895.258	397.23
895.433	425.32
895.608	419.9
895.782	405.17
895.957	400.52
896.131	393.16
896.306	364.68
896.48	369.14
896.655	412.54
896.829	317.6
897.004	339.88
897.178	308.88
897.353	340.66
897.527	363.52
897.701	360.03
897.876	305.39
898.05	366.23
898.224	367.59
898.399	413.7
898.573	329.22
898.747	301.91
898.921	352.67
899.096	274.59
899.27	287.57
899.444	263.16
899.618	299.78
899.792	315.86
899.967	288.73
900.141	302.1
900.315	263.54
900.489	320.89
900.663	342.79
900.837	323.8
901.011	277.3
901.185	354.8
901.359	323.99
901.533	316.63
901.707	325.16
901.881	304.23
902.055	253.66
902.229	285.83
902.403	358.29
902.576	317.99
902.75	317.99
902.924	413.89
903.098	334.07
903.272	372.82
903.446	380.18
903.619	340.66
903.793	377.47
903.967	344.14
904.14	397.62
904.314	387.93
904.488	345.31
904.661	402.46
904.835	374.56
905.009	406.53
905.182	445.86
905.356	390.06
905.529	383.86
905.703	335.62
905.876	349.37
906.05	336.97
906.223	331.16
906.397	286.02
906.57	329.42
906.744	286.99
906.917	292.03
907.09	308.69
907.264	340.27
907.437	287.96
907.61	259.28
907.784	298.03
907.957	305.01
908.13	253.47
908.304	330.19
908.477	280.4
908.65	274.59
908.823	249.98
908.996	332.91
909.17	282.14
909.343	253.66
909.516	280.4
909.689	248.43
909.862	230.61
910.035	263.74
910.208	247.08
910.381	249.4
910.554	364.68
910.727	282.34
910.9	252.11
911.073	255.21
911.246	325.35
911.419	306.75
911.592	316.63
911.765	231
911.938	273.23
912.11	270.91
912.283	258.31
912.456	314.89
912.629	272.46
912.802	239.71
912.974	219.18
913.147	220.34
913.32	181.98
913.493	226.35
913.665	247.46
913.838	246.49
914.01	230.03
914.183	218.79
914.356	222.66
914.528	242.62
914.701	289.51
914.873	262.96
915.046	239.52
915.218	225.96
915.391	187.4
915.563	209.1
915.736	240.49
915.908	246.11
916.081	233.13
916.253	201.35
916.425	229.06
916.598	211.62
916.77	230.22
916.942	228.48
917.115	166.67
917.287	251.73
917.459	211.23
917.632	195.93
917.804	151.75
917.976	222.86
918.148	231.96
918.32	214.14
918.493	236.23
918.665	267.81
918.837	236.81
919.009	270.52
919.181	250.76
919.353	255.6
919.525	263.74
919.697	224.21
919.869	224.02
920.041	285.63
920.213	323.61
920.385	258.7
920.557	233.51
920.729	261.41
920.901	242.62
921.073	249.01
921.244	233.51
921.416	304.04
921.588	237.58
921.76	224.02
921.932	283.31
922.103	253.86
922.275	229.25
922.447	239.33
922.619	197.48
922.79	231.58
922.962	231
923.134	268.78
923.305	219.95
923.477	199.8
923.648	202.9
923.82	237.78
923.991	181.98
924.163	198.25
924.335	209.49
924.506	190.11
924.677	263.74
924.849	181.78
925.02	223.25
925.192	213.75
925.363	226.15
925.535	239.33
925.706	204.45
925.877	261.61
926.049	199.8
926.22	221.89
926.391	223.05
926.562	232.93
926.734	181.59
926.905	233.32
927.076	154.66
927.247	187.4
927.419	146.91
927.59	152.72
927.761	193.02
927.932	191.08
928.103	196.12
928.274	142.65
928.445	141.1
928.616	180.81
928.787	168.41
928.958	198.06
929.129	177.71
929.3	147.1
929.471	134.12
929.642	94.02
929.813	68.25
929.984	167.45
930.155	116.49
930.326	100.22
930.496	100.41
930.667	84.33
930.838	96.15
931.009	60.89
931.18	77.55
931.35	77.55
931.521	100.6
931.692	59.72
931.863	24.46
932.033	100.02
932.204	69.41
932.374	104.09
932.545	24.65
932.716	101.57
932.886	103.9
933.057	25.62
933.227	53.14
933.398	116.68
933.568	25.04
933.739	-9.25
933.909	23.3
934.08	79.29
934.25	-3.44
934.421	17.87
934.591	22.72
934.761	13.22
934.932	-24.17
935.102	23.69
935.272	14.19
935.443	34.15
935.613	20.97
935.783	32.02
935.953	-9.64
936.123	137.42
936.294	24.65
936.464	4.7
936.634	3.73
936.804	-21.85
936.974	-5.76
937.144	39.19
937.314	12.25
937.484	-9.25
937.655	-9.64
937.825	38.02
937.995	-7.7
938.165	70.96
938.334	7.41
938.504	1.6
938.674	-2.08
938.844	9.15
939.014	71.93
939.184	45.19
939.354	76
939.524	67.47
939.694	39.19
939.863	30.08
940.033	119.78
940.203	77.16
940.373	41.12
940.542	100.8
940.712	38.8
940.882	91.69
941.051	79.87
941.221	83.75
941.391	92.27
941.56	25.43
941.73	44.22
941.899	141.1
942.069	23.69
942.238	87.62
942.408	38.99
942.577	106.03
942.747	45.19
942.916	-11.96
943.086	17.29
943.255	76.58
943.425	62.63
943.594	13.8
943.763	-17.39
943.933	10.51
944.102	-36.96
944.271	60.5
944.441	32.21
944.61	11.09
944.779	51.2
944.948	123.66
945.117	13.42
945.287	34.34
945.456	-30.18
945.625	11.29
945.794	34.73
945.963	0.82
946.132	46.35
946.301	11.48
946.47	72.32
946.639	3.34
946.808	28.34
946.977	62.05
947.146	69.22
947.315	-1.5
947.484	59.14
947.653	4.12
947.822	29.5
947.991	10.12
948.16	112.81
948.329	89.56
948.498	12.45
948.666	33.37
948.835	46.16
949.004	-2.47
949.173	9.74
949.341	34.73
949.51	62.05
949.679	86.07
949.847	60.69
950.016	153.5
950.185	118.43
950.353	38.41
950.522	11.87
950.69	80.45
950.859	-0.73
951.028	70.18
951.196	39.77
951.365	1.21
951.533	30.66
951.701	55.27
951.87	77.74
952.038	16.71
952.207	38.41
952.375	88.4
952.543	23.69
952.712	21.17
952.88	7.8
953.048	88.98
953.217	33.57
953.385	20.97
953.553	109.71
953.721	-2.28
953.89	44.8
954.058	-9.45
954.226	28.92
954.394	45.39
954.562	-7.7
954.73	29.69
954.898	27.95
955.067	82.58
955.235	10.9
955.403	73.67
955.571	105.64
955.739	46.55
955.907	-2.47
956.075	-11
956.243	22.14
956.41	52.17
956.578	-0.34
956.746	-4.41
956.914	-4.21
957.082	68.25
957.25	63.02
957.418	-16.81
957.585	25.82
957.753	73.48
957.921	10.32
958.089	24.27
958.256	54.88
958.424	60.11
958.592	28.72
958.759	46.16
958.927	59.14
959.095	53.14
959.262	42.09
959.43	58.56
959.597	-0.15
959.765	46.94
959.932	-1.5
960.1	73.28
960.267	39.38
960.435	11.48
960.602	52.17
960.77	20.2
960.937	-16.23
961.104	32.02
961.272	1.4
961.439	24.46
961.606	67.08
961.774	53.91
961.941	32.99
962.108	46.74
962.275	16.13
962.443	72.7
962.61	58.37
962.777	94.21
962.944	37.83
963.111	36.67
963.278	52.55
963.446	50.23
963.613	42.67
963.78	64.95
963.947	56.04
964.114	51.39
964.281	82
964.448	65.73
964.615	38.6
964.782	45
964.949	84.72
965.116	60.89
965.282	78.9
965.449	42.09
965.616	2.37
965.783	73.48
965.95	78.13
966.117	-7.12
966.283	56.62
966.45	49.07
966.617	73.67
966.784	76.77
966.95	102.15
967.117	58.17
967.284	10.7
967.45	34.15
967.617	102.73
967.784	87.43
967.95	119.78
968.117	37.64
968.283	73.28
968.45	113.78
968.616	50.81
968.783	73.87
968.949	64.18
969.116	72.12
969.282	60.11
969.449	48.49
969.615	29.89
969.781	-10.61
969.948	42.48
970.114	6.25
970.28	107.58
970.447	39.19
970.613	90.72
970.779	38.02
970.945	61.08
971.112	65.34
971.278	43.84
971.444	62.05
971.61	96.92
971.776	25.62
971.942	46.35
972.108	68.05
972.275	18.26
972.441	73.09
972.607	143.42
972.773	9.74
972.939	76.58
973.105	47.13
973.271	6.25
973.437	35.89
973.602	28.53
973.768	80.26
973.934	49.65
974.1	84.33
974.266	-18.94
974.432	78.52
974.598	61.85
974.763	59.14
974.929	16.71
975.095	89.37
975.261	44.03
975.426	19.04
975.592	30.47
975.758	104.48
975.923	15.55
976.089	29.89
976.255	71.93
976.42	69.41
976.586	88.01
976.751	76.97
976.917	109.32
977.082	58.95
977.248	7.02
977.413	-13.9
977.579	41.7
977.744	56.24
977.91	31.05
978.075	28.53
978.24	70.96
978.406	29.3
978.571	17.29
978.736	42.29
978.902	57.4
979.067	36.86
979.232	0.44
979.397	31.44
979.563	94.98
979.728	18.45
979.893	47.71
980.058	11.67
980.223	95.37
980.388	63.21
980.554	46.94
980.719	30.27
980.884	61.47
981.049	96.92
981.214	49.07
981.379	51.59
981.544	29.11
981.709	48.49
981.874	46.16
982.039	36.28
982.204	77.16
982.368	80.65
982.533	1.02
982.698	44.03
982.863	88.01
983.028	49.26
983.193	50.42
983.357	44.42
983.522	65.15
983.687	20.2
983.852	52.94
984.016	34.15
984.181	80.65
984.346	23.69
984.51	71.15
984.675	60.11
984.839	62.63
985.004	57.59
985.168	82.97
985.333	36.67
985.498	47.32
985.662	76.19
985.827	81.81
985.991	61.66
986.155	29.5
986.32	70.38
986.484	105.06
986.649	46.35
986.813	-22.62
986.977	60.3
987.142	67.86
987.306	13.61
987.47	3.92
987.634	32.99
987.799	31.05
987.963	48.29
988.127	58.37
988.291	120.56
988.455	70.77
988.62	41.12
988.784	70.57
988.948	48.87
989.112	27.75
989.276	70.38
989.44	32.79
989.604	25.24
989.768	32.02
989.932	114.55
990.096	16.32
990.26	34.73
990.424	-3.05
990.588	17.68
990.752	112.23
990.915	55.27
991.079	32.02
991.243	22.52
991.407	50.42
991.571	25.82
991.734	59.53
991.898	60.11
992.062	116.68
992.226	40.93
992.389	30.27
992.553	7.99
992.717	11.48
992.88	28.92
993.044	46.74
993.207	31.63
993.371	59.72
993.535	82.97
993.698	58.17
993.862	49.26
994.025	92.47
994.189	50.23
994.352	76.38
994.515	64.18
994.679	82.2
994.842	52.55
995.006	71.93
995.169	24.85
995.332	37.83
995.496	65.92
995.659	-11.38
995.822	18.65
995.985	36.47
996.149	63.79
996.312	53.91
996.475	94.02
996.638	41.12
996.801	108.55
996.964	90.92
997.128	38.99
997.291	57.59
997.454	64.37
997.617	-4.8
997.78	82
997.943	9.74
998.106	70.18
998.269	5.67
998.432	43.64
998.595	50.04
998.758	-9.64
998.92	8.19
999.083	-6.35
999.246	22.33
999.409	-12.16
999.572	-29.4
999.735	18.65
999.897	41.9
1000.06	22.72
1000.223	25.82
1000.386	60.89
1000.548	81.03
1000.711	49.07
1000.874	58.37
1001.036	-28.04
1001.199	69.8
1001.361	13.61
1001.524	45.39
1001.687	74.25
1001.849	7.41
1002.012	62.63
1002.174	43.45
1002.337	39.77
1002.499	27.75
1002.661	61.08
1002.824	-0.92
1002.986	-1.31
1003.149	38.6
1003.311	-8.28
1003.473	96.34
1003.636	16.13
1003.798	28.53
1003.96	56.24
1004.123	23.49
1004.285	17.1
1004.447	45.19
1004.609	22.33
1004.771	77.35
1004.933	6.05
1005.096	-10.22
1005.258	-19.52
1005.42	-1.5
1005.582	82.39
1005.744	26.98
1005.906	-18.36
1006.068	32.99
1006.23	4.5
1006.392	-19.33
1006.554	3.15
1006.716	64.37
1006.878	36.09
1007.04	-1.89
1007.202	-16.23
1007.363	12.84
1007.525	33.57
1007.687	48.1
1007.849	48.68
1008.011	-20.3
1008.172	-11.96
1008.334	28.92
1008.496	32.21
1008.658	-26.3
1008.819	-34.44
1008.981	-21.46
1009.143	3.15
1009.304	3.15
1009.466	51.78
1009.627	43.64
1009.789	77.55
1009.95	19.62
1010.112	15.94
1010.273	49.84
1010.435	8.57
1010.596	0.44
1010.758	-13.51
1010.919	25.62
1011.081	6.05
1011.242	8.57
1011.403	40.93
1011.565	8.96
1011.726	58.17
1011.887	-19.33
1012.049	7.22
1012.21	49.26
1012.371	89.75
1012.532	-46.26
1012.693	27.17
1012.855	-4.21
1013.016	34.54
1013.177	100.6
1013.338	19.04
1013.499	82.2
1013.66	61.85
1013.821	41.7
1013.982	18.45
1014.143	36.47
1014.304	-14.87
1014.465	15.16
1014.626	64.95
1014.787	2.37
1014.948	92.47
1015.109	-33.47
1015.27	56.24
1015.431	16.52
1015.592	4.12
1015.752	74.45
1015.913	12.25
1016.074	32.99
1016.235	19.42
1016.395	11.48
1016.556	30.47
1016.717	13.8
1016.877	78.71
1017.038	-16.23
1017.199	42.29
1017.359	24.27
1017.52	24.27
1017.681	13.42
1017.841	19.81
1018.002	18.07
1018.162	1.4
1018.323	57.59
1018.483	9.93
1018.644	3.15
1018.804	-22.43
1018.964	-17.39
1019.125	-10.41
1019.285	19.04
1019.446	-7.7
1019.606	-11
1019.766	-48
1019.926	38.41
1020.087	17.68
1020.247	-35.02
1020.407	14.19
1020.567	53.33
1020.728	17.29
1020.888	-5.18
1021.048	-9.45
1021.208	6.05
1021.368	1.4
1021.528	29.11
1021.688	32.21
1021.848	18.07
1022.008	2.76
1022.168	18.07
1022.328	18.45
1022.488	9.93
1022.648	-4.6
1022.808	11.67
1022.968	27.17
1023.128	-11.77
1023.288	14.39
1023.448	36.86
1023.608	35.31
1023.767	16.52
1023.927	-11.38
1024.087	-24.75
1024.247	-19.33
1024.406	-6.15
1024.566	-12.74
1024.726	3.92
1024.885	8.57
1025.045	51.39
1025.205	18.45
1025.364	19.42
1025.524	25.24
1025.683	8.77
1025.843	25.62
1026.003	25.82
1026.162	75.8
1026.321	43.64
1026.481	11.09
1026.64	11.09
1026.8	29.11
1026.959	22.52
1027.119	1.4
1027.278	0.24
1027.437	-2.08
1027.597	32.99
1027.756	5.67
1027.915	49.07
1028.074	6.64
1028.234	-17
1028.393	21.75
1028.552	7.22
1028.711	-64.08
1028.87	40.35
1029.03	-49.36
1029.189	-2.28
1029.348	-47.23
1029.507	-16.81
1029.666	-1.5
1029.825	-19.52
1029.984	-8.09
1030.143	16.32
1030.302	8.38
1030.461	-38.12
1030.62	7.8
1030.779	39.38
1030.938	-26.88
1031.097	-42.38
1031.255	24.46
1031.414	60.89
1031.573	49.65
1031.732	-51.29
1031.891	-12.16
1032.049	57.2
1032.208	37.05
1032.367	-26.69
1032.525	10.51
1032.684	-21.46
1032.843	7.8
1033.001	-43.35
1033.16	153.11
1033.319	44.03
1033.477	32.79
1033.636	-4.6
1033.794	-42.19
1033.953	44.42
1034.111	24.46
1034.27	-22.43
1034.428	7.02
1034.587	-51.68
1034.745	11.09
1034.903	-1.31
1035.062	32.79
1035.22	-38.89
1035.378	37.44
1035.537	-42.38
1035.695	20.2
1035.853	2.57
1036.011	30.85
1036.17	9.35
1036.328	-41.8
1036.486	44.22
1036.644	15.35
1036.802	-82.68
1036.96	-33.47
1037.119	-2.66
1037.277	-28.43
1037.435	-26.69
1037.593	-23.2
1037.751	-18.94
1037.909	42.87
1038.067	42.87
