Data from pine_FLMT105791__2__17-19-36-080.txt Node

Date: Mon Mar 20 17:19:36 GMT 2023
User: antho
Spectrometer: FLMT10579
Trigger mode: 0
Integration Time (sec): 1.000000E-1
Scans to average: 10
Electric dark correction enabled: true
Nonlinearity correction enabled: false
Boxcar width: 0
XAxis mode: Wavelengths
Number of Pixels in Spectrum: 3648
>>>>>Begin Spectral Data<<<<<
345.248	-179.04
345.464	-179.04
345.681	-179.04
345.898	-153.66
346.114	-165.86
346.331	-44.38
346.548	12
346.764	13.16
346.981	-2.15
347.197	-4.67
347.414	31.18
347.631	-37.8
347.847	46.29
348.064	4.83
348.28	34.28
348.497	-42.64
348.713	-10.09
348.93	40.67
349.146	46.29
349.363	5.22
349.579	14.71
349.796	-1.37
350.012	-12.8
350.229	32.73
350.445	-6.8
350.661	-33.15
350.878	-7.77
351.094	3.86
351.311	6.18
351.527	28.85
351.743	-0.6
351.96	37.76
352.176	42.61
352.392	39.31
352.609	39.51
352.825	-4.08
353.041	0.95
353.257	-22.1
353.474	6.18
353.69	20.52
353.906	5.8
354.122	-29.85
354.339	65.66
354.555	15.68
354.771	-1.18
354.987	58.88
355.203	54.81
355.42	-25.2
355.636	-40.7
355.852	-0.4
356.068	5.02
356.284	-37.22
356.5	63.53
356.716	33.31
356.932	6.57
357.148	48.23
357.364	-23.65
357.58	51.13
357.796	55.2
358.012	19.94
358.228	25.56
358.444	-79.84
358.66	70.31
358.876	29.63
359.092	-21.72
359.308	10.06
359.524	-0.98
359.74	-4.67
359.956	-11.06
360.172	33.11
360.388	23.81
360.604	4.63
360.819	82.71
361.035	1.73
361.251	42.03
361.467	-21.91
361.683	41.25
361.898	15.48
362.114	56.36
362.33	36.21
362.546	51.33
362.762	-8.93
362.977	24.2
363.193	-15.52
363.409	32.34
363.624	-36.44
363.84	-19.58
364.056	-20.94
364.271	15.29
364.487	22.65
364.703	-1.95
364.918	-27.33
365.134	10.06
365.35	7.73
365.565	123.01
365.781	27.69
365.996	43.38
366.212	57.53
366.427	9.09
366.643	2.7
366.858	-1.37
367.074	0.95
367.289	58.5
367.505	113.91
367.72	-26.95
367.936	9.67
368.151	57.72
368.367	52.3
368.582	18.58
368.798	-8.93
369.013	43
369.228	-2.92
369.444	36.99
369.659	47.06
369.874	20.52
370.09	70.31
370.305	-62.6
370.52	-15.9
370.736	59.85
370.951	9.09
371.166	58.69
371.381	70.7
371.597	43.19
371.812	-19.2
372.027	-16.48
372.242	28.66
372.458	57.91
372.673	32.34
372.888	2.12
373.103	15.87
373.318	105.19
373.533	52.49
373.749	28.08
373.964	-36.83
374.179	68.96
374.394	-20.94
374.609	78.26
374.824	-14.93
375.039	45.51
375.254	-0.6
375.469	75.35
375.684	2.12
375.899	47.26
376.114	8.7
376.329	37.38
376.544	39.31
376.759	45.51
376.974	-12.8
377.189	19.16
377.404	-3.31
377.619	32.53
377.834	-24.43
378.049	-51.36
378.264	-12.22
378.478	22.46
378.693	3.08
378.908	11.61
379.123	0.37
379.338	79.23
379.553	24.4
379.767	17.81
379.982	32.92
380.197	48.61
380.412	3.67
380.626	6.18
380.841	105.19
381.056	23.43
381.271	81.75
381.485	-7.96
381.7	-21.33
381.915	25.36
382.129	24.2
382.344	31.18
382.559	5.41
382.773	64.11
382.988	-17.45
383.202	23.04
383.417	-0.4
383.632	116.23
383.846	13.35
384.061	12
384.275	-2.53
384.49	30.01
384.704	36.41
384.919	41.83
385.133	-3.89
385.348	46.29
385.562	-2.15
385.777	35.44
385.991	19.94
386.206	6.77
386.42	-12.42
386.634	65.08
386.849	59.08
387.063	45.32
387.277	-13.58
387.492	8.7
387.706	5.02
387.92	-12.42
388.135	69.73
388.349	45.13
388.563	11.41
388.778	24.98
388.992	45.71
389.206	53.26
389.42	79.23
389.635	37.57
389.849	32.92
390.063	53.07
390.277	23.23
390.491	82.91
390.706	14.51
390.92	73.03
391.134	18.2
391.348	48.42
391.562	-14.16
391.776	19.55
391.99	-3.7
392.205	45.13
392.419	-16.48
392.633	7.15
392.847	63.15
393.061	-8.15
393.275	102.28
393.489	36.02
393.703	43.77
393.917	76.51
394.131	22.26
394.345	36.99
394.559	62.76
394.773	37.18
394.986	36.99
395.2	48.23
395.414	32.92
395.628	3.08
395.842	16.84
396.056	-6.6
396.27	-17.65
396.484	48.42
396.697	47.65
396.911	89.3
397.125	49.78
397.339	65.66
397.553	43
397.766	85.62
397.98	58.88
398.194	59.08
398.408	20.71
398.621	49.97
398.835	53.46
399.049	31.76
399.262	86.78
399.476	45.71
399.69	74.96
399.903	95.31
400.117	30.01
400.331	59.27
400.544	-4.86
400.758	138.13
400.971	56.17
401.185	74.77
401.398	13.35
401.612	81.55
401.826	47.26
402.039	67.41
402.253	-7.77
402.466	57.72
402.68	25.56
402.893	54.62
403.106	58.11
403.32	31.56
403.533	74
403.747	51.13
403.96	49
404.174	53.26
404.387	-8.93
404.6	31.95
404.814	69.35
405.027	38.35
405.24	39.12
405.454	21.88
405.667	92.79
405.88	-44.97
406.094	74.96
406.307	86.01
406.52	36.21
406.733	-0.02
406.947	-27.53
407.16	106.74
407.373	64.89
407.586	-0.21
407.799	1.34
408.012	89.88
408.226	42.03
408.439	83.49
408.652	8.31
408.865	41.45
409.078	73.41
409.291	63.34
409.504	0.37
409.717	64.5
409.93	68.96
410.143	44.93
410.357	-20.17
410.57	12.96
410.783	50.16
410.996	60.05
411.209	43
411.421	70.51
411.634	15.68
411.847	17.61
412.06	43
412.273	31.37
412.486	47.06
412.699	129.02
412.912	32.34
413.125	62.56
413.338	52.68
413.55	75.16
413.763	33.11
413.976	59.08
414.189	32.34
414.402	40.86
414.615	121.27
414.827	0.95
415.04	75.16
415.253	48.42
415.466	70.51
415.678	117.2
415.891	56.56
416.104	32.15
416.316	43
416.529	31.37
416.742	75.74
416.954	86.01
417.167	47.84
417.38	35.83
417.592	92.6
417.805	53.65
418.017	-25.4
418.23	98.79
418.442	28.46
418.655	39.9
418.868	83.68
419.08	88.14
419.293	72.06
419.505	59.08
419.718	69.35
419.93	77.29
420.142	35.63
420.355	90.27
420.567	88.91
420.78	65.66
420.992	27.11
421.205	107.51
421.417	13.93
421.629	36.21
421.842	16.65
422.054	3.67
422.266	67.6
422.479	104.03
422.691	36.99
422.903	81.55
423.115	37.38
423.328	36.8
423.54	73.41
423.752	53.26
423.964	23.43
424.177	84.85
424.389	39.9
424.601	169.32
424.813	74.77
425.025	81.94
425.238	71.48
425.45	59.27
425.662	42.41
425.874	365.97
426.086	51.52
426.298	92.21
426.51	52.68
426.722	49.58
426.934	18.39
427.146	105.77
427.358	24.98
427.57	109.45
427.782	59.85
427.994	57.72
428.206	36.21
428.418	14.13
428.63	75.93
428.842	108.87
429.054	63.53
429.266	109.64
429.478	59.08
429.69	80.58
429.902	28.66
430.114	80.39
430.325	92.4
430.537	71.86
430.749	57.14
430.961	12.77
431.173	73.61
431.384	99.76
431.596	15.87
431.808	57.14
432.02	81.36
432.231	82.33
432.443	102.67
432.655	86.01
432.867	64.11
433.078	82.33
433.29	149.75
433.502	111.97
433.713	112.74
433.925	90.46
434.136	129.02
434.348	28.08
434.56	24.2
434.771	197.8
434.983	38.73
435.194	79.03
435.406	78.45
435.617	128.24
435.829	149.94
436.04	130.38
436.252	118.75
436.463	144.52
436.675	120.49
436.886	94.53
437.098	123.59
437.309	150.91
437.521	105.58
437.732	113.52
437.943	125.53
438.155	122.04
438.366	63.53
438.578	169.9
438.789	99.76
439	142.58
439.211	88.14
439.423	115.07
439.634	131.73
439.845	146.84
440.057	118.36
440.268	153.24
440.479	78.45
440.69	129.6
440.902	121.27
441.113	103.64
441.324	92.21
441.535	137.54
441.746	173
441.957	84.85
442.168	108.87
442.38	138.51
442.591	156.92
442.802	115.46
443.013	102.86
443.224	162.34
443.435	113.91
443.646	145.49
443.857	141.23
444.068	106.93
444.279	88.91
444.49	197.22
444.701	129.41
444.912	213.11
445.123	180.17
445.334	164.09
445.545	156.92
445.756	113.33
445.967	112.36
446.178	176.1
446.388	209.04
446.599	184.24
446.81	154.79
447.021	140.06
447.232	183.85
447.443	181.53
447.653	113.71
447.864	198.57
448.075	144.33
448.286	172.23
448.496	168.93
448.707	213.69
448.918	143.16
449.129	242.94
449.339	157.5
449.55	153.82
449.761	145.49
449.971	192.18
450.182	160.99
450.393	203.03
450.603	158.86
450.814	216.21
451.024	183.85
451.235	205.36
451.446	214.07
451.656	234.22
451.867	126.11
452.077	194.31
452.288	237.32
452.498	264.84
452.709	169.13
452.919	195.09
453.13	155.76
453.34	205.16
453.55	139.29
453.761	210.2
453.971	206.32
454.182	228.61
454.392	237.91
454.602	272
454.813	175.91
455.023	232.09
455.233	151.69
455.444	197.61
455.654	175.52
455.864	183.07
456.075	173.19
456.285	178.43
456.495	196.83
456.705	198.19
456.916	224.15
457.126	247.01
457.336	175.33
457.546	150.14
457.756	178.23
457.967	222.6
458.177	174.55
458.387	227.83
458.597	169.13
458.807	186.37
459.017	182.88
459.227	171.64
459.437	196.25
459.647	221.82
459.857	238.68
460.068	159.44
460.278	236.16
460.488	195.86
460.698	295.84
460.908	196.44
461.117	149.94
461.327	171.26
461.537	200.51
461.747	206.13
461.957	226.86
462.167	321.41
462.377	281.69
462.587	214.07
462.797	243.52
463.007	217.56
463.216	243.52
463.426	261.93
463.636	226.47
463.846	177.84
464.056	201.48
464.265	241.01
464.475	186.56
464.685	235.39
464.895	248.17
465.104	232.87
465.314	272.59
465.524	251.86
465.733	196.83
465.943	273.17
466.153	293.7
466.362	244.69
466.572	245.66
466.782	204.77
466.991	245.85
467.201	280.34
467.41	182.3
467.62	237.13
467.829	233.06
468.039	259.99
468.249	235.39
468.458	227.44
468.668	272.97
468.877	256.51
469.086	299.13
469.296	270.84
469.505	242.56
469.715	303
469.924	266.77
470.134	293.7
470.343	290.8
470.552	271.62
470.762	255.15
470.971	203.03
471.18	291.96
471.39	265.03
471.599	229.96
471.808	309.59
472.018	233.06
472.227	280.92
472.436	298.94
472.645	259.99
472.855	237.52
473.064	298.74
473.273	285.95
473.482	298.74
473.691	315.21
473.901	329.35
474.11	287.7
474.319	404.33
474.528	306.49
474.737	356.29
474.946	336.33
475.155	312.3
475.364	339.04
475.573	335.94
475.783	342.14
475.992	342.53
476.201	366.55
476.41	318.5
476.619	306.1
476.828	309.2
477.037	309.2
477.245	293.7
477.454	336.91
477.663	306.1
477.872	299.32
478.081	381.86
478.29	303
478.499	415.57
478.708	348.73
478.917	412.08
479.125	360.16
479.334	362.48
479.543	347.57
479.752	347.37
479.961	345.63
480.169	404.33
480.378	338.46
480.587	439.98
480.796	383.02
481.004	375.27
481.213	374.88
481.422	366.75
481.63	369.07
481.839	383.41
482.048	435.92
482.256	387.67
482.465	402.2
482.674	411.7
482.882	414.41
483.091	462.46
483.299	425.45
483.508	423.52
483.716	408.98
483.925	408.02
484.134	392.9
484.342	395.42
484.551	465.75
484.759	436.3
484.967	450.45
485.176	464.59
485.384	448.51
485.593	448.51
485.801	448.9
486.01	410.15
486.218	423.71
486.426	350.86
486.635	392.9
486.843	372.95
487.051	390.58
487.26	396
487.468	426.42
487.676	454.9
487.885	411.5
488.093	451.03
488.301	403.95
488.509	436.11
488.717	439.98
488.926	457.42
489.134	417.51
489.342	452.38
489.55	417.9
489.758	446.18
489.967	423.13
490.175	536.47
490.383	429.72
490.591	514
490.799	417.9
491.007	518.65
491.215	490.16
491.423	471.37
491.631	506.05
491.839	484.55
492.047	520.58
492.255	452.77
492.463	431.85
492.671	480.48
492.879	526.98
493.087	492.1
493.295	496.36
493.503	500.43
493.711	543.44
493.919	561.66
494.127	553.52
494.334	545.77
494.542	464.59
494.75	510.12
494.958	525.81
495.166	564.18
495.374	536.86
495.581	539.38
495.789	534.73
495.997	579.87
496.205	535.5
496.412	535.11
496.62	525.23
496.828	571.15
497.035	514.77
497.243	576.58
497.451	555.65
497.658	534.34
497.866	532.59
498.074	582
498.281	481.25
498.489	630.44
498.696	541.12
498.904	553.91
499.112	535.11
499.319	604.67
499.527	552.55
499.734	612.81
499.942	493.85
500.149	523.3
500.357	567.47
500.564	522.91
500.771	587.62
500.979	567.08
501.186	531.05
501.394	558.56
501.601	564.18
501.808	567.28
502.016	573.28
502.223	555.65
502.43	566.89
502.638	545.38
502.845	540.34
503.052	598.28
503.26	531.24
503.467	647.87
503.674	599.24
503.881	609.32
504.089	668.41
504.296	633.92
504.503	573.67
504.71	607.58
504.917	574.06
505.125	598.47
505.332	577.54
505.539	624.82
505.746	681.78
505.953	650.39
506.16	633.15
506.367	690.5
506.574	687.59
506.781	678.68
506.988	610.87
507.195	635.67
507.402	616.1
507.609	690.69
507.816	600.21
508.023	649.42
508.23	624.24
508.437	605.25
508.644	654.66
508.851	695.92
509.058	657.37
509.265	627.53
509.472	668.41
509.679	729.05
509.885	644.39
510.092	655.43
510.299	670.93
510.506	661.63
510.713	658.34
510.92	688.56
511.126	672.87
511.333	733.12
511.54	688.17
511.746	732.54
511.953	727.7
512.16	755.4
512.367	704.45
512.573	704.26
512.78	718.79
512.987	686.04
513.193	690.5
513.4	630.24
513.606	684.69
513.813	723.63
514.02	700.77
514.226	777.49
514.433	750.56
514.639	667.25
514.846	685.66
515.052	674.22
515.259	731.57
515.465	718.4
515.672	720.14
515.878	806.17
516.085	722.47
516.291	744.55
516.497	736.8
516.704	729.64
516.91	695.54
517.117	643.61
517.323	615.71
517.529	684.3
517.736	669.57
517.942	689.72
518.148	675
518.354	724.6
518.561	694.18
518.767	718.01
518.973	749.4
519.179	749.01
519.386	705.42
519.592	712
519.798	722.08
520.004	818.37
520.21	730.41
520.417	791.25
520.623	815.27
520.829	818.18
521.035	824.38
521.241	802.48
521.447	830.77
521.653	905.95
521.859	771.68
522.065	839.1
522.271	910.4
522.477	855.77
522.683	906.91
522.889	872.43
523.095	861.38
523.301	846.08
523.507	817.79
523.713	846.27
523.919	802.48
524.125	863.32
524.331	862.55
524.537	950.12
524.742	905.95
524.948	943.53
525.154	885.6
525.36	986.16
525.566	912.15
525.772	923.96
525.977	886.57
526.183	938.11
526.389	978.02
526.595	872.62
526.8	898.97
527.006	830.97
527.212	841.82
527.417	809.65
527.623	801.71
527.829	905.36
528.034	904.98
528.24	901.49
528.446	856.35
528.651	969.88
528.857	932.49
529.062	1018.51
529.268	961.16
529.473	968.91
529.679	937.33
529.884	1040.21
530.09	988.68
530.295	1012.31
530.501	1001.46
530.706	1008.44
530.912	934.23
531.117	986.35
531.323	980.15
531.528	1025.29
531.733	1010.57
531.939	945.08
532.144	1031.88
532.35	967.36
532.555	1035.56
532.76	1000.88
532.966	1032.27
533.171	1034.21
533.376	968.14
533.581	957.48
533.787	985.38
533.992	1020.06
534.197	1069.08
534.402	991
534.607	1012.7
534.813	1096.59
535.018	998.36
535.223	1015.41
535.428	1002.04
535.633	1113.84
535.838	1047.58
536.043	1035.95
536.249	1136.12
536.454	1035.37
536.659	1091.75
536.864	1045.06
537.069	1061.33
537.274	1051.84
537.479	1054.74
537.684	1078.38
537.889	1014.06
538.094	1138.64
538.299	1092.91
538.504	1089.81
538.708	1073.54
538.913	1106.28
539.118	1079.35
539.323	1109.96
539.528	1032.08
539.733	1044.09
539.938	1084
540.142	1088.26
540.347	1074.31
540.552	1023.74
540.757	1049.32
540.962	1041.57
541.166	1023.55
541.371	1044.86
541.576	1042.54
541.781	976.66
541.985	1059.2
542.19	1070.05
542.395	1121.01
542.599	1145.03
542.804	1116.36
543.008	1117.52
543.213	1065.01
543.418	1038.47
543.622	1091.36
543.827	1042.93
544.031	1108.61
544.236	1128.56
544.44	1103.76
544.645	1168.47
544.849	1068.5
545.054	1134.96
545.258	1173.7
545.463	1174.09
545.667	1068.31
545.872	1100.47
546.076	1118.68
546.281	1123.52
546.485	1096.4
546.689	1154.52
546.894	1177.97
547.098	1136.89
547.302	1080.32
547.507	1124.69
547.711	1133.41
547.915	1197.92
548.119	1075.28
548.324	1126.62
548.528	1181.65
548.732	1161.11
548.936	1147.55
549.141	1167.12
549.345	1130.5
549.549	1158.2
549.753	1171.77
549.957	1258.95
550.161	1207.22
550.366	1158.01
550.57	1094.46
550.774	1184.17
550.978	1126.43
551.182	1170.99
551.386	1142.71
551.59	1161.3
551.794	1127.98
551.998	1168.67
552.202	1154.14
552.406	1090.78
552.61	1184.94
552.814	1157.04
553.018	1211.1
553.222	1158.2
553.426	1133.21
553.63	1224.47
553.833	1134.37
554.037	1111.32
554.241	1184.36
554.445	1184.94
554.649	1172.15
554.853	1146.19
555.056	1168.28
555.26	1224.85
555.464	1166.73
555.668	1165.18
555.871	1209.16
556.075	1199.09
556.279	1142.9
556.483	1128.95
556.686	1118.68
556.89	1134.76
557.094	1173.9
557.297	1101.24
557.501	1182.62
557.704	1078.57
557.908	1195.02
558.112	1097.37
558.315	1185.33
558.519	1107.06
558.722	1122.56
558.926	1136.51
559.129	1094.07
559.333	1081.87
559.536	1059.59
559.74	1035.56
559.943	1069.66
560.147	1053
560.35	1099.31
560.553	1111.32
560.757	1030.33
560.96	1156.46
561.164	1104.73
561.367	1159.17
561.57	1089.04
561.774	1158.4
561.977	1070.63
562.18	1073.15
562.384	1164.99
562.587	1120.04
562.79	1060.56
562.993	1097.17
563.197	1115.39
563.4	1151.42
563.603	1169.83
563.806	1206.06
564.009	1067.14
564.212	1101.82
564.416	1043.51
564.619	1096.01
564.822	1062.88
565.025	1144.25
565.228	1072.57
565.431	1076.83
565.634	1011.54
565.837	1041.96
566.04	1049.9
566.243	1049.32
566.446	953.61
566.649	1067.72
566.852	1029.36
567.055	1043.51
567.258	1073.73
567.461	1115
567.664	1082.84
567.867	1018.32
568.07	1083.03
568.273	1069.66
568.475	1102.41
568.678	1038.86
568.881	1007.47
569.084	1004.37
569.287	959.42
569.489	1000.69
569.692	1058.23
569.895	1034.4
570.098	947.8
570.3	976.66
570.503	914.47
570.706	952.83
570.909	951.86
571.111	947.21
571.314	932.3
571.516	956.51
571.719	974.92
571.922	924.35
572.124	948.57
572.327	972.79
572.529	885.41
572.732	896.06
572.935	942.18
573.137	1024.71
573.34	956.71
573.542	1002.24
573.745	959.23
573.947	948.57
574.15	941.4
574.352	936.56
574.554	992.36
574.757	952.83
574.959	936.17
575.162	874.37
575.364	916.21
575.566	1039.24
575.769	916.99
575.971	914.28
576.173	867.58
576.376	887.73
576.578	943.53
576.78	933.46
576.982	846.66
577.185	918.35
577.387	875.92
577.589	874.56
577.791	904.78
577.993	921.64
578.196	868.55
578.398	925.9
578.6	932.49
578.802	864.48
579.004	861.19
579.206	854.02
579.408	904.59
579.61	876.11
579.812	936.17
580.014	885.21
580.216	861.97
580.418	906.14
580.62	871.65
580.822	850.15
581.024	895.48
581.226	925.9
581.428	896.45
581.63	960.78
581.832	876.5
582.034	930.94
582.236	890.25
582.438	909.63
582.64	957.87
582.841	970.66
583.043	986.74
583.245	912.53
583.447	924.35
583.649	919.9
583.85	897.81
584.052	976.86
584.254	901.49
584.456	953.41
584.657	819.15
584.859	909.82
585.061	889.86
585.262	875.33
585.464	876.11
585.666	946.05
585.867	843.17
586.069	957.87
586.27	907.11
586.472	892.58
586.674	834.07
586.875	854.8
587.077	877.66
587.278	895.87
587.48	884.44
587.681	981.7
587.883	897.81
588.084	821.86
588.285	886.38
588.487	865.26
588.688	858.67
588.89	807.13
589.091	796.87
589.292	811.78
589.494	767.03
589.695	767.03
589.896	736.03
590.098	714.72
590.299	780.59
590.5	739.9
590.702	765.29
590.903	820.31
591.104	858.67
591.305	826.32
591.507	852.47
591.708	797.45
591.909	803.65
592.11	885.41
592.311	831.35
592.512	813.72
592.714	753.08
592.915	766.25
593.116	792.99
593.317	798.22
593.518	818.37
593.719	768.97
593.92	834.65
594.121	856.93
594.322	794.35
594.523	795.32
594.724	760.05
594.925	759.67
595.126	799
595.327	830
595.528	808.3
595.729	836.58
595.929	784.85
596.13	804.62
596.331	836.2
596.532	812.37
596.733	853.25
596.934	823.6
597.135	843.95
597.335	853.83
597.536	765.29
597.737	822.25
597.938	774.2
598.138	841.82
598.339	791.44
598.54	823.8
598.74	807.13
598.941	806.36
599.142	850.34
599.342	822.63
599.543	772.26
599.744	782.34
599.944	822.63
600.145	787.18
600.345	835.42
600.546	872.23
600.746	814.3
600.947	901.1
601.147	851.31
601.348	867.2
601.548	780.79
601.749	810.23
601.949	762.96
602.15	782.92
602.35	787.37
602.551	848.98
602.751	757.92
602.951	765.48
603.152	696.7
603.352	820.7
603.552	782.34
603.753	825.15
603.953	808.49
604.153	824.96
604.354	815.47
604.554	817.6
604.754	800.35
604.954	758.89
605.155	805
605.355	799.38
605.555	850.73
605.755	862.55
605.955	792.02
606.155	858.48
606.356	810.82
606.556	822.63
606.756	858.48
606.956	780.2
607.156	850.53
607.356	771.87
607.556	812.75
607.756	813.92
607.956	809.85
608.156	785.82
608.356	785.44
608.556	838.33
608.756	805
608.956	769.55
609.156	804.42
609.356	736.8
609.556	773.81
609.755	800.16
609.955	774.39
610.155	779.62
610.355	796.87
610.555	768.58
610.755	790.86
610.954	728.67
611.154	765.09
611.354	833.29
611.554	751.53
611.753	772.26
611.953	718.2
612.153	790.86
612.352	784.08
612.552	698.25
612.752	711.42
612.951	767.61
613.151	767.22
613.351	709.68
613.55	747.07
613.75	758.12
613.949	732.54
614.149	750.75
614.348	741.07
614.548	730.22
614.747	662.99
614.947	736.03
615.146	723.24
615.346	792.22
615.545	721.69
615.745	771.49
615.944	750.75
616.144	757.92
616.343	787.95
616.542	722.66
616.742	759.86
616.941	703.29
617.14	651.17
617.34	744.36
617.539	717.43
617.738	700.57
617.938	755.02
618.137	710.65
618.336	681.01
618.535	714.14
618.734	706.97
618.934	735.64
619.133	699.02
619.332	711.62
619.531	695.34
619.73	737.39
619.929	774.39
620.128	746.3
620.328	774
620.527	707.94
620.726	705.22
620.925	753.27
621.124	711.62
621.323	744.36
621.522	689.34
621.721	663.57
621.92	656.4
622.119	748.24
622.318	664.92
622.517	708.71
622.715	693.6
622.914	662.21
623.113	682.36
623.312	632.18
623.511	687.98
623.71	674.03
623.909	678.68
624.107	763.15
624.306	666.28
624.505	666.09
624.704	653.69
624.902	661.44
625.101	714.33
625.3	685.85
625.499	653.3
625.697	666.67
625.896	657.76
626.095	692.63
626.293	640.32
626.492	679.84
626.69	698.64
626.889	645.74
627.088	711.23
627.286	640.32
627.485	629.86
627.683	620.75
627.882	676.16
628.08	601.76
628.279	627.14
628.477	686.82
628.676	619.39
628.874	662.21
629.073	611.45
629.271	603.7
629.469	657.95
629.668	621.72
629.866	606.22
630.065	628.69
630.263	647.87
630.461	626.95
630.66	644.58
630.858	651.94
631.056	654.07
631.254	673.64
631.453	609.32
631.651	680.81
631.849	646.13
632.047	634.7
632.245	584.71
632.444	642.06
632.642	676.55
632.84	643.61
633.038	628.89
633.236	623.85
633.434	626.17
633.632	610.29
633.83	600.79
634.028	644
634.227	639.74
634.425	728.47
634.623	654.46
634.821	656.4
635.019	648.07
635.216	628.89
635.414	664.34
635.612	657.37
635.81	620.94
636.008	706.19
636.206	623.27
636.404	651.75
636.602	560.11
636.8	621.52
636.997	660.86
637.195	681.01
637.393	653.88
637.591	724.02
637.789	663.57
637.986	626.37
638.184	644.39
638.382	690.31
638.58	685.66
638.777	696.31
638.975	618.23
639.173	647.68
639.37	657.95
639.568	701.54
639.765	657.95
639.963	626.37
640.161	683.52
640.358	696.51
640.556	621.33
640.753	628.11
640.951	597.31
641.148	632.76
641.346	615.33
641.543	621.72
641.741	676.16
641.938	599.63
642.136	632.57
642.333	610.09
642.531	684.3
642.728	676.36
642.925	610.09
643.123	626.76
643.32	637.61
643.517	623.66
643.715	650.78
643.912	621.33
644.109	626.56
644.306	578.9
644.504	615.33
644.701	619.97
644.898	622.11
645.095	581.42
645.293	615.52
645.49	620.36
645.687	612.81
645.884	625.21
646.081	548.48
646.278	599.05
646.475	575.99
646.672	583.94
646.87	609.51
647.067	618.62
647.264	596.14
647.461	564.56
647.658	557.78
647.855	624.04
648.052	599.63
648.249	498.11
648.446	545.58
648.642	549.84
648.839	520.39
649.036	563.21
649.233	523.88
649.43	501.4
649.627	493.26
649.824	525.43
650.021	511.28
650.217	523.68
650.414	519.23
650.611	565.34
650.808	568.63
651.004	558.75
651.201	566.69
651.398	616.29
651.595	550.23
651.791	541.51
651.988	586.46
652.185	527.56
652.381	555.26
652.578	487.65
652.775	552.16
652.971	533.56
653.168	557.59
653.364	551.39
653.561	512.06
653.757	534.14
653.954	557.98
654.15	519.03
654.347	613.39
654.543	522.33
654.74	521.75
654.936	475.05
655.133	519.03
655.329	553.52
655.525	514.58
655.722	532.21
655.918	483.77
656.115	515.16
656.311	478.73
656.507	439.79
656.704	420.03
656.9	450.45
657.096	446.76
657.292	439.98
657.489	525.43
657.685	512.45
657.881	465.75
658.077	501.79
658.273	517.1
658.47	588.78
658.666	497.53
658.862	544.99
659.058	518.65
659.254	517.1
659.45	487.45
659.646	522.91
659.842	489.97
660.038	543.83
660.234	488.42
660.43	526.59
660.626	606.61
660.822	533.56
661.018	544.41
661.214	539.18
661.41	518.26
661.606	503.34
661.802	577.74
661.998	508.76
662.194	501.79
662.39	545.77
662.586	518.26
662.781	515.35
662.977	545.38
663.173	538.79
663.369	524.85
663.564	514.19
663.76	544.41
663.956	495.78
664.152	560.49
664.347	448.31
664.543	514
664.739	482.41
664.934	443.08
665.13	449.09
665.326	524.85
665.521	518.26
665.717	468.85
665.912	463.62
666.108	406.85
666.304	502.18
666.499	504.7
666.695	410.73
666.89	464.59
667.086	500.05
667.281	506.25
667.477	579.48
667.672	503.73
667.867	522.33
668.063	489.78
668.258	453.55
668.454	470.4
668.649	524.07
668.844	462.46
669.04	520.39
669.235	471.95
669.43	478.54
669.626	429.72
669.821	463.62
670.016	441.92
670.211	505.08
670.407	425.07
670.602	470.21
670.797	475.25
670.992	509.73
671.187	413.63
671.382	503.92
671.578	483.19
671.773	480.86
671.968	446.76
672.163	454.13
672.358	516.51
672.553	435.14
672.748	437.27
672.943	537.83
673.138	456.26
673.333	483
673.528	440.57
673.723	481.64
673.918	467.5
674.113	401.04
674.308	545.19
674.503	483.58
674.698	474.66
674.892	447.73
675.087	494.23
675.282	474.66
675.477	414.41
675.672	492.3
675.867	435.53
676.061	440.18
676.256	411.5
676.451	418.67
676.646	473.7
676.84	407.82
677.035	425.07
677.23	394.26
677.424	474.28
677.619	487.26
677.814	463.23
678.008	459.94
678.203	403.17
678.397	398.91
678.592	442.31
678.787	499.85
678.981	452.77
679.176	461.88
679.37	471.95
679.565	437.27
679.759	419.83
679.954	476.8
680.148	520.2
680.342	508.76
680.537	512.64
680.731	424.29
680.926	468.46
681.12	483.58
681.314	418.09
681.509	450.83
681.703	444.83
681.897	465.36
682.092	452.38
682.286	449.28
682.48	516.71
682.674	459.36
682.869	421.19
683.063	441.73
683.257	525.23
683.451	430.49
683.645	451.22
683.839	454.32
684.034	441.73
684.228	485.9
684.422	408.98
684.616	437.47
684.81	456.45
685.004	445.21
685.198	431.07
685.392	498.5
685.586	422.93
685.78	469.63
685.974	453.93
686.168	469.43
686.362	515.93
686.556	406.08
686.75	382.83
686.944	390.38
687.138	423.52
687.331	329.74
687.525	387.28
687.719	316.37
687.913	348.73
688.107	384.57
688.301	347.37
688.494	375.85
688.688	338.46
688.882	339.24
689.076	335.36
689.269	349.5
689.463	430.49
689.657	386.32
689.85	373.14
690.044	398.33
690.238	415.18
690.431	355.51
690.625	365.78
690.818	392.9
691.012	434.37
691.205	443.47
691.399	379.15
691.593	422.55
691.786	457.42
691.98	451.8
692.173	498.5
692.366	472.15
692.56	460.91
692.753	518.65
692.947	409.37
693.14	538.41
693.333	526.98
693.527	438.63
693.72	484.35
693.914	442.89
694.107	475.25
694.3	487.26
694.493	466.14
694.687	497.14
694.88	460.52
695.073	540.93
695.266	530.85
695.46	487.06
695.653	543.64
695.846	569.6
696.039	488.42
696.232	505.28
696.425	553.91
696.618	537.63
696.812	554.49
697.005	606.22
697.198	661.24
697.391	589.94
697.584	603.31
697.777	642.45
697.97	630.05
698.163	617.84
698.356	578.51
698.549	698.64
698.742	653.49
698.935	615.71
699.127	660.47
699.32	636.83
699.513	600.79
699.706	666.86
699.899	643.42
700.092	646.52
700.285	697.86
700.477	594.59
700.67	713.36
700.863	707.35
701.056	747.65
701.248	745.72
701.441	733.32
701.634	687.79
701.826	807.91
702.019	686.62
702.212	749.4
702.404	685.85
702.597	699.61
702.79	745.33
702.982	736.03
703.175	806.55
703.367	809.07
703.56	803.45
703.752	903.23
703.945	823.8
704.137	851.5
704.33	879.02
704.522	872.04
704.715	874.75
704.907	910.21
705.1	914.86
705.292	898.78
705.484	914.86
705.677	942.56
705.869	958.65
706.061	940.05
706.254	989.26
706.446	951.09
706.638	983.25
706.831	1036.53
707.023	950.12
707.215	1095.04
707.407	1013.48
707.599	1024.91
707.792	1074.31
707.984	1057.07
708.176	1084.77
708.368	1070.44
708.56	1100.86
708.752	1072.96
708.944	1052.23
709.136	1099.31
709.329	1083.81
709.521	1256.82
709.713	1168.47
709.905	1166.73
710.097	1207.42
710.289	1141.35
710.481	1153.17
710.672	1199.67
710.864	1200.05
711.056	1263.8
711.248	1236.09
711.44	1242.68
711.632	1238.42
711.824	1275.81
712.016	1336.84
712.207	1307.78
712.399	1303.13
712.591	1375.4
712.783	1349.43
712.975	1365.51
713.166	1303.71
713.358	1320.37
713.55	1392.45
713.741	1365.71
713.933	1411.24
714.125	1403.68
714.316	1404.65
714.508	1481.57
714.7	1429.26
714.891	1444.76
715.083	1506.95
715.274	1459.68
715.466	1454.44
715.657	1509.86
715.849	1386.44
716.04	1486.41
716.232	1403.3
716.423	1480.79
716.615	1375.59
716.806	1398.84
716.998	1359.7
717.189	1328.51
717.381	1264.57
717.572	1225.82
717.763	1286.08
717.955	1254.11
718.146	1227.18
718.337	1198.31
718.528	1188.04
718.72	1129.14
718.911	1186.3
719.102	1131.08
719.293	1219.04
719.485	1192.3
719.676	1197.92
719.867	1178.35
720.058	1161.11
720.249	1149.68
720.44	1233.18
720.632	1243.45
720.823	1266.12
721.014	1369
721.205	1363.19
721.396	1440.3
721.587	1491.45
721.778	1502.69
721.969	1526.71
722.16	1560.23
722.351	1599.95
722.542	1703.8
722.733	1682.1
722.924	1609.05
723.115	1657.49
723.305	1672.6
723.496	1653.23
723.687	1546.47
723.878	1604.99
724.069	1569.92
724.26	1597.62
724.45	1536.79
724.641	1518.96
724.832	1588.32
725.023	1587.16
725.213	1539.89
725.404	1538.53
725.595	1548.41
725.785	1563.72
725.976	1585.03
726.167	1566.82
726.357	1611.57
726.548	1722.59
726.739	1639.28
726.929	1673.18
727.12	1703.02
727.31	1742.93
727.501	1657.3
727.691	1680.74
727.882	1682.87
728.072	1759.6
728.263	1731.5
728.453	1779.55
728.644	1789.24
728.834	1746.42
729.024	1751.65
729.215	1709.8
729.405	1774.51
729.596	1815.01
729.786	1810.55
729.976	1845.23
730.167	1877.98
730.357	1789.43
730.547	1837.1
730.737	1868.29
730.928	1879.53
731.118	1936.87
731.308	1870.42
731.498	1883.21
731.688	1995.77
731.879	1998.68
732.069	2004.3
732.259	2038.79
732.449	2010.5
732.639	2114.93
732.829	2147.87
733.019	2142.44
733.209	2174.8
733.399	2215.1
733.589	2257.53
733.779	2269.93
733.969	2254.62
734.159	2325.73
734.349	2340.84
734.539	2385.01
734.729	2385.21
734.919	2419.69
735.109	2429.96
735.299	2378.04
735.488	2394.31
735.678	2450.89
735.868	2450.69
736.058	2439.46
736.248	2398.57
736.437	2367.38
736.627	2340.84
736.817	2490.8
737.007	2456.7
737.196	2486.15
737.386	2488.47
737.576	2435
737.765	2527.42
737.955	2497.39
738.144	2587.87
738.334	2577.4
738.524	2481.3
738.713	2514.05
738.903	2527.61
739.092	2540.79
739.282	2554.93
739.471	2599.3
739.661	2577.98
739.85	2570.43
740.04	2575.66
740.229	2582.63
740.419	2616.54
740.608	2659.94
740.797	2665.56
740.987	2693.65
741.176	2700.82
741.365	2612.28
741.555	2592.13
741.744	2693.26
741.933	2646.18
742.123	2683.96
742.312	2694.62
742.501	2704.89
742.69	2714.77
742.88	2653.16
743.069	2756.62
743.258	2682.61
743.447	2744.22
743.636	2777.74
743.825	2727.36
744.014	2740.54
744.204	2738.6
744.393	2690.16
744.582	2768.05
744.771	2801.18
744.96	2725.04
745.149	2751
745.338	2734.14
745.527	2755.84
745.716	2748.68
745.905	2758.94
746.094	2772.12
746.283	2810.29
746.471	2764.37
746.66	2856.98
746.849	2813.19
747.038	2860.66
747.227	2777.93
747.416	2816.49
747.604	2799.05
747.793	2739.57
747.982	2822.49
748.171	2813.58
748.359	2815.32
748.548	2809.9
748.737	2804.47
748.926	2799.24
749.114	2709.93
749.303	2763.01
749.491	2818.42
749.68	2753.91
749.869	2821.14
750.057	2753.71
750.246	2770.38
750.434	2776.96
750.623	2770.76
750.811	2758.36
751	2815.91
751.188	2755.84
751.377	2757.98
751.565	2719.03
751.754	2711.86
751.942	2721.16
752.131	2790.33
752.319	2693.46
752.507	2676.02
752.696	2747.71
752.884	2806.22
753.072	2756.62
753.261	2732.01
753.449	2725.43
753.637	2750.03
753.825	2793.82
754.014	2681.64
754.202	2733.18
754.39	2796.14
754.578	2763.01
754.766	2717.29
754.955	2706.05
755.143	2789.94
755.331	2727.56
755.519	2694.04
755.707	2702.56
755.895	2698.88
756.083	2721.55
756.271	2675.05
756.459	2713.61
756.647	2748.48
756.835	2666.91
757.023	2650.25
757.211	2672.73
757.399	2647.35
757.587	2690.36
757.775	2632.43
757.963	2644.63
758.151	2644.44
758.339	2611.7
758.526	2580.89
758.714	2646.76
758.902	2556.09
759.09	2471.04
759.278	2312.55
759.465	2172.28
759.653	1876.04
759.841	1678.61
760.028	1427.71
760.216	1217.69
760.404	1193.27
760.591	999.14
760.779	783.11
760.967	710.84
761.154	593.24
761.342	611.45
761.529	644.39
761.717	696.31
761.905	676.36
762.092	762.77
762.28	686.24
762.467	730.02
762.655	613.39
762.842	677.13
763.029	650.97
763.217	672.29
763.404	659.89
763.592	701.74
763.779	649.42
763.966	707.74
764.154	742.42
764.341	798.42
764.528	789.31
764.716	832.52
764.903	867.97
765.09	927.06
765.277	968.33
765.465	1125.85
765.652	1138.44
765.839	1205.29
766.026	1307.78
766.213	1333.74
766.4	1411.82
766.588	1596.85
766.775	1580.96
766.962	1669.7
767.149	1724.14
767.336	1852.01
767.523	1809.97
767.71	1890.38
767.897	1996.55
768.084	2030.07
768.271	2057.77
768.458	2135.47
768.645	2166.08
768.832	2162.59
769.019	2155.62
769.206	2202.11
769.392	2250.94
769.579	2398.19
769.766	2324.95
769.953	2295.5
770.14	2321.08
770.327	2340.26
770.513	2369.32
770.7	2398.77
770.887	2346.07
771.073	2379.97
771.26	2348.98
771.447	2343.16
771.634	2353.04
771.82	2456.12
772.007	2324.76
772.193	2369.71
772.38	2427.06
772.567	2379.2
772.753	2369.71
772.94	2415.24
773.126	2430.16
773.313	2447.98
773.499	2426.28
773.686	2427.83
773.872	2371.26
774.059	2392.96
774.245	2336.38
774.432	2382.69
774.618	2296.66
774.804	2399.35
774.991	2292.98
775.177	2349.75
775.363	2323.01
775.55	2384.62
775.736	2305.96
775.922	2338.51
776.109	2354.01
776.295	2346.46
776.481	2372.03
776.667	2357.11
776.853	2324.76
777.04	2283.49
777.226	2310.61
777.412	2371.26
777.598	2310.23
777.784	2311.19
777.97	2277.1
778.156	2311.97
778.342	2267.8
778.528	2262.56
778.715	2222.26
778.901	2258.3
779.087	2292.4
779.272	2254.62
779.458	2251.13
779.644	2262.18
779.83	2220.91
780.016	2353.43
780.202	2280.58
780.388	2242.8
780.574	2186.23
780.76	2185.26
780.946	2256.17
781.131	2232.34
781.317	2241.45
781.503	2206.18
781.689	2197.27
781.874	2319.53
782.06	2159.3
782.246	2197.46
782.432	2176.73
782.617	2191.27
782.803	2256.75
782.989	2152.9
783.174	2172.08
783.36	2137.4
783.545	2165.69
783.731	2176.73
783.916	2108.92
784.102	2198.43
784.288	2113.77
784.473	2114.15
784.659	2140.12
784.844	2128.68
785.029	2096.72
785.215	2113.96
785.4	2059.32
785.586	2182.55
785.771	2066.88
785.956	2130.43
786.142	2061.65
786.327	2083.54
786.512	2072.69
786.698	2085.48
786.883	1977.95
787.068	2061.84
787.254	2055.25
787.439	2057.77
787.624	2048.86
787.809	2011.27
787.994	2038.2
788.18	2092.45
788.365	1990.16
788.55	2005.27
788.735	2008.76
788.92	1979.31
789.105	1966.32
789.29	2025.03
789.475	1936.1
789.66	1956.06
789.845	1916.92
790.03	1896.38
790.215	2002.36
790.4	1966.32
790.585	1976.4
790.77	1953.73
790.955	1882.04
791.14	1957.41
791.325	1983.76
791.51	1873.71
791.695	1938.62
791.879	1889.02
792.064	1863.44
792.249	1977.37
792.434	1917.69
792.618	1903.16
792.803	1912.85
792.988	1894.25
793.173	1901.03
793.357	1982.21
793.542	1846.39
793.727	1925.06
793.911	1949.27
794.096	1895.22
794.281	1939.01
794.465	2019.6
794.65	1915.37
794.834	1955.67
795.019	1990.54
795.203	1961.67
795.388	1979.31
795.572	2000.23
795.757	1914.21
795.941	1984.34
796.126	1956.44
796.31	1869.45
796.494	1941.14
796.679	1877.39
796.863	1923.12
797.048	2000.23
797.232	1967.29
797.416	1983.76
797.601	1884.76
797.785	2016.31
797.969	1954.31
798.153	1908.98
798.338	1931.45
798.522	1975.04
798.706	1975.24
798.89	1984.92
799.074	2066.3
799.258	2009.14
799.443	1940.75
799.627	1971.36
799.811	2010.69
799.995	1928.35
800.179	1917.11
800.363	1947.53
800.547	1956.83
800.731	1995.39
800.915	1910.33
801.099	1934.36
801.283	1965.55
801.467	1969.62
801.651	1933.39
801.835	1979.31
802.019	1957.41
802.202	1940.56
802.386	1894.64
802.57	1888.63
802.754	1951.21
802.938	1932.22
803.121	1907.23
803.305	1974.66
803.489	1956.64
803.673	1931.45
803.856	1974.07
804.04	1917.5
804.224	1956.25
804.407	1954.7
804.591	1963.03
804.775	1944.62
804.958	1967.87
805.142	2024.06
805.326	1946.17
805.509	1973.69
805.693	2002.94
805.876	1984.34
806.06	1979.69
806.243	1972.33
806.427	1992.87
806.61	2020.38
806.794	1944.43
806.977	1997.71
807.16	2007.4
807.344	1999.46
807.527	2004.69
807.71	1957.99
807.894	2003.72
808.077	2019.8
808.26	1955.09
808.444	1907.04
808.627	2002.17
808.81	1904.33
808.993	1883.79
809.177	1903.74
809.36	1943.46
809.543	1962.06
809.726	1880.49
809.909	1846.39
810.092	1845.23
810.276	1807.06
810.459	1866.74
810.642	1835.74
810.825	1812.49
811.008	1832.45
811.191	1743.71
811.374	1754.75
811.557	1793.5
811.74	1845.23
811.923	1750.49
812.106	1721.43
812.289	1706.12
812.472	1702.63
812.654	1728.98
812.837	1682.68
813.02	1645.09
813.203	1627.65
813.386	1555.19
813.569	1531.56
813.751	1514.89
813.934	1538.34
814.117	1498.42
814.3	1462.78
814.482	1457.74
814.665	1431
814.848	1388.18
815.03	1347.69
815.213	1348.85
815.396	1388.96
815.578	1370.55
815.761	1310.3
815.943	1364.55
816.126	1273.1
816.309	1240.93
816.491	1225.63
816.674	1145.03
816.856	1199.67
817.039	1183.39
817.221	1305.45
817.403	1197.15
817.586	1215.36
817.768	1237.45
817.951	1174.87
818.133	1162.08
818.315	1172.15
818.498	1244.42
818.68	1295.57
818.862	1261.67
819.045	1244.42
819.227	1270.77
819.409	1240.16
819.591	1257.6
819.774	1223.69
819.956	1194.44
820.138	1293.05
820.32	1275.03
820.502	1314.75
820.684	1375.59
820.866	1382.56
821.048	1384.31
821.231	1398.26
821.413	1408.53
821.595	1386.83
821.777	1408.53
821.959	1405.04
822.141	1425.96
822.323	1339.16
822.505	1307
822.686	1253.92
822.868	1171.19
823.05	1076.64
823.232	1078.96
823.414	1019.87
823.596	1151.04
823.778	1091.56
823.96	1116.55
824.141	1124.88
824.323	1121.39
824.505	1217.49
824.687	1240.93
824.868	1243.07
825.05	1369
825.232	1323.28
825.413	1424.22
825.595	1355.05
825.777	1265.93
825.958	1343.23
826.14	1323.08
826.321	1363
826.503	1325.02
826.685	1351.37
826.866	1387.99
827.048	1385.66
827.229	1333.74
827.411	1305.84
827.592	1261.47
827.773	1276.39
827.955	1235.32
828.136	1236.48
828.318	1209.16
828.499	1260.5
828.68	1199.67
828.862	1248.68
829.043	1266.9
829.224	1198.5
829.406	1195.4
829.587	1196.37
829.768	1203.74
829.949	1240.16
830.131	1220.2
830.312	1273.68
830.493	1216.14
830.674	1245.97
830.855	1205.87
831.036	1238.42
831.218	1265.93
831.399	1285.5
831.58	1233.77
831.761	1237.45
831.942	1240.93
832.123	1220.98
832.304	1174.87
832.485	1209.55
832.666	1210.71
832.847	1263.02
833.028	1201.6
833.209	1225.82
833.389	1197.34
833.57	1164.6
833.751	1180.68
833.932	1265.93
834.113	1247.33
834.294	1217.1
834.475	1244.42
834.655	1251.2
834.836	1271.16
835.017	1261.28
835.198	1176.03
835.378	1217.1
835.559	1256.43
835.74	1218.65
835.92	1189.01
836.101	1194.44
836.281	1235.32
836.462	1301.38
836.643	1304.29
836.823	1250.43
837.004	1267.48
837.184	1314.17
837.365	1301.97
837.545	1283.75
837.726	1251.59
837.906	1337.03
838.087	1282.2
838.267	1278.91
838.448	1226.4
838.628	1275.03
838.808	1242.29
838.989	1374.04
839.169	1228.15
839.349	1278.33
839.53	1291.12
839.71	1279.3
839.89	1300.42
840.07	1325.41
840.251	1267.67
840.431	1309.13
840.611	1252.37
840.791	1251.78
840.971	1295.77
841.151	1263.22
841.332	1217.3
841.512	1304.1
841.692	1230.28
841.872	1265.54
842.052	1251.4
842.232	1254.69
842.412	1219.04
842.592	1242.29
842.772	1296.15
842.952	1263.8
843.132	1230.09
843.312	1231.63
843.492	1241.71
843.672	1290.92
843.851	1203.35
844.031	1214.39
844.211	1228.54
844.391	1200.44
844.571	1229.5
844.751	1215.75
844.93	1243.84
845.11	1194.44
845.29	1225.05
845.47	1246.94
845.649	1221.56
845.829	1234.15
846.009	1178.94
846.188	1213.04
846.368	1186.69
846.547	1222.53
846.727	1255.27
846.907	1183.39
847.086	1222.14
847.266	1254.3
847.445	1190.56
847.625	1189.4
847.804	1179.71
847.984	1212.45
848.163	1184.75
848.343	1196.57
848.522	1201.41
848.701	1171.19
848.881	1154.14
849.06	1182.62
849.239	1181.65
849.419	1205.29
849.598	1109.19
849.777	1107.44
849.957	1119.46
850.136	1092.14
850.315	1057.46
850.494	1088.84
850.674	1097.95
850.853	1162.08
851.032	1104.92
851.211	1179.13
851.39	1105.89
851.569	1075.67
851.748	1060.94
851.927	1147.35
852.107	1081.67
852.286	1100.08
852.465	1064.04
852.644	1143.29
852.823	1086.91
853.002	1090.78
853.181	1103.76
853.359	1099.89
853.538	1033.82
853.717	1127.21
853.896	1052.03
854.075	984.03
854.254	977.83
854.433	916.21
854.611	971.63
854.79	928.23
854.969	964.46
855.148	1008.24
855.327	946.83
855.505	1011.34
855.684	970.85
855.863	984.8
856.041	967.95
856.22	1002.63
856.399	989.06
856.577	1077.02
856.756	1053
856.934	1168.09
857.113	1155.69
857.291	1050.48
857.47	1033.63
857.648	1053.58
857.827	1069.08
858.005	1121.39
858.184	1037.31
858.362	1126.82
858.541	1044.09
858.719	1060.75
858.898	1053.19
859.076	1044.67
859.254	1097.17
859.433	1031.69
859.611	1035.76
859.789	1003.4
859.967	1087.87
860.146	1089.81
860.324	984.03
860.502	1038.47
860.68	966.59
860.859	991.78
861.037	1017.35
861.215	1045.83
861.393	991.78
861.571	994.68
861.749	987.9
861.927	1079.16
862.105	1015.41
862.283	1020.84
862.461	985.77
862.639	978.79
862.817	976.28
862.995	1022.19
863.173	983.64
863.351	1012.51
863.529	999.91
863.707	1053.39
863.885	1023.55
864.063	938.11
864.241	937.14
864.418	1044.28
864.596	957.29
864.774	929.78
864.952	967.56
865.129	959.81
865.307	947.6
865.485	902.07
865.663	1006.31
865.84	904.4
866.018	916.8
866.196	829.42
866.373	872.04
866.551	834.65
866.728	789.5
866.906	854.6
867.084	816.43
867.261	900.52
867.439	856.35
867.616	912.34
867.794	867.58
867.971	885.02
868.149	918.15
868.326	950.51
868.503	925.32
868.681	930.55
868.858	877.85
869.035	862.16
869.213	941.79
869.39	905.75
869.567	985.19
869.745	863.32
869.922	892.58
870.099	940.82
870.276	912.15
870.454	937.14
870.631	940.24
870.808	880.18
870.985	900.33
871.162	942.76
871.339	922.61
871.517	879.6
871.694	844.14
871.871	877.85
872.048	885.21
872.225	866.62
872.402	877.47
872.579	829.8
872.756	901.68
872.933	815.85
873.11	858.09
873.287	865.84
873.463	860.22
873.64	824.18
873.817	886.76
873.994	862.93
874.171	837.94
874.348	875.14
874.524	783.11
874.701	832.32
874.878	788.34
875.055	843.56
875.231	788.15
875.408	833.87
875.585	814.11
875.762	835.42
875.938	804.03
876.115	820.89
876.291	814.69
876.468	801.13
876.645	757.54
876.821	782.14
876.998	801.52
877.174	830
877.351	803.26
877.527	787.37
877.704	829.42
877.88	827.09
878.057	790.47
878.233	867.39
878.409	779.04
878.586	847.82
878.762	790.67
878.938	785.24
879.115	732.15
879.291	783.11
879.467	721.69
879.644	732.93
879.82	799.58
879.996	766.45
880.172	712.97
880.349	783.89
880.525	791.64
880.701	734.09
880.877	744.17
881.053	738.74
881.229	786.6
881.405	777.3
881.581	728.86
881.757	749.01
881.933	769.74
882.109	791.44
882.285	759.28
882.461	704.26
882.637	755.02
882.813	711.23
882.989	737.39
883.165	814.5
883.341	718.2
883.517	829.8
883.693	759.09
883.869	782.72
884.044	753.27
884.22	770.32
884.396	787.18
884.572	751.34
884.747	803.65
884.923	776.52
885.099	758.31
885.275	777.3
885.45	704.06
885.626	748.82
885.801	719.17
885.977	761.02
886.153	693.6
886.328	800.35
886.504	714.33
886.679	772.45
886.855	743.2
887.03	766.06
887.206	787.18
887.381	746.3
887.557	778.65
887.732	762.57
887.908	766.84
888.083	783.69
888.258	736.61
888.434	727.89
888.609	749.98
888.784	824.57
888.96	755.79
889.135	719.75
889.31	690.31
889.485	761.8
889.661	744.94
889.836	766.64
890.011	755.21
890.186	749.79
890.361	701.74
890.537	780.01
890.712	769.16
890.887	754.44
891.062	740.68
891.237	780.98
891.412	736.22
891.587	730.8
891.762	776.33
891.937	781.75
892.112	715.88
892.287	738.55
892.462	681.78
892.637	685.27
892.812	668.99
892.987	678.29
893.161	679.65
893.336	688.17
893.511	690.69
893.686	668.22
893.861	705.03
894.035	724.21
894.21	697.86
894.385	657.37
894.56	688.37
894.734	634.51
894.909	605.64
895.084	621.91
895.258	615.91
895.433	625.79
895.608	606.99
895.782	557.98
895.957	598.28
896.131	576.58
896.306	510.51
896.48	558.94
896.655	544.8
896.829	489.2
897.004	490.94
897.178	515.35
897.353	502.37
897.527	558.75
897.701	522.33
897.876	432.04
898.05	547.9
898.224	510.51
898.399	557.2
898.573	508.38
898.747	409.95
898.921	455.29
899.096	391.16
899.27	389.22
899.444	428.17
899.618	429.33
899.792	458.2
899.967	435.92
900.141	449.86
900.315	415.38
900.489	414.02
900.663	432.23
900.837	465.36
901.011	373.33
901.185	496.56
901.359	433.01
901.533	463.23
901.707	441.34
901.881	422.55
902.055	365.39
902.229	435.33
902.403	498.11
902.576	446.38
902.75	418.67
902.924	551.39
903.098	494.43
903.272	520.2
903.446	551.39
903.619	548.87
903.793	533.76
903.967	534.14
904.14	579.29
904.314	597.11
904.488	557.2
904.661	588.39
904.835	544.22
905.009	592.66
905.182	618.43
905.356	584.91
905.529	540.93
905.703	495.4
905.876	529.3
906.05	526.98
906.223	492.3
906.397	457.81
906.57	440.37
906.744	428.17
906.917	466.72
907.09	437.66
907.264	449.67
907.437	411.5
907.61	397.36
907.784	404.92
907.957	410.73
908.13	385.93
908.304	437.85
908.477	401.04
908.65	402.59
908.823	344.47
908.996	440.57
909.17	402.78
909.343	402.2
909.516	377.02
909.689	393.29
909.862	378.37
910.035	389.22
910.208	365.78
910.381	344.47
910.554	471.95
910.727	377.6
910.9	374.5
911.073	379.73
911.246	417.32
911.419	427.97
911.592	414.6
911.765	353.57
911.938	371.2
912.11	385.73
912.283	378.76
912.456	462.46
912.629	392.71
912.802	357.83
912.974	338.27
913.147	326.06
913.32	285.37
913.493	270.84
913.665	343.3
913.838	351.44
914.01	321.41
914.183	349.5
914.356	334.78
914.528	373.14
914.701	406.47
914.873	379.53
915.046	350.67
915.218	318.7
915.391	262.12
915.563	275.49
915.736	328.97
915.908	372.75
916.081	322.57
916.253	298.74
916.425	303.97
916.598	355.9
916.77	347.57
916.942	312.5
917.115	272.97
917.287	344.27
917.459	304.55
917.632	278.2
917.804	247.98
917.976	295.84
918.148	296.22
918.32	292.15
918.493	356.67
918.665	370.82
918.837	338.46
919.009	393.29
919.181	359
919.353	332.26
919.525	336.72
919.697	359.19
919.869	316.57
920.041	390
920.213	452.58
920.385	408.21
920.557	346.99
920.729	404.72
920.901	350.47
921.073	352.22
921.244	335.55
921.416	388.25
921.588	369.65
921.76	343.3
921.932	404.53
922.103	329.94
922.275	343.11
922.447	375.08
922.619	265.81
922.79	339.04
922.962	311.53
923.134	343.89
923.305	296.61
923.477	306.1
923.648	296.03
923.82	294.87
923.991	279.95
924.163	248.37
924.335	302.42
924.506	259.61
924.677	332.26
924.849	280.53
925.02	289.83
925.192	303.39
925.363	300.49
925.535	326.45
925.706	293.51
925.877	325.87
926.049	275.49
926.22	308.62
926.391	328.58
926.562	326.25
926.734	257.86
926.905	324.7
927.076	258.44
927.247	242.36
927.419	227.83
927.59	225.12
927.761	234.42
927.932	245.85
928.103	278.2
928.274	210.01
928.445	214.66
928.616	234.42
928.787	219.5
928.958	256.89
929.129	232.87
929.3	211.56
929.471	171.26
929.642	137.93
929.813	91.82
929.984	202.84
930.155	116.43
930.326	173
930.496	128.44
930.667	81.55
930.838	140.45
931.009	96.28
931.18	117.2
931.35	131.54
931.521	116.23
931.692	64.7
931.863	60.24
932.033	88.53
932.204	116.62
932.374	112.55
932.545	55.78
932.716	121.46
932.886	97.83
933.057	23.23
933.227	33.5
933.398	144.71
933.568	46.29
933.739	15.48
933.909	34.47
934.08	86.78
934.25	7.54
934.421	36.6
934.591	71.48
934.761	16.45
934.932	-31.21
935.102	49.39
935.272	-1.18
935.443	46.87
935.613	7.54
935.783	38.73
935.953	19.16
936.123	169.13
936.294	-6.22
936.464	0.37
936.634	22.65
936.804	-12.61
936.974	-13.77
937.144	50.16
937.314	48.03
937.484	13.93
937.655	1.92
937.825	65.86
937.995	-7.38
938.165	71.28
938.334	22.46
938.504	40.09
938.674	5.99
938.844	45.51
939.014	90.27
939.184	53.46
939.354	121.46
939.524	123.01
939.694	46.48
939.863	53.26
940.033	133.09
940.203	111.97
940.373	85.43
940.542	100.73
940.712	42.61
940.882	80.39
941.051	113.13
941.221	94.92
941.391	94.53
941.56	71.09
941.73	31.95
941.899	170.68
942.069	48.23
942.238	104.99
942.408	57.72
942.577	93.37
942.747	68.18
942.916	20.52
943.086	33.89
943.255	110.03
943.425	64.5
943.594	41.25
943.763	-1.76
943.933	21.88
944.102	-4.47
944.271	46.1
944.441	50.16
944.61	18.78
944.779	35.05
944.948	137.74
945.117	22.85
945.287	22.85
945.456	-13.19
945.625	39.9
945.794	70.31
945.963	40.28
946.132	51.52
946.301	32.15
946.47	65.28
946.639	12.96
946.808	27.11
946.977	64.5
947.146	95.69
947.315	32.73
947.484	61.21
947.653	57.14
947.822	23.81
947.991	29.82
948.16	104.41
948.329	78.45
948.498	35.63
948.666	54.43
948.835	81.36
949.004	-0.79
949.173	11.61
949.341	35.05
949.51	57.33
949.679	96.66
949.847	91.24
950.016	102.28
950.185	97.24
950.353	39.51
950.522	26.53
950.69	91.24
950.859	50.75
951.028	94.15
951.196	70.51
951.365	43
951.533	50.55
951.701	97.83
951.87	81.94
952.038	20.71
952.207	67.99
952.375	106.35
952.543	16.65
952.712	32.73
952.88	32.92
953.048	103.06
953.217	43.19
953.385	57.33
953.553	101.7
953.721	20.71
953.89	41.45
954.058	17.42
954.226	17.42
954.394	38.73
954.562	-0.6
954.73	50.75
954.898	35.63
955.067	108.68
955.235	25.56
955.403	87.17
955.571	141.81
955.739	50.16
955.907	5.22
956.075	19.16
956.243	17.81
956.41	66.05
956.578	10.06
956.746	24.59
956.914	65.66
957.082	64.89
957.25	65.08
957.418	17.61
957.585	53.26
957.753	92.21
957.921	5.02
958.089	46.68
958.256	65.47
958.424	77.68
958.592	47.84
958.759	13.74
958.927	76.9
959.095	30.01
959.262	11.22
959.43	36.8
959.597	30.98
959.765	19.75
959.932	6.57
960.1	84.65
960.267	56.56
960.435	34.86
960.602	69.93
960.77	27.11
960.937	-3.5
961.104	42.41
961.272	22.65
961.439	45.9
961.606	57.33
961.774	67.21
961.941	36.6
962.108	34.47
962.275	49
962.443	96.86
962.61	35.44
962.777	128.44
962.944	83.68
963.111	73.22
963.278	66.63
963.446	53.26
963.613	48.61
963.78	75.93
963.947	69.54
964.114	59.08
964.281	132.7
964.448	69.15
964.615	75.74
964.782	51.33
964.949	64.31
965.116	86.01
965.282	118.56
965.449	69.15
965.616	9.09
965.783	86.59
965.95	55.98
966.117	38.73
966.283	75.93
966.45	63.34
966.617	74.96
966.784	92.6
966.95	91.82
967.117	83.68
967.284	40.28
967.45	28.08
967.617	124.95
967.784	80.39
967.95	121.66
968.117	49
968.283	104.41
968.45	156.34
968.616	80.58
968.783	88.33
968.949	61.98
969.116	128.24
969.282	49.58
969.449	71.28
969.615	54.43
969.781	29.05
969.948	46.87
970.114	21.1
970.28	127.86
970.447	43.19
970.613	119.33
970.779	79.42
970.945	91.24
971.112	70.12
971.278	51.52
971.444	57.33
971.61	100.34
971.776	47.84
971.942	71.86
972.108	72.83
972.275	68.18
972.441	88.33
972.607	152.27
972.773	46.29
972.939	82.71
973.105	50.55
973.271	30.6
973.437	52.88
973.602	55.2
973.768	80.78
973.934	51.71
974.1	84.46
974.266	-13.19
974.432	79.61
974.598	43.58
974.763	97.44
974.929	53.26
975.095	113.52
975.261	27.69
975.426	44.55
975.592	63.15
975.758	138.51
975.923	32.53
976.089	39.51
976.255	100.15
976.42	87.17
976.586	64.7
976.751	85.23
976.917	129.02
977.082	81.94
977.248	1.73
977.413	-4.67
977.579	38.15
977.744	60.82
977.91	17.81
978.075	52.49
978.24	72.83
978.406	45.32
978.571	48.23
978.736	37.57
978.902	73.03
979.067	14.32
979.232	24.59
979.397	77.29
979.563	106.74
979.728	43.58
979.893	62.95
980.058	37.76
980.223	69.93
980.388	71.28
980.554	82.71
980.719	47.65
980.884	57.33
981.049	81.16
981.214	30.79
981.379	80.2
981.544	33.11
981.709	51.33
981.874	64.89
982.039	52.49
982.204	94.73
982.368	68.76
982.533	53.85
982.698	111.97
982.863	76.71
983.028	38.15
983.193	32.15
983.357	50.94
983.522	66.44
983.687	70.31
983.852	23.04
984.016	58.5
984.181	72.25
984.346	56.95
984.51	95.89
984.675	78.84
984.839	84.07
985.004	62.56
985.168	83.88
985.333	70.7
985.498	31.76
985.662	81.16
985.827	67.21
985.991	43.58
986.155	48.03
986.32	85.23
986.484	115.84
986.649	77.48
986.813	16.84
986.977	71.28
987.142	78.06
987.306	35.63
987.47	29.24
987.634	65.86
987.799	74.19
987.963	86.01
988.127	92.21
988.291	129.99
988.455	66.83
988.62	38.15
988.784	61.79
988.948	94.15
989.112	58.88
989.276	87.75
989.44	58.69
989.604	29.82
989.768	40.28
989.932	125.53
990.096	8.9
990.26	20.71
990.424	16.26
990.588	35.83
990.752	123.59
990.915	81.36
991.079	49.97
991.243	33.7
991.407	67.41
991.571	49.2
991.734	56.75
991.898	95.11
992.062	134.83
992.226	53.85
992.389	38.15
992.553	-7.38
992.717	20.13
992.88	56.75
993.044	60.05
993.207	27.3
993.371	58.5
993.535	68.57
993.698	39.7
993.862	79.42
994.025	111.39
994.189	54.62
994.352	50.36
994.515	68.76
994.679	101.51
994.842	28.08
995.006	59.85
995.169	-6.41
995.332	19.75
995.496	89.11
995.659	15.68
995.822	38.73
995.985	60.63
996.149	88.53
996.312	43.19
996.475	108.29
996.638	28.08
996.801	91.43
996.964	130.96
997.128	40.48
997.291	66.83
997.454	25.75
997.617	5.02
997.78	75.16
997.943	42.41
998.106	94.73
998.269	27.3
998.432	53.46
998.595	37.76
998.758	20.52
998.92	3.86
999.083	-13.58
999.246	48.61
999.409	6.38
999.572	-27.92
999.735	18.39
999.897	61.98
1000.06	38.93
1000.223	-3.31
1000.386	77.48
1000.548	57.33
1000.711	64.5
1000.874	59.27
1001.036	13.93
1001.199	46.48
1001.361	-8.54
1001.524	65.28
1001.687	87.17
1001.849	18.97
1002.012	61.98
1002.174	49.39
1002.337	71.28
1002.499	5.6
1002.661	67.41
1002.824	22.46
1002.986	17.03
1003.149	38.15
1003.311	16.06
1003.473	98.02
1003.636	8.51
1003.798	59.46
1003.96	63.73
1004.123	56.17
1004.285	30.4
1004.447	39.7
1004.609	31.18
1004.771	71.28
1004.933	2.12
1005.096	-7.77
1005.258	-37.02
1005.42	2.5
1005.582	61.21
1005.744	50.36
1005.906	9.48
1006.068	39.12
1006.23	-54.27
1006.392	-23.85
1006.554	-1.95
1006.716	46.1
1006.878	84.46
1007.04	-8.35
1007.202	-6.22
1007.363	70.7
1007.525	55.78
1007.687	59.08
1007.849	67.6
1008.011	-20.36
1008.172	-8.93
1008.334	6.96
1008.496	57.14
1008.658	-39.93
1008.819	0.76
1008.981	-5.63
1009.143	9.48
1009.304	15.48
1009.466	47.06
1009.627	88.91
1009.789	125.34
1009.95	49
1010.112	20.71
1010.273	37.76
1010.435	1.92
1010.596	33.31
1010.758	30.01
1010.919	15.48
1011.081	-5.44
1011.242	29.82
1011.403	44.35
1011.565	8.51
1011.726	47.65
1011.887	-33.73
1012.049	22.26
1012.21	54.43
1012.371	83.1
1012.532	-56.01
1012.693	39.51
1012.855	-9.51
1013.016	0.57
1013.177	71.48
1013.338	6.57
1013.499	79.23
1013.66	45.51
1013.821	32.34
1013.982	27.5
1014.143	24.78
1014.304	3.28
1014.465	67.99
1014.626	43.96
1014.787	30.98
1014.948	115.46
1015.109	-59.11
1015.27	72.64
1015.431	22.85
1015.592	-1.57
1015.752	76.71
1015.913	18.2
1016.074	33.11
1016.235	40.67
1016.395	43.96
1016.556	29.24
1016.717	4.63
1016.877	45.32
1017.038	-23.46
1017.199	47.84
1017.359	32.15
1017.52	47.26
1017.681	16.65
1017.841	20.33
1018.002	-0.4
1018.162	-16.68
1018.323	82.13
1018.483	13.55
1018.644	9.86
1018.804	8.51
1018.964	-20.36
1019.125	11.61
1019.285	19.36
1019.446	-22.3
1019.606	-7.77
1019.766	-35.47
1019.926	41.83
1020.087	34.28
1020.247	-25.01
1020.407	45.71
1020.567	74.19
1020.728	20.13
1020.888	-21.52
1021.048	1.92
1021.208	-11.25
1021.368	1.53
1021.528	56.36
1021.688	45.51
1021.848	32.92
1022.008	5.22
1022.168	2.31
1022.328	5.6
1022.488	45.32
1022.648	-1.18
1022.808	-7.57
1022.968	17.23
1023.128	-13
1023.288	-6.99
1023.448	10.45
1023.608	15.87
1023.767	33.11
1023.927	9.09
1024.087	-7.96
1024.247	-34.12
1024.406	14.32
1024.566	-9.32
1024.726	-3.7
1024.885	2.31
1025.045	41.83
1025.205	-9.7
1025.364	4.44
1025.524	9.48
1025.683	-3.5
1025.843	25.17
1026.003	15.1
1026.162	78.45
1026.321	25.36
1026.481	30.98
1026.64	-0.02
1026.8	29.43
1026.959	19.36
1027.119	34.47
1027.278	9.67
1027.437	-10.48
1027.597	3.47
1027.756	18.2
1027.915	46.1
1028.074	5.8
1028.234	-22.1
1028.393	19.16
1028.552	-32.76
1028.711	-56.98
1028.87	39.12
1029.03	-23.27
1029.189	28.85
1029.348	-50.39
1029.507	1.53
1029.666	7.73
1029.825	-31.02
1029.984	-0.98
1030.143	16.65
1030.302	-12.03
1030.461	-23.46
1030.62	24.59
1030.779	14.13
1030.938	-17.65
1031.097	-11.06
1031.255	12.58
1031.414	78.06
1031.573	76.13
1031.732	-23.85
1031.891	13.16
1032.049	48.81
1032.208	36.6
1032.367	-6.6
1032.525	-20.17
1032.684	11.22
1032.843	1.34
1033.001	-46.71
1033.16	159.24
1033.319	28.46
1033.477	34.86
1033.636	-16.1
1033.794	-25.01
1033.953	35.83
1034.111	32.53
1034.27	-12.03
1034.428	19.55
1034.587	-11.83
1034.745	24.2
1034.903	12.96
1035.062	24.98
1035.22	-22.3
1035.378	52.3
1035.537	-17.07
1035.695	49.78
1035.853	-2.92
1036.011	19.16
1036.17	35.25
1036.328	-48.07
1036.486	2.7
1036.644	-0.21
1036.802	-93.21
1036.96	-19
1037.119	-8.93
1037.277	-16.1
1037.435	-41.09
1037.593	-14.74
1037.751	-3.5
1037.909	30.79
1038.067	30.79
