Data from pine_FLMT105791__40__17-20-14-079.txt Node

Date: Mon Mar 20 17:20:14 GMT 2023
User: antho
Spectrometer: FLMT10579
Trigger mode: 0
Integration Time (sec): 1.000000E-1
Scans to average: 10
Electric dark correction enabled: true
Nonlinearity correction enabled: false
Boxcar width: 0
XAxis mode: Wavelengths
Number of Pixels in Spectrum: 3648
>>>>>Begin Spectral Data<<<<<
345.248	-140.37
345.464	-140.37
345.681	-140.37
345.898	-164.2
346.114	-170.79
346.331	-28.77
346.548	18.5
346.764	7.65
346.981	-20.63
347.197	-4.36
347.414	24.51
347.631	-17.34
347.847	51.44
348.064	11.53
348.28	-2.03
348.497	-36.33
348.713	-4.17
348.93	47.37
349.146	21.8
349.363	-5.33
349.579	17.15
349.796	3.58
350.012	-6.1
350.229	38.65
350.445	6.68
350.661	-27.61
350.878	-7.65
351.094	1.65
351.311	17.34
351.527	21.22
351.743	9.78
351.96	4.75
352.176	43.69
352.392	5.33
352.609	46.21
352.825	8.04
353.041	6.88
353.257	1.84
353.474	10.37
353.69	-4.36
353.906	-4.17
354.122	-25.87
354.339	60.55
354.555	9.4
354.771	17.92
354.987	75.85
355.203	64.42
355.42	0.68
355.636	-14.05
355.852	-17.73
356.068	42.33
356.284	-35.75
356.5	29.16
356.716	7.65
356.932	0.1
357.148	17.34
357.364	-15.79
357.58	32.65
357.796	64.81
358.012	70.43
358.228	40.4
358.444	-56.48
358.66	71.98
358.876	35.94
359.092	-36.91
359.308	12.11
359.524	41.95
359.74	-13.66
359.956	-22.38
360.172	4.17
360.388	25.28
360.604	-21.6
360.819	88.64
361.035	16.37
361.251	35.36
361.467	-15.98
361.683	52.99
361.898	10.75
362.114	39.82
362.33	19.86
362.546	48.73
362.762	9.59
362.977	19.47
363.193	-13.85
363.409	42.33
363.624	-14.43
363.84	-23.73
364.056	-19.08
364.271	50.28
364.487	24.9
364.703	-26.64
364.918	1.07
365.134	3.39
365.35	-11.14
365.565	113.25
365.781	19.08
365.996	2.03
366.212	44.27
366.427	46.79
366.643	-18.7
366.858	6.68
367.074	-29.55
367.289	62.87
367.505	75.66
367.72	-11.14
367.936	3.39
368.151	41.37
368.367	30.9
368.582	15.79
368.798	-3.58
369.013	50.86
369.228	13.85
369.444	15.4
369.659	34.97
369.874	44.08
370.09	65.97
370.305	-34.97
370.52	-14.05
370.736	42.72
370.951	9.4
371.166	68.88
371.381	62.29
371.597	23.73
371.812	-34.39
372.027	-16.76
372.242	0.1
372.458	80.89
372.673	-9.01
372.888	22.77
373.103	44.85
373.318	116.73
373.533	28.38
373.749	24.7
373.964	-39.04
374.179	72.95
374.394	-21.6
374.609	62.48
374.824	-34.2
375.039	62.29
375.254	-2.23
375.469	78.76
375.684	38.65
375.899	43.11
376.114	18.5
376.329	24.51
376.544	52.21
376.759	33.81
376.974	-15.79
377.189	30.13
377.404	5.91
377.619	42.14
377.834	-55.31
378.049	-26.06
378.264	-27.61
378.478	-1.84
378.693	15.21
378.908	15.21
379.123	-7.85
379.338	60.93
379.553	19.28
379.767	38.65
379.982	31.1
380.197	45.24
380.412	57.45
380.626	28
380.841	111.5
381.056	65.39
381.271	71.98
381.485	-20.25
381.7	-27.03
381.915	43.5
382.129	19.86
382.344	26.64
382.559	15.4
382.773	43.3
382.988	-20.44
383.202	31.48
383.417	-2.81
383.632	106.46
383.846	8.82
384.061	36.91
384.275	-0.87
384.49	52.8
384.704	25.67
384.919	25.28
385.133	20.83
385.348	50.08
385.562	-14.24
385.777	51.05
385.991	9.59
386.206	-5.72
386.42	-9.4
386.634	76.24
386.849	23.93
387.063	23.54
387.277	-10.56
387.492	3.78
387.706	-48.92
387.92	-12.88
388.135	64.81
388.349	32.07
388.563	5.72
388.778	15.02
388.992	41.17
389.206	28.97
389.42	102.4
389.635	13.08
389.849	54.54
390.063	37.3
390.277	38.46
390.491	77.98
390.706	35.17
390.92	68.3
391.134	23.35
391.348	71.01
391.562	-20.25
391.776	7.85
391.99	-9.98
392.205	76.05
392.419	-11.92
392.633	24.51
392.847	82.83
393.061	-15.4
393.275	84.96
393.489	38.27
393.703	45.63
393.917	73.33
394.131	15.4
394.345	49.89
394.559	71.4
394.773	17.92
394.986	58.03
395.2	11.92
395.414	49.89
395.628	-10.37
395.842	50.47
396.056	-12.5
396.27	-29.93
396.484	19.47
396.697	35.75
396.911	97.94
397.125	41.56
397.339	75.27
397.553	56.86
397.766	67.91
397.98	74.11
398.194	58.61
398.408	8.43
398.621	29.93
398.835	59.77
399.049	52.8
399.262	59
399.476	66.55
399.69	55.9
399.903	106.85
400.117	18.89
400.331	72.36
400.544	4.17
400.758	127.97
400.971	43.3
401.185	68.68
401.398	18.5
401.612	97.75
401.826	52.02
402.039	46.98
402.253	15.21
402.466	90
402.68	18.31
402.893	32.45
403.106	64.23
403.32	14.82
403.533	77.21
403.747	50.28
403.96	62.48
404.174	82.83
404.387	-3.78
404.6	44.08
404.814	99.3
405.027	23.93
405.24	47.76
405.454	17.73
405.667	61.71
405.88	6.1
406.094	47.56
406.307	68.88
406.52	47.76
406.733	16.18
406.947	1.26
407.16	101.62
407.373	88.06
407.586	4.17
407.799	15.02
408.012	75.66
408.226	66.55
408.439	105.5
408.652	-2.62
408.865	86.7
409.078	90.58
409.291	54.93
409.504	20.83
409.717	65
409.93	63.84
410.143	34.78
410.357	7.27
410.57	40.59
410.783	26.83
410.996	42.14
411.209	42.92
411.421	83.8
411.634	66.55
411.847	21.8
412.06	69.26
412.273	70.81
412.486	52.6
412.699	111.31
412.912	47.76
413.125	70.43
413.338	41.17
413.55	69.46
413.763	37.1
413.976	45.24
414.189	13.66
414.402	38.85
414.615	83.41
414.827	29.16
415.04	86.9
415.253	40.01
415.466	101.43
415.678	122.55
415.891	60.55
416.104	33.81
416.316	28.77
416.529	49.11
416.742	68.49
416.954	91.55
417.167	63.84
417.38	43.69
417.592	83.6
417.805	40.01
418.017	12.5
418.23	84.57
418.442	22.57
418.655	48.73
418.868	90
419.08	112.28
419.293	77.79
419.505	76.82
419.718	88.45
419.93	96.58
420.142	34.78
420.355	115.18
420.567	119.83
420.78	83.21
420.992	59
421.205	127.78
421.417	30.9
421.629	67.91
421.842	38.46
422.054	16.37
422.266	94.45
422.479	124.68
422.691	42.14
422.903	117.7
423.115	74.5
423.328	54.93
423.54	101.62
423.752	65
423.964	52.8
424.177	64.03
424.389	74.3
424.601	161.88
424.813	95.23
425.025	97.75
425.238	105.11
425.45	76.43
425.662	48.53
425.874	377.32
426.086	89.22
426.298	89.22
426.51	104.53
426.722	71.59
426.934	46.4
427.146	106.46
427.358	29.35
427.57	101.62
427.782	84.76
427.994	84.96
428.206	83.99
428.418	26.64
428.63	68.1
428.842	138.43
429.054	92.32
429.266	108.01
429.478	73.14
429.69	81.28
429.902	63.45
430.114	91.35
430.325	117.9
430.537	67.33
430.749	98.13
430.961	28.77
431.173	76.82
431.384	94.84
431.596	36.72
431.808	74.11
432.02	122.55
432.231	125.84
432.443	129.91
432.655	85.93
432.867	73.91
433.078	110.53
433.29	160.71
433.502	130.49
433.713	112.28
433.925	117.51
434.136	130.1
434.348	69.26
434.56	33.81
434.771	208.96
434.983	37.88
435.194	96.2
435.406	83.21
435.617	157.03
435.829	192.1
436.04	140.18
436.252	154.51
436.463	133.01
436.675	145.99
436.886	107.05
437.098	123.32
437.309	145.6
437.521	112.08
437.732	150.06
437.943	119.83
438.155	105.5
438.366	47.18
438.578	176.21
438.789	121.38
439	156.26
439.211	122.16
439.423	136.3
439.634	158.58
439.845	158.97
440.057	136.3
440.268	170.4
440.479	118.09
440.69	124.48
440.902	149.09
441.113	128.94
441.324	124.87
441.535	148.7
441.746	214.38
441.957	105.11
442.168	138.04
442.38	165.56
442.591	151.8
442.802	120.61
443.013	128.55
443.224	148.31
443.435	136.11
443.646	128.55
443.857	130.1
444.068	120.03
444.279	91.93
444.49	203.53
444.701	161.29
444.912	257.2
445.123	199.85
445.334	185.9
445.545	149.67
445.756	147.34
445.967	122.93
446.178	169.43
446.388	199.85
446.599	176.41
446.81	210.31
447.021	148.12
447.232	204.11
447.443	205.86
447.653	130.1
447.864	217.87
448.075	155.87
448.286	209.73
448.496	199.27
448.707	226.97
448.918	156.84
449.129	266.89
449.339	155.29
449.55	190.55
449.761	158.39
449.971	222.32
450.182	174.66
450.393	187.06
450.603	172.73
450.814	200.43
451.024	193.26
451.235	241.89
451.446	256.42
451.656	248.29
451.867	177.76
452.077	198.69
452.288	245.57
452.498	238.6
452.709	214.38
452.919	211.09
453.13	176.41
453.34	208.76
453.55	136.3
453.761	232.4
453.971	231.82
454.182	218.64
454.392	210.89
454.602	272.89
454.813	232.21
455.023	251.97
455.233	186.48
455.444	248.67
455.654	144.24
455.864	162.26
456.075	206.44
456.285	187.64
456.495	171.56
456.705	233.76
456.916	242.67
457.126	263.21
457.336	208.76
457.546	159.74
457.756	184.74
457.967	240.54
458.177	202.37
458.387	192.49
458.597	193.26
458.807	189
459.017	222.71
459.227	205.47
459.437	216.32
459.647	260.11
459.857	236.86
460.068	208.76
460.278	260.88
460.488	211.48
460.698	286.46
460.908	227.56
461.117	207.79
461.327	230.85
461.537	230.27
461.747	256.42
461.957	238.6
462.167	324.82
462.377	262.62
462.587	210.89
462.797	256.23
463.007	251.19
463.216	261.27
463.426	251.77
463.636	272.12
463.846	190.55
464.056	200.63
464.265	268.05
464.475	193.84
464.685	255.65
464.895	271.34
465.104	222.71
465.314	285.87
465.524	224.84
465.733	219.61
465.943	313.39
466.153	305.06
466.362	298.66
466.572	275.99
466.782	209.73
466.991	255.84
467.201	321.91
467.41	205.08
467.62	283.55
467.829	267.47
468.039	264.17
468.249	254.68
468.458	291.69
468.668	262.82
468.877	301.76
469.086	309.9
469.296	306.22
469.505	270.37
469.715	342.84
469.924	313.58
470.134	333.34
470.343	327.14
470.552	274.83
470.762	276.38
470.971	236.08
471.18	271.15
471.39	268.63
471.599	257.97
471.808	319.97
472.018	236.08
472.227	312.61
472.436	311.06
472.645	268.05
472.855	249.06
473.064	343.22
473.273	293.62
473.482	306.41
473.691	334.89
473.901	332.57
474.11	308.15
474.319	384.88
474.528	310.87
474.737	334.7
474.946	354.46
475.155	343.8
475.364	355.43
475.573	324.04
475.783	341.29
475.992	368.99
476.201	383.52
476.41	289.94
476.619	286.84
476.828	341.09
477.037	281.81
477.245	318.04
477.454	385.27
477.663	353.88
477.872	318.62
478.081	398.44
478.29	334.7
478.499	431.96
478.708	357.17
478.917	418.59
479.125	348.84
479.334	388.95
479.543	370.35
479.752	373.25
479.961	357.95
480.169	426.92
480.378	341.29
480.587	469.35
480.796	400.57
481.004	381.2
481.213	415.88
481.422	416.46
481.63	385.27
481.839	378.87
482.048	434.48
482.256	400.77
482.465	410.65
482.674	427.5
482.882	419.95
483.091	468.77
483.299	429.25
483.508	472.26
483.716	414.13
483.925	440.29
484.134	381.2
484.342	418.2
484.551	459.67
484.759	439.52
484.967	447.07
485.176	462.57
485.384	461.22
485.593	470.13
485.801	438.74
486.01	426.73
486.218	395.53
486.426	403.67
486.635	392.82
486.843	389.92
487.051	414.72
487.26	417.04
487.468	461.8
487.676	453.47
487.885	435.83
488.093	437.97
488.301	454.24
488.509	476.52
488.717	506.55
488.926	459.47
489.134	449.59
489.342	471.1
489.55	412.2
489.758	485.43
489.967	451.53
490.175	553.63
490.383	478.85
490.591	529.41
490.799	454.05
491.007	533.87
491.215	485.43
491.423	493.96
491.631	493.96
491.839	464.51
492.047	529.61
492.255	448.04
492.463	439.71
492.671	486.6
492.879	542.98
493.087	514.3
493.295	516.24
493.503	509.07
493.711	537.36
493.919	557.12
494.127	566.61
494.334	556.35
494.542	487.76
494.75	536.78
494.958	535.61
495.166	578.63
495.374	525.54
495.581	560.41
495.789	558.67
495.997	622.03
496.205	545.69
496.412	510.43
496.62	538.71
496.828	571.07
497.035	570.88
497.243	577.46
497.451	548.4
497.658	584.24
497.866	531.55
498.074	622.22
498.281	537.75
498.489	645.08
498.696	573.78
498.904	555.38
499.112	529.03
499.319	619.31
499.527	536.97
499.734	653.99
499.942	534.06
500.149	563.51
500.357	584.63
500.564	547.63
500.771	590.64
500.979	533.87
501.186	549.56
501.394	592.38
501.601	586.76
501.808	606.53
502.016	564.1
502.223	560.61
502.43	562.93
502.638	568.36
502.845	527.48
503.052	623.96
503.26	565.06
503.467	655.93
503.674	589.67
503.881	601.29
504.089	679.57
504.296	604.78
504.503	547.63
504.71	618.34
504.917	572.81
505.125	594.51
505.332	611.56
505.539	645.28
505.746	692.55
505.953	655.93
506.16	647.02
506.367	686.35
506.574	655.35
506.781	674.53
506.988	616.79
507.195	664.65
507.402	665.62
507.609	667.17
507.816	609.04
508.023	635.01
508.23	635.78
508.437	602.46
508.644	673.56
508.851	717.35
509.058	683.83
509.265	687.12
509.472	694.68
509.679	751.84
509.885	658.64
510.092	640.63
510.299	668.91
510.506	679.18
510.713	678.41
510.92	652.64
511.126	714.44
511.333	688.29
511.54	720.26
511.746	769.27
511.953	743.31
512.16	779.74
512.367	690.81
512.573	687.9
512.78	728.59
512.987	725.87
513.193	702.04
513.4	671.43
513.606	691.77
513.813	723.16
514.02	697.78
514.226	783.42
514.433	773.73
514.639	700.49
514.846	727.04
515.052	695.65
515.259	678.41
515.465	719.67
515.672	697.97
515.878	790
516.085	712.89
516.291	779.15
516.497	694.49
516.704	685.38
516.91	673.37
517.117	639.85
517.323	641.01
517.529	653.99
517.736	682.67
517.942	661.74
518.148	703.01
518.354	726.84
518.561	688.29
518.767	697.39
518.973	765.2
519.179	761.14
519.386	724.91
519.592	703.59
519.798	733.62
520.004	787.49
520.21	756.87
520.417	780.12
520.623	806.67
520.829	824.49
521.035	818.29
521.241	809.96
521.447	826.62
521.653	914.2
521.859	822.55
522.065	842.12
522.271	939.58
522.477	862.08
522.683	887.27
522.889	830.5
523.095	868.28
523.301	861.3
523.507	816.55
523.713	862.27
523.919	825.07
524.125	890.17
524.331	838.63
524.537	929.89
524.742	895.4
524.948	925.05
525.154	904.7
525.36	1020.18
525.566	897.34
525.772	990.73
525.977	876.8
526.183	962.44
526.389	971.74
526.595	898.7
526.8	898.5
527.006	846.77
527.212	827.98
527.417	856.27
527.623	853.36
527.829	909.55
528.034	925.43
528.24	874.09
528.446	861.69
528.651	949.46
528.857	966.9
529.062	992.66
529.268	915.55
529.473	970.77
529.679	951.78
529.884	1034.71
530.09	1014.36
530.295	1002.93
530.501	1033.16
530.706	1014.94
530.912	933.18
531.117	997.7
531.323	997.51
531.528	1027.15
531.733	1041.1
531.939	1010.68
532.144	1039.74
532.35	1011.26
532.555	1058.93
532.76	1008.55
532.966	1042.26
533.171	1028.51
533.376	988.01
533.581	944.42
533.787	995.38
533.992	1034.32
534.197	1056.21
534.402	989.95
534.607	1000.03
534.813	1119.18
535.018	1056.79
535.223	993.83
535.428	1028.12
535.633	1081.4
535.838	1043.62
536.043	1057.38
536.249	1109.88
536.454	1049.82
536.659	1065.51
536.864	1029.28
537.069	1055.83
537.274	1077.14
537.479	1097.09
537.684	1105.81
537.889	1037.81
538.094	1122.09
538.299	1080.24
538.504	1089.54
538.708	1069.39
538.913	1096.71
539.118	1046.14
539.323	1105.81
539.528	1077.53
539.733	1057.57
539.938	1114.92
540.142	1095.35
540.347	1046.91
540.552	1062.41
540.757	1048.85
540.962	1060.67
541.166	1002.93
541.371	989.76
541.576	1052.73
541.781	930.47
541.985	1084.69
542.19	1071.91
542.395	1119.76
542.599	1160.84
542.804	1109.11
543.008	1156.96
543.213	1095.16
543.418	1039.94
543.622	1116.86
543.827	1035.09
544.031	1134.87
544.236	1134.49
544.44	1128.67
544.645	1157.54
544.849	1119.37
545.054	1158.9
545.258	1221.48
545.463	1198.04
545.667	1126.74
545.872	1159.67
546.076	1124.02
546.281	1131.58
546.485	1094.77
546.689	1168.2
546.894	1187.96
547.098	1124.02
547.302	1115.31
547.507	1123.83
547.711	1153.86
547.915	1171.69
548.119	1133.71
548.324	1097.09
548.528	1179.24
548.732	1113.95
548.936	1183.31
549.141	1184.47
549.345	1110.66
549.549	1134.68
549.753	1151.73
549.957	1216.44
550.161	1241.63
550.366	1146.11
550.57	1143.21
550.774	1137.97
550.978	1153.47
551.182	1166.46
551.386	1143.01
551.59	1148.82
551.794	1110.46
551.998	1168.97
552.202	1144.76
552.406	1103.87
552.61	1161.61
552.814	1153.09
553.018	1221.67
553.222	1138.17
553.426	1156.57
553.63	1233.69
553.833	1145.34
554.037	1082.95
554.241	1190.29
554.445	1173.04
554.649	1157.93
554.853	1131
555.056	1181.57
555.26	1175.95
555.464	1169.94
555.668	1178.86
555.871	1185.83
556.075	1221.87
556.279	1112.79
556.483	1114.14
556.686	1165.87
556.89	1154.83
557.094	1156.38
557.297	1105.42
557.501	1196.29
557.704	1091.09
557.908	1173.43
558.112	1134.68
558.315	1187.19
558.519	1173.04
558.722	1133.91
558.926	1112.01
559.129	1079.85
559.333	1094.77
559.536	1056.02
559.74	1049.63
559.943	1075.98
560.147	1059.51
560.35	1109.3
560.553	1083.92
560.757	1043.43
560.96	1159.48
561.164	1072.1
561.367	1158.9
561.57	1071.52
561.774	1111.82
561.977	1104.07
562.18	1053.5
562.384	1165.87
562.587	1091.67
562.79	1094.38
562.993	1062.22
563.197	1146.69
563.4	1176.14
563.603	1153.09
563.806	1181.57
564.009	1072.49
564.212	1112.98
564.416	1029.86
564.619	1113.37
564.822	1061.44
565.025	1100.39
565.228	1071.71
565.431	1063.58
565.634	1019.79
565.837	1022.69
566.04	1031.99
566.243	1038.39
566.446	967.48
566.649	1078.69
566.852	1005.06
567.055	1032.38
567.258	1075.2
567.461	1105.42
567.664	1104.07
567.867	994.41
568.07	1064.35
568.273	1082.37
568.475	1096.51
568.678	1032.96
568.881	1033.74
569.084	1063.96
569.287	909.55
569.489	955.27
569.692	1048.08
569.895	1015.53
570.098	949.85
570.3	950.04
570.503	906.64
570.706	982.01
570.909	920.2
571.111	933.38
571.314	911.48
571.516	938.8
571.719	956.05
571.922	951.4
572.124	944.42
572.327	933.38
572.529	899.47
572.732	910.71
572.935	989.95
573.137	1013.39
573.34	924.08
573.542	972.71
573.745	962.44
573.947	974.84
574.15	940.16
574.352	938.03
574.554	990.15
574.757	899.47
574.959	913.03
575.162	899.47
575.364	941.71
575.566	997.12
575.769	874.28
575.971	930.47
576.173	823.33
576.376	926.6
576.578	943.45
576.78	960.89
576.982	849.48
577.185	894.82
577.387	867.7
577.589	869.63
577.791	926.4
577.993	915.94
578.196	864.02
578.398	932.02
578.6	945.97
578.802	842.9
579.004	866.34
579.206	868.08
579.408	890.75
579.61	825.46
579.812	923.88
580.014	860.72
580.216	868.47
580.418	858.78
580.62	854.72
580.822	835.92
581.024	883
581.226	913.03
581.428	857.62
581.63	919.81
581.832	866.73
582.034	943.65
582.236	884.17
582.438	883.78
582.64	953.14
582.841	960.5
583.043	981.81
583.245	909.74
583.447	938.8
583.649	912.65
583.85	890.75
584.052	922.14
584.254	872.35
584.456	960.89
584.657	868.47
584.859	909.93
585.061	891.14
585.262	876.22
585.464	826.82
585.666	938.41
585.867	852.58
586.069	932.8
586.27	902.38
586.472	861.5
586.674	871.96
586.875	867.7
587.077	843.87
587.278	878.55
587.48	847.93
587.681	980.46
587.883	880.1
588.084	813.64
588.285	852.2
588.487	846.77
588.688	874.67
588.89	800.27
589.091	798.53
589.292	840.57
589.494	785.16
589.695	776.64
589.896	718.71
590.098	707.27
590.299	770.44
590.5	721.81
590.702	761.52
590.903	792.14
591.104	838.63
591.305	795.04
591.507	870.99
591.708	817.71
591.909	801.82
592.11	883.78
592.311	836.7
592.512	817.13
592.714	765.01
592.915	763.07
593.116	786.9
593.317	801.44
593.518	796.59
593.719	802.99
593.92	829.34
594.121	852
594.322	785.35
594.523	796.01
594.724	763.85
594.925	775.47
595.126	798.34
595.327	830.5
595.528	811.32
595.729	802.4
595.929	796.98
596.13	777.41
596.331	831.47
596.532	789.81
596.733	846.38
596.934	830.3
597.135	818.29
597.335	821.2
597.536	784.39
597.737	807.25
597.938	788.07
598.138	841.54
598.339	797.56
598.54	812.67
598.74	799.69
598.941	809.19
599.142	868.28
599.342	802.02
599.543	744.86
599.744	772.76
599.944	795.43
600.145	772.18
600.345	841.54
600.546	845.8
600.746	840.57
600.947	878.74
601.147	828.95
601.348	863.82
601.548	768.69
601.749	795.62
601.949	805.89
602.15	755.52
602.35	791.55
602.551	845.8
602.751	760.36
602.951	819.84
603.152	729.75
603.352	817.32
603.552	802.79
603.753	839.8
603.953	856.46
604.153	822.94
604.354	823.91
604.554	790
604.754	810.93
604.954	766.56
605.155	810.15
605.355	781.67
605.555	805.89
605.755	844.06
605.955	785.16
606.155	818.1
606.356	772.95
606.556	790.97
606.756	800.85
606.956	756.49
607.156	845.8
607.356	732.85
607.556	819.45
607.756	786.32
607.956	846.38
608.156	792.91
608.356	798.34
608.556	801.82
608.756	790.59
608.956	728.78
609.156	802.21
609.356	758.42
609.556	751.84
609.755	765.59
609.955	764.04
610.155	805.12
610.355	778.19
610.555	760.94
610.755	747.38
610.954	697.97
611.154	770.24
611.354	819.84
611.554	758.23
611.753	774.5
611.953	698.94
612.153	785.35
612.352	793.69
612.552	711.34
612.752	684.8
612.951	749.12
613.151	777.8
613.351	714.83
613.55	730.52
613.75	771.6
613.949	702.82
614.149	751.25
614.348	728.78
614.548	715.99
614.747	674.53
614.947	721.22
615.146	656.9
615.346	754.94
615.545	740.21
615.745	736.34
615.944	774.89
616.144	734.79
616.343	738.66
616.542	704.56
616.742	712.12
616.941	694.1
617.14	648.96
617.34	715.02
617.539	729.17
617.738	675.69
617.938	745.25
618.137	709.6
618.336	680.15
618.535	714.44
618.734	714.44
618.934	709.6
619.133	702.24
619.332	734.98
619.531	700.11
619.73	705.53
619.929	740.6
620.128	731.69
620.328	769.85
620.527	704.17
620.726	667.75
620.925	699.33
621.124	686.93
621.323	728.97
621.522	656.32
621.721	665.23
621.92	657.09
622.119	713.86
622.318	679.76
622.517	687.71
622.715	689.26
622.914	648.57
623.113	664.84
623.312	618.93
623.511	709.02
623.71	666.59
623.909	652.06
624.107	750.48
624.306	623.77
624.505	619.89
624.704	654.19
624.902	656.9
625.101	697.97
625.3	689.45
625.499	636.94
625.697	642.56
625.896	631.33
626.095	703.79
626.293	605.94
626.492	619.51
626.69	680.73
626.889	629.78
627.088	681.89
627.286	594.71
627.485	623.96
627.683	623.77
627.882	666.2
628.08	577.66
628.279	622.22
628.477	680.92
628.676	571.46
628.874	623.58
629.073	604.39
629.271	599.74
629.469	641.98
629.668	634.81
629.866	591.22
630.065	631.33
630.263	654.19
630.461	591.22
630.66	620.67
630.858	651.67
631.056	688.48
631.254	655.54
631.453	583.28
631.651	674.72
631.849	623.19
632.047	626.29
632.245	616.41
632.444	625.32
632.642	655.35
632.84	668.14
633.038	631.71
633.236	567.58
633.434	610.59
633.632	584.05
633.83	619.51
634.028	652.44
634.227	629.39
634.425	689.26
634.623	648.76
634.821	627.06
635.019	657.48
635.216	606.72
635.414	656.9
635.612	622.8
635.81	607.49
636.008	691.58
636.206	613.69
636.404	647.6
636.602	602.07
636.8	612.53
636.997	661.94
637.195	668.33
637.393	621.06
637.591	683.83
637.789	649.34
637.986	613.11
638.184	635.59
638.382	677.44
638.58	658.45
638.777	685.57
638.975	629.58
639.173	604.2
639.37	623.96
639.568	643.14
639.765	661.55
639.963	617.18
640.161	665.04
640.358	653.61
640.556	585.41
640.753	596.64
640.951	582.11
641.148	634.81
641.346	595.68
641.543	603.81
641.741	639.46
641.938	591.22
642.136	602.65
642.333	561.77
642.531	640.43
642.728	621.06
642.925	617.76
643.123	600.33
643.32	583.47
643.517	632.88
643.715	614.66
643.912	589.09
644.109	615.05
644.306	593.54
644.504	562.93
644.701	596.64
644.898	625.13
645.095	583.08
645.293	565.26
645.49	601.29
645.687	605.94
645.884	630.94
646.081	535.23
646.278	542.01
646.475	564.68
646.672	542.78
646.87	575.53
647.067	579.59
647.264	591.61
647.461	532.32
647.658	540.65
647.855	594.13
648.052	548.79
648.249	475.36
648.446	557.7
648.642	527.28
648.839	548.6
649.036	564.48
649.233	492.41
649.43	479.43
649.627	474.78
649.824	515.27
650.021	512.75
650.217	505.2
650.414	511.78
650.611	532.9
650.808	567.78
651.004	524.18
651.201	572.23
651.398	577.66
651.595	556.54
651.791	520.31
651.988	587.34
652.185	483.11
652.381	546.66
652.578	480.01
652.775	524.38
652.971	517.98
653.168	516.24
653.364	586.18
653.561	456.18
653.757	519.15
653.954	533.87
654.15	514.3
654.347	583.66
654.543	528.83
654.74	489.5
654.936	478.65
655.133	495.12
655.329	513.91
655.525	521.47
655.722	548.98
655.918	477.3
656.115	530.19
656.311	478.65
656.507	431.57
656.704	418.59
656.9	448.82
657.096	450.95
657.292	454.24
657.489	501.32
657.685	482.33
657.881	474.97
658.077	457.53
658.273	448.04
658.47	536
658.666	518.76
658.862	517.4
659.058	451.14
659.254	546.85
659.45	461.99
659.646	496.48
659.842	493.96
660.038	522.05
660.234	475.75
660.43	512.95
660.626	579.59
660.822	500.74
661.018	516.24
661.214	510.04
661.41	458.89
661.606	513.14
661.802	548.21
661.998	483.69
662.194	473.42
662.39	520.89
662.586	498.22
662.781	533.87
662.977	515.08
663.173	530.58
663.369	519.73
663.564	500.16
663.76	517.4
663.956	489.11
664.152	565.26
664.347	456.18
664.543	467.61
664.739	508.88
664.934	459.08
665.13	412.2
665.326	532.32
665.521	483.88
665.717	444.55
665.912	441.07
666.108	413.36
666.304	452.69
666.499	478.07
666.695	411.81
666.89	466.83
667.086	492.99
667.281	485.63
667.477	552.08
667.672	477.3
667.867	459.08
668.063	482.53
668.258	457.34
668.454	455.02
668.649	555.76
668.844	488.15
669.04	508.68
669.235	455.21
669.43	466.25
669.626	406.38
669.821	429.05
670.016	425.76
670.211	466.83
670.407	441.45
670.602	463.93
670.797	460.63
670.992	474.78
671.187	418.78
671.382	498.61
671.578	425.76
671.773	476.33
671.968	415.68
672.163	457.92
672.358	480.78
672.553	445.91
672.748	430.8
672.943	520.11
673.138	464.12
673.333	471.87
673.528	455.98
673.723	454.43
673.918	429.05
674.113	410.65
674.308	535.03
674.503	477.1
674.698	482.14
674.892	447.46
675.087	476.72
675.282	479.43
675.477	446.3
675.672	470.9
675.867	435.45
676.061	421.88
676.256	402.32
676.451	425.95
676.646	446.3
676.84	384.88
677.035	422.08
677.23	387.01
677.424	451.53
677.619	446.88
677.814	476.13
678.008	457.73
678.203	364.92
678.397	390.3
678.592	441.84
678.787	493.38
678.981	390.5
679.176	448.04
679.37	434.09
679.565	390.69
679.759	420.92
679.954	448.43
680.148	448.23
680.342	484.08
680.537	468.58
680.731	414.13
680.926	430.22
681.12	430.22
681.314	395.73
681.509	410.07
681.703	415.49
681.897	451.92
682.092	412.78
682.286	412
682.48	502.87
682.674	462.18
682.869	429.44
683.063	433.51
683.257	495.51
683.451	406.19
683.645	450.37
683.839	451.33
684.034	432.54
684.228	458.5
684.422	400.57
684.616	404.64
684.81	455.4
685.004	400.38
685.198	427.12
685.392	467.8
685.586	416.46
685.78	462.77
685.974	455.4
686.168	449.98
686.362	505.39
686.556	404.64
686.75	382.36
686.944	380.42
687.138	417.04
687.331	336.83
687.525	383.33
687.719	303.12
687.913	371.51
688.107	356.2
688.301	339.15
688.494	406.19
688.688	344.58
688.882	312.42
689.076	306.99
689.269	333.15
689.463	434.87
689.657	351.55
689.85	361.44
690.044	358.92
690.238	353.49
690.431	384.69
690.625	372.87
690.818	399.22
691.012	405.22
691.205	388.95
691.399	377.9
691.593	412.97
691.786	464.51
691.98	446.1
692.173	506.75
692.366	442.23
692.56	446.88
692.753	512.56
692.947	422.47
693.14	515.85
693.333	476.72
693.527	432.73
693.72	474
693.914	413.94
694.107	441.07
694.3	466.25
694.493	482.14
694.687	534.06
694.88	426.73
695.073	521.28
695.266	517.01
695.46	468.77
695.653	554.99
695.846	514.3
696.039	455.02
696.232	503.84
696.425	560.41
696.618	509.46
696.812	546.46
697.005	578.63
697.198	634.43
697.391	549.18
697.584	607.88
697.777	651.67
697.97	627.06
698.163	610.4
698.356	607.49
698.549	703.79
698.742	666.59
698.935	585.6
699.127	650.31
699.32	618.93
699.513	628.61
699.706	647.41
699.899	639.85
700.092	616.21
700.285	658.64
700.477	603.81
700.67	662.71
700.863	706.31
701.056	762.69
701.248	723.94
701.441	722.97
701.634	662.32
701.826	777.22
702.019	688.48
702.212	715.02
702.404	688.09
702.597	677.05
702.79	687.12
702.982	704.95
703.175	756.29
703.367	778.19
703.56	794.46
703.752	828.56
703.945	813.64
704.137	825.85
704.33	852.2
704.522	818.87
704.715	823.91
704.907	868.47
705.1	869.25
705.292	876.22
705.484	860.33
705.677	907.61
705.869	889.4
706.061	891.92
706.254	939
706.446	890.95
706.638	870.8
706.831	981.43
707.023	914.58
707.215	1015.91
707.407	987.63
707.599	997.12
707.792	1006.03
707.984	997.31
708.176	1038.39
708.368	960.31
708.56	1014.94
708.752	998.09
708.944	1023.47
709.136	1031.99
709.329	1022.69
709.521	1125.77
709.713	1084.69
709.905	1111.82
710.097	1118.02
710.289	1046.53
710.481	1070.36
710.672	1130.03
710.864	1104.65
711.056	1153.09
711.248	1171.11
711.44	1150.76
711.632	1136.23
711.824	1153.28
712.016	1242.6
712.207	1197.45
712.399	1224.39
712.591	1277.28
712.783	1240.27
712.975	1245.5
713.166	1216.83
713.358	1232.33
713.55	1272.43
713.741	1276.5
713.933	1269.53
714.125	1294.33
714.316	1228.45
714.508	1318.93
714.7	1324.55
714.891	1307.12
715.083	1382.29
715.274	1306.53
715.466	1344.32
715.657	1348.58
715.849	1260.42
716.04	1304.02
716.232	1264.1
716.423	1331.14
716.615	1251.51
716.806	1265.07
716.998	1235.24
717.189	1209.66
717.381	1144.76
717.572	1133.32
717.763	1138.36
717.955	1126.16
718.146	1106.78
718.337	1070.55
718.528	1081.98
718.72	981.81
718.911	1085.47
719.102	1021.92
719.293	1093.41
719.485	1063.96
719.676	1063.77
719.867	1005.26
720.058	1040.52
720.249	1070.36
720.44	1066.87
720.632	1097.67
720.823	1123.64
721.014	1222.06
721.205	1179.05
721.396	1250.93
721.587	1342.18
721.778	1324.55
721.969	1359.43
722.16	1391.98
722.351	1363.88
722.542	1473.35
722.733	1498.54
722.924	1399.15
723.115	1465.02
723.305	1470.25
723.496	1469.09
723.687	1385.97
723.878	1403.6
724.069	1412.71
724.26	1407.28
724.45	1362.14
724.641	1338.5
724.832	1396.43
725.023	1360.01
725.213	1292.2
725.404	1338.5
725.595	1351.87
725.785	1321.45
725.976	1391.01
726.167	1347.8
726.357	1347.22
726.548	1466.18
726.739	1395.08
726.929	1460.18
727.12	1458.24
727.31	1488.66
727.501	1436.93
727.691	1496.02
727.882	1449.33
728.072	1507.84
728.263	1478.19
728.453	1522.56
728.644	1524.89
728.834	1490.21
729.024	1477.23
729.215	1471.99
729.405	1523.53
729.596	1551.43
729.786	1571.77
729.976	1544.84
730.167	1607.23
730.357	1539.03
730.547	1562.28
730.737	1608.97
730.928	1646.95
731.118	1670.39
731.308	1594.06
731.498	1571.19
731.688	1691.12
731.879	1676.59
732.069	1706.82
732.259	1744.6
732.449	1734.52
732.639	1773.66
732.829	1798.07
733.019	1821.32
733.209	1902.31
733.399	1867.24
733.589	1908.12
733.779	1966.82
733.969	1903.28
734.159	1933.69
734.349	2041.03
734.539	2032.31
734.729	2003.06
734.919	2070.67
735.109	2105.16
735.299	1972.44
735.488	2009.06
735.678	2021.85
735.868	2069.51
736.058	2066.22
736.248	2082.49
736.437	2033.28
736.627	1958.69
736.817	2110.2
737.007	2072.03
737.196	2088.3
737.386	2092.57
737.576	2060.6
737.765	2121.63
737.955	2089.27
738.144	2190.22
738.334	2158.44
738.524	2088.11
738.713	2116.98
738.903	2129.77
739.092	2174.52
739.282	2153.02
739.471	2179.75
739.661	2094.89
739.85	2180.14
740.04	2215.21
740.229	2247.37
740.419	2195.06
740.608	2232.65
740.797	2234.97
740.987	2287.28
741.176	2252.6
741.365	2191.96
741.555	2218.31
741.744	2249.31
741.933	2235.94
742.123	2274.88
742.312	2297.36
742.501	2289.03
742.69	2276.63
742.88	2234.78
743.069	2310.73
743.258	2254.15
743.447	2347.93
743.636	2337.85
743.825	2287.67
744.014	2324.68
744.204	2349.28
744.393	2293.1
744.582	2333.01
744.771	2365.75
744.96	2287.48
745.149	2340.56
745.338	2319.44
745.527	2343.66
745.716	2305.3
745.905	2292.32
746.094	2352.77
746.283	2368.46
746.471	2366.53
746.66	2421.94
746.849	2383.38
747.038	2404.69
747.227	2338.24
747.416	2357.61
747.604	2314.6
747.793	2364.59
747.982	2355.87
748.171	2369.24
748.359	2426.39
748.548	2392.49
748.737	2345.02
748.926	2334.56
749.114	2248.15
749.303	2361.68
749.491	2335.33
749.68	2282.44
749.869	2363.43
750.057	2348.31
750.246	2312.86
750.434	2307.63
750.623	2338.43
750.811	2314.02
751	2394.62
751.188	2345.79
751.377	2326.61
751.565	2316.73
751.754	2252.8
751.942	2290.96
752.131	2336.11
752.319	2279.73
752.507	2238.46
752.696	2326.81
752.884	2361.29
753.072	2310.34
753.261	2318.67
753.449	2315.76
753.637	2280.5
753.825	2381.06
754.014	2309.76
754.202	2295.81
754.39	2339.59
754.578	2330.1
754.766	2281.86
754.955	2283.21
755.143	2389.19
755.331	2272.36
755.519	2264.81
755.707	2288.25
755.895	2253.76
756.083	2285.54
756.271	2271.98
756.459	2273.33
756.647	2315.18
756.835	2268.88
757.023	2231.1
757.211	2269.07
757.399	2224.32
757.587	2257.83
757.775	2207.65
757.963	2210.75
758.151	2243.5
758.339	2180.33
758.526	2216.95
758.714	2239.62
758.902	2113.1
759.09	2103.22
759.278	1949.78
759.465	1833.14
759.653	1576.62
759.841	1477.03
760.028	1218.77
760.216	1070.55
760.404	1022.31
760.591	836.12
760.779	698.56
760.967	630.94
761.154	520.89
761.342	551.5
761.529	544.91
761.717	599.94
761.905	535.42
762.092	625.13
762.28	557.31
762.467	576.11
762.655	511.2
762.842	521.66
763.029	570.68
763.217	585.79
763.404	572.43
763.592	583.47
763.779	532.9
763.966	593.35
764.154	603.62
764.341	658.84
764.528	633.07
764.716	668.33
764.903	740.6
765.09	775.86
765.277	800.08
765.465	921.36
765.652	973.48
765.839	999.45
766.026	1082.56
766.213	1092.44
766.4	1167.62
766.588	1335.4
766.775	1277.28
766.962	1419.49
767.149	1409.03
767.336	1535.16
767.523	1476.45
767.71	1567.51
767.897	1660.32
768.084	1741.5
768.271	1707.4
768.458	1778.31
768.645	1774.24
768.832	1783.35
769.019	1802.33
769.206	1849.03
769.392	1894.94
769.579	1990.46
769.766	1918.19
769.953	1905.21
770.14	1938.34
770.327	1936.02
770.513	1986.39
770.7	2082.3
770.887	1954.23
771.073	1978.64
771.26	1939.12
771.447	1987.36
771.634	1954.62
771.82	2030.96
772.007	1949.97
772.193	1963.53
772.38	2006.16
772.567	1968.76
772.753	1984.65
772.94	2029.02
773.126	2025.14
773.313	2029.41
773.499	2034.06
773.686	2007.9
773.872	1963.34
774.059	2042.39
774.245	1957.91
774.432	1970.51
774.618	1919.55
774.804	1978.84
774.991	1899.98
775.177	2025.14
775.363	1958.69
775.55	2004.02
775.736	1937.57
775.922	1943.77
776.109	1975.74
776.295	1954.23
776.481	1942.99
776.667	1973.8
776.853	1955.2
777.04	1908.89
777.226	1963.34
777.412	2018.36
777.598	1923.23
777.784	1901.34
777.97	1899.79
778.156	1936.6
778.342	1896.49
778.528	1895.91
778.715	1854.26
778.901	1902.31
779.087	1912.38
779.272	1861.43
779.458	1875.18
779.644	1894.75
779.83	1844.18
780.016	1999.37
780.202	1894.56
780.388	1825.58
780.574	1771.33
780.76	1844.18
780.946	1889.71
781.131	1854.65
781.317	1865.88
781.503	1809.31
781.689	1817.06
781.874	1980.19
782.06	1857.75
782.246	1852.13
782.432	1824.23
782.617	1875.96
782.803	1876.15
782.989	1788.38
783.174	1818.03
783.36	1768.82
783.545	1808.15
783.731	1800.98
783.916	1696.35
784.102	1829.65
784.288	1794.39
784.473	1792.26
784.659	1798.65
784.844	1811.63
785.029	1756.8
785.215	1744.21
785.4	1731.42
785.586	1809.5
785.771	1690.74
785.956	1791.1
786.142	1777.53
786.327	1706.82
786.512	1794.78
786.698	1692.67
786.883	1667.49
787.068	1700.62
787.254	1704.88
787.439	1689.19
787.624	1673.3
787.809	1710.11
787.994	1704.68
788.18	1720.77
788.365	1647.72
788.55	1666.9
788.735	1689.19
788.92	1666.52
789.105	1649.08
789.29	1671.55
789.475	1618.27
789.66	1648.5
789.845	1655.86
790.03	1611.3
790.215	1668.07
790.4	1656.05
790.585	1665.35
790.77	1659.35
790.955	1570.81
791.14	1609.75
791.325	1702.55
791.51	1524.89
791.695	1632.03
791.879	1578.56
792.064	1552.79
792.249	1654.89
792.434	1587.27
792.618	1618.08
792.803	1644.82
792.988	1589.02
793.173	1610.52
793.357	1622.73
793.542	1558.79
793.727	1616.53
793.911	1645.2
794.096	1591.54
794.281	1635.52
794.465	1721.54
794.65	1612.27
794.834	1621.57
795.019	1653.15
795.203	1670.39
795.388	1654.89
795.572	1655.28
795.757	1642.1
795.941	1654.31
796.126	1643.46
796.31	1602.77
796.494	1593.28
796.679	1612.66
796.863	1623.7
797.048	1678.14
797.232	1655.67
797.416	1626.41
797.601	1610.14
797.785	1683.95
797.969	1683.76
798.153	1599.48
798.338	1624.86
798.522	1668.65
798.706	1643.65
798.89	1698.87
799.074	1742.47
799.258	1715.15
799.443	1621.37
799.627	1654.89
799.811	1632.61
799.995	1612.27
800.179	1627.77
800.363	1630.87
800.547	1658.38
800.731	1687.05
800.915	1554.72
801.099	1602
801.283	1665.94
801.467	1601.22
801.651	1597.93
801.835	1684.54
802.019	1661.29
802.202	1657.6
802.386	1601.03
802.57	1564.8
802.754	1610.52
802.938	1588.82
803.121	1594.44
803.305	1635.13
803.489	1627.19
803.673	1646.95
803.856	1629.12
804.04	1616.92
804.224	1637.26
804.407	1614.59
804.591	1620.99
804.775	1633.39
804.958	1620.4
805.142	1726.58
805.326	1642.88
805.509	1665.55
805.693	1650.63
805.876	1690.35
806.06	1624.47
806.243	1669.04
806.427	1705.65
806.61	1698.49
806.794	1612.27
806.977	1676.98
807.16	1644.82
807.344	1651.79
807.527	1646.56
807.71	1625.83
807.894	1646.37
808.077	1687.05
808.26	1610.91
808.444	1618.85
808.627	1703.33
808.81	1592.31
808.993	1589.21
809.177	1576.62
809.36	1570.42
809.543	1627.77
809.726	1548.91
809.909	1560.73
810.092	1522.18
810.276	1507.26
810.459	1538.26
810.642	1543.87
810.825	1479.36
811.008	1492.34
811.191	1453.78
811.374	1460.95
811.557	1468.51
811.74	1546.97
811.923	1413.29
812.106	1465.79
812.289	1400.7
812.472	1437.31
812.654	1450.1
812.837	1402.83
813.02	1350.32
813.203	1362.14
813.386	1273.6
813.569	1262.36
813.751	1251.12
813.934	1302.08
814.117	1267.01
814.3	1226.71
814.482	1205.98
814.665	1197.45
814.848	1150.57
815.03	1099.22
815.213	1118.21
815.396	1115.89
815.578	1082.95
815.761	1091.48
815.943	1155.22
816.126	1074.23
816.309	1024.05
816.491	988.98
816.674	994.6
816.856	1022.5
817.039	993.44
817.221	1067.64
817.403	1025.21
817.586	1014.56
817.768	1026.76
817.951	968.64
818.133	989.37
818.315	1006.03
818.498	1067.64
818.68	1075.2
818.862	1063.96
819.045	1066.29
819.227	1018.63
819.409	1014.36
819.591	1053.69
819.774	1024.24
819.956	1008.94
820.138	1063.96
820.32	1071.91
820.502	1103.68
820.684	1135.65
820.866	1114.14
821.048	1189.12
821.231	1177.5
821.413	1167.23
821.595	1148.44
821.777	1204.62
821.959	1159.48
822.141	1192.42
822.323	1124.8
822.505	1053.89
822.686	1053.89
822.868	1031.8
823.05	930.66
823.232	937.06
823.414	882.81
823.596	957.79
823.778	899.67
823.96	905.67
824.141	919.04
824.323	933.18
824.505	980.65
824.687	1042.07
824.868	1032.77
825.05	1105.81
825.232	1132.74
825.413	1199.78
825.595	1138.94
825.777	1093.99
825.958	1118.79
826.14	1112.79
826.321	1131.97
826.503	1134.49
826.685	1129.06
826.866	1148.24
827.048	1137.78
827.229	1099.22
827.411	1061.64
827.592	1057.18
827.773	1060.86
827.955	1002.16
828.136	1021.14
828.318	989.56
828.499	1064.35
828.68	940.35
828.862	1055.24
829.043	1031.99
829.224	1019.21
829.406	983.56
829.587	999.25
829.768	1014.94
829.949	1031.22
830.131	1003.9
830.312	1108.33
830.493	1012.81
830.674	1023.47
830.855	1038.58
831.036	1008.55
831.218	1075.39
831.399	1061.64
831.58	1031.99
831.761	1030.83
831.942	1043.81
832.123	1035.87
832.304	944.42
832.485	1014.36
832.666	997.31
832.847	1041.49
833.028	1037.61
833.209	1032.58
833.389	1016.49
833.57	960.11
833.751	1002.55
833.932	1031.99
834.113	1002.55
834.294	1014.17
834.475	1069.39
834.655	1074.81
834.836	1027.73
835.017	1055.24
835.198	979.3
835.378	1034.51
835.559	1058.15
835.74	1009.91
835.92	995.18
836.101	979.3
836.281	1050.21
836.462	1003.32
836.643	1059.7
836.823	1075.98
837.004	1063.77
837.184	1097.48
837.365	1067.06
837.545	1092.06
837.726	1039.16
837.906	1116.86
838.087	1042.65
838.267	1060.28
838.448	990.34
838.628	1041.49
838.808	1055.63
838.989	1118.99
839.169	1034.51
839.349	1063.58
839.53	1063.19
839.71	1078.49
839.89	1028.31
840.07	1098.84
840.251	1040.13
840.431	1085.86
840.611	1054.28
840.791	1040.33
840.971	1042.46
841.151	1032.58
841.332	1019.59
841.512	1084.69
841.692	1005.84
841.872	1057.38
842.052	1046.91
842.232	1085.28
842.412	979.88
842.592	1014.94
842.772	1042.46
842.952	1058.73
843.132	1024.24
843.312	1031.41
843.492	989.76
843.672	1053.89
843.851	959.92
844.031	1048.27
844.211	1025.41
844.391	1012.81
844.571	1004.48
844.751	1049.63
844.93	1045.56
845.11	982.01
845.29	1012.04
845.47	1065.71
845.649	1037.81
845.829	1040.71
846.009	981.04
846.188	1052.14
846.368	1045.56
846.547	1008.16
846.727	1023.66
846.907	978.71
847.086	1022.31
847.266	1044.59
847.445	1000.61
847.625	980.26
847.804	988.79
847.984	1015.72
848.163	976
848.343	979.49
848.522	1024.63
848.701	1008.94
848.881	950.04
849.06	982.01
849.239	987.82
849.419	1005.26
849.598	939.38
849.777	933.18
849.957	988.4
850.136	877.38
850.315	881.45
850.494	896.37
850.674	882.62
850.853	955.85
851.032	929.11
851.211	970
851.39	929.5
851.569	894.63
851.748	887.07
851.927	960.31
852.107	900.63
852.286	884.36
852.465	870.41
852.644	947.91
852.823	906.83
853.002	904.9
853.181	912.45
853.359	946.16
853.538	868.08
853.717	929.31
853.896	842.32
854.075	821.2
854.254	852.78
854.433	769.08
854.611	820.62
854.79	779.74
854.969	832.63
855.148	846.97
855.327	792.91
855.505	836.7
855.684	835.53
855.863	839.22
856.041	786.13
856.22	883.58
856.399	816.16
856.577	878.55
856.756	861.88
856.934	966.12
857.113	937.64
857.291	895.02
857.47	866.92
857.648	868.28
857.827	873.12
858.005	914.97
858.184	860.92
858.362	952.95
858.541	869.83
858.719	882.23
858.898	861.88
859.076	865.37
859.254	910.71
859.433	874.09
859.611	855.49
859.789	844.25
859.967	901.99
860.146	928.53
860.324	832.63
860.502	833.4
860.68	784.39
860.859	853.75
861.037	841.15
861.215	864.79
861.393	876.61
861.571	830.11
861.749	815.97
861.927	847.55
862.105	854.13
862.283	816.16
862.461	807.05
862.639	801.44
862.817	818.49
862.995	807.83
863.173	798.53
863.351	810.15
863.529	836.12
863.707	864.4
863.885	825.07
864.063	745.44
864.241	798.72
864.418	838.25
864.596	785.16
864.774	793.1
864.952	802.21
865.129	812.48
865.307	772.37
865.485	746.99
865.663	820.04
865.84	741.76
866.018	802.99
866.196	674.92
866.373	703.98
866.551	702.62
866.728	645.28
866.906	671.62
867.084	696.23
867.261	745.83
867.439	746.02
867.616	772.37
867.794	738.08
867.971	776.64
868.149	753.58
868.326	815.77
868.503	775.67
868.681	760.55
868.858	751.06
869.035	704.37
869.213	781.48
869.39	721.42
869.567	808.6
869.745	735.56
869.922	750.48
870.099	760.17
870.276	760.55
870.454	771.6
870.631	766.75
870.808	697.01
870.985	769.85
871.162	796.59
871.339	754.55
871.517	682.67
871.694	718.12
871.871	713.09
872.048	707.08
872.225	717.93
872.402	728.39
872.579	672.79
872.756	747.57
872.933	685.96
873.11	720.84
873.287	699.72
873.463	723.16
873.64	687.71
873.817	721.22
873.994	715.8
874.171	676.86
874.348	715.22
874.524	675.89
874.701	695.65
874.878	636.56
875.055	707.27
875.231	700.11
875.408	724.32
875.585	635.78
875.762	707.27
875.938	695.26
876.115	665.62
876.291	669.88
876.468	654.38
876.645	630.74
876.821	680.34
876.998	660.77
877.174	709.41
877.351	647.99
877.527	617.57
877.704	669.88
877.88	672.79
878.057	631.33
878.233	728.78
878.409	660
878.586	687.71
878.762	665.04
878.938	647.21
879.115	590.06
879.291	643.53
879.467	617.57
879.644	637.72
879.82	662.71
879.996	628.61
880.172	564.87
880.349	642.37
880.525	661.94
880.701	625.9
880.877	618.73
881.053	653.8
881.229	618.73
881.405	673.76
881.581	591.03
881.757	619.7
881.933	618.73
882.109	629
882.285	602.26
882.461	582.69
882.637	636.17
882.813	577.46
882.989	626.29
883.165	659.81
883.341	609.43
883.517	666.2
883.693	620.28
883.869	606.72
884.044	585.6
884.22	626.87
884.396	674.72
884.572	641.21
884.747	629.78
884.923	642.95
885.099	642.76
885.275	638.69
885.45	592.19
885.626	596.26
885.801	623.19
885.977	600.71
886.153	564.68
886.328	637.53
886.504	581.53
886.679	607.69
886.855	602.07
887.03	646.83
887.206	650.12
887.381	613.5
887.557	647.6
887.732	628.23
887.908	654.58
888.083	638.69
888.258	603.62
888.434	624.93
888.609	600.13
888.784	663.49
888.96	588.31
889.135	564.68
889.31	565.84
889.485	592.58
889.661	603.43
889.836	664.65
890.011	643.92
890.186	581.34
890.361	596.64
890.537	608.46
890.712	626.87
890.887	615.63
891.062	625.32
891.237	662.13
891.412	560.03
891.587	621.83
891.762	646.44
891.937	671.62
892.112	585.41
892.287	623.38
892.462	582.31
892.637	529.22
892.812	551.7
892.987	573.01
893.161	532.9
893.336	543.36
893.511	560.03
893.686	568.55
893.861	566.81
894.035	539.88
894.21	549.76
894.385	535.03
894.56	554.41
894.734	487.95
894.909	493.96
895.084	522.05
895.258	502.87
895.433	531.35
895.608	509.46
895.782	467.42
895.957	489.11
896.131	489.7
896.306	428.47
896.48	434.09
896.655	453.47
896.829	399.99
897.004	396.31
897.178	424.21
897.353	420.33
897.527	418.2
897.701	411.03
897.876	394.18
898.05	428.47
898.224	410.45
898.399	487.37
898.573	428.08
898.747	328.69
898.921	390.5
899.096	299.82
899.27	314.94
899.444	336.64
899.618	347.87
899.792	387.2
899.967	339.93
900.141	386.24
900.315	322.88
900.489	355.62
900.663	384.3
900.837	367.25
901.011	319.2
901.185	441.65
901.359	388.56
901.533	377.9
901.707	374.22
901.881	372.29
902.055	314.16
902.229	365.7
902.403	402.32
902.576	347.29
902.75	368.22
902.924	486.01
903.098	368.02
903.272	428.67
903.446	455.79
903.619	404.06
903.793	462.57
903.967	437.58
904.14	488.34
904.314	463.73
904.488	425.95
904.661	489.31
904.835	431.38
905.009	472.07
905.182	521.66
905.356	491.63
905.529	428.28
905.703	406.19
905.876	404.06
906.05	440.29
906.223	435.45
906.397	376.16
906.57	362.99
906.744	343.8
906.917	328.11
907.09	357.37
907.264	373.25
907.437	327.92
907.61	294.4
907.784	332.18
907.957	348.26
908.13	322.88
908.304	372.48
908.477	314.94
908.65	314.55
908.823	300.41
908.996	398.63
909.17	308.74
909.343	325.59
909.516	320.55
909.689	317.45
909.862	306.6
910.035	339.74
910.208	293.82
910.381	295.95
910.554	393.6
910.727	305.06
910.9	302.92
911.073	296.14
911.246	374.22
911.419	350.59
911.592	350
911.765	307.57
911.938	266.11
912.11	315.52
912.283	313.19
912.456	352.52
912.629	318.23
912.802	305.06
912.974	283.74
913.147	250.42
913.32	218.84
913.493	254.1
913.665	278.71
913.838	279.67
914.01	242.67
914.183	266.11
914.356	236.08
914.528	313.19
914.701	337.6
914.873	308.74
915.046	278.12
915.218	273.67
915.391	222.13
915.563	225.62
915.736	277.93
915.908	302.73
916.081	276.19
916.253	256.62
916.425	272.12
916.598	271.34
916.77	263.4
916.942	234.92
917.115	176.21
917.287	261.85
917.459	287.23
917.632	193.84
917.804	207.21
917.976	260.69
918.148	262.62
918.32	248.87
918.493	249.45
918.665	305.25
918.837	262.24
919.009	327.14
919.181	320.75
919.353	269.21
919.525	267.47
919.697	268.24
919.869	262.62
920.041	336.44
920.213	385.65
920.385	306.8
920.557	258.36
920.729	323.65
920.901	296.72
921.073	292.27
921.244	254.29
921.416	316.87
921.588	315.52
921.76	268.05
921.932	339.35
922.103	284.71
922.275	290.33
922.447	272.89
922.619	208.76
922.79	293.24
922.962	296.53
923.134	309.7
923.305	257.01
923.477	212.25
923.648	218.26
923.82	246.16
923.991	177.18
924.163	185.71
924.335	240.92
924.506	209.34
924.677	271.73
924.849	205.66
925.02	237.24
925.192	255.46
925.363	218.64
925.535	269.21
925.706	187.64
925.877	281.61
926.049	223.49
926.22	259.91
926.391	242.28
926.562	264.17
926.734	190.74
926.905	257.97
927.076	189
927.247	213.41
927.419	200.43
927.59	196.56
927.761	206.83
927.932	177.96
928.103	227.36
928.274	179.51
928.445	167.49
928.616	191.52
928.787	192.68
928.958	217.09
929.129	171.56
929.3	164.59
929.471	161.68
929.642	94.06
929.813	66.75
929.984	178.54
930.155	69.26
930.326	155.09
930.496	115.76
930.667	70.81
930.838	117.12
931.009	72.75
931.18	73.91
931.35	118.09
931.521	112.86
931.692	45.43
931.863	34.78
932.033	90.96
932.204	92.71
932.374	95.23
932.545	44.27
932.716	120.22
932.886	114.99
933.057	36.72
933.227	35.36
933.398	131.84
933.568	23.15
933.739	23.93
933.909	10.17
934.08	67.52
934.25	-6.1
934.421	-14.63
934.591	31.1
934.761	-4.55
934.932	-25.48
935.102	23.93
935.272	-5.91
935.443	28.19
935.613	28
935.783	42.53
935.953	-15.02
936.123	157.81
936.294	-17.92
936.464	1.26
936.634	32.65
936.804	-6.3
936.974	-14.24
937.144	34.39
937.314	10.56
937.484	2.62
937.655	-25.87
937.825	76.24
937.995	-9.01
938.165	52.41
938.334	-10.37
938.504	32.65
938.674	-38.27
938.844	14.63
939.014	89.03
939.184	32.07
939.354	86.7
939.524	56.28
939.694	18.89
939.863	5.91
940.033	86.9
940.203	103.17
940.373	81.08
940.542	66.75
940.712	29.93
940.882	72.75
941.051	100.26
941.221	73.14
941.391	92.9
941.56	28.19
941.73	28
941.899	165.17
942.069	35.55
942.238	71.59
942.408	58.61
942.577	87.86
942.747	50.28
942.916	4.17
943.086	17.53
943.255	93.29
943.425	43.88
943.594	42.14
943.763	-25.87
943.933	19.67
944.102	-10.75
944.271	33.81
944.441	57.45
944.61	13.47
944.779	44.85
944.948	128.55
945.117	-8.43
945.287	27.61
945.456	-22.96
945.625	2.23
945.794	63.26
945.963	23.93
946.132	39.62
946.301	12.88
946.47	72.56
946.639	-13.66
946.808	-2.03
946.977	59.77
947.146	86.7
947.315	12.69
947.484	53.76
947.653	35.17
947.822	-12.88
947.991	-3.39
948.16	104.53
948.329	77.01
948.498	29.35
948.666	37.1
948.835	46.01
949.004	4.55
949.173	-16.57
949.341	36.72
949.51	83.8
949.679	74.88
949.847	76.24
950.016	107.43
950.185	85.54
950.353	14.63
950.522	51.83
950.69	72.95
950.859	19.86
951.028	50.08
951.196	42.92
951.365	0.87
951.533	26.83
951.701	79.34
951.87	65.2
952.038	-11.53
952.207	47.56
952.375	100.07
952.543	19.86
952.712	17.53
952.88	11.53
953.048	109.76
953.217	16.95
953.385	22.18
953.553	71.4
953.721	4.36
953.89	39.82
954.058	-9.59
954.226	2.23
954.394	38.65
954.562	-21.8
954.73	30.52
954.898	25.87
955.067	76.05
955.235	-3.78
955.403	74.11
955.571	96.97
955.739	62.48
955.907	-5.72
956.075	13.66
956.243	6.68
956.41	59.19
956.578	-9.01
956.746	-15.02
956.914	-12.88
957.082	57.25
957.25	54.73
957.418	-2.42
957.585	22.38
957.753	84.96
957.921	-3.2
958.089	28
958.256	47.95
958.424	50.86
958.592	52.8
958.759	19.28
958.927	67.33
959.095	12.69
959.262	55.9
959.43	66.36
959.597	14.05
959.765	30.32
959.932	-1.84
960.1	71.59
960.267	36.33
960.435	42.72
960.602	83.8
960.77	18.31
960.937	-13.47
961.104	29.93
961.272	16.37
961.439	7.46
961.606	40.78
961.774	49.11
961.941	46.4
962.108	39.82
962.275	41.95
962.443	69.07
962.61	61.13
962.777	106.85
962.944	62.29
963.111	58.8
963.278	51.05
963.446	37.68
963.613	61.32
963.78	56.09
963.947	44.08
964.114	50.47
964.281	111.5
964.448	63.06
964.615	27.61
964.782	75.27
964.949	71.01
965.116	78.76
965.282	112.86
965.449	27.8
965.616	21.6
965.783	65.78
965.95	54.93
966.117	16.57
966.283	40.4
966.45	77.01
966.617	38.27
966.784	72.95
966.95	79.92
967.117	71.59
967.284	11.14
967.45	7.07
967.617	90.19
967.784	72.95
967.95	97.75
968.117	50.47
968.283	65.97
968.45	126.61
968.616	70.43
968.783	88.06
968.949	49.31
969.116	107.24
969.282	71.59
969.449	60.74
969.615	99.3
969.781	0.87
969.948	24.32
970.114	34.2
970.28	104.33
970.447	43.88
970.613	99.49
970.779	34.58
970.945	62.68
971.112	59.38
971.278	13.66
971.444	51.44
971.61	91.93
971.776	53.76
971.942	55.9
972.108	97.94
972.275	42.53
972.441	68.68
972.607	106.46
972.773	49.31
972.939	96.39
973.105	83.6
973.271	17.34
973.437	41.75
973.602	53.18
973.768	54.35
973.934	60.55
974.1	61.51
974.266	-0.87
974.432	54.73
974.598	43.69
974.763	75.46
974.929	51.25
975.095	109.37
975.261	24.51
975.426	25.87
975.592	35.55
975.758	114.99
975.923	4.75
976.089	23.73
976.255	86.9
976.42	50.66
976.586	64.23
976.751	69.07
976.917	114.21
977.082	71.78
977.248	17.34
977.413	-23.35
977.579	29.35
977.744	72.36
977.91	-4.75
978.075	33.03
978.24	76.05
978.406	46.21
978.571	37.68
978.736	51.44
978.902	63.45
979.067	13.85
979.232	-16.37
979.397	41.75
979.563	93.68
979.728	29.74
979.893	28.19
980.058	26.64
980.223	65.39
980.388	57.06
980.554	41.17
980.719	12.69
980.884	41.37
981.049	85.73
981.214	37.49
981.379	52.02
981.544	52.02
981.709	40.98
981.874	37.88
982.039	41.37
982.204	59.77
982.368	51.05
982.533	11.92
982.698	95.61
982.863	92.32
983.028	26.06
983.193	59
983.357	38.85
983.522	53.18
983.687	37.3
983.852	43.5
984.016	34
984.181	52.6
984.346	59.77
984.51	70.04
984.675	38.07
984.839	80.31
985.004	32.84
985.168	92.32
985.333	64.03
985.498	32.45
985.662	93.29
985.827	43.3
985.991	48.15
986.155	54.73
986.32	74.3
986.484	115.76
986.649	47.56
986.813	1.45
986.977	61.32
987.142	79.92
987.306	7.07
987.47	36.52
987.634	49.89
987.799	73.91
987.963	43.88
988.127	71.01
988.291	144.83
988.455	68.68
988.62	36.91
988.784	69.46
988.948	56.67
989.112	30.32
989.276	56.86
989.44	61.9
989.604	22.38
989.768	59.58
989.932	108.98
990.096	11.53
990.26	29.74
990.424	-34
990.588	40.98
990.752	119.64
990.915	73.91
991.079	28.77
991.243	32.84
991.407	71.98
991.571	34.2
991.734	90.19
991.898	67.91
992.062	112.86
992.226	53.57
992.389	17.73
992.553	-0.68
992.717	31.48
992.88	29.35
993.044	42.14
993.207	16.95
993.371	59.38
993.535	53.76
993.698	55.51
993.862	73.33
994.025	100.07
994.189	38.46
994.352	21.41
994.515	52.99
994.679	78.18
994.842	30.71
995.006	84.57
995.169	15.98
995.332	9.4
995.496	69.26
995.659	22.96
995.822	33.23
995.985	36.33
996.149	111.31
996.312	7.07
996.475	97.36
996.638	28.58
996.801	78.95
996.964	105.3
997.128	67.52
997.291	26.64
997.454	28
997.617	-22.18
997.78	72.56
997.943	-8.82
998.106	86.31
998.269	-13.27
998.432	24.51
998.595	34
998.758	-28.77
998.92	-15.79
999.083	-15.98
999.246	35.36
999.409	13.08
999.572	-11.53
999.735	3.97
999.897	47.18
1000.06	41.75
1000.223	33.23
1000.386	55.31
1000.548	38.27
1000.711	61.51
1000.874	60.93
1001.036	-19.86
1001.199	69.65
1001.361	2.62
1001.524	25.67
1001.687	67.13
1001.849	21.99
1002.012	52.8
1002.174	45.05
1002.337	55.12
1002.499	24.12
1002.661	63.26
1002.824	0.29
1002.986	12.3
1003.149	50.66
1003.311	-18.5
1003.473	90.38
1003.636	37.1
1003.798	37.88
1003.96	25.67
1004.123	48.15
1004.285	19.86
1004.447	23.93
1004.609	27.61
1004.771	94.65
1004.933	2.23
1005.096	15.4
1005.258	-7.07
1005.42	9.01
1005.582	67.13
1005.744	23.35
1005.906	-21.8
1006.068	33.42
1006.23	-27.8
1006.392	-10.95
1006.554	12.3
1006.716	83.6
1006.878	29.35
1007.04	-23.73
1007.202	14.43
1007.363	43.3
1007.525	35.75
1007.687	25.48
1007.849	59.58
1008.011	-21.8
1008.172	-9.2
1008.334	26.06
1008.496	71.01
1008.658	-46.98
1008.819	1.07
1008.981	-34.58
1009.143	-21.02
1009.304	4.17
1009.466	41.37
1009.627	79.15
1009.789	121
1009.95	41.95
1010.112	15.4
1010.273	19.67
1010.435	10.17
1010.596	28.77
1010.758	35.55
1010.919	11.33
1011.081	-23.73
1011.242	20.83
1011.403	51.63
1011.565	20.83
1011.726	45.24
1011.887	-8.23
1012.049	5.33
1012.21	31.68
1012.371	73.91
1012.532	-57.06
1012.693	24.12
1012.855	0.1
1013.016	31.1
1013.177	70.81
1013.338	32.07
1013.499	83.6
1013.66	52.21
1013.821	30.13
1013.982	8.62
1014.143	15.4
1014.304	21.02
1014.465	37.3
1014.626	54.93
1014.787	11.33
1014.948	99.3
1015.109	-65
1015.27	50.08
1015.431	-0.87
1015.592	-7.27
1015.752	62.87
1015.913	36.52
1016.074	43.88
1016.235	-0.1
1016.395	23.54
1016.556	8.43
1016.717	9.59
1016.877	68.1
1017.038	-9.01
1017.199	14.43
1017.359	9.4
1017.52	14.24
1017.681	-8.82
1017.841	20.44
1018.002	28
1018.162	2.81
1018.323	62.1
1018.483	12.11
1018.644	11.92
1018.804	-13.85
1018.964	-14.05
1019.125	5.13
1019.285	16.76
1019.446	-30.32
1019.606	-28.58
1019.766	-48.15
1019.926	41.75
1020.087	6.49
1020.247	-17.73
1020.407	19.08
1020.567	59.38
1020.728	-7.85
1020.888	-36.91
1021.048	17.53
1021.208	13.66
1021.368	-25.28
1021.528	45.24
1021.688	36.13
1021.848	37.88
1022.008	47.37
1022.168	30.52
1022.328	31.48
1022.488	16.18
1022.648	-2.03
1022.808	8.23
1022.968	12.88
1023.128	-15.4
1023.288	3.78
1023.448	19.47
1023.608	5.33
1023.767	40.59
1023.927	-11.33
1024.087	-20.25
1024.247	-12.88
1024.406	0.68
1024.566	-29.35
1024.726	-0.87
1024.885	9.01
1025.045	20.83
1025.205	6.3
1025.364	19.86
1025.524	25.09
1025.683	-3.97
1025.843	14.63
1026.003	-26.45
1026.162	67.52
1026.321	60.55
1026.481	14.24
1026.64	-1.26
1026.8	7.27
1026.959	6.68
1027.119	26.64
1027.278	-0.68
1027.437	-26.45
1027.597	-20.05
1027.756	26.83
1027.915	26.83
1028.074	33.62
1028.234	-18.5
1028.393	22.38
1028.552	-16.76
1028.711	-60.16
1028.87	45.05
1029.03	-34.39
1029.189	7.27
1029.348	-53.18
1029.507	-15.4
1029.666	-2.42
1029.825	-40.4
1029.984	-14.24
1030.143	23.93
1030.302	-7.85
1030.461	-56.28
1030.62	-12.3
1030.779	30.13
1030.938	-25.28
1031.097	-35.36
1031.255	36.13
1031.414	32.84
1031.573	53.76
1031.732	-66.55
1031.891	27.8
1032.049	77.6
1032.208	20.05
1032.367	-7.85
1032.525	-11.33
1032.684	1.26
1032.843	-5.13
1033.001	-55.31
1033.16	140.76
1033.319	62.1
1033.477	12.11
1033.636	-18.5
1033.794	-34
1033.953	54.93
1034.111	23.54
1034.27	-4.17
1034.428	1.65
1034.587	-0.1
1034.745	13.08
1034.903	31.87
1035.062	9.01
1035.22	-35.94
1035.378	29.93
1035.537	-10.95
1035.695	42.14
1035.853	-23.93
1036.011	25.48
1036.17	35.94
1036.328	-46.01
1036.486	8.04
1036.644	28.38
1036.802	-68.3
1036.96	-21.6
1037.119	-24.32
1037.277	-4.55
1037.435	-34.97
1037.593	-17.15
1037.751	2.42
1037.909	67.71
1038.067	67.71
