Data from pine_FLMT105791__76__17-21-16-077.txt Node

Date: Mon Mar 20 17:21:16 GMT 2023
User: antho
Spectrometer: FLMT10579
Trigger mode: 0
Integration Time (sec): 1.000000E-1
Scans to average: 10
Electric dark correction enabled: true
Nonlinearity correction enabled: false
Boxcar width: 0
XAxis mode: Wavelengths
Number of Pixels in Spectrum: 3648
>>>>>Begin Spectral Data<<<<<
345.248	-156.55
345.464	-156.55
345.681	-156.55
345.898	-166.04
346.114	-174.57
346.331	-49.6
346.548	23.25
346.764	-7.17
346.981	0.58
347.197	-25.19
347.414	14.92
347.631	-10.85
347.847	57.74
348.064	7.36
348.28	35.26
348.497	-60.26
348.713	13.95
348.93	45.14
349.146	18.02
349.363	-9.11
349.579	31
349.796	5.42
350.012	-28.29
350.229	39.91
350.445	-4.84
350.661	-17.24
350.878	6.59
351.094	15.5
351.311	-4.46
351.527	44.95
351.743	-12.98
351.96	9.69
352.176	55.41
352.392	-15.69
352.609	31.39
352.825	-19.96
353.041	8.14
353.257	-6.78
353.474	13.17
353.69	14.53
353.906	17.82
354.122	-33.52
354.339	62.97
354.555	21.51
354.771	-12.98
354.987	61.61
355.203	74.21
355.42	8.33
355.636	-5.04
355.852	-5.23
356.068	12.01
356.284	-41.46
356.5	73.04
356.716	-1.74
356.932	13.17
357.148	36.42
357.364	14.72
357.58	57.16
357.796	60.64
358.012	34.68
358.228	21.51
358.444	-32.36
358.66	57.54
358.876	29.64
359.092	-15.5
359.308	-7.17
359.524	44.56
359.74	-1.36
359.956	-9.69
360.172	28.67
360.388	47.27
360.604	7.75
360.819	103.65
361.035	21.31
361.251	19.76
361.467	-7.94
361.683	41.46
361.898	30.81
362.114	48.24
362.33	34.68
362.546	46.69
362.762	-9.88
362.977	12.4
363.193	-39.52
363.409	44.17
363.624	-18.99
363.84	-27.32
364.056	-2.71
364.271	26.16
364.487	18.79
364.703	2.91
364.918	-37.59
365.134	2.13
365.35	3.87
365.565	102.1
365.781	-7.36
365.996	32.16
366.212	65.1
366.427	13.95
366.643	-12.59
366.858	-14.34
367.074	-42.82
367.289	60.06
367.505	106.56
367.72	-53.67
367.936	-30.81
368.151	63.36
368.367	10.46
368.582	29.64
368.798	3.49
369.013	59.48
369.228	5.81
369.444	34.68
369.659	71.11
369.874	27.51
370.09	26.93
370.305	-41.66
370.52	-14.92
370.736	39.52
370.951	13.37
371.166	68.2
371.381	69.94
371.597	40.3
371.812	-9.49
372.027	-19.96
372.242	-1.94
372.458	62.39
372.673	18.79
372.888	33.52
373.103	41.66
373.318	89.12
373.533	40.11
373.749	50.96
373.964	-17.63
374.179	68.39
374.394	-4.65
374.609	51.15
374.824	-27.12
375.039	54.25
375.254	-8.33
375.469	57.93
375.684	15.5
375.899	37.78
376.114	15.31
376.329	26.16
376.544	31.19
376.759	44.56
376.974	-21.31
377.189	6.39
377.404	16.66
377.619	40.49
377.834	-58.71
378.049	-13.37
378.264	-5.04
378.478	7.36
378.693	-12.59
378.908	22.86
379.123	-7.56
379.338	64.91
379.553	18.79
379.767	19.37
379.982	53.67
380.197	31.97
380.412	35.26
380.626	32.55
380.841	64.71
381.056	23.06
381.271	61.22
381.485	-8.33
381.7	-5.23
381.915	15.89
382.129	-2.71
382.344	5.23
382.559	8.14
382.773	55.99
382.988	-12.59
383.202	25.77
383.417	1.94
383.632	89.9
383.846	23.83
384.061	39.91
384.275	10.66
384.49	24.61
384.704	53.86
384.919	44.56
385.133	-3.1
385.348	42.43
385.562	-19.96
385.777	68.01
385.991	6.2
386.206	10.66
386.42	-13.95
386.634	63.55
386.849	17.24
387.063	13.95
387.277	-24.8
387.492	-6.39
387.706	-13.95
387.92	3.29
388.135	56.38
388.349	29.26
388.563	22.47
388.778	15.11
388.992	34.68
389.206	12.4
389.42	81.37
389.635	27.71
389.849	39.72
390.063	70.72
390.277	31.97
390.491	80.02
390.706	19.18
390.92	53.86
391.134	26.93
391.348	41.46
391.562	-48.44
391.776	18.6
391.99	-20.92
392.205	66.65
392.419	-3.1
392.633	-1.36
392.847	79.44
393.061	4.07
393.275	95.9
393.489	30.42
393.703	39.91
393.917	57.74
394.131	21.7
394.345	34.49
394.559	50.96
394.773	9.49
394.986	30.61
395.2	13.56
395.414	67.04
395.628	-2.91
395.842	37.2
396.056	7.94
396.27	-64.32
396.484	35.84
396.697	8.14
396.911	43.01
397.125	45.72
397.339	48.24
397.553	38.36
397.766	95.52
397.98	79.44
398.194	71.11
398.408	12.59
398.621	45.92
398.835	54.44
399.049	37.2
399.262	71.49
399.476	47.08
399.69	50.76
399.903	89.32
400.117	7.94
400.331	33.52
400.544	8.14
400.758	126.9
400.971	41.27
401.185	49.02
401.398	7.56
401.612	80.99
401.826	61.81
402.039	59.09
402.253	33.32
402.466	42.43
402.68	29.64
402.893	54.06
403.106	33.32
403.32	5.23
403.533	57.35
403.747	26.16
403.96	14.34
404.174	49.99
404.387	-10.07
404.6	50.37
404.814	85.64
405.027	45.14
405.24	28.09
405.454	34.87
405.667	81.76
405.88	-18.79
406.094	40.3
406.307	66.84
406.52	64.32
406.733	6.2
406.947	-29.45
407.16	111.21
407.373	95.71
407.586	26.16
407.799	18.02
408.012	76.72
408.226	58.71
408.439	78.47
408.652	2.91
408.865	39.52
409.078	75.76
409.291	44.56
409.504	-25.19
409.717	50.57
409.93	70.33
410.143	37.59
410.357	11.82
410.57	-12.01
410.783	28.67
410.996	67.62
411.209	38.94
411.421	90.67
411.634	43.98
411.847	3.49
412.06	44.95
412.273	15.69
412.486	24.99
412.699	118.19
412.912	12.79
413.125	87.19
413.338	40.88
413.55	49.41
413.763	48.82
413.976	59.87
414.189	3.49
414.402	27.51
414.615	94.74
414.827	21.7
415.04	78.27
415.253	39.72
415.466	75.95
415.678	117.41
415.891	56.38
416.104	30.22
416.316	32.16
416.529	3.29
416.742	68.97
416.954	64.32
417.167	56.38
417.38	23.25
417.592	77.31
417.805	22.67
418.017	-12.59
418.23	88.15
418.442	33.32
418.655	47.27
418.868	83.89
419.08	51.15
419.293	87.57
419.505	71.69
419.718	60.06
419.93	91.06
420.142	46.5
420.355	89.9
420.567	104.24
420.78	90.29
420.992	51.92
421.205	110.44
421.417	9.69
421.629	50.37
421.842	16.66
422.054	-17.44
422.266	68.78
422.479	129.04
422.691	25.38
422.903	72.85
423.115	45.53
423.328	23.83
423.54	71.3
423.752	56.19
423.964	29.06
424.177	48.63
424.389	36.42
424.601	156.16
424.813	43.01
425.025	105.01
425.238	81.76
425.45	69.75
425.662	36.81
425.874	344.48
426.086	44.17
426.298	82.54
426.51	56.57
426.722	90.67
426.934	65.29
427.146	101.52
427.358	7.17
427.57	92.03
427.782	69.94
427.994	58.9
428.206	48.05
428.418	9.88
428.63	100.17
428.842	86.61
429.054	102.69
429.266	103.46
429.478	38.17
429.69	94.55
429.902	27.9
430.114	106.56
430.325	95.32
430.537	35.26
430.749	72.46
430.961	34.49
431.173	76.72
431.384	79.82
431.596	7.94
431.808	43.01
432.02	91.25
432.231	112.37
432.443	111.02
432.655	62.58
432.867	42.82
433.078	114.31
433.29	155.19
433.502	118.77
433.713	124.97
433.925	81.18
434.136	143.37
434.348	62.77
434.56	20.15
434.771	189.68
434.983	28.67
435.194	65.87
435.406	51.92
435.617	137.56
435.829	160.04
436.04	122.84
436.252	122.25
436.463	142.6
436.675	121.87
436.886	104.82
437.098	121.09
437.309	169.72
437.521	106.75
437.732	130.78
437.943	128.65
438.155	94.16
438.366	45.53
438.578	144.15
438.789	131.17
439	126.9
439.211	117.99
439.423	133.49
439.634	134.07
439.845	117.02
440.057	128.45
440.268	142.6
440.479	74.01
440.69	113.54
440.902	96.29
441.113	101.14
441.324	153.25
441.535	146.47
441.746	179.6
441.957	95.52
442.168	79.05
442.38	146.86
442.591	175.92
442.802	149.38
443.013	116.25
443.224	143.76
443.435	117.22
443.646	148.02
443.857	129.23
444.068	128.65
444.279	133.49
444.49	230.37
444.701	137.17
444.912	239.08
445.123	188.32
445.334	164.1
445.545	196.65
445.756	145.7
445.967	112.95
446.178	174.57
446.388	196.65
446.599	177.08
446.81	172.82
447.021	149.77
447.232	201.3
447.443	213.32
447.653	143.76
447.864	208.86
448.075	158.1
448.286	187.16
448.496	194.33
448.707	223
448.918	159.84
449.129	272.8
449.339	144.92
449.55	203.24
449.761	151.7
449.971	207.12
450.182	169.14
450.393	206.15
450.603	155
450.814	227.85
451.024	193.55
451.235	209.44
451.446	247.42
451.656	253.42
451.867	174.57
452.077	198.59
452.288	243.93
452.498	267.95
452.709	205.57
452.919	242.18
453.13	189.68
453.34	214.09
453.55	163.33
453.761	243.54
453.971	200.92
454.182	238.31
454.392	243.15
454.602	270.28
454.813	241.02
455.023	259.82
455.233	175.34
455.444	224.17
455.654	150.15
455.864	202.08
456.075	173.02
456.285	198.98
456.495	215.45
456.705	207.31
456.916	288.49
457.126	260.78
457.336	217.38
457.546	159.45
457.756	201.88
457.967	260.01
458.177	218.35
458.387	207.7
458.597	183.28
458.807	219.9
459.017	196.46
459.227	221.26
459.437	230.17
459.647	251.1
459.857	246.83
460.068	190.84
460.278	266.6
460.488	264.27
460.698	303.41
460.908	203.43
461.117	174.95
461.327	209.44
461.537	227.07
461.747	231.72
461.957	239.47
462.167	348.75
462.377	274.35
462.587	249.93
462.797	271.63
463.007	254.2
463.216	238.31
463.426	290.62
463.636	304.18
463.846	193.75
464.056	243.15
464.265	284.81
464.475	232.88
464.685	235.4
464.895	296.05
465.104	228.62
465.314	302.05
465.524	233.66
465.733	240.05
465.943	316.78
466.153	321.23
466.362	302.05
466.572	282.29
466.782	228.23
466.991	267.76
467.201	334.41
467.41	235.98
467.62	269.31
467.829	237.53
468.039	285.97
468.249	258.46
468.458	278.22
468.668	276.86
468.877	316.2
469.086	337.51
469.296	292.17
469.505	258.85
469.715	327.05
469.924	318.13
470.134	325.5
470.343	347
470.552	280.55
470.762	301.86
470.971	284.81
471.18	313.1
471.39	320.46
471.599	264.08
471.808	320.65
472.018	270.86
472.227	346.03
472.436	356.49
472.645	303.8
472.855	275.51
473.064	381.29
473.273	326.85
473.482	343.71
473.691	357.66
473.901	355.14
474.11	329.76
474.319	402.61
474.528	331.31
474.737	385.56
474.946	365.21
475.155	370.06
475.364	371.22
475.573	347.78
475.783	350.68
475.992	377.03
476.201	392.34
476.41	381.49
476.619	353.78
476.828	371.41
477.037	331.11
477.245	353.78
477.454	392.92
477.663	343.32
477.872	362.5
478.081	445.62
478.29	346.81
478.499	446.01
478.708	350.68
478.917	430.89
479.125	404.74
479.334	402.22
479.543	378
479.752	390.98
479.961	382.46
480.169	460.73
480.378	426.63
480.587	508.01
480.796	453.76
481.004	426.44
481.213	442.13
481.422	441.36
481.63	442.91
481.839	478.94
482.048	471.39
482.256	427.6
482.465	456.66
482.674	470.42
482.882	459.96
483.091	526.8
483.299	502.58
483.508	489.79
483.716	448.14
483.925	457.24
484.134	433.03
484.342	450.07
484.551	497.54
484.759	480.69
484.967	503.74
485.176	506.84
485.384	492.89
485.593	484.56
485.801	471.58
486.01	466.93
486.218	465.96
486.426	410.36
486.635	450.46
486.843	429.93
487.051	473.71
487.26	458.6
487.468	507.81
487.676	471.58
487.885	464.22
488.093	504.52
488.301	495.22
488.509	502.19
488.717	535.32
488.926	482.82
489.134	516.14
489.342	520.41
489.55	486.11
489.758	526.99
489.967	484.56
490.175	617.47
490.383	532.8
490.591	610.69
490.799	504.91
491.007	572.33
491.215	581.05
491.423	535.9
491.631	530.29
491.839	549.85
492.047	553.34
492.255	512.46
492.463	471
492.671	518.66
492.879	611.85
493.087	530.09
493.295	567.49
493.503	609.53
493.711	596.74
493.919	611.66
494.127	610.89
494.334	614.18
494.542	570.59
494.75	587.05
494.958	582.4
495.166	647.31
495.374	603.14
495.581	622.7
495.789	610.11
495.997	688.19
496.205	578.34
496.412	603.52
496.62	599.45
496.828	619.99
497.035	603.91
497.243	638.78
497.451	634.91
497.658	640.33
497.866	609.14
498.074	677.73
498.281	581.24
498.489	683.54
498.696	606.62
498.904	609.14
499.112	621.15
499.319	712.02
499.527	650.22
499.734	685.09
499.942	637.62
500.149	592.87
500.357	657.19
500.564	599.26
500.771	632.58
500.979	613.79
501.186	615.34
501.394	615.53
501.601	633.55
501.808	656.22
502.016	659.32
502.223	630.45
502.43	667.85
502.638	651.57
502.845	609.72
503.052	716.48
503.26	642.66
503.467	725.39
503.674	660.29
503.881	698.65
504.089	784.29
504.296	717.25
504.503	633.17
504.71	652.54
504.917	632.39
505.125	685.87
505.332	693.81
505.539	693.23
505.746	746.9
505.953	719.58
506.16	729.65
506.367	766.66
506.574	771.5
506.781	771.11
506.988	692.07
507.195	755.61
507.402	722.87
507.609	768.98
507.816	699.81
508.023	716.28
508.23	716.09
508.437	686.45
508.644	752.9
508.851	802.5
509.058	744.76
509.265	747.48
509.472	769.18
509.679	821.1
509.885	769.37
510.092	755.61
510.299	756.97
510.506	762.78
510.713	766.46
510.92	766.46
511.126	775.38
511.333	828.85
511.54	793.78
511.746	836.21
511.953	857.72
512.16	849.97
512.367	775.38
512.573	803.66
512.78	804.63
512.987	798.04
513.193	830.59
513.4	727.71
513.606	774.8
513.813	830.79
514.02	821.88
514.226	863.73
514.433	834.47
514.639	773.83
514.846	829.82
515.052	800.18
515.259	810.64
515.465	842.22
515.672	855.39
515.878	919.91
516.085	863.92
516.291	908.67
516.497	857.33
516.704	840.86
516.91	830.4
517.117	739.53
517.323	712.99
517.529	757.75
517.736	809.28
517.942	760.46
518.148	803.66
518.354	859.66
518.561	831.56
518.767	839.12
518.973	865.47
519.179	875.35
519.386	832.14
519.592	863.53
519.798	850.94
520.004	909.06
520.21	891.43
520.417	886.97
520.623	967.57
520.829	960.02
521.035	941.03
521.241	932.51
521.447	952.07
521.653	1032.29
521.859	960.6
522.065	980.55
522.271	1078.4
522.477	1014.27
522.683	1025.5
522.889	1023.76
523.095	999.15
523.301	1005.74
523.507	956.34
523.713	1006.32
523.919	976.1
524.125	1061.73
524.331	1029.19
524.537	1089.83
524.742	1048.56
524.948	1058.63
525.154	1057.47
525.36	1165.58
525.566	1089.44
525.772	1127.8
525.977	1035.97
526.183	1097.97
526.389	1116.95
526.595	1055.73
526.8	1048.95
527.006	1000.7
527.212	967.19
527.417	957.89
527.623	954.4
527.829	1062.12
528.034	1032.29
528.24	1101.84
528.446	1037.52
528.651	1122.57
528.857	1115.6
529.062	1167.33
529.268	1119.86
529.473	1138.07
529.679	1093.7
529.884	1205.11
530.09	1177.01
530.295	1154.15
530.501	1204.53
530.706	1186.51
530.912	1107.85
531.117	1179.92
531.323	1175.08
531.528	1179.15
531.733	1177.4
531.939	1152.41
532.144	1235.91
532.35	1210.92
532.555	1224.87
532.76	1201.81
532.966	1218.86
533.171	1148.53
533.376	1158.8
533.581	1119.86
533.787	1183.8
533.992	1177.6
534.197	1223.32
534.402	1206.27
534.607	1200.65
534.813	1288.42
535.018	1166.55
535.223	1190.58
535.428	1206.46
535.633	1264.59
535.838	1260.71
536.043	1243.08
536.249	1316.51
536.454	1209.18
536.659	1268.46
536.864	1224.68
537.069	1256.64
537.274	1247.73
537.479	1273.89
537.684	1257.03
537.889	1199.3
538.094	1307.6
538.299	1236.88
538.504	1281.64
538.708	1291.52
538.913	1307.02
539.118	1234.75
539.323	1294.62
539.528	1237.46
539.733	1245.02
539.938	1275.44
540.142	1276.41
540.347	1270.21
540.552	1206.85
540.757	1280.67
540.962	1224.48
541.166	1180.89
541.371	1197.36
541.576	1247.93
541.781	1144.46
541.985	1254.71
542.19	1252.38
542.395	1313.61
542.599	1348.09
542.804	1325.23
543.008	1320
543.213	1250.64
543.418	1253.54
543.622	1298.49
543.827	1261.68
544.031	1344.02
544.236	1332.79
544.44	1310.31
544.645	1392.07
544.849	1312.83
545.054	1306.24
545.258	1388.78
545.463	1396.14
545.667	1327.56
545.872	1336.08
546.076	1331.62
546.281	1312.83
546.485	1272.92
546.689	1380.06
546.894	1362.24
547.098	1343.44
547.302	1284.16
547.507	1344.02
547.711	1347.51
547.915	1383.74
548.119	1316.51
548.324	1292.49
548.528	1411.45
548.732	1366.5
548.936	1387.81
549.141	1401.95
549.345	1357.59
549.549	1368.44
549.753	1383.16
549.957	1420.17
550.161	1421.72
550.366	1383.36
550.57	1366.11
550.774	1393.04
550.978	1357.39
551.182	1399.63
551.386	1351.77
551.59	1330.66
551.794	1333.95
551.998	1384.52
552.202	1348.67
552.406	1323.29
552.61	1380.26
552.814	1391.49
553.018	1452.52
553.222	1360.88
553.426	1339.57
553.63	1434.7
553.833	1363.98
554.037	1321.74
554.241	1387.04
554.445	1395.95
554.649	1374.64
554.853	1395.95
555.056	1407.19
555.26	1400.02
555.464	1387.23
555.668	1422.3
555.871	1423.46
556.075	1422.1
556.279	1374.25
556.483	1347.12
556.686	1382
556.89	1378.51
557.094	1371.34
557.297	1330.46
557.501	1388.2
557.704	1293.07
557.908	1356.62
558.112	1320.97
558.315	1424.82
558.519	1342.28
558.722	1336.86
558.926	1337.44
559.129	1267.69
559.333	1252.77
559.536	1278.34
559.74	1276.99
559.943	1235.91
560.147	1296.94
560.35	1283.19
560.553	1316.71
560.757	1250.83
560.96	1345.77
561.164	1281.25
561.367	1353.91
561.57	1349.84
561.774	1350.42
561.977	1291.13
562.18	1260.52
562.384	1389.36
562.587	1291.71
562.79	1293.84
562.993	1289.97
563.197	1299.66
563.4	1336.66
563.603	1332.01
563.806	1410.87
564.009	1275.44
564.212	1324.46
564.416	1247.93
564.619	1319.03
564.822	1227.97
565.025	1340.92
565.228	1265.94
565.431	1309.54
565.634	1201.43
565.837	1252.77
566.04	1219.64
566.243	1248.7
566.446	1158.61
566.649	1245.99
566.852	1196
567.055	1227
567.258	1286.48
567.461	1337.44
567.664	1297.91
567.867	1198.71
568.07	1266.14
568.273	1257.42
568.475	1234.94
568.678	1201.04
568.881	1218.09
569.084	1212.28
569.287	1129.16
569.489	1160.55
569.692	1230.29
569.895	1236.3
570.098	1151.63
570.3	1158.22
570.503	1098.16
570.706	1143.11
570.909	1140.01
571.111	1111.72
571.314	1085.37
571.516	1132.07
571.719	1132.84
571.922	1143.88
572.124	1144.66
572.327	1175.85
572.529	1082.27
572.732	1099.9
572.935	1152.99
573.137	1195.03
573.34	1110.37
573.542	1166.94
573.745	1156.48
573.947	1149.89
574.15	1129.74
574.352	1106.49
574.554	1191.55
574.757	1094.28
574.959	1092.54
575.162	1086.15
575.364	1079.56
575.566	1175.66
575.769	1097.38
575.971	1094.09
576.173	1021.24
576.376	1094.28
576.578	1140.98
576.78	1162.48
576.982	1010.97
577.185	1067.74
577.387	1048.56
577.589	1021.05
577.791	1096.22
577.993	1084.21
578.196	1061.15
578.398	1084.6
578.6	1128
578.802	1041.97
579.004	1007.29
579.206	1050.3
579.408	1106.68
579.61	1043.91
579.812	1094.28
580.014	1022.02
580.216	1053.21
580.418	1037.13
580.62	1016.98
580.822	1012.14
581.024	1070.26
581.226	1108.04
581.428	1050.88
581.63	1160.93
581.832	1024.15
582.034	1135.36
582.236	1069.68
582.438	1124.9
582.64	1129.74
582.841	1109.78
583.043	1178.76
583.245	1101.45
583.447	1102.62
583.649	1082.08
583.85	1111.72
584.052	1137.49
584.254	1046.82
584.456	1111.14
584.657	1062.9
584.859	1108.82
585.061	1062.12
585.262	1081.11
585.464	1049.53
585.666	1092.73
585.867	1040.81
586.069	1124.9
586.27	1053.02
586.472	1062.51
586.674	1031.7
586.875	1028.02
587.077	1025.5
587.278	1079.37
587.48	1047.79
587.681	1166.36
587.883	1072.78
588.084	987.92
588.285	1020.85
588.487	1014.46
588.688	1036.94
588.89	976.29
589.091	966.6
589.292	962.15
589.494	921.66
589.695	947.81
589.896	850.16
590.098	874.57
590.299	923.4
590.5	879.03
590.702	929.79
590.903	922.24
591.104	1006.9
591.305	1004.19
591.507	1020.47
591.708	995.86
591.909	966.02
592.11	1042.94
592.311	1034.22
592.512	935.22
592.714	924.37
592.915	973.97
593.116	953.43
593.317	964.09
593.518	963.5
593.719	940.06
593.92	1000.9
594.121	1036.35
594.322	997.02
594.523	968.93
594.724	944.71
594.925	973.58
595.126	990.24
595.327	1003.22
595.528	979.59
595.729	950.14
595.929	986.37
596.13	962.73
596.331	949.17
596.532	981.14
596.733	1035
596.934	996.44
597.135	1011.75
597.335	980.17
597.536	916.81
597.737	949.17
597.938	952.46
598.138	972.42
598.339	946.26
598.54	997.02
598.74	970.67
598.941	969.32
599.142	999.15
599.342	977.07
599.543	938.51
599.744	967.19
599.944	970.09
600.145	975.13
600.345	979.39
600.546	1034.42
600.746	1015.04
600.947	1048.75
601.147	994.12
601.348	1001.29
601.548	950.52
601.749	958.08
601.949	916.62
602.15	932.89
602.35	934.44
602.551	991.79
602.751	923.98
602.951	933.86
603.152	918.17
603.352	970.09
603.552	963.89
603.753	995.28
603.953	1004.19
604.153	980.55
604.354	975.32
604.554	946.84
604.754	961.57
604.954	918.36
605.155	957.89
605.355	918.75
605.555	1019.89
605.755	1020.08
605.955	965.83
606.155	1019.5
606.356	954.98
606.556	1000.32
606.756	990.44
606.956	924.95
607.156	1002.84
607.356	956.14
607.556	955.56
607.756	951.69
607.956	1025.89
608.156	985.01
608.356	938.12
608.556	979.2
608.756	952.27
608.956	915.65
609.156	934.64
609.356	902.09
609.556	892.59
609.755	939.09
609.955	896.66
610.155	960.79
610.355	929.02
610.555	926.11
610.755	914.87
610.954	848.61
611.154	939.29
611.354	927.08
611.554	898.79
611.753	918.56
611.953	863.34
612.153	942.77
612.352	941.22
612.552	866.05
612.752	811.03
612.951	896.47
613.151	898.79
613.351	874.19
613.55	904.41
613.75	908.09
613.949	873.22
614.149	910.03
614.348	878.84
614.548	857.14
614.747	820.33
614.947	855.2
615.146	794.56
615.346	892.59
615.545	881.94
615.745	864.31
615.944	868.96
616.144	840.67
616.343	892.98
616.542	857.33
616.742	874.38
616.941	859.85
617.14	790.88
617.34	830.59
617.539	870.12
617.738	803.66
617.938	910.81
618.137	838.54
618.336	812.38
618.535	862.76
618.734	861.59
618.934	864.31
619.133	823.62
619.332	853.26
619.531	835.63
619.73	817.81
619.929	886.97
620.128	867.6
620.328	890.85
620.527	816.64
620.726	797.08
620.925	870.7
621.124	844.74
621.323	882.91
621.522	801.92
621.721	816.06
621.92	806.96
622.119	845.51
622.318	849.78
622.517	848.03
622.715	822.46
622.914	772.28
623.113	848.03
623.312	771.11
623.511	819.94
623.71	812.77
623.909	814.9
624.107	863.73
624.306	786.23
624.505	778.28
624.704	768.6
624.902	784.1
625.101	829.24
625.3	821.49
625.499	801.14
625.697	760.85
625.896	770.15
626.095	799.79
626.293	750.58
626.492	779.83
626.69	780.8
626.889	748.25
627.088	786.03
627.286	742.83
627.485	759.1
627.683	768.21
627.882	779.25
628.08	679.28
628.279	756
628.477	837.38
628.676	705.43
628.874	771.7
629.073	720.93
629.271	705.43
629.469	761.62
629.668	747.28
629.866	738.18
630.065	690.71
630.263	769.37
630.461	729.07
630.66	761.62
630.858	757.55
631.056	768.79
631.254	776.15
631.453	696.72
631.651	754.45
631.849	735.85
632.047	791.65
632.245	740.11
632.444	785.45
632.642	802.69
632.84	763.75
633.038	744.96
633.236	709.7
633.434	724.81
633.632	700.59
633.83	718.41
634.028	771.11
634.227	727.52
634.425	809.09
634.623	736.24
634.821	731.4
635.019	716.86
635.216	736.82
635.414	743.02
635.612	754.26
635.81	752.13
636.008	826.91
636.206	764.91
636.404	753.68
636.602	728.1
636.8	765.69
636.997	763.56
637.195	777.7
637.393	757.75
637.591	814.51
637.789	755.03
637.986	754.65
638.184	750.77
638.382	775.18
638.58	796.88
638.777	770.73
638.975	734.69
639.173	768.01
639.37	765.69
639.568	755.03
639.765	763.36
639.963	749.22
640.161	777.12
640.358	771.7
640.556	711.25
640.753	732.75
640.951	693.62
641.148	746.7
641.346	750.38
641.543	719.58
641.741	783.32
641.938	708.15
642.136	732.17
642.333	706.4
642.531	775.96
642.728	772.28
642.925	741.66
643.123	725.58
643.32	751.55
643.517	760.07
643.715	764.91
643.912	715.12
644.109	761.04
644.306	749.22
644.504	693.23
644.701	739.15
644.898	771.11
645.095	698.07
645.293	707.37
645.49	737.6
645.687	731.4
645.884	738.95
646.081	675.6
646.278	697.88
646.475	685.67
646.672	664.75
646.87	721.51
647.067	706.98
647.264	702.53
647.461	657.19
647.658	631.81
647.855	701.56
648.052	650.8
648.249	605.65
648.446	633.36
648.642	657
648.839	635.3
649.036	642.27
649.233	595.77
649.43	609.34
649.627	568.84
649.824	615.15
650.021	650.99
650.217	577.95
650.414	619.99
650.611	631.81
650.808	657.77
651.004	664.17
651.201	657.97
651.398	703.3
651.595	628.32
651.791	658.35
651.988	684.32
652.185	620.96
652.381	646.53
652.578	617.86
652.775	640.14
652.971	660.29
653.168	669.4
653.364	657.97
653.561	568.45
653.757	622.7
653.954	646.53
654.15	649.83
654.347	684.12
654.543	630.26
654.74	589.57
654.936	591.12
655.133	628.52
655.329	611.08
655.525	606.24
655.722	654.67
655.918	563.22
656.115	619.22
656.311	540.17
656.507	507.23
656.704	477.59
656.9	540.36
657.096	509.36
657.292	500.06
657.489	598.29
657.685	546.37
657.881	545.98
658.077	550.44
658.273	584.15
658.47	612.63
658.666	598.1
658.862	622.32
659.058	595.77
659.254	621.54
659.45	558.19
659.646	594.22
659.842	586.67
660.038	622.51
660.234	575.62
660.43	602.36
660.626	676.76
660.822	627.93
661.018	625.61
661.214	615.53
661.41	576.4
661.606	647.5
661.802	650.02
661.998	574.85
662.194	577.95
662.39	624.83
662.586	589.19
662.781	653.32
662.977	647.12
663.173	617.08
663.369	600.81
663.564	565.16
663.76	607.79
663.956	595.97
664.152	630.84
664.347	573.49
664.543	575.43
664.739	571.75
664.934	536.29
665.13	530.09
665.326	578.14
665.521	577.37
665.717	550.63
665.912	547.72
666.108	488.24
666.304	549.47
666.499	555.09
666.695	499.48
666.89	542.1
667.086	612.43
667.281	586.09
667.477	639.37
667.672	567.1
667.867	565.16
668.063	546.75
668.258	537.65
668.454	572.91
668.649	618.25
668.844	564.97
669.04	605.85
669.235	553.73
669.43	535.52
669.626	529.9
669.821	532.8
670.016	499.87
670.211	579.89
670.407	506.07
670.602	551.02
670.797	546.75
670.992	570.78
671.187	509.94
671.382	579.69
671.578	501.22
671.773	569.62
671.968	497.54
672.163	547.92
672.358	563.42
672.553	538.23
672.748	510.72
672.943	596.16
673.138	539.97
673.333	566.52
673.528	500.06
673.723	545.59
673.918	537.45
674.113	504.13
674.308	623.48
674.503	566.13
674.698	549.08
674.892	568.07
675.087	562.45
675.282	553.34
675.477	495.61
675.672	565.74
675.867	531.84
676.061	508.39
676.256	487.08
676.451	505.87
676.646	536.29
676.84	488.24
677.035	463.44
677.23	463.25
677.424	548.5
677.619	564.58
677.814	554.5
678.008	558.96
678.203	452.59
678.397	488.82
678.592	509.17
678.787	577.37
678.981	501.81
679.176	532.42
679.37	510.91
679.565	497.54
679.759	512.27
679.954	538.42
680.148	569.81
680.342	550.63
680.537	578.53
680.731	518.86
680.926	559.93
681.12	554.12
681.314	473.32
681.509	511.69
681.703	534.94
681.897	517.31
682.092	500.84
682.286	472.36
682.48	591.7
682.674	551.21
682.869	530.29
683.063	505.29
683.257	600.81
683.451	478.56
683.645	515.17
683.839	511.49
684.034	499.87
684.228	535.13
684.422	491.92
684.616	497.93
684.81	548.11
685.004	512.07
685.198	507.62
685.392	549.85
685.586	494.25
685.78	551.99
685.974	544.62
686.168	530.29
686.362	599.07
686.556	500.06
686.75	427.02
686.944	476.62
687.138	462.47
687.331	368.51
687.525	413.46
687.719	365.6
687.913	428.76
688.107	419.08
688.301	395.24
688.494	462.86
688.688	417.53
688.882	386.72
689.076	410.94
689.269	415.78
689.463	478.94
689.657	418.69
689.85	392.53
690.044	434.96
690.238	465.57
690.431	449.11
690.625	435.35
690.818	459.96
691.012	467.9
691.205	470.81
691.399	447.94
691.593	499.87
691.786	531.25
691.98	549.47
692.173	572.52
692.366	522.92
692.56	569.04
692.753	588.6
692.947	513.82
693.14	595.97
693.333	597.52
693.527	500.45
693.72	549.08
693.914	561.87
694.107	537.84
694.3	548.89
694.493	535.52
694.687	584.34
694.88	565.35
695.073	630.26
695.266	581.82
695.46	581.82
695.653	633.55
695.846	621.73
696.039	558.38
696.232	588.99
696.425	619.41
696.618	647.7
696.812	640.33
697.005	746.9
697.198	753.87
697.391	692.26
697.584	704.46
697.777	753.1
697.97	731.2
698.163	752.9
698.356	696.91
698.549	794.94
698.742	757.55
698.935	682.38
699.127	738.76
699.32	697.68
699.513	706.6
699.706	750.77
699.899	778.28
700.092	719.58
700.285	772.86
700.477	704.08
700.67	772.28
700.863	775.96
701.056	863.53
701.248	834.28
701.441	853.65
701.634	805.99
701.826	908.48
702.019	782.35
702.212	882.91
702.404	825.36
702.597	807.93
702.79	846.09
702.982	850.94
703.175	903.83
703.367	921.85
703.56	904.22
703.752	982.1
703.945	947.42
704.137	918.36
704.33	986.37
704.522	980.36
704.715	945.29
704.907	1002.06
705.1	1051.27
705.292	1037.13
705.484	996.25
705.677	1054.95
705.869	1014.27
706.061	1045.27
706.254	1111.33
706.446	1050.3
706.638	1068.13
706.831	1126.06
707.023	1057.08
707.215	1191.55
707.407	1148.73
707.599	1128.19
707.792	1179.73
707.984	1189.22
708.176	1194.26
708.368	1166.94
708.56	1220.61
708.752	1142.72
708.944	1186.7
709.136	1211.11
709.329	1217.51
709.521	1322.13
709.713	1277.18
709.905	1261.49
710.097	1312.44
710.289	1259.16
710.481	1258
710.672	1302.37
710.864	1300.04
711.056	1358.56
711.248	1329.69
711.44	1314.57
711.632	1301.4
711.824	1343.64
712.016	1400.21
712.207	1422.69
712.399	1402.54
712.591	1462.4
712.783	1446.13
712.975	1436.44
713.166	1355.46
713.358	1408.35
713.55	1489.92
713.741	1473.45
713.933	1464.92
714.125	1491.66
714.316	1434.89
714.508	1507.93
714.7	1501.54
714.891	1496.5
715.083	1581.95
715.274	1502.9
715.466	1542.03
715.657	1533.9
715.849	1440.51
716.04	1529.44
716.232	1444.97
716.423	1542.23
716.615	1446.9
716.806	1420.36
716.998	1436.25
717.189	1365.34
717.381	1245.41
717.572	1278.15
717.763	1315.54
717.955	1265.75
718.146	1288.42
718.337	1222.74
718.528	1198.33
718.72	1127.61
718.911	1202.59
719.102	1167.13
719.293	1225.26
719.485	1212.66
719.676	1215.76
719.867	1167.52
720.058	1152.8
720.249	1171.98
720.44	1202.2
720.632	1230.1
720.823	1262.46
721.014	1376.96
721.205	1396.34
721.396	1449.04
721.587	1532.73
721.778	1512
721.969	1550.95
722.16	1588.53
722.351	1586.21
722.542	1696.26
722.733	1677.85
722.924	1593.76
723.115	1651.11
723.305	1658.28
723.496	1669.33
723.687	1562.38
723.878	1545.13
724.069	1575.94
724.26	1578.07
724.45	1516.27
724.641	1535.83
724.832	1578.07
725.023	1537.38
725.213	1536.42
725.404	1523.24
725.595	1550.95
725.785	1480.23
725.976	1575.36
726.167	1576.71
726.357	1587.56
726.548	1660.99
726.739	1575.94
726.929	1636.2
727.12	1652.47
727.31	1679.98
727.501	1613.72
727.691	1662.74
727.882	1678.63
728.072	1749.92
728.263	1708.08
728.453	1729.97
728.644	1715.63
728.834	1726.48
729.024	1675.14
729.215	1676.88
729.405	1723.38
729.596	1783.83
729.786	1758.06
729.976	1781.31
730.167	1778.02
730.357	1759.81
730.547	1753.02
730.737	1847.96
730.928	1818.51
731.118	1899.69
731.308	1832.46
731.498	1849.32
731.688	1979.32
731.879	1883.03
732.069	1977.97
732.259	1941.93
732.449	2013.42
732.639	2089.18
732.829	2113.2
733.019	2104.29
733.209	2119.01
733.399	2117.66
733.589	2199.81
733.779	2231
733.969	2208.52
734.159	2303.07
734.349	2320.7
734.539	2332.14
734.729	2336.98
734.919	2350.74
735.109	2388.71
735.299	2316.25
735.488	2347.83
735.678	2346.09
735.868	2359.26
736.058	2347.25
736.248	2334.65
736.437	2307.34
736.627	2290.67
736.817	2421.84
737.007	2357.52
737.196	2427.46
737.386	2395.1
737.576	2330.2
737.765	2467.37
737.955	2378.44
738.144	2511.93
738.334	2462.72
738.524	2417.77
738.713	2451.68
738.903	2456.91
739.092	2479.77
739.282	2511.35
739.471	2518.91
739.661	2463.5
739.85	2480.35
740.04	2479.96
740.229	2508.83
740.419	2570.83
740.608	2573.35
740.797	2544.68
740.987	2608.23
741.176	2584.39
741.365	2497.4
741.555	2521.81
741.744	2595.24
741.933	2541.19
742.123	2551.65
742.312	2592.34
742.501	2631.09
742.69	2632.44
742.88	2580.91
743.069	2665.19
743.258	2629.54
743.447	2692.7
743.636	2677.2
743.825	2622.56
744.014	2643.1
744.204	2629.73
744.393	2596.6
744.582	2697.16
744.771	2680.69
744.96	2624.31
745.149	2687.08
745.338	2642.52
745.527	2696.96
745.716	2665.19
745.905	2610.94
746.094	2700.84
746.283	2717.89
746.471	2696.77
746.66	2728.74
746.849	2716.14
747.038	2747.14
747.227	2709.36
747.416	2756.83
747.604	2654.14
747.793	2699.67
747.982	2708.97
748.171	2704.71
748.359	2715.75
748.548	2739.97
748.737	2703.36
748.926	2697.16
749.114	2640.19
749.303	2706.65
749.491	2679.33
749.68	2612.29
749.869	2724.28
750.057	2628.18
750.246	2634.19
750.434	2670.22
750.623	2691.73
750.811	2624.89
751	2670.81
751.188	2621.01
751.377	2677.97
751.565	2652.4
751.754	2662.86
751.942	2683.01
752.131	2708.01
752.319	2623.92
752.507	2587.88
752.696	2665.19
752.884	2705.29
753.072	2665.96
753.261	2687.08
753.449	2635.16
753.637	2595.83
753.825	2729.9
754.014	2615.01
754.202	2645.81
754.39	2751.4
754.578	2675.84
754.766	2634.96
754.955	2626.44
755.143	2671.19
755.331	2606.09
755.519	2590.4
755.707	2596.02
755.895	2589.24
756.083	2607.06
756.271	2561.53
756.459	2561.14
756.647	2640.19
756.835	2590.59
757.023	2551.26
757.211	2557.27
757.399	2538.67
757.587	2557.46
757.775	2539.25
757.963	2575.48
758.151	2572.19
758.339	2493.91
758.526	2484.81
758.714	2524.14
758.902	2433.85
759.09	2375.15
759.278	2236.23
759.465	2061.66
759.653	1767.75
759.841	1618.95
760.028	1360.69
760.216	1180.31
760.404	1148.15
760.591	906.54
760.779	777.12
760.967	657.58
761.154	536.1
761.342	618.44
761.529	595.19
761.717	659.13
761.905	617.86
762.092	685.87
762.28	640.14
762.467	663.78
762.655	620.77
762.842	611.08
763.029	625.42
763.217	648.28
763.404	637.04
763.592	691.87
763.779	620.57
763.966	676.57
764.154	706.4
764.341	759.1
764.528	767.63
764.716	789.71
764.903	835.24
765.09	902.86
765.277	930.37
765.465	1070.45
765.652	1129.55
765.839	1159.96
766.026	1252.19
766.213	1279.89
766.4	1325.62
766.588	1489.72
766.775	1523.63
766.962	1586.01
767.149	1634.06
767.336	1772.79
767.523	1710.01
767.71	1836.92
767.897	1899.3
768.084	1966.92
768.271	1995.02
768.458	2027.18
768.645	2117.27
768.832	2030.47
769.019	2069.03
769.206	2115.72
769.392	2189.34
769.579	2242.82
769.766	2196.32
769.953	2183.73
770.14	2256.77
770.327	2228.09
770.513	2261.61
770.7	2370.3
770.887	2251.73
771.073	2306.37
771.26	2285.25
771.447	2226.16
771.634	2273.04
771.82	2342.6
772.007	2260.84
772.193	2276.92
772.38	2330.78
772.567	2309.08
772.753	2281.18
772.94	2349.96
773.126	2326.13
773.313	2364.49
773.499	2331.17
773.686	2348.02
773.872	2314.5
774.059	2330.97
774.245	2269.17
774.432	2307.53
774.618	2223.44
774.804	2295.9
774.991	2221.89
775.177	2292.61
775.363	2284.47
775.55	2302.49
775.736	2216.86
775.922	2270.33
776.109	2273.24
776.295	2268.01
776.481	2268.97
776.667	2246.89
776.853	2273.82
777.04	2196.51
777.226	2240.49
777.412	2287.77
777.598	2199.61
777.784	2220.54
777.97	2211.43
778.156	2245.72
778.342	2218.99
778.528	2208.33
778.715	2183.34
778.901	2190.89
779.087	2221.12
779.272	2203.49
779.458	2167.45
779.644	2198.64
779.83	2163.19
780.016	2279.82
780.202	2176.36
780.388	2152.53
780.574	2124.44
780.76	2127.34
780.946	2153.31
781.131	2166.87
781.317	2119.4
781.503	2108.36
781.689	2130.83
781.874	2242.62
782.06	2135.87
782.246	2145.17
782.432	2128.89
782.617	2164.54
782.803	2175.39
782.989	2056.63
783.174	2090.53
783.36	2066.12
783.545	2066.31
783.731	2123.47
783.916	2035.9
784.102	2092.86
784.288	2021.36
784.473	2063.21
784.659	2036.28
784.844	2082.98
785.029	2049.07
785.215	2054.3
785.4	1986.1
785.586	2101.77
785.771	2001.41
785.956	2018.85
786.142	2011.1
786.327	2015.75
786.512	2048.1
786.698	1974.28
786.883	1986.3
787.068	1982.23
787.254	1994.05
787.439	1958.01
787.624	1949.1
787.809	1928.56
787.994	1931.66
788.18	2051.98
788.365	1901.24
788.55	1922.17
788.735	1908.02
788.92	1906.47
789.105	1900.85
789.29	1951.62
789.475	1897.95
789.66	1891.36
789.845	1849.7
790.03	1841.18
790.215	1920.42
790.4	1896.79
790.585	1922.55
790.77	1870.05
790.955	1787.9
791.14	1845.25
791.325	1921.97
791.51	1757.29
791.695	1877.6
791.879	1853.77
792.064	1782.09
792.249	1932.24
792.434	1850.87
792.618	1859.39
792.803	1868.69
792.988	1813.28
793.173	1850.67
793.357	1872.57
793.542	1783.64
793.727	1848.54
793.911	1897.17
794.096	1843.12
794.281	1863.46
794.465	1946.19
794.65	1868.89
794.834	1870.44
795.019	1956.07
795.203	1883.8
795.388	1904.15
795.572	1958.78
795.757	1886.52
795.941	1887.49
796.126	1868.5
796.31	1850.29
796.494	1889.62
796.679	1855.13
796.863	1857.26
797.048	1924.68
797.232	1870.24
797.416	1882.84
797.601	1876.83
797.785	1947.74
797.969	1915.58
798.153	1854.35
798.338	1892.33
798.522	1917.9
798.706	1894.27
798.89	1935.53
799.074	2006.64
799.258	1946.58
799.443	1918.1
799.627	1894.85
799.811	1927.78
799.995	1905.7
800.179	1870.44
800.363	1901.24
800.547	1922.55
800.731	1965.95
800.915	1867.72
801.099	1864.43
801.283	1880.51
801.467	1885.16
801.651	1890.39
801.835	1931.66
802.019	1885.35
802.202	1885.94
802.386	1829.75
802.57	1845.25
802.754	1875.47
802.938	1866.75
803.121	1840.99
803.305	1938.25
803.489	1897.56
803.673	1922.55
803.856	1902.4
804.04	1880.51
804.224	1915
804.407	1899.3
804.591	1855.13
804.775	1851.25
804.958	1872.18
805.142	1941.73
805.326	1914.03
805.509	1904.54
805.693	1959.17
805.876	1938.25
806.06	1937.28
806.243	1879.54
806.427	1973.9
806.61	1974.09
806.794	1884.39
806.977	1951.23
807.16	1937.47
807.344	1923.52
807.527	1924.1
807.71	1894.65
807.894	1907.05
808.077	1947.16
808.26	1889.23
808.444	1889.81
808.627	1917.9
808.81	1854.35
808.993	1830.91
809.177	1828.39
809.36	1875.47
809.543	1878.77
809.726	1793.32
809.909	1812.89
810.092	1788.09
810.276	1796.23
810.459	1782.86
810.642	1787.12
810.825	1777.24
811.008	1770.66
811.191	1683.47
811.374	1734.04
811.557	1717.76
811.74	1772.59
811.923	1663.71
812.106	1695.48
812.289	1634.45
812.472	1640.85
812.654	1676.49
812.837	1644.14
813.02	1575.16
813.203	1587.18
813.386	1545.91
813.569	1468.02
813.751	1466.09
813.934	1455.24
814.117	1492.63
814.3	1420.36
814.482	1398.66
814.665	1383.55
814.848	1369.79
815.03	1289.39
815.213	1321.55
815.396	1334.34
815.578	1288.61
815.761	1233.39
815.943	1311.86
816.126	1249.09
816.309	1218.48
816.491	1156.67
816.674	1119.47
816.856	1184.96
817.039	1153.76
817.221	1263.43
817.403	1195.23
817.586	1175.85
817.768	1236.69
817.951	1112.5
818.133	1120.05
818.315	1168.3
818.498	1208.21
818.68	1233.98
818.862	1245.6
819.045	1235.72
819.227	1208.6
819.409	1208.01
819.591	1227.97
819.774	1165.78
819.956	1178.76
820.138	1296.56
820.32	1231.65
820.502	1293.26
820.684	1342.86
820.866	1318.45
821.048	1376.96
821.231	1359.52
821.413	1356.42
821.595	1336.08
821.777	1357.78
821.959	1361.46
822.141	1421.33
822.323	1277.76
822.505	1211.7
822.686	1217.12
822.868	1150.66
823.05	1045.85
823.232	1044.49
823.414	1008.65
823.596	1076.85
823.778	1050.69
823.96	1074.72
824.141	1068.71
824.323	1092.35
824.505	1177.79
824.687	1199.1
824.868	1251.61
825.05	1320.97
825.232	1333.37
825.413	1376.77
825.595	1359.14
825.777	1268.46
825.958	1290.74
826.14	1318.26
826.321	1357.59
826.503	1304.11
826.685	1338.79
826.866	1348.87
827.048	1334.14
827.229	1310.31
827.411	1254.13
827.592	1217.51
827.773	1224.48
827.955	1164.61
828.136	1204.33
828.318	1172.36
828.499	1218.28
828.68	1135.94
828.862	1192.71
829.043	1248.7
829.224	1181.28
829.406	1120.63
829.587	1176.63
829.768	1177.4
829.949	1208.6
830.131	1191.74
830.312	1227.58
830.493	1191.74
830.674	1205.11
830.855	1216.54
831.036	1205.69
831.218	1227.78
831.399	1227.78
831.58	1191.93
831.761	1165.39
831.942	1208.98
832.123	1181.86
832.304	1126.25
832.485	1172.36
832.666	1218.09
832.847	1198.33
833.028	1177.01
833.209	1208.6
833.389	1183.8
833.57	1141.56
833.751	1157.83
833.932	1217.12
834.113	1187.28
834.294	1167.33
834.475	1195.61
834.655	1221.58
834.836	1251.03
835.017	1234.94
835.198	1143.3
835.378	1208.98
835.559	1268.08
835.74	1211.7
835.92	1173.14
836.101	1165.58
836.281	1206.66
836.462	1227.39
836.643	1226.23
836.823	1278.34
837.004	1234.56
837.184	1305.28
837.365	1235.14
837.545	1267.3
837.726	1241.92
837.906	1272.14
838.087	1252.77
838.267	1235.53
838.448	1206.08
838.628	1219.25
838.808	1205.5
838.989	1320
839.169	1190.77
839.349	1257.61
839.53	1280.86
839.71	1263.04
839.89	1224.29
840.07	1289
840.251	1194.26
840.431	1280.67
840.611	1211.5
840.791	1208.98
840.971	1268.85
841.151	1236.49
841.332	1200.65
841.512	1260.33
841.692	1166.16
841.872	1241.73
842.052	1217.7
842.232	1253.35
842.412	1206.46
842.592	1223.9
842.772	1232.04
842.952	1237.27
843.132	1196.39
843.312	1184.76
843.492	1167.13
843.672	1213.05
843.851	1157.06
844.031	1164.81
844.211	1181.66
844.391	1168.1
844.571	1192.32
844.751	1204.72
844.93	1192.9
845.11	1180.89
845.29	1211.89
845.47	1206.66
845.649	1217.31
845.829	1224.48
846.009	1135.75
846.188	1201.62
846.368	1200.46
846.547	1174.88
846.727	1213.63
846.907	1128.19
847.086	1196.2
847.266	1203.56
847.445	1177.98
847.625	1158.22
847.804	1175.08
847.984	1208.98
848.163	1115.6
848.343	1147.18
848.522	1187.28
848.701	1181.66
848.881	1134.97
849.06	1170.43
849.239	1185.54
849.419	1158.8
849.598	1145.82
849.777	1122.38
849.957	1100.48
850.136	1055.34
850.315	1022.6
850.494	1042.36
850.674	1042.75
850.853	1094.48
851.032	1069.87
851.211	1108.62
851.39	1103
851.569	1050.5
851.748	1039.84
851.927	1074.52
852.107	1098.93
852.286	1064.83
852.465	1039.65
852.644	1109.98
852.823	1089.05
853.002	1062.7
853.181	1052.05
853.359	1094.48
853.538	1031.32
853.717	1097.77
853.896	1010.39
854.075	949.94
854.254	940.64
854.433	907.9
854.611	971.64
854.79	870.12
854.969	972.61
855.148	985.01
855.327	889.3
855.505	966.41
855.684	934.44
855.863	954.98
856.041	928.05
856.22	1007.68
856.399	970.29
856.577	1066.97
856.756	1046.82
856.934	1117.34
857.113	1122.77
857.291	1029.57
857.47	989.66
857.648	1032.29
857.827	1048.17
858.005	1069.87
858.184	1019.69
858.362	1110.75
858.541	1036.16
858.719	1026.47
858.898	1010.97
859.076	1002.25
859.254	1089.44
859.433	990.82
859.611	974.35
859.789	954.21
859.967	1085.37
860.146	1083.82
860.324	981.33
860.502	986.75
860.68	975.32
860.859	971.64
861.037	972.22
861.215	1008.45
861.393	1002.64
861.571	1022.4
861.749	974.94
861.927	988.89
862.105	997.22
862.283	967.77
862.461	961.76
862.639	937.93
862.817	951.88
862.995	974.35
863.173	934.06
863.351	964.86
863.529	995.47
863.707	995.47
863.885	1000.9
864.063	860.04
864.241	947.42
864.418	985.59
864.596	923.01
864.774	881.55
864.952	940.64
865.129	968.15
865.307	933.47
865.485	863.14
865.663	980.94
865.84	869.73
866.018	914.49
866.196	791.84
866.373	842.41
866.551	820.71
866.728	765.3
866.906	811.22
867.084	812.96
867.261	866.63
867.439	854.62
867.616	877.09
867.794	852.49
867.971	866.24
868.149	885.42
868.326	926.31
868.503	900.73
868.681	904.02
868.858	899.37
869.035	853.07
869.213	900.54
869.39	856.75
869.567	936.57
869.745	853.07
869.922	877.87
870.099	882.32
870.276	913.52
870.454	903.25
870.631	915.46
870.808	866.24
870.985	901.7
871.162	973.19
871.339	901.7
871.517	853.07
871.694	821.68
871.871	882.32
872.048	878.64
872.225	854.23
872.402	861.4
872.579	813.74
872.756	872.06
872.933	840.48
873.11	827.3
873.287	883.87
873.463	846.48
873.64	805.41
873.817	862.37
873.994	868.76
874.171	805.6
874.348	846.48
874.524	784.48
874.701	833.89
874.878	770.73
875.055	826.91
875.231	837.18
875.408	819.36
875.585	776.54
875.762	811.41
875.938	823.81
876.115	797.08
876.291	804.05
876.468	799.98
876.645	752.51
876.821	762.98
876.998	787.39
877.174	828.27
877.351	794.94
877.527	782.16
877.704	812.77
877.88	816.64
878.057	763.17
878.233	825.36
878.409	771.31
878.586	790.88
878.762	789.52
878.938	790.68
879.115	709.31
879.291	758.91
879.467	727.71
879.644	711.25
879.82	777.51
879.996	739.34
880.172	711.44
880.349	765.11
880.525	775.38
880.701	744.38
880.877	702.33
881.053	757.36
881.229	744.96
881.405	789.13
881.581	727.33
881.757	713.76
881.933	730.43
882.109	781
882.285	763.36
882.461	707.76
882.637	768.21
882.813	707.95
882.989	732.95
883.165	776.93
883.341	712.8
883.517	780.03
883.693	753.68
883.869	780.41
884.044	750.38
884.22	761.81
884.396	781.96
884.572	751.35
884.747	795.14
884.923	766.66
885.099	790.29
885.275	797.85
885.45	728.3
885.626	738.37
885.801	725.2
885.977	746.9
886.153	691.68
886.328	773.63
886.504	726.16
886.679	757.94
886.855	723.06
887.03	766.27
887.206	760.85
887.381	789.52
887.557	777.7
887.732	789.91
887.908	742.63
888.083	780.41
888.258	745.93
888.434	697.3
888.609	733.91
888.784	787.58
888.96	728.3
889.135	703.3
889.31	722.68
889.485	742.44
889.661	720.55
889.836	773.83
890.011	732.17
890.186	747.86
890.361	705.05
890.537	750.19
890.712	734.5
890.887	736.05
891.062	740.7
891.237	793.01
891.412	714.73
891.587	730.04
891.762	752.51
891.937	768.01
892.112	685.67
892.287	744.76
892.462	675.79
892.637	645.76
892.812	643.24
892.987	690.13
893.161	660.87
893.336	682.96
893.511	667.07
893.686	687.8
893.861	666.3
894.035	689.93
894.21	643.43
894.385	613.98
894.56	665.91
894.734	604.1
894.909	623.67
895.084	614.95
895.258	626.97
895.433	611.27
895.608	610.5
895.782	567.1
895.957	573.3
896.131	596.35
896.306	511.49
896.48	535.13
896.655	541.33
896.829	489.41
897.004	490.96
897.178	472.55
897.353	470.22
897.527	526.02
897.701	508.78
897.876	434.77
898.05	539.97
898.224	511.88
898.399	524.28
898.573	511.69
898.747	418.49
898.921	458.6
899.096	393.69
899.27	419.66
899.444	413.65
899.618	399.31
899.792	435.54
899.967	438.84
900.141	471.39
900.315	409
900.489	434.38
900.663	470.03
900.837	442.91
901.011	372.19
901.185	472.55
901.359	440.77
901.533	432.25
901.707	417.53
901.881	460.73
902.055	397.57
902.229	448.72
902.403	480.11
902.576	443.29
902.75	456.66
902.924	559.35
903.098	472.74
903.272	520.02
903.446	556.64
903.619	517.69
903.793	535.13
903.967	505.29
904.14	561.67
904.314	570.2
904.488	535.71
904.661	595.77
904.835	537.65
905.009	564.77
905.182	598.1
905.356	571.55
905.529	558.77
905.703	498.51
905.876	532.61
906.05	506.65
906.223	469.26
906.397	461.12
906.57	440.77
906.744	414.43
906.917	423.53
907.09	433.8
907.264	445.62
907.437	399.12
907.61	391.76
907.784	410.55
907.957	419.46
908.13	407.45
908.304	427.6
908.477	389.43
908.65	397.18
908.823	352.23
908.996	484.76
909.17	394.66
909.343	375.68
909.516	408.81
909.689	390.01
909.862	357.08
910.035	410.55
910.208	330.34
910.381	368.89
910.554	428.76
910.727	364.24
910.9	358.04
911.073	375.29
911.246	401.06
911.419	429.93
911.592	409.78
911.765	338.09
911.938	357.08
912.11	382.46
912.283	373.35
912.456	438.45
912.629	370.25
912.802	357.66
912.974	341.58
913.147	291.59
913.32	237.15
913.493	294.11
913.665	305.73
913.838	352.43
914.01	329.76
914.183	334.99
914.356	313.87
914.528	343.9
914.701	373.54
914.873	377.42
915.046	326.27
915.218	304.38
915.391	258.46
915.563	255.17
915.736	335.57
915.908	346.23
916.081	323.17
916.253	340.61
916.425	302.83
916.598	320.65
916.77	347.58
916.942	307.67
917.115	265.05
917.287	318.33
917.459	276.86
917.632	266.01
917.804	228.62
917.976	309.8
918.148	322.2
918.32	300.11
918.493	327.24
918.665	400.28
918.837	315.23
919.009	393.89
919.181	385.94
919.353	342.35
919.525	346.23
919.697	331.11
919.869	362.5
920.041	378.58
920.213	457.63
920.385	357.85
920.557	343.71
920.729	353.2
920.901	364.83
921.073	332.66
921.244	323.75
921.416	378
921.588	344.68
921.76	317.75
921.932	386.72
922.103	324.91
922.275	349.91
922.447	341.96
922.619	266.6
922.79	335.57
922.962	342.16
923.134	331.31
923.305	289.07
923.477	284.23
923.648	271.63
923.82	305.54
923.991	237.34
924.163	256.13
924.335	265.05
924.506	258.65
924.677	341.77
924.849	258.65
925.02	288.3
925.192	318.52
925.363	297.21
925.535	314.45
925.706	273.38
925.877	309.22
926.049	290.62
926.22	291.2
926.391	302.83
926.562	344.1
926.734	248.58
926.905	306.51
927.076	232.5
927.247	274.54
927.419	227.46
927.59	214.09
927.761	244.51
927.932	253.03
928.103	254.78
928.274	190.65
928.445	194.13
928.616	214.09
928.787	204.79
928.958	241.8
929.129	236.57
929.3	214.48
929.471	171.08
929.642	124.39
929.813	116.44
929.984	178.25
930.155	110.63
930.326	193.75
930.496	136.79
930.667	98.23
930.838	125.16
931.009	79.05
931.18	131.36
931.35	143.95
931.521	148.6
931.692	58.9
931.863	31
932.033	127.1
932.204	90.29
932.374	116.64
932.545	69.56
932.716	113.54
932.886	106.56
933.057	16.27
933.227	36.23
933.398	123.03
933.568	39.52
933.739	12.98
933.909	28.48
934.08	106.75
934.25	2.32
934.421	20.15
934.591	62.39
934.761	30.22
934.932	-16.08
935.102	61.81
935.272	16.47
935.443	17.44
935.613	30.03
935.783	51.34
935.953	0.39
936.123	177.86
936.294	14.53
936.464	21.31
936.634	10.07
936.804	-10.27
936.974	-14.92
937.144	45.14
937.314	40.3
937.484	2.71
937.655	-4.65
937.825	86.99
937.995	-2.91
938.165	66.84
938.334	3.29
938.504	38.36
938.674	28.09
938.844	16.08
939.014	77.69
939.184	68.78
939.354	114.7
939.524	99.2
939.694	49.6
939.863	62.97
940.033	121.29
940.203	117.8
940.373	94.94
940.542	94.94
940.712	65.29
940.882	83.89
941.051	113.73
941.221	90.09
941.391	107.92
941.56	57.54
941.73	49.02
941.899	162.94
942.069	49.99
942.238	73.82
942.408	64.32
942.577	111.6
942.747	39.33
942.916	30.61
943.086	57.93
943.255	96.29
943.425	61.81
943.594	40.49
943.763	-32.94
943.933	8.14
944.102	-7.17
944.271	67.42
944.441	45.14
944.61	24.61
944.779	62.58
944.948	146.09
945.117	9.69
945.287	54.25
945.456	-0.77
945.625	30.61
945.794	66.07
945.963	31.77
946.132	77.69
946.301	28.67
946.47	69.36
946.639	16.27
946.808	25.77
946.977	60.45
947.146	88.15
947.315	32.55
947.484	76.53
947.653	47.86
947.822	5.42
947.991	17.44
948.16	126.13
948.329	87.19
948.498	32.36
948.666	45.14
948.835	69.94
949.004	11.43
949.173	18.21
949.341	65.87
949.51	65.29
949.679	104.62
949.847	63.36
950.016	143.18
950.185	110.05
950.353	9.88
950.522	30.03
950.69	106.95
950.859	33.91
951.028	83.89
951.196	59.87
951.365	11.24
951.533	45.72
951.701	86.61
951.87	70.52
952.038	10.07
952.207	44.37
952.375	117.41
952.543	54.83
952.712	33.71
952.88	34.29
953.048	72.66
953.217	60.06
953.385	51.92
953.553	86.22
953.721	8.52
953.89	43.4
954.058	13.56
954.226	14.72
954.394	53.86
954.562	24.02
954.73	56.96
954.898	34.29
955.067	62.19
955.235	14.53
955.403	72.46
955.571	117.41
955.739	63.16
955.907	31.39
956.075	17.05
956.243	18.79
956.41	68.78
956.578	-17.24
956.746	18.21
956.914	27.51
957.082	74.98
957.25	98.42
957.418	8.14
957.585	48.05
957.753	74.21
957.921	-11.24
958.089	34.1
958.256	73.24
958.424	47.66
958.592	61.42
958.759	44.76
958.927	54.44
959.095	37.01
959.262	28.87
959.43	44.37
959.597	51.54
959.765	45.34
959.932	-0.97
960.1	90.09
960.267	34.29
960.435	53.67
960.602	83.51
960.77	33.71
960.937	8.14
961.104	48.05
961.272	7.17
961.439	22.67
961.606	42.62
961.774	104.24
961.941	43.98
962.108	60.06
962.275	74.98
962.443	89.7
962.61	50.57
962.777	117.8
962.944	91.45
963.111	74.79
963.278	68.01
963.446	77.31
963.613	49.21
963.78	92.03
963.947	112.95
964.114	35.65
964.281	112.37
964.448	91.25
964.615	34.29
964.782	70.72
964.949	96.29
965.116	106.37
965.282	104.62
965.449	47.47
965.616	33.71
965.783	103.07
965.95	57.54
966.117	14.72
966.283	56.38
966.45	63.74
966.617	70.72
966.784	108.69
966.95	83.89
967.117	83.51
967.284	27.12
967.45	51.54
967.617	109.66
967.784	77.5
967.95	132.33
968.117	58.12
968.283	108.3
968.45	158.29
968.616	70.91
968.783	102.3
968.949	83.12
969.116	130.97
969.282	50.18
969.449	76.72
969.615	72.07
969.781	26.35
969.948	63.74
970.114	34.87
970.28	121.87
970.447	65.87
970.613	108.5
970.779	38.36
970.945	84.28
971.112	95.52
971.278	76.14
971.444	78.27
971.61	99.78
971.776	44.56
971.942	98.23
972.108	99.97
972.275	52.7
972.441	106.37
972.607	165.07
972.773	49.21
972.939	58.71
973.105	66.07
973.271	60.84
973.437	61.03
973.602	60.26
973.768	81.37
973.934	75.76
974.1	69.17
974.266	-0
974.432	79.24
974.598	50.57
974.763	84.67
974.929	40.11
975.095	121.87
975.261	43.4
975.426	64.91
975.592	76.14
975.758	115.67
975.923	20.54
976.089	52.7
976.255	99.97
976.42	78.27
976.586	76.34
976.751	88.54
976.917	142.99
977.082	67.42
977.248	19.76
977.413	-15.5
977.579	34.87
977.744	87.96
977.91	43.01
978.075	35.65
978.24	83.7
978.406	30.81
978.571	62
978.736	34.1
978.902	82.34
979.067	-2.32
979.232	19.76
979.397	73.04
979.563	95.9
979.728	37.39
979.893	57.93
980.058	19.37
980.223	108.11
980.388	56.77
980.554	49.6
980.719	40.3
980.884	67.62
981.049	97.26
981.214	16.66
981.379	67.81
981.544	46.5
981.709	61.61
981.874	62
982.039	53.67
982.204	116.64
982.368	53.47
982.533	17.05
982.698	104.24
982.863	94.55
983.028	29.45
983.193	67.62
983.357	46.31
983.522	74.4
983.687	49.79
983.852	43.98
984.016	8.14
984.181	71.3
984.346	48.44
984.51	93
984.675	34.49
984.839	78.66
985.004	58.71
985.168	86.02
985.333	67.42
985.498	70.14
985.662	69.17
985.827	80.99
985.991	53.86
986.155	45.14
986.32	86.41
986.484	128.65
986.649	80.6
986.813	-6.78
986.977	95.9
987.142	63.16
987.306	21.7
987.47	32.94
987.634	61.22
987.799	55.22
987.963	83.51
988.127	71.69
988.291	115.09
988.455	49.99
988.62	43.98
988.784	89.12
988.948	67.81
989.112	31.19
989.276	44.76
989.44	66.65
989.604	19.76
989.768	34.49
989.932	151.51
990.096	3.1
990.26	57.93
990.424	3.68
990.588	54.44
990.752	93
990.915	52.51
991.079	33.52
991.243	15.89
991.407	91.64
991.571	35.46
991.734	79.44
991.898	74.98
992.062	171.08
992.226	43.59
992.389	28.29
992.553	-10.07
992.717	47.66
992.88	51.73
993.044	43.01
993.207	30.03
993.371	68.01
993.535	74.79
993.698	38.75
993.862	71.49
994.025	89.7
994.189	73.43
994.352	49.79
994.515	52.7
994.679	73.24
994.842	36.42
995.006	76.34
995.169	8.91
995.332	27.51
995.496	82.54
995.659	20.54
995.822	60.26
995.985	76.92
996.149	116.44
996.312	69.56
996.475	111.02
996.638	49.6
996.801	82.73
996.964	103.46
997.128	43.01
997.291	29.26
997.454	43.79
997.617	38.94
997.78	88.15
997.943	35.65
998.106	92.42
998.269	37.78
998.432	49.79
998.595	70.91
998.758	0.39
998.92	-2.32
999.083	1.55
999.246	6.97
999.409	-1.74
999.572	-19.18
999.735	39.72
999.897	56.19
1000.06	-0.39
1000.223	28.48
1000.386	77.11
1000.548	66.46
1000.711	62.39
1000.874	75.95
1001.036	3.49
1001.199	69.56
1001.361	2.32
1001.524	48.05
1001.687	67.81
1001.849	22.47
1002.012	78.47
1002.174	43.98
1002.337	42.82
1002.499	21.12
1002.661	84.09
1002.824	-2.71
1002.986	4.46
1003.149	47.47
1003.311	33.52
1003.473	90.48
1003.636	4.84
1003.798	50.37
1003.96	62
1004.123	55.61
1004.285	21.51
1004.447	15.11
1004.609	43.21
1004.771	83.89
1004.933	-0.77
1005.096	10.07
1005.258	1.36
1005.42	17.44
1005.582	73.43
1005.744	40.49
1005.906	-26.93
1006.068	55.41
1006.23	8.33
1006.392	-10.66
1006.554	12.01
1006.716	50.18
1006.878	69.56
1007.04	1.94
1007.202	6.59
1007.363	36.62
1007.525	35.84
1007.687	37.97
1007.849	86.22
1008.011	-10.85
1008.172	-23.64
1008.334	26.35
1008.496	38.75
1008.658	-6.01
1008.819	-0.77
1008.981	-8.52
1009.143	29.26
1009.304	4.65
1009.466	25.77
1009.627	74.98
1009.789	120.51
1009.95	23.64
1010.112	39.91
1010.273	32.16
1010.435	12.01
1010.596	17.44
1010.758	-3.68
1010.919	29.06
1011.081	-12.98
1011.242	10.46
1011.403	53.09
1011.565	24.61
1011.726	36.04
1011.887	-26.54
1012.049	18.6
1012.21	77.69
1012.371	83.7
1012.532	-43.01
1012.693	28.67
1012.855	7.75
1013.016	17.63
1013.177	39.91
1013.338	41.07
1013.499	66.07
1013.66	37.78
1013.821	27.9
1013.982	41.85
1014.143	46.11
1014.304	6.01
1014.465	21.7
1014.626	68.78
1014.787	24.61
1014.948	111.6
1015.109	-32.16
1015.27	72.85
1015.431	-29.64
1015.592	-3.29
1015.752	82.73
1015.913	41.66
1016.074	41.85
1016.235	19.57
1016.395	39.14
1016.556	23.44
1016.717	27.9
1016.877	94.94
1017.038	6.2
1017.199	42.43
1017.359	18.99
1017.52	42.43
1017.681	-10.27
1017.841	7.94
1018.002	9.3
1018.162	30.03
1018.323	68.59
1018.483	33.71
1018.644	3.68
1018.804	-11.04
1018.964	-9.88
1019.125	-15.69
1019.285	16.08
1019.446	15.89
1019.606	-10.66
1019.766	-24.8
1019.926	39.33
1020.087	36.23
1020.247	-30.42
1020.407	37.2
1020.567	69.17
1020.728	12.98
1020.888	-5.81
1021.048	-12.98
1021.208	3.49
1021.368	6.01
1021.528	51.73
1021.688	43.4
1021.848	43.21
1022.008	13.17
1022.168	13.17
1022.328	18.79
1022.488	35.07
1022.648	17.05
1022.808	3.87
1022.968	46.69
1023.128	-2.32
1023.288	-4.07
1023.448	30.42
1023.608	39.52
1023.767	37.39
1023.927	1.74
1024.087	-9.69
1024.247	-47.66
1024.406	0.77
1024.566	-12.4
1024.726	11.43
1024.885	29.64
1025.045	18.21
1025.205	22.09
1025.364	17.44
1025.524	21.89
1025.683	3.49
1025.843	36.42
1026.003	23.06
1026.162	66.26
1026.321	47.47
1026.481	21.7
1026.64	1.16
1026.8	30.81
1026.959	10.85
1027.119	17.05
1027.278	-0
1027.437	-12.79
1027.597	17.05
1027.756	26.16
1027.915	11.04
1028.074	43.01
1028.234	-9.11
1028.393	11.43
1028.552	-4.65
1028.711	-71.49
1028.87	40.49
1029.03	-30.81
1029.189	-13.95
1029.348	-56.19
1029.507	-3.49
1029.666	-5.42
1029.825	-27.32
1029.984	-9.49
1030.143	8.14
1030.302	-13.17
1030.461	-53.09
1030.62	28.29
1030.779	31.19
1030.938	-0.77
1031.097	1.55
1031.255	30.81
1031.414	63.36
1031.573	29.06
1031.732	-45.34
1031.891	3.1
1032.049	39.91
1032.208	17.44
1032.367	-19.76
1032.525	-16.86
1032.684	6.01
1032.843	10.66
1033.001	-38.17
1033.16	165.85
1033.319	16.86
1033.477	27.32
1033.636	-11.62
1033.794	-18.02
1033.953	49.41
1034.111	32.94
1034.27	-0.58
1034.428	22.47
1034.587	-15.89
1034.745	40.69
1034.903	28.48
1035.062	28.67
1035.22	-8.33
1035.378	31.19
1035.537	-30.22
1035.695	48.05
1035.853	6.2
1036.011	30.42
1036.17	-4.07
1036.328	-64.91
1036.486	13.17
1036.644	-2.13
1036.802	-99.97
1036.96	-19.76
1037.119	-17.44
1037.277	-32.16
1037.435	-60.45
1037.593	-19.37
1037.751	20.15
1037.909	17.63
1038.067	17.63
