Data from pine_FLMT105791__43__17-20-17-079.txt Node

Date: Mon Mar 20 17:20:17 GMT 2023
User: antho
Spectrometer: FLMT10579
Trigger mode: 0
Integration Time (sec): 1.000000E-1
Scans to average: 10
Electric dark correction enabled: true
Nonlinearity correction enabled: false
Boxcar width: 0
XAxis mode: Wavelengths
Number of Pixels in Spectrum: 3648
>>>>>Begin Spectral Data<<<<<
345.248	-166.36
345.464	-166.36
345.681	-166.36
345.898	-156.29
346.114	-163.46
346.331	-41.98
346.548	15.95
346.764	0.65
346.981	6.07
347.197	-4.59
347.414	14.6
347.631	-8.65
347.847	54.7
348.064	-10.59
348.28	26.22
348.497	-35.58
348.713	-16.79
348.93	25.45
349.146	12.85
349.363	-8.27
349.579	28.93
349.796	-7.49
350.012	16.34
350.229	31.65
350.445	-3.42
350.661	-22.8
350.878	-10.79
351.094	0.65
351.311	-4.2
351.527	12.46
351.743	8.4
351.96	45.21
352.176	9.56
352.392	5.3
352.609	39.4
352.825	-7.49
353.041	-16.79
353.257	21.96
353.474	1.03
353.69	8.01
353.906	5.3
354.122	-21.05
354.339	56.83
354.555	-11.56
354.771	-13.11
354.987	51.8
355.203	50.83
355.42	-17.95
355.636	-34.81
355.852	-29.77
356.068	-21.05
356.284	-31.9
356.5	46.37
356.716	20.99
356.932	-3.04
357.148	34.36
357.364	20.41
357.58	52.96
357.796	79.69
358.012	65.74
358.228	40.56
358.444	-56.32
358.66	78.14
358.876	13.43
359.092	-29.58
359.308	-1.87
359.524	1.61
359.74	-25.32
359.956	-6.72
360.172	-21.25
360.388	26.03
360.604	-9.82
360.819	83.96
361.035	8.2
361.251	16.34
361.467	-20.47
361.683	27.19
361.898	28.93
362.114	38.43
362.33	15.18
362.546	40.17
362.762	5.3
362.977	18.08
363.193	-33.84
363.409	22.35
363.624	1.81
363.84	-37.33
364.056	-6.91
364.271	27.96
364.487	18.86
364.703	-8.07
364.918	-16.02
365.134	-9.24
365.35	-20.67
365.565	92.29
365.781	18.47
365.996	29.51
366.212	85.31
366.427	17.31
366.643	-10.79
366.858	3.75
367.074	2.58
367.289	34.75
367.505	95
367.72	-20.47
367.936	-27.25
368.151	30.48
368.367	57.61
368.582	9.56
368.798	-13.5
369.013	60.51
369.228	9.56
369.444	-13.69
369.659	59.74
369.874	38.81
370.09	63.61
370.305	-52.25
370.52	-16.99
370.736	44.24
370.951	-2.45
371.166	50.25
371.381	80.47
371.597	57.41
371.812	4.52
372.027	-19.31
372.242	10.91
372.458	82.6
372.673	-10.2
372.888	24.09
373.103	23.7
373.318	86.67
373.533	48.11
373.749	27.96
373.964	-30.35
374.179	57.41
374.394	-9.43
374.609	71.36
374.824	-20.86
375.039	75.43
375.254	8.4
375.469	78.14
375.684	13.24
375.899	57.41
376.114	16.73
376.329	39.59
376.544	37.85
376.759	67.1
376.974	-6.72
377.189	12.46
377.404	17.11
377.619	63.03
377.834	-41.98
378.049	-37.72
378.264	-36.17
378.478	21.96
378.693	-14.47
378.908	23.9
379.123	-30.93
379.338	52.38
379.553	-1.68
379.767	16.53
379.982	30.29
380.197	29.51
380.412	4.71
380.626	24.86
380.841	89.19
381.056	21.18
381.271	76.01
381.485	-19.89
381.7	13.24
381.915	36.1
382.129	4.52
382.344	39.01
382.559	15.56
382.773	73.69
382.988	-31.9
383.202	20.02
383.417	-14.47
383.632	135.11
383.846	21.38
384.061	20.21
384.275	-13.69
384.49	13.63
384.704	4.52
384.919	23.7
385.133	14.4
385.348	25.45
385.562	-17.18
385.777	50.83
385.991	8.01
386.206	-0.71
386.42	-19.31
386.634	36.3
386.849	25.06
387.063	37.26
387.277	-21.83
387.492	-0.71
387.706	7.62
387.92	-10.01
388.135	44.24
388.349	18.47
388.563	41.91
388.778	33.78
388.992	64.19
389.206	40.17
389.42	82.99
389.635	1.61
389.849	51.8
390.063	39.78
390.277	20.21
390.491	94.81
390.706	35.91
390.92	57.03
391.134	3.36
391.348	36.3
391.562	-24.74
391.776	25.83
391.99	-5.55
392.205	53.54
392.419	-8.07
392.633	9.75
392.847	56.45
393.061	16.92
393.275	87.06
393.489	28.93
393.703	33.2
393.917	54.7
394.131	-8.27
394.345	25.64
394.559	70.39
394.773	1.61
394.986	34.75
395.2	17.31
395.414	45.21
395.628	-10.59
395.842	20.41
396.056	9.56
396.27	-19.89
396.484	10.33
396.697	40.17
396.911	68.07
397.125	-9.24
397.339	63.23
397.553	54.7
397.766	81.44
397.98	73.3
398.194	68.84
398.408	8.01
398.621	28.35
398.835	63.81
399.049	46.56
399.262	46.56
399.476	40.36
399.69	50.44
399.903	115.34
400.117	35.71
400.331	60.71
400.544	34.36
400.758	133.17
400.971	33.58
401.185	37.46
401.398	6.85
401.612	59.54
401.826	64
402.039	58.96
402.253	43.46
402.466	50.25
402.68	21.96
402.893	27.19
403.106	27.19
403.32	41.72
403.533	34.75
403.747	69.43
403.96	64.19
404.174	69.04
404.387	-0.52
404.6	52.38
404.814	81.63
405.027	51.21
405.24	49.08
405.454	20.99
405.667	79.69
405.88	-12.92
406.094	56.83
406.307	50.25
406.52	38.43
406.733	3.94
406.947	8.59
407.16	87.25
407.373	84.15
407.586	19.25
407.799	12.46
408.012	66.91
408.226	77.56
408.439	85.89
408.652	-12.92
408.865	39.98
409.078	98.1
409.291	60.51
409.504	-9.24
409.717	71.75
409.93	72.14
410.143	42.69
410.357	-3.81
410.57	2.97
410.783	49.66
410.996	73.11
411.209	41.53
411.421	70.59
411.634	38.43
411.847	-6.33
412.06	39.4
412.273	35.33
412.486	27.38
412.699	111.66
412.912	36.1
413.125	64.78
413.338	55.67
413.55	81.63
413.763	53.93
413.976	67.88
414.189	16.92
414.402	28.93
414.615	104.49
414.827	-9.82
415.04	86.67
415.253	53.54
415.466	93.64
415.678	115.15
415.891	41.91
416.104	56.45
416.316	41.14
416.529	17.11
416.742	82.21
416.954	58.38
417.167	47.15
417.38	34.94
417.592	85.12
417.805	28.35
418.017	-1.1
418.23	82.99
418.442	32.42
418.655	42.3
418.868	67.68
419.08	99.26
419.293	80.28
419.505	68.07
419.718	74.27
419.93	104.3
420.142	58.77
420.355	103.91
420.567	97.91
420.78	78.14
420.992	69.62
421.205	119.99
421.417	23.31
421.629	53.15
421.842	34.94
422.054	31.26
422.266	100.62
422.479	103.91
422.691	39.4
422.903	72.14
423.115	41.91
423.328	92.87
423.54	63.61
423.752	78.73
423.964	67.68
424.177	76.59
424.389	63.23
424.601	169.21
424.813	92.87
425.025	114.76
425.238	98.88
425.45	67.68
425.662	59.35
425.874	390.47
426.086	61.29
426.298	97.33
426.51	105.85
426.722	55.09
426.934	56.64
427.146	110.31
427.358	39.78
427.57	98.49
427.782	73.49
427.994	85.12
428.206	79.31
428.418	42.5
428.63	100.23
428.842	127.94
429.054	52.57
429.266	101.78
429.478	54.51
429.69	61.87
429.902	38.04
430.114	115.73
430.325	122.71
430.537	58.58
430.749	86.48
430.961	40.95
431.173	78.34
431.384	121.54
431.596	12.27
431.808	50.83
432.02	78.34
432.231	104.88
432.443	113.41
432.655	102.94
432.867	79.11
433.078	86.67
433.29	174.63
433.502	115.15
433.713	138.21
433.925	118.83
434.136	131.81
434.348	88.99
434.56	50.44
434.771	161.07
434.983	42.11
435.194	79.31
435.406	79.89
435.617	135.88
435.829	185.87
436.04	142.28
436.252	137.43
436.463	140.14
436.675	123.29
436.886	112.63
437.098	101.59
437.309	160.49
437.521	137.24
437.732	141.31
437.943	144.79
438.155	142.86
438.366	82.02
438.578	167.66
438.789	126.58
439	158.36
439.211	121.74
439.423	147.7
439.634	131.23
439.845	143.83
440.057	141.11
440.268	177.73
440.479	95.19
440.69	138.21
440.902	111.08
441.113	140.92
441.324	126.19
441.535	137.43
441.746	181.02
441.957	122.71
442.168	122.9
442.38	165.52
442.591	179.09
442.802	124.45
443.013	122.71
443.224	168.04
443.435	153.71
443.646	147.89
443.857	128.71
444.068	134.91
444.279	130.84
444.49	210.28
444.701	162.23
444.912	254.84
445.123	177.92
445.334	157.77
445.545	181.22
445.756	152.16
445.967	118.06
446.178	170.37
446.388	206.6
446.599	194.01
446.81	174.82
447.021	143.63
447.232	221.71
447.443	229.27
447.653	128.71
447.864	194.59
448.075	187.22
448.286	197.49
448.496	177.54
448.707	230.62
448.918	165.72
449.129	260.85
449.339	156.22
449.55	153.71
449.761	181.02
449.971	239.54
450.182	149.06
450.393	215.9
450.603	191.87
450.814	235.47
451.024	191.49
451.235	235.85
451.446	260.85
451.656	248.45
451.867	189.94
452.077	213.19
452.288	248.06
452.498	274.22
452.709	211.25
452.919	205.44
453.13	181.99
453.34	237.79
453.55	181.61
453.761	237.02
453.971	218.03
454.182	226.56
454.392	212.61
454.602	262.2
454.813	237.4
455.023	245.93
455.233	185.48
455.444	218.03
455.654	164.17
455.864	196.91
456.075	180.25
456.285	209.89
456.495	200.4
456.705	243.6
456.916	258.72
457.126	262.79
457.336	231.98
457.546	190.13
457.756	187.03
457.967	265.89
458.177	201.95
458.387	200.59
458.597	209.12
458.807	205.63
459.017	202.53
459.227	209.89
459.437	200.21
459.647	255.23
459.857	238.57
460.068	197.88
460.278	274.6
460.488	250
460.698	267.44
460.908	220.74
461.117	183.54
461.327	203.11
461.537	228.88
461.747	242.05
461.957	276.15
462.167	335.44
462.377	268.6
462.587	237.21
462.797	255.42
463.007	246.32
463.216	270.92
463.426	303.47
463.636	292.82
463.846	197.11
464.056	230.04
464.265	274.99
464.475	224.23
464.685	261.43
464.895	265.69
465.104	238.76
465.314	276.74
465.524	231.98
465.733	213.19
465.943	307.54
466.153	292.04
466.362	299.79
466.572	247.67
466.782	261.43
466.991	297.66
467.201	310.84
467.41	231.01
467.62	269.37
467.829	252.9
468.039	301.73
468.249	251.74
468.458	248.45
468.668	310.45
468.877	276.93
469.086	316.45
469.296	305.99
469.505	256.39
469.715	329.43
469.924	289.91
470.134	314.13
470.343	326.14
470.552	290.69
470.762	264.92
470.971	253.87
471.18	278.29
471.39	283.9
471.599	243.41
471.808	317.62
472.018	266.27
472.227	328.85
472.436	322.85
472.645	308.51
472.855	244.57
473.064	332.15
473.273	318.59
473.482	312.19
473.691	379.81
473.901	346.1
474.11	301.34
474.319	368.96
474.528	299.21
474.737	396.28
474.946	324.01
475.155	330.02
475.364	342.42
475.573	341.83
475.783	328.85
475.992	346.68
476.201	388.53
476.41	317.04
476.619	335.25
476.828	343.77
477.037	303.47
477.245	367.99
477.454	380.2
477.663	362.95
477.872	311.42
478.081	410.81
478.29	313.74
478.499	442.78
478.708	350.55
478.917	424.95
479.125	370.7
479.334	381.94
479.543	364.12
479.752	361.21
479.961	374.97
480.169	429.21
480.378	373.8
480.587	511.36
480.796	429.02
481.004	391.43
481.213	400.35
481.422	394.92
481.63	407.9
481.839	416.62
482.048	473.78
482.256	449.56
482.465	422.63
482.674	466.41
482.882	469.9
483.091	469.13
483.299	422.05
483.508	426.89
483.716	415.65
483.925	481.14
484.134	395.5
484.342	428.25
484.551	461.76
484.759	445.1
484.967	473.58
485.176	457.5
485.384	469.71
485.593	467
485.801	446.46
486.01	457.5
486.218	433.28
486.426	391.63
486.635	418.56
486.843	394.92
487.051	431.73
487.26	393.18
487.468	446.07
487.676	464.48
487.885	427.08
488.093	449.36
488.301	457.5
488.509	465.45
488.717	496.64
488.926	447.62
489.134	436.58
489.342	501.29
489.55	423.79
489.758	474.55
489.967	454.21
490.175	585.76
490.383	456.15
490.591	558.44
490.799	454.4
491.007	559.22
491.215	531.32
491.423	493.15
491.631	506.13
491.839	515.82
492.047	533.84
492.255	496.44
492.463	436.38
492.671	490.63
492.879	569.1
493.087	480.75
493.295	522.6
493.503	559.99
493.711	553.02
493.919	588.86
494.127	572.78
494.334	584.21
494.542	523.57
494.75	559.8
494.958	531.71
495.166	566.39
495.374	567.16
495.581	577.63
495.789	556.7
495.997	595.06
496.205	541.59
496.412	545.46
496.62	567.94
496.828	562.9
497.035	568.71
497.243	612.69
497.451	583.63
497.658	561.93
497.866	582.86
498.074	634.78
498.281	561.16
498.489	665.2
498.696	600.49
498.904	566.58
499.112	568.13
499.319	643.31
499.527	576.27
499.734	612.69
499.942	519.11
500.149	561.16
500.357	584.99
500.564	543.91
500.771	622.96
500.979	548.95
501.186	552.05
501.394	600.1
501.601	579.56
501.808	599.91
502.016	589.83
502.223	589.06
502.43	598.94
502.638	590.8
502.845	560.96
503.052	634.78
503.26	575.49
503.467	650.47
503.674	628.58
503.881	616.96
504.089	707.05
504.296	649.7
504.503	585.96
504.71	621.8
504.917	592.93
505.125	631.87
505.332	633.62
505.539	650.86
505.746	712.86
505.953	654.74
506.16	664.04
506.367	694.07
506.574	728.55
506.781	697.55
506.988	614.24
507.195	675.08
507.402	668.49
507.609	689.8
507.816	675.85
508.023	670.24
508.23	674.5
508.437	634.2
508.644	679.15
508.851	739.02
509.058	731.46
509.265	686.9
509.472	721.19
509.679	801.4
509.885	703.37
510.092	681.67
510.299	700.85
510.506	714.22
510.713	716.74
510.92	709.57
511.126	722.35
511.333	753.35
511.54	746.19
511.746	778.35
511.953	800.43
512.16	780.28
512.367	719.84
512.573	726.62
512.78	755.68
512.987	766.53
513.193	745.8
513.4	695.62
513.606	755.1
513.813	791.52
514.02	751.61
514.226	813.8
514.433	787.84
514.639	736.11
514.846	751.03
515.052	741.54
515.259	740.18
515.465	786.29
515.672	784.93
515.878	860.69
516.085	776.22
516.291	837.05
516.497	765.37
516.704	776.41
516.91	743.86
517.117	725.84
517.323	675.85
517.529	757.62
517.736	750.64
517.942	748.51
518.148	716.15
518.354	798.11
518.561	772.73
518.767	797.14
518.973	806.83
519.179	822.91
519.386	772.92
519.592	792.88
519.798	810.32
520.004	857.01
520.21	834.15
520.417	865.15
520.623	906.61
520.829	899.83
521.035	895.76
521.241	896.73
521.447	894.79
521.653	996.12
521.859	906.41
522.065	931.6
522.271	991.47
522.477	949.43
522.683	966.67
522.889	919.59
523.095	941.29
523.301	937.61
523.507	916.1
523.713	946.71
523.919	912.23
524.125	991.08
524.331	920.36
524.537	1036.42
524.742	986.24
524.948	1013.36
525.154	996.12
525.36	1117.99
525.566	1020.14
525.772	1050.56
525.977	962.79
526.183	1050.37
526.389	1035.26
526.595	975.19
526.8	987.98
527.006	963.18
527.212	940.51
527.417	930.05
527.623	963.18
527.829	991.86
528.034	993.02
528.24	1012.39
528.446	988.56
528.651	1041.26
528.857	1039.91
529.062	1100.16
529.268	1087.76
529.473	1051.53
529.679	1048.43
529.884	1126.32
530.09	1117.6
530.295	1134.65
530.501	1126.12
530.706	1103.84
530.912	1112.17
531.117	1101.52
531.323	1086.41
531.528	1182.89
531.733	1161
531.939	1110.24
532.144	1134.45
532.35	1158.67
532.555	1171.46
532.76	1129.8
532.966	1128.45
533.171	1128.45
533.376	1091.83
533.581	1048.04
533.787	1131.35
533.992	1129.8
534.197	1194.71
534.402	1117.6
534.607	1136.59
534.813	1246.25
535.018	1149.76
535.223	1109.85
535.428	1167.78
535.633	1216.02
535.838	1219.32
536.043	1174.95
536.249	1288.48
536.454	1176.11
536.659	1206.53
536.864	1179.79
537.069	1186.38
537.274	1188.32
537.479	1252.25
537.684	1207.69
537.889	1184.44
538.094	1264.85
538.299	1163.32
538.504	1231.33
538.708	1209.82
538.913	1241.98
539.118	1221.06
539.323	1246.44
539.528	1201.49
539.733	1187.15
539.938	1230.75
540.142	1236.37
540.347	1206.72
540.552	1238.11
540.757	1234.82
540.962	1205.95
541.166	1158.29
541.371	1183.47
541.576	1207.5
541.781	1119.34
541.985	1243.73
542.19	1229.78
542.395	1287.9
542.599	1302.82
542.804	1278.02
543.008	1303.79
543.213	1229.39
543.418	1212.34
543.622	1256.71
543.827	1193.16
544.031	1289.65
544.236	1281.12
544.44	1272.6
544.645	1366.56
544.849	1276.08
545.054	1302.24
545.258	1343.7
545.463	1342.54
545.667	1268.14
545.872	1295.46
546.076	1302.24
546.281	1281.12
546.485	1222.61
546.689	1283.45
546.894	1320.84
547.098	1267.56
547.302	1257.48
547.507	1299.14
547.711	1327.23
547.915	1371.79
548.119	1256.71
548.324	1290.03
548.528	1314.06
548.732	1277.83
548.936	1336.73
549.141	1353.58
549.345	1290.61
549.549	1290.42
549.753	1319.68
549.957	1363.27
550.161	1373.93
550.366	1331.5
550.57	1281.32
550.774	1324.91
550.978	1333.24
551.182	1363.66
551.386	1312.51
551.59	1323.55
551.794	1272.79
551.998	1352.23
552.202	1328.59
552.406	1279.38
552.61	1351.26
552.814	1328.98
553.018	1372.38
553.222	1304.37
553.426	1290.42
553.63	1409.58
553.833	1298.36
554.037	1250.12
554.241	1353.58
554.445	1304.76
554.649	1319.48
554.853	1287.32
555.056	1365.98
555.26	1400.08
555.464	1367.15
555.668	1325.3
555.871	1329.75
556.075	1329.75
556.279	1297.78
556.483	1312.9
556.686	1332.85
556.89	1308.05
557.094	1298.17
557.297	1273.57
557.501	1384
557.704	1260.78
557.908	1318.71
558.112	1282.48
558.315	1350.87
558.519	1288.29
558.722	1256.32
558.926	1274.15
559.129	1237.92
559.333	1181.34
559.536	1213.5
559.74	1227.84
559.943	1223.58
560.147	1207.3
560.35	1226.87
560.553	1257.1
560.757	1226.29
560.96	1295.85
561.164	1222.42
561.367	1327.23
561.57	1242.18
561.774	1267.37
561.977	1235.59
562.18	1217.96
562.384	1338.86
562.587	1230.94
562.79	1228.81
562.993	1248.18
563.197	1300.5
563.4	1325.49
563.603	1267.37
563.806	1315.61
564.009	1212.53
564.212	1254.97
564.416	1210.02
564.619	1266.59
564.822	1197.03
565.025	1280.73
565.228	1202.65
565.431	1220.87
565.634	1136.2
565.837	1176.5
566.04	1131.55
566.243	1169.33
566.446	1074.97
566.649	1226.87
566.852	1124.96
567.055	1196.07
567.258	1210.4
567.461	1247.99
567.664	1228.03
567.867	1122.25
568.07	1170.69
568.273	1180.57
568.475	1231.52
568.678	1169.72
568.881	1170.3
569.084	1151.31
569.287	1093.57
569.489	1120.31
569.692	1182.12
569.895	1184.64
570.098	1101.52
570.3	1072.26
570.503	1050.17
570.706	1050.95
570.909	1061.99
571.111	1032.54
571.314	1032.74
571.516	1054.05
571.719	1071.49
571.922	1059.47
572.124	1046.3
572.327	1080.79
572.529	1024.99
572.732	1001.74
572.935	1069.36
573.137	1110.62
573.34	1033.51
573.542	1111.59
573.745	1093.96
573.947	1091.44
574.15	1059.86
574.352	1027.51
574.554	1090.86
574.757	1033.51
574.959	1022.47
575.162	1025.37
575.364	1016.85
575.566	1115.66
575.769	991.86
575.971	1020.72
576.173	921.53
576.376	1006.97
576.578	1058.89
576.78	1091.06
576.982	923.27
577.185	1017.43
577.387	990.89
577.589	979.46
577.791	1012.01
577.993	1030.99
578.196	977.52
578.398	993.6
578.6	1008.71
578.802	953.3
579.004	946.33
579.206	970.54
579.408	994.57
579.61	991.08
579.812	1023.63
580.014	985.08
580.216	977.33
580.418	966.28
580.62	963.57
580.822	953.11
581.024	985.08
581.226	983.91
581.428	976.36
581.63	1061.61
581.832	941.68
582.034	1061.22
582.236	1017.82
582.438	1016.08
582.64	1048.43
582.841	1047.46
583.043	1098.22
583.245	1000.58
583.447	1019.76
583.649	979.26
583.85	973.06
584.052	1053.66
584.254	973.64
584.456	1053.66
584.657	930.44
584.859	991.86
585.061	998.64
585.262	948.65
585.464	942.45
585.666	995.93
585.867	940.71
586.069	1000.58
586.27	972.87
586.472	978.68
586.674	940.71
586.875	956.98
587.077	931.8
587.278	970.35
587.48	968.22
587.681	1024.99
587.883	944
588.084	906.22
588.285	930.63
588.487	941.29
588.688	948.26
588.89	863.21
589.091	865.53
589.292	890.33
589.494	868.63
589.695	829.11
589.896	792.88
590.098	789.58
590.299	851
590.5	819.42
590.702	843.64
590.903	862.43
591.104	913
591.305	893.82
591.507	948.84
591.708	921.14
591.909	874.45
592.11	956.01
592.311	914.36
592.512	877.93
592.714	835.5
592.915	860.5
593.116	849.84
593.317	879.48
593.518	894.01
593.719	857.2
593.92	930.25
594.121	917.46
594.322	904.09
594.523	912.42
594.724	862.24
594.925	869.6
595.126	881.23
595.327	885.49
595.528	844.42
595.729	878.13
595.929	868.25
596.13	870.18
596.331	913.58
596.532	899.05
596.733	938.58
596.934	934.12
597.135	931.02
597.335	903.51
597.536	849.84
597.737	901.76
597.938	872.31
598.138	880.65
598.339	876.38
598.54	912.23
598.74	874.06
598.941	888.01
599.142	945.16
599.342	900.02
599.543	860.3
599.744	880.26
599.944	859.33
600.145	871.73
600.345	890.14
600.546	916.1
600.746	932.38
600.947	995.93
601.147	906.03
601.348	922.88
601.548	857.59
601.749	922.69
601.949	836.28
602.15	849.45
602.35	857.59
602.551	911.84
602.751	829.3
602.951	884.13
603.152	814
603.352	905.83
603.552	841.9
603.753	935.67
603.953	900.21
604.153	890.53
604.354	903.51
604.554	857.2
604.754	906.8
604.954	859.14
605.155	892.08
605.355	870.96
605.555	919.01
605.755	930.83
605.955	867.47
606.155	910.87
606.356	875.03
606.556	907
606.756	900.02
606.956	838.02
607.156	946.52
607.356	828.14
607.556	902.15
607.756	864.18
607.956	915.52
608.156	868.63
608.356	838.22
608.556	914.94
608.756	876.77
608.956	844.61
609.156	888.78
609.356	850.61
609.556	825.62
609.755	841.7
609.955	794.43
610.155	860.88
610.355	845.38
610.555	817.48
610.755	817.48
610.954	786.48
611.154	840.73
611.354	859.91
611.554	775.63
611.753	820
611.953	764.2
612.153	844.03
612.352	847.51
612.552	796.75
612.752	749.67
612.951	797.92
613.151	810.12
613.351	785.52
613.55	802.57
613.75	834.34
613.949	819.81
614.149	781.64
614.348	785.32
614.548	767.11
614.747	713.05
614.947	752.58
615.146	724.87
615.346	794.23
615.545	790.36
615.745	793.65
615.944	789.97
616.144	799.08
616.343	820.2
616.542	755.68
616.742	776.41
616.941	748.12
617.14	717.32
617.34	763.62
617.539	755.68
617.738	757.62
617.938	818.65
618.137	781.64
618.336	702.98
618.535	800.05
618.734	759.94
618.934	776.02
619.133	768.27
619.332	762.65
619.531	745.8
619.73	772.34
619.929	796.75
620.128	759.55
620.328	824.46
620.527	735.92
620.726	776.99
620.925	768.08
621.124	718.09
621.323	756.26
621.522	694.65
621.721	719.84
621.92	694.84
622.119	744.64
622.318	685.35
622.517	757.04
622.715	708.21
622.914	645.82
623.113	739.6
623.312	690.97
623.511	725.65
623.71	727.2
623.909	733.01
624.107	758
624.306	689.22
624.505	667.72
624.704	671.2
624.902	703.17
625.101	737.27
625.3	704.14
625.499	678.76
625.697	690.97
625.896	677.79
626.095	752.97
626.293	655.71
626.492	688.84
626.69	695.04
626.889	654.93
627.088	728.36
627.286	657.45
627.485	679.54
627.683	673.14
627.882	702.4
628.08	626.45
628.279	675.08
628.477	708.79
628.676	660.16
628.874	706.47
629.073	634.2
629.271	638.85
629.469	708.02
629.668	630.32
629.866	667.52
630.065	632.84
630.263	674.11
630.461	612.69
630.66	675.66
630.858	673.92
631.056	693.29
631.254	698.91
631.453	633.42
631.651	705.89
631.849	650.28
632.047	701.04
632.245	651.64
632.444	681.86
632.642	673.34
632.84	673.53
633.038	646.99
633.236	639.24
633.434	625.09
633.632	610.17
633.83	634.97
634.028	705.11
634.227	660.55
634.425	701.24
634.623	691.16
634.821	665.01
635.019	678.57
635.216	602.62
635.414	701.62
635.612	670.62
635.81	647.57
636.008	706.47
636.206	647.18
636.404	677.02
636.602	659.77
636.8	675.85
636.997	684.38
637.195	697.17
637.393	675.66
637.591	724.49
637.789	682.25
637.986	664.42
638.184	664.04
638.382	714.22
638.58	669.46
638.777	721.77
638.975	654.35
639.173	651.83
639.37	668.88
639.568	690.97
639.765	675.47
639.963	669.66
640.161	695.81
640.358	661.52
640.556	636.72
640.753	612.89
640.951	598.74
641.148	685.35
641.346	621.41
641.543	644.08
641.741	647.96
641.938	623.93
642.136	644.86
642.333	598.16
642.531	672.56
642.728	706.47
642.925	644.27
643.123	646.21
643.32	639.82
643.517	600.29
643.715	636.33
643.912	625.87
644.109	661.32
644.306	591.57
644.504	588.28
644.701	653.19
644.898	650.47
645.095	583.82
645.293	646.99
645.49	642.92
645.687	626.06
645.884	666.36
646.081	571.23
646.278	611.92
646.475	577.63
646.672	594.87
646.87	623.54
647.067	605.14
647.264	610.56
647.461	558.25
647.658	529.58
647.855	628.19
648.052	582.86
648.249	495.09
648.446	549.14
648.642	556.89
648.839	535.39
649.036	528.41
649.233	509.43
649.43	534.03
649.627	534.23
649.824	547.98
650.021	548.95
650.217	526.09
650.414	524.15
650.611	591.77
650.808	551.28
651.004	562.51
651.201	567.55
651.398	589.64
651.595	560.38
651.791	557.28
651.988	553.99
652.185	509.62
652.381	572.39
652.578	542.36
652.775	570.26
652.971	558.64
653.168	545.85
653.364	561.93
653.561	476.68
653.757	568.91
653.954	543.53
654.15	524.73
654.347	609.98
654.543	557.09
654.74	520.08
654.936	488.31
655.133	528.41
655.329	550.89
655.525	530.54
655.722	572.98
655.918	518.92
656.115	547.59
656.311	479.98
656.507	458.66
656.704	439.29
656.9	464.86
657.096	439.1
657.292	461.18
657.489	526.48
657.685	508.84
657.881	503.03
658.077	467.77
658.273	503.42
658.47	550.11
658.666	487.73
658.862	562.9
659.058	499.74
659.254	543.91
659.45	493.15
659.646	548.76
659.842	500.51
660.038	557.86
660.234	467.38
660.43	508.26
660.626	572.59
660.822	544.49
661.018	504.58
661.214	502.45
661.41	469.32
661.606	558.83
661.802	550.11
661.998	521.44
662.194	471.84
662.39	528.22
662.586	536.55
662.781	530.93
662.977	540.62
663.173	534.81
663.369	523.76
663.564	507.88
663.76	544.3
663.956	508.46
664.152	532.68
664.347	438.13
664.543	505.94
664.739	512.14
664.934	438.9
665.13	444.71
665.326	529.77
665.521	496.64
665.717	452.08
665.912	459.05
666.108	447.43
666.304	457.7
666.499	458.86
666.695	390.66
666.89	467.96
667.086	528.99
667.281	498.96
667.477	539.07
667.672	476.68
667.867	441.03
668.063	485.21
668.258	445.68
668.454	462.15
668.649	553.99
668.844	485.21
669.04	512.91
669.235	452.85
669.43	423.01
669.626	419.33
669.821	438.13
670.016	415.26
670.211	472.42
670.407	450.91
670.602	452.66
670.797	477.85
670.992	494.12
671.187	447.23
671.382	494.31
671.578	463.9
671.773	493.35
671.968	433.86
672.163	473.2
672.358	454.79
672.553	433.09
672.748	457.31
672.943	530.54
673.138	451.3
673.333	478.04
673.528	417.2
673.723	449.95
673.918	441.03
674.113	425.34
674.308	516.4
674.503	462.54
674.698	455.18
674.892	467
675.087	478.43
675.282	498.38
675.477	423.79
675.672	444.13
675.867	452.46
676.061	420.3
676.256	403.25
676.451	423.4
676.646	451.11
676.84	410.23
677.035	396.67
677.23	426.7
677.424	437.35
677.619	472.03
677.814	482.88
678.008	501.87
678.203	381.36
678.397	421.85
678.592	460.8
678.787	494.51
678.981	429.99
679.176	465.83
679.37	435.8
679.565	424.76
679.759	393.76
679.954	456.15
680.148	512.33
680.342	469.9
680.537	460.02
680.731	445.49
680.926	460.41
681.12	453.24
681.314	408.29
681.509	419.91
681.703	454.4
681.897	441.03
682.092	455.56
682.286	427.86
682.48	489.28
682.674	466.61
682.869	450.14
683.063	453.24
683.257	485.4
683.451	388.92
683.645	453.43
683.839	423.6
684.034	438.51
684.228	476.3
684.422	409.06
684.616	398.02
684.81	471.84
685.004	416.23
685.198	428.63
685.392	458.08
685.586	400.93
685.78	445.68
685.974	450.53
686.168	467.77
686.362	495.86
686.556	384.85
686.75	382.52
686.944	401.9
687.138	411.58
687.331	321.1
687.525	371.67
687.719	308.7
687.913	362.37
688.107	374.38
688.301	352.1
688.494	375.35
688.688	342.22
688.882	339.9
689.076	304.25
689.269	356.56
689.463	441.23
689.657	367.8
689.85	365.08
690.044	407.13
690.238	380.97
690.431	371.67
690.625	378.26
690.818	408.87
691.012	416.81
691.205	441.03
691.399	371.09
691.593	441.81
691.786	446.26
691.98	460.8
692.173	497.99
692.366	453.63
692.56	500.13
692.753	521.63
692.947	429.6
693.14	509.62
693.333	535.97
693.527	468.35
693.72	514.66
693.914	478.81
694.107	485.79
694.3	502.45
694.493	474.16
694.687	559.8
694.88	504.97
695.073	573.75
695.266	573.17
695.46	524.93
695.653	587.89
695.846	566.97
696.039	498.77
696.232	536.36
696.425	597.77
696.618	620.64
696.812	581.69
697.005	639.24
697.198	729.91
697.391	644.47
697.584	674.5
697.777	702.4
697.97	688.45
698.163	663.46
698.356	671.4
698.549	770.4
698.742	717.9
698.935	676.05
699.127	685.93
699.32	675.27
699.513	673.53
699.706	720.42
699.899	717.32
700.092	710.54
700.285	732.43
700.477	695.04
700.67	724.29
700.863	750.25
701.056	825.23
701.248	792.68
701.441	799.66
701.634	760.13
701.826	886.07
702.019	759.75
702.212	838.22
702.404	787.45
702.597	776.02
702.79	799.08
702.982	832.02
703.175	869.41
703.367	880.26
703.56	886.07
703.752	971.51
703.945	913.58
704.137	933.54
704.33	936.25
704.522	954.27
704.715	939.35
704.907	956.79
705.1	1000.38
705.292	987.59
705.484	1007.55
705.677	1041.65
705.869	1028.28
706.061	1044.56
706.254	1078.27
706.446	1035.84
706.638	1001.74
706.831	1096.87
707.023	1048.43
707.215	1149.57
707.407	1153.83
707.599	1085.44
707.792	1171.85
707.984	1127.29
708.176	1177.85
708.368	1120.7
708.56	1193.74
708.752	1168.94
708.944	1174.75
709.136	1182.5
709.329	1182.5
709.521	1299.72
709.713	1269.69
709.905	1269.88
710.097	1319.68
710.289	1253.22
710.481	1252.45
710.672	1274.92
710.864	1292.75
711.056	1339.83
711.248	1319.48
711.44	1339.63
711.632	1329.75
711.824	1341.96
712.016	1424.11
712.207	1379.93
712.399	1384.58
712.591	1439.8
712.783	1431.47
712.975	1439.8
713.166	1365.98
713.358	1415.39
713.55	1493.27
713.741	1471.77
713.933	1489.4
714.125	1457.82
714.316	1459.76
714.508	1509.74
714.7	1485.14
714.891	1517.49
715.083	1545.97
715.274	1516.33
715.466	1499.09
715.657	1547.91
715.849	1464.99
716.04	1510.71
716.232	1475.45
716.423	1521.76
716.615	1470.8
716.806	1453.17
716.998	1423.91
717.189	1347
717.381	1302.05
717.572	1280.35
717.763	1328.2
717.955	1301.46
718.146	1280.15
718.337	1241.6
718.528	1192.97
718.72	1148.6
718.911	1247.02
719.102	1156.15
719.293	1232.68
719.485	1184.25
719.676	1214.86
719.867	1178.63
720.058	1178.82
720.249	1196.45
720.44	1216.22
720.632	1247.8
720.823	1281.32
721.014	1363.66
721.205	1360.17
721.396	1438.83
721.587	1490.17
721.778	1520.59
721.969	1546.55
722.16	1542.29
722.351	1564.38
722.542	1652.73
722.733	1691.28
722.924	1553.92
723.115	1651.37
723.305	1668.42
723.496	1653.7
723.687	1538.61
723.878	1534.54
724.069	1558.57
724.26	1575.42
724.45	1533.77
724.641	1470.8
724.832	1545.97
725.023	1541.32
725.213	1525.63
725.404	1493.66
725.595	1518.66
725.785	1487.66
725.976	1539.77
726.167	1542.87
726.357	1517.11
726.548	1618.44
726.739	1533.19
726.929	1601.19
727.12	1596.74
727.31	1682.18
727.501	1594.8
727.691	1620.95
727.882	1601.39
728.072	1618.24
728.263	1631.8
728.453	1651.37
728.644	1668.03
728.834	1668.62
729.024	1627.35
729.215	1641.88
729.405	1684.5
729.596	1734.3
729.786	1742.63
729.976	1745.15
730.167	1734.68
730.357	1659.32
730.547	1707.56
730.737	1758.71
730.928	1743.21
731.118	1838.92
731.308	1747.47
731.498	1770.14
731.688	1872.83
731.879	1817.8
732.069	1836.79
732.259	1871.66
732.449	1876.89
732.639	1958.66
732.829	1970.47
733.019	1965.63
733.209	2052.04
733.399	2023.56
733.589	2083.43
733.779	2077.23
733.969	2063.28
734.159	2155.7
734.349	2196.96
734.539	2209.75
734.729	2162.48
734.919	2241.53
735.109	2240.17
735.299	2203.55
735.488	2243.08
735.678	2214.21
735.868	2220.8
736.058	2251.41
736.248	2209.36
736.437	2184.18
736.627	2141.75
736.817	2271.17
737.007	2210.14
737.196	2245.01
737.386	2191.93
737.576	2217.11
737.765	2302.36
737.955	2264.39
738.144	2348.67
738.334	2310.31
738.524	2237.26
738.713	2233
738.903	2273.49
739.092	2323.29
739.282	2337.43
739.471	2304.3
739.661	2299.65
739.85	2375.99
740.04	2349.44
740.229	2377.34
740.419	2434.3
740.608	2388.58
740.797	2369.01
740.987	2461.43
741.176	2416.29
741.365	2364.94
741.555	2365.33
741.744	2401.56
741.933	2396.91
742.123	2441.09
742.312	2418.8
742.501	2461.43
742.69	2444.19
742.88	2388.97
743.069	2473.64
743.258	2401.56
743.447	2465.3
743.636	2463.37
743.825	2434.11
744.014	2423.45
744.204	2528.47
744.393	2423.84
744.582	2464.14
744.771	2511.61
744.96	2436.24
745.149	2526.33
745.338	2441.28
745.527	2483.9
745.716	2427.52
745.905	2482.94
746.094	2542.8
746.283	2493.2
746.471	2486.23
746.66	2521.88
746.849	2502.31
747.038	2563.53
747.227	2463.75
747.416	2487.97
747.604	2453.49
747.793	2463.75
747.982	2498.05
748.171	2503.86
748.359	2498.82
748.548	2512.97
748.737	2503.47
748.926	2480.8
749.114	2369.4
749.303	2475.38
749.491	2437.4
749.68	2407.76
749.869	2506.57
750.057	2467.63
750.246	2451.55
750.434	2455.62
750.623	2474.22
750.811	2461.62
751	2481.97
751.188	2458.72
751.377	2479.06
751.565	2424.04
751.754	2400.4
751.942	2429.85
752.131	2487.2
752.319	2399.24
752.507	2364.56
752.696	2459.49
752.884	2479.06
753.072	2439.73
753.261	2432.75
753.449	2414.93
753.637	2416.29
753.825	2532.53
754.014	2401.76
754.202	2420.94
754.39	2477.12
754.578	2473.83
754.766	2400.79
754.955	2394.59
755.143	2499.21
755.331	2374.44
755.519	2391.87
755.707	2376.96
755.895	2409.51
756.083	2389.16
756.271	2363.59
756.459	2358.16
756.647	2458.33
756.835	2346.34
757.023	2389.94
757.211	2388.77
757.399	2323.68
757.587	2324.26
757.775	2287.83
757.963	2350.99
758.151	2312.83
758.339	2331.81
758.526	2290.35
758.714	2338.01
758.902	2213.63
759.09	2203.55
759.278	2074.32
759.465	1890.84
759.653	1640.13
759.841	1524.86
760.028	1259.03
760.216	1111.98
760.404	1048.62
760.591	870.38
760.779	720.42
760.967	616.96
761.154	522.6
761.342	516.21
761.529	581.69
761.717	616.18
761.905	596.81
762.092	629.74
762.28	544.88
762.467	583.63
762.655	530.54
762.842	555.54
763.029	567.94
763.217	559.41
763.404	591.38
763.592	605.91
763.779	578.4
763.966	622.57
764.154	641.37
764.341	688.45
764.528	693.1
764.716	716.35
764.903	750.25
765.09	784.55
765.277	854.1
765.465	967.44
765.652	981.78
765.839	1040.1
766.026	1154.99
766.213	1153.44
766.4	1227.07
766.588	1415
766.775	1357.65
766.962	1425.66
767.149	1483.01
767.336	1617.08
767.523	1539.97
767.71	1650.21
767.897	1750.18
768.084	1806.95
768.271	1774.01
768.458	1843.57
768.645	1906.73
768.832	1854.23
769.019	1867.01
769.206	1922.23
769.392	1961.17
769.579	2044.87
769.766	1981.13
769.953	1995.47
770.14	2020.65
770.327	1997.79
770.513	2057.66
770.7	2118.69
770.887	2019.49
771.073	2082.46
771.26	2057.66
771.447	2056.5
771.634	2036.54
771.82	2093.7
772.007	2041.39
772.193	2064.83
772.38	2114.62
772.567	2077.23
772.753	2071.61
772.94	2110.17
773.126	2150.27
773.313	2141.55
773.499	2126.05
773.686	2108.62
773.872	2051.65
774.059	2061.92
774.245	2018.91
774.432	2059.4
774.618	2000.31
774.804	2076.07
774.991	2021.04
775.177	2091.95
775.363	2031.31
775.55	2068.12
775.736	2025.11
775.922	2004.38
776.109	2057.47
776.295	2057.47
776.481	2076.07
776.667	2032.47
776.853	2065.02
777.04	2018.14
777.226	2005.35
777.412	2103.77
777.598	2004.77
777.784	1984.42
777.97	1987.33
778.156	2002.64
778.342	2005.35
778.528	2033.44
778.715	1942.77
778.901	1941.02
779.087	1987.33
779.272	1951.87
779.458	1968.15
779.644	1977.06
779.83	1965.44
780.016	2078.58
780.202	1958.85
780.388	1926.69
780.574	1874.18
780.76	1909.25
780.946	1985.97
781.131	1934.05
781.317	1943.16
781.503	1890.46
781.689	1875.93
781.874	2030.34
782.06	1894.14
782.246	1940.64
782.432	1888.52
782.617	1956.33
782.803	1969.31
782.989	1892.78
783.174	1907.89
783.36	1836.01
783.545	1874.57
783.731	1894.14
783.916	1822.26
784.102	1912.54
784.288	1851.32
784.473	1839.31
784.659	1842.99
784.844	1907.89
785.029	1793.58
785.215	1848.03
785.4	1810.83
785.586	1909.64
785.771	1800.17
785.956	1840.86
786.142	1811.21
786.327	1778.86
786.512	1809.08
786.698	1797.65
786.883	1746.7
787.068	1784.28
787.254	1794.75
787.439	1775.76
787.624	1761.81
787.809	1783.31
787.994	1743.01
788.18	1808.31
788.365	1709.3
788.55	1740.5
788.735	1762.78
788.92	1749.02
789.105	1726.55
789.29	1795.13
789.475	1704.27
789.66	1712.4
789.845	1691.09
790.03	1663.97
790.215	1731.58
790.4	1759.87
790.585	1766.85
790.77	1716.08
790.955	1630.84
791.14	1681.21
791.325	1742.24
791.51	1597.51
791.695	1678.88
791.879	1654.28
792.064	1625.6
792.249	1700.97
792.434	1643.62
792.618	1672.1
792.803	1707.75
792.988	1647.69
793.173	1679.66
793.357	1679.08
793.542	1642.65
793.727	1678.3
793.911	1693.03
794.096	1636.26
794.281	1697.68
794.465	1763.16
794.65	1689.93
794.834	1706.4
795.019	1733.91
795.203	1726.55
795.388	1717.83
795.572	1735.85
795.757	1676.56
795.941	1721.12
796.126	1717.05
796.31	1633.55
796.494	1718.99
796.679	1653.31
796.863	1671.72
797.048	1740.69
797.232	1683.73
797.416	1710.66
797.601	1665.32
797.785	1760.45
797.969	1751.35
798.153	1688.77
798.338	1687.8
798.522	1725.77
798.706	1724.41
798.89	1739.53
799.074	1807.73
799.258	1818.19
799.443	1731
799.627	1690.51
799.811	1738.17
799.995	1680.24
800.179	1666.29
800.363	1691.28
800.547	1737.59
800.731	1736.04
800.915	1657.38
801.099	1645.56
801.283	1692.64
801.467	1685.67
801.651	1698.45
801.835	1761.81
802.019	1688.57
802.202	1723.64
802.386	1663.58
802.57	1665.32
802.754	1673.85
802.938	1672.88
803.121	1670.17
803.305	1727.71
803.489	1711.05
803.673	1679.85
803.856	1703.88
804.04	1688.18
804.224	1705.04
804.407	1684.7
804.591	1684.7
804.775	1688.18
804.958	1716.67
805.142	1816.64
805.326	1684.31
805.509	1702.91
805.693	1725.19
805.876	1729.06
806.06	1710.47
806.243	1669.97
806.427	1696.13
806.61	1751.73
806.794	1701.17
806.977	1747.47
807.16	1717.83
807.344	1726.55
807.527	1718.22
807.71	1703.68
807.894	1730.23
808.077	1765.68
808.26	1690.51
808.444	1673.27
808.627	1718.02
808.81	1675.59
808.993	1603.52
809.177	1645.37
809.36	1663.38
809.543	1696.9
809.726	1575.42
809.909	1622.89
810.092	1574.45
810.276	1601.97
810.459	1595.19
810.642	1628.7
810.825	1568.25
811.008	1584.14
811.191	1481.07
811.374	1505.09
811.557	1534.54
811.74	1588.4
811.923	1498.51
812.106	1516.33
812.289	1451.04
812.472	1452.59
812.654	1490.56
812.837	1458.21
813.02	1457.24
813.203	1403.57
813.386	1325.3
813.569	1328.98
813.751	1333.82
813.934	1360.95
814.117	1307.28
814.3	1295.46
814.482	1266.4
814.665	1216.99
814.848	1184.05
815.03	1177.27
815.213	1173.98
815.396	1131.74
815.578	1132.9
815.761	1122.83
815.943	1212.34
816.126	1084.08
816.309	1078.07
816.491	1026.92
816.674	1008.33
816.856	1036.61
817.039	1063.16
817.221	1100.55
817.403	1065.09
817.586	1089.12
817.768	1085.24
817.951	1014.33
818.133	1025.57
818.315	1042.23
818.498	1088.34
818.68	1113.92
818.862	1110.24
819.045	1131.74
819.227	1091.44
819.409	1034.48
819.591	1133.49
819.774	1060.06
819.956	995.73
820.138	1128.25
820.32	1100.55
820.502	1145.11
820.684	1214.08
820.866	1191.8
821.048	1216.02
821.231	1247.22
821.413	1210.98
821.595	1184.83
821.777	1209.05
821.959	1210.79
822.141	1285.19
822.323	1118.95
822.505	1130.58
822.686	1057.73
822.868	1059.09
823.05	969.38
823.232	992.63
823.414	899.83
823.596	937.03
823.778	960.47
823.96	943.81
824.141	945.94
824.323	973.45
824.505	1027.7
824.687	1088.15
824.868	1113.72
825.05	1203.04
825.232	1169.91
825.413	1215.25
825.595	1175.72
825.777	1108.3
825.958	1188.12
826.14	1152.28
826.321	1167.97
826.503	1150.73
826.685	1173.59
826.866	1200.13
827.048	1181.73
827.229	1125.54
827.411	1139.1
827.592	1099.77
827.773	1115.08
827.955	1042.81
828.136	1086.41
828.318	1033.12
828.499	1078.85
828.68	1034.48
828.862	1054.63
829.043	1077.69
829.224	1052.31
829.406	1030.99
829.587	1076.52
829.768	1042.62
829.949	1067.81
830.131	1059.86
830.312	1074.01
830.493	1041.26
830.674	1107.72
830.855	1025.18
831.036	1047.66
831.218	1088.73
831.399	1145.5
831.58	1082.72
831.761	1064.32
831.942	1092.8
832.123	1046.69
832.304	1034.29
832.485	1041.07
832.666	1080.59
832.847	1059.09
833.028	1034.48
833.209	1073.62
833.389	1055.79
833.57	986.82
833.751	1039.52
833.932	1105.01
834.113	1039.91
834.294	1014.72
834.475	1069.55
834.655	1099
834.836	1113.92
835.017	1101.71
835.198	1003.09
835.378	1059.86
835.559	1119.92
835.74	1029.83
835.92	1061.61
836.101	1049.59
836.281	1080.4
836.462	1071.1
836.643	1133.1
836.823	1115.08
837.004	1113.53
837.184	1145.3
837.365	1120.31
837.545	1108.88
837.726	1082.53
837.906	1156.15
838.087	1099.19
838.267	1103.07
838.448	1069.94
838.628	1113.72
838.808	1078.27
838.989	1162.74
839.169	1040.1
839.349	1122.64
839.53	1127.09
839.71	1116.24
839.89	1087.76
840.07	1123.8
840.251	1051.34
840.431	1113.72
840.611	1068.77
840.791	1071.1
840.971	1094.74
841.151	1107.14
841.332	1081.95
841.512	1130.58
841.692	1015.11
841.872	1115.66
842.052	1069.36
842.232	1144.53
842.412	1046.3
842.592	1061.41
842.772	1144.92
842.952	1082.34
843.132	1052.69
843.312	1043.2
843.492	1029.06
843.672	1095.9
843.851	1005.81
844.031	1095.9
844.211	1065.67
844.391	1044.94
844.571	1067.42
844.751	1099.58
844.93	1062.77
845.11	1042.23
845.29	1074.78
845.47	1100.94
845.649	1064.12
845.829	1113.53
846.009	1016.66
846.188	1037.58
846.368	1050.37
846.547	1079.62
846.727	1090.67
846.907	1036.03
847.086	1060.25
847.266	1086.21
847.445	1037.39
847.625	1007.94
847.804	1042.42
847.984	1058.7
848.163	1039.13
848.343	1010.46
848.522	1042.81
848.701	1062.96
848.881	999.61
849.06	1040.68
849.239	1042.23
849.419	1054.82
849.598	1006.78
849.777	1004.64
849.957	972.68
850.136	942.06
850.315	902.35
850.494	930.83
850.674	913.97
850.853	987.59
851.032	930.25
851.211	978.1
851.39	981.98
851.569	913.58
851.748	900.02
851.927	989.92
852.107	988.56
852.286	926.18
852.465	927.15
852.644	974.61
852.823	954.66
853.002	958.73
853.181	938.96
853.359	942.45
853.538	917.65
853.717	998.44
853.896	903.12
854.075	855.07
854.254	825.62
854.433	800.82
854.611	861.85
854.79	798.88
854.969	833.57
855.148	859.91
855.327	809.93
855.505	861.66
855.684	847.9
855.863	871.15
856.041	849.45
856.22	844.8
856.399	841.9
856.577	918.62
856.756	897.11
856.934	1027.31
857.113	1016.66
857.291	923.85
857.47	904.28
857.648	911.06
857.827	921.53
858.005	935.48
858.184	879.87
858.362	981.39
858.541	893.63
858.719	901.57
858.898	897.5
859.076	875.61
859.254	977.33
859.433	885.88
859.611	877.55
859.789	821.75
859.967	961.05
860.146	977.91
860.324	867.66
860.502	878.13
860.68	869.41
860.859	857.59
861.037	867.47
861.215	888.01
861.393	866.5
861.571	859.14
861.749	857.4
861.927	879.68
862.105	873.48
862.283	862.24
862.461	838.8
862.639	825.23
862.817	843.25
862.995	861.85
863.173	852.94
863.351	846.16
863.529	854.68
863.707	896.34
863.885	862.82
864.063	795.01
864.241	789.39
864.418	892.66
864.596	826.4
864.774	824.07
864.952	839.77
865.129	864.76
865.307	793.85
865.485	814.97
865.663	857.4
865.84	792.3
866.018	794.62
866.196	667.72
866.373	727.78
866.551	711.12
866.728	688.84
866.906	687.48
867.084	729.33
867.261	737.08
867.439	752.19
867.616	791.13
867.794	741.92
867.971	794.62
868.149	769.43
868.326	825.62
868.503	831.05
868.681	792.1
868.858	739.79
869.035	771.37
869.213	799.27
869.39	753.55
869.567	814.38
869.745	776.41
869.922	788.62
870.099	824.65
870.276	804.89
870.454	808.38
870.631	807.99
870.808	774.47
870.985	834.53
871.162	858.36
871.339	807.02
871.517	752.58
871.694	750.64
871.871	732.82
872.048	728.36
872.225	745.41
872.402	792.68
872.579	712.67
872.756	789.78
872.933	722.55
873.11	728.55
873.287	778.15
873.463	722.55
873.64	715.96
873.817	728.55
873.994	699.49
874.171	714.6
874.348	791.91
874.524	673.72
874.701	718.48
874.878	660.36
875.055	739.21
875.231	712.47
875.408	746.77
875.585	648.15
875.762	733.59
875.938	718.87
876.115	714.99
876.291	689.8
876.468	680.89
876.645	675.85
876.821	683.02
876.998	665.59
877.174	715.57
877.351	661.32
877.527	656.87
877.704	704.34
877.88	693.68
878.057	666.17
878.233	705.3
878.409	705.69
878.586	704.34
878.762	687.09
878.938	704.72
879.115	635.94
879.291	662.87
879.467	608.24
879.644	632.84
879.82	704.72
879.996	637.49
880.172	601.26
880.349	647.37
880.525	699.3
880.701	652.61
880.877	627.03
881.053	644.08
881.229	643.11
881.405	668.49
881.581	646.21
881.757	628.19
881.933	634.2
882.109	666.56
882.285	662.49
882.461	597.19
882.637	640.79
882.813	609.98
882.989	661.91
883.165	703.75
883.341	618.7
883.517	644.27
883.693	638.46
883.869	670.82
884.044	620.83
884.22	657.45
884.396	700.27
884.572	657.64
884.747	699.49
884.923	667.33
885.099	674.69
885.275	694.26
885.45	609.98
885.626	612.31
885.801	635.17
885.977	611.53
886.153	565.03
886.328	658.81
886.504	663.46
886.679	656.87
886.855	621.41
887.03	646.79
887.206	660.36
887.381	639.43
887.557	645.63
887.732	660.74
887.908	628.97
888.083	662.87
888.258	650.09
888.434	631.49
888.609	608.43
888.784	697.36
888.96	637.69
889.135	616.96
889.31	626.45
889.485	638.85
889.661	630.91
889.836	698.91
890.011	641.56
890.186	631.1
890.361	592.35
890.537	636.14
890.712	639.82
890.887	659
891.062	618.31
891.237	685.15
891.412	607.85
891.587	657.84
891.762	644.27
891.937	696.39
892.112	596.03
892.287	631.68
892.462	615.79
892.637	575.3
892.812	603.59
892.987	567.55
893.161	580.73
893.336	605.14
893.511	584.6
893.686	609.01
893.861	578.79
894.035	580.14
894.21	579.18
894.385	550.5
894.56	583.63
894.734	540.04
894.909	510.59
895.084	522.99
895.258	523.76
895.433	543.91
895.608	546.43
895.782	480.56
895.957	505.36
896.131	499.93
896.306	444.33
896.48	454.21
896.655	468.55
896.829	399.18
897.004	420.3
897.178	441.23
897.353	407.13
897.527	462.15
897.701	465.25
897.876	408.1
898.05	463.31
898.224	465.64
898.399	495.86
898.573	438.9
898.747	347.45
898.921	432.12
899.096	347.45
899.27	335.44
899.444	330.21
899.618	371.67
899.792	361.21
899.967	369.54
900.141	401.51
900.315	354.43
900.489	388.92
900.663	415.07
900.837	375.93
901.011	338.35
901.185	460.8
901.359	378.45
901.533	362.95
901.707	387.95
901.881	385.82
902.055	314.9
902.229	352.3
902.403	424.95
902.576	363.34
902.75	413.91
902.924	490.83
903.098	388.14
903.272	458.66
903.446	442.58
903.619	435.22
903.793	468.55
903.967	438.51
904.14	481.72
904.314	491.6
904.488	476.1
904.661	479.78
904.835	472.03
905.009	495.86
905.182	540.62
905.356	483.66
905.529	491.21
905.703	431.54
905.876	473.39
906.05	417.98
906.223	386.98
906.397	373.42
906.57	396.28
906.744	343.19
906.917	370.7
907.09	377.48
907.264	377.1
907.437	364.7
907.61	347.65
907.784	346.1
907.957	366.44
908.13	312.39
908.304	370.7
908.477	315.68
908.65	344.55
908.823	305.22
908.996	396.28
909.17	342.03
909.343	343.19
909.516	336.02
909.689	313.94
909.862	313.74
910.035	343.97
910.208	313.35
910.381	318
910.554	418.75
910.727	319.94
910.9	301.15
911.073	301.54
911.246	370.51
911.419	383.88
911.592	353.27
911.765	306.57
911.938	323.82
912.11	329.82
912.283	331.95
912.456	372.25
912.629	362.95
912.802	323.82
912.974	289.14
913.147	264.53
913.32	222.1
913.493	240.31
913.665	295.14
913.838	289.91
914.01	273.64
914.183	267.24
914.356	256.78
914.528	310.25
914.701	354.62
914.873	331.76
915.046	271.31
915.218	255.04
915.391	223.65
915.563	234.69
915.736	285.84
915.908	316.26
916.081	287.59
916.253	256
916.425	286.42
916.598	293.98
916.77	285.65
916.942	256.78
917.115	203.89
917.287	297.08
917.459	292.43
917.632	229.27
917.804	218.42
917.976	287
918.148	246.12
918.32	224.81
918.493	275.19
918.665	300.76
918.837	275.96
919.009	355.98
919.181	336.99
919.353	308.9
919.525	294.17
919.697	283.9
919.869	298.82
920.041	335.44
920.213	382.72
920.385	310.45
920.557	252.32
920.729	316.26
920.901	313.94
921.073	299.99
921.244	239.73
921.416	318.97
921.588	301.73
921.76	287
921.932	360.05
922.103	292.62
922.275	272.09
922.447	300.95
922.619	243.99
922.79	280.22
922.962	262.79
923.134	297.85
923.305	244.96
923.477	246.7
923.648	236.63
923.82	270.54
923.991	218.42
924.163	200.59
924.335	249.22
924.506	228.3
924.677	287.78
924.849	213.77
925.02	248.45
925.192	263.37
925.363	254.65
925.535	236.24
925.706	228.49
925.877	307.74
926.049	237.21
926.22	270.15
926.391	266.27
926.562	282.74
926.734	207.37
926.905	281.58
927.076	192.84
927.247	208.15
927.419	198.27
927.59	211.06
927.761	220.74
927.932	176.57
928.103	204.08
928.274	176.76
928.445	147.12
928.616	190.71
928.787	186.26
928.958	228.49
929.129	193.81
929.3	187.22
929.471	158.74
929.642	123.87
929.813	75.63
929.984	173.66
930.155	103.33
930.326	146.54
930.496	133.17
930.667	39.98
930.838	138.59
931.009	91.32
931.18	106.04
931.35	102.56
931.521	106.63
931.692	45.21
931.863	21.96
932.033	86.48
932.204	80.86
932.374	74.85
932.545	79.5
932.716	75.43
932.886	80.08
933.057	18.28
933.227	49.86
933.398	115.15
933.568	27.77
933.739	1.61
933.909	11.5
934.08	63.81
934.25	-8.46
934.421	24.09
934.591	27.19
934.761	12.27
934.932	-11.95
935.102	15.76
935.272	16.73
935.443	44.82
935.613	8.78
935.783	52.18
935.953	-33.07
936.123	152.74
936.294	-10.98
936.464	19.25
936.634	32.23
936.804	9.56
936.974	-20.28
937.144	65.16
937.314	15.56
937.484	-4.59
937.655	-19.7
937.825	66.13
937.995	-0.52
938.165	59.74
938.334	-1.87
938.504	31.84
938.674	-23.38
938.844	13.24
939.014	65.94
939.184	58.58
939.354	111.47
939.524	88.41
939.694	15.76
939.863	35.71
940.033	121.93
940.203	88.99
940.373	110.31
940.542	86.67
940.712	16.15
940.882	85.89
941.051	97.33
941.221	93.45
941.391	121.54
941.56	45.79
941.73	35.71
941.899	161.46
942.069	45.01
942.238	52.76
942.408	57.8
942.577	85.12
942.747	33.58
942.916	21.38
943.086	30.29
943.255	69.23
943.425	61.29
943.594	25.64
943.763	5.88
943.933	25.45
944.102	-29.77
944.271	36.68
944.441	51.41
944.61	14.21
944.779	40.36
944.948	107.4
945.117	20.02
945.287	15.37
945.456	-4.78
945.625	4.91
945.794	21.96
945.963	3.36
946.132	40.36
946.301	15.18
946.47	52.76
946.639	-16.4
946.808	18.66
946.977	45.98
947.146	66.91
947.315	32.42
947.484	49.28
947.653	41.14
947.822	31.26
947.991	-25.51
948.16	96.36
948.329	68.26
948.498	27.19
948.666	12.46
948.835	55.28
949.004	-10.79
949.173	6.65
949.341	57.61
949.51	75.04
949.679	82.02
949.847	62.84
950.016	102.75
950.185	74.85
950.353	29.51
950.522	52.57
950.69	75.63
950.859	25.06
951.028	72.14
951.196	59.74
951.365	18.66
951.533	35.91
951.701	56.06
951.87	83.38
952.038	11.69
952.207	56.06
952.375	111.28
952.543	10.53
952.712	26.22
952.88	20.41
953.048	114.57
953.217	68.65
953.385	44.63
953.553	95
953.721	-1.87
953.89	50.83
954.058	-14.47
954.226	15.18
954.394	27.77
954.562	-12.72
954.73	43.46
954.898	28.93
955.067	70.98
955.235	12.85
955.403	66.33
955.571	101.01
955.739	76.01
955.907	-2.45
956.075	33.58
956.243	16.15
956.41	71.17
956.578	-23.96
956.746	-1.49
956.914	30.68
957.082	72.91
957.25	46.18
957.418	-5.17
957.585	44.82
957.753	66.33
957.921	-7.1
958.089	34.94
958.256	54.31
958.424	61.87
958.592	39.78
958.759	23.51
958.927	58.38
959.095	22.93
959.262	50.05
959.43	49.86
959.597	-1.87
959.765	18.08
959.932	0.06
960.1	58
960.267	30.29
960.435	41.91
960.602	65.94
960.77	8.4
960.937	3.75
961.104	49.28
961.272	-30.93
961.439	30.87
961.606	52.96
961.774	65.16
961.941	42.88
962.108	34.75
962.275	39.98
962.443	87.25
962.61	56.06
962.777	120.58
962.944	60.9
963.111	60.32
963.278	61.48
963.446	73.69
963.613	39.59
963.78	57.41
963.947	55.48
964.114	51.02
964.281	121.35
964.448	43.08
964.615	35.33
964.782	43.66
964.949	72.91
965.116	60.71
965.282	113.99
965.449	33.97
965.616	45.98
965.783	80.86
965.95	72.72
966.117	5.1
966.283	48.7
966.45	52.18
966.617	51.41
966.784	132.78
966.95	70.2
967.117	76.21
967.284	32.23
967.45	37.26
967.617	92.48
967.784	95.39
967.95	95.58
968.117	47.15
968.283	107.4
968.45	151.57
968.616	61.87
968.783	89.19
968.949	55.09
969.116	77.18
969.282	45.98
969.449	97.71
969.615	49.47
969.781	31.45
969.948	44.43
970.114	19.25
970.28	111.28
970.447	66.52
970.613	94.23
970.779	44.43
970.945	53.54
971.112	61.09
971.278	50.63
971.444	36.68
971.61	93.06
971.776	28.93
971.942	60.71
972.108	76.79
972.275	64.97
972.441	64.19
972.607	137.04
972.773	26.03
972.939	60.13
973.105	56.83
973.271	24.48
973.437	46.18
973.602	36.1
973.768	72.72
973.934	40.17
974.1	80.47
974.266	-2.65
974.432	75.24
974.598	61.29
974.763	67.88
974.929	37.85
975.095	119.41
975.261	31.84
975.426	22.73
975.592	37.46
975.758	107.21
975.923	20.8
976.089	42.88
976.255	69.43
976.42	64.39
976.586	81.44
976.751	58.38
976.917	132.78
977.082	47.92
977.248	16.73
977.413	24.09
977.579	55.86
977.744	55.09
977.91	10.91
978.075	35.71
978.24	108.18
978.406	35.91
978.571	-0.71
978.736	26.61
978.902	81.63
979.067	4.91
979.232	2
979.397	73.69
979.563	97.13
979.728	39.01
979.893	64
980.058	27.19
980.223	74.85
980.388	64.39
980.554	52.76
980.719	41.91
980.884	53.15
981.049	78.73
981.214	39.2
981.379	72.33
981.544	57.22
981.709	19.25
981.874	41.72
982.039	62.45
982.204	47.92
982.368	58.58
982.533	22.73
982.698	85.31
982.863	95.78
983.028	6.65
983.193	56.45
983.357	59.74
983.522	52.57
983.687	30.68
983.852	39.2
984.016	19.25
984.181	73.11
984.346	91.32
984.51	66.13
984.675	59.54
984.839	75.43
985.004	81.44
985.168	93.06
985.333	41.91
985.498	26.61
985.662	80.28
985.827	47.15
985.991	28.35
986.155	24.86
986.32	80.28
986.484	123.87
986.649	57.41
986.813	10.14
986.977	63.81
987.142	65.55
987.306	-22.41
987.47	24.28
987.634	28.93
987.799	53.15
987.963	44.63
988.127	82.79
988.291	107.59
988.455	52.96
988.62	48.5
988.784	68.65
988.948	81.83
989.112	25.25
989.276	62.64
989.44	40.75
989.604	27.96
989.768	25.45
989.932	98.49
990.096	11.69
990.26	58.38
990.424	-1.68
990.588	51.02
990.752	111.86
990.915	65.74
991.079	33.97
991.243	30.68
991.407	79.31
991.571	37.26
991.734	49.86
991.898	80.28
992.062	159.71
992.226	53.15
992.389	28.74
992.553	-29.38
992.717	11.5
992.88	28.74
993.044	30.1
993.207	28.16
993.371	69.62
993.535	74.66
993.698	49.47
993.862	55.28
994.025	117.48
994.189	39.2
994.352	36.3
994.515	70.01
994.679	90.93
994.842	44.63
995.006	80.47
995.169	9.36
995.332	10.14
995.496	72.91
995.659	6.46
995.822	38.81
995.985	27.77
996.149	80.47
996.312	48.89
996.475	108.76
996.638	18.66
996.801	89.38
996.964	123.68
997.128	52.18
997.291	18.47
997.454	39.01
997.617	0.45
997.78	90.35
997.943	20.8
998.106	55.48
998.269	-5.36
998.432	64
998.595	43.66
998.758	-16.99
998.92	20.41
999.083	-4.97
999.246	52.38
999.409	12.27
999.572	-19.7
999.735	20.02
999.897	46.37
1000.06	10.33
1000.223	6.26
1000.386	74.46
1000.548	68.65
1000.711	56.25
1000.874	45.6
1001.036	-16.21
1001.199	42.69
1001.361	17.11
1001.524	19.25
1001.687	49.08
1001.849	0.65
1002.012	39.98
1002.174	26.03
1002.337	51.41
1002.499	20.21
1002.661	81.83
1002.824	-3.23
1002.986	9.95
1003.149	56.83
1003.311	5.1
1003.473	88.99
1003.636	-2.26
1003.798	26.41
1003.96	26.8
1004.123	26.03
1004.285	18.08
1004.447	10.91
1004.609	-2.45
1004.771	71.56
1004.933	-24.74
1005.096	10.14
1005.258	-35.58
1005.42	-6.52
1005.582	74.85
1005.744	30.68
1005.906	-19.12
1006.068	28.16
1006.23	-16.02
1006.392	-14.85
1006.554	-1.87
1006.716	41.91
1006.878	31.06
1007.04	-29.97
1007.202	27.19
1007.363	25.45
1007.525	28.35
1007.687	27.38
1007.849	48.89
1008.011	-40.82
1008.172	2.39
1008.334	15.37
1008.496	51.41
1008.658	-22.8
1008.819	1.23
1008.981	-34.23
1009.143	-44.3
1009.304	4.91
1009.466	6.65
1009.627	79.11
1009.789	115.93
1009.95	20.41
1010.112	12.08
1010.273	5.49
1010.435	-4.97
1010.596	11.69
1010.758	-9.43
1010.919	5.1
1011.081	-6.52
1011.242	17.89
1011.403	53.15
1011.565	7.81
1011.726	16.73
1011.887	-8.07
1012.049	30.1
1012.21	57.61
1012.371	93.84
1012.532	-41.2
1012.693	9.36
1012.855	5.88
1013.016	12.85
1013.177	55.48
1013.338	20.21
1013.499	72.14
1013.66	50.25
1013.821	17.7
1013.982	25.64
1014.143	20.8
1014.304	-4.59
1014.465	18.86
1014.626	45.98
1014.787	-3.42
1014.948	114.96
1015.109	-39.65
1015.27	75.43
1015.431	-8.27
1015.592	-10.01
1015.752	54.31
1015.913	20.02
1016.074	20.8
1016.235	8.59
1016.395	-11.37
1016.556	24.48
1016.717	12.66
1016.877	18.47
1017.038	-0.13
1017.199	45.79
1017.359	12.08
1017.52	7.62
1017.681	-14.85
1017.841	8.2
1018.002	24.48
1018.162	3.36
1018.323	58
1018.483	5.3
1018.644	3.75
1018.804	-9.24
1018.964	-16.4
1019.125	22.54
1019.285	15.56
1019.446	-6.33
1019.606	-10.01
1019.766	-40.04
1019.926	45.6
1020.087	23.7
1020.247	-4.2
1020.407	36.68
1020.567	46.95
1020.728	11.3
1020.888	-27.84
1021.048	-18.73
1021.208	2
1021.368	3.75
1021.528	52.76
1021.688	25.06
1021.848	39.98
1022.008	23.7
1022.168	-11.75
1022.328	6.65
1022.488	35.91
1022.648	14.01
1022.808	-0.52
1022.968	19.63
1023.128	-5.94
1023.288	-18.54
1023.448	37.07
1023.608	9.95
1023.767	26.8
1023.927	-7.49
1024.087	-18.34
1024.247	-32.68
1024.406	1.23
1024.566	-27.06
1024.726	-37.33
1024.885	-6.91
1025.045	31.06
1025.205	17.5
1025.364	9.36
1025.524	26.61
1025.683	-2.84
1025.843	8.01
1026.003	5.49
1026.162	51.6
1026.321	45.79
1026.481	28.16
1026.64	-13.11
1026.8	22.54
1026.959	16.92
1027.119	-7.1
1027.278	13.43
1027.437	-4
1027.597	16.92
1027.756	20.99
1027.915	24.48
1028.074	20.6
1028.234	-19.12
1028.393	22.73
1028.552	-3.23
1028.711	-63.1
1028.87	63.42
1029.03	10.91
1029.189	3.55
1029.348	-63.1
1029.507	4.33
1029.666	-15.82
1029.825	-36.36
1029.984	-25.12
1030.143	22.73
1030.302	-11.75
1030.461	-33.45
1030.62	27.58
1030.779	29.51
1030.938	-29.97
1031.097	-39.65
1031.255	36.49
1031.414	59.35
1031.573	46.18
1031.732	-46.82
1031.891	-5.75
1032.049	33.78
1032.208	44.24
1032.367	-15.63
1032.525	-11.95
1032.684	13.82
1032.843	0.06
1033.001	-31.52
1033.16	132.39
1033.319	26.61
1033.477	13.05
1033.636	-2.65
1033.794	-21.64
1033.953	36.88
1034.111	3.55
1034.27	-0.71
1034.428	42.5
1034.587	-35.97
1034.745	31.65
1034.903	26.8
1035.062	20.6
1035.22	-23.77
1035.378	49.08
1035.537	-6.72
1035.695	1.03
1035.853	20.21
1036.011	50.25
1036.17	19.44
1036.328	-68.52
1036.486	-3.04
1036.644	10.33
1036.802	-92.93
1036.96	-23.77
1037.119	2.78
1037.277	-11.56
1037.435	-32.87
1037.593	-19.89
1037.751	16.15
1037.909	13.63
1038.067	13.63
