Data from pine_FLMT105791__98__17-21-38-076.txt Node

Date: Mon Mar 20 17:21:38 GMT 2023
User: antho
Spectrometer: FLMT10579
Trigger mode: 0
Integration Time (sec): 1.000000E-1
Scans to average: 10
Electric dark correction enabled: true
Nonlinearity correction enabled: false
Boxcar width: 0
XAxis mode: Wavelengths
Number of Pixels in Spectrum: 3648
>>>>>Begin Spectral Data<<<<<
345.248	-157.11
345.464	-157.11
345.681	-157.11
345.898	-161.76
346.114	-169.51
346.331	-38.54
346.548	31.21
346.764	-4.25
346.981	-21.3
347.197	-32.73
347.414	25.01
347.631	-26.53
347.847	78.29
348.064	23.85
348.28	20.55
348.497	-56.75
348.713	1.18
348.93	21.72
349.146	24.82
349.363	15.71
349.579	15.9
349.796	20.94
350.012	6.41
350.229	28.69
350.445	14.93
350.661	-6.18
350.878	-22.85
351.094	10.09
351.311	22.88
351.527	26.95
351.743	-2.12
351.96	56.59
352.176	53.3
352.392	0.98
352.609	30.43
352.825	-3.47
353.041	2.53
353.257	1.37
353.474	26.56
353.69	57.37
353.906	15.32
354.122	-19.16
354.339	44.97
354.555	12.42
354.771	0.4
354.987	68.6
355.203	68.02
355.42	-13.74
355.636	-4.25
355.852	-12.19
356.068	15.52
356.284	-33.89
356.5	70.73
356.716	37.99
356.932	6.6
357.148	41.09
357.364	19.97
357.58	52.91
357.796	56.59
358.012	65.5
358.228	30.43
358.444	-59.85
358.66	42.25
358.876	33.73
359.092	1.57
359.308	15.71
359.524	27.72
359.74	4.67
359.956	0.6
360.172	19.2
360.388	80.23
360.604	-3.47
360.819	92.43
361.035	31.21
361.251	28.69
361.467	-6.18
361.683	37.41
361.898	16.1
362.114	27.72
362.33	31.98
362.546	47.68
362.762	13
362.977	20.17
363.193	-5.6
363.409	49.23
363.624	14.55
363.84	-8.31
364.056	-12.96
364.271	50.58
364.487	53.1
364.703	18.23
364.918	10.87
365.134	13.97
365.35	-5.99
365.565	108.9
365.781	50.2
365.996	23.27
366.212	99.41
366.427	29.85
366.643	-21.49
366.858	17.65
367.074	-10.83
367.289	54.46
367.505	103.09
367.72	-30.79
367.936	28.88
368.151	39.73
368.367	38.57
368.582	23.27
368.798	-17.61
369.013	66.67
369.228	15.71
369.444	10.28
369.659	62.6
369.874	58.14
370.09	74.22
370.305	-65.47
370.52	11.83
370.736	71.9
370.951	21.13
371.166	82.75
371.381	90.11
371.597	63.18
371.812	1.18
372.027	-5.02
372.242	45.93
372.458	90.5
372.673	39.93
372.888	8.73
373.103	31.4
373.318	107.16
373.533	37.6
373.749	36.63
373.964	-18.39
374.179	59.69
374.394	-28.85
374.609	95.53
374.824	0.02
375.039	51.36
375.254	8.35
375.469	77.9
375.684	11.83
375.899	77.52
376.114	28.69
376.329	51.75
376.544	82.75
376.759	47.1
376.974	-11.41
377.189	0.98
377.404	7.38
377.619	57.75
377.834	-9.86
378.049	7.57
378.264	-5.22
378.478	22.68
378.693	26.75
378.908	39.93
379.123	21.72
379.338	92.63
379.553	46.52
379.767	39.54
379.982	51.55
380.197	56.59
380.412	22.49
380.626	42.45
380.841	98.05
381.056	55.43
381.271	73.45
381.485	-5.99
381.7	4.28
381.915	25.98
382.129	26.95
382.344	10.28
382.559	25.2
382.773	52.13
382.988	-37.38
383.202	7.77
383.417	-1.73
383.632	110.26
383.846	15.71
384.061	26.37
384.275	8.93
384.49	44.97
384.704	38.77
384.919	42.25
385.133	20.55
385.348	52.13
385.562	-18.97
385.777	95.34
385.991	20.94
386.206	-0.95
386.42	-2.31
386.634	55.62
386.849	44.58
387.063	73.83
387.277	0.4
387.492	-0.37
387.706	-18.2
387.92	-10.83
388.135	53.88
388.349	41.09
388.563	16.87
388.778	50.97
388.992	57.56
389.206	63.37
389.42	137.19
389.635	27.14
389.849	66.28
390.063	58.72
390.277	58.14
390.491	97.28
390.706	72.28
390.92	52.91
391.134	41.09
391.348	66.86
391.562	-16.45
391.776	10.28
391.99	1.76
392.205	61.24
392.419	-16.84
392.633	19.78
392.847	72.09
393.061	12.42
393.275	92.82
393.489	35.86
393.703	56.01
393.917	79.07
394.131	1.37
394.345	81.58
394.559	59.11
394.773	39.35
394.986	67.83
395.2	36.05
395.414	64.34
395.628	10.28
395.842	36.44
396.056	14.35
396.27	4.28
396.484	80.81
396.697	33.73
396.911	92.43
397.125	81.39
397.339	73.83
397.553	51.94
397.766	95.53
397.98	38.57
398.194	123.43
398.408	45.16
398.621	61.82
398.835	73.25
399.049	40.32
399.262	88.56
399.476	95.34
399.69	64.15
399.903	121.11
400.117	17.65
400.331	52.91
400.544	20.17
400.758	144.55
400.971	75.77
401.185	84.68
401.398	27.53
401.612	107.55
401.826	81.58
402.039	69.57
402.253	19.2
402.466	80.81
402.68	38.38
402.893	54.85
403.106	63.57
403.32	49.62
403.533	77.71
403.747	58.33
403.96	56.2
404.174	77.13
404.387	40.12
404.6	66.28
404.814	97.08
405.027	77.52
405.24	55.62
405.454	51.36
405.667	101.15
405.88	19.58
406.094	80.61
406.307	101.15
406.52	93.4
406.733	47.87
406.947	17.84
407.16	106.58
407.373	142.42
407.586	62.79
407.799	38.57
408.012	100.76
408.226	95.73
408.439	115.68
408.652	25.98
408.865	85.46
409.078	111.61
409.291	98.44
409.504	8.73
409.717	82.36
409.93	82.36
410.143	75.97
410.357	39.54
410.57	64.34
410.783	45.93
410.996	81.78
411.209	53.68
411.421	117.62
411.634	57.75
411.847	61.63
412.06	99.99
412.273	49.62
412.486	75.38
412.699	162.57
412.912	68.99
413.125	106.58
413.338	68.6
413.55	87.01
413.763	79.65
413.976	95.34
414.189	53.49
414.402	66.86
414.615	132.73
414.827	68.41
415.04	90.5
415.253	132.73
415.466	107.55
415.678	134.09
415.891	90.88
416.104	96.11
416.316	76.35
416.529	70.73
416.742	90.88
416.954	116.65
417.167	93.98
417.38	76.93
417.592	119.36
417.805	55.23
418.017	66.47
418.23	116.85
418.442	56.01
418.655	62.79
418.868	69.96
419.08	133.7
419.293	157.92
419.505	123.05
419.718	124.01
419.93	132.93
420.142	85.26
420.355	154.43
420.567	152.3
420.78	128.86
420.992	113.94
421.205	174.39
421.417	87.01
421.629	86.81
421.842	67.83
422.054	78.68
422.266	123.24
422.479	136.41
422.691	91.46
422.903	143.97
423.115	88.36
423.328	113.75
423.54	114.33
423.752	98.25
423.964	78.1
424.177	125.56
424.389	124.4
424.601	208.68
424.813	112.97
425.025	159.86
425.238	146.49
425.45	86.62
425.662	107.16
425.874	428.97
426.086	141.06
426.298	152.3
426.51	150.36
426.722	116.46
426.934	114.33
427.146	127.11
427.358	95.34
427.57	147.85
427.782	131.76
427.994	120.72
428.206	97.86
428.418	92.43
428.63	148.43
428.842	164.7
429.054	160.25
429.266	162.38
429.478	102.51
429.69	139.32
429.902	100.57
430.114	163.15
430.325	142.61
430.537	132.15
430.749	121.88
430.961	70.73
431.173	117.81
431.384	155.21
431.596	36.83
431.808	109.29
432.02	157.53
432.231	193.18
432.443	192.99
432.655	173.42
432.867	110.84
433.078	147.85
433.29	238.13
433.502	199.38
433.713	192.99
433.925	174.39
434.136	243.94
434.348	139.13
434.56	110.26
434.771	278.04
434.983	136.22
435.194	181.56
435.406	152.11
435.617	240.07
435.829	242.2
436.04	213.91
436.252	241.62
436.463	265.45
436.675	254.21
436.886	232.71
437.098	216.63
437.309	266.61
437.521	202.09
437.732	200.93
437.943	223.21
438.155	199.38
438.366	162.96
438.578	262.54
438.789	184.85
439	250.34
439.211	219.92
439.423	250.73
439.634	252.08
439.845	265.45
440.057	241.04
440.268	249.18
440.479	211.01
440.69	228.44
440.902	251.5
441.113	235.61
441.324	229.41
441.535	250.34
441.746	293.35
441.957	210.81
442.168	238.33
442.38	269.91
442.591	289.47
442.802	259.25
443.013	243.75
443.224	294.32
443.435	281.14
443.646	257.51
443.857	261.96
444.068	253.83
444.279	238.91
444.49	345.08
444.701	286.76
444.912	395.84
445.123	315.24
445.334	320.67
445.545	303.81
445.756	297.42
445.967	256.73
446.178	311.56
446.388	345.27
446.599	324.74
446.81	359.22
447.021	294.71
447.232	350.31
447.443	365.81
447.653	307.88
447.864	374.53
448.075	330.74
448.286	333.46
448.496	313.31
448.707	387.7
448.918	332.49
449.129	415.6
449.339	340.62
449.55	353.02
449.761	366.97
449.971	400.49
450.182	356.7
450.393	363.1
450.603	333.26
450.814	394.1
451.024	365.23
451.235	386.54
451.446	420.06
451.656	441.95
451.867	353.02
452.077	391.39
452.288	430.91
452.498	421.8
452.709	337.72
452.919	390.22
453.13	342.17
453.34	412.7
453.55	318.34
453.761	387.9
453.971	382.28
454.182	381.7
454.392	391.97
454.602	441.95
454.813	382.28
455.023	448.73
455.233	358.64
455.444	382.67
455.654	322.99
455.864	375.3
456.075	371.62
456.285	389.84
456.495	395.84
456.705	417.35
456.916	455.13
457.126	454.35
457.336	400.49
457.546	392.94
457.756	393.13
457.967	442.34
458.177	395.07
458.387	414.64
458.597	376.85
458.807	402.04
459.017	381.5
459.227	388.67
459.437	394.68
459.647	434.2
459.857	424.32
460.068	403.79
460.278	426.07
460.488	421.61
460.698	471.4
460.908	441.18
461.117	398.75
461.327	392.55
461.537	444.67
461.747	454.55
461.957	428
462.167	540.76
462.377	478.18
462.587	431.3
462.797	481.87
463.007	438.08
463.216	473.15
463.426	509.57
463.636	497.75
463.846	404.75
464.056	424.32
464.265	485.55
464.475	421.22
464.685	476.83
464.895	489.81
465.104	464.62
465.314	487.68
465.524	469.66
465.733	451.06
465.943	544.64
466.153	539.8
466.362	497.56
466.572	495.82
466.782	477.02
466.991	473.92
467.201	517.13
467.41	451.45
467.62	500.47
467.829	490.97
468.039	537.66
468.249	499.5
468.458	481.48
468.668	518.1
468.877	520.61
469.086	561.3
469.296	560.53
469.505	516.93
469.715	597.53
469.924	528.95
470.134	585.13
470.343	568.86
470.552	502.6
470.762	533.21
470.971	513.83
471.18	521.58
471.39	524.3
471.599	506.86
471.808	540.96
472.018	520.81
472.227	582.61
472.436	609.74
472.645	564.01
472.855	538.05
473.064	632.21
473.273	596.18
473.482	579.51
473.691	635.51
473.901	609.74
474.11	557.81
474.319	688.79
474.528	594.24
474.737	675.03
474.946	644.42
475.155	647.91
475.364	647.52
475.573	642.87
475.783	656.04
475.992	665.34
476.201	670.38
476.41	636.67
476.619	598.31
476.828	616.33
477.037	619.04
477.245	650.43
477.454	676.97
477.663	664.57
477.872	648.29
478.081	751.76
478.29	658.95
478.499	746.33
478.708	727.73
478.917	761.64
479.125	710.29
479.334	713.2
479.543	710.49
479.752	690.34
479.961	756.79
480.169	780.82
480.378	706.42
480.587	851.73
480.796	782.37
481.004	778.88
481.213	773.84
481.422	777.14
481.63	794.57
481.839	782.95
482.048	897.26
482.256	803.49
482.465	829.06
482.674	807.94
482.882	824.8
483.091	884.28
483.299	818.79
483.508	859.48
483.716	833.9
483.925	840.69
484.134	800.97
484.342	826.74
484.551	907.33
484.759	856.19
484.967	892.61
485.176	880.4
485.384	904.04
485.593	873.04
485.801	846.3
486.01	832.94
486.218	785.27
486.426	727.15
486.635	777.33
486.843	768.03
487.051	828.48
487.26	786.05
487.468	811.43
487.676	858.9
487.885	786.63
488.093	855.8
488.301	893.97
488.509	917.02
488.717	941.63
488.926	906.56
489.134	896.29
489.342	926.32
489.55	890.09
489.758	931.75
489.967	931.75
490.175	1041.02
490.383	966.04
490.591	1030.17
490.799	951.9
491.007	1016.61
491.215	1003.82
491.423	960.03
491.631	991.81
491.839	995.3
492.047	1057.1
492.255	938.72
492.463	938.33
492.671	943.76
492.879	1010.41
493.087	1002.27
493.295	1003.05
493.503	1037.92
493.711	1058.84
493.919	1066.98
494.127	1066.21
494.334	1073.18
494.542	1001.69
494.75	1042.18
494.958	1027.46
495.166	1124.53
495.374	1086.55
495.581	1097.59
495.789	1057.49
495.997	1122.59
496.205	1047.03
496.412	1076.09
496.62	1092.94
496.828	1088.49
497.035	1086.16
497.243	1145.26
497.451	1100.89
497.658	1093.91
497.866	1104.38
498.074	1152.81
498.281	1134.6
498.489	1167.92
498.696	1100.11
498.904	1094.3
499.112	1094.88
499.319	1166.37
499.527	1128.4
499.734	1183.42
499.942	1089.46
500.149	1091.98
500.357	1180.71
500.564	1121.43
500.771	1167.34
500.979	1098.18
501.186	1080.93
501.394	1152.81
501.601	1121.04
501.808	1122.98
502.016	1111.74
502.223	1102.44
502.43	1134.02
502.638	1133.82
502.845	1124.53
503.052	1215.97
503.26	1148.16
503.467	1266.35
503.674	1156.88
503.881	1197.76
504.089	1237.67
504.296	1202.99
504.503	1131.69
504.71	1177.61
504.917	1139.64
505.125	1180.13
505.332	1187.88
505.539	1216.75
505.746	1278.94
505.953	1303.35
506.16	1271.77
506.367	1321.57
506.574	1326.02
506.781	1308.58
506.988	1262.28
507.195	1291.15
507.402	1285.34
507.609	1281.27
507.816	1251.24
508.023	1236.51
508.23	1243.29
508.437	1187.3
508.644	1277.59
508.851	1324.86
509.058	1343.27
509.265	1321.76
509.472	1319.24
509.679	1416.7
509.885	1333.19
510.092	1345.4
510.299	1330.28
510.506	1297.74
510.713	1336.48
510.92	1339.58
511.126	1337.84
511.333	1413.98
511.54	1408.95
511.746	1427.55
511.953	1435.3
512.16	1432.58
512.367	1382.21
512.573	1399.26
512.78	1408.17
512.987	1407.01
513.193	1404.68
513.4	1333.19
513.606	1364.97
513.813	1424.83
514.02	1393.64
514.226	1491.68
514.433	1436.26
514.639	1372.72
514.846	1386.08
515.052	1371.17
515.259	1462.42
515.465	1437.62
515.672	1421.15
515.878	1545.34
516.085	1465.52
516.291	1490.13
516.497	1420.96
516.704	1435.68
516.91	1360.9
517.117	1324.47
517.323	1288.44
517.529	1320.21
517.736	1307.81
517.942	1349.08
518.148	1375.43
518.354	1392.28
518.561	1404.68
518.767	1413.21
518.973	1429.29
519.179	1471.33
519.386	1451.76
519.592	1419.02
519.798	1426.58
520.004	1573.63
520.21	1546.12
520.417	1601.14
520.623	1615.09
520.829	1636.02
521.035	1631.76
521.241	1603.08
521.447	1614.12
521.653	1743.35
521.859	1596.88
522.065	1674.38
522.271	1758.08
522.477	1695.89
522.683	1734.64
522.889	1688.72
523.095	1671.09
523.301	1686.97
523.507	1623.04
523.713	1694.53
523.919	1636.6
524.125	1767.18
524.331	1694.72
524.537	1814.85
524.742	1786.75
524.948	1811.36
525.154	1808.84
525.36	1897.96
525.566	1814.27
525.772	1868.13
525.977	1757.5
526.183	1828.21
526.389	1858.83
526.595	1734.64
526.8	1762.34
527.006	1680.39
527.212	1626.14
527.417	1665.85
527.623	1639.89
527.829	1736.38
528.034	1785.78
528.24	1756.72
528.446	1765.05
528.651	1892.15
528.857	1865.22
529.062	1913.85
529.268	1862.12
529.473	1889.05
529.679	1890.8
529.884	1970.81
530.09	1937.68
530.295	1951.83
530.501	1971.39
530.706	1961.51
530.912	1908.81
531.117	1924.31
531.323	2000.65
531.528	1968.68
531.733	1995.23
531.939	1963.84
532.144	1985.34
532.35	2006.27
532.555	2020.22
532.76	1960.93
532.966	1954.93
533.171	1909.4
533.376	1906.1
533.581	1895.64
533.787	1904.36
533.992	1965.58
534.197	2019.83
534.402	1994.64
534.607	2006.66
534.813	2074.86
535.018	1964.42
535.223	2005.88
535.428	2006.46
535.633	2089.19
535.838	2093.26
536.043	2096.94
536.249	2198.27
536.454	2056.45
536.659	2128.14
536.864	2054.71
537.069	2052.38
537.274	2094.42
537.479	2049.28
537.684	2111.09
537.889	2020.99
538.094	2167.66
538.299	2080.86
538.504	2124.84
538.708	2113.6
538.913	2145.19
539.118	2118.84
539.323	2130.85
539.528	2099.07
539.733	2057.22
539.938	2105.85
540.142	2101.01
540.347	2077.96
540.552	2043.86
540.757	1997.36
540.962	2053.35
541.166	2012.08
541.371	2000.07
541.576	2039.98
541.781	1985.15
541.985	2092.87
542.19	2087.26
542.395	2197.69
542.599	2177.54
542.804	2143.64
543.008	2161.46
543.213	2081.06
543.418	2072.34
543.622	2152.35
543.827	2061.29
544.031	2195.95
544.236	2199.82
544.44	2179.87
544.645	2241.67
544.849	2172.5
545.054	2209.12
545.258	2255.04
545.463	2259.69
545.667	2114.19
545.872	2203.7
546.076	2211.25
546.281	2206.22
546.485	2138.4
546.689	2221.13
546.894	2245.35
547.098	2193.43
547.302	2176.77
547.507	2195.75
547.711	2214.16
547.915	2257.56
548.119	2186.45
548.324	2154.1
548.528	2279.26
548.732	2170.18
548.936	2249.03
549.141	2224.23
549.345	2238.38
549.549	2216.68
549.753	2258.14
549.957	2305.61
550.161	2332.35
550.366	2244.58
550.57	2224.23
550.774	2243.8
550.978	2248.07
551.182	2262.4
551.386	2217.65
551.59	2232.37
551.794	2203.12
551.998	2242.83
552.202	2235.28
552.406	2183.35
552.61	2264.92
552.814	2279.65
553.018	2290.88
553.222	2272.28
553.426	2222.68
553.63	2318.4
553.833	2269.96
554.037	2213.19
554.241	2287.98
554.445	2268.6
554.649	2284.88
554.853	2202.15
555.056	2297.08
555.26	2295.73
555.464	2245.93
555.668	2293.4
555.871	2278.68
556.075	2321.69
556.279	2219.2
556.483	2206.41
556.686	2195.75
556.89	2214.55
557.094	2229.27
557.297	2172.12
557.501	2265.11
557.704	2119.61
557.908	2219.58
558.112	2156.42
558.315	2271.12
558.519	2179.87
558.722	2173.28
558.926	2166.69
559.129	2089.39
559.333	2084.93
559.536	2090.74
559.74	2049.09
559.943	2082.8
560.147	2086.48
560.35	2097.52
560.553	2124.07
560.757	2026.81
560.96	2225.98
561.164	2095.97
561.367	2256.78
561.57	2114.57
561.774	2115.74
561.977	2115.15
562.18	2134.34
562.384	2224.04
562.587	2124.45
562.79	2154.49
562.993	2131.43
563.197	2148.48
563.4	2199.63
563.603	2159.72
563.806	2212.22
564.009	2094.81
564.212	2113.02
564.416	2081.06
564.619	2109.15
564.822	2059.55
565.025	2156.62
565.228	2110.31
565.431	2099.27
565.634	2023.71
565.837	2008.59
566.04	2021.38
566.243	1988.64
566.446	1920.24
566.649	2083.96
566.852	1939.23
567.055	2035.91
567.258	2049.09
567.461	2099.46
567.664	2103.34
567.867	1948.92
568.07	2039.4
568.273	2014.02
568.475	2066.72
568.678	1987.28
568.881	1986.51
569.084	1968.88
569.287	1895.25
569.489	1949.5
569.692	2002.97
569.895	1988.83
570.098	1905.71
570.3	1921.02
570.503	1820.47
570.706	1878.4
570.909	1856.11
571.111	1862.9
571.314	1835.77
571.516	1846.62
571.719	1866.58
571.922	1838.1
572.124	1861.54
572.327	1884.98
572.529	1795.67
572.732	1833.45
572.935	1848.36
573.137	1912.5
573.34	1869.68
573.542	1866
573.745	1874.52
573.947	1882.66
574.15	1850.69
574.352	1822.6
574.554	1852.63
574.757	1785.01
574.959	1839.65
575.162	1797.41
575.364	1779.2
575.566	1885.76
575.769	1774.35
575.971	1797.8
576.173	1659.46
576.376	1777.07
576.578	1816.01
576.78	1862.12
576.982	1706.35
577.185	1747.42
577.387	1762.53
577.589	1756.72
577.791	1805.16
577.993	1776.48
578.196	1751.49
578.398	1781.52
578.6	1775.71
578.802	1693.75
579.004	1721.85
579.206	1743.55
579.408	1761.57
579.61	1740.45
579.812	1786.75
580.014	1746.84
580.216	1744.71
580.418	1749.17
580.62	1710.8
580.822	1705.38
581.024	1751.1
581.226	1770.87
581.428	1756.72
581.63	1849.14
581.832	1750.72
582.034	1801.48
582.236	1755.75
582.438	1816.59
582.64	1802.45
582.841	1856.5
583.043	1896.8
583.245	1817.75
583.447	1785.59
583.649	1765.05
583.85	1761.57
584.052	1790.24
584.254	1753.62
584.456	1831.31
584.657	1734.83
584.859	1823.18
585.061	1768.15
585.262	1744.71
585.464	1695.3
585.666	1751.49
585.867	1709.84
586.069	1799.15
586.27	1746.07
586.472	1748.58
586.674	1730.57
586.875	1692.98
587.077	1717.2
587.278	1742.58
587.48	1705.38
587.681	1827.25
587.883	1759.24
588.084	1626.72
588.285	1687.94
588.487	1663.92
588.688	1676.12
588.89	1605.41
589.091	1586.42
589.292	1545.54
589.494	1479.47
589.695	1494.78
589.896	1394.61
590.098	1422.51
590.299	1532.17
590.5	1473.66
590.702	1511.63
590.903	1553.09
591.104	1594.17
591.305	1581.38
591.507	1647.26
591.708	1604.63
591.909	1563.56
592.11	1685.62
592.311	1630.59
592.512	1564.33
592.714	1519.96
592.915	1518.22
593.116	1544.76
593.317	1617.03
593.518	1575.96
593.719	1593.39
593.92	1611.99
594.121	1643.19
594.322	1583.9
594.523	1571.69
594.724	1550.19
594.925	1573.63
595.126	1554.26
595.327	1585.26
595.528	1578.28
595.729	1577.12
595.929	1558.13
596.13	1568.98
596.331	1574.79
596.532	1572.47
596.733	1630.98
596.934	1649.97
597.135	1628.46
597.335	1596.11
597.536	1549.03
597.737	1564.53
597.938	1519.77
598.138	1590.49
598.339	1559.29
598.54	1587.39
598.74	1564.14
598.941	1573.24
599.142	1591.84
599.342	1593.59
599.543	1570.53
599.744	1564.53
599.944	1587.19
600.145	1592.62
600.345	1571.31
600.546	1658.88
600.746	1638.73
600.947	1666.63
601.147	1610.44
601.348	1625.94
601.548	1566.07
601.749	1586.03
601.949	1543.21
602.15	1534.88
602.35	1512.79
602.551	1605.79
602.751	1518.41
602.951	1542.44
603.152	1500.01
603.352	1599.21
603.552	1538.95
603.753	1580.99
603.953	1624.78
604.153	1575.37
604.354	1565.69
604.554	1532.94
604.754	1562.59
604.954	1505.82
605.155	1608.89
605.355	1555.42
605.555	1592.62
605.755	1599.98
605.955	1562.98
606.155	1612.38
606.356	1562.98
606.556	1609.86
606.756	1603.86
606.956	1524.61
607.156	1631.17
607.356	1513.38
607.556	1579.06
607.756	1515.7
607.956	1624.01
608.156	1566.27
608.356	1521.32
608.556	1590.68
608.756	1543.21
608.956	1513.57
609.156	1512.79
609.356	1503.3
609.556	1485.28
609.755	1521.9
609.955	1509.69
610.155	1517.06
610.355	1561.04
610.555	1489.93
610.755	1485.09
610.954	1448.86
611.154	1493.81
611.354	1552.71
611.554	1517.44
611.753	1490.51
611.953	1432
612.153	1507.37
612.352	1483.54
612.552	1449.63
612.752	1417.28
612.951	1445.37
613.151	1471.53
613.351	1467.46
613.55	1467.46
613.75	1461.26
613.949	1416.31
614.149	1448.28
614.348	1433.16
614.548	1396.93
614.747	1385.7
614.947	1423.67
615.146	1359.54
615.346	1474.63
615.545	1417.08
615.745	1450.99
615.944	1432.97
616.144	1403.71
616.343	1452.54
616.542	1420.96
616.742	1386.08
616.941	1368.84
617.14	1311.49
617.34	1390.93
617.539	1414.18
617.738	1386.67
617.938	1412.82
618.137	1346.75
618.336	1357.8
618.535	1427.35
618.734	1384.73
618.934	1446.92
619.133	1410.69
619.332	1425.41
619.531	1379.3
619.73	1383.57
619.929	1424.06
620.128	1455.06
620.328	1466.49
620.527	1372.33
620.726	1396.16
620.925	1414.37
621.124	1409.53
621.323	1410.5
621.522	1362.64
621.721	1360.7
621.92	1345.78
622.119	1401.2
622.318	1321.57
622.517	1379.11
622.715	1356.83
622.914	1295.22
623.113	1332.61
623.312	1306.26
623.511	1367.87
623.71	1340.75
623.909	1298.32
624.107	1397.32
624.306	1281.27
624.505	1331.64
624.704	1306.26
624.902	1311.49
625.101	1381.82
625.3	1349.85
625.499	1310.13
625.697	1302.39
625.896	1275.45
626.095	1327.57
626.293	1269.06
626.492	1283.98
626.69	1348.11
626.889	1270.22
627.088	1355.67
627.286	1258.21
627.485	1267.12
627.683	1243.29
627.882	1258.02
628.08	1196.21
628.279	1207.26
628.477	1307.42
628.676	1204.93
628.874	1245.04
629.073	1206.29
629.271	1215.2
629.469	1260.34
629.668	1237.48
629.866	1203.38
630.065	1231.47
630.263	1254.34
630.461	1192.34
630.66	1210.94
630.858	1254.34
631.056	1273.32
631.254	1284.56
631.453	1200.86
631.651	1272.55
631.849	1227.21
632.047	1243.1
632.245	1232.44
632.444	1249.69
632.642	1263.25
632.84	1247.17
633.038	1236.32
633.236	1216.94
633.434	1221.4
633.632	1223.53
633.83	1219.65
634.028	1243.29
634.227	1230.5
634.425	1323.5
634.623	1239.8
634.821	1229.73
635.019	1245.81
635.216	1218.3
635.414	1264.02
635.612	1266.35
635.81	1228.76
636.008	1300.06
636.206	1255.11
636.404	1247.75
636.602	1206.09
636.8	1272.55
636.997	1279.14
637.195	1288.44
637.393	1254.14
637.591	1314.2
637.789	1302.97
637.986	1267.9
638.184	1247.36
638.382	1270.03
638.58	1278.75
638.777	1318.66
638.975	1250.85
639.173	1245.81
639.37	1271.97
639.568	1264.22
639.765	1316.92
639.963	1247.36
640.161	1296.57
640.358	1299.29
640.556	1201.64
640.753	1206.29
640.951	1179.74
641.148	1226.05
641.346	1217.91
641.543	1186.33
641.741	1248.72
641.938	1173.54
642.136	1206.48
642.333	1192.92
642.531	1269.64
642.728	1261.7
642.925	1190.01
643.123	1205.12
643.32	1218.88
643.517	1204.35
643.715	1212.68
643.912	1182.07
644.109	1205.32
644.306	1177.81
644.504	1156.49
644.701	1179.74
644.898	1200.09
645.095	1202.02
645.293	1171.22
645.49	1195.44
645.687	1191.95
645.884	1207.84
646.081	1115.42
646.278	1149.13
646.475	1116.39
646.672	1130.72
646.87	1176.84
647.067	1146.81
647.264	1132.86
647.461	1106.51
647.658	1057.29
647.855	1114.45
648.052	1091.01
648.249	1021.45
648.446	1080.54
648.642	1090.43
648.839	1059.04
649.036	1076.48
649.233	1011.96
649.43	1033.66
649.627	989.29
649.824	1048.96
650.021	1051.29
650.217	1053.42
650.414	1046.83
650.611	1063.11
650.808	1078.41
651.004	1120.07
651.201	1088.29
651.398	1131.31
651.595	1056.91
651.791	1053.81
651.988	1094.69
652.185	1041.79
652.381	1087.71
652.578	1015.45
652.775	1035.98
652.971	1068.53
653.168	1052.84
653.364	1108.06
653.561	996.85
653.757	1033.66
653.954	1084.61
654.15	1057.29
654.347	1128.98
654.543	1059.62
654.74	1015.45
654.936	1022.81
655.133	991.42
655.329	1071.83
655.525	991.23
655.722	1016.61
655.918	976.5
656.115	991.61
656.311	884.47
656.507	874.2
656.704	867.81
656.9	866.26
657.096	872.65
657.292	895.71
657.489	944.92
657.685	942.79
657.881	941.63
658.077	956.55
658.273	944.53
658.47	1039.28
658.666	965.26
658.862	1017
659.058	978.83
659.254	996.65
659.45	950.54
659.646	995.3
659.842	963.13
660.038	1010.99
660.234	980.38
660.43	996.65
660.626	1055.94
660.822	1039.66
661.018	1053.81
661.214	982.7
661.41	955.19
661.606	1026.1
661.802	1018.35
661.998	986.19
662.194	980.96
662.39	1041.21
662.586	1013.51
662.781	1010.99
662.977	1014.67
663.173	1022.23
663.369	969.91
663.564	1021.45
663.76	996.07
663.956	968.56
664.152	1011.96
664.347	907.92
664.543	998.78
664.739	969.72
664.934	928.84
665.13	929.62
665.326	980.57
665.521	1019.9
665.717	931.55
665.912	941.05
666.108	859.48
666.304	935.82
666.499	958.87
666.695	863.74
666.89	938.33
667.086	958.48
667.281	936.78
667.477	997.23
667.672	948.6
667.867	899.58
668.063	956.93
668.258	895.71
668.454	915.47
668.649	984.83
668.844	943.95
669.04	969.53
669.235	939.69
669.43	925.93
669.626	878.85
669.821	935.43
670.016	904.82
670.211	904.43
670.407	873.43
670.602	921.48
670.797	902.88
670.992	967.2
671.187	861.22
671.382	927.68
671.578	869.75
671.773	906.75
671.968	843.79
672.163	867.23
672.358	893.19
672.553	859.29
672.748	865.68
672.943	939.3
673.138	878.66
673.333	909.66
673.528	842.62
673.723	915.86
673.918	878.08
674.113	828.87
674.308	933.68
674.503	899
674.698	921.87
674.892	911.4
675.087	914.5
675.282	904.04
675.477	896.1
675.672	901.72
675.867	870.91
676.061	854.64
676.256	848.82
676.451	862.39
676.646	875.75
676.84	850.18
677.035	843.59
677.23	847.47
677.424	890.48
677.619	874.01
677.814	901.91
678.008	895.9
678.203	829.45
678.397	857.35
678.592	897.84
678.787	916.44
678.981	830.8
679.176	897.65
679.37	856.38
679.565	833.13
679.759	853.47
679.954	865.29
680.148	911.21
680.342	941.24
680.537	882.92
680.731	854.05
680.926	897.26
681.12	900.75
681.314	856.96
681.509	852.5
681.703	877.3
681.897	885.25
682.092	855.41
682.286	844.37
682.48	919.54
682.674	869.55
682.869	842.04
683.063	863.16
683.257	911.98
683.451	859.29
683.645	884.67
683.839	861.42
684.034	865.68
684.228	930.78
684.422	831.77
684.616	849.21
684.81	876.72
685.004	864.71
685.198	876.72
685.392	909.47
685.586	829.84
685.78	896.87
685.974	904.62
686.168	890.09
686.362	917.8
686.556	809.1
686.75	756.21
686.944	753.5
687.138	767.26
687.331	619.04
687.525	664.76
687.719	619.81
687.913	662.44
688.107	705.84
688.301	667.09
688.494	702.93
688.688	674.06
688.882	623.3
689.076	664.76
689.269	669.61
689.463	737.42
689.657	693.44
689.85	709.52
690.044	725.79
690.238	719.79
690.431	751.95
690.625	734.32
690.818	792.25
691.012	763.57
691.205	787.02
691.399	742.46
691.593	808.33
691.786	865.68
691.98	871.68
692.173	884.28
692.366	896.29
692.56	894.74
692.753	934.07
692.947	848.24
693.14	933.49
693.333	899.2
693.527	887.18
693.72	894.16
693.914	902.49
694.107	857.15
694.3	928.84
694.493	873.43
694.687	983.28
694.88	926.9
695.073	985.8
695.266	984.25
695.46	961.78
695.653	977.86
695.846	996.85
696.039	935.43
696.232	984.83
696.425	1036.56
696.618	1047.03
696.812	1043.34
697.005	1122.01
697.198	1191.95
697.391	1080.74
697.584	1136.92
697.777	1171.22
697.97	1154.17
698.163	1176.26
698.356	1143.32
698.549	1237.87
698.742	1182.26
698.935	1186.33
699.127	1224.89
699.32	1198.15
699.513	1182.07
699.706	1195.05
699.899	1213.46
700.092	1196.41
700.285	1227.21
700.477	1183.81
700.67	1221.59
700.863	1234.96
701.056	1359.73
701.248	1320.79
701.441	1305.48
701.634	1273.52
701.826	1403.71
702.019	1278.55
702.212	1335.52
702.404	1311.49
702.597	1292.31
702.79	1329.9
702.982	1420.76
703.175	1374.85
703.367	1411.85
703.56	1424.06
703.752	1501.56
703.945	1466.68
704.137	1497.49
704.33	1507.37
704.522	1511.63
704.715	1521.13
704.907	1536.43
705.1	1596.49
705.292	1576.34
705.484	1564.33
705.677	1649.58
705.869	1588.55
706.061	1651.13
706.254	1684.26
706.446	1623.23
706.638	1621.29
706.831	1718.75
707.023	1645.9
707.215	1791.02
707.407	1747.23
707.599	1740.06
707.792	1804.38
707.984	1783.27
708.176	1807.48
708.368	1771.45
708.56	1830.15
708.752	1795.67
708.944	1803.42
709.136	1848.36
709.329	1853.79
709.521	1944.27
709.713	1879.75
709.905	1916.56
710.097	1962.87
710.289	1918.89
710.481	1955.89
710.672	1965.97
710.864	1944.46
711.056	2029.32
711.248	1976.82
711.44	1992.51
711.632	2000.07
711.824	2068.07
712.016	2062.46
712.207	2081.64
712.399	2085.12
712.591	2136.27
712.783	2115.74
712.975	2126
713.166	2127.94
713.358	2140.54
713.55	2166.5
713.741	2187.23
713.933	2168.82
714.125	2167.27
714.316	2155.26
714.508	2257.95
714.7	2253.49
714.891	2255.62
715.083	2244.77
715.274	2251.94
715.466	2234.31
715.657	2296.31
715.849	2186.07
716.04	2262.79
716.232	2153.9
716.423	2211.25
716.615	2153.32
716.806	2105.47
716.998	2074.27
717.189	1972.17
717.381	1918.31
717.572	1881.3
717.763	1909.4
717.955	1854.95
718.146	1841.39
718.337	1792.18
718.528	1790.43
718.72	1669.73
718.911	1762.53
719.102	1667.4
719.293	1809.23
719.485	1726.69
719.676	1737.15
719.867	1675.93
720.058	1678.64
720.249	1725.34
720.44	1747.81
720.632	1818.53
720.823	1852.43
721.014	1952.99
721.205	1989.22
721.396	2063.23
721.587	2180.45
721.778	2188.2
721.969	2231.98
722.16	2274.41
722.351	2312.58
722.542	2423.99
722.733	2411.98
722.924	2327.7
723.115	2363.93
723.305	2338.35
723.496	2364.12
723.687	2202.73
723.878	2235.47
724.069	2215.32
724.26	2249.03
724.45	2189.55
724.641	2199.63
724.832	2209.9
725.023	2196.72
725.213	2220.55
725.404	2130.27
725.595	2161.07
725.785	2166.11
725.976	2218.62
726.167	2221.33
726.357	2188
726.548	2298.63
726.739	2224.82
726.929	2291.66
727.12	2337
727.31	2353.66
727.501	2289.33
727.691	2295.15
727.882	2319.95
728.072	2339.9
728.263	2360.63
728.453	2428.25
728.644	2394.15
728.834	2370.13
729.024	2355.98
729.215	2368.96
729.405	2386.21
729.596	2458.09
729.786	2465.26
729.976	2489.86
730.167	2457.51
730.357	2439.87
730.547	2466.22
730.737	2464.67
730.928	2578.02
731.118	2561.94
731.308	2523.38
731.498	2539.85
731.688	2614.44
731.879	2626.84
732.069	2673.73
732.259	2673.92
732.449	2752
732.639	2795.59
732.829	2820.98
733.019	2854.88
733.209	2901.38
733.399	2941.1
733.589	3000.97
733.779	2992.83
733.969	2976.94
734.159	3071.1
734.349	3124.58
734.539	3162.16
734.729	3104.62
734.919	3199.75
735.109	3188.13
735.299	3115.08
735.488	3206.73
735.678	3173.4
735.868	3162.55
736.058	3136.01
736.248	3171.46
736.437	3110.63
736.627	3072.85
736.817	3204.79
737.007	3191.23
737.196	3220.29
737.386	3155
737.576	3194.13
737.765	3256.91
737.955	3229.01
738.144	3294.69
738.334	3259.23
738.524	3241.02
738.713	3311.16
738.903	3250.13
739.092	3320.46
739.282	3288.29
739.471	3340.61
739.661	3260.01
739.85	3335.18
740.04	3333.05
740.229	3363.27
740.419	3353.39
740.608	3358.82
740.797	3333.63
740.987	3385.17
741.176	3403.77
741.365	3372.19
741.555	3324.14
741.744	3432.64
741.933	3378
742.123	3398.34
742.312	3419.07
742.501	3403.77
742.69	3500.64
742.88	3390.01
743.069	3520.6
743.258	3464.6
743.447	3527.77
743.636	3503.55
743.825	3501.42
744.014	3515.75
744.204	3498.9
744.393	3456.27
744.582	3537.07
744.771	3570.97
744.96	3485.34
745.149	3537.45
745.338	3464.99
745.527	3538.42
745.716	3461.7
745.905	3496.18
746.094	3557.99
746.283	3534.55
746.471	3516.92
746.66	3589.57
746.849	3566.13
747.038	3583.18
747.227	3524.86
747.416	3581.24
747.604	3501.61
747.793	3537.84
747.982	3511.88
748.171	3558.77
748.359	3594.8
748.548	3526.02
748.737	3547.14
748.926	3549.47
749.114	3423.92
749.303	3531.25
749.491	3513.62
749.68	3464.6
749.869	3553.53
750.057	3469.06
750.246	3457.05
750.434	3437.87
750.623	3514.78
750.811	3475.26
751	3484.56
751.188	3451.82
751.377	3508.39
751.565	3463.83
751.754	3423.34
751.942	3450.07
752.131	3514.98
752.319	3428.76
752.507	3374.32
752.696	3464.02
752.884	3523.5
753.072	3474.29
753.261	3474.87
753.449	3465.77
753.637	3405.9
753.825	3500.64
754.014	3410.16
754.202	3443.68
754.39	3508.97
754.578	3481.85
754.766	3398.73
754.955	3391.37
755.143	3457.05
755.331	3376.84
755.519	3421.01
755.707	3390.01
755.895	3401.25
756.083	3379.55
756.271	3313.48
756.459	3406.48
756.647	3402.41
756.835	3381.49
757.023	3331.11
757.211	3330.53
757.399	3286.74
757.587	3347.19
757.775	3244.31
757.963	3314.45
758.151	3325.69
758.339	3264.46
758.526	3259.43
758.714	3277.44
758.902	3189.48
759.09	3075.37
759.278	2888.4
759.465	2684.38
759.653	2322.08
759.841	2096.36
760.028	1800.7
760.216	1536.82
760.404	1456.8
760.591	1210.36
760.779	984.64
760.967	856.57
761.154	735.29
761.342	788.76
761.529	787.6
761.717	852.7
761.905	826.35
762.092	917.41
762.28	866.26
762.467	844.75
762.655	788.95
762.842	831
763.029	817.82
763.217	821.12
763.404	840.49
763.592	852.7
763.779	811.82
763.966	869.55
764.154	896.1
764.341	964.3
764.528	978.25
764.716	1034.82
764.903	1088.1
765.09	1198.92
765.277	1198.92
765.465	1378.53
765.652	1408.17
765.839	1461.65
766.026	1621.68
766.213	1669.73
766.4	1774.35
766.588	1938.07
766.775	1957.83
766.962	2062.65
767.149	2105.47
767.336	2269.57
767.523	2242.25
767.71	2348.62
767.897	2494.32
768.084	2571.43
768.271	2588.09
768.458	2656.1
768.645	2718.48
768.832	2667.14
769.019	2702.21
769.206	2728.95
769.392	2813.42
769.579	2893.63
769.766	2827.95
769.953	2847.33
770.14	2936.64
770.327	2885.69
770.513	2940.32
770.7	2955.63
770.887	2891.69
771.073	2977.52
771.26	2977.91
771.447	2911.84
771.634	2921.92
771.82	3031.97
772.007	2933.74
772.193	2941.68
772.38	2949.24
772.567	2960.28
772.753	2935.09
772.94	2977.52
773.126	2986.82
773.313	3022.47
773.499	3001.35
773.686	3001.55
773.872	2946.33
774.059	2975.78
774.245	2918.62
774.432	2915.91
774.618	2893.44
774.804	2932.19
774.991	2855.27
775.177	2941.49
775.363	2907.58
775.55	2958.15
775.736	2863.41
775.922	2873.09
776.109	2912.62
776.295	2947.3
776.481	2942.07
776.667	2936.64
776.853	2855.85
777.04	2869.41
777.226	2846.36
777.412	2938.58
777.598	2836.67
777.784	2861.66
777.97	2815.74
778.156	2866.31
778.342	2844.23
778.528	2809.16
778.715	2730.88
778.901	2808.19
779.087	2840.93
779.272	2815.55
779.458	2790.94
779.644	2813.42
779.83	2760.72
780.016	2871.74
780.202	2792.88
780.388	2785.13
780.574	2692.33
780.76	2709.38
780.946	2774.09
781.131	2785.91
781.317	2754.71
781.503	2719.26
781.689	2735.92
781.874	2838.99
782.06	2732.63
782.246	2766.92
782.432	2726.81
782.617	2719.45
782.803	2761.5
782.989	2647.77
783.174	2703.18
783.36	2645.63
783.545	2682.83
783.731	2695.82
783.916	2578.99
784.102	2683.22
784.288	2634.98
784.473	2638.85
784.659	2657.45
784.844	2690.58
785.029	2605.72
785.215	2639.82
785.4	2514.08
785.586	2663.07
785.771	2586.54
785.956	2617.35
786.142	2570.07
786.327	2553.6
786.512	2560
786.698	2546.24
786.883	2506.33
787.068	2530.74
787.254	2580.73
787.439	2503.23
787.624	2546.82
787.809	2495.48
787.994	2452.08
788.18	2535
788.365	2463.32
788.55	2461.57
788.735	2482.89
788.92	2442.97
789.105	2440.65
789.29	2491.02
789.475	2406.55
789.66	2437.36
789.845	2370.9
790.03	2386.79
790.215	2419.14
790.4	2425.34
790.585	2444.33
790.77	2403.84
790.955	2327.31
791.14	2403.84
791.325	2456.34
791.51	2339.71
791.695	2390.28
791.879	2380.78
792.064	2332.73
792.249	2451.11
792.434	2356.37
792.618	2369.74
792.803	2426.31
792.988	2331.76
793.173	2382.72
793.357	2377.29
793.542	2321.5
793.727	2406.55
793.911	2417.98
794.096	2366.06
794.281	2425.73
794.465	2484.82
794.65	2360.05
794.834	2414.3
795.019	2439.29
795.203	2445.69
795.388	2456.15
795.572	2440.84
795.757	2421.47
795.941	2422.24
796.126	2424.96
796.31	2324.98
796.494	2410.23
796.679	2354.24
796.863	2353.66
797.048	2406.94
797.232	2414.69
797.416	2427.09
797.601	2391.83
797.785	2413.14
797.969	2435.81
798.153	2410.23
798.338	2420.5
798.522	2487.54
798.706	2435.61
798.89	2469.71
799.074	2535.59
799.258	2512.53
799.443	2432.32
799.627	2475.72
799.811	2484.05
799.995	2434.06
800.179	2416.82
800.363	2415.66
800.547	2446.27
800.731	2446.85
800.915	2362.96
801.099	2385.24
801.283	2413.72
801.467	2418.18
801.651	2384.27
801.835	2440.84
802.019	2450.34
802.202	2417.4
802.386	2369.93
802.57	2353.85
802.754	2359.28
802.938	2349.4
803.121	2373.42
803.305	2472.81
803.489	2396.86
803.673	2434.84
803.856	2423.21
804.04	2389.11
804.224	2439.68
804.407	2361.99
804.591	2354.63
804.775	2396.48
804.958	2406.74
805.142	2489.86
805.326	2410.43
805.509	2388.34
805.693	2479.01
805.876	2461.38
806.06	2432.32
806.243	2442.97
806.427	2481.14
806.61	2505.17
806.794	2419.92
806.977	2493.16
807.16	2449.95
807.344	2447.82
807.527	2479.79
807.71	2450.72
807.894	2428.44
808.077	2471.84
808.26	2392.6
808.444	2404.42
808.627	2471.07
808.81	2367.03
808.993	2318.2
809.177	2337
809.36	2367.99
809.543	2380.2
809.726	2273.45
809.909	2305.03
810.092	2274.8
810.276	2279.26
810.459	2293.6
810.642	2256.01
810.825	2247.29
811.008	2234.7
811.191	2167.85
811.374	2185.87
811.557	2186.45
811.74	2225.4
811.923	2132.01
812.106	2160.1
812.289	2075.82
812.472	2095.97
812.654	2126.59
812.837	2064.97
813.02	2032.62
813.203	2032.81
813.386	1924.89
813.569	1891.38
813.751	1886.34
813.934	1915.98
814.117	1854.95
814.3	1831.7
814.482	1795.08
814.665	1783.07
814.848	1683.1
815.03	1703.44
815.213	1684.65
815.396	1658.69
815.578	1637.76
815.761	1643.19
815.943	1671.28
816.126	1565.88
816.309	1541.08
816.491	1524.03
816.674	1461.84
816.856	1470.95
817.039	1509.5
817.221	1573.63
817.403	1514.15
817.586	1510.66
817.768	1502.33
817.951	1463.97
818.133	1473.66
818.315	1463.97
818.498	1553.09
818.68	1593.2
818.862	1579.64
819.045	1588.16
819.227	1559.29
819.409	1543.79
819.591	1547.48
819.774	1537.59
819.956	1514.93
820.138	1597.46
820.32	1585.06
820.502	1601.92
820.684	1672.25
820.866	1712.74
821.048	1740.06
821.231	1748.97
821.413	1765.63
821.595	1694.92
821.777	1693.37
821.959	1710.61
822.141	1752.07
822.323	1630.98
822.505	1579.83
822.686	1546.31
822.868	1478.5
823.05	1372.33
823.232	1338.23
823.414	1309.94
823.596	1392.67
823.778	1364.38
823.96	1385.5
824.141	1409.33
824.323	1421.54
824.505	1484.31
824.687	1522.48
824.868	1551.74
825.05	1631.56
825.232	1674.38
825.413	1755.17
825.595	1689.69
825.777	1628.46
825.958	1679.03
826.14	1661.4
826.321	1696.47
826.503	1663.72
826.685	1686.39
826.866	1728.05
827.048	1717.2
827.229	1644.54
827.411	1618.58
827.592	1568.79
827.773	1548.25
827.955	1516.67
828.136	1541.08
828.318	1518.03
828.499	1503.49
828.68	1491.09
828.862	1487.22
829.043	1523.26
829.224	1516.28
829.406	1468.23
829.587	1496.13
829.768	1506.79
829.949	1526.94
830.131	1517.44
830.312	1566.07
830.493	1503.3
830.674	1551.35
830.855	1499.04
831.036	1477.92
831.218	1529.07
831.399	1568.4
831.58	1544.18
831.761	1535.08
831.942	1500.78
832.123	1500.98
832.304	1446.92
832.485	1484.51
832.666	1525.19
832.847	1570.72
833.028	1507.37
833.209	1519.77
833.389	1503.49
833.57	1462.81
833.751	1483.15
833.932	1538.56
834.113	1488.38
834.294	1488.77
834.475	1511.63
834.655	1563.75
834.836	1555.81
835.017	1564.14
835.198	1489.74
835.378	1529.07
835.559	1568.21
835.74	1535.85
835.92	1519.19
836.101	1488.19
836.281	1567.62
836.462	1550.77
836.643	1594.36
836.823	1554.06
837.004	1591.84
837.184	1646.48
837.365	1577.31
837.545	1582.16
837.726	1549.41
837.906	1619.16
838.087	1596.49
838.267	1564.91
838.448	1545.54
838.628	1535.08
838.808	1566.66
838.989	1623.81
839.169	1553.48
839.349	1602.69
839.53	1594.75
839.71	1625.94
839.89	1571.11
840.07	1608.31
840.251	1539.92
840.431	1643.19
840.611	1592.62
840.791	1553.87
840.971	1586.81
841.151	1544.38
841.332	1532.94
841.512	1624.78
841.692	1476.18
841.872	1552.71
842.052	1528.29
842.232	1590.29
842.412	1500.39
842.592	1537.01
842.772	1541.66
842.952	1560.07
843.132	1514.54
843.312	1516.67
843.492	1503.11
843.672	1584.48
843.851	1447.11
844.031	1530.23
844.211	1513.18
844.391	1482.18
844.571	1567.24
844.751	1554.64
844.93	1493.61
845.11	1536.24
845.29	1501.94
845.47	1571.69
845.649	1533.72
845.829	1564.72
846.009	1475.21
846.188	1542.83
846.368	1504.27
846.547	1500.59
846.727	1574.6
846.907	1458.55
847.086	1544.18
847.266	1542.83
847.445	1473.66
847.625	1481.21
847.804	1482.76
847.984	1474.05
848.163	1457.77
848.343	1484.31
848.522	1473.85
848.701	1491.87
848.881	1451.76
849.06	1506.98
849.239	1475.6
849.419	1522.68
849.598	1383.95
849.777	1403.13
849.957	1427.93
850.136	1339.39
850.315	1298.51
850.494	1323.5
850.674	1338.03
850.853	1423.28
851.032	1355.67
851.211	1420.96
851.39	1412.43
851.569	1347.53
851.748	1341.52
851.927	1372.13
852.107	1391.31
852.286	1336.48
852.465	1354.12
852.644	1376.01
852.823	1373.68
853.002	1366.52
853.181	1367.1
853.359	1401.58
853.538	1315.75
853.717	1388.41
853.896	1290.18
854.075	1229.15
854.254	1202.02
854.433	1143.71
854.611	1204.93
854.79	1153.2
854.969	1195.44
855.148	1221.79
855.327	1152.04
855.505	1222.17
855.684	1200.47
855.863	1255.89
856.041	1218.69
856.22	1260.92
856.399	1222.37
856.577	1336.29
856.756	1276.81
856.934	1432.58
857.113	1413.6
857.291	1299.67
857.47	1310.91
857.648	1286.11
857.827	1357.6
858.005	1345.59
858.184	1290.76
858.362	1355.47
858.541	1350.63
858.719	1304.32
858.898	1291.73
859.076	1307.23
859.254	1371.75
859.433	1282.62
859.611	1279.91
859.789	1278.36
859.967	1321.76
860.146	1340.36
860.324	1242.9
860.502	1289.4
860.68	1183.04
860.859	1259.95
861.037	1269.64
861.215	1312.07
861.393	1262.47
861.571	1289.99
861.749	1277
861.927	1282.43
862.105	1252.4
862.283	1209.97
862.461	1208.22
862.639	1226.82
862.817	1256.08
862.995	1237.29
863.173	1237.67
863.351	1223.92
863.529	1262.67
863.707	1271.39
863.885	1220.62
864.063	1176.06
864.241	1208.03
864.418	1278.17
864.596	1227.21
864.774	1180.71
864.952	1215.2
865.129	1242.32
865.307	1177.03
865.485	1146.03
865.663	1233.22
865.84	1137.89
866.018	1140.41
866.196	1036.56
866.373	1031.33
866.551	1024.16
866.728	986.19
866.906	1035.79
867.084	1067.18
867.261	1092.36
867.439	1090.62
867.616	1100.89
867.794	1109.61
867.971	1097.21
868.149	1116.19
868.326	1192.14
868.503	1150.87
868.681	1105.73
868.858	1130.53
869.035	1080.35
869.213	1118.91
869.39	1130.53
869.567	1188.27
869.745	1100.89
869.922	1113.87
870.099	1144.87
870.276	1176.06
870.454	1158.24
870.631	1139.64
870.808	1101.47
870.985	1136.15
871.162	1145.45
871.339	1149.91
871.517	1062.14
871.694	1080.54
871.871	1090.81
872.048	1115.81
872.225	1078.8
872.402	1097.98
872.579	1058.65
872.756	1102.44
872.933	1050.13
873.11	1087.71
873.287	1079.96
873.463	1084.81
873.64	1030.17
873.817	1120.26
873.994	1092.75
874.171	1057.49
874.348	1084.42
874.524	1001.11
874.701	1088.29
874.878	1015.64
875.055	1038.11
875.231	1033.08
875.408	1060.2
875.585	976.7
875.762	1041.02
875.938	1049.16
876.115	1017.38
876.291	1015.45
876.468	1004.98
876.645	978.83
876.821	987.16
876.998	1023
877.174	1039.28
877.351	1000.33
877.527	956.93
877.704	991.61
877.88	1006.92
878.057	978.25
878.233	1026.3
878.409	942.6
878.586	1024.36
878.762	972.82
878.938	975.15
879.115	946.86
879.291	1012.15
879.467	901.13
879.644	930.97
879.82	977.86
879.996	948.99
880.172	938.53
880.349	936.59
880.525	987.55
880.701	892.03
880.877	935.23
881.053	974.18
881.229	943.18
881.405	967.4
881.581	920.32
881.757	939.3
881.933	956.74
882.109	986
882.285	976.5
882.461	863.74
882.637	950.54
882.813	922.64
882.989	912.18
883.165	988.32
883.341	892.03
883.517	959.84
883.693	994.91
883.869	963.52
884.044	955
884.22	937.17
884.396	988.71
884.572	981.54
884.747	998.01
884.923	978.25
885.099	984.25
885.275	1004.79
885.45	941.24
885.626	914.5
885.801	929.42
885.977	941.82
886.153	870.33
886.328	950.93
886.504	916.25
886.679	922.64
886.855	895.9
887.03	926.32
887.206	960.23
887.381	924.97
887.557	948.22
887.732	930.58
887.908	946.47
888.083	974.18
888.258	953.25
888.434	935.23
888.609	933.49
888.784	992.78
888.96	942.4
889.135	883.31
889.31	906.17
889.485	938.14
889.661	912.76
889.836	962.75
890.011	941.63
890.186	934.46
890.361	906.37
890.537	923.8
890.712	947.83
890.887	942.4
891.062	951.7
891.237	1003.24
891.412	915.08
891.587	948.8
891.762	956.93
891.937	981.93
892.112	879.05
892.287	904.04
892.462	881.57
892.637	919.15
892.812	835.65
892.987	876.72
893.161	839.91
893.336	860.64
893.511	853.28
893.686	874.2
893.861	834.29
894.035	845.53
894.21	850.76
894.385	795.15
894.56	853.09
894.734	766.09
894.909	794.38
895.084	795.15
895.258	766.67
895.433	782.95
895.608	761.64
895.782	722.5
895.957	721.53
896.131	719.01
896.306	683.56
896.48	701.96
896.655	680.26
896.829	597.34
897.004	622.14
897.178	601.99
897.353	603.54
897.527	643.45
897.701	632.79
897.876	584.75
898.05	666.31
898.224	644.81
898.399	685.69
898.573	610.51
898.747	511.12
898.921	571.38
899.096	501.63
899.27	498.92
899.444	492.72
899.618	549.1
899.792	562.08
899.967	541.35
900.141	572.54
900.315	509.77
900.489	563.43
900.663	566.73
900.837	518.1
901.011	492.91
901.185	605.28
901.359	540.57
901.533	546.19
901.707	553.16
901.881	546
902.055	501.43
902.229	581.84
902.403	606.44
902.576	564.21
902.75	547.16
902.924	675.81
903.098	586.1
903.272	654.11
903.446	679.49
903.619	655.66
903.793	674.84
903.967	653.14
904.14	695.18
904.314	731.61
904.488	672.71
904.661	717.85
904.835	680.46
905.009	689.56
905.182	759.12
905.356	717.07
905.529	698.09
905.703	654.88
905.876	674.45
906.05	642.09
906.223	609.16
906.397	570.02
906.57	586.1
906.744	546.77
906.917	540.38
907.09	552.2
907.264	560.53
907.437	514.8
907.61	481.09
907.784	514.61
907.957	521.2
908.13	468.3
908.304	542.7
908.477	490
908.65	489.81
908.823	456.68
908.996	535.73
909.17	514.8
909.343	484
909.516	490.97
909.689	480.12
909.862	465.59
910.035	471.21
910.208	465.59
910.381	447.77
910.554	546.77
910.727	493.88
910.9	451.25
911.073	455.9
911.246	535.15
911.419	524.49
911.592	529.14
911.765	453.58
911.938	434.01
912.11	488.07
912.283	477.99
912.456	521.39
912.629	469.27
912.802	453.77
912.974	404.75
913.147	404.75
913.32	351.67
913.493	398.94
913.665	391.97
913.838	420.06
914.01	424.52
914.183	427.04
914.356	414.25
914.528	468.88
914.701	489.81
914.873	470.24
915.046	387.32
915.218	396.42
915.391	357.29
915.563	323.77
915.736	393.13
915.908	446.8
916.081	393.32
916.253	414.83
916.425	404.75
916.598	406.3
916.77	439.43
916.942	368.72
917.115	330.36
917.287	411.92
917.459	382.47
917.632	381.5
917.804	289.47
917.976	390.42
918.148	390.22
918.32	425.68
918.493	442.92
918.665	459.39
918.837	422.19
919.009	479.35
919.181	455.13
919.353	444.08
919.525	436.14
919.697	429.75
919.869	483.42
920.041	494.07
920.213	550.06
920.385	484.58
920.557	433.04
920.729	467.72
920.901	472.37
921.073	432.85
921.244	426.84
921.416	480.9
921.588	469.27
921.76	424.13
921.932	527.2
922.103	421.42
922.275	455.52
922.447	459.39
922.619	372.79
922.79	437.11
922.962	393.32
923.134	443.89
923.305	386.15
923.477	372.98
923.648	353.99
923.82	390.8
923.991	357.87
924.163	340.24
924.335	376.85
924.506	333.07
924.677	399.72
924.849	352.05
925.02	375.3
925.192	409.6
925.363	385.19
925.535	374.72
925.706	348.18
925.877	409.02
926.049	331.32
926.22	359.61
926.391	373.37
926.562	398.94
926.734	352.83
926.905	392.74
927.076	324.93
927.247	350.5
927.419	309.62
927.59	323.96
927.761	299.16
927.932	308.66
928.103	318.92
928.274	239.1
928.445	255.57
928.616	283.27
928.787	281.34
928.958	287.34
929.129	278.43
929.3	244.72
929.471	235.42
929.642	181.94
929.813	147.65
929.984	267.97
930.155	167.8
930.326	209.07
930.496	150.95
930.667	124.4
930.838	179.43
931.009	132.15
931.18	169.16
931.35	153.66
931.521	152.5
931.692	112.97
931.863	63.57
932.033	116.65
932.204	126.34
932.374	124.79
932.545	82.94
932.716	140.68
932.886	152.5
933.057	29.66
933.227	62.4
933.398	134.86
933.568	45.93
933.739	26.75
933.909	52.13
934.08	82.36
934.25	5.05
934.421	45.35
934.591	68.8
934.761	40.51
934.932	4.47
935.102	54.85
935.272	40.12
935.443	43.42
935.613	51.36
935.783	47.48
935.953	23.46
936.123	186.01
936.294	31.4
936.464	21.72
936.634	22.3
936.804	4.08
936.974	10.09
937.144	55.23
937.314	63.57
937.484	44.19
937.655	14.93
937.825	75.97
937.995	14.35
938.165	73.83
938.334	29.85
938.504	64.92
938.674	18.42
938.844	56.59
939.014	107.35
939.184	107.16
939.354	126.34
939.524	146.88
939.694	110.26
939.863	88.56
940.033	144.75
940.203	131.57
940.373	110.26
940.542	134.67
940.712	82.16
940.882	124.4
941.051	128.08
941.221	90.69
941.391	168.19
941.56	43.8
941.73	59.69
941.899	204.61
942.069	68.99
942.238	121.5
942.408	86.81
942.577	120.91
942.747	95.15
942.916	4.28
943.086	69.38
943.255	101.54
943.425	89.91
943.594	65.31
943.763	28.5
943.933	20.94
944.102	5.44
944.271	55.82
944.441	56.4
944.61	45.55
944.779	65.5
944.948	131.76
945.117	37.99
945.287	65.7
945.456	6.22
945.625	27.92
945.794	85.65
945.963	31.21
946.132	73.64
946.301	36.83
946.47	91.85
946.639	19.78
946.808	48.07
946.977	65.7
947.146	107.74
947.315	70.73
947.484	98.25
947.653	55.82
947.822	34.31
947.991	37.02
948.16	118.78
948.329	83.13
948.498	81.78
948.666	69.18
948.835	99.02
949.004	17.65
949.173	16.29
949.341	66.67
949.51	92.05
949.679	103.28
949.847	93.79
950.016	141.06
950.185	117.62
950.353	44.19
950.522	78.68
950.69	109.87
950.859	46.9
951.028	87.4
951.196	89.91
951.365	46.13
951.533	71.32
951.701	80.23
951.87	121.88
952.038	15.52
952.207	66.08
952.375	129.05
952.543	43.03
952.712	61.82
952.88	70.73
953.048	143.97
953.217	62.79
953.385	74.22
953.553	97.66
953.721	31.6
953.89	57.37
954.058	30.24
954.226	55.82
954.394	69.38
954.562	11.64
954.73	52.13
954.898	68.02
955.067	107.35
955.235	19.2
955.403	93.01
955.571	116.07
955.739	76.35
955.907	22.68
956.075	54.46
956.243	44.58
956.41	80.23
956.578	18.03
956.746	16.48
956.914	67.63
957.082	95.73
957.25	96.7
957.418	53.68
957.585	58.33
957.753	128.28
957.921	47.1
958.089	73.25
958.256	80.23
958.424	62.98
958.592	88.56
958.759	50.78
958.927	81.78
959.095	42.83
959.262	73.06
959.43	73.83
959.597	36.25
959.765	47.29
959.932	37.6
960.1	89.72
960.267	80.23
960.435	63.37
960.602	88.95
960.77	61.82
960.937	22.1
961.104	77.9
961.272	31.98
961.439	35.47
961.606	87.2
961.774	89.33
961.941	56.59
962.108	91.46
962.275	61.43
962.443	94.18
962.61	76.93
962.777	137.19
962.944	88.17
963.111	88.95
963.278	77.52
963.446	93.6
963.613	69.57
963.78	88.75
963.947	108.51
964.114	74.22
964.281	179.43
964.448	92.43
964.615	66.08
964.782	95.92
964.949	106.58
965.116	99.8
965.282	106.19
965.449	72.09
965.616	82.36
965.783	100.38
965.95	93.4
966.117	21.72
966.283	62.98
966.45	89.72
966.617	76.93
966.784	105.03
966.95	108.51
967.117	127.89
967.284	56.59
967.45	62.4
967.617	150.17
967.784	110.06
967.95	145.71
968.117	76.16
968.283	115.1
968.45	194.34
968.616	103.67
968.783	148.81
968.949	76.93
969.116	141.45
969.282	90.3
969.449	128.28
969.615	109.29
969.781	75.77
969.948	58.72
970.114	59.5
970.28	156.37
970.447	97.08
970.613	150.17
970.779	104.45
970.945	120.14
971.112	122.08
971.278	115.68
971.444	92.24
971.61	141.06
971.776	103.09
971.942	105.41
972.108	112.2
972.275	82.94
972.441	102.31
972.607	163.54
972.773	86.62
972.939	124.79
973.105	92.82
973.271	57.75
973.437	80.81
973.602	67.63
973.768	115.3
973.934	78.29
974.1	94.56
974.266	40.7
974.432	118.98
974.598	102.9
974.763	132.35
974.929	75.97
975.095	145.71
975.261	63.18
975.426	73.83
975.592	73.25
975.758	148.23
975.923	50
976.089	50
976.255	118.78
976.42	83.91
976.586	114.33
976.751	120.33
976.917	210.23
977.082	90.11
977.248	70.15
977.413	35.86
977.579	56.78
977.744	88.56
977.91	55.23
978.075	74.8
978.24	111.42
978.406	81.58
978.571	92.24
978.736	56.4
978.902	92.05
979.067	40.9
979.232	49.62
979.397	68.41
979.563	145.52
979.728	52.72
979.893	74.03
980.058	95.15
980.223	133.7
980.388	81.78
980.554	88.36
980.719	54.85
980.884	109.48
981.049	117.04
981.214	70.54
981.379	92.82
981.544	48.07
981.709	95.92
981.874	43.8
982.039	86.04
982.204	75.19
982.368	67.83
982.533	37.22
982.698	98.63
982.863	103.67
983.028	51.17
983.193	91.08
983.357	79.07
983.522	90.11
983.687	65.5
983.852	47.68
984.016	66.28
984.181	85.07
984.346	102.51
984.51	116.46
984.675	91.08
984.839	100.57
985.004	93.79
985.168	110.45
985.333	109.1
985.498	88.17
985.662	103.09
985.827	88.95
985.991	57.37
986.155	73.64
986.32	102.12
986.484	136.22
986.649	117.81
986.813	29.66
986.977	91.27
987.142	115.68
987.306	62.4
987.47	54.65
987.634	78.1
987.799	89.72
987.963	71.12
988.127	93.6
988.291	162.18
988.455	70.15
988.62	60.27
988.784	127.11
988.948	117.81
989.112	23.85
989.276	91.46
989.44	73.64
989.604	92.82
989.768	43.8
989.932	150.36
990.096	32.37
990.26	43.42
990.424	38.38
990.588	53.49
990.752	146.3
990.915	110.65
991.079	64.15
991.243	75.19
991.407	109.48
991.571	64.53
991.734	79.45
991.898	87.2
992.062	190.08
992.226	62.02
992.389	81.58
992.553	31.4
992.717	37.6
992.88	35.67
993.044	87.2
993.207	87.98
993.371	81.78
993.535	75.58
993.698	91.46
993.862	97.28
994.025	108.13
994.189	78.87
994.352	83.13
994.515	104.45
994.679	104.83
994.842	65.7
995.006	91.46
995.169	41.87
995.332	31.4
995.496	108.32
995.659	46.13
995.822	69.77
995.985	57.95
996.149	129.25
996.312	58.53
996.475	140.48
996.638	26.75
996.801	128.28
996.964	126.73
997.128	53.88
997.291	55.04
997.454	54.27
997.617	24.04
997.78	99.02
997.943	37.8
998.106	102.12
998.269	49.23
998.432	55.82
998.595	90.5
998.758	37.8
998.92	54.46
999.083	9.12
999.246	34.5
999.409	30.24
999.572	18.62
999.735	22.3
999.897	63.18
1000.06	35.28
1000.223	49.42
1000.386	84.88
1000.548	107.16
1000.711	85.65
1000.874	75.97
1001.036	10.87
1001.199	90.3
1001.361	18.42
1001.524	66.86
1001.687	97.86
1001.849	16.1
1002.012	80.81
1002.174	81
1002.337	75.77
1002.499	58.72
1002.661	91.08
1002.824	28.5
1002.986	23.07
1003.149	46.71
1003.311	21.91
1003.473	105.03
1003.636	55.04
1003.798	50
1003.96	77.9
1004.123	42.45
1004.285	47.1
1004.447	65.5
1004.609	48.26
1004.771	104.64
1004.933	30.82
1005.096	19.97
1005.258	-0.57
1005.42	29.08
1005.582	81
1005.744	83.91
1005.906	10.48
1006.068	52.33
1006.23	-6.18
1006.392	0.79
1006.554	34.5
1006.716	78.87
1006.878	47.68
1007.04	28.5
1007.202	23.85
1007.363	62.98
1007.525	56.98
1007.687	56.4
1007.849	69.96
1008.011	-20.13
1008.172	-11.22
1008.334	13.38
1008.496	55.62
1008.658	-19.75
1008.819	24.62
1008.981	4.86
1009.143	8.73
1009.304	25.98
1009.466	58.14
1009.627	102.31
1009.789	126.15
1009.95	46.9
1010.112	33.34
1010.273	35.47
1010.435	28.3
1010.596	49.03
1010.758	27.14
1010.919	44.77
1011.081	19.97
1011.242	37.99
1011.403	71.32
1011.565	24.04
1011.726	47.87
1011.887	-6.57
1012.049	19.97
1012.21	60.08
1012.371	99.21
1012.532	-49.2
1012.693	41.28
1012.855	-1.34
1013.016	52.13
1013.177	83.91
1013.338	11.83
1013.499	86.43
1013.66	79.45
1013.821	56.2
1013.982	68.99
1014.143	52.13
1014.304	11.06
1014.465	64.53
1014.626	77.13
1014.787	37.99
1014.948	96.31
1015.109	-41.25
1015.27	75
1015.431	2.34
1015.592	10.28
1015.752	76.93
1015.913	33.73
1016.074	54.07
1016.235	28.5
1016.395	7.18
1016.556	42.06
1016.717	38.38
1016.877	81.39
1017.038	18.81
1017.199	36.63
1017.359	19.2
1017.52	33.34
1017.681	5.25
1017.841	49.03
1018.002	18.81
1018.162	6.8
1018.323	72.67
1018.483	22.88
1018.644	16.1
1018.804	-28.08
1018.964	-5.22
1019.125	6.6
1019.285	16.29
1019.446	-1.15
1019.606	-4.25
1019.766	-31.76
1019.926	23.85
1020.087	55.43
1020.247	-7.54
1020.407	64.92
1020.567	65.5
1020.728	11.06
1020.888	1.76
1021.048	-6.77
1021.208	-4.63
1021.368	-5.8
1021.528	69.96
1021.688	56.2
1021.848	35.67
1022.008	39.73
1022.168	2.34
1022.328	39.54
1022.488	69.96
1022.648	-0.57
1022.808	35.86
1022.968	36.63
1023.128	14.35
1023.288	24.43
1023.448	37.41
1023.608	48.84
1023.767	36.63
1023.927	37.99
1024.087	6.99
1024.247	-29.82
1024.406	25.98
1024.566	-7.54
1024.726	-16.06
1024.885	39.35
1025.045	45.74
1025.205	20.55
1025.364	15.9
1025.524	50.78
1025.683	-0.37
1025.843	32.18
1026.003	13.19
1026.162	64.92
1026.321	60.27
1026.481	22.1
1026.64	24.62
1026.8	19.97
1026.959	15.9
1027.119	33.73
1027.278	11.06
1027.437	3.7
1027.597	10.87
1027.756	67.25
1027.915	53.1
1028.074	31.21
1028.234	22.3
1028.393	47.1
1028.552	18.81
1028.711	-38.93
1028.87	49.42
1029.03	-13.16
1029.189	-6.57
1029.348	-37.18
1029.507	-6.57
1029.666	24.62
1029.825	-18
1029.984	-8.51
1030.143	27.92
1030.302	7.77
1030.461	-24.4
1030.62	28.11
1030.779	28.3
1030.938	9.51
1031.097	-30.6
1031.255	44.58
1031.414	83.91
1031.573	59.88
1031.732	-34.86
1031.891	9.51
1032.049	72.48
1032.208	33.73
1032.367	17.45
1032.525	23.07
1032.684	-1.73
1032.843	17.65
1033.001	-0.37
1033.16	154.05
1033.319	56.78
1033.477	22.1
1033.636	16.87
1033.794	-38.15
1033.953	61.24
1034.111	35.08
1034.27	12.8
1034.428	43.22
1034.587	-31.95
1034.745	16.29
1034.903	27.53
1035.062	24.62
1035.22	-6.96
1035.378	41.09
1035.537	10.28
1035.695	39.54
1035.853	14.55
1036.011	33.15
1036.17	36.25
1036.328	-45.13
1036.486	33.53
1036.644	27.53
1036.802	-65.86
1036.96	-5.41
1037.119	3.12
1037.277	-28.66
1037.435	-19.36
1037.593	3.5
1037.751	10.67
1037.909	44
1038.067	44
