Data from pine_FLMT105791__156__17-23-10-073.txt Node

Date: Mon Mar 20 17:23:10 GMT 2023
User: antho
Spectrometer: FLMT10579
Trigger mode: 0
Integration Time (sec): 1.000000E-1
Scans to average: 10
Electric dark correction enabled: true
Nonlinearity correction enabled: false
Boxcar width: 0
XAxis mode: Wavelengths
Number of Pixels in Spectrum: 3648
>>>>>Begin Spectral Data<<<<<
345.248	-148.64
345.464	-148.64
345.681	-148.64
345.898	-161.62
346.114	-167.82
346.331	-33.55
346.548	34.84
346.764	5.01
346.981	-12.63
347.197	-28.71
347.414	1.32
347.631	-17.86
347.847	42.2
348.064	25.15
348.28	3.84
348.497	-21.54
348.713	1.91
348.93	39.49
349.146	1.71
349.363	-5.84
349.579	16.63
349.796	9.46
350.012	-7.98
350.229	8.69
350.445	3.65
350.661	-21.73
350.878	-1.97
351.094	25.15
351.311	23.6
351.527	23.22
351.743	-23.67
351.96	44.92
352.176	29.61
352.392	29.22
352.609	20.5
352.825	-20.38
353.041	-3.52
353.257	-20.38
353.474	7.33
353.69	19.34
353.906	36
354.122	-34.91
354.339	56.93
354.555	-0.42
354.771	-2.16
354.987	81.54
355.203	64.68
355.42	-8.75
355.636	7.52
355.852	-7.98
356.068	10.43
356.284	-28.32
356.5	71.27
356.716	20.12
356.932	-28.13
357.148	31.94
357.364	-2.36
357.58	33.68
357.796	52.09
358.012	42.79
358.228	29.61
358.444	-48.86
358.66	32.32
358.876	15.85
359.092	-39.94
359.308	5.01
359.524	-6.81
359.74	-19.21
359.956	-7.78
360.172	6.17
360.388	38.33
360.604	3.65
360.819	67.59
361.035	25.74
361.251	31.16
361.467	-2.36
361.683	35.42
361.898	14.11
362.114	51.12
362.33	5.59
362.546	35.62
362.762	-4.49
362.977	7.52
363.193	-22.7
363.409	73.98
363.624	8.69
363.84	-19.41
364.056	-9.53
364.271	39.69
364.487	32.71
364.703	-3.13
364.918	-22.7
365.134	-1
365.35	-13.01
365.565	96.65
365.781	20.7
365.996	32.13
366.212	71.07
366.427	18.57
366.643	1.52
366.858	-17.08
367.074	-25.99
367.289	58.67
367.505	91.61
367.72	-12.82
367.936	4.04
368.151	42.01
368.367	26.32
368.582	-2.55
368.798	-19.6
369.013	48.79
369.228	49.76
369.444	7.91
369.659	76.3
369.874	35.62
370.09	60.61
370.305	-32.19
370.52	17.79
370.736	70.3
370.951	-12.43
371.166	77.27
371.381	76.69
371.597	38.91
371.812	-36.07
372.027	-21.93
372.242	38.14
372.458	76.69
372.673	-14.76
372.888	10.04
373.103	21.28
373.318	104.59
373.533	39.88
373.749	30.19
373.964	-18.24
374.179	62.74
374.394	-13.59
374.609	57.12
374.824	-16.31
375.039	62.74
375.254	-0.81
375.469	65.07
375.684	29.03
375.899	52.09
376.114	4.81
376.329	23.8
376.544	41.24
376.759	58.29
376.974	30.19
377.189	12.76
377.404	-1.39
377.619	49.37
377.834	-36.84
378.049	-18.24
378.264	-13.21
378.478	8.88
378.693	-4.68
378.908	57.32
379.123	1.13
379.338	49.76
379.553	22.44
379.767	26.32
379.982	43.17
380.197	31.74
380.412	-0.03
380.626	36.59
380.841	85.41
381.056	25.35
381.271	91.42
381.485	2.68
381.7	-7.98
381.915	39.69
382.129	-0.42
382.344	32.32
382.559	12.37
382.773	36.2
382.988	-10.69
383.202	23.99
383.417	-10.88
383.632	95.68
383.846	25.93
384.061	16.44
384.275	16.63
384.49	31.35
384.704	53.83
384.919	24.38
385.133	23.99
385.348	37.17
385.562	-21.54
385.777	29.61
385.991	2.87
386.206	20.7
386.42	3.07
386.634	84.64
386.849	36.39
387.063	41.04
387.277	-9.14
387.492	6.75
387.706	-1.97
387.92	-18.63
388.135	32.32
388.349	-5.65
388.563	26.32
388.778	24.57
388.992	68.17
389.206	49.57
389.42	80.37
389.635	23.6
389.849	47.63
390.063	59.25
390.277	27.29
390.491	90.45
390.706	44.34
390.92	41.82
391.134	28.45
391.348	71.65
391.562	-3.71
391.776	7.33
391.99	-6.23
392.205	53.64
392.419	-24.06
392.633	28.06
392.847	55.77
393.061	8.69
393.275	81.34
393.489	29.03
393.703	58.67
393.917	92.97
394.131	5.01
394.345	35.62
394.559	81.73
394.773	11.4
394.986	39.3
395.2	24.19
395.414	63.71
395.628	12.95
395.842	44.14
396.056	23.02
396.27	-28.9
396.484	35.42
396.697	42.98
396.911	79.79
397.125	57.32
397.339	61.39
397.553	55.19
397.766	92
397.98	60.61
398.194	85.99
398.408	-12.04
398.621	47.63
398.835	62.74
399.049	31.55
399.262	58.87
399.476	80.76
399.69	59.06
399.903	144.31
400.117	42.59
400.331	51.89
400.544	42.79
400.758	161.55
400.971	46.08
401.185	82.7
401.398	22.25
401.612	76.11
401.826	96.26
402.039	82.31
402.253	13.34
402.466	65.26
402.68	55.77
402.893	83.47
403.106	44.72
403.32	52.86
403.533	72.04
403.747	57.12
403.96	40.27
404.174	80.37
404.387	-17.86
404.6	55.19
404.814	105.95
405.027	47.05
405.24	63.13
405.454	53.44
405.667	82.5
405.88	-0.81
406.094	74.17
406.307	106.72
406.52	60.8
406.733	39.1
406.947	5.78
407.16	123.58
407.373	91.61
407.586	59.25
407.799	46.47
408.012	65.65
408.226	84.25
408.439	108.47
408.652	3.26
408.865	58.67
409.078	79.6
409.291	107.5
409.504	42.59
409.717	78.05
409.93	72.24
410.143	38.14
410.357	23.02
410.57	47.63
410.783	50.54
410.996	82.7
411.209	54.6
411.421	115.63
411.634	43.17
411.847	36.39
412.06	67.59
412.273	63.13
412.486	71.27
412.699	144.12
412.912	83.47
413.125	89.48
413.338	80.57
413.55	102.65
413.763	71.07
413.976	85.6
414.189	45.11
414.402	57.32
414.615	128.62
414.827	46.66
415.04	84.83
415.253	110.21
415.466	79.02
415.678	145.67
415.891	87.15
416.104	83.28
416.316	70.1
416.529	40.65
416.742	119.32
416.954	115.25
417.167	45.3
417.38	70.3
417.592	113.7
417.805	42.2
418.017	51.12
418.23	95.49
418.442	53.64
418.655	36
418.868	79.21
419.08	136.56
419.293	110.79
419.505	97.62
419.718	91.42
419.93	144.7
420.142	39.3
420.355	114.67
420.567	129.58
420.78	112.73
420.992	88.32
421.205	115.44
421.417	60.42
421.629	73.79
421.842	68.55
422.054	43.95
422.266	108.85
422.479	102.65
422.691	76.89
422.903	104.2
423.115	76.5
423.328	86.38
423.54	93.35
423.752	75.14
423.964	70.88
424.177	97.81
424.389	71.85
424.601	182.67
424.813	99.75
425.025	125.52
425.238	113.12
425.45	59.06
425.662	84.05
425.874	386.11
426.086	85.99
426.298	136.56
426.51	101.1
426.722	92.77
426.934	86.19
427.146	130.94
427.358	74.37
427.57	145.28
427.782	90.45
427.994	115.63
428.206	89.48
428.418	43.95
428.63	94.52
428.842	134.23
429.054	105.56
429.266	137.33
429.478	63.13
429.69	97.42
429.902	47.05
430.114	130.17
430.325	120.48
430.537	91.22
430.749	116.8
430.961	48.99
431.173	97.81
431.384	123.77
431.596	53.05
431.808	101.49
432.02	124.93
432.231	156.32
432.443	145.47
432.655	123.38
432.867	78.24
433.078	135.59
433.29	186.16
433.502	152.06
433.713	137.14
433.925	123.77
434.136	164.07
434.348	92.97
434.56	84.05
434.771	213.09
434.983	86.57
435.194	91.42
435.406	123.77
435.617	199.72
435.829	202.63
436.04	177.83
436.252	175.7
436.463	221.42
436.675	180.54
436.886	189.26
437.098	190.03
437.309	242.15
437.521	151.67
437.732	162.13
437.943	164.27
438.155	176.08
438.366	125.52
438.578	214.64
438.789	194.88
439	173.95
439.211	159.42
439.423	204.37
439.634	191.97
439.845	188.29
440.057	182.67
440.268	194.88
440.479	165.82
440.69	184.61
440.902	151.09
441.113	185.38
441.324	160.78
441.535	198.36
441.746	277.03
441.957	157.29
442.168	191
442.38	224.71
442.591	206.5
442.802	200.3
443.013	191.58
443.224	218.51
443.435	196.62
443.646	178.99
443.857	203.98
444.068	178.02
444.279	160.97
444.49	268.31
444.701	202.63
444.912	320.23
445.123	258.04
445.334	261.14
445.545	233.63
445.756	228.78
445.967	165.23
446.178	230.53
446.388	269.08
446.599	238.28
446.81	270.83
447.021	208.05
447.232	258.04
447.443	281.68
447.653	188.1
447.864	279.35
448.075	210.57
448.286	253.58
448.496	241.18
448.707	274.7
448.918	238.86
449.129	340.96
449.339	204.37
449.55	263.85
449.761	238.86
449.971	312.68
450.182	247
450.393	267.53
450.603	241.18
450.814	282.84
451.024	294.08
451.235	290.01
451.446	294.46
451.656	341.93
451.867	238.28
452.077	258.81
452.288	337.67
452.498	308.03
452.709	241.57
452.919	273.54
453.13	241.18
453.34	289.62
453.55	194.49
453.761	315.97
453.971	286.13
454.182	307.06
454.392	311.71
454.602	355.88
454.813	284.58
455.023	316.55
455.233	245.45
455.444	275.28
455.654	238.47
455.864	271.21
456.075	266.56
456.285	266.37
456.495	277.22
456.705	321.59
456.916	335.54
457.126	321.59
457.336	293.11
457.546	242.35
457.756	250.1
457.967	318.1
458.177	313.45
458.387	310.74
458.597	283.61
458.807	277.61
459.017	297.56
459.227	276.64
459.437	286.71
459.647	345.42
459.857	328.18
460.068	294.85
460.278	323.33
460.488	322.56
460.698	362.47
460.908	308.41
461.117	292.33
461.327	299.5
461.537	305.51
461.747	326.43
461.957	341.54
462.167	404.32
462.377	359.76
462.587	324.88
462.797	357.04
463.007	341.16
463.216	376.22
463.426	375.26
463.636	399.09
463.846	294.08
464.056	324.88
464.265	375.64
464.475	342.9
464.685	326.63
464.895	377.39
465.104	332.63
465.314	373.32
465.524	321.01
465.733	294.46
465.943	398.12
466.153	386.88
466.362	409.16
466.572	362.47
466.782	317.71
466.991	356.85
467.201	418.07
467.41	300.28
467.62	382.81
467.829	354.72
468.039	406.84
468.249	352.39
468.458	349.49
468.668	406.45
468.877	389.21
469.086	449.07
469.296	423.31
469.505	370.61
469.715	441.52
469.924	384.56
470.134	455.08
470.343	408.97
470.552	369.64
470.762	351.81
470.971	370.41
471.18	383.59
471.39	412.46
471.599	364.99
471.808	407.03
472.018	375.84
472.227	442.1
472.436	450.82
472.645	429.7
472.855	384.94
473.064	472.9
473.273	434.35
473.482	441.32
473.691	467.67
473.901	455.47
474.11	440.94
474.319	523.28
474.528	444.42
474.737	481.62
474.946	463.8
475.155	439.19
475.364	486.85
475.573	459.34
475.783	456.82
475.992	485.3
476.201	515.72
476.41	466.32
476.619	437.64
476.828	462.64
477.037	462.64
477.245	482.79
477.454	515.53
477.663	468.06
477.872	468.45
478.081	535.68
478.29	475.62
478.499	569.39
478.708	518.82
478.917	573.27
479.125	504.29
479.334	531.61
479.543	504.68
479.752	534.9
479.961	519.79
480.169	583.73
480.378	511.65
480.587	679.25
480.796	581.02
481.004	556.22
481.213	569.58
481.422	578.88
481.63	564.35
481.839	600.39
482.048	617.83
482.256	592.45
482.465	593.22
482.674	603.68
482.882	611.63
483.091	682.54
483.299	608.14
483.508	641.66
483.716	604.07
483.925	584.31
484.134	599.81
484.342	608.72
484.551	637.59
484.759	629.65
484.967	621.12
485.176	658.9
485.384	624.61
485.593	668.4
485.801	637.4
486.01	634.1
486.218	574.23
486.426	545.75
486.635	551.57
486.843	561.25
487.051	578.3
487.26	594.97
487.468	612.79
487.676	642.63
487.885	603.88
488.093	646.5
488.301	664.33
488.509	654.64
488.717	699.78
488.926	658.71
489.134	665.88
489.342	685.83
489.55	613.37
489.758	645.53
489.967	657.55
490.175	750.16
490.383	683.7
490.591	780.96
490.799	672.27
491.007	755.39
491.215	712.18
491.423	701.53
491.631	685.45
491.839	703.27
492.047	738.92
492.255	681.18
492.463	657.55
492.671	702.88
492.879	713.73
493.087	704.05
493.295	724.39
493.503	766.63
493.711	758.68
493.919	775.73
494.127	770.69
494.334	798.79
494.542	711.8
494.75	780.77
494.958	729.81
495.166	797.24
495.374	759.46
495.581	793.56
495.789	804.21
495.997	830.56
496.205	778.25
496.412	752.48
496.62	777.09
496.828	817.19
497.035	788.52
497.243	816.81
497.451	789.29
497.658	798.98
497.866	816.61
498.074	846.84
498.281	743.96
498.489	886.75
498.696	792.2
498.904	755.39
499.112	829.21
499.319	889.65
499.527	813.71
499.734	902.64
499.942	787.36
500.149	820.87
500.357	829.21
500.564	790.26
500.771	813.51
500.979	767.79
501.186	781.54
501.394	783.29
501.601	790.46
501.808	824.75
502.016	793.94
502.223	816.81
502.43	827.07
502.638	832.11
502.845	759.07
503.052	859.82
503.26	811.38
503.467	884.81
503.674	821.65
503.881	832.5
504.089	912.32
504.296	854.97
504.503	784.26
504.71	862.34
504.917	810.8
505.125	852.26
505.332	843.93
505.539	849.55
505.746	934.8
505.953	918.33
506.16	926.66
506.367	991.76
506.574	974.71
506.781	938.87
506.988	883.46
507.195	901.86
507.402	878.81
507.609	925.89
507.816	878.61
508.023	861.95
508.23	876.29
508.437	872.41
508.644	893.53
508.851	932.67
509.058	939.45
509.265	922.2
509.472	934.22
509.679	1010.36
509.885	952.24
510.092	931.5
510.299	936.54
510.506	930.34
510.713	936.93
510.92	946.62
511.126	959.99
511.333	994.47
511.54	978.97
511.746	1017.14
511.953	1009.39
512.16	1028.18
512.367	978.78
512.573	975.87
512.78	960.57
512.987	946.62
513.193	956.5
513.4	899.92
513.606	951.65
513.813	968.7
514.02	1000.09
514.226	1069.84
514.433	1028.18
514.639	974.52
514.846	972.77
515.052	961.54
515.259	996.6
515.465	986.53
515.672	969.67
515.878	1043.68
516.085	1016.56
516.291	1049.11
516.497	971.22
516.704	974.9
516.91	960.57
517.117	906.9
517.323	858.85
517.529	916
517.736	890.82
517.942	916.97
518.148	898.57
518.354	977.81
518.561	925.11
518.767	947.78
518.973	973.94
519.179	1016.75
519.386	962.31
519.592	983.43
519.798	969.87
520.004	1068.48
520.21	1023.73
520.417	1075.46
520.623	1087.47
520.829	1095.8
521.035	1082.24
521.241	1094.83
521.447	1097.93
521.653	1181.83
521.859	1078.95
522.065	1102
522.271	1178.14
522.477	1142.69
522.683	1172.53
522.889	1128.55
523.095	1100.84
523.301	1160.13
523.507	1084.18
523.713	1158.77
523.919	1097.16
524.125	1153.34
524.331	1162.45
524.537	1227.16
524.742	1186.48
524.948	1188.22
525.154	1181.83
525.36	1293.04
525.566	1217.67
525.772	1246.54
525.977	1149.08
526.183	1229.1
526.389	1200.43
526.595	1171.56
526.8	1137.85
527.006	1124.28
527.212	1098.13
527.417	1053.57
527.623	1082.63
527.829	1170.59
528.034	1161.48
528.24	1188.61
528.446	1141.33
528.651	1255.64
528.857	1220.38
529.062	1277.34
529.268	1247.51
529.473	1242.86
529.679	1284.51
529.884	1337.21
530.09	1292.26
530.295	1286.84
530.501	1334.69
530.706	1285.48
530.912	1248.09
531.117	1286.84
531.323	1298.66
531.528	1296.33
531.733	1330.04
531.939	1250.99
532.144	1350.58
532.35	1321.71
532.555	1338.95
532.76	1334.69
532.966	1335.47
533.171	1325.97
533.376	1286.84
533.581	1263.2
533.787	1287.22
533.992	1338.76
534.197	1332.75
534.402	1288.58
534.607	1310.28
534.813	1394.56
535.018	1330.82
535.223	1315.71
535.428	1336.82
535.633	1397.08
535.838	1375.57
536.043	1409.09
536.249	1443.58
536.454	1315.51
536.659	1407.35
536.864	1369.18
537.069	1372.09
537.274	1371.31
537.479	1372.67
537.684	1365.3
537.889	1338.95
538.094	1460.63
538.299	1387.97
538.504	1407.35
538.708	1390.1
538.913	1430.79
539.118	1387.39
539.323	1393.98
539.528	1356.97
539.733	1414.71
539.938	1389.91
540.142	1387.2
540.347	1364.53
540.552	1334.69
540.757	1338.37
540.962	1342.64
541.166	1315.71
541.371	1339.92
541.576	1381.39
541.781	1274.44
541.985	1350
542.19	1378.87
542.395	1433.12
542.599	1425.95
542.804	1370.73
543.008	1448.23
543.213	1392.24
543.418	1326.55
543.622	1392.82
543.827	1336.82
544.031	1445.13
544.236	1460.63
544.44	1429.63
544.645	1473.22
544.849	1387.39
545.054	1466.05
545.258	1511.58
545.463	1488.14
545.667	1398.05
545.872	1469.73
546.076	1448.81
546.281	1455.2
546.485	1444.16
546.689	1433.5
546.894	1479.62
547.098	1463.92
547.302	1423.23
547.507	1449.2
547.711	1458.5
547.915	1479.42
548.119	1432.92
548.324	1443.38
548.528	1480.58
548.732	1423.23
548.936	1448.62
549.141	1507.13
549.345	1422.07
549.549	1435.25
549.753	1440.28
549.957	1560.02
550.161	1521.08
550.366	1441.06
550.57	1388.94
550.774	1454.04
550.978	1438.73
551.182	1482.33
551.386	1442.61
551.59	1452.3
551.794	1447.45
551.998	1493.95
552.202	1474.77
552.406	1412.39
552.61	1483.68
552.814	1464.31
553.018	1540.65
553.222	1475.93
553.426	1464.12
553.63	1526.5
553.833	1472.83
554.037	1425.75
554.241	1497.83
554.445	1497.25
554.649	1484.27
554.853	1477.48
555.056	1517.59
555.26	1525.53
555.464	1482.91
555.668	1478.26
555.871	1544.71
556.075	1518.17
556.279	1437.57
556.483	1455.2
556.686	1451.13
556.89	1446.68
557.094	1511.39
557.297	1397.27
557.501	1462.37
557.704	1387.59
557.908	1507.51
558.112	1403.67
558.315	1491.43
558.519	1431.76
558.722	1418.2
558.926	1421.68
559.129	1367.05
559.333	1369.95
559.536	1369.57
559.74	1357.94
559.943	1352.71
560.147	1375.38
560.35	1346.7
560.553	1340.31
560.757	1351.16
560.96	1406.96
561.164	1372.09
561.367	1458.69
561.57	1394.17
561.774	1430.6
561.977	1388.17
562.18	1366.47
562.384	1472.64
562.587	1359.88
562.79	1402.31
562.993	1362.98
563.197	1416.45
563.4	1436.41
563.603	1441.83
563.806	1477.68
564.009	1353.68
564.212	1404.44
564.416	1340.5
564.619	1401.54
564.822	1292.26
565.025	1431.76
565.228	1361.82
565.431	1345.15
565.634	1301.17
565.837	1339.73
566.04	1345.74
566.243	1301.56
566.446	1265.14
566.649	1362.98
566.852	1266.49
567.055	1317.84
567.258	1350.19
567.461	1373.64
567.664	1380.22
567.867	1298.46
568.07	1335.08
568.273	1279.09
568.475	1371.12
568.678	1298.27
568.881	1319.77
569.084	1312.22
569.287	1216.89
569.489	1235.88
569.692	1317.26
569.895	1281.61
570.098	1246.92
570.3	1218.64
570.503	1152.96
570.706	1228.33
570.909	1197.52
571.111	1183.57
571.314	1171.56
571.516	1213.21
571.719	1222.9
571.922	1180.08
572.124	1199.26
572.327	1217.67
572.529	1177.76
572.732	1196.94
572.935	1236.27
573.137	1275.99
573.34	1198.49
573.542	1262.42
573.745	1252.35
573.947	1246.34
574.15	1210.5
574.352	1179.5
574.554	1306.41
574.757	1178.14
574.959	1179.11
575.162	1156.64
575.364	1196.74
575.566	1311.25
575.769	1131.26
575.971	1192.87
576.173	1123.12
576.376	1188.8
576.578	1188.03
576.78	1230.07
576.982	1105.1
577.185	1141.14
577.387	1108.2
577.589	1116.92
577.791	1198.1
577.993	1179.31
578.196	1136.49
578.398	1183.96
578.6	1203.91
578.802	1087.28
579.004	1144.24
579.206	1138.62
579.408	1160.51
579.61	1118.08
579.812	1181.83
580.014	1165.94
580.216	1117.31
580.418	1110.53
580.62	1101.03
580.822	1104.13
581.024	1135.91
581.226	1179.89
581.428	1156.25
581.63	1214.76
581.832	1130.87
582.034	1184.34
582.236	1136.1
582.438	1179.69
582.64	1199.07
582.841	1187.83
583.043	1244.41
583.245	1200.04
583.447	1165.74
583.649	1148.31
583.85	1208.56
584.052	1198.68
584.254	1123.9
584.456	1220.19
584.657	1108.2
584.859	1173.3
585.061	1174.27
585.262	1144.24
585.464	1115.76
585.666	1155.67
585.867	1113.82
586.069	1190.54
586.27	1137.46
586.472	1150.25
586.674	1116.34
586.875	1146.18
587.077	1086.11
587.278	1134.36
587.48	1160.51
587.681	1182.41
587.883	1146.56
588.084	1028.77
588.285	1077.59
588.487	1075.65
588.688	1086.89
588.89	1022.95
589.091	1034.77
589.292	1042.91
589.494	1015.78
589.695	993.12
589.896	904.96
590.098	945.07
590.299	1011.91
590.5	938.09
590.702	1020.63
590.903	1014.43
591.104	1078.56
591.305	1055.7
591.507	1123.9
591.708	1081.66
591.909	1018.69
592.11	1091.35
592.311	1064.22
592.512	1038.84
592.714	1015.01
592.915	1010.55
593.116	1025.28
593.317	1042.33
593.518	1046.78
593.719	1037.48
593.92	1046.78
594.121	1094.45
594.322	1044.27
594.523	1042.13
594.724	1000.67
594.925	1039.42
595.126	1021.4
595.327	1023.53
595.528	1030.51
595.729	1041.75
595.929	1053.37
596.13	1034.58
596.331	1046.01
596.532	1036.13
596.733	1083.01
596.934	1091.93
597.135	1060.93
597.335	1078.56
597.536	1013.65
597.737	1025.47
597.938	1018.88
598.138	1061.9
598.339	1018.5
598.54	1062.87
598.74	1022.76
598.941	1051.63
599.142	1129.13
599.342	1070.42
599.543	1057.25
599.744	1039.62
599.944	1057.44
600.145	1028.18
600.345	1076.43
600.546	1121.57
600.746	1100.45
600.947	1095.61
601.147	1071
601.348	1104.91
601.548	1046.98
601.749	1041.75
601.949	1008.62
602.15	1045.23
602.35	1045.82
602.551	1059.96
602.751	1064.8
602.951	1038.26
603.152	979.55
603.352	1061.12
603.552	1028.77
603.753	1072.16
603.953	1078.17
604.153	1036.9
604.354	1033.22
604.554	1028.77
604.754	1055.89
604.954	1027.02
605.155	1097.16
605.355	1046.01
605.555	1088.63
605.755	1097.55
605.955	1037.87
606.155	1069.26
606.356	1039.03
606.556	1082.05
606.756	1035.93
606.956	1008.81
607.156	1110.33
607.356	1011.91
607.556	1052.98
607.756	1035.93
607.956	1070.81
608.156	1052.02
608.356	1032.25
608.556	1046.2
608.756	1039.42
608.956	992.15
609.156	1025.28
609.356	974.52
609.556	968.12
609.755	1037.87
609.955	987.69
610.155	1027.99
610.355	1023.34
610.555	1000.87
610.755	1012.49
610.954	961.34
611.154	1013.65
611.354	1024.89
611.554	998.54
611.753	973.35
611.953	955.92
612.153	1055.5
612.352	1017.53
612.552	946.04
612.752	933.64
612.951	986.33
613.151	980.52
613.351	970.84
613.55	1019.47
613.75	996.8
613.949	962.5
614.149	982.46
614.348	967.93
614.548	945.26
614.747	946.42
614.947	949.33
615.146	892.75
615.346	987.69
615.545	971.42
615.745	940.42
615.944	991.95
616.144	958.63
616.343	982.27
616.542	945.45
616.742	951.27
616.941	921.62
617.14	881.32
617.34	951.46
617.539	947.78
617.738	936.15
617.938	1019.27
618.137	938.09
618.336	915.42
618.535	985.95
618.734	939.06
618.934	970.45
619.133	967.54
619.332	980.33
619.531	926.66
619.73	928.99
619.929	977.62
620.128	999.32
620.328	999.7
620.527	941.97
620.726	925.3
620.925	956.3
621.124	924.53
621.323	955.72
621.522	893.34
621.721	915.42
621.92	875.51
622.119	959.6
622.318	928.02
622.517	891.59
622.715	933.25
622.914	860.21
623.113	905.74
623.312	865.63
623.511	923.56
623.71	915.42
623.909	883.07
624.107	933.25
624.306	817.97
624.505	825.91
624.704	868.15
624.902	870.67
625.101	927.63
625.3	874.93
625.499	878.42
625.697	863.89
625.896	840.64
626.095	911.55
626.293	847.42
626.492	892.37
626.69	913.49
626.889	836.37
627.088	910.97
627.286	858.66
627.485	838.31
627.683	830.17
627.882	875.9
628.08	795.88
628.279	824.17
628.477	899.34
628.676	772.44
628.874	843.35
629.073	849.74
629.271	800.53
629.469	861.17
629.668	798.01
629.866	824.17
630.065	799.18
630.263	872.41
630.461	825.91
630.66	831.72
630.858	849.16
631.056	890.43
631.254	844.12
631.453	800.53
631.651	878.61
631.849	855.17
632.047	825.14
632.245	856.52
632.444	853.42
632.642	859.24
632.84	857.3
633.038	856.14
633.236	815.84
633.434	792.39
633.632	763.53
633.83	802.08
634.028	874.74
634.227	813.32
634.425	885.01
634.623	802.47
634.821	837.92
635.019	833.08
635.216	814.09
635.414	866.21
635.612	842.38
635.81	822.42
636.008	890.24
636.206	830.17
636.404	840.25
636.602	813.32
636.8	800.34
636.997	840.06
637.195	864.08
637.393	836.96
637.591	841.99
637.789	851.1
637.986	848.97
638.184	849.94
638.382	871.64
638.58	857.69
638.777	892.37
638.975	817.77
639.173	829.01
639.37	840.06
639.568	842.38
639.765	858.66
639.963	798.21
640.161	843.74
640.358	881.13
640.556	800.73
640.753	818.36
640.951	800.34
641.148	849.36
641.346	782.9
641.543	790.46
641.741	851.49
641.938	791.23
642.136	813.51
642.333	774.96
642.531	865.05
642.728	854.39
642.925	822.81
643.123	791.04
643.32	819.52
643.517	802.08
643.715	804.79
643.912	795.69
644.109	843.35
644.306	826.88
644.504	770.5
644.701	835.02
644.898	849.55
645.095	787.55
645.293	820.49
645.49	812.35
645.687	817.39
645.884	841.02
646.081	767.79
646.278	784.06
646.475	776.7
646.672	765.46
646.87	788.71
647.067	801.89
647.264	791.43
647.461	748.99
647.658	725.74
647.855	810.02
648.052	751.9
648.249	695.33
648.446	720.51
648.642	726.52
648.839	706.76
649.036	685.64
649.233	684.48
649.43	669.17
649.627	672.85
649.824	687.77
650.021	691.26
650.217	705.6
650.414	687
650.611	726.91
650.808	728.84
651.004	754.81
651.201	752.87
651.398	786.19
651.595	724.19
651.791	701.14
651.988	732.91
652.185	696.68
652.381	739.5
652.578	675.95
652.775	729.23
652.971	686.41
653.168	705.01
653.364	721.87
653.561	650.76
653.757	734.27
653.954	709.47
654.15	675.95
654.347	771.47
654.543	722.84
654.74	705.6
654.936	678.47
655.133	692.03
655.329	727.68
655.525	694.75
655.722	730.01
655.918	690.48
656.115	713.93
656.311	625.58
656.507	612.6
656.704	568.42
656.9	626.55
657.096	621.51
657.292	611.05
657.489	680.8
657.685	637.78
657.881	628.48
658.077	629.06
658.273	677.31
658.47	708.7
658.666	661.81
658.862	716.64
659.058	676.73
659.254	747.83
659.45	664.71
659.646	690.87
659.842	685.06
660.038	705.6
660.234	647.08
660.43	692.61
660.626	745.7
660.822	714.89
661.018	737.56
661.214	666.65
661.41	618.02
661.606	702.88
661.802	731.56
661.998	698.23
662.194	666.46
662.39	728.26
662.586	729.23
662.781	721.09
662.977	725.94
663.173	709.28
663.369	693.78
663.564	695.52
663.76	725.74
663.956	691.45
664.152	686.61
664.347	608.92
664.543	683.51
664.739	654.25
664.934	628.29
665.13	638.95
665.326	714.12
665.521	688.93
665.717	616.86
665.912	636.81
666.108	606.98
666.304	629.26
666.499	656.38
666.695	569
666.89	656.38
667.086	658.71
667.281	677.31
667.477	709.28
667.672	666.26
667.867	637.98
668.063	665.88
668.258	630.81
668.454	637.01
668.649	703.46
668.844	655.03
669.04	702.69
669.235	654.45
669.43	657.55
669.626	622.87
669.821	623.64
670.016	601.75
670.211	651.15
670.407	586.83
670.602	629.65
670.797	642.24
670.992	671.88
671.187	599.42
671.382	645.15
671.578	621.7
671.773	656.19
671.968	594.58
672.163	633.33
672.358	664.13
672.553	605.82
672.748	598.45
672.943	686.61
673.138	610.08
673.333	675.18
673.528	577.14
673.723	631.39
673.918	615.7
674.113	585.67
674.308	685.06
674.503	643.98
674.698	647.86
674.892	649.41
675.087	636.23
675.282	625.58
675.477	583.92
675.672	609.3
675.867	607.75
676.061	586.44
676.256	584.5
676.451	585.86
676.646	613.57
676.84	552.53
677.035	532.39
677.23	583.92
677.424	591.28
677.619	618.41
677.814	620.54
678.008	623.83
678.203	498.87
678.397	564.55
678.592	586.05
678.787	638.95
678.981	576.37
679.176	614.15
679.37	571.91
679.565	562.8
679.759	594.77
679.954	592.64
680.148	640.88
680.342	662.39
680.537	658.32
680.731	595.35
680.926	616.47
681.12	635.65
681.314	551.37
681.509	596.52
681.703	604.46
681.897	613.37
682.092	596.9
682.286	572.68
682.48	658.13
682.674	620.93
682.869	600
683.063	576.75
683.257	648.83
683.451	561.25
683.645	590.9
683.839	588.57
684.034	571.91
684.228	614.34
684.422	545.37
684.616	560.48
684.81	592.64
685.004	584.89
685.198	584.5
685.392	618.6
685.586	557.77
685.78	587.99
685.974	631.39
686.168	615.31
686.362	659.1
686.556	533.94
686.75	516.3
686.944	504.49
687.138	546.14
687.331	433.57
687.525	485.11
687.719	402.57
687.913	498.87
688.107	460.5
688.301	471.74
688.494	497.7
688.688	461.67
688.882	450.04
689.076	458.37
689.269	476.59
689.463	542.85
689.657	476.59
689.85	471.94
690.044	502.16
690.238	504.1
690.431	479.49
690.625	505.45
690.818	510.88
691.012	523.67
691.205	576.56
691.399	511.65
691.593	561.64
691.786	603.3
691.98	559.7
692.173	631.78
692.366	567.07
692.56	601.94
692.753	624.61
692.947	533.16
693.14	623.06
693.333	644.18
693.527	557.77
693.72	623.64
693.914	568.81
694.107	585.86
694.3	622.28
694.493	581.6
694.687	650.38
694.88	548.85
695.073	673.63
695.266	667.23
695.46	622.87
695.653	687
695.846	656
696.039	596.32
696.232	599.42
696.425	657.93
696.618	656.19
696.812	662.58
697.005	763.53
697.198	786.39
697.391	739.5
697.584	732.91
697.777	788.71
697.97	770.89
698.163	792.2
698.356	760.43
698.549	826.3
698.742	811.38
698.935	742.21
699.127	777.48
699.32	765.85
699.513	746.09
699.706	796.27
699.899	784.06
700.092	752.09
700.285	791.04
700.477	752.48
700.67	808.67
700.863	822.81
701.056	894.69
701.248	868.92
701.441	880.36
701.634	826.3
701.826	919.49
702.019	836.57
702.212	871.83
702.404	800.53
702.597	811.38
702.79	838.12
702.982	851.49
703.175	893.53
703.367	912.9
703.56	930.92
703.752	992.73
703.945	950.69
704.137	940.03
704.33	962.31
704.522	991.37
704.715	982.07
704.907	1022.95
705.1	1035.74
705.292	1008.62
705.484	985.17
705.677	1056.86
705.869	1034.77
706.061	1093.28
706.254	1103.94
706.446	1035.16
706.638	1017.53
706.831	1115.56
707.023	1098.13
707.215	1176.21
707.407	1153.93
707.599	1143.85
707.792	1163.61
707.984	1143.85
708.176	1191.71
708.368	1137.07
708.56	1158.77
708.752	1141.91
708.944	1147.15
709.136	1215.73
709.329	1194.81
709.521	1311.06
709.713	1239.76
709.905	1237.82
710.097	1289.36
710.289	1230.65
710.481	1252.54
710.672	1266.3
710.864	1263.78
711.056	1344.57
711.248	1329.27
711.44	1354.84
711.632	1300.01
711.824	1322.49
712.016	1365.69
712.207	1381
712.399	1342.83
712.591	1422.27
712.783	1363.75
712.975	1424.59
713.166	1362.4
713.358	1409.29
713.55	1460.24
713.741	1424.4
713.933	1437.57
714.125	1456.56
714.316	1411.22
714.508	1488.53
714.7	1442.61
714.891	1457.92
715.083	1496.28
715.274	1457.14
715.466	1451.72
715.657	1515.85
715.849	1381
716.04	1462.95
716.232	1395.72
716.423	1455.4
716.615	1367.24
716.806	1374.02
716.998	1393.2
717.189	1303.89
717.381	1238.59
717.572	1205.27
717.763	1260.87
717.955	1223.29
718.146	1199.65
718.337	1192.48
718.528	1136.49
718.72	1126.61
718.911	1162.45
719.102	1135.13
719.293	1195.78
719.485	1120.41
719.676	1136.49
719.867	1062.28
720.058	1113.43
720.249	1100.84
720.44	1165.55
720.632	1165.16
720.823	1197.71
721.014	1248.09
721.205	1266.88
721.396	1358.72
721.587	1414.9
721.778	1399.21
721.969	1441.83
722.16	1489.69
722.351	1432.34
722.542	1559.05
722.733	1611.56
722.924	1535.03
723.115	1543.94
723.305	1527.28
723.496	1531.93
723.687	1445.9
723.878	1447.84
724.069	1468.77
724.26	1460.05
724.45	1396.89
724.641	1404.83
724.832	1453.27
725.023	1430.98
725.213	1396.11
725.404	1391.27
725.595	1431.18
725.785	1371.89
725.976	1413.74
726.167	1416.84
726.357	1414.71
726.548	1505.19
726.739	1456.37
726.929	1440.48
727.12	1470.51
727.31	1486.4
727.501	1458.69
727.691	1515.07
727.882	1506.93
728.072	1503.83
728.263	1525.53
728.453	1540.06
728.644	1537.35
728.834	1527.47
729.024	1509.84
729.215	1500.35
729.405	1547.04
729.596	1608.46
729.786	1611.36
729.976	1616.4
730.167	1622.41
730.357	1554.6
730.547	1603.23
730.737	1630.16
730.928	1647.98
731.118	1689.25
731.308	1643.53
731.498	1624.15
731.688	1682.08
731.879	1660.77
732.069	1777.4
732.259	1748.54
732.449	1782.44
732.639	1841.54
732.829	1827.2
733.019	1839.79
733.209	1882.03
733.399	1892.68
733.589	1903.92
733.779	1931.43
733.969	1939.57
734.159	2013.39
734.349	2047.88
734.539	2045.74
734.729	2038.19
734.919	2072.29
735.109	2052.14
735.299	2006.8
735.488	2053.88
735.678	2102.32
735.868	2064.73
736.058	2032.18
736.248	2000.41
736.437	1981.03
736.627	1997.89
736.817	2102.71
737.007	2080.81
737.196	2056.01
737.386	2070.16
737.576	2047.88
737.765	2097.28
737.955	2056.21
738.144	2235.42
738.334	2140.68
738.524	2067.83
738.713	2125.76
738.903	2127.7
739.092	2139.32
739.282	2121.31
739.471	2125.37
739.661	2124.41
739.85	2159.28
740.04	2183.69
740.229	2194.74
740.419	2236.97
740.608	2201.32
740.797	2225.15
740.987	2276.89
741.176	2261.97
741.365	2161.8
741.555	2160.64
741.744	2254.02
741.933	2231.35
742.123	2241.62
742.312	2274.17
742.501	2247.44
742.69	2287.73
742.88	2208.3
743.069	2285.22
743.258	2175.94
743.447	2298
743.636	2292.77
743.825	2286.77
744.014	2273.4
744.204	2334.43
744.393	2286.77
744.582	2342.18
744.771	2346.05
744.96	2303.43
745.149	2359.81
745.338	2279.4
745.527	2316.99
745.716	2258.29
745.905	2292.58
746.094	2284.44
746.283	2299.36
746.471	2310.21
746.66	2385.96
746.849	2341.6
747.038	2358.26
747.227	2302.27
747.416	2333.27
747.604	2306.14
747.793	2371.24
747.982	2373.76
748.171	2394.1
748.359	2323.58
748.548	2319.12
748.737	2321.64
748.926	2341.6
749.114	2283.86
749.303	2320.09
749.491	2322.22
749.68	2248.99
749.869	2333.85
750.057	2322.61
750.246	2266.42
750.434	2259.45
750.623	2286.77
750.811	2217.99
751	2322.22
751.188	2290.83
751.377	2329.58
751.565	2261.58
751.754	2244.14
751.942	2272.62
752.131	2348.38
752.319	2241.62
752.507	2225.35
752.696	2273.01
752.884	2309.43
753.072	2268.94
753.261	2306.33
753.449	2281.15
753.637	2236.59
753.825	2335.78
754.014	2236.78
754.202	2233.49
754.39	2347.41
754.578	2301.68
754.766	2242.59
754.955	2221.86
755.143	2272.62
755.331	2233.29
755.519	2257.51
755.707	2236.78
755.895	2237.17
756.083	2255.57
756.271	2208.3
756.459	2200.35
756.647	2255.19
756.835	2195.71
757.023	2195.51
757.211	2204.62
757.399	2196.67
757.587	2204.04
757.775	2165.87
757.963	2146.69
758.151	2208.49
758.339	2126.92
758.526	2134.67
758.714	2194.54
758.902	2090.31
759.09	2053.3
759.278	1920.39
759.465	1789.8
759.653	1545.3
759.841	1413.35
760.028	1226.39
760.216	1045.82
760.404	1021.21
760.591	824.17
760.779	676.53
760.967	606.98
761.154	479.88
761.342	541.49
761.529	534.9
761.717	599.81
761.905	571.13
762.092	618.02
762.28	555.44
762.467	585.67
762.655	527.74
762.842	533.16
763.029	522.5
763.217	548.66
763.404	531.03
763.592	570.55
763.779	510.69
763.966	579.47
764.154	616.08
764.341	652.12
764.528	643.98
764.716	683.9
764.903	695.13
765.09	741.63
765.277	765.08
765.465	872.8
765.652	910.58
765.839	982.07
766.026	1081.27
766.213	1099.48
766.4	1151.41
766.588	1327.33
766.775	1277.54
766.962	1340.5
767.149	1363.95
767.336	1515.85
767.523	1458.3
767.71	1541.42
767.897	1636.74
768.084	1681.31
768.271	1664.45
768.458	1741.37
768.645	1765.2
768.832	1721.61
769.019	1776.63
769.206	1816.54
769.392	1853.16
769.579	1921.36
769.766	1897.53
769.953	1876.99
770.14	1937.44
770.327	1862.07
770.513	1961.46
770.7	2001.76
770.887	1916.71
771.073	1931.63
771.26	1888.81
771.447	1904.12
771.634	1928.53
771.82	2010.68
772.007	1902.18
772.193	1956.23
772.38	1960.11
772.567	1971.93
772.753	1947.71
772.94	1961.66
773.126	1998.28
773.313	1968.63
773.499	1976
773.686	1992.27
773.872	1909.93
774.059	1946.55
774.245	1927.95
774.432	1953.91
774.618	1864.98
774.804	1956.43
774.991	1856.84
775.177	1956.04
775.363	1937.63
775.55	1927.56
775.736	1891.72
775.922	1938.8
776.109	1965.73
776.295	1950.03
776.481	1951.58
776.667	1944.41
776.853	1932.4
777.04	1892.88
777.226	1875.44
777.412	1962.24
777.598	1858.39
777.784	1880.67
777.97	1878.35
778.156	1916.52
778.342	1933.57
778.528	1860.52
778.715	1843.09
778.901	1845.41
779.087	1862.46
779.272	1823.9
779.458	1856.65
779.644	1868.27
779.83	1821.58
780.016	1920.39
780.202	1874.08
780.388	1803.17
780.574	1762.68
780.76	1827.78
780.946	1883.38
781.131	1860.91
781.317	1840.18
781.503	1803.37
781.689	1786.32
781.874	1883
782.06	1772.95
782.246	1786.32
782.432	1821.77
782.617	1849.48
782.803	1887.65
782.989	1759.39
783.174	1769.65
783.36	1702.81
783.545	1723.16
783.731	1758.03
783.916	1735.94
784.102	1800.85
784.288	1701.46
784.473	1758.61
784.659	1716.18
784.844	1784.96
785.029	1755.32
785.215	1736.52
785.4	1679.76
785.586	1769.07
785.771	1671.81
785.956	1720.64
786.142	1722.96
786.327	1697.97
786.512	1691.38
786.698	1753.57
786.883	1646.63
787.068	1640.23
787.254	1699.91
787.439	1663.48
787.624	1657.86
787.809	1632.09
787.994	1633.45
788.18	1703.59
788.365	1640.62
788.55	1675.69
788.735	1699.32
788.92	1612.14
789.105	1603.61
789.29	1651.66
789.475	1616.4
789.66	1619.5
789.845	1598.77
790.03	1578.43
790.215	1651.47
790.4	1660.19
790.585	1670.26
790.77	1615.82
790.955	1504.03
791.14	1605.36
791.325	1663.29
791.51	1521.46
791.695	1584.63
791.879	1563.51
792.064	1530.76
792.249	1615.43
792.434	1574.36
792.618	1579.78
792.803	1594.51
792.988	1556.34
793.173	1577.85
793.357	1597.99
793.542	1537.93
793.727	1566.61
793.911	1623.38
794.096	1600.71
794.281	1630.74
794.465	1666.78
794.65	1589.86
794.834	1617.76
795.019	1612.72
795.203	1623.76
795.388	1630.35
795.572	1657.28
795.757	1614.46
795.941	1617.56
796.126	1650.31
796.31	1540.06
796.494	1644.88
796.679	1574.55
796.863	1586.76
797.048	1665.23
797.232	1630.16
797.416	1615.04
797.601	1553.63
797.785	1672.39
797.969	1646.63
798.153	1553.05
798.338	1586.18
798.522	1627.83
798.706	1641.01
798.89	1667.55
799.074	1728.77
799.258	1664.06
799.443	1627.25
799.627	1653.02
799.811	1700.68
799.995	1633.26
800.179	1608.46
800.363	1611.56
800.547	1647.79
800.731	1650.89
800.915	1591.6
801.099	1595.09
801.283	1601.29
801.467	1641.78
801.651	1612.72
801.835	1726.64
802.019	1648.56
802.202	1650.5
802.386	1595.48
802.57	1581.53
802.754	1617.37
802.938	1547.62
803.121	1572.61
803.305	1644.69
803.489	1608.07
803.673	1610.98
803.856	1639.65
804.04	1590.44
804.224	1616.98
804.407	1579.78
804.591	1614.46
804.775	1619.89
804.958	1627.64
805.142	1733.62
805.326	1591.79
805.509	1598.58
805.693	1628.8
805.876	1637.33
806.06	1630.74
806.243	1642.36
806.427	1670.65
806.61	1655.73
806.794	1587.34
806.977	1642.36
807.16	1609.62
807.344	1624.54
807.527	1617.76
807.71	1580.56
807.894	1609.23
808.077	1638.49
808.26	1590.83
808.444	1621.83
808.627	1653.41
808.81	1555.56
808.993	1540.84
809.177	1510.23
809.36	1567.58
809.543	1628.22
809.726	1514.1
809.909	1517.59
810.092	1514.68
810.276	1469.35
810.459	1472.45
810.642	1501.7
810.825	1477.1
811.008	1494.53
811.191	1439.9
811.374	1409.29
811.557	1468.38
811.74	1505.38
811.923	1381.97
812.106	1371.89
812.289	1354.84
812.472	1381.58
812.654	1405.6
812.837	1370.54
813.02	1325.59
813.203	1316.09
813.386	1218.64
813.569	1214.57
813.751	1200.04
813.934	1250.02
814.117	1240.72
814.3	1178.53
814.482	1172.33
814.665	1137.85
814.848	1149.66
815.03	1066.35
815.213	1107.23
815.396	1094.64
815.578	1065.77
815.761	1074.88
815.943	1115.37
816.126	1036.13
816.309	1042.13
816.491	974.13
816.674	931.12
816.856	1001.45
817.039	983.23
817.221	1059.38
817.403	974.9
817.586	991.37
817.768	1019.66
817.951	933.05
818.133	917.36
818.315	958.05
818.498	987.11
818.68	1078.95
818.862	1037.48
819.045	1056.86
819.227	1069.84
819.409	1030.32
819.591	1020.05
819.774	997.18
819.956	980.13
820.138	1064.22
820.32	1041.36
820.502	1086.31
820.684	1103.94
820.866	1134.16
821.048	1139.01
821.231	1183.38
821.413	1151.41
821.595	1120.21
821.777	1139.4
821.959	1121.76
822.141	1205.08
822.323	1090.38
822.505	1073.91
822.686	1012.88
822.868	997.77
823.05	944.29
823.232	904.57
823.414	813.9
823.596	926.47
823.778	894.89
823.96	922.01
824.141	925.69
824.323	938.48
824.505	953.59
824.687	1017.72
824.868	1018.5
825.05	1136.88
825.232	1134.16
825.413	1182.02
825.595	1132.42
825.777	1059.96
825.958	1147.92
826.14	1080.69
826.321	1128.55
826.503	1111.11
826.685	1094.25
826.866	1160.9
827.048	1118.86
827.229	1075.85
827.411	1037.48
827.592	1054.34
827.773	1029.15
827.955	985.75
828.136	1001.25
828.318	972.39
828.499	1014.62
828.68	940.22
828.862	987.5
829.043	1001.64
829.224	987.88
829.406	956.69
829.587	964.25
829.768	969.67
829.949	999.32
830.131	961.92
830.312	1040
830.493	970.64
830.674	1012.88
830.855	960.37
831.036	972.58
831.218	1073.91
831.399	1047.17
831.58	1011.52
831.761	1034.38
831.942	1019.66
832.123	1001.25
832.304	970.06
832.485	970.45
832.666	1026.63
832.847	1014.43
833.028	1006.48
833.209	1033.42
833.389	974.32
833.57	932.86
833.751	959.4
833.932	1027.99
834.113	1000.48
834.294	956.89
834.475	1034.58
834.655	1015.78
834.836	1040.97
835.017	1034.97
835.198	975.87
835.378	1000.87
835.559	1029.35
835.74	991.18
835.92	979.55
836.101	989.82
836.281	1033.8
836.462	1017.92
836.643	1061.9
836.823	1046.01
837.004	1048.53
837.184	1091.35
837.365	1055.7
837.545	1067.9
837.726	1019.08
837.906	1070.42
838.087	1019.66
838.267	1028.57
838.448	992.34
838.628	1049.88
838.808	1027.22
838.989	1089.21
839.169	996.22
839.349	1032.83
839.53	1051.82
839.71	1039.81
839.89	997.77
840.07	1100.84
840.251	998.54
840.431	1074.49
840.611	1087.28
840.791	1002.22
840.971	1060.15
841.151	984.2
841.332	1019.08
841.512	1053.18
841.692	972
841.872	1026.44
842.052	1005.71
842.232	1077.4
842.412	977.81
842.592	1011.33
842.772	1009.2
842.952	1031.48
843.132	990.21
843.312	1041.36
843.492	984.78
843.672	1065
843.851	978.2
844.031	1025.08
844.211	994.08
844.391	987.69
844.571	1038.07
844.751	1037.48
844.93	1012.49
845.11	968.7
845.29	1001.06
845.47	1041.17
845.649	1019.27
845.829	1012.49
846.009	972.39
846.188	1039.23
846.368	1011.13
846.547	993.7
846.727	1042.72
846.907	975.49
847.086	1026.63
847.266	1057.83
847.445	999.9
847.625	969.09
847.804	952.04
847.984	983.04
848.163	974.9
848.343	957.27
848.522	998.35
848.701	1004.74
848.881	966.77
849.06	963.67
849.239	1002.03
849.419	994.28
849.598	921.24
849.777	936.74
849.957	918.52
850.136	852.65
850.315	878.61
850.494	883.07
850.674	879.97
850.853	967.93
851.032	930.34
851.211	993.89
851.39	924.92
851.569	899.92
851.748	867.18
851.927	911.94
852.107	924.14
852.286	888.3
852.465	855.75
852.644	964.05
852.823	930.92
853.002	877.84
853.181	909.03
853.359	929.57
853.538	871.64
853.717	946.42
853.896	849.55
854.075	805.57
854.254	807.51
854.433	773.99
854.611	829.4
854.79	764.3
854.969	842.77
855.148	835.02
855.327	782.32
855.505	797.63
855.684	798.59
855.863	835.99
856.041	800.34
856.22	841.02
856.399	804.02
856.577	886.17
856.756	838.12
856.934	957.47
857.113	982.65
857.291	866.6
857.47	858.66
857.648	865.44
857.827	884.04
858.005	880.94
858.184	856.52
858.362	953.98
858.541	876.29
858.719	868.92
858.898	860.79
859.076	811.96
859.254	946.42
859.433	845.29
859.611	828.04
859.789	789.49
859.967	902.44
860.146	912.32
860.324	818.55
860.502	827.46
860.68	793.36
860.859	819.91
861.037	831.92
861.215	822.81
861.393	837.73
861.571	833.27
861.749	831.53
861.927	856.52
862.105	841.22
862.283	815.45
862.461	791.23
862.639	797.04
862.817	796.08
862.995	853.23
863.173	812.93
863.351	828.82
863.529	850.32
863.707	859.82
863.885	793.75
864.063	755.39
864.241	786.19
864.418	896.05
864.596	784.26
864.774	750.74
864.952	823.59
865.129	815.26
865.307	767.59
865.485	709.28
865.663	807.31
865.84	748.03
866.018	791.04
866.196	645.73
866.373	718.58
866.551	696.68
866.728	636.23
866.906	685.06
867.084	705.6
867.261	718.58
867.439	697.65
867.616	761.78
867.794	718.19
867.971	724.97
868.149	741.24
868.326	803.63
868.503	766.24
868.681	727.88
868.858	719.54
869.035	704.05
869.213	792.98
869.39	754.42
869.567	817.39
869.745	705.01
869.922	742.79
870.099	760.23
870.276	771.47
870.454	735.24
870.631	752.68
870.808	725.55
870.985	783.87
871.162	793.75
871.339	727.49
871.517	704.05
871.694	708.31
871.871	727.88
872.048	712.96
872.225	713.93
872.402	724.39
872.579	677.5
872.756	709.08
872.933	688.35
873.11	713.35
873.287	719.54
873.463	703.08
873.64	684.28
873.817	731.94
873.994	720.9
874.171	668.2
874.348	728.65
874.524	649.99
874.701	732.14
874.878	646.5
875.055	703.66
875.231	705.21
875.408	723.42
875.585	650.38
875.762	680.41
875.938	662.58
876.115	683.31
876.291	664.52
876.468	713.54
876.645	646.5
876.821	667.62
876.998	677.11
877.174	680.41
877.351	634.68
877.527	640.5
877.704	673.43
877.88	677.31
878.057	681.76
878.233	697.26
878.409	652.51
878.586	690.1
878.762	657.55
878.938	671.3
879.115	611.63
879.291	660.45
879.467	605.04
879.644	634.68
879.82	673.82
879.996	624.61
880.172	587.41
880.349	631.39
880.525	669.95
880.701	605.62
880.877	591.28
881.053	622.09
881.229	598.65
881.405	645.73
881.581	622.28
881.757	624.61
881.933	634.88
882.109	649.6
882.285	635.85
882.461	576.75
882.637	640.3
882.813	584.89
882.989	594.97
883.165	683.31
883.341	612.21
883.517	650.38
883.693	655.8
883.869	659.29
884.044	609.11
884.22	645.73
884.396	654.06
884.572	652.51
884.747	673.63
884.923	649.6
885.099	645.15
885.275	696.1
885.45	618.22
885.626	606.01
885.801	576.56
885.977	618.99
886.153	574.23
886.328	624.22
886.504	611.43
886.679	627.51
886.855	598.65
887.03	667.23
887.206	643.01
887.381	606.78
887.557	646.7
887.732	649.6
887.908	640.69
888.083	645.92
888.258	588.77
888.434	602.13
888.609	611.43
888.784	653.86
888.96	589.35
889.135	578.11
889.31	574.23
889.485	607.95
889.661	595.74
889.836	687
890.011	640.88
890.186	600.58
890.361	558.93
890.537	605.04
890.712	609.11
890.887	607.56
891.062	638.56
891.237	676.15
891.412	573.07
891.587	623.06
891.762	630.61
891.937	620.35
892.112	595.55
892.287	592.64
892.462	557.18
892.637	524.64
892.812	531.61
892.987	563.77
893.161	537.23
893.336	559.51
893.511	551.57
893.686	579.66
893.861	537.42
894.035	540.33
894.21	578.3
894.385	503.13
894.56	557.96
894.734	498.87
894.909	516.69
895.084	508.36
895.258	514.95
895.433	508.75
895.608	484.53
895.782	446.75
895.957	475.42
896.131	510.3
896.306	442.1
896.48	439
896.655	444.23
896.829	374.67
897.004	351.62
897.178	421.56
897.353	396.96
897.527	454.3
897.701	419.24
897.876	338.25
898.05	438.81
898.224	422.14
898.399	474.84
898.573	423.11
898.747	331.28
898.921	389.79
899.096	316.36
899.27	341.54
899.444	353.94
899.618	393.27
899.792	348.71
899.967	330.69
900.141	389.79
900.315	324.69
900.489	355.11
900.663	401.8
900.837	369.44
901.011	289.23
901.185	405.87
901.359	365.76
901.533	354.91
901.707	379.91
901.881	351.04
902.055	281.09
902.229	338.44
902.403	394.63
902.576	334.96
902.75	384.17
902.924	479.88
903.098	407.81
903.272	432.22
903.446	450.82
903.619	410.13
903.793	442.1
903.967	401.41
904.14	456.44
904.314	468.06
904.488	420.4
904.661	441.91
904.835	435.9
905.009	456.63
905.182	493.83
905.356	484.53
905.529	454.89
905.703	411.49
905.876	441.13
906.05	417.69
906.223	382.23
906.397	378.16
906.57	348.71
906.744	332.05
906.917	337.48
907.09	351.81
907.264	373.9
907.437	302.99
907.61	316.36
907.784	317.52
907.957	337.67
908.13	294.85
908.304	352.2
908.477	310.16
908.65	308.8
908.823	284.97
908.996	365.37
909.17	299.69
909.343	314.42
909.516	336.12
909.689	283.61
909.862	277.41
910.035	301.24
910.208	298.92
910.381	281.29
910.554	379.52
910.727	283.61
910.9	291.75
911.073	253
911.246	342.13
911.419	383.78
911.592	335.73
911.765	292.33
911.938	296.21
912.11	294.66
912.283	302.21
912.456	359.56
912.629	326.04
912.802	275.67
912.974	257.46
913.147	246.8
913.32	214.83
913.493	222.58
913.665	277.99
913.838	257.65
914.01	257.46
914.183	267.34
914.356	234.79
914.528	308.61
914.701	335.15
914.873	309.38
915.046	253
915.218	237.7
915.391	208.63
915.563	220.65
915.736	247.96
915.908	294.46
916.081	259.78
916.253	240.8
916.425	275.86
916.598	266.76
916.77	284.58
916.942	235.76
917.115	208.83
917.287	280.9
917.459	257.46
917.632	220.65
917.804	183.64
917.976	246.61
918.148	247.96
918.32	237.89
918.493	281.68
918.665	329.53
918.837	264.82
919.009	322.56
919.181	321.2
919.353	292.72
919.525	305.12
919.697	272.96
919.869	268.5
920.041	334.18
920.213	350.26
920.385	299.11
920.557	270.05
920.729	296.59
920.901	286.52
921.073	280.71
921.244	280.13
921.416	334.57
921.588	288.65
921.76	253
921.932	349.29
922.103	253.78
922.275	273.35
922.447	301.24
922.619	222.58
922.79	267.53
922.962	250.1
923.134	299.89
923.305	235.18
923.477	216
923.648	234.98
923.82	270.05
923.991	195.07
924.163	205.73
924.335	255.13
924.506	220.26
924.677	269.86
924.849	202.82
925.02	235.76
925.192	249.13
925.363	271.02
925.535	239.05
925.706	243.31
925.877	265.79
926.049	228.78
926.22	228.59
926.391	237.31
926.562	249.13
926.734	201.85
926.905	276.83
927.076	189.26
927.247	212.31
927.419	188.1
927.59	178.99
927.761	199.53
927.932	205.15
928.103	216
928.274	166.98
928.445	162.52
928.616	180.54
928.787	148.77
928.958	212.51
929.129	174.73
929.3	180.73
929.471	137.14
929.642	112.53
929.813	72.24
929.984	169.69
930.155	71.46
930.326	149.35
930.496	111.57
930.667	70.1
930.838	126.87
931.009	74.37
931.18	101.49
931.35	111.37
931.521	108.85
931.692	60.42
931.863	42.4
932.033	90.25
932.204	73.2
932.374	85.02
932.545	49.57
932.716	93.74
932.886	92.97
933.057	0.16
933.227	43.56
933.398	100.52
933.568	23.6
933.739	-10.49
933.909	23.99
934.08	63.9
934.25	-16.31
934.421	16.82
934.591	65.84
934.761	17.79
934.932	-39.17
935.102	60.8
935.272	-2.74
935.443	20.5
935.613	0.36
935.783	44.92
935.953	-10.88
936.123	160.78
936.294	-12.82
936.464	27.48
936.634	30.39
936.804	9.46
936.974	7.14
937.144	29.22
937.314	32.71
937.484	16.44
937.655	-30.45
937.825	62.74
937.995	8.11
938.165	35.81
938.334	-3.52
938.504	55.38
938.674	0.94
938.844	5.78
939.014	34.07
939.184	43.37
939.354	73.2
939.524	64.29
939.694	30.19
939.863	38.72
940.033	99.17
940.203	108.08
940.373	58.29
940.542	73.79
940.712	18.37
940.882	69.33
941.051	103.43
941.221	44.53
941.391	108.08
941.56	36.59
941.73	-7.2
941.899	148.38
942.069	45.3
942.238	68.17
942.408	44.92
942.577	86.77
942.747	39.88
942.916	3.26
943.086	30.97
943.255	77.08
943.425	53.83
943.594	30.58
943.763	-31.81
943.933	22.83
944.102	-39.36
944.271	5.59
944.441	33.1
944.61	13.72
944.779	7.91
944.948	116.02
945.117	-21.73
945.287	10.62
945.456	-23.86
945.625	8.88
945.794	36.59
945.963	9.46
946.132	47.63
946.301	39.1
946.47	65.07
946.639	-23.09
946.808	-8.56
946.977	54.6
947.146	79.99
947.315	27.09
947.484	46.08
947.653	35.62
947.822	-6.81
947.991	4.42
948.16	88.51
948.329	69.72
948.498	19.73
948.666	14.69
948.835	66.81
949.004	9.66
949.173	24.77
949.341	36.39
949.51	35.23
949.679	91.42
949.847	63.9
950.016	93.16
950.185	74.95
950.353	10.24
950.522	16.63
950.69	82.5
950.859	7.72
951.028	41.43
951.196	50.73
951.365	12.95
951.533	25.35
951.701	72.24
951.87	55.96
952.038	8.69
952.207	54.8
952.375	104.01
952.543	34.26
952.712	34.45
952.88	21.67
953.048	78.82
953.217	39.1
953.385	29.8
953.553	80.18
953.721	-10.3
953.89	32.71
954.058	-12.63
954.226	-0.61
954.394	40.85
954.562	-11.46
954.73	22.83
954.898	21.28
955.067	67.2
955.235	-8.36
955.403	75.34
955.571	93.74
955.739	40.27
955.907	-17.47
956.075	17.79
956.243	-2.74
956.41	67.59
956.578	-8.75
956.746	-2.36
956.914	14.69
957.082	56.93
957.25	49.37
957.418	-9.91
957.585	26.51
957.753	85.8
957.921	-11.66
958.089	39.88
958.256	32.52
958.424	38.14
958.592	41.62
958.759	13.53
958.927	76.11
959.095	30
959.262	22.64
959.43	45.89
959.597	-1.78
959.765	34.45
959.932	-1.97
960.1	63.71
960.267	23.41
960.435	14.69
960.602	61.39
960.77	23.02
960.937	-21.15
961.104	56.74
961.272	-5.65
961.439	11.59
961.606	63.71
961.774	67.97
961.941	3.65
962.108	56.74
962.275	55.96
962.443	74.75
962.61	60.42
962.777	98
962.944	46.66
963.111	44.53
963.278	57.7
963.446	48.99
963.613	37.75
963.78	51.89
963.947	65.65
964.114	44.92
964.281	120.09
964.448	63.9
964.615	42.4
964.782	42.2
964.949	73.98
965.116	61
965.282	110.79
965.449	31.74
965.616	23.02
965.783	48.79
965.95	57.32
966.117	14.89
966.283	45.5
966.45	30
966.617	39.3
966.784	75.92
966.95	51.89
967.117	69.33
967.284	16.05
967.45	9.66
967.617	106.92
967.784	44.34
967.95	98
968.117	62.16
968.283	88.12
968.45	133.65
968.616	55.77
968.783	72.82
968.949	52.28
969.116	89.87
969.282	30.97
969.449	72.04
969.615	35.62
969.781	1.91
969.948	23.8
970.114	13.72
970.28	110.79
970.447	51.31
970.613	88.51
970.779	43.95
970.945	47.05
971.112	39.88
971.278	44.53
971.444	33.68
971.61	78.63
971.776	30
971.942	64.29
972.108	77.08
972.275	54.8
972.441	78.05
972.607	111.57
972.773	29.8
972.939	60.03
973.105	44.14
973.271	22.83
973.437	54.6
973.602	16.05
973.768	58.29
973.934	25.93
974.1	64.68
974.266	-39.17
974.432	55.96
974.598	42.98
974.763	66.04
974.929	53.64
975.095	114.47
975.261	17.79
975.426	26.12
975.592	45.3
975.758	110.02
975.923	4.62
976.089	22.64
976.255	63.9
976.42	42.4
976.586	56.35
976.751	60.42
976.917	129.78
977.082	46.85
977.248	25.74
977.413	-22.7
977.579	44.14
977.744	52.86
977.91	18.76
978.075	16.05
978.24	75.53
978.406	41.62
978.571	33.68
978.736	23.8
978.902	76.89
979.067	31.74
979.232	-21.93
979.397	71.65
979.563	93.55
979.728	-0.23
979.893	18.18
980.058	38.52
980.223	84.83
980.388	54.6
980.554	74.17
980.719	23.41
980.884	53.64
981.049	79.99
981.214	24.77
981.379	46.47
981.544	22.83
981.709	45.11
981.874	50.92
982.039	20.89
982.204	64.1
982.368	27.29
982.533	5.39
982.698	63.13
982.863	57.7
983.028	21.47
983.193	76.5
983.357	26.32
983.522	34.07
983.687	26.7
983.852	17.21
984.016	20.5
984.181	72.43
984.346	50.92
984.51	91.61
984.675	34.45
984.839	66.81
985.004	48.99
985.168	64.87
985.333	49.37
985.498	28.45
985.662	59.25
985.827	44.14
985.991	25.54
986.155	60.03
986.32	72.24
986.484	105.95
986.649	60.61
986.813	-21.15
986.977	62.74
987.142	51.7
987.306	34.26
987.47	5.59
987.634	58.87
987.799	59.25
987.963	41.04
988.127	48.6
988.291	104.98
988.455	51.12
988.62	34.45
988.784	51.7
988.948	62.74
989.112	3.46
989.276	54.02
989.44	36.2
989.604	33.1
989.768	53.05
989.932	106.33
990.096	14.5
990.26	-8.75
990.424	-8.56
990.588	31.94
990.752	101.49
990.915	66.62
991.079	33.87
991.243	24.19
991.407	67.97
991.571	38.91
991.734	50.54
991.898	58.48
992.062	139.85
992.226	42.4
992.389	36.59
992.553	-2.74
992.717	27.48
992.88	53.83
993.044	44.34
993.207	35.04
993.371	54.41
993.535	45.69
993.698	40.27
993.862	63.32
994.025	66.81
994.189	24.38
994.352	61.77
994.515	59.25
994.679	67.78
994.842	-1.78
995.006	75.34
995.169	10.43
995.332	15.85
995.496	50.15
995.659	-7.2
995.822	12.76
995.985	24.96
996.149	89.09
996.312	23.8
996.475	115.63
996.638	28.06
996.801	67.2
996.964	117.96
997.128	12.56
997.291	30.77
997.454	66.62
997.617	-30.06
997.78	49.95
997.943	-10.49
998.106	73.4
998.269	3.07
998.432	37.94
998.595	39.3
998.758	-2.74
998.92	0.16
999.083	-25.61
999.246	23.02
999.409	-27.54
999.572	-23.28
999.735	3.65
999.897	65.26
1000.06	15.85
1000.223	0.55
1000.386	41.43
1000.548	67.39
1000.711	71.27
1000.874	46.85
1001.036	2.1
1001.199	52.67
1001.361	12.95
1001.524	36.78
1001.687	34.84
1001.849	-9.72
1002.012	42.98
1002.174	51.12
1002.337	51.89
1002.499	21.86
1002.661	65.65
1002.824	-23.09
1002.986	-11.85
1003.149	53.83
1003.311	6.17
1003.473	74.17
1003.636	18.95
1003.798	32.52
1003.96	24.96
1004.123	31.74
1004.285	1.32
1004.447	22.83
1004.609	16.05
1004.771	92.58
1004.933	2.87
1005.096	-28.51
1005.258	-11.66
1005.42	22.64
1005.582	49.57
1005.744	27.09
1005.906	-3.52
1006.068	-1.39
1006.23	-0.61
1006.392	-18.05
1006.554	-19.41
1006.716	76.89
1006.878	62.94
1007.04	-31.03
1007.202	3.46
1007.363	45.3
1007.525	25.54
1007.687	57.32
1007.849	64.1
1008.011	-26.19
1008.172	-52.15
1008.334	-3.33
1008.496	45.11
1008.658	-6.23
1008.819	-15.53
1008.981	-41.11
1009.143	7.91
1009.304	5.78
1009.466	51.31
1009.627	65.26
1009.789	133.07
1009.95	27.29
1010.112	16.82
1010.273	14.69
1010.435	10.82
1010.596	4.62
1010.758	6.36
1010.919	7.52
1011.081	-29.87
1011.242	-15.14
1011.403	26.12
1011.565	15.27
1011.726	29.22
1011.887	-16.69
1012.049	9.66
1012.21	46.66
1012.371	62.94
1012.532	-56.8
1012.693	36.2
1012.855	-9.72
1013.016	18.76
1013.177	35.62
1013.338	18.37
1013.499	89.09
1013.66	32.9
1013.821	47.44
1013.982	1.32
1014.143	38.14
1014.304	-6.43
1014.465	50.15
1014.626	38.33
1014.787	-15.34
1014.948	92.19
1015.109	-64.16
1015.27	50.92
1015.431	7.91
1015.592	-3.33
1015.752	45.69
1015.913	23.41
1016.074	22.64
1016.235	19.34
1016.395	9.85
1016.556	7.33
1016.717	12.17
1016.877	78.05
1017.038	8.3
1017.199	26.7
1017.359	15.85
1017.52	3.65
1017.681	-2.55
1017.841	3.07
1018.002	1.52
1018.162	10.62
1018.323	45.69
1018.483	14.89
1018.644	-1.78
1018.804	-21.73
1018.964	-28.9
1019.125	5.01
1019.285	13.34
1019.446	-30.26
1019.606	-24.44
1019.766	-53.89
1019.926	42.98
1020.087	36.97
1020.247	-38.59
1020.407	19.73
1020.567	61
1020.728	27.29
1020.888	-23.48
1021.048	-3.13
1021.208	-31.23
1021.368	-2.36
1021.528	64.49
1021.688	49.95
1021.848	55.38
1022.008	26.9
1022.168	6.94
1022.328	6.17
1022.488	44.14
1022.648	-27.74
1022.808	23.02
1022.968	18.76
1023.128	7.33
1023.288	-6.43
1023.448	14.31
1023.608	26.12
1023.767	27.29
1023.927	-19.02
1024.087	-19.79
1024.247	-38.39
1024.406	3.26
1024.566	-11.46
1024.726	-37.62
1024.885	7.52
1025.045	36.2
1025.205	6.36
1025.364	8.49
1025.524	20.5
1025.683	-0.03
1025.843	22.05
1026.003	14.89
1026.162	36.97
1026.321	17.6
1026.481	35.04
1026.64	-4.88
1026.8	14.69
1026.959	14.11
1027.119	-3.71
1027.278	5.39
1027.437	-2.74
1027.597	21.47
1027.756	34.26
1027.915	-11.08
1028.074	19.15
1028.234	-18.24
1028.393	8.88
1028.552	2.68
1028.711	-76.56
1028.87	25.35
1029.03	-34.33
1029.189	-8.36
1029.348	-65.52
1029.507	-0.61
1029.666	-2.55
1029.825	-20.76
1029.984	-13.98
1030.143	25.15
1030.302	-21.54
1030.461	-58.93
1030.62	-2.36
1030.779	12.37
1030.938	-11.46
1031.097	-21.73
1031.255	15.27
1031.414	58.67
1031.573	52.67
1031.732	-42.46
1031.891	-14.18
1032.049	54.41
1032.208	8.69
1032.367	7.14
1032.525	-1
1032.684	-26.77
1032.843	29.22
1033.001	-50.79
1033.16	132.49
1033.319	53.25
1033.477	15.27
1033.636	-29.29
1033.794	-36.07
1033.953	53.05
1034.111	39.88
1034.27	-4.1
1034.428	36.59
1034.587	-32.19
1034.745	18.76
1034.903	7.72
1035.062	11.59
1035.22	-45.76
1035.378	28.25
1035.537	-29.68
1035.695	14.69
1035.853	17.4
1036.011	20.12
1036.17	28.84
1036.328	-34.91
1036.486	12.17
1036.644	5.39
1036.802	-81.79
1036.96	-13.01
1037.119	17.21
1037.277	-16.5
1037.435	-21.93
1037.593	14.5
1037.751	2.49
1037.909	25.74
1038.067	25.74
