Data from tests_FLMT105791__2__15-39-58-264.txt Node

Date: Mon Mar 20 15:39:58 GMT 2023
User: antho
Spectrometer: FLMT10579
Trigger mode: 0
Integration Time (sec): 1.000000E-1
Scans to average: 10
Electric dark correction enabled: true
Nonlinearity correction enabled: false
Boxcar width: 0
XAxis mode: Wavelengths
Number of Pixels in Spectrum: 3648
>>>>>Begin Spectral Data<<<<<
345.248	-123.64
345.464	-123.64
345.681	-123.64
345.898	-174.4
346.114	-145.15
346.331	-33.55
346.548	23.22
346.764	-8.36
346.981	-0.23
347.197	-16.69
347.414	2.87
347.631	1.52
347.847	54.22
348.064	12.37
348.28	9.46
348.497	-34.91
348.713	-9.91
348.93	37.75
349.146	177.05
349.363	246.41
349.579	248.35
349.796	239.25
350.012	226.65
350.229	253.97
350.445	295.24
350.661	270.25
350.878	293.69
351.094	338.06
351.311	313.06
351.527	330.89
351.743	281.68
351.96	334.76
352.176	312.68
352.392	335.34
352.609	356.08
352.825	294.66
353.041	307.06
353.257	306.48
353.474	360.92
353.69	361.89
353.906	379.32
354.122	347.36
354.339	433.38
354.555	401.22
354.771	382.81
354.987	460.89
355.203	468.25
355.42	417.49
355.636	375.64
355.852	407.42
356.068	404.32
356.284	371.57
356.5	475.23
356.716	406.45
356.932	382.81
357.148	415.17
357.364	335.15
357.58	393.86
357.796	405.29
358.012	424.66
358.228	393.66
358.444	324.11
358.66	395.6
358.876	370.41
359.092	333.02
359.308	398.12
359.524	446.56
359.74	463.02
359.956	498.67
360.172	535.29
360.388	581.6
360.604	533.16
360.819	595.93
361.035	523.28
361.251	525.41
361.467	462.05
361.683	558.73
361.898	532.39
362.114	554.86
362.33	510.49
362.546	562.8
362.762	569.97
362.977	627.9
363.193	606.98
363.409	655.22
363.624	600.2
363.84	589.35
364.056	586.05
364.271	659.68
364.487	686.03
364.703	664.71
364.918	648.63
365.134	679.63
365.35	680.41
365.565	825.91
365.781	763.53
365.996	803.24
366.212	927.05
366.427	865.05
366.643	865.63
366.858	872.8
367.074	873.96
367.289	916.59
367.505	969.48
367.72	841.99
367.936	876.87
368.151	890.82
368.367	891.01
368.582	857.3
368.798	843.74
369.013	886.36
369.228	885.97
369.444	896.24
369.659	903.8
369.874	916.59
370.09	1005.71
370.305	937.9
370.52	1000.67
370.736	1033.03
370.951	927.24
371.166	948.17
371.381	987.3
371.597	983.04
371.812	915.23
372.027	978.2
372.242	955.34
372.458	966.57
372.673	865.44
372.888	857.88
373.103	920.85
373.318	954.95
373.533	889.85
373.749	855.94
373.964	750.54
374.179	833.66
374.394	755.97
374.609	845.48
374.824	795.69
375.039	869.51
375.254	785.42
375.469	902.64
375.684	926.66
375.899	1004.55
376.114	1010.55
376.329	1042.72
376.544	988.47
376.759	1009.58
376.974	971.61
377.189	988.66
377.404	1046.59
377.619	1123.12
377.834	1129.13
378.049	1187.25
378.264	1228.52
378.478	1298.27
378.693	1320.74
378.908	1317.84
379.123	1260.1
379.338	1267.07
379.553	1176.79
379.767	1113.24
379.982	1123.31
380.197	1146.18
380.412	1136.3
380.626	1223.87
380.841	1333.14
381.056	1321.13
381.271	1407.93
381.485	1323.46
381.7	1236.66
381.915	1256.81
382.129	1132.81
382.344	1086.89
382.559	1052.21
382.773	1059.77
382.988	921.04
383.202	964.64
383.417	873.96
383.632	955.34
383.846	908.84
384.061	908.06
384.275	903.99
384.49	1053.95
384.704	1172.91
384.919	1246.15
385.133	1318.42
385.348	1411.42
385.562	1318.81
385.777	1446.87
385.991	1335.27
386.206	1308.92
386.42	1262.04
386.634	1332.17
386.849	1390.69
387.063	1449
387.277	1438.35
387.492	1379.64
387.706	1376.74
387.92	1381
388.135	1466.44
388.349	1457.92
388.563	1446.48
388.778	1422.85
388.992	1423.82
389.206	1502.86
389.42	1583.46
389.635	1574.36
389.849	1711.34
390.063	1846.57
390.277	1883
390.491	1936.47
390.706	1898.11
390.92	1874.08
391.134	1922.33
391.348	2014.55
391.562	2002.54
391.776	2105.03
391.99	2140.49
392.205	2132.93
392.419	1988.01
392.633	1918.07
392.847	1797.55
393.061	1620.28
393.275	1539.48
393.489	1287.81
393.703	1098.9
393.917	1053.76
394.131	1083.6
394.345	1273.47
394.559	1523.6
394.773	1653.02
394.986	1914.38
395.2	2068.41
395.414	2237.75
395.628	2266.81
395.842	2377.05
396.056	2378.99
396.27	2255.38
396.484	2136.42
396.697	1929.69
396.911	1682.27
397.125	1433.31
397.339	1337.99
397.553	1355.62
397.766	1584.43
397.98	1889.39
398.194	2291.8
398.408	2516.16
398.621	2729.67
398.835	2882.93
399.049	2923.42
399.262	3106.7
399.476	3187.3
399.69	3205.71
399.903	3294.06
400.117	3258.02
400.331	3364
400.544	3364.39
400.758	3524.04
400.971	3421.74
401.185	3521.52
401.398	3455.06
401.612	3586.23
401.826	3660.43
402.039	3658.3
402.253	3764.48
402.466	3843.91
402.68	3804
402.893	3921.41
403.106	3861.16
403.32	3775.91
403.533	3796.44
403.747	3683.88
403.96	3807.1
404.174	3879.37
404.387	3873.94
404.6	3878.21
404.814	3930.13
405.027	3798.38
405.24	3779.39
405.454	3800.32
405.667	3925.67
405.88	3974.69
406.094	3954.74
406.307	3988.64
406.52	3760.02
406.733	3705.38
406.947	3810.98
407.16	3870.07
407.373	3927.61
407.586	4023.32
407.799	3969.65
408.012	3995.23
408.226	4088.23
408.439	4229.66
408.652	4238.19
408.865	4361.99
409.078	4533.46
409.291	4543.92
409.504	4505.75
409.717	4564.65
409.93	4522.8
410.143	4223.66
410.357	4030.1
410.57	3861.35
410.783	3934.01
410.996	3994.07
411.209	4172.9
411.421	4566.01
411.634	4662.88
411.847	4705.31
412.06	4774.09
412.273	4882.4
412.486	4809.55
412.699	4845
412.912	4940.33
413.125	4778.94
413.338	4786.69
413.55	4719.07
413.763	4671.21
413.976	4744.06
414.189	4722.75
414.402	4902.35
414.615	5086.03
414.827	4826.6
415.04	4891.89
415.253	4927.73
415.466	4984.12
415.678	5025
415.891	4961.83
416.104	4904.87
416.316	4943.62
416.529	5127.68
416.742	5282.29
416.954	5285.97
417.167	5225.33
417.38	5182.32
417.592	5082.15
417.805	4916.88
418.017	4955.05
418.23	4933.16
418.442	4926.57
418.655	5031.2
418.868	4932.19
419.08	5044.18
419.293	5071.3
419.505	5207.89
419.718	5143.57
419.93	5218.55
420.142	5148.03
420.355	5076.34
420.567	5002.91
420.78	5127.88
420.992	5155.58
421.205	5405.13
421.417	5528.74
421.629	5635.49
421.842	5584.93
422.054	5591.9
422.266	5598.49
422.479	5579.5
422.691	5324.72
422.903	5340.61
423.115	5151.32
423.328	5113.93
423.54	5106.56
423.752	5231.34
423.964	5489.02
424.177	5508.01
424.389	5423.15
424.601	5630.65
424.813	5628.91
425.025	5658.74
425.238	5590.93
425.45	5546.95
425.662	5477.01
425.874	5748.45
426.086	5530.09
426.298	5573.49
426.51	5565.94
426.722	5604.69
426.934	5675.79
427.146	5701.95
427.358	5678.89
427.57	5551.02
427.782	5421.79
427.994	5365.22
428.206	5357.08
428.418	5782.35
428.63	5865.86
428.842	5897.63
429.054	5634.14
429.266	5615.73
429.478	5530.29
429.69	5405.9
429.902	5319.69
430.114	5256.91
430.325	4951.37
430.537	4703.18
430.749	4531.52
430.961	4324.79
431.173	4335.64
431.384	4450.15
431.596	4537.53
431.808	5170.31
432.02	5811.8
432.231	6281.25
432.443	6679.21
432.655	6516.66
432.867	6386.46
433.078	6336.86
433.29	6316.13
433.502	6592.41
433.713	6738.69
433.925	6909.96
434.136	6659.83
434.348	6242.12
434.56	6101.46
434.771	6224.1
434.983	6075.11
435.194	6533.12
435.406	6865.21
435.617	6894.66
435.829	7092.47
436.04	7115.53
436.252	6943.48
436.463	7310.05
436.675	7532.47
436.886	7663.45
437.098	7763.03
437.309	7787.44
437.521	7619.85
437.732	7345.89
437.943	7286.99
438.155	7194.77
438.366	7146.53
438.578	7206.78
438.789	6931.86
439	6775.89
439.211	6847.19
439.423	6825.49
439.634	7114.75
439.845	7403.44
440.057	7523.37
440.268	7754.89
440.479	7664.03
440.69	7737.07
440.902	7479
441.113	7475.7
441.324	7661.12
441.535	7945.54
441.746	8141.23
441.957	8153.63
442.168	8287.51
442.38	8329.35
442.591	8385.54
442.802	8299.32
443.013	8627.34
443.224	8660.86
443.435	8525.81
443.646	8497.53
443.857	8355.9
444.068	8444.05
444.279	8372.75
444.49	8812.95
444.701	8560.88
444.912	8927.84
445.123	8935.01
445.334	8589.75
445.545	8812.37
445.756	8546.55
445.967	8473.7
446.178	8281.5
446.388	8131.73
446.599	8220.66
446.81	8360.35
447.021	8370.82
447.232	8608.74
447.443	8686.62
447.653	8976.66
447.864	9179.13
448.075	9167.51
448.286	9131.66
448.496	9001.46
448.707	9149.1
448.918	8892.58
449.129	9022.97
449.339	9115.58
449.55	9174.87
449.761	9133.6
449.971	9059.39
450.182	9309.13
450.393	9363.58
450.603	9363.19
450.814	9686.55
451.024	9628.62
451.235	9967.88
451.446	10029.68
451.656	9973.69
451.867	9833.22
452.077	9506.76
452.288	9756.5
452.498	9538.14
452.709	9553.64
452.919	9293.25
453.13	9104.73
453.34	9048.16
453.55	8663.18
453.761	9127.21
453.971	8971.05
454.182	9187.66
454.392	9283.37
454.602	9742.35
454.813	9756.88
455.023	9520.13
455.233	9406.78
455.444	9548.99
455.654	9166.92
455.864	9440.3
456.075	9606.92
456.285	9493.39
456.495	9603.82
456.705	9715.03
456.916	10002.94
457.126	10092.84
457.336	9963.23
457.546	9810.75
457.756	9988.99
457.967	10163.75
458.177	9863.64
458.387	9925.64
458.597	9720.65
458.807	9909.94
459.017	9645.09
459.227	9631.72
459.437	9648.19
459.647	9945.4
459.857	9870.23
460.068	10118.03
460.278	10109.5
460.488	10042.47
460.698	10116.48
460.908	10138.18
461.117	10464.26
461.327	10432.09
461.537	10604.92
461.747	10585.93
461.957	10512.5
462.167	10694.43
462.377	10606.47
462.587	10602.01
462.797	10782.19
463.007	10742.67
463.216	10985.24
463.426	11191.78
463.636	10896.31
463.846	10670.98
464.056	10712.06
464.265	10540.2
464.475	10631.07
464.685	10901.93
464.895	10753.91
465.104	10549.7
465.314	10990.47
465.524	10691.33
465.733	10660.52
465.943	10969.74
466.153	11155.35
466.362	11205.53
466.572	11192.16
466.782	11013.72
466.991	11215.61
467.201	11016.44
467.41	10805.83
467.62	11166.98
467.829	11237.69
468.039	11307.44
468.249	11347.55
468.458	11576.36
468.668	11490.73
468.877	11680.99
469.086	11751.12
469.296	12010.36
469.505	12084.95
469.715	11985.17
469.924	11888.49
470.134	12084.18
470.343	11711.99
470.552	11824.17
470.762	11718.77
470.971	11844.7
471.18	12022.76
471.39	12138.43
471.599	12014.62
471.808	12195.39
472.018	12535.99
472.227	12768.88
472.436	13220.89
472.645	13257.9
472.855	13181.37
473.064	13602.96
473.273	13689.76
473.482	13064.92
473.691	13339.46
473.901	13232.52
474.11	13068.41
474.319	13472.76
474.528	13479.16
474.737	14206.68
474.946	13931.94
475.155	14179.94
475.364	14420.96
475.573	14158.43
475.783	14585.84
475.992	14350.82
476.201	14320.41
476.41	14523.84
476.619	14309.36
476.828	14331.26
477.037	14335.52
477.245	14361.29
477.454	14556.78
477.663	15007.63
477.872	15343.39
478.081	15649.9
478.29	15556.32
478.499	15777.19
478.708	16097.26
478.917	15911.27
479.125	15566.59
479.334	15657.26
479.543	16105.79
479.752	16291.59
479.961	16104.24
480.169	16595
480.378	16763.56
480.587	17047.79
480.796	16843.96
481.004	16813.35
481.213	17023.37
481.422	17131.87
481.63	17437.99
481.839	17444.58
482.048	17772.4
482.256	17681.15
482.465	18177.53
482.674	17992.11
482.882	17979.71
483.091	18150.4
483.299	17800.49
483.508	18323.42
483.716	18523.56
483.925	18536.35
484.134	17977.77
484.342	18416.03
484.551	18342.21
484.759	18169.39
484.967	18893.03
485.176	18660.54
485.384	18862.23
485.593	18530.53
485.801	18431.92
486.01	17777.83
486.218	16867.99
486.426	16233.66
486.635	15674.89
486.843	15689.81
487.051	16257.49
487.26	16575.82
487.468	17024.73
487.676	17598.8
487.885	18093.44
488.093	18504.77
488.301	19212.33
488.509	19157.69
488.717	19587.81
488.926	19638.77
489.134	19250.3
489.342	19310.17
489.55	19107.71
489.758	19460.13
489.967	20129.53
490.175	20021.61
490.383	20915.76
490.591	21173.63
490.799	21063.97
491.007	20928.16
491.215	21001.78
491.423	20797.76
491.631	20804.35
491.839	20586.77
492.047	20479.82
492.255	20152.2
492.463	20139.8
492.671	19684.88
492.879	20276.78
493.087	20587.35
493.295	20747.2
493.503	21069.79
493.711	21706.63
493.919	21506.49
494.127	21454.18
494.334	21367.77
494.542	21378.23
494.75	21928.47
494.958	21723.88
495.166	22347.35
495.374	22441.32
495.581	22580.43
495.789	22489.56
495.997	22572.68
496.205	21756.81
496.412	21930.22
496.62	22407.42
496.828	22312.29
497.035	22512.43
497.243	22732.91
497.451	22706.17
497.658	22740.47
497.866	22711.6
498.074	23058.79
498.281	22527.54
498.489	22508.16
498.696	22170.85
498.904	21909.49
499.112	21852.72
499.319	22278.19
499.527	22550.98
499.734	22826.88
499.942	22626.35
500.149	22749.19
500.357	22856.72
500.564	22309.96
500.771	22290.78
500.979	21846.71
501.186	21639.79
501.394	22205.92
501.601	21648.31
501.808	21715.16
502.016	21801.37
502.223	21648.31
502.43	21762.04
502.638	21855.82
502.845	22176.08
503.052	22494.02
503.26	22557.76
503.467	22695.13
503.674	22830.17
503.881	22833.47
504.089	22608.53
504.296	22382.81
504.503	22169.49
504.71	22062.16
504.917	22345.22
505.125	22392.3
505.332	22856.33
505.539	22853.42
505.746	23375.38
505.953	23581.33
506.16	23701.07
506.367	23811.31
506.574	24079.26
506.781	24030.05
506.988	23965.34
507.195	23592.37
507.402	23702.23
507.609	23644.1
507.816	23321.52
508.023	23232
508.23	23031.28
508.437	22671.3
508.644	22824.36
508.851	22984.01
509.058	23480
509.265	23506.54
509.472	23757.25
509.679	24084.69
509.885	23979.48
510.092	23930.66
510.299	23845.21
510.506	23333.72
510.713	23494.73
510.92	23482.13
511.126	23663.09
511.333	23821.19
511.54	24052.72
511.746	23955.84
511.953	24244.33
512.16	24504.34
512.367	24317.96
512.573	24109.29
512.78	24001.57
512.987	23871.18
513.193	23453.46
513.4	23250.41
513.606	23429.82
513.813	23601.29
514.02	23310.67
514.226	23379.64
514.433	23276.95
514.639	23106.46
514.846	23213.21
515.052	23114.98
515.259	23294.58
515.465	23312.02
515.672	23398.05
515.878	23492.01
516.085	23972.51
516.291	23774.11
516.497	23807.63
516.704	23030.12
516.91	22481.81
517.117	21552.6
517.323	20903.16
517.529	20543.37
517.736	20503.27
517.942	20647.42
518.148	21295.11
518.354	21456.89
518.561	21666.53
518.767	21344.91
518.973	21414.07
519.179	21872.48
519.386	22158.26
519.592	22202.24
519.798	22277.99
520.004	23191.51
520.21	23220.38
520.417	23316.48
520.623	23502.48
520.829	23617.56
521.035	23560.6
521.241	23436.79
521.447	23712.69
521.653	24033.73
521.859	23825.06
522.065	24044.58
522.271	24147.85
522.477	24197.06
522.683	24452.81
522.889	23814.99
523.095	23560.41
523.301	23661.74
523.507	23490.85
523.713	23569.9
523.919	23445.32
524.125	24180.01
524.331	24360
524.537	24817.24
524.742	24923.03
524.948	24870.14
525.154	24979.99
525.36	24911.99
525.566	24607.8
525.772	24810.66
525.977	24757.57
526.183	24515.19
526.389	24684.14
526.595	23917.87
526.8	23572.61
527.006	22795.1
527.212	22190.42
527.417	22046.08
527.623	22130.94
527.829	22469.42
528.034	22995.63
528.24	23165.74
528.446	23730.71
528.651	24202.29
528.857	24253.63
529.062	24516.55
529.268	24948.99
529.473	25157.08
529.679	25426.97
529.884	25288.82
530.09	25223.53
530.295	24626.4
530.501	24892.81
530.706	24902.3
530.912	25204.74
531.117	25268.09
531.323	25272.94
531.528	25735.02
531.733	25704.8
531.939	25475.21
532.144	25430.45
532.35	25408.37
532.555	25259.38
532.76	24527.4
532.966	24437.31
533.171	24192.41
533.376	23927.94
533.581	23894.04
533.787	24214.88
533.992	24701
534.197	24134.09
534.402	24902.3
534.607	24889.32
534.813	24812.4
535.018	24800
535.223	25178.97
535.428	25133.83
535.633	25237.68
535.838	25641.44
536.043	25922.77
536.249	26033.01
536.454	25793.54
536.659	25914.05
536.864	25732.7
537.069	25340.17
537.274	25124.14
537.479	24998.79
537.684	24830.81
537.889	24748.08
538.094	25450.99
538.299	25201.06
538.504	25573.05
538.708	25448.47
538.913	25786.56
539.118	25721.46
539.323	25562.01
539.528	25254.14
539.733	25087.33
539.938	25190.79
540.142	24978.05
540.347	24744.39
540.552	24688.4
540.757	24297.61
540.962	24635.12
541.166	24270.88
541.371	24256.35
541.576	24295.1
541.781	24604.51
541.985	25099.92
542.19	24690.92
542.395	25538.37
542.599	25373.49
542.804	25018.35
543.008	25450.99
543.213	25387.64
543.418	24967.01
543.622	25250.27
543.827	24870.52
544.031	25285.14
544.236	25445.37
544.44	25738.51
544.645	25626.72
544.849	25523.07
545.054	25834.42
545.258	25755.56
545.463	25904.36
545.667	25444.21
545.872	25915.02
546.076	25646.87
546.281	25642.41
546.485	25583.13
546.689	25740.64
546.894	25598.24
547.098	25790.05
547.302	25698.99
547.507	25661.21
547.711	25764.67
547.915	25560.85
548.119	25330.09
548.324	25245.43
548.528	25352.96
548.732	25350.82
548.936	25610.25
549.141	25542.63
549.345	25666.24
549.549	25686.39
549.753	25954.15
549.957	25780.75
550.161	25996.2
550.366	25961.13
550.57	25804.19
550.774	25641.44
550.978	25713.52
551.182	25623.04
551.386	25473.85
551.59	25602.89
551.794	25536.82
551.998	25675.16
552.202	25697.24
552.406	25679.42
552.61	26064.59
552.814	25798.19
553.018	25722.43
553.222	25368.65
553.426	25426.39
553.63	25664.69
553.833	25654.04
554.037	25378.72
554.241	25422.32
554.445	25744.13
554.649	25722.04
554.853	25537.01
555.056	25850.3
555.26	26047.54
555.464	25681.16
555.668	25803.42
555.871	25582.55
556.075	25848.75
556.279	25696.47
556.483	25601.53
556.686	25271.77
556.89	25442.47
557.094	25328.93
557.297	24877.31
557.501	25030.95
557.704	24705.06
557.908	25033.47
558.112	24913.92
558.315	25236.13
558.519	25052.65
558.722	24730.06
558.926	24780.82
559.129	24123.82
559.333	24473.73
559.536	24350.89
559.74	24139.32
559.943	23933.95
560.147	24267.2
560.35	24075.39
560.553	24517.71
560.757	24515.97
560.96	24579.52
561.164	24833.71
561.367	24968.75
561.57	25053.62
561.774	24803.1
561.977	24662.44
562.18	24544.64
562.384	24687.24
562.587	24468.31
562.79	24819.96
562.993	24525.85
563.197	24419.67
563.4	24792.25
563.603	24927.87
563.806	24880.02
564.009	24973.79
564.212	24914.31
564.416	24496.59
564.619	24525.27
564.822	24316.02
565.025	24714.56
565.228	24627.95
565.431	24707.78
565.634	24432.85
565.837	24259.25
566.04	24095.34
566.243	23897.14
566.446	23678.79
566.649	24048.45
566.852	23742.14
567.055	24088.17
567.258	24073.25
567.461	24422
567.664	24365.43
567.867	24448.74
568.07	24202.68
568.273	24375.31
568.475	24642.87
568.678	23948.68
568.881	24057.75
569.084	23669.49
569.287	23543.36
569.489	23788.45
569.692	23765
569.895	23806.85
570.098	23632.87
570.3	23800.07
570.503	23694.67
570.706	23545.1
570.909	23532.51
571.111	23135.71
571.314	22977.61
571.516	22965.41
571.719	23129.12
571.922	23117.31
572.124	23314.54
572.327	23590.24
572.529	23493.76
572.732	23667.16
572.935	23899.85
573.137	24253.44
573.34	23796.97
573.542	24090.11
573.745	23923.49
573.947	24022.69
574.15	23798.91
574.352	23875.44
574.554	24071.32
574.757	23893.84
574.959	23445.9
575.162	23875.63
575.364	23438.93
575.566	23541.22
575.769	23387.78
575.971	23391.65
576.173	22882.68
576.376	23230.84
576.578	23468.57
576.78	23356.58
576.982	23286.25
577.185	23486.39
577.387	23400.76
577.589	23620.27
577.791	23406.18
577.993	23492.59
578.196	23486.2
578.398	23075.84
578.6	22957.27
578.802	22907.48
579.004	22802.27
579.206	22962.89
579.408	23190.93
579.61	22925.3
579.812	23324.03
580.014	22956.69
580.216	22993.11
580.418	23365.11
580.62	23364.91
580.822	23308.92
581.024	23316.09
581.226	23358.52
581.428	23266.68
581.63	23735.17
581.832	23520.88
582.034	23524.76
582.236	23479.42
582.438	23741.75
582.64	23735.55
582.841	23810.92
583.043	24087.2
583.245	23643.52
583.447	23960.3
583.649	23841.92
583.85	23882.22
584.052	23731.1
584.254	23597.99
584.456	23721.41
584.657	23679.37
584.859	23913.8
585.061	23555.17
585.262	23631.7
585.464	23305.63
585.666	23482.71
585.867	23119.44
586.069	23002.99
586.27	22879.19
586.472	22976.84
586.674	22888.1
586.875	22950.1
587.077	23075.26
587.278	23154.89
587.48	23082.04
587.681	23290.13
587.883	23228.13
588.084	23014.04
588.285	23026.05
588.487	22545.75
588.688	22693.39
588.89	21953.85
589.091	21527.03
589.292	21085.09
589.494	20611.19
589.695	20322.89
589.896	20008.44
590.098	20188.04
590.299	20246.17
590.5	20531.36
590.702	20941.91
590.903	21206.76
591.104	21458.44
591.305	21805.06
591.507	21766.69
591.708	21733.56
591.909	21867.25
592.11	21676.99
592.311	22072.43
592.512	21642.89
592.714	21707.99
592.915	21904.64
593.116	21769.21
593.317	22077.08
593.518	22006.17
593.719	22143.53
593.92	22106.14
594.121	22068.75
594.322	22102.07
594.523	22010.04
594.724	21739.96
594.925	21930.02
595.126	21606.85
595.327	21605.88
595.528	21820.75
595.729	21761.08
595.929	21724.46
596.13	21925.57
596.331	22205.14
596.532	21955.98
596.733	22250.87
596.934	22277.41
597.135	22302.6
597.335	22161.94
597.536	22161.94
597.737	22085.41
597.938	21953.85
598.138	22010.43
598.339	22110.4
598.54	22136.17
598.74	21805.06
598.941	21834.12
599.142	22155.16
599.342	21999.97
599.543	21909.49
599.744	21990.67
599.944	22065.45
600.145	22161.55
600.345	21903.48
600.546	22052.08
600.746	22018.18
600.947	22221.03
601.147	21706.44
601.348	22088.9
601.548	21842.45
601.749	21776.57
601.949	21536.52
602.15	21652.96
602.35	21364.09
602.551	21569.07
602.751	21566.17
602.951	21675.44
603.152	21497.77
603.352	21710.12
603.552	21725.23
603.753	21963.54
603.953	22126.48
604.153	22117.18
604.354	22037.94
604.554	22073.4
604.754	22100.33
604.954	22084.63
605.155	22204.95
605.355	22022.25
605.555	22018.95
605.755	22104.01
605.955	21965.87
606.155	21939.13
606.356	21969.16
606.556	21990.67
606.756	22001.71
606.956	21866.28
607.156	21991.83
607.356	21745.96
607.556	21848.84
607.756	21794.01
607.956	21854.07
608.156	21763.59
608.356	21485.95
608.556	21658.78
608.756	21447.01
608.956	21584.96
609.156	21418.53
609.356	21386.76
609.556	21310.03
609.755	21418.53
609.955	21304.99
610.155	21210.06
610.355	21346.07
610.555	21053.7
610.755	20797.57
610.954	20867.32
611.154	21224.4
611.354	21055.06
611.554	20916.14
611.753	21167.24
611.953	20998.68
612.153	21143.02
612.352	21083.15
612.552	20897.16
612.752	20828.18
612.951	21176.54
613.151	20762.31
613.351	20854.34
613.55	20889.41
613.75	20759.4
613.949	20404.07
614.149	20513.92
614.348	20526.71
614.548	20461.23
614.747	20467.81
614.947	20614.87
615.146	20394.38
615.346	20790.4
615.545	20791.56
615.745	20563.33
615.944	20364.35
616.144	20386.63
616.343	20166.54
616.542	20270.38
616.742	19929.58
616.941	19936.17
617.14	19670.16
617.34	19982.67
617.539	20016.77
617.738	19962.33
617.938	20288.4
618.137	20087.87
618.336	20227.18
618.535	20374.04
618.734	20404.07
618.934	20140.57
619.133	20386.44
619.332	20550.54
619.531	20144.06
619.73	20460.64
619.929	20375.59
620.128	20430.23
620.328	20357.57
620.527	20414.73
620.726	20533.3
620.925	20449.41
621.124	20650.13
621.323	20337.81
621.522	20086.13
621.721	20361.25
621.92	20172.54
622.119	20163.63
622.318	20036.14
622.517	19985.58
622.715	19956.13
622.914	19827.28
623.113	20045.06
623.312	19446.96
623.511	19804.03
623.71	19718.79
623.909	19470.01
624.107	19770.52
624.306	19538.02
624.505	19532.59
624.704	19416.93
624.902	19220.08
625.101	19420.03
625.3	19142.58
625.499	19176.1
625.697	19281.11
625.896	19110.23
626.095	18997.08
626.293	18899.04
626.492	19061.21
626.69	19085.62
626.889	19373.72
627.088	19233.45
627.286	19292.93
627.485	19058.3
627.683	19091.43
627.882	18881.8
628.08	18772.14
628.279	18499.92
628.477	18639.42
628.676	18347.25
628.874	18523.56
629.073	18498.76
629.271	18477.83
629.469	18651.43
629.668	18596.21
629.866	18365.85
630.065	18440.64
630.263	18533.25
630.461	18302.88
630.66	18517.55
630.858	18341.82
631.056	18583.62
631.254	18633.03
631.453	18365.07
631.651	18509.42
631.849	18361.39
632.047	18279.05
632.245	18178.88
632.444	18297.26
632.642	18475.9
632.84	18709.56
633.038	18429.01
633.236	18409.05
633.434	18498.57
633.632	18527.63
633.83	18262.19
634.028	18616.17
634.227	18377.67
634.425	18626.83
634.623	18332.14
634.821	18517.36
635.019	18547.58
635.216	18678.75
635.414	18635.16
635.612	18343.18
635.81	18466.4
636.008	18530.53
636.206	18475.7
636.404	18329.23
636.602	18440.83
636.8	18224.8
636.997	18444.7
637.195	18403.82
637.393	18558.63
637.591	18551.85
637.789	18552.23
637.986	18581.68
638.184	18568.7
638.382	18665.77
638.58	18515.23
638.777	18667.13
638.975	18545.06
639.173	18621.98
639.37	18479.38
639.568	18484.03
639.765	18489.27
639.963	18346.47
640.161	18063.8
640.358	18408.67
640.556	18023.88
640.753	18180.82
640.951	18040.74
641.148	18100.42
641.346	18052.95
641.543	17867.53
641.741	17956.65
641.938	17892.72
642.136	18024.27
642.333	17838.86
642.531	18132.19
642.728	17970.02
642.925	18159.31
643.123	18033.96
643.32	18045
643.517	17853.58
643.715	17802.82
643.912	18013.62
644.109	17877.99
644.306	18013.04
644.504	17869.08
644.701	17923.14
644.898	17931.85
645.095	17895.62
645.293	17836.14
645.49	17736.56
645.687	17669.33
645.884	17758.06
646.081	17372.12
646.278	17473.45
646.475	17373.86
646.672	17278.73
646.87	17238.05
647.067	17211.7
647.264	17231.07
647.461	17077.43
647.658	16982.11
647.855	17122.96
648.052	16855.01
648.249	16768.02
648.446	16892.01
648.642	17088.28
648.839	16752.52
649.036	16714.73
649.233	16769.37
649.43	16678.31
649.627	16367.93
649.824	16513.04
650.021	16320.85
650.217	16498.51
650.414	16598.87
650.611	16628.71
650.808	16937.54
651.004	16842.03
651.201	16877.87
651.398	17070.07
651.595	16811.03
651.791	16648.09
651.988	16817.03
652.185	16407.65
652.381	16917.98
652.578	16631.42
652.775	16694.78
652.971	16880
653.168	16654.09
653.364	16908.48
653.561	16590.16
653.757	16767.05
653.954	17027.25
654.15	16627.94
654.347	16829.05
654.543	16821.49
654.74	16601.59
654.936	16424.89
655.133	16421.21
655.329	16443.49
655.525	16069.36
655.722	16029.84
655.918	15644.67
656.115	15151
656.311	14779.01
656.507	14336.49
656.704	14091.01
656.9	14195.44
657.096	14532.17
657.292	14436.85
657.489	14706.35
657.685	14979.15
657.881	15058
658.077	15267.83
658.273	15600.69
658.47	15769.64
658.666	15727.98
658.862	16090.68
659.058	16057.35
659.254	16101.91
659.45	16234.82
659.646	16012.01
659.842	16161.78
660.038	16378.2
660.234	16130.39
660.43	16238.31
660.626	16465.77
660.822	16244.9
661.018	16321.43
661.214	16388.66
661.41	16266.99
661.606	16413.26
661.802	16630.26
661.998	16338.87
662.194	16330.53
662.39	16387.11
662.586	16493.28
662.781	16372.58
662.977	16629.49
663.173	16302.83
663.369	16379.55
663.564	16274.35
663.76	16340.61
663.956	16279.38
664.152	16036.62
664.347	16028.68
664.543	16254.78
664.739	16085.44
664.934	16028.29
665.13	16237.34
665.326	16134.66
665.521	16191.42
665.717	16015.11
665.912	16171.27
666.108	15859.15
666.304	16253.62
666.499	15901
666.695	15696.4
666.89	15969.2
667.086	15985.86
667.281	15963.77
667.477	16139.69
667.672	15934.13
667.867	15803.74
668.063	15832.8
668.258	15652.61
668.454	15784.75
668.649	15826.79
668.844	15962.61
669.04	15862.05
669.235	15780.29
669.43	15896.54
669.626	15757.82
669.821	15793.47
670.016	15713.06
670.211	15783.2
670.407	15458.87
670.602	15871.55
670.797	15521.25
670.992	15769.44
671.187	15471.85
671.382	15716.74
671.578	15337.39
671.773	15487.35
671.968	15233.34
672.163	15485.02
672.358	15353.66
672.553	15210.09
672.748	15451.7
672.943	15502.65
673.138	15351.34
673.333	15435.62
673.528	15237.41
673.723	15384.47
673.918	15215.33
674.113	15207.19
674.308	15417.79
674.503	15243.03
674.698	15413.92
674.892	15094.81
675.087	15171.93
675.282	15206.99
675.477	15188.01
675.672	15171.34
675.867	14994.84
676.061	15051.8
676.256	14965.2
676.451	15174.64
676.646	15125.43
676.84	14992.52
677.035	14874.72
677.23	15019.45
677.424	14950.86
677.619	14920.25
677.814	15081.83
678.008	14920.64
678.203	14977.98
678.397	14879.75
678.592	14831.71
678.787	14888.47
678.981	14788.5
679.176	14861.74
679.37	14839.65
679.565	14786.76
679.759	14824.92
679.954	14683.49
680.148	14740.45
680.342	14840.42
680.537	14672.06
680.731	14618.2
680.926	14796.44
681.12	14639.31
681.314	14607.35
681.509	14642.8
681.703	14711.39
681.897	14467.65
682.092	14502.72
682.286	14594.56
682.48	14503.89
682.674	14437.43
682.869	14439.37
683.063	14598.05
683.257	14442.47
683.451	14302.19
683.645	14491.1
683.839	14277.01
684.034	14194.28
684.228	14091.98
684.422	13969.34
684.616	14131.5
684.81	14175.87
685.004	13960.81
685.198	14144.1
685.392	13904.24
685.586	14118.72
685.78	13852.7
685.974	13965.27
686.168	13837.59
686.362	13868.98
686.556	13183.89
686.75	12877.38
686.944	12346.9
687.138	11709.86
687.331	11271.02
687.525	10881.97
687.719	10737.05
687.913	10832.38
688.107	10955.21
688.301	11032.13
688.494	11141.98
688.688	11083.86
688.882	11000.94
689.076	11061.19
689.269	11072.23
689.463	11253.78
689.657	11221.81
689.85	11223.94
690.044	11419.82
690.238	11453.34
690.431	11561.06
690.625	11477.17
690.818	11718.77
691.012	11580.63
691.205	11954.95
691.399	11961.53
691.593	11831.53
691.786	11951.65
691.98	12135.71
692.173	12140.56
692.366	12065.38
692.56	12277.92
692.753	12110.72
692.947	12099.87
693.14	12066.74
693.333	12139.2
693.527	12063.83
693.72	12103.16
693.914	11970.64
694.107	11795.11
694.3	11887.72
694.493	11649.79
694.687	11942.16
694.88	11705.4
695.073	11908.83
695.266	11798.21
695.46	11823.97
695.653	11837.73
695.846	11774.96
696.039	11879.19
696.232	11858.65
696.425	12013.65
696.618	12033.41
696.812	12342.83
697.005	12232.78
697.198	12374.99
697.391	12270.37
697.584	12457.72
697.777	12399.4
697.97	12319.58
698.163	12342.44
698.356	12208.56
698.549	12333.14
698.742	12347.48
698.935	12105.88
699.127	12083.01
699.32	11942.74
699.513	11950.1
699.706	11823.2
699.899	11973.74
700.092	11882.1
700.285	11744.73
700.477	11597.68
700.67	11664.33
700.863	11624.03
701.056	11818.35
701.248	11736.59
701.441	11665.68
701.634	11579.85
701.826	11751.32
702.019	11463.22
702.212	11580.24
702.404	11494.41
702.597	11379.32
702.79	11436.48
702.982	11451.2
703.175	11505.45
703.367	11530.06
703.56	11528.12
703.752	11673.63
703.945	11619.96
704.137	11524.44
704.33	11645.53
704.522	11666.46
704.715	11638.56
704.907	11708.89
705.1	11814.48
705.292	11690.09
705.484	11618.02
705.677	11669.56
705.869	11654.06
706.061	11717.8
706.254	11767.98
706.446	11599.61
706.638	11689.51
706.831	11656.77
707.023	11589.93
707.215	11795.88
707.407	11669.94
707.599	11509.91
707.792	11697.84
707.984	11673.24
708.176	11581.4
708.368	11569.97
708.56	11607.95
708.752	11578.69
708.944	11451.79
709.136	11598.65
709.329	11461.67
709.521	11674.79
709.713	11433.96
709.905	11502.35
710.097	11615.11
710.289	11423.5
710.481	11448.88
710.672	11463.41
710.864	11554.28
711.056	11491.5
711.248	11405.48
711.44	11376.22
711.632	11441.9
711.824	11450.62
712.016	11403.93
712.207	11346.77
712.399	11239.44
712.591	11375.64
712.783	11404.12
712.975	11279.16
713.166	11294.66
713.358	11264.04
713.55	11167.17
713.741	11207.66
713.933	11292.72
714.125	11136.56
714.316	11045.88
714.508	11188.1
714.7	10920.34
714.891	11069.33
715.083	10979.04
715.274	10881.97
715.466	10969.35
715.657	10896.51
715.849	10733.18
716.04	10687.26
716.232	10597.36
716.423	10416.01
716.615	10293.76
716.806	9966.33
716.998	9737.7
717.189	9404.65
717.381	9235.51
717.572	9030.72
717.763	8883.28
717.955	8680.81
718.146	8545.38
718.337	8408.98
718.528	8188.31
718.72	7926.17
718.911	7934.69
719.102	7793.06
719.293	7801.2
719.485	7761.48
719.676	7623.92
719.867	7529.76
720.058	7595.25
720.249	7550.3
720.44	7489.85
720.632	7640
720.823	7751.21
721.014	8039.51
721.205	8223.96
721.396	8419.64
721.587	8603.12
721.778	8737
721.969	8824.19
722.16	8904.4
722.351	9099.31
722.542	9152.97
722.733	9208.39
722.924	9054.55
723.115	9112.67
723.305	8894.52
723.496	8950.9
723.687	8513.61
723.878	8593.24
724.069	8470.02
724.26	8395.81
724.45	8200.9
724.641	8164.48
724.832	8220.08
725.023	8039.51
725.213	8049.2
725.404	7972.67
725.595	7919.97
725.785	7925.2
725.976	8038.15
726.167	8016.07
726.357	8049.2
726.548	8137.74
726.739	7933.72
726.929	8093.37
727.12	8123.98
727.31	8123.01
727.501	7959.49
727.691	7899.24
727.882	7943.99
728.072	7983.32
728.263	7998.24
728.453	8101.31
728.644	8170.87
728.834	8012.38
729.024	7888.39
729.215	7898.85
729.405	7915.51
729.596	7942.64
729.786	7944.96
729.976	8024.2
730.167	7946.32
730.357	7965.3
730.547	8026.92
730.737	7981.19
730.928	7930.24
731.118	8038.15
731.308	7994.95
731.498	7958.91
731.688	8113.91
731.879	8101.31
732.069	8160.6
732.259	8295.64
732.449	8326.25
732.639	8403.95
732.829	8429.91
733.019	8526.2
733.209	8609.51
733.399	8631.41
733.589	8784.47
733.779	8793.77
733.969	8767.03
734.159	8970.27
734.349	8936.95
734.539	9013.67
734.729	9022
734.919	8923.58
735.109	9056.68
735.299	8875.53
735.488	8944.31
735.678	8866.23
735.868	8877.66
736.058	8846.27
736.248	8831.16
736.437	8767.03
736.627	8726.54
736.817	8852.28
737.007	8751.34
737.196	8842.59
737.386	8895.1
737.576	8753.47
737.765	8809.07
737.955	8713.75
738.144	8978.99
738.334	8818.76
738.524	8747.07
738.713	8811.4
738.903	8750.17
739.092	8734.29
739.282	8761.99
739.471	8812.75
739.661	8720.34
739.85	8791.64
740.04	8720.34
740.229	8756.57
740.419	8793.19
740.608	8808.69
740.797	8760.05
740.987	8764.12
741.176	8737.39
741.365	8689.34
741.555	8573.48
741.744	8790.47
741.933	8652.14
742.123	8713.17
742.312	8679.07
742.501	8735.26
742.69	8753.85
742.88	8580.84
743.069	8810.43
743.258	8756.18
743.447	8861
743.636	8726.92
743.825	8668.61
744.014	8709.1
744.204	8764.12
744.393	8688.56
744.582	8846.47
744.771	8792.99
744.96	8683.72
745.149	8748.04
745.338	8664.73
745.527	8841.62
745.716	8661.24
745.905	8628.69
746.094	8727.51
746.283	8748.62
746.471	8654.08
746.66	8661.44
746.849	8710.46
747.038	8642.06
747.227	8655.04
747.416	8644.58
747.604	8529.88
747.793	8568.05
747.982	8620.17
748.171	8713.94
748.359	8548.1
748.548	8522.71
748.737	8495.98
748.926	8542.86
749.114	8358.8
749.303	8463.23
749.491	8427.2
749.68	8315.02
749.869	8464.01
750.057	8337.69
750.246	8332.07
750.434	8352.22
750.623	8360.35
750.811	8249.14
751	8330.13
751.188	8278.4
751.377	8238.68
751.565	8177.65
751.754	8170.87
751.942	8142.19
752.131	8237.32
752.319	8172.61
752.507	8159.63
752.696	8195.67
752.884	8215.43
753.072	8072.83
753.261	8143.16
753.449	8146.07
753.637	8006.18
753.825	8177.26
754.014	8043.19
754.202	8065.66
754.39	8108.68
754.578	8073.61
754.766	7960.85
754.955	7929.27
755.143	8111
755.331	7988.75
755.519	8009.09
755.707	7966.27
755.895	7871.34
756.083	7919.19
756.271	7840.92
756.459	7876.76
756.647	7897.49
756.835	7810.11
757.023	7832.59
757.211	7755.67
757.399	7784.54
757.587	7737.84
757.775	7749.08
757.963	7708.78
758.151	7703.16
758.339	7601.25
758.526	7644.85
758.714	7631.86
758.902	7462.92
759.09	7322.45
759.278	6919.65
759.465	6484.3
759.653	5809.67
759.841	5301.47
760.028	4659.2
760.216	4100.05
760.404	3832.09
760.591	3312.27
760.779	2868.59
760.967	2625.05
761.154	2357.1
761.342	2428.01
761.529	2414.83
761.717	2557.62
761.905	2649.27
762.092	2830.81
762.28	2797.48
762.467	2788.18
762.655	2720.57
762.842	2786.44
763.029	2872.08
763.217	2844.95
763.404	2894.94
763.592	2950.54
763.779	2941.44
763.966	3002.66
764.154	3101.09
764.341	3170.83
764.528	3215.78
764.716	3380.47
764.903	3408.37
765.09	3589.33
765.277	3671.87
765.465	3950.86
765.652	4061.88
765.839	4204.86
766.026	4471.65
766.213	4555.55
766.4	4676.25
766.588	4935.29
766.775	5028.29
766.962	5205.76
767.149	5366.57
767.336	5601.2
767.523	5538.04
767.71	5765.3
767.897	5922.82
768.084	6063.09
768.271	6112.11
768.458	6261.1
768.645	6347.51
768.832	6288.62
769.019	6391.3
769.206	6446.71
769.392	6503.29
769.579	6564.9
769.766	6584.08
769.953	6563.93
770.14	6624.96
770.327	6640.07
770.513	6661.58
770.7	6769.69
770.887	6650.54
771.073	6692.58
771.26	6657.9
771.447	6645.3
771.634	6574.78
771.82	6728.03
772.007	6609.85
772.193	6690.06
772.38	6638.91
772.567	6634.26
772.753	6600.94
772.94	6680.18
773.126	6617.99
773.313	6701.3
773.499	6574.97
773.686	6613.72
773.872	6550.76
774.059	6658.09
774.245	6570.32
774.432	6572.84
774.618	6456.4
774.804	6568.19
774.991	6441.29
775.177	6451.36
775.363	6505.03
775.55	6529.06
775.736	6418.81
775.922	6519.17
776.109	6470.16
776.295	6444.97
776.481	6502.51
776.667	6478.1
776.853	6462.99
777.04	6396.53
777.226	6425.01
777.412	6463.76
777.598	6368.63
777.784	6399.05
777.97	6307.02
778.156	6325.23
778.342	6293.27
778.528	6291.33
778.715	6214.02
778.901	6253.93
779.087	6284.55
779.272	6275.83
779.458	6171.2
779.644	6217.9
779.83	6233.2
780.016	6282.22
780.202	6159.58
780.388	6196.97
780.574	6092.93
780.76	6186.51
780.946	6136.91
781.131	6149.31
781.317	6082.86
781.503	6056.89
781.689	6046.82
781.874	6182.05
782.06	5998.58
782.246	6099.91
782.432	5997.99
782.617	6048.56
782.803	6089.44
782.989	5933.48
783.174	5937.74
783.36	5928.05
783.545	5894.34
783.731	5934.83
783.916	5829.43
784.102	5914.88
784.288	5855.59
784.473	5854.82
784.659	5802.89
784.844	5881.94
785.029	5859.27
785.215	5760.27
785.4	5768.4
785.586	5847.07
785.771	5709.5
785.956	5784.48
786.142	5739.34
786.327	5687.61
786.512	5698.07
786.698	5653.51
786.883	5560.51
787.068	5637.04
787.254	5691.49
787.439	5614.18
787.624	5544.63
787.809	5574.27
787.994	5521.57
788.18	5604.3
788.365	5464.61
788.55	5471.58
788.735	5487.66
788.92	5483.79
789.105	5459.96
789.29	5496.96
789.475	5377.62
789.66	5414.23
789.845	5357.85
790.03	5361.15
790.215	5360.57
790.4	5431.28
790.585	5396.99
790.77	5394.86
790.955	5315.23
791.14	5282.1
791.325	5429.15
791.51	5218.16
791.695	5342.94
791.879	5365.41
792.064	5245.09
792.249	5363.28
792.434	5324.53
792.618	5280.74
792.803	5345.07
792.988	5280.94
793.173	5312.13
793.357	5330.73
793.542	5240.83
793.727	5293.53
793.911	5296.24
794.096	5319.3
794.281	5303.8
794.465	5408.42
794.65	5274.74
794.834	5395.25
795.019	5399.51
795.203	5403.38
795.388	5342.94
795.572	5433.61
795.757	5377.62
795.941	5366.57
796.126	5402.61
796.31	5279.77
796.494	5370.45
796.679	5314.84
796.863	5333.83
797.048	5440.2
797.232	5359.02
797.416	5394.28
797.601	5359.98
797.785	5458.21
797.969	5489.21
798.153	5395.25
798.338	5457.63
798.522	5523.89
798.706	5481.08
798.89	5455.11
799.074	5581.83
799.258	5554.7
799.443	5447.36
799.627	5474.49
799.811	5522.73
799.995	5402.8
800.179	5403.19
800.363	5369.67
800.547	5440.39
800.731	5466.16
800.915	5298.37
801.099	5376.84
801.283	5361.73
801.467	5408.62
801.651	5365.6
801.835	5441.55
802.019	5412.1
802.202	5428.38
802.386	5306.9
802.57	5297.99
802.754	5349.91
802.938	5315.42
803.121	5377.03
803.305	5430.32
803.489	5329.18
803.673	5437.68
803.856	5416.95
804.04	5329.57
804.224	5402.03
804.407	5353.2
804.591	5309.8
804.775	5294.5
804.958	5330.73
805.142	5403.58
805.326	5363.47
805.509	5354.17
805.693	5416.37
805.876	5363.67
806.06	5380.72
806.243	5384.2
806.427	5411.91
806.61	5415.01
806.794	5339.06
806.977	5438.45
807.16	5444.26
807.344	5377.03
807.527	5335.19
807.71	5392.53
807.894	5290.62
808.077	5363.28
808.26	5310.58
808.444	5251.49
808.627	5324.53
808.81	5274.74
808.993	5192.39
809.177	5224.94
809.36	5144.73
809.543	5163.91
809.726	5094.74
809.909	5075.56
810.092	5075.18
810.276	5072.27
810.459	5032.94
810.642	5036.81
810.825	5025.96
811.008	5036.81
811.191	4867.87
811.374	4875.81
811.557	4900.8
811.74	4927.93
811.923	4826.21
812.106	4800.44
812.289	4767.12
812.472	4780.1
812.654	4752.59
812.837	4713.64
813.02	4562.91
813.203	4556.52
813.386	4422.25
813.569	4352.89
813.751	4275.97
813.934	4314.52
814.117	4276.36
814.3	4157.4
814.482	4112.83
814.665	4032.24
814.848	3957.64
815.03	3893.51
815.213	3843.14
815.396	3822.02
815.578	3742.78
815.761	3700.15
815.943	3762.15
816.126	3658.69
816.309	3633.5
816.491	3506.02
816.674	3422.51
816.856	3492.46
817.039	3476.76
817.221	3593.98
817.403	3540.5
817.586	3552.52
817.768	3534.3
817.951	3457.58
818.133	3416.7
818.315	3479.28
818.498	3495.75
818.68	3562.2
818.862	3567.82
819.045	3566.47
819.227	3524.62
819.409	3491.68
819.591	3520.35
819.774	3490.91
819.956	3491.49
820.138	3596.3
820.32	3584.29
820.502	3731.93
820.684	3781.72
820.866	3783.46
821.048	3859.61
821.231	3931.68
821.413	3952.02
821.595	3828.22
821.777	3913.66
821.959	3867.55
822.141	3956.09
822.323	3748.59
822.505	3628.27
822.686	3519
822.868	3392.68
823.05	3192.34
823.232	3084.42
823.414	3049.36
823.596	3101.09
823.778	3106.9
823.96	3122.98
824.141	3218.5
824.323	3257.25
824.505	3403.91
824.687	3454.29
824.868	3582.74
825.05	3641.06
825.232	3730.38
825.413	3817.56
825.595	3720.69
825.777	3722.82
825.958	3740.45
826.14	3692.01
826.321	3766.41
826.503	3742.58
826.685	3757.89
826.866	3772.42
827.048	3752.46
827.229	3686.01
827.411	3631.18
827.592	3525.2
827.773	3546.7
827.955	3485.09
828.136	3462.23
828.318	3471.14
828.499	3445.57
828.68	3405.08
828.862	3363.03
829.043	3404.49
829.224	3360.13
829.406	3361.09
829.587	3351.6
829.768	3380.66
829.949	3360.32
830.131	3369.62
830.312	3488
830.493	3403.53
830.674	3372.33
830.855	3360.13
831.036	3370.2
831.218	3469.79
831.399	3499.24
831.58	3400.04
831.761	3402.75
831.942	3404.49
832.123	3400.43
832.304	3263.45
832.485	3319.63
832.666	3377.18
832.847	3422.71
833.028	3343.27
833.209	3324.67
833.389	3296
833.57	3265.58
833.751	3292.51
833.932	3371.56
834.113	3330.29
834.294	3295.61
834.475	3398.1
834.655	3412.24
834.836	3381.24
835.017	3391.71
835.198	3354.31
835.378	3373.49
835.559	3481.99
835.74	3379.69
835.92	3391.9
836.101	3386.28
836.281	3436.46
836.462	3354.89
836.643	3468.04
836.823	3423.09
837.004	3523.45
837.184	3455.84
837.365	3457.19
837.545	3491.87
837.726	3402.17
837.906	3478.12
838.087	3451.38
838.267	3467.27
838.448	3414.76
838.628	3419.03
838.808	3432.01
838.989	3429.1
839.169	3355.09
839.349	3438.21
839.53	3478.12
839.71	3452.35
839.89	3364.78
840.07	3481.99
840.251	3417.09
840.431	3463.97
840.611	3381.24
840.791	3379.89
840.971	3409.14
841.151	3373.69
841.332	3324.67
841.512	3408.18
841.692	3291.54
841.872	3361.87
842.052	3349.66
842.232	3352.57
842.412	3309.75
842.592	3307.04
842.772	3338.62
842.952	3384.34
843.132	3306.85
843.312	3291.73
843.492	3313.63
843.672	3328.55
843.851	3244.27
844.031	3269.26
844.211	3258.02
844.391	3274.3
844.571	3273.52
844.751	3263.06
844.93	3274.88
845.11	3235.74
845.29	3274.88
845.47	3271.78
845.649	3239.81
845.829	3254.53
846.009	3217.72
846.188	3283.79
846.368	3272.94
846.547	3209.97
846.727	3246.78
846.907	3153.59
847.086	3204.74
847.266	3232.45
847.445	3203.19
847.625	3165.02
847.804	3169.48
847.984	3212.49
848.163	3159.21
848.343	3143.9
848.522	3152.24
848.701	3135.96
848.881	3129.18
849.06	3161.34
849.239	3094.3
849.419	3125.89
849.598	3067.96
849.777	2982.71
849.957	2947.44
850.136	2888.93
850.315	2856
850.494	2863.55
850.674	2867.62
850.853	2961.98
851.032	2928.07
851.211	2980.58
851.39	2981.35
851.569	2904.04
851.748	2866.85
851.927	2983.29
852.107	2934.46
852.286	2898.81
852.465	2916.06
852.644	2993.36
852.823	2919.74
853.002	2923.03
853.181	2916.06
853.359	2957.52
853.538	2833.33
853.717	2891.06
853.896	2721.92
854.075	2624.47
854.254	2567.89
854.433	2457.65
854.611	2475.67
854.79	2405.34
854.969	2491.75
855.148	2535.54
855.327	2526.82
855.505	2596.96
855.684	2590.17
855.863	2656.63
856.041	2681.62
856.22	2661.09
856.399	2680.07
856.577	2768.23
856.756	2772.88
856.934	2898.43
857.113	2866.46
857.291	2803.68
857.47	2734.32
857.648	2787.8
857.827	2805.82
858.005	2839.14
858.184	2753.5
858.362	2870.91
858.541	2737.23
858.719	2726.96
858.898	2730.64
859.076	2713.01
859.254	2799.03
859.433	2728.12
859.611	2682.59
859.789	2667.48
859.967	2752.53
860.146	2736.84
860.324	2659.54
860.502	2690.15
860.68	2660.31
860.859	2647.52
861.037	2661.47
861.215	2704.1
861.393	2662.64
861.571	2657.4
861.749	2628.54
861.927	2628.54
862.105	2659.15
862.283	2590.37
862.461	2576.42
862.639	2594.05
862.817	2627.57
862.995	2609.94
863.173	2564.79
863.351	2604.9
863.529	2638.61
863.707	2636.67
863.885	2605.87
864.063	2479.93
864.241	2525.08
864.418	2588.04
864.596	2586.3
864.774	2525.27
864.952	2542.32
865.129	2552.78
865.307	2495.04
865.485	2493.3
865.663	2493.49
865.84	2414.83
866.018	2386.74
866.196	2193.77
866.373	2211.59
866.551	2148.62
866.728	2119.56
866.906	2177.88
867.084	2218.95
867.261	2257.7
867.439	2254.02
867.616	2305.37
867.794	2310.79
867.971	2327.45
868.149	2314.47
868.326	2376.47
868.503	2365.82
868.681	2358.45
868.858	2344.31
869.035	2316.6
869.213	2360.58
869.39	2289.09
869.567	2428.78
869.745	2336.17
869.922	2400.88
870.099	2350.32
870.276	2373.18
870.454	2348.38
870.631	2345.67
870.808	2316.8
870.985	2389.06
871.162	2381.31
871.339	2380.93
871.517	2272.24
871.694	2254.8
871.871	2320.09
872.048	2285.6
872.225	2282.5
872.402	2283.86
872.579	2211.98
872.756	2302.85
872.933	2221.86
873.11	2273.2
873.287	2288.7
873.463	2204.62
873.64	2226.9
873.817	2235.23
873.994	2238.72
874.171	2185.24
874.348	2192.22
874.524	2147.07
874.701	2197.26
874.878	2132.35
875.055	2183.89
875.231	2138.36
875.408	2179.04
875.585	2084.49
875.762	2174.2
875.938	2101.93
876.115	2146.49
876.291	2117.04
876.468	2125.37
876.645	2098.06
876.821	2096.31
876.998	2106
877.174	2106.97
877.351	2090.69
877.527	2065.89
877.704	2087.4
877.88	2088.95
878.057	2092.24
878.233	2106.78
878.409	2060.08
878.586	2085.85
878.762	2056.59
878.938	2053.3
879.115	1953.33
879.291	2030.24
879.467	1983.75
879.644	2014.75
879.82	2066.09
879.996	2035.48
880.172	1958.17
880.349	2025.21
880.525	2036.25
880.701	1946.55
880.877	1950.23
881.053	1968.05
881.229	1937.25
881.405	2024.82
881.581	1953.91
881.757	1941.9
881.933	2002.54
882.109	1994.01
882.285	2025.98
882.461	1931.43
882.637	2007.77
882.813	1930.66
882.989	1976.19
883.165	2025.79
883.341	1952.75
883.517	1973.28
883.693	1981.03
883.869	1978.71
884.044	1952.94
884.22	1975.61
884.396	2019.2
884.572	1992.46
884.747	2014.36
884.923	1965.73
885.099	1981.23
885.275	2019.01
885.45	1938.41
885.626	1952.94
885.801	1946.55
885.977	1942.67
886.153	1854.13
886.328	1965.53
886.504	1912.83
886.679	1935.5
886.855	1951.97
887.03	1904.7
887.206	1993.24
887.381	1958.56
887.557	1960.88
887.732	1967.66
887.908	1955.07
888.083	1976.19
888.258	1941.9
888.434	1932.02
888.609	1925.43
888.784	2003.31
888.96	1938.6
889.135	1932.79
889.31	1926.01
889.485	1963.79
889.661	1947.51
889.836	1938.21
890.011	1913.03
890.186	1915.35
890.361	1906.44
890.537	1971.15
890.712	1942.09
890.887	1968.44
891.062	1948.68
891.237	1997.89
891.412	1921.55
891.587	1972.31
891.762	1975.03
891.937	1982.97
892.112	1869.82
892.287	1930.66
892.462	1878.54
892.637	1863.23
892.812	1831.27
892.987	1852.58
893.161	1812.09
893.336	1804.14
893.511	1780.5
893.686	1842.7
893.861	1815.77
894.035	1816.15
894.21	1827.39
894.385	1763.84
894.56	1777.79
894.734	1694.87
894.909	1664.26
895.084	1666.19
895.258	1632.87
895.433	1669.29
895.608	1611.56
895.782	1556.34
895.957	1574.55
896.131	1576.1
896.306	1492.4
896.48	1535.22
896.655	1469.54
896.829	1427.11
897.004	1404.64
897.178	1427.88
897.353	1407.35
897.527	1461.21
897.701	1437.18
897.876	1354.65
898.05	1478.07
898.224	1425.56
898.399	1456.17
898.573	1380.61
898.747	1264.75
898.921	1250.41
899.096	1165.94
899.27	1168.26
899.444	1175.63
899.618	1245.96
899.792	1291.29
899.967	1285.48
900.141	1322.49
900.315	1223.87
900.489	1243.05
900.663	1242.86
900.837	1201.2
901.011	1200.23
901.185	1298.46
901.359	1222.13
901.533	1243.82
901.707	1249.25
901.881	1245.96
902.055	1188.8
902.229	1243.82
902.403	1326.55
902.576	1236.46
902.75	1272.5
902.924	1385.26
903.098	1372.47
903.272	1361.24
903.446	1478.07
903.619	1456.37
903.793	1488.53
903.967	1434.67
904.14	1544.52
904.314	1526.5
904.488	1486.2
904.661	1506.35
904.835	1500.54
905.009	1567.96
905.182	1544.91
905.356	1531.15
905.529	1556.15
905.703	1470.32
905.876	1462.76
906.05	1441.06
906.223	1374.02
906.397	1330.24
906.57	1267.85
906.744	1282.77
906.917	1236.08
907.09	1262.42
907.264	1219.61
907.437	1172.33
907.61	1141.33
907.784	1177.56
907.957	1181.63
908.13	1139.2
908.304	1160.9
908.477	1108.01
908.65	1111.69
908.823	1089.99
908.996	1151.41
909.17	1108.59
909.343	1099.48
909.516	1101.03
909.689	1076.23
909.862	1055.5
910.035	1097.16
910.208	1052.02
910.381	1029.93
910.554	1130.48
910.727	1088.44
910.9	1046.98
911.073	1100.45
911.246	1124.28
911.419	1165.36
911.592	1138.23
911.765	1084.56
911.938	1078.17
912.11	1079.14
912.283	1097.35
912.456	1104.71
912.629	1117.11
912.802	1033.42
912.974	990.79
913.147	967.74
913.32	855.56
913.493	928.99
913.665	953.01
913.838	961.73
914.01	945.65
914.183	1013.65
914.356	1009.78
914.528	1009.39
914.701	1107.81
914.873	1024.7
915.046	994.08
915.218	905.35
915.391	822.04
915.563	851.1
915.736	893.14
915.908	941.77
916.081	960.57
916.253	950.69
916.425	983.43
916.598	1010.55
916.77	971.42
916.942	909.22
917.115	847.42
917.287	914.65
917.459	880.74
917.632	819.91
917.804	803.63
917.976	876.67
918.148	917.55
918.32	924.34
918.493	948.55
918.665	1016.17
918.837	960.37
919.009	1035.93
919.181	1031.48
919.353	946.23
919.525	980.13
919.697	967.54
919.869	1011.91
920.041	1083.6
920.213	1128.55
920.385	1047.75
920.557	1008.03
920.729	1021.98
920.901	1021.4
921.073	987.11
921.244	968.9
921.416	1031.48
921.588	986.72
921.76	965.41
921.932	1018.69
922.103	967.35
922.275	999.51
922.447	989.05
922.619	906.7
922.79	931.7
922.962	944.1
923.134	945.26
923.305	908.64
923.477	864.47
923.648	882.1
923.82	914.45
923.991	839.86
924.163	789.1
924.335	874.54
924.506	860.21
924.677	925.3
924.849	816.81
925.02	856.33
925.192	909.8
925.363	877.26
925.535	833.47
925.706	827.27
925.877	906.7
926.049	841.61
926.22	855.36
926.391	851.1
926.562	874.54
926.734	827.66
926.905	863.89
927.076	789.1
927.247	803.44
927.419	771.86
927.59	745.12
927.761	737.56
927.932	707.92
928.103	719.54
928.274	638.36
928.445	631.39
928.616	630.81
928.787	636.23
928.958	643.98
929.129	634.3
929.3	591.67
929.471	540.13
929.642	501.39
929.813	454.89
929.984	538.39
930.155	434.54
930.326	497.12
930.496	462.44
930.667	396.37
930.838	442.68
931.009	364.02
931.18	400.83
931.35	364.79
931.521	367.31
931.692	308.41
931.863	240.6
932.033	293.69
932.204	296.98
932.374	320.81
932.545	235.37
932.716	311.32
932.886	312.29
933.057	220.45
933.227	206.11
933.398	287.1
933.568	185.58
933.739	158.65
933.909	132.3
934.08	193.33
934.25	108.08
934.421	121.45
934.591	202.82
934.761	168.14
934.932	131.13
935.102	146.44
935.272	187.71
935.443	168.72
935.613	131.91
935.783	177.83
935.953	145.47
936.123	266.95
936.294	155.55
936.464	166.59
936.634	158.07
936.804	141.21
936.974	105.17
937.144	185.58
937.314	129.39
937.484	135.01
937.655	121.06
937.825	196.04
937.995	108.27
938.165	198.75
938.334	157.1
938.504	216.19
938.674	234.01
938.844	247
939.014	315.19
939.184	293.69
939.354	339.22
939.524	334.96
939.694	285.94
939.863	273.35
940.033	341.93
940.203	313.26
940.373	289.81
940.542	314.23
940.712	256.68
940.882	298.34
941.051	287.29
941.221	303.76
941.391	302.02
941.56	288.26
941.73	251.84
941.899	361.69
942.069	233.82
942.238	279.54
942.408	244.48
942.577	246.03
942.747	220.26
942.916	180.54
943.086	215.03
943.255	269.66
943.425	242.15
943.594	205.34
943.763	126.29
943.933	161.36
944.102	129.97
944.271	225.68
944.441	196.43
944.61	182.48
944.779	198.17
944.948	273.35
945.117	162.52
945.287	182.67
945.456	132.1
945.625	175.89
945.794	211.73
945.963	185
946.132	206.7
946.301	167.17
946.47	228.59
946.639	158.45
946.808	192.55
946.977	231.5
947.146	218.13
947.315	169.3
947.484	233.63
947.653	192.75
947.822	169.5
947.991	183.83
948.16	263.66
948.329	242.35
948.498	205.73
948.666	214.45
948.835	222.58
949.004	170.85
949.173	150.12
949.341	173.37
949.51	213.09
949.679	202.82
949.847	230.72
950.016	265.79
950.185	252.81
950.353	188.48
950.522	226.85
950.69	261.72
950.859	204.18
951.028	271.21
951.196	244.67
951.365	182.67
951.533	182.28
951.701	225.3
951.87	191
952.038	132.88
952.207	181.9
952.375	246.03
952.543	176.28
952.712	189.07
952.88	186.35
953.048	252.23
953.217	209.21
953.385	210.76
953.553	247.96
953.721	222
953.89	204.18
954.058	169.3
954.226	168.33
954.394	179.77
954.562	151.28
954.73	191.2
954.898	198.36
955.067	241.57
955.235	162.91
955.403	209.6
955.571	267.92
955.739	212.9
955.907	171.63
956.075	198.36
956.243	139.47
956.41	203.6
956.578	145.28
956.746	149.15
956.914	179.38
957.082	229.36
957.25	218.51
957.418	190.23
957.585	219.29
957.753	268.89
957.921	181.9
958.089	189.07
958.256	217.55
958.424	206.89
958.592	209.99
958.759	174.73
958.927	222.39
959.095	179.38
959.262	166.98
959.43	216.58
959.597	190.23
959.765	192.75
959.932	162.91
960.1	206.31
960.267	201.46
960.435	172.79
960.602	231.5
960.77	201.46
960.937	166.2
961.104	215.8
961.272	145.67
961.439	190.61
961.606	228.01
961.774	233.24
961.941	212.9
962.108	222.97
962.275	190.61
962.443	219.87
962.61	238.66
962.777	301.83
962.944	234.79
963.111	215.8
963.278	242.15
963.446	214.83
963.613	256.68
963.78	260.56
963.947	235.37
964.114	222.2
964.281	298.34
964.448	237.89
964.615	197.2
964.782	238.86
964.949	247.96
965.116	256.1
965.282	266.37
965.449	230.53
965.616	198.17
965.783	221.23
965.95	227.81
966.117	183.25
966.283	221.03
966.45	216.19
966.617	212.12
966.784	269.66
966.95	259.59
967.117	282.26
967.284	204.37
967.45	223.75
967.617	298.73
967.784	277.8
967.95	332.63
968.117	271.8
968.283	295.43
968.45	339.22
968.616	245.64
968.783	312.29
968.949	273.93
969.116	298.34
969.282	279.16
969.449	281.09
969.615	278.19
969.781	235.76
969.948	267.53
970.114	223.94
970.28	352.01
970.447	241.96
970.613	317.33
970.779	262.3
970.945	290.01
971.112	276.83
971.278	269.08
971.444	265.98
971.61	303.38
971.776	247
971.942	293.11
972.108	294.85
972.275	254.36
972.441	267.92
972.607	312.09
972.773	225.49
972.939	242.73
973.105	253.58
973.271	211.93
973.437	209.21
973.602	208.05
973.768	245.64
973.934	209.6
974.1	262.3
974.266	161.17
974.432	217.93
974.598	208.05
974.763	256.68
974.929	230.33
975.095	306.48
975.261	178.41
975.426	205.34
975.592	215.8
975.758	270.05
975.923	202.24
976.089	182.87
976.255	248.55
976.42	235.76
976.586	242.54
976.751	212.7
976.917	301.44
977.082	234.98
977.248	201.27
977.413	158.45
977.579	222.78
977.744	226.26
977.91	203.79
978.075	209.41
978.24	230.14
978.406	204.37
978.571	206.5
978.736	164.65
978.902	240.99
979.067	185.38
979.232	147.6
979.397	222.2
979.563	237.89
979.728	206.5
979.893	208.25
980.058	174.92
980.223	244.48
980.388	181.51
980.554	220.26
980.719	226.46
980.884	228.01
981.049	225.88
981.214	208.63
981.379	214.06
981.544	175.5
981.709	222.97
981.874	196.04
982.039	200.5
982.204	222.97
982.368	200.69
982.533	202.82
982.698	220.65
982.863	241.76
983.028	180.35
983.193	206.7
983.357	202.24
983.522	220.84
983.687	190.42
983.852	194.1
984.016	197.59
984.181	208.44
984.346	269.08
984.51	209.21
984.675	193.13
984.839	214.25
985.004	223.55
985.168	242.54
985.333	229.75
985.498	196.62
985.662	236.53
985.827	195.65
985.991	205.34
986.155	191.39
986.32	228.2
986.484	261.14
986.649	217.74
986.813	123.58
986.977	214.25
987.142	238.86
987.306	167.37
987.47	190.23
987.634	195.65
987.799	208.25
987.963	177.25
988.127	207.28
988.291	263.66
988.455	177.63
988.62	213.48
988.784	216.77
988.948	220.84
989.112	160.97
989.276	197.4
989.44	187.52
989.604	179.57
989.768	155.93
989.932	253
990.096	161.17
990.26	152.64
990.424	122.8
990.588	168.53
990.752	246.61
990.915	197.98
991.079	165.04
991.243	170.66
991.407	217.55
991.571	205.92
991.734	205.73
991.898	183.25
992.062	268.11
992.226	175.89
992.389	158.07
992.553	119.51
992.717	138.11
992.88	142.95
993.044	180.93
993.207	169.3
993.371	212.7
993.535	181.7
993.698	158.26
993.862	226.07
994.025	212.7
994.189	156.9
994.352	183.45
994.515	182.87
994.679	201.46
994.842	158.07
995.006	207.86
995.169	160.2
995.332	142.37
995.496	211.35
995.659	126.1
995.822	173.95
995.985	156.13
996.149	211.73
996.312	155.16
996.475	228.98
996.638	130.75
996.801	209.41
996.964	194.88
997.128	142.95
997.291	136.17
997.454	159.42
997.617	130.94
997.78	204.76
997.943	139.47
998.106	155.35
998.269	132.1
998.432	152.45
998.595	160.58
998.758	108.66
998.92	125.32
999.083	84.83
999.246	154.58
999.409	112.92
999.572	103.62
999.735	134.04
999.897	161.36
1000.06	123.58
1000.223	135.59
1000.386	149.93
1000.548	149.93
1000.711	171.82
1000.874	147.6
1001.036	84.25
1001.199	173.18
1001.361	116.99
1001.524	113.31
1001.687	158.45
1001.849	117.57
1002.012	150.51
1002.174	112.92
1002.337	148.57
1002.499	113.89
1002.661	158.65
1002.824	117.18
1002.986	99.94
1003.149	134.23
1003.311	101.88
1003.473	186.74
1003.636	93.16
1003.798	128.62
1003.96	125.71
1004.123	146.44
1004.285	120.67
1004.447	114.28
1004.609	114.86
1004.771	178.8
1004.933	60.42
1005.096	101.1
1005.258	93.35
1005.42	104.01
1005.582	127.07
1005.744	119.12
1005.906	83.67
1006.068	97.42
1006.23	54.99
1006.392	75.14
1006.554	93.35
1006.716	144.12
1006.878	124.55
1007.04	45.69
1007.202	118.54
1007.363	112.73
1007.525	128.03
1007.687	101.69
1007.849	126.87
1008.011	51.31
1008.172	78.44
1008.334	96.45
1008.496	102.27
1008.658	40.85
1008.819	66.81
1008.981	56.35
1009.143	56.54
1009.304	88.9
1009.466	118.35
1009.627	157.1
1009.789	170.27
1009.95	118.15
1010.112	74.17
1010.273	125.13
1010.435	81.92
1010.596	73.2
1010.758	68.94
1010.919	64.87
1011.081	67.59
1011.242	80.76
1011.403	113.31
1011.565	111.95
1011.726	108.85
1011.887	44.34
1012.049	79.21
1012.21	139.47
1012.371	142.37
1012.532	7.91
1012.693	91.22
1012.855	44.92
1013.016	73.2
1013.177	129.2
1013.338	85.99
1013.499	157.87
1013.66	109.63
1013.821	101.3
1013.982	96.65
1014.143	67.2
1014.304	77.85
1014.465	101.1
1014.626	123
1014.787	88.51
1014.948	154.97
1015.109	6.36
1015.27	113.7
1015.431	69.72
1015.592	46.66
1015.752	115.05
1015.913	85.22
1016.074	74.75
1016.235	80.37
1016.395	69.52
1016.556	56.74
1016.717	68.17
1016.877	120.09
1017.038	50.92
1017.199	78.05
1017.359	62.55
1017.52	86.77
1017.681	63.32
1017.841	77.27
1018.002	76.89
1018.162	51.5
1018.323	114.47
1018.483	65.45
1018.644	65.84
1018.804	52.28
1018.964	21.67
1019.125	51.5
1019.285	73.01
1019.446	36.78
1019.606	28.06
1019.766	23.41
1019.926	85.02
1020.087	70.3
1020.247	19.92
1020.407	100.14
1020.567	99.17
1020.728	49.37
1020.888	9.85
1021.048	33.1
1021.208	11.59
1021.368	34.45
1021.528	77.66
1021.688	87.74
1021.848	70.1
1022.008	44.72
1022.168	63.13
1022.328	62.55
1022.488	89.87
1022.648	53.05
1022.808	55.19
1022.968	70.88
1023.128	26.51
1023.288	54.6
1023.448	44.72
1023.608	75.92
1023.767	79.79
1023.927	22.83
1024.087	5.59
1024.247	14.69
1024.406	37.94
1024.566	30.77
1024.726	29.22
1024.885	57.51
1025.045	66.23
1025.205	53.25
1025.364	36.39
1025.524	79.02
1025.683	51.7
1025.843	31.16
1026.003	18.76
1026.162	121.64
1026.321	78.24
1026.481	40.27
1026.64	49.37
1026.8	86.19
1026.959	61.39
1027.119	46.66
1027.278	15.85
1027.437	5.59
1027.597	45.5
1027.756	48.79
1027.915	44.53
1028.074	71.27
1028.234	17.21
1028.393	32.32
1028.552	21.09
1028.711	-6.23
1028.87	80.76
1029.03	10.04
1029.189	5.01
1029.348	-31.61
1029.507	6.36
1029.666	30.77
1029.825	1.71
1029.984	28.06
1030.143	46.27
1030.302	41.24
1030.461	-3.33
1030.62	39.88
1030.779	44.72
1030.938	14.31
1031.097	13.53
1031.255	63.9
1031.414	76.11
1031.573	63.32
1031.732	-31.23
1031.891	26.12
1032.049	71.07
1032.208	59.84
1032.367	26.7
1032.525	25.35
1032.684	41.04
1032.843	42.98
1033.001	-20.76
1033.16	185.77
1033.319	46.47
1033.477	58.48
1033.636	26.32
1033.794	-12.04
1033.953	53.05
1034.111	59.84
1034.27	36
1034.428	52.86
1034.587	-0.42
1034.745	33.49
1034.903	24.57
1035.062	40.46
1035.22	-28.13
1035.378	46.85
1035.537	10.43
1035.695	41.43
1035.853	32.71
1036.011	46.47
1036.17	49.37
1036.328	-4.68
1036.486	24.77
1036.644	24.19
1036.802	-34.52
1036.96	4.42
1037.119	7.91
1037.277	-7.78
1037.435	6.94
1037.593	-3.33
1037.751	27.09
1037.909	36.97
1038.067	36.97
