Data from tests_FLMT105791__4__15-40-00-264.txt Node

Date: Mon Mar 20 15:40:00 GMT 2023
User: antho
Spectrometer: FLMT10579
Trigger mode: 0
Integration Time (sec): 1.000000E-1
Scans to average: 10
Electric dark correction enabled: true
Nonlinearity correction enabled: false
Boxcar width: 0
XAxis mode: Wavelengths
Number of Pixels in Spectrum: 3648
>>>>>Begin Spectral Data<<<<<
345.248	-148.65
345.464	-148.65
345.681	-148.65
345.898	-163.96
346.114	-156.6
346.331	-35.7
346.548	20.1
346.764	-18.65
346.981	-1.02
347.197	-12.84
347.414	23.59
347.631	-37.05
347.847	74.74
348.064	23.01
348.28	11.96
348.497	-33.18
348.713	-14.97
348.93	48.58
349.146	147.97
349.363	246.79
349.579	273.14
349.796	243.49
350.012	201.84
350.229	274.49
350.445	286.12
350.661	279.92
350.878	316.15
351.094	309.37
351.311	323.51
351.527	306.85
351.743	297.35
351.96	323.12
352.176	344.05
352.392	328.93
352.609	343.66
352.825	298.52
353.041	326.42
353.257	287.28
353.474	331.65
353.69	368.27
353.906	350.05
354.122	377.95
354.339	423.68
354.555	413.21
354.771	378.92
354.987	469.79
355.203	447.9
355.42	390.35
355.636	359.74
355.852	402.56
356.068	384.15
356.284	347.92
356.5	451
356.716	414.18
356.932	371.56
357.148	409.34
357.364	356.45
357.58	400.43
357.796	407.79
358.012	427.55
358.228	399.26
358.444	344.82
358.66	380.86
358.876	378.34
359.092	365.36
359.308	413.41
359.524	446.93
359.74	483.54
359.956	497.3
360.172	534.5
360.388	576.16
360.604	540.89
360.819	599.79
361.035	500.79
361.251	507.96
361.467	470.56
361.683	532.76
361.898	517.84
362.114	542.83
362.33	533.73
362.546	592.43
362.762	601.15
362.977	621.49
363.193	582.55
363.409	672.06
363.624	625.37
363.84	599.41
364.056	574.61
364.271	684.27
364.487	681.94
364.703	680.2
364.918	638.93
365.134	680.78
365.35	662.37
365.565	811.17
365.781	742.97
365.996	843.91
366.212	922.38
366.427	877.05
366.643	832.87
366.858	860.38
367.074	841.01
367.289	921.99
367.505	990.97
367.72	866.2
367.936	862.71
368.151	904.36
368.367	887.31
368.582	850.31
368.798	805.36
369.013	876.85
369.228	876.46
369.444	865.42
369.659	917.93
369.874	895.06
370.09	998.14
370.305	945.24
370.52	970.43
370.736	989.42
370.951	932.26
371.166	950.09
371.381	965.39
371.597	960.16
371.812	914.44
372.027	928
372.242	952.8
372.458	991.55
372.673	869.1
372.888	883.25
373.103	896.81
373.318	959.39
373.533	907.66
373.749	823.38
373.964	752.66
374.179	819.11
374.394	763.7
374.609	845.08
374.824	804.58
375.039	869.68
375.254	803.42
375.469	892.93
375.684	899.13
375.899	1015.38
376.114	1012.47
376.329	1029.91
376.544	999.3
376.759	1009.96
376.974	986.9
377.189	1003.56
377.404	1033.79
377.619	1134.73
377.834	1101.4
378.049	1175.22
378.264	1217.85
378.478	1320.34
378.693	1304.84
378.908	1322.66
379.123	1293.41
379.338	1274.61
379.553	1188.98
379.767	1135.89
379.982	1115.35
380.197	1132.21
380.412	1113.22
380.626	1199.25
380.841	1310.65
381.056	1325.38
381.271	1395.13
381.485	1314.91
381.7	1252.33
381.915	1274.42
382.129	1145.19
382.344	1107.6
382.559	1050.26
382.773	1054.32
382.988	886.73
383.202	971.01
383.417	912.31
383.632	953.38
383.846	889.06
384.061	913.28
384.275	909.4
384.49	1033.98
384.704	1146.94
384.919	1235.87
385.133	1323.05
385.348	1455.96
385.562	1348.63
385.777	1399.78
385.991	1305.23
386.206	1284.88
386.42	1277.33
386.634	1375.75
386.849	1355.02
387.063	1435.81
387.277	1442.79
387.492	1396.29
387.706	1367.03
387.92	1383.11
388.135	1464.49
388.349	1474.76
388.563	1437.36
388.778	1443.56
388.992	1435.42
389.206	1508.08
389.42	1605.34
389.635	1602.82
389.849	1728.56
390.063	1851.59
390.277	1869.22
390.491	1918.44
390.706	1889.37
390.92	1880.27
391.134	1916.11
391.348	1950.6
391.562	2014.92
391.776	2135.05
391.99	2125.36
392.205	2146.86
392.419	2013.18
392.633	1944.4
392.847	1825.05
393.061	1601.47
393.275	1544.12
393.489	1277.13
393.703	1092.49
393.917	1038.63
394.131	1064.59
394.345	1247.3
394.559	1489.48
394.773	1679.16
394.986	1931.03
395.2	2049.02
395.414	2250.71
395.628	2265.44
395.842	2362.51
396.056	2351.66
396.27	2243.35
396.484	2153.26
396.697	1920.37
396.911	1702.41
397.125	1453.25
397.339	1338.36
397.553	1387.38
397.766	1596.23
397.98	1888.6
398.194	2232.31
398.408	2456.09
398.621	2720.74
398.835	2873.8
399.049	2968.74
399.262	3090.41
399.476	3187.48
399.69	3215.96
399.903	3290.94
400.117	3228.17
400.331	3307.6
400.544	3356.82
400.758	3473.65
400.971	3416.88
401.185	3469.58
401.398	3409.52
401.612	3617.21
401.826	3668.17
402.039	3705.56
402.253	3693.16
402.466	3812.12
402.68	3809.8
402.893	3897.95
403.106	3847.38
403.32	3716.22
403.533	3775.5
403.747	3662.55
403.96	3744.7
404.174	3847.19
404.387	3839.25
404.6	3866.18
404.814	3938.83
405.027	3749.15
405.24	3751.67
405.454	3773.18
405.667	3890.78
405.88	3952.4
406.094	3980.88
406.307	3964.41
406.52	3773.18
406.733	3696.65
406.947	3735.4
407.16	3876.64
407.373	3952.78
407.586	3939.03
407.799	4015.56
408.012	3991.34
408.226	4011.68
408.439	4202.72
408.652	4187.8
408.865	4349.58
409.078	4474.74
409.291	4485.39
409.504	4472.61
409.717	4592.34
409.93	4490.04
410.143	4212.99
410.357	4007.61
410.57	3859.78
410.783	3892.72
410.996	3969.44
411.209	4187.02
411.421	4498.96
411.634	4691.73
411.847	4692.51
412.06	4727.77
412.273	4870.56
412.486	4786.09
412.699	4855.84
412.912	4912.41
413.125	4756.83
413.338	4766.52
413.55	4722.73
413.763	4673.13
413.976	4707.62
414.189	4755.86
414.402	4802.75
414.615	4998.24
414.827	4860.29
415.04	4866.88
415.253	4845.76
415.466	5005.02
415.678	5014.71
415.891	4920.94
416.104	4904.66
416.316	4963.37
416.529	5046.1
416.742	5261.93
416.954	5261.93
417.167	5204.58
417.38	5101.12
417.592	5009.48
417.805	4876.38
418.017	4945.35
418.23	4937.6
418.442	4894.39
418.655	5002.12
418.868	4919.77
419.08	5020.52
419.293	5090.85
419.505	5198.38
419.718	5100.35
419.93	5186.37
420.142	5118.56
420.355	5084.85
420.567	4995.92
420.78	5091.24
420.992	5161.57
421.205	5308.63
421.417	5531.43
421.629	5571.15
421.842	5538.02
422.054	5555.07
422.266	5599.44
422.479	5555.85
422.691	5287.31
422.903	5251.08
423.115	5123.98
423.328	5083.3
423.54	5075.35
423.752	5216.98
423.964	5439.99
424.177	5441.92
424.389	5422.16
424.601	5506.83
424.813	5579.1
425.025	5594.21
425.238	5581.62
425.45	5546.35
425.662	5496.17
425.874	5745.33
426.086	5544.61
426.298	5568.25
426.51	5550.42
426.722	5552.36
426.934	5678.68
427.146	5636.06
427.358	5602.73
427.57	5555.07
427.782	5364.62
427.994	5334.01
428.206	5339.04
428.418	5739.52
428.63	5845.11
428.842	5865.46
429.054	5663.38
429.266	5520.39
429.478	5469.82
429.69	5391.94
429.902	5272.98
430.114	5268.13
430.325	4940.12
430.537	4696.19
430.749	4526.08
430.961	4255.42
431.173	4321.29
431.384	4425.53
431.596	4515.04
431.808	5136.19
432.02	5756.18
432.231	6327.35
432.443	6652.65
432.655	6452.32
432.867	6336.45
433.078	6322.89
433.29	6335.1
433.502	6472.85
433.713	6739.45
433.925	6897.35
434.136	6660.59
434.348	6197.34
434.56	6004.37
434.771	6188.04
434.983	6074.31
435.194	6494.55
435.406	6913.24
435.617	6901.62
435.829	7042.47
436.04	7047.89
436.252	6933.78
436.463	7266.25
436.675	7544.47
436.886	7639.02
437.098	7715.93
437.309	7701.99
437.521	7512.89
437.732	7334.45
437.943	7256.37
438.155	7247.26
438.366	7075.99
438.578	7190.69
438.789	6855.7
439	6755.92
439.211	6744.1
439.423	6844.07
439.634	7104.86
439.845	7382.5
440.057	7456.31
440.268	7778.52
440.479	7736.67
440.69	7676.02
440.902	7470.46
441.113	7447.4
441.324	7590.77
441.535	7890.89
441.746	8113.12
441.957	8109.63
442.168	8230.53
442.38	8324.69
442.591	8416.72
442.802	8220.45
443.013	8516.3
443.224	8616.47
443.435	8441.32
443.646	8427.96
443.857	8301.83
444.068	8468.26
444.279	8314.23
444.49	8779.99
444.701	8573.65
444.912	8885.01
445.123	8862.72
445.334	8572.1
445.545	8743.38
445.756	8504.87
445.967	8448.11
446.178	8235.37
446.388	8117.57
446.599	8186.93
446.81	8342.51
447.021	8269.47
447.232	8581.6
447.443	8810.03
447.653	8984.59
447.864	9227.16
448.075	9166.13
448.286	9027.41
448.496	8990.99
448.707	9122.54
448.918	8830.37
449.129	9008.81
449.339	9134.36
449.55	9190.16
449.761	9124.48
449.971	9026.63
450.182	9265.53
450.393	9364.72
450.603	9302.92
450.814	9690.03
451.024	9658.83
451.235	9958.17
451.446	9916.52
451.656	9948.87
451.867	9825.45
452.077	9489.88
452.288	9715.02
452.498	9533.87
452.709	9541.23
452.919	9221.74
453.13	9058.6
453.34	8939.25
453.55	8694.36
453.761	9018.89
453.971	8902.06
454.182	9182.99
454.392	9211.66
454.602	9634.23
454.813	9782.83
455.023	9493.57
455.233	9381.58
455.444	9568.55
455.654	9170.4
455.864	9400.18
456.075	9541.81
456.285	9500.73
456.495	9614.66
456.705	9705.53
456.916	9992.85
457.126	10049.04
457.336	9907.99
457.546	9775.66
457.756	9977.35
457.967	10040.9
458.177	9862.85
458.387	9900.63
458.597	9670.65
458.807	9915.93
459.017	9664.26
459.227	9689.83
459.437	9650.5
459.647	9906.83
459.857	9850.84
460.068	10052.33
460.278	10017.85
460.488	9891.91
460.698	10056.6
460.908	10116.08
461.117	10348.96
461.327	10439.25
461.537	10530.89
461.747	10522.75
461.957	10531.08
462.167	10680.27
462.377	10595.21
462.587	10561.5
462.797	10731.61
463.007	10602.19
463.216	10904.24
463.426	11186.14
463.636	10924.2
463.846	10590.37
464.056	10670
464.265	10556.46
464.475	10627.96
464.685	10878.47
464.895	10790.7
465.104	10449.13
465.314	10874.98
465.524	10711.65
465.733	10614.01
465.943	10994.91
466.153	11070.86
466.362	11201.84
466.572	11169.48
466.782	10975.15
466.991	11197.77
467.201	10966.24
467.41	10720.57
467.62	11035.79
467.829	11091.4
468.039	11254.34
468.249	11278.37
468.458	11506.21
468.668	11417.48
468.877	11592.24
469.086	11627.11
469.296	12008.4
469.505	12074.86
469.715	11894.68
469.924	11754.98
470.134	12033.2
470.343	11678.07
470.552	11758.28
470.762	11741.03
470.971	11810.01
471.18	11929.55
471.39	12170.38
471.599	11924.51
471.808	12160.11
472.018	12488.9
472.227	12683.81
472.436	13106.18
472.645	13205.57
472.855	13115.86
473.064	13463.25
473.273	13548.31
473.482	12958.15
473.691	13316.2
473.901	13145.7
474.11	13036.23
474.319	13414.82
474.528	13394.08
474.737	14046.82
474.946	13853.65
475.155	14114.24
475.364	14267.11
475.573	14047.98
475.783	14432.96
475.992	14273.7
476.201	14185.15
476.41	14481.78
476.619	14210.92
476.828	14340.15
477.037	14229.33
477.245	14293.65
477.454	14494.57
477.663	14887.29
477.872	15296.88
478.081	15621.4
478.29	15528.99
478.499	15644.65
478.708	16047.84
478.917	15902.53
479.125	15509.42
479.334	15607.45
479.543	16067.99
479.752	16183.85
479.961	16173.78
480.169	16565.15
480.378	16656.98
480.587	17052.42
480.796	16723.05
481.004	16774.59
481.213	16959.42
481.422	16954.38
481.63	17316.5
481.839	17438.56
482.048	17683.45
482.256	17592.97
482.465	18053.32
482.674	17892.12
482.882	17932.03
483.091	18110.86
483.299	17737.32
483.508	18222.65
483.716	18445.85
483.925	18499.13
484.134	17939.78
484.342	18402.64
484.551	18330.57
484.759	18084.71
484.967	18873.26
485.176	18648.32
485.384	18738.21
485.593	18465.03
485.801	18318.36
486.01	17751.85
486.218	16806.94
486.426	16164.48
486.635	15618.11
486.843	15643.3
487.051	16147.81
487.26	16474.08
487.468	17016.77
487.676	17503.66
487.885	18065.91
488.093	18415.24
488.301	19014.5
488.509	18970.91
488.717	19412.26
488.926	19511.27
489.134	19180.15
489.342	19180.93
489.55	19054.02
489.758	19431.25
489.967	19980.52
490.175	19796.46
490.383	20774.89
490.591	21125.96
490.799	20909.54
491.007	20779.54
491.215	20939.18
491.423	20716.57
491.631	20809.95
491.839	20561.57
492.047	20461.02
492.255	20032.64
492.463	20158.96
492.671	19651.35
492.879	20301.17
493.087	20506.35
493.295	20635.58
493.503	21033.15
493.711	21664.77
493.919	21374.15
494.127	21327.65
494.334	21173.04
494.542	21372.79
494.75	21939.5
494.958	21518.1
495.166	22251.82
495.374	22318.28
495.581	22546.32
495.789	22435.49
495.997	22429.29
496.205	21608
496.412	21970.69
496.62	22413.21
496.828	22273.52
497.035	22495.55
497.243	22583.71
497.451	22708.29
497.658	22634.47
497.866	22561.82
498.074	22840.04
498.281	22416.7
498.489	22468.43
498.696	22037.54
498.904	21839.91
499.112	21720.76
499.319	22204.55
499.527	22391.9
499.734	22699.96
499.942	22573.63
500.149	22646.87
500.357	22666.05
500.564	22271.39
500.771	22105.15
500.979	21809.11
501.186	21581.26
501.394	22084.23
501.601	21489.81
501.808	21539.61
502.016	21700.8
502.223	21426.65
502.43	21650.62
502.638	21665.93
502.845	22032.11
503.052	22406.82
503.26	22342.49
503.467	22559.3
503.674	22770.09
503.881	22719.91
504.089	22520.94
504.296	22324.67
504.503	22137.32
504.71	21942.99
504.917	22328.35
505.125	22402.94
505.332	22711.78
505.539	22643.38
505.746	23197.31
505.953	23487.54
506.16	23587.51
506.367	23683.03
506.574	24055.03
506.781	24029.26
506.988	23822.53
507.195	23628.98
507.402	23643.12
507.609	23520.67
507.816	23162.43
508.023	23183.16
508.23	22959.58
508.437	22629.24
508.644	22728.44
508.851	22941.75
509.058	23435.04
509.265	23354.44
509.472	23725.66
509.679	23839.97
509.885	23801.02
510.092	23787.07
510.299	23740.57
510.506	23267.44
510.713	23392.41
510.92	23312.59
511.126	23471.07
511.333	23683.23
511.54	23762.27
511.746	23844.62
511.953	24041.85
512.16	24296.24
512.367	24241.99
512.573	23959.9
512.78	23855.66
512.987	23670.05
513.193	23347.85
513.4	23150.03
513.606	23357.15
513.813	23353.27
514.02	23162.05
514.226	23101.6
514.433	23221.14
514.639	22941.75
514.846	23034.75
515.052	22949.7
515.259	23122.71
515.465	23183.55
515.672	23352.89
515.878	23431.55
516.085	23802.77
516.291	23592.16
516.497	23700.08
516.704	22867.94
516.91	22397.32
517.117	21549.87
517.323	20764.23
517.529	20467.02
517.736	20392.04
517.942	20629.77
518.148	21161.61
518.354	21442.34
518.561	21513.64
518.767	21296.07
518.973	21354.77
519.179	21738.58
519.386	22042.77
519.592	22097.79
519.798	22117.36
520.004	22998.14
520.21	23100.24
520.417	23246.91
520.623	23508.85
520.829	23519.9
521.035	23520.48
521.241	23362.96
521.447	23578.8
521.653	23963
521.859	23705.31
522.065	23913.98
522.271	24120.71
522.477	23941.3
522.683	24410.36
522.889	23775.64
523.095	23525.52
523.301	23570.85
523.507	23289.53
523.713	23389.31
523.919	23415.47
524.125	23963.19
524.331	24330.53
524.537	24689.74
524.742	24760.85
524.948	24786.03
525.154	24895.31
525.36	24778.28
525.566	24329.57
525.772	24633.17
525.977	24531.84
526.183	24348.94
526.389	24425.86
526.595	23816.14
526.8	23472.82
527.006	22724.56
527.212	22163.47
527.417	22077.25
527.623	22035.99
527.829	22443.82
528.034	22971.59
528.24	23069.24
528.446	23686.33
528.651	24089.51
528.857	24242.38
529.062	24350.3
529.268	24799.4
529.473	24991.6
529.679	25355.07
529.884	25259.55
530.09	24948.39
530.295	24499.09
530.501	24829.82
530.706	24970.09
530.912	24963.89
531.117	25096.42
531.323	25099.91
531.528	25442.64
531.733	25464.15
531.939	25368.63
532.144	25283.58
532.35	25126.45
532.555	25133.23
532.76	24508.39
532.966	24331.31
533.171	24020.35
533.376	23811.68
533.581	23791.53
533.787	24164.11
533.992	24559.54
534.197	24087.77
534.402	24756.39
534.607	24718.8
534.813	24594.61
535.018	24709.7
535.223	25015.43
535.428	24864.89
535.633	25080.14
535.838	25488.17
536.043	25657.32
536.249	25891.17
536.454	25610.04
536.659	25765.43
536.864	25582.14
537.069	25234.56
537.274	24960.6
537.479	24965.06
537.684	24818.97
537.889	24796.11
538.094	25423.85
538.299	25202.2
538.504	25518.01
538.708	25252.38
538.913	25672.04
539.118	25712.53
539.323	25468.41
539.528	25291.13
539.733	25010.59
539.938	25078.4
540.142	24868.96
540.347	24766.66
540.552	24599.65
540.757	24247.03
540.962	24481.66
541.166	24237.73
541.371	24146.09
541.576	24281.52
541.781	24497.74
541.985	24940.06
542.19	24623.48
542.395	25441.87
542.599	25334.34
542.804	24882.52
543.008	25235.92
543.213	25260.13
543.418	24856.75
543.622	25060.77
543.827	24778.09
544.031	25069.29
544.236	25272.92
544.44	25602.29
544.645	25608.88
544.849	25432.96
545.054	25630.19
545.258	25761.75
545.463	25628.25
545.667	25336.28
545.872	25755.35
546.076	25555.79
546.281	25568
546.485	25499.02
546.689	25508.91
546.894	25403.51
547.098	25656.93
547.302	25582.92
547.507	25410.48
547.711	25696.84
547.915	25415.52
548.119	25119.28
548.324	25053.02
548.528	25095.84
548.732	25165.2
548.936	25445.55
549.141	25293.46
549.345	25453.69
549.549	25591.64
549.753	25894.07
549.957	25665.65
550.161	25805.34
550.366	25761.94
550.57	25662.93
550.774	25538.94
550.978	25735.59
551.182	25490.89
551.386	25354.68
551.59	25403.89
551.794	25419.98
551.998	25579.62
552.202	25543.2
552.406	25609.07
552.61	25909.96
552.814	25736.75
553.018	25503.29
553.222	25258.97
553.426	25287.84
553.63	25546.3
553.833	25547.65
554.037	25335.11
554.241	25333.56
554.445	25662.55
554.649	25543
554.853	25380.06
555.056	25705.17
555.26	25849.51
555.464	25606.36
555.668	25701.3
555.871	25669.72
556.075	25765.23
556.279	25563.35
556.483	25441.48
556.686	25203.56
556.89	25305.28
557.094	25174.11
557.297	24839.7
557.501	24931.73
557.704	24640.72
557.908	24950.53
558.112	24886.78
558.315	25041.01
558.519	24950.33
558.722	24619.41
558.926	24699.04
559.129	24027.13
559.333	24249.74
559.536	24183.48
559.74	24071.88
559.943	23890.53
560.147	24154.42
560.35	24030.81
560.553	24368.7
560.757	24296.63
560.96	24399.7
561.164	24690.9
561.367	24918.56
561.57	24864.31
561.774	24604.69
561.977	24491.54
562.18	24320.85
562.384	24520.99
562.587	24338.87
562.79	24564
562.993	24343.32
563.197	24395.44
563.4	24671.14
563.603	24671.53
563.806	24700.79
564.009	24659.52
564.212	24671.92
564.416	24387.3
564.619	24379.17
564.822	24215.26
565.025	24483.4
565.228	24448.91
565.431	24691.87
565.634	24296.82
565.837	24131.56
566.04	23920.37
566.243	23850.04
566.446	23545.66
566.649	23926.77
566.852	23623.94
567.055	23926.96
567.258	23888.79
567.461	24119.74
567.664	24326.47
567.867	24348.75
568.07	23982.37
568.273	24280.35
568.475	24484.95
568.678	23800.64
568.881	23916.5
569.084	23554.38
569.287	23349.4
569.489	23611.93
569.692	23710.35
569.895	23747.55
570.098	23537.72
570.3	23580.93
570.503	23459.64
570.706	23447.63
570.909	23275.58
571.111	22946.02
571.314	22906.11
571.516	22930.32
571.719	23036.88
571.922	23054.52
572.124	23241.09
572.327	23382.14
572.529	23404.42
572.732	23682.06
572.935	23716.74
573.137	24207.51
573.34	23719.65
573.542	23993.41
573.745	23965.9
573.947	23933.16
574.15	23681.48
574.352	23817.1
574.554	24019.76
574.757	23744.84
574.959	23347.27
575.162	23700.08
575.364	23353.47
575.566	23509.43
575.769	23126.59
575.971	23258.53
576.173	22863.09
576.376	23025.65
576.578	23246.13
576.78	23176
576.982	23140.73
577.185	23232.96
577.387	23200.99
577.589	23526.48
577.791	23216.29
577.993	23352.31
578.196	23340.1
578.398	22875.69
578.6	22862.9
578.802	22842.75
579.004	22630.21
579.206	22779.78
579.408	23056.45
579.61	22831.51
579.812	23217.84
580.014	22822.79
580.216	23003.95
580.418	23242.26
580.62	23259.31
580.822	23235.48
581.024	23144.61
581.226	23283.14
581.428	23165.92
581.63	23544.11
581.832	23330.02
582.034	23470.3
582.236	23290.31
582.438	23570.27
582.64	23642.93
582.841	23595.65
583.043	23987.02
583.245	23615.99
583.447	23834.15
583.649	23760.14
583.85	23744.64
584.052	23655.91
584.254	23539.27
584.456	23588.29
584.657	23532.1
584.859	23742.12
585.061	23522.22
585.262	23398.61
585.464	23301.54
585.666	23421.47
585.867	22998.33
586.069	22872.97
586.27	22912.89
586.472	22887.89
586.674	22870.26
586.875	22788.89
587.077	22954.54
587.278	23012.08
587.48	22965.39
587.681	23137.44
587.883	23098.69
588.084	22801.48
588.285	22869.49
588.487	22513.77
588.688	22566.85
588.89	21847.08
589.091	21465.79
589.292	21063.96
589.494	20426.92
589.695	20146.76
589.896	19971.03
590.098	20113.24
590.299	20196.94
590.5	20453.85
590.702	20846.57
590.903	21097.47
591.104	21398.56
591.305	21810.85
591.507	21626.4
591.708	21753.5
591.909	21768.03
592.11	21627.57
592.311	21845.92
592.512	21562.08
592.714	21622.72
592.915	21837.78
593.116	21561.5
593.317	21955.58
593.518	21860.26
593.719	21953.64
593.92	21985.22
594.121	21927.1
594.322	21850.57
594.523	21781.6
594.724	21644.81
594.925	21713.59
595.126	21469.28
595.327	21460.56
595.528	21699.64
595.729	21580.87
595.929	21663.6
596.13	21728.32
596.331	21979.61
596.532	21821.7
596.733	22135.77
596.934	22119.49
597.135	22193.89
597.335	21988.32
597.536	22114.84
597.737	21970.11
597.938	21875.95
598.138	21888.35
598.339	21911.79
598.54	22001.69
598.74	21688.02
598.941	21668.84
599.142	21978.83
599.342	21884.28
599.543	21796.13
599.744	21843.98
599.944	21926.71
600.145	22015.45
600.345	21858.9
600.546	21870.53
600.746	21784.89
600.947	22143.32
601.147	21528.95
601.348	21948.03
601.548	21594.82
601.749	21531.27
601.949	21467.53
602.15	21640.16
602.35	21256.35
602.551	21387.13
602.751	21477.41
602.951	21612.26
603.152	21490.01
603.352	21654.69
603.552	21608.97
603.753	21867.23
603.953	22136.15
604.153	21902.69
604.354	21946.67
604.554	21932.91
604.754	22015.64
604.954	22008.86
605.155	22062.72
605.355	21960.81
605.555	22067.95
605.755	21957.32
605.955	21815.31
606.155	21867.43
606.356	21765.9
606.556	21755.05
606.756	21753.7
606.956	21773.85
607.156	21797.29
607.356	21660.31
607.556	21746.33
607.756	21736.26
607.956	21838.95
608.156	21774.62
608.356	21367.36
608.556	21629.12
608.756	21439.24
608.956	21464.63
609.156	21298.39
609.356	21283.28
609.556	21245.5
609.755	21269.72
609.955	21047.68
610.155	21128.47
610.355	21242.59
610.555	20884.55
610.755	20754.15
610.954	20810.15
611.154	20996.14
611.354	20959.72
611.554	20869.63
611.753	21140.87
611.953	20895.98
612.153	21041.48
612.352	20945.96
612.552	20647.98
612.752	20651.47
612.951	20867.88
613.151	20567.96
613.351	20748.73
613.55	20763.65
613.75	20654.37
613.949	20300.98
614.149	20498.41
614.348	20322.1
614.548	20365.11
614.747	20324.42
614.947	20486.78
615.146	20369.76
615.346	20604.97
615.545	20599.54
615.745	20418
615.944	20341.67
616.144	20389.72
616.343	19985.17
616.542	20156.44
616.742	19799.76
616.941	19815.64
617.14	19547.3
617.34	19825.52
617.539	19897.6
617.738	19912.13
617.938	20093.09
618.137	20018.69
618.336	20194.03
618.535	20222.32
618.734	20228.13
618.934	20114.21
619.133	20246.54
619.332	20422.85
619.531	20009.78
619.73	20375.19
619.929	20339.92
620.128	20301.37
620.328	20364.92
620.527	20323.07
620.726	20364.72
620.925	20326.36
621.124	20472.25
621.323	20174.27
621.522	20061.7
621.721	20397.47
621.92	20134.74
622.119	20082.05
622.318	19907.29
622.517	19910.39
622.715	19803.82
622.914	19785.61
623.113	19867.37
623.312	19425.44
623.511	19727.1
623.71	19556.99
623.909	19285.36
624.107	19663.75
624.306	19410.71
624.505	19411.68
624.704	19328.76
624.902	19161.36
625.101	19414.01
625.3	19034.26
625.499	19088.32
625.697	19095.48
625.896	18970.91
626.095	18831.41
626.293	18828.31
626.492	19041.62
626.69	18976.72
626.889	19228.98
627.088	19171.63
627.286	19204.18
627.485	18952.69
627.683	18918.79
627.882	18783.36
628.08	18564.04
628.279	18437.52
628.477	18457.67
628.676	18276.32
628.874	18479.17
629.073	18356.53
629.271	18396.44
629.469	18451.28
629.668	18517.15
629.866	18316.62
630.065	18447.01
630.263	18366.61
630.461	18210.25
630.66	18336.38
630.858	18275.16
631.056	18424.15
631.254	18546.99
631.453	18311.97
631.651	18328.83
631.849	18271.09
632.047	18083.35
632.245	18156.39
632.444	18275.35
632.642	18423.38
632.84	18550.67
633.038	18240.28
633.236	18177.51
633.434	18463.67
633.632	18447.01
633.83	18247.84
634.028	18532.84
634.227	18283.1
634.425	18544.66
634.623	18258.88
634.821	18497.97
635.019	18451.08
635.216	18541.95
635.414	18509.79
635.612	18391.79
635.81	18408.26
636.008	18535.36
636.206	18386.18
636.404	18271.87
636.602	18295.89
636.8	18114.54
636.997	18340.26
637.195	18326.7
637.393	18394.89
637.591	18431.71
637.789	18504.17
637.986	18441.78
638.184	18457.28
638.382	18629.72
638.58	18464.06
638.777	18597.75
638.975	18500.49
639.173	18549.12
639.37	18434.03
639.568	18462.71
639.765	18344.13
639.963	18267.99
640.161	18008.37
640.358	18342
640.556	17897.35
640.753	18056.03
640.951	17981.63
641.148	17975.04
641.346	18032.59
641.543	17831.87
641.741	17894.25
641.938	17859.18
642.136	17914.21
642.333	17762.31
642.531	17964.19
642.728	17873.13
642.925	18027.55
643.123	18004.69
643.32	17938.81
643.517	17789.63
643.715	17771.03
643.912	17932.23
644.109	17860.35
644.306	17844.65
644.504	17771.8
644.701	17903.55
644.898	17795.05
645.095	17757.66
645.293	17720.46
645.49	17621.84
645.687	17642.77
645.884	17648.19
646.081	17403.68
646.278	17311.46
646.475	17339.36
646.672	17226.21
646.87	17124.88
647.067	16977.63
647.264	17083.23
647.461	16949.15
647.658	16851.5
647.855	17036.53
648.052	16770.71
648.249	16608.35
648.446	16786.79
648.642	16916.8
648.839	16540.93
649.036	16725.57
649.233	16657.56
649.43	16572.51
649.627	16219.5
649.824	16368.49
650.021	16246.24
650.217	16396.97
650.414	16558.36
650.611	16508.38
650.808	16787.37
651.004	16807.91
651.201	16816.24
651.398	17076.25
651.595	16769.16
651.791	16559.33
651.988	16816.63
652.185	16310.56
652.381	16760.06
652.578	16510.12
652.775	16543.45
652.971	16801.32
653.168	16583.94
653.364	16894.71
653.561	16576.19
653.757	16830.58
653.954	16905.95
654.15	16508.38
654.347	16784.27
654.543	16735.06
654.74	16490.94
654.936	16388.45
655.133	16329.16
655.329	16344.86
655.525	16054.43
655.722	16030.79
655.918	15641.94
656.115	14994.82
656.311	14740.24
656.507	14294.82
656.704	14064.06
656.9	14173.34
657.096	14468.61
657.292	14390.53
657.489	14720.67
657.685	14913.64
657.881	15054.11
658.077	15317.41
658.273	15476.09
658.47	15668.68
658.666	15673.52
658.862	15981.77
659.058	16009.67
659.254	16027.69
659.45	16215.63
659.646	15981.77
659.842	16131.73
660.038	16272.01
660.234	16062.76
660.43	16160.21
660.626	16288.86
660.822	16254.38
661.018	16267.74
661.214	16253.02
661.41	16128.05
661.606	16326.45
661.802	16478.35
661.998	16312.89
662.194	16252.44
662.39	16344.08
662.586	16312.11
662.781	16303.39
662.977	16533.57
663.173	16232.09
663.369	16235.58
663.564	16249.92
663.76	16212.91
663.956	16211.56
664.152	16059.85
664.347	15962.2
664.543	16111.97
664.739	16074.97
664.934	15873.86
665.13	16006.38
665.326	15997.47
665.521	16113.71
665.717	15944.19
665.912	16144.71
666.108	15745.21
666.304	16049.2
666.499	15875.6
666.695	15641.75
666.89	15926.75
667.086	15897.88
667.281	15856.61
667.477	15949.8
667.672	15897.69
667.867	15749.28
668.063	15786.67
668.258	15566.77
668.454	15681.27
668.649	15669.45
668.844	15858.16
669.04	15800.04
669.235	15700.06
669.43	15808.37
669.626	15509.03
669.821	15622.18
670.016	15623.53
670.211	15704.33
670.407	15430.37
670.602	15703.94
670.797	15479.39
670.992	15653.95
671.187	15494.3
671.382	15551.85
671.578	15279.05
671.773	15390.65
671.968	15203.88
672.163	15408.28
672.358	15193.22
672.553	15185.86
672.748	15280.6
672.943	15308.11
673.138	15336.98
673.333	15374.76
673.528	15130.45
673.723	15256.19
673.918	15048.3
674.113	15181.6
674.308	15253.28
674.503	15123.86
674.698	15312.57
674.892	14931.47
675.087	15141.88
675.282	15128.9
675.477	15107.59
675.672	15204.46
675.867	14992.69
676.061	15012.84
676.256	14944.84
676.451	15113.2
676.646	15083.75
676.84	14876.06
677.035	14775.7
677.23	14945.81
677.424	14899.89
677.619	14825.1
677.814	15038.81
678.008	14791.2
678.203	14794.68
678.397	14732.88
678.592	14735.78
678.787	14915.39
678.981	14803.01
679.176	14764.46
679.37	14637.75
679.565	14655.77
679.759	14731.91
679.954	14619.92
680.148	14648.21
680.342	14764.07
680.537	14579.04
680.731	14520.53
680.926	14708.47
681.12	14483.53
681.314	14596.87
681.509	14515.11
681.703	14548.62
681.897	14391.3
682.092	14417.46
682.286	14584.27
682.48	14453.69
682.674	14395.56
682.869	14307.41
683.063	14474.23
683.257	14411.26
683.451	14216.35
683.645	14361.85
683.839	14173.34
684.034	14147.37
684.228	13995.48
684.422	13880.58
684.616	13977.26
684.81	14124.71
685.004	13829.05
685.198	14039.07
685.392	13909.65
685.586	14042.36
685.78	13881.94
685.974	13927.66
686.168	13841.45
686.362	13838.93
686.556	13207.7
686.75	12926.77
686.944	12343.01
687.138	11663.73
687.331	11248.53
687.525	10859.29
687.719	10706.42
687.913	10756.02
688.107	10934.27
688.301	10932.72
688.494	11125.11
688.688	11041.02
688.882	10937.37
689.076	11059.62
689.269	11039.28
689.463	11243.3
689.657	11212.1
689.85	11267.71
690.044	11423.48
690.238	11340.95
690.431	11371.95
690.625	11431.81
690.818	11671.67
691.012	11638.15
691.205	11876.46
691.399	11882.28
691.593	11831.32
691.786	11878.98
691.98	12014.8
692.173	12185.88
692.366	12078.35
692.56	12255.63
692.753	12094.62
692.947	12060.14
693.14	11948.73
693.333	12002.98
693.527	12003.95
693.72	11992.71
693.914	11867.16
694.107	11782.69
694.3	11831.32
694.493	11574.22
694.687	11896.03
694.88	11602.89
695.073	11849.34
695.266	11766.61
695.46	11691.63
695.653	11715.27
695.846	11740.45
696.039	11869.49
696.232	11754.6
696.425	12011.5
696.618	11957.84
696.812	12169.41
697.005	12200.8
697.198	12405.59
697.391	12229.28
697.584	12379.82
697.777	12357.15
697.97	12270.93
698.163	12248.07
698.356	12230.44
698.549	12244.58
698.742	12199.05
698.935	12029.91
699.127	12028.36
699.32	11876.27
699.513	11862.71
699.706	11731.73
699.899	11908.43
700.092	11750.91
700.285	11677.48
700.477	11567.24
700.67	11693.57
700.863	11549.61
701.056	11674.58
701.248	11600.95
701.441	11580.8
701.634	11519.97
701.826	11592.24
702.019	11396.94
702.212	11519.58
702.404	11409.73
702.597	11372.14
702.79	11374.46
702.982	11396.74
703.175	11498.66
703.367	11507.37
703.56	11478.31
703.752	11536.24
703.945	11531.21
704.137	11458.16
704.33	11506.79
704.522	11476.37
704.715	11511.06
704.907	11660.82
705.1	11724.37
705.292	11607.35
705.484	11563.56
705.677	11523.07
705.869	11630.6
706.061	11636.6
706.254	11599.4
706.446	11545.74
706.638	11531.4
706.831	11566.27
707.023	11497.88
707.215	11705.19
707.407	11612.97
707.599	11536.44
707.792	11620.33
707.984	11601.15
708.176	11559.88
708.368	11485.67
708.56	11527.52
708.752	11532.37
708.944	11378.53
709.136	11474.63
709.329	11421.74
709.521	11512.22
709.713	11432.2
709.905	11450.61
710.097	11558.14
710.289	11421.16
710.481	11429.49
710.672	11398.49
710.864	11415.34
711.056	11437.43
711.248	11355.28
711.44	11371.17
711.632	11333.58
711.824	11401.78
712.016	11241.17
712.207	11287.86
712.399	11237.48
712.591	11375.43
712.783	11320.99
712.975	11212.1
713.166	11188.66
713.358	11147.97
713.55	11124.72
713.741	11082.29
713.933	11194.47
714.125	11039.86
714.316	10997.63
714.508	11090.24
714.7	10909.28
714.891	10989.29
715.083	10920.71
715.274	10796.9
715.466	10938.34
715.657	10829.65
715.849	10667.29
716.04	10574.29
716.232	10540.77
716.423	10413.48
716.615	10210.04
716.806	9903.73
716.998	9659.99
717.189	9380.61
717.381	9226.97
717.572	8964.44
717.763	8748.22
717.955	8680.02
718.146	8503.52
718.337	8349.29
718.528	8169.3
718.72	7903.68
718.911	7878.1
719.102	7772.51
719.293	7776
719.485	7733.18
719.676	7602.4
719.867	7498.36
720.058	7540.01
720.249	7426.86
720.44	7544.27
720.632	7628.94
720.823	7686.68
721.014	8031.94
721.205	8229.75
721.396	8312.68
721.587	8509.52
721.778	8668.59
721.969	8786.78
722.16	8936.15
722.351	9026.83
722.542	9162.84
722.733	9113.43
722.924	9028.18
723.115	9109.56
723.305	8831.73
723.496	8870.28
723.687	8527.15
723.878	8537.62
724.069	8400.64
724.26	8383.2
724.45	8231.88
724.641	8132.49
724.832	8175.5
725.023	8019.34
725.213	8118.93
725.404	7976.72
725.595	7953.08
725.785	7904.26
725.976	8028.64
726.167	7963.93
726.357	7924.21
726.548	8126.29
726.739	7896.51
726.929	8141.02
727.12	8153.8
727.31	8052.67
727.501	7921.11
727.691	7869
727.882	7931.19
728.072	7911.81
728.263	7956.38
728.453	8022.06
728.644	8066.81
728.834	7881.59
729.024	7853.69
729.215	7829.86
729.405	7819.59
729.596	7936.61
729.786	7930.41
729.976	7996.67
730.167	7985.82
730.357	7885.08
730.547	7891.86
730.737	7929.64
730.928	7953.28
731.118	8041.82
731.308	7938.16
731.498	7975.75
731.688	8079.4
731.879	8084.25
732.069	8147.6
732.259	8266.37
732.449	8277.41
732.639	8341.74
732.829	8385.33
733.019	8455.86
733.209	8589.35
733.399	8590.9
733.589	8701.14
733.779	8717.03
733.969	8745.12
734.159	8934.02
734.349	8861.56
734.539	9029.35
734.729	8931.89
734.919	8936.74
735.109	9078.56
735.299	8866.21
735.488	8906.12
735.678	8901.47
735.868	8835.6
736.058	8791.81
736.248	8848.58
736.437	8763.72
736.627	8741.25
736.817	8882.49
737.007	8718.19
737.196	8800.53
737.386	8862.72
737.576	8718.77
737.765	8874.35
737.955	8685.06
738.144	8976.26
738.334	8795.69
738.524	8741.05
738.713	8819.52
738.903	8696.68
739.092	8708.89
739.282	8725.16
739.471	8762.56
739.661	8656.19
739.85	8752.68
740.04	8756.94
740.229	8765.85
740.419	8773.79
740.608	8775.34
740.797	8678.08
740.987	8796.27
741.176	8764.88
741.365	8679.05
741.555	8538.78
741.744	8762.56
741.933	8642.05
742.123	8646.31
742.312	8688.16
742.501	8717.8
742.69	8700.17
742.88	8605.62
743.069	8744.35
743.258	8747.25
743.447	8723.81
743.636	8710.05
743.825	8662
744.014	8740.28
744.204	8709.47
744.393	8604.65
744.582	8724.97
744.771	8697.46
744.96	8600.97
745.149	8680.21
745.338	8643.4
745.527	8752.1
745.716	8595.93
745.905	8599.23
746.094	8728.46
746.283	8645.92
746.471	8506.62
746.66	8629.65
746.849	8684.09
747.038	8590.7
747.227	8578.5
747.416	8605.62
747.604	8564.74
747.793	8479.3
747.982	8543.43
748.171	8614.15
748.359	8437.84
748.548	8573.65
748.737	8442.49
748.926	8474.46
749.114	8321.98
749.303	8390.18
749.491	8465.35
749.68	8325.27
749.869	8402.19
750.057	8340.77
750.246	8319.46
750.434	8338.44
750.623	8313.65
750.811	8224.91
751	8309.58
751.188	8250.1
751.377	8200.88
751.565	8197.2
751.754	8208.25
751.942	8162.52
752.131	8261.91
752.319	8127.07
752.507	8098.97
752.696	8185.77
752.884	8153.22
753.072	8032.13
753.261	8156.13
753.449	8090.06
753.637	7955.79
753.825	8175.12
754.014	8052.09
754.202	8016.24
754.39	8042.79
754.578	8060.42
754.766	7928.48
754.955	7947.85
755.143	8031.74
755.331	7973.04
755.519	7966.45
755.707	7980.4
755.895	7902.13
756.083	7850.98
756.271	7817.65
756.459	7838
756.647	7805.64
756.835	7784.91
757.023	7794.98
757.211	7723.68
757.399	7770.96
757.587	7686.68
757.775	7627.78
757.963	7634.37
758.151	7664.98
758.339	7532.84
758.526	7529.16
758.714	7563.26
758.902	7408.26
759.09	7252.3
759.278	6941.53
759.465	6452.12
759.653	5827.09
759.841	5318.12
760.028	4674.68
760.216	4087.63
760.404	3780.35
760.591	3319.42
760.779	2899.19
760.967	2594.03
761.154	2384.2
761.342	2368.9
761.529	2437.29
761.717	2535.52
761.905	2628.91
762.092	2750.58
762.28	2778.67
762.467	2846.49
762.655	2719.58
762.842	2766.47
763.029	2851.72
763.217	2897.05
763.404	2861.4
763.592	2958.28
763.779	2912.75
763.966	2997.03
764.154	3061.16
764.341	3142.14
764.528	3183.41
764.716	3332.6
764.903	3425.4
765.09	3551.53
765.277	3653.44
765.465	3909.19
765.652	4057.99
765.839	4162.61
766.026	4413.51
766.213	4519.88
766.4	4662.48
766.588	4917.84
766.775	5019.55
766.962	5158.47
767.149	5346.79
767.336	5552.36
767.523	5512.06
767.71	5706.58
767.897	5966.4
768.084	6036.73
768.271	6110.93
768.458	6120.81
768.645	6282.4
768.832	6303.52
769.019	6356.02
769.206	6394.77
769.392	6492.81
769.579	6577.09
769.766	6526.13
769.953	6542.41
770.14	6548.41
770.327	6550.16
770.513	6626.88
770.7	6686.75
770.887	6589.1
771.073	6603.24
771.26	6691.98
771.447	6627.27
771.634	6547.64
771.82	6696.05
772.007	6528.26
772.193	6687.33
772.38	6611.58
772.567	6575.93
772.753	6571.08
772.94	6672.22
773.126	6612.93
773.313	6674.16
773.499	6591.43
773.686	6623.59
773.872	6532.72
774.059	6629.21
774.245	6505.21
774.432	6507.92
774.618	6388.96
774.804	6493.58
774.991	6433.33
775.177	6483.51
775.363	6432.55
775.55	6506.56
775.736	6434.49
775.922	6499.59
776.109	6435.27
776.295	6427.9
776.481	6455.61
776.667	6447.86
776.853	6381.21
777.04	6304.29
777.226	6372.88
777.412	6457.55
777.598	6316.3
777.784	6315.53
777.97	6210.71
778.156	6293.83
778.342	6288.41
778.528	6255.66
778.715	6184.36
778.901	6182.43
779.087	6237.26
779.272	6220.79
779.458	6169.44
779.644	6174.29
779.83	6170.61
780.016	6198.7
780.202	6166.15
780.388	6173.13
780.574	6035.37
780.76	6050.87
780.946	6133.41
781.131	6133.8
781.317	6067.53
781.503	6020.84
781.689	5997.59
781.874	6169.64
782.06	5955.35
782.246	6044.09
782.432	6003.4
782.617	5987.13
782.803	6032.27
782.989	5963.68
783.174	5928.04
783.36	5891.42
783.545	5887.74
783.731	5871.07
783.916	5742.43
784.102	5891.61
784.288	5789.12
784.473	5847.82
784.659	5746.69
784.844	5835.42
785.029	5797.06
785.215	5758.51
785.4	5700.38
785.586	5860.61
785.771	5681.59
785.956	5731.19
786.142	5671.32
786.327	5707.36
786.512	5617.46
786.698	5622.88
786.883	5549.45
787.068	5658.34
787.254	5638.58
787.439	5549.07
787.624	5592.66
787.809	5595.37
787.994	5540.54
788.18	5581.42
788.365	5473.89
788.55	5496.95
788.735	5509.35
788.92	5454.13
789.105	5474.09
789.29	5445.99
789.475	5451.03
789.66	5395.81
789.845	5391.74
790.03	5356.48
790.215	5415.38
790.4	5410.73
790.585	5378.57
790.77	5405.89
790.955	5329.36
791.14	5322.77
791.325	5421.58
791.51	5187.73
791.695	5306.88
791.879	5320.83
792.064	5175.33
792.249	5384.19
792.434	5275.88
792.618	5266.97
792.803	5375.27
792.988	5235
793.173	5307.46
793.357	5327.03
793.542	5235
793.727	5288.09
793.911	5346.6
794.096	5278.01
794.281	5343.69
794.465	5391.16
794.65	5286.93
794.834	5342.92
795.019	5398.91
795.203	5335.36
795.388	5366.17
795.572	5425.07
795.757	5353.57
795.941	5413.25
796.126	5383.8
796.31	5306.11
796.494	5359.39
796.679	5364.62
796.863	5247.79
797.048	5415.77
797.232	5349.51
797.416	5353.77
797.601	5417.9
797.785	5443.09
797.969	5473.89
798.153	5364.42
798.338	5423.13
798.522	5479.9
798.706	5491.14
798.89	5476.02
799.074	5543.06
799.258	5501.21
799.443	5445.41
799.627	5383.22
799.811	5450.06
799.995	5398.72
800.179	5354.16
800.363	5386.32
800.547	5411.31
800.731	5471.18
800.915	5319.28
801.099	5358.81
801.283	5329.94
801.467	5370.04
801.651	5340.21
801.835	5378.57
802.019	5358.61
802.202	5430.3
802.386	5316.18
802.57	5306.49
802.754	5353.57
802.938	5275.11
803.121	5285.38
803.305	5364.81
803.489	5295.06
803.673	5378.18
803.856	5333.43
804.04	5328.58
804.224	5348.93
804.407	5302.62
804.591	5311.53
804.775	5325.68
804.958	5296.61
805.142	5430.11
805.326	5306.49
805.509	5310.18
805.693	5396.97
805.876	5367.72
806.06	5344.08
806.243	5384.77
806.427	5396.97
806.61	5427.78
806.794	5350.86
806.977	5361.32
807.16	5359.19
807.344	5355.9
807.527	5366.17
807.71	5323.54
807.894	5290.41
808.077	5308.82
808.26	5270.84
808.444	5237.52
808.627	5386.51
808.81	5193.93
808.993	5136.77
809.177	5143.55
809.36	5206.91
809.543	5190.05
809.726	5105
809.909	5083.88
810.092	5037.96
810.276	5020.52
810.459	4977.12
810.642	5018.78
810.825	4910.48
811.008	5016.45
811.191	4850.22
811.374	4920.74
811.557	4854.68
811.74	4901.37
811.923	4811.47
812.106	4780.47
812.289	4774.27
812.472	4739.59
812.654	4709.37
812.837	4710.92
813.02	4594.86
813.203	4521.62
813.386	4389.3
813.569	4357.13
813.751	4235.07
813.934	4297.07
814.117	4266.07
814.3	4158.93
814.482	4077.75
814.665	4007.61
814.848	3949.68
815.03	3845.25
815.213	3863.66
815.396	3835.57
815.578	3801.08
815.761	3751.67
815.943	3774.54
816.126	3631.36
816.309	3645.89
816.491	3482.17
816.674	3436.06
816.856	3471.32
817.039	3473.26
817.221	3575.94
817.403	3504.06
817.586	3526.34
817.768	3534.09
817.951	3398.28
818.133	3430.44
818.315	3446.91
818.498	3504.45
818.68	3557.93
818.862	3520.73
819.045	3605.2
819.227	3540.68
819.409	3515.88
819.591	3502.51
819.774	3510.26
819.956	3491.86
820.138	3657.51
820.32	3589.31
820.502	3682.89
820.684	3772.6
820.866	3792.17
821.048	3902.02
821.231	3838.08
821.413	3869.66
821.595	3853.97
821.777	3833.43
821.959	3874.9
822.141	3897.18
822.323	3743.54
822.505	3630
822.686	3492.44
822.868	3353.13
823.05	3171.59
823.232	3082.66
823.414	3033.45
823.596	3151.83
823.778	3086.54
823.96	3177.02
824.141	3190.97
824.323	3212.67
824.505	3350.23
824.687	3390.14
824.868	3513.17
825.05	3639.11
825.232	3716.41
825.413	3772.6
825.595	3729.59
825.777	3679.21
825.958	3702.27
826.14	3697.23
826.321	3724.55
826.503	3754.77
826.685	3771.63
826.866	3777.44
827.048	3755.55
827.229	3656.93
827.411	3560.64
827.592	3542.04
827.773	3488.95
827.955	3479.46
828.136	3464.93
828.318	3387.62
828.499	3406.42
828.68	3357.98
828.862	3384.13
829.043	3408.93
829.224	3383.17
829.406	3343.06
829.587	3301.99
829.768	3373.09
829.949	3364.76
830.131	3377.93
830.312	3445.55
830.493	3383.75
830.674	3408.74
830.855	3335.7
831.036	3345.58
831.218	3450.59
831.399	3465.12
831.58	3396.73
831.761	3362.43
831.942	3393.82
832.123	3378.13
832.304	3304.7
832.485	3286.87
832.666	3347.52
832.847	3356.82
833.028	3417.46
833.209	3317.29
833.389	3355.65
833.57	3230.49
833.751	3273.12
833.932	3295.59
834.113	3290.17
834.294	3272.73
834.475	3349.84
834.655	3424.05
834.836	3434.51
835.017	3389.56
835.198	3371.54
835.378	3385.1
835.559	3432.76
835.74	3359.33
835.92	3384.33
836.101	3354.49
836.281	3423.85
836.462	3380.07
836.643	3419.59
836.823	3409.71
837.004	3455.63
837.184	3450.2
837.365	3452.14
837.545	3449.62
837.726	3395.18
837.906	3481.2
838.087	3417.27
838.267	3398.28
838.448	3419.2
838.628	3367.47
838.808	3403.51
838.989	3467.45
839.169	3365.92
839.349	3437.22
839.53	3418.23
839.71	3455.43
839.89	3352.17
840.07	3461.44
840.251	3371.73
840.431	3468.41
840.611	3373.09
840.791	3360.11
840.971	3421.53
841.151	3389.75
841.332	3344.61
841.512	3414.36
841.692	3301.79
841.872	3361.08
842.052	3346.55
842.232	3378.52
842.412	3303.34
842.592	3258.59
842.772	3381.03
842.952	3360.88
843.132	3288.23
843.312	3304.5
843.492	3328.53
843.672	3353.33
843.851	3274.09
844.031	3240.76
844.211	3243.67
844.391	3230.11
844.571	3290.17
844.751	3231.66
844.93	3262.27
845.11	3221.19
845.29	3256.07
845.47	3245.8
845.649	3237.47
845.829	3257.04
846.009	3219.64
846.188	3238.24
846.368	3283.19
846.547	3221.97
846.727	3265.17
846.907	3166.36
847.086	3207.44
847.266	3233.4
847.445	3229.14
847.625	3141.37
847.804	3172.56
847.984	3157.84
848.163	3128.19
848.343	3109.01
848.522	3169.07
848.701	3112.69
848.881	3125.09
849.06	3165.78
849.239	3101.46
849.419	3122.58
849.598	2996.06
849.777	3007.1
849.957	2908.68
850.136	2879.04
850.315	2870.7
850.494	2849.2
850.674	2893.18
850.853	2939.68
851.032	2871.09
851.211	2989.86
851.39	2953.82
851.569	2880.39
851.748	2833.31
851.927	2961.18
852.107	2961.96
852.286	2931.35
852.465	2870.51
852.644	2942.2
852.823	2945.49
853.002	2875.74
853.181	2899.19
853.359	2920.3
853.538	2794.56
853.717	2857.14
853.896	2769.37
854.075	2637.24
854.254	2574.85
854.433	2466.16
854.611	2486.31
854.79	2417.53
854.969	2500.65
855.148	2518.47
855.327	2503.75
855.505	2552.38
855.684	2549.67
855.863	2601.2
856.041	2606.82
856.22	2705.83
856.399	2675.6
856.577	2792.24
856.756	2766.47
856.934	2865.67
857.113	2881.75
857.291	2801.92
857.47	2754.84
857.648	2805.22
857.827	2759.11
858.005	2799.99
858.184	2708.34
858.362	2842.42
858.541	2723.46
858.719	2777.9
858.898	2720.94
859.076	2706.6
859.254	2775.77
859.433	2725.01
859.611	2743.22
859.789	2703.69
859.967	2725.01
860.146	2764.34
860.324	2660.88
860.502	2662.23
860.68	2613.8
860.859	2665.72
861.037	2661.65
861.215	2641.7
861.393	2650.03
861.571	2669.59
861.749	2620.38
861.927	2645.57
862.105	2644.21
862.283	2591.51
862.461	2610.31
862.639	2570.01
862.817	2627.75
862.995	2575.43
863.173	2645.18
863.351	2594.03
863.529	2611.08
863.707	2606.63
863.885	2615.54
864.063	2523.51
864.241	2513.82
864.418	2639.95
864.596	2536.3
864.774	2464.61
864.952	2541.33
865.129	2537.27
865.307	2491.35
865.485	2459.57
865.663	2517.12
865.84	2383.62
866.018	2373.55
866.196	2210.8
866.373	2218.36
866.551	2139.89
866.728	2121.29
866.906	2162.95
867.084	2181.93
867.261	2279.97
867.439	2281.91
867.616	2306.9
867.794	2258.08
867.971	2308.64
868.149	2340.61
868.326	2396.6
868.503	2391.57
868.681	2351.66
868.858	2333.64
869.035	2307.67
869.213	2382.65
869.39	2343.52
869.567	2383.04
869.745	2340.42
869.922	2334.99
870.099	2368.12
870.276	2363.09
870.454	2381.11
870.631	2358.63
870.808	2337.71
870.985	2320.46
871.162	2409.2
871.339	2337.71
871.517	2319.3
871.694	2258.08
871.871	2302.83
872.048	2235.79
872.225	2292.95
872.402	2288.11
872.579	2231.34
872.756	2310
872.933	2257.69
873.11	2260.59
873.287	2279
873.463	2206.54
873.64	2227.66
873.817	2267.18
873.994	2210.8
874.171	2180.19
874.348	2251.29
874.524	2145.7
874.701	2177.09
874.878	2102.69
875.055	2179.03
875.231	2171.08
875.408	2158.68
875.585	2109.08
875.762	2144.73
875.938	2103.85
876.115	2084.28
876.291	2121.48
876.468	2094.94
876.645	2095.13
876.821	2105.79
876.998	2098.43
877.174	2078.86
877.351	2088.93
877.527	2052.12
877.704	2070.53
877.88	2083.9
878.057	2086.42
878.233	2111.41
878.409	2048.25
878.586	2071.88
878.762	2069.37
878.938	2027.32
879.115	2030.23
879.291	2044.95
879.467	1977.14
879.644	2029.65
879.82	2039.53
879.996	1992.84
880.172	1949.44
880.349	2019.19
880.525	1992.45
880.701	1959.7
880.877	1991.67
881.053	2003.3
881.229	1936.46
881.405	1980.24
881.581	1935.29
881.757	1934.32
881.933	1988.38
882.109	1993.8
882.285	1985.86
882.461	1913.59
882.637	1955.05
882.813	1912.24
882.989	1923.67
883.165	1985.86
883.341	1974.04
883.517	2010.47
883.693	1968.81
883.869	1982.57
884.044	1913.79
884.22	1976.75
884.396	2011.05
884.572	1995.74
884.747	1999.42
884.923	1981.21
885.099	1997.1
885.275	1996.13
885.45	1955.44
885.626	1963.58
885.801	1936.65
885.977	1925.02
886.153	1883.56
886.328	1965.32
886.504	1901.77
886.679	1925.8
886.855	1919.6
887.03	1906.23
887.206	2018.22
887.381	1925.02
887.557	1979.27
887.732	2006.79
887.908	1951.18
888.083	1943.04
888.258	1926.38
888.434	1909.33
888.609	1949.63
888.784	1993.61
888.96	1937.23
889.135	1902.36
889.31	1917.08
889.485	1970.17
889.661	1950.79
889.836	1967.45
890.011	1960.09
890.186	1930.45
890.361	1940.52
890.537	1947.89
890.712	1981.21
890.887	1952.34
891.062	1925.61
891.237	1985.86
891.412	1941.49
891.587	1923.28
891.762	1964.74
891.937	2015.89
892.112	1905.84
892.287	1926.96
892.462	1884.72
892.637	1832.99
892.812	1817.69
892.987	1825.44
893.161	1814.01
893.336	1809.55
893.511	1823.5
893.686	1782.81
893.861	1810.71
894.035	1822.92
894.21	1830.67
894.385	1762.47
894.56	1769.25
894.734	1727.21
894.909	1684.97
895.084	1691.36
895.258	1623.17
895.433	1645.64
895.608	1638.08
895.782	1571.63
895.957	1589.07
896.131	1591.2
896.306	1496.65
896.48	1463.13
896.655	1443.76
896.829	1389.12
897.004	1410.04
897.178	1423.99
897.353	1366.26
897.527	1437.75
897.701	1403.46
897.876	1365.68
898.05	1490.45
898.224	1424.57
898.399	1476.11
898.573	1386.02
898.747	1234.51
898.921	1271.71
899.096	1137.83
899.27	1176.19
899.444	1192.47
899.618	1211.26
899.792	1269.38
899.967	1279.46
900.141	1281.2
900.315	1222.11
900.489	1209.13
900.663	1241.68
900.837	1205.45
901.011	1185.68
901.185	1306.97
901.359	1231.22
901.533	1253.5
901.707	1270.74
901.881	1247.68
902.055	1195.18
902.229	1234.9
902.403	1275.78
902.576	1273.45
902.75	1252.91
902.924	1368.39
903.098	1336.23
903.272	1416.83
903.446	1444.72
903.619	1450.15
903.793	1493.55
903.967	1467.2
904.14	1515.05
904.314	1505.17
904.488	1479.79
904.661	1504.98
904.835	1481.54
905.009	1527.65
905.182	1545.47
905.356	1503.82
905.529	1493.94
905.703	1455.19
905.876	1443.17
906.05	1399
906.223	1357.15
906.397	1304.65
906.57	1280.04
906.744	1232.18
906.917	1233.73
907.09	1249.23
907.264	1195.37
907.437	1188.4
907.61	1159.72
907.784	1174.83
907.957	1204.09
908.13	1121.75
908.304	1126.59
908.477	1104.31
908.65	1127.95
908.823	1060.33
908.996	1158.37
909.17	1082.42
909.343	1102.37
909.516	1106.25
909.689	1099.85
909.862	1070.6
910.035	1084.55
910.208	1044.83
910.381	1027.97
910.554	1166.5
910.727	1084.16
910.9	1089.78
911.073	1078.35
911.246	1134.15
911.419	1153.52
911.592	1142.67
911.765	1114.97
911.938	1087.26
912.11	1081.64
912.283	1104.5
912.456	1162.82
912.629	1099.27
912.802	1029.72
912.974	989.81
913.147	951.83
913.32	856.9
913.493	898.16
913.665	955.51
913.838	955.9
914.01	960.16
914.183	1012.09
914.356	985.54
914.528	1037.08
914.701	1092.88
914.873	1023.52
915.046	974.11
915.218	916.96
915.391	860.58
915.563	821.63
915.736	905.91
915.908	934.39
916.081	943.89
916.253	982.64
916.425	978.57
916.598	1012.09
916.77	977.79
916.942	940.21
917.115	840.43
917.287	874.72
917.459	881.7
917.632	832.48
917.804	773.39
917.976	886.93
918.148	927.03
918.32	926.26
918.493	973.14
918.665	977.99
918.837	964.62
919.009	1018.67
919.181	1019.26
919.353	969.27
919.525	963.84
919.697	993.68
919.869	980.51
920.041	1055.1
920.213	1101.6
920.385	1063.24
920.557	1028.94
920.729	1026.81
920.901	991.94
921.073	953.58
921.244	955.51
921.416	999.11
921.588	967.72
921.76	945.63
921.932	1034.95
922.103	971.98
922.275	973.14
922.447	991.74
922.619	921.03
922.79	952.22
922.962	914.24
923.134	977.21
923.305	873.17
923.477	910.95
923.648	870.65
923.82	904.56
923.991	831.32
924.163	820.86
924.335	875.5
924.506	838.88
924.677	906.69
924.849	829
925.02	820.66
925.192	892.93
925.363	852.63
925.535	860.77
925.706	847.6
925.877	911.73
926.049	815.63
926.22	877.82
926.391	860
926.562	884.99
926.734	862.9
926.905	856.31
927.076	787.34
927.247	808.07
927.419	752.47
927.59	750.53
927.761	736.38
927.932	691.82
928.103	705.19
928.274	645.32
928.445	638.74
928.616	656.75
928.787	643.97
928.958	645.32
929.129	631.18
929.3	608.51
929.471	550.97
929.642	513.58
929.813	446.54
929.984	512.61
930.155	451.58
930.326	464.94
930.496	480.25
930.667	379.11
930.838	438.98
931.009	384.93
931.18	373.5
931.35	365.75
931.521	378.15
931.692	326.42
931.863	265.77
932.033	326.61
932.204	291.35
932.374	286.7
932.545	263.64
932.716	303.36
932.886	269.65
933.057	197.38
933.227	194.28
933.398	274.49
933.568	208.04
933.739	144.1
933.909	166.19
934.08	190.02
934.25	124.53
934.421	127.05
934.591	189.05
934.761	177.81
934.932	153.21
935.102	179.75
935.272	140.42
935.443	161.73
935.613	153.79
935.783	174.71
935.953	125.31
936.123	283.21
936.294	147.78
936.464	158.44
936.634	147.97
936.804	121.24
936.974	112.13
937.144	151.66
937.314	159.41
937.484	156.69
937.655	134.61
937.825	206.68
937.995	110.97
938.165	197.57
938.334	195.44
938.504	207.84
938.674	226.83
938.844	219.66
939.014	298.13
939.184	304.13
939.354	344.82
939.524	330.68
939.694	297.55
939.863	283.99
940.033	334.17
940.203	339.2
940.373	309.17
940.542	289.22
940.712	247.75
940.882	293.87
941.051	308.98
941.221	306.85
941.391	304.91
941.56	256.47
941.73	243.3
941.899	359.35
942.069	260.35
942.238	287.86
942.408	231.87
942.577	260.54
942.747	231.29
942.916	190.79
943.086	196.8
943.255	256.86
943.425	256.86
943.594	204.94
943.763	142.55
943.933	157.08
944.102	136.35
944.271	178.97
944.441	228.96
944.61	203.97
944.779	220.05
944.948	303.17
945.117	178.78
945.287	176.46
945.456	134.8
945.625	168.32
945.794	192.54
945.963	144.49
946.132	206.1
946.301	179.56
946.47	229.74
946.639	134.8
946.808	212.49
946.977	212.69
947.146	227.99
947.315	191.76
947.484	223.15
947.653	185.76
947.822	168.12
947.991	179.36
948.16	252.79
948.329	240
948.498	221.6
948.666	224.89
948.835	242.91
949.004	178.78
949.173	145.46
949.341	189.05
949.51	206.68
949.679	218.11
949.847	199.32
950.016	276.82
950.185	263.84
950.353	190.6
950.522	218.11
950.69	273.52
950.859	219.08
951.028	268.29
951.196	221.21
951.365	161.92
951.533	190.99
951.701	232.84
951.87	196.41
952.038	162.12
952.207	173.16
952.375	237.87
952.543	196.22
952.712	200.48
952.88	177.04
953.048	269.65
953.217	237.1
953.385	198.93
953.553	233.42
953.721	175.49
953.89	205.71
954.058	153.98
954.226	171.42
954.394	218.89
954.562	145.07
954.73	191.96
954.898	170.45
955.067	226.83
955.235	175.29
955.403	227.41
955.571	252.99
955.739	214.04
955.907	192.54
956.075	169.67
956.243	172
956.41	202.8
956.578	149.14
956.746	141.58
956.914	202.03
957.082	224.89
957.25	212.88
957.418	178.97
957.585	217.53
957.753	269.26
957.921	167.54
958.089	182.85
958.256	219.66
958.424	228.57
958.592	204.16
958.759	171.61
958.927	211.91
959.095	145.65
959.262	193.89
959.43	203.39
959.597	142.55
959.765	169.29
959.932	173.74
960.1	237.68
960.267	184.01
960.435	214.04
960.602	241.36
960.77	179.17
960.937	175.49
961.104	197.77
961.272	145.65
961.439	170.64
961.606	226.44
961.774	219.47
961.941	181.69
962.108	229.93
962.275	225.86
962.443	240.2
962.61	222.37
962.777	273.91
962.944	244.27
963.111	236.32
963.278	235.94
963.446	228.77
963.613	240.78
963.78	224.12
963.947	246.79
964.114	230.51
964.281	289.6
964.448	239.62
964.615	195.44
964.782	217.92
964.949	277.59
965.116	230.7
965.282	279.72
965.449	222.18
965.616	196.22
965.783	228.57
965.95	217.14
966.117	187.5
966.283	185.76
966.45	209.59
966.617	233.42
966.784	260.35
966.95	264.22
967.117	261.9
967.284	218.3
967.45	229.15
967.617	269.45
967.784	264.42
967.95	291.73
968.117	263.64
968.283	277.98
968.45	347.53
968.616	265.77
968.783	293.67
968.949	279.14
969.116	302.58
969.282	271.2
969.449	287.47
969.615	265.77
969.781	236.9
969.948	264.03
970.114	234.97
970.28	306.27
970.447	248.53
970.613	306.46
970.779	265.97
970.945	285.73
971.112	266.74
971.278	252.79
971.444	235.94
971.61	293.48
971.776	244.46
971.942	270.42
972.108	258.8
972.275	233.8
972.441	278.37
972.607	290.38
972.773	207.26
972.939	279.34
973.105	240.78
973.271	185.17
973.437	215.59
973.602	234.97
973.768	250.47
973.934	240.2
974.1	275.07
974.266	186.92
974.432	216.56
974.598	201.45
974.763	263.64
974.929	213.07
975.095	299.68
975.261	181.69
975.426	177.23
975.592	192.15
975.758	230.7
975.923	177.23
976.089	191.57
976.255	226.83
976.42	243.49
976.586	239.62
976.751	237.1
976.917	304.52
977.082	264.8
977.248	194.86
977.413	167.16
977.579	211.72
977.744	208.23
977.91	163.09
978.075	223.92
978.24	225.47
978.406	234.77
978.571	207.65
978.736	191.57
978.902	239.62
979.067	177.62
979.232	167.93
979.397	213.27
979.563	218.89
979.728	164.83
979.893	195.64
980.058	183.24
980.223	242.91
980.388	209.78
980.554	219.85
980.719	206.87
980.884	227.02
981.049	224.5
981.214	186.72
981.379	209.39
981.544	166.77
981.709	205.13
981.874	185.37
982.039	187.89
982.204	238.65
982.368	214.43
982.533	198.54
982.698	226.44
982.863	216.56
983.028	228.19
983.193	230.32
983.357	206.1
983.522	214.82
983.687	197.19
983.852	202.42
984.016	206.68
984.181	215.59
984.346	226.25
984.51	227.99
984.675	194.09
984.839	214.24
985.004	221.79
985.168	230.51
985.333	232.25
985.498	179.36
985.662	234.97
985.827	220.63
985.991	183.24
986.155	168.32
986.32	222.57
986.484	262.09
986.649	201.64
986.813	131.7
986.977	207.26
987.142	214.43
987.306	164.83
987.47	150.88
987.634	188.66
987.799	207.45
987.963	213.65
988.127	232.84
988.291	262.48
988.455	185.56
988.62	198.74
988.784	195.64
988.948	219.47
989.112	165.99
989.276	197.77
989.44	204.16
989.604	165.8
989.768	174.71
989.932	261.51
990.096	163.28
990.26	180.91
990.424	158.24
990.588	187.69
990.752	248.72
990.915	188.08
991.079	166.38
991.243	166.77
991.407	209.97
991.571	186.34
991.734	212.69
991.898	208.04
992.062	253.95
992.226	196.02
992.389	158.24
992.553	150.49
992.717	160.18
992.88	175.29
993.044	183.82
993.207	171.81
993.371	182.66
993.535	183.62
993.698	175.68
993.862	189.05
994.025	213.65
994.189	180.52
994.352	195.64
994.515	170.84
994.679	191.76
994.842	183.43
995.006	196.6
995.169	141.97
995.332	124.14
995.496	193.31
995.659	109.03
995.822	148.36
995.985	148.56
996.149	213.07
996.312	178.78
996.475	212.69
996.638	167.74
996.801	220.44
996.964	216.17
997.128	159.79
997.291	190.21
997.454	168.32
997.617	121.43
997.78	195.06
997.943	152.62
998.106	174.52
998.269	101.48
998.432	155.53
998.595	132.28
998.758	96.63
998.92	128.6
999.083	102.83
999.246	120.85
999.409	121.04
999.572	87.33
999.735	123.37
999.897	132.67
1000.06	121.82
1000.223	146.04
1000.386	161.73
1000.548	165.41
1000.711	138.48
1000.874	138.29
1001.036	83.84
1001.199	154.95
1001.361	107.87
1001.524	146.23
1001.687	144.87
1001.849	86.17
1002.012	157.86
1002.174	145.65
1002.337	159.79
1002.499	105.93
1002.661	163.09
1002.824	100.89
1002.986	137.32
1003.149	135.96
1003.311	102.06
1003.473	183.24
1003.636	75.13
1003.798	122.98
1003.96	145.65
1004.123	113.29
1004.285	119.88
1004.447	118.72
1004.609	91.98
1004.771	147.78
1004.933	75.71
1005.096	97.6
1005.258	47.61
1005.42	94.11
1005.582	142.94
1005.744	91.01
1005.906	67.38
1006.068	109.61
1006.23	68.54
1006.392	43.35
1006.554	100.7
1006.716	144.87
1006.878	89.46
1007.04	75.71
1007.202	85.98
1007.363	107.29
1007.525	130.54
1007.687	134.99
1007.849	171.61
1008.011	66.41
1008.172	49.55
1008.334	83.26
1008.496	106.13
1008.658	50.13
1008.819	77.26
1008.981	65.24
1009.143	53.43
1009.304	72.03
1009.466	129.76
1009.627	135.96
1009.789	209.59
1009.95	102.25
1010.112	76.29
1010.273	96.83
1010.435	71.64
1010.596	68.34
1010.758	80.94
1010.919	59.24
1011.081	47.42
1011.242	69.51
1011.403	94.5
1011.565	74.16
1011.726	96.24
1011.887	40.64
1012.049	81.91
1012.21	121.43
1012.371	148.17
1012.532	10.61
1012.693	82.68
1012.855	58.66
1013.016	57.11
1013.177	98.76
1013.338	81.71
1013.499	131.7
1013.66	117.75
1013.821	130.15
1013.982	106.13
1014.143	86.56
1014.304	60.79
1014.465	89.08
1014.626	112.32
1014.787	83.46
1014.948	165.02
1015.109	12.35
1015.27	114.26
1015.431	48.78
1015.592	35.6
1015.752	104.19
1015.913	93.14
1016.074	91.01
1016.235	98.38
1016.395	74.74
1016.556	69.31
1016.717	63.69
1016.877	112.13
1017.038	66.79
1017.199	93.73
1017.359	49.55
1017.52	87.91
1017.681	44.71
1017.841	57.69
1018.002	60.01
1018.162	33.08
1018.323	104.38
1018.483	66.99
1018.644	48.39
1018.804	23.39
1018.964	34.44
1019.125	73.19
1019.285	59.63
1019.446	16.42
1019.606	17.39
1019.766	38.31
1019.926	86.94
1020.087	52.65
1020.247	44.32
1020.407	107.48
1020.567	113.29
1020.728	37.73
1020.888	50.52
1021.048	36.57
1021.208	32.69
1021.368	43.35
1021.528	89.46
1021.688	113.1
1021.848	85.01
1022.008	57.69
1022.168	41.99
1022.328	61.56
1022.488	96.83
1022.648	34.83
1022.808	65.63
1022.968	79.58
1023.128	18.94
1023.288	43.74
1023.448	58.85
1023.608	66.6
1023.767	73.77
1023.927	26.69
1024.087	18.75
1024.247	18.55
1024.406	48.39
1024.566	0.73
1024.726	11.19
1024.885	52.07
1025.045	79.58
1025.205	28.04
1025.364	33.47
1025.524	68.93
1025.683	54.39
1025.843	72.22
1026.003	24.36
1026.162	102.44
1026.321	72.22
1026.481	62.14
1026.64	33.28
1026.8	74.93
1026.959	34.63
1027.119	35.99
1027.278	37.73
1027.437	18.94
1027.597	38.89
1027.756	57.88
1027.915	56.53
1028.074	57.49
1028.234	27.85
1028.393	55.94
1028.552	53.23
1028.711	-23.49
1028.87	68.93
1029.03	6.35
1029.189	63.89
1029.348	-2.37
1029.507	25.91
1029.666	36.76
1029.825	3.05
1029.984	5.57
1030.143	47.81
1030.302	49.16
1030.461	-12.45
1030.62	35.6
1030.779	55.36
1030.938	6.73
1031.097	4.02
1031.255	66.21
1031.414	63.11
1031.573	71.25
1031.732	-9.15
1031.891	40.83
1032.049	81.33
1032.208	57.49
1032.367	0.15
1032.525	11.96
1032.684	13.32
1032.843	52.65
1033.001	-40.93
1033.16	151.07
1033.319	53.43
1033.477	59.04
1033.636	40.83
1033.794	-27.95
1033.953	31.14
1034.111	57.88
1034.27	18.94
1034.428	44.71
1034.587	16.03
1034.745	39.48
1034.903	28.04
1035.062	46.64
1035.22	-18.45
1035.378	53.62
1035.537	8.86
1035.695	56.53
1035.853	37.93
1036.011	38.7
1036.17	49.55
1036.328	-25.04
1036.486	49.74
1036.644	17.58
1036.802	-50.42
1036.96	25.14
1037.119	27.27
1037.277	9.64
1037.435	-14
1037.593	26.3
1037.751	31.73
1037.909	82.49
1038.067	82.49
