Data from tests_FLMT105791__3__15-39-59-264.txt Node

Date: Mon Mar 20 15:39:59 GMT 2023
User: antho
Spectrometer: FLMT10579
Trigger mode: 0
Integration Time (sec): 1.000000E-1
Scans to average: 10
Electric dark correction enabled: true
Nonlinearity correction enabled: false
Boxcar width: 0
XAxis mode: Wavelengths
Number of Pixels in Spectrum: 3648
>>>>>Begin Spectral Data<<<<<
345.248	-150.69
345.464	-150.69
345.681	-150.69
345.898	-158.24
346.114	-162.12
346.331	-28.63
346.548	17.49
346.764	-7.9
346.981	10.32
347.197	6.44
347.414	-11.77
347.631	-19.33
347.847	56.82
348.064	22.72
348.28	6.64
348.497	-45.09
348.713	-7.7
348.93	26.59
349.146	145.36
349.363	265.68
349.579	254.63
349.796	245.53
350.012	225.57
350.229	295.9
350.445	288.93
350.661	281.76
350.878	293.38
351.094	317.79
351.311	288.54
351.527	325.16
351.743	288.54
351.96	308.3
352.176	334.07
352.392	345.5
352.609	342.59
352.825	274.01
353.041	310.82
353.257	306.17
353.474	342.01
353.69	366.04
353.906	365.65
354.122	353.25
354.339	439.66
354.555	417.57
354.771	399.36
354.987	471.44
355.203	474.73
355.42	407.31
355.636	411.37
355.852	416.41
356.068	408.27
356.284	412.34
356.5	466.79
356.716	418.54
356.932	371.27
357.148	399.17
357.364	374.95
357.58	420.87
357.796	427.65
358.012	405.76
358.228	372.24
358.444	300.16
358.66	439.66
358.876	373.21
359.092	338.72
359.308	375.53
359.524	449.15
359.74	461.55
359.956	494.3
360.172	532.66
360.388	586.33
360.604	547.38
360.819	633.8
361.035	528.01
361.251	502.63
361.467	469.5
361.683	559.98
361.898	528.4
362.114	549.32
362.33	551.84
362.546	592.72
362.762	578
362.977	621.78
363.193	617.33
363.409	664.8
363.624	603.57
363.84	615.97
364.056	614.81
364.271	678.16
364.487	703.74
364.703	659.76
364.918	662.47
365.134	653.75
365.35	670.41
365.565	825.8
365.781	753.53
365.996	800.81
366.212	899.42
366.427	868.62
366.643	893.42
366.858	869.2
367.074	843.62
367.289	920.35
367.505	974.21
367.72	841.88
367.936	868.62
368.151	924.61
368.367	888.57
368.582	871.33
368.798	825.02
369.013	896.13
369.228	870.94
369.444	869.59
369.659	927.13
369.874	915.31
370.09	987.58
370.305	927.9
370.52	951.15
370.736	987.58
370.951	925.39
371.166	971.5
371.381	969.17
371.597	962.97
371.812	934.49
372.027	962.39
372.242	986.61
372.458	989.52
372.673	869.78
372.888	907.56
373.103	875.2
373.318	962.2
373.533	892.84
373.749	874.43
373.964	758.76
374.179	818.44
374.394	744.81
374.609	860.87
374.824	796.93
375.039	854.86
375.254	781.82
375.469	913.76
375.684	889.54
375.899	1002.3
376.114	1011.22
376.329	1033.11
376.544	1011.99
376.759	1034.85
376.974	964.13
377.189	1002.5
377.404	1014.9
377.619	1126.88
377.834	1119.13
378.049	1162.34
378.264	1237.71
378.478	1343.49
378.693	1327.22
378.908	1332.64
379.123	1300.67
379.338	1241
379.553	1185.2
379.767	1136.18
379.982	1109.06
380.197	1126.3
380.412	1114.29
380.626	1221.04
380.841	1333.61
381.056	1330.12
381.271	1407.43
381.485	1345.43
381.7	1269.87
381.915	1265.8
382.129	1162.73
382.344	1097.43
382.559	1069.53
382.773	1058.1
382.988	924.22
383.202	961.03
383.417	911.63
383.632	954.45
383.846	908.14
384.061	927.13
384.275	918.6
384.49	1041.05
384.704	1127.08
384.919	1247.39
385.133	1321.21
385.348	1432.23
385.562	1377.59
385.777	1385.34
385.991	1336.13
386.206	1274.32
386.42	1248.75
386.634	1344.85
386.849	1367.71
387.063	1414.02
387.277	1459.93
387.492	1369.84
387.706	1364.8
387.92	1354.34
388.135	1441.92
388.349	1493.06
388.563	1466.91
388.778	1443.47
388.992	1405.68
389.206	1486.48
389.42	1624.04
389.635	1606.41
389.849	1729.82
390.063	1843.17
390.277	1895.28
390.491	1925.7
390.706	1882.5
390.92	1904
391.134	1923.38
391.348	1972.98
391.562	2020.44
391.776	2151.22
391.99	2109.18
392.205	2149.67
392.419	1980.53
392.633	1931.13
392.847	1829.02
393.061	1605.83
393.275	1523.1
393.489	1288.47
393.703	1075.54
393.917	1036.01
394.131	1061.01
394.345	1290.4
394.559	1527.94
394.773	1658.72
394.986	1927.25
395.2	2075.28
395.414	2196.56
395.628	2259.33
395.842	2384.3
396.056	2389.53
396.27	2247.71
396.484	2138.24
396.697	1921.44
396.911	1709.09
397.125	1456.83
397.339	1364.22
397.553	1386.7
397.766	1576.38
397.98	1885.6
398.194	2255.65
398.408	2495.32
398.621	2726.46
398.835	2890.76
399.049	2929.7
399.262	3118.8
399.476	3192.42
399.69	3228.85
399.903	3276.9
400.117	3286.39
400.331	3313.13
400.544	3290.46
400.758	3480.91
400.971	3401.47
401.185	3447.97
401.398	3428.99
401.612	3603.75
401.826	3647.34
402.039	3674.66
402.253	3756.81
402.466	3789.55
402.68	3802.34
402.893	3907.74
403.106	3823.26
403.32	3738.21
403.533	3786.64
403.747	3708.76
403.96	3825.59
404.174	3818.61
404.387	3850.58
404.6	3902.51
404.814	3916.65
405.027	3760.1
405.24	3788.19
405.454	3737.43
405.667	3888.56
405.88	3962.37
406.094	3914.52
406.307	3982.33
406.52	3825.59
406.733	3698.68
406.947	3783.93
407.16	3872.67
407.373	3951.52
407.586	4002.28
407.799	4034.25
408.012	3947.26
408.226	4003.45
408.439	4187.89
408.652	4169.68
408.865	4360.72
409.078	4497.7
409.291	4498.28
409.504	4503.9
409.717	4592.44
409.93	4503.51
410.143	4276.24
410.357	4040.26
410.57	3879.45
410.783	3914.9
410.996	3976.13
411.209	4190.8
411.421	4578.68
411.634	4643.78
411.847	4667.23
412.06	4740.46
412.273	4854
412.486	4845.28
412.699	4857.68
412.912	4922.39
413.125	4794.71
413.338	4804.2
413.55	4720.51
413.763	4654.05
413.976	4721.67
414.189	4779.99
414.402	4856.32
414.615	5040.38
414.827	4849.35
415.04	4921.23
415.253	4854
415.466	5020.62
415.678	5051.23
415.891	4983.42
416.104	4913.09
416.316	4946.8
416.529	5084.56
416.742	5256.22
416.954	5273.65
417.167	5229.09
417.38	5146.56
417.592	5030.7
417.805	4855.16
418.017	4903.02
418.23	4916.58
418.442	4897.98
418.655	4999.5
418.868	4948.55
419.08	4968.89
419.293	5097.73
419.505	5196.74
419.718	5089.98
419.93	5184.72
420.142	5113.81
420.355	5044.26
420.567	4998.34
420.78	5173.29
420.992	5134.93
421.205	5347.86
421.417	5527.46
421.629	5601.09
421.842	5558.27
422.054	5595.08
422.266	5594.69
422.479	5538.12
422.691	5287.22
422.903	5258.15
423.115	5073.32
423.328	5054.91
423.54	5085.72
423.752	5194.02
423.964	5435.24
424.177	5430.59
424.389	5410.44
424.601	5595.27
424.813	5601.28
425.025	5654.37
425.238	5552.84
425.45	5501.11
425.662	5489.29
425.874	5768.29
426.086	5539.67
426.298	5636.54
426.51	5590.82
426.722	5536.76
426.934	5665.02
427.146	5683.04
427.358	5590.24
427.57	5535.21
427.782	5366.27
427.994	5281.79
428.206	5327.32
428.418	5709.97
428.63	5867.3
428.842	5872.53
429.054	5682.85
429.266	5543.16
429.478	5469.34
429.69	5388.74
429.902	5266.68
430.114	5261.64
430.325	4889.07
430.537	4710.82
430.749	4497.12
430.961	4261.71
431.173	4334.95
431.384	4414.58
431.596	4551.75
431.808	5105.68
432.02	5754.73
432.231	6263.12
432.443	6665.53
432.655	6483.61
432.867	6352.44
433.078	6318.92
433.29	6364.64
433.502	6521.97
433.713	6700.99
433.925	6915.08
434.136	6618.26
434.348	6211.97
434.56	6114.13
434.771	6232.12
434.983	6101.34
435.194	6509.37
435.406	6825.76
435.617	6877.3
435.829	7141.96
436.04	7085.77
436.252	6954.61
436.463	7271.77
436.675	7565.68
436.886	7720.29
437.098	7680.77
437.309	7787.14
437.521	7570.72
437.732	7272.74
437.943	7258.21
438.155	7186.71
438.366	7157.85
438.578	7197.18
438.789	6858.51
439	6773.06
439.211	6776.55
439.423	6808.13
439.634	7121.23
439.845	7401.58
440.057	7474.04
440.268	7805.93
440.479	7737.34
440.69	7725.14
440.902	7494.77
441.113	7462.8
441.324	7623.03
441.535	7952.6
441.746	8154.29
441.957	8113.6
442.168	8340.48
442.38	8310.25
442.591	8404.8
442.802	8251.74
443.013	8489.86
443.224	8622.38
443.435	8499.35
443.646	8433.48
443.857	8293.01
444.068	8434.25
444.279	8334.86
444.49	8787.65
444.701	8546.43
444.912	8930.63
445.123	8859.53
445.334	8563.68
445.545	8786.1
445.756	8551.08
445.967	8474.75
446.178	8245.74
446.388	8128.33
446.599	8182.38
446.81	8356.37
447.021	8280.22
447.232	8583.24
447.443	8721
447.653	8988.18
447.864	9142.79
448.075	9169.33
448.286	9144.72
448.496	9018.59
448.707	9124.38
448.918	8875.8
449.129	9040.1
449.339	9065.29
449.55	9166.04
449.761	9089.7
449.971	9024.99
450.182	9272.79
450.393	9303.02
450.603	9298.17
450.814	9720.15
451.024	9673.07
451.235	10027.82
451.446	9958.85
451.656	9919.52
451.867	9810.44
452.077	9489.79
452.288	9677.72
452.498	9571.94
452.709	9549.07
452.919	9250.32
453.13	9117.6
453.34	9035.26
453.55	8670.62
453.761	9136.59
453.971	8923.08
454.182	9222.03
454.392	9273.95
454.602	9725.77
454.813	9738.37
455.023	9479.13
455.233	9389.81
455.444	9476.81
455.654	9100.74
455.864	9432.44
456.075	9571.55
456.285	9530.47
456.495	9645.56
456.705	9734.1
456.916	9985.39
457.126	10087.5
457.336	9943.16
457.546	9776.53
457.756	9934.44
457.967	10092.34
458.177	9809.86
458.387	9846.67
458.597	9636.84
458.807	9856.36
459.017	9675.2
459.227	9545.01
459.437	9647.69
459.647	9904.6
459.857	9850.55
460.068	10053.98
460.278	10027.05
460.488	10051.27
460.698	10054.95
460.908	10167.13
461.117	10413.19
461.327	10430.04
461.537	10485.26
461.747	10556.75
461.957	10511.8
462.167	10658.47
462.377	10646.85
462.587	10579.81
462.797	10810.76
463.007	10716.4
463.216	10960.52
463.426	11166.86
463.636	10882.25
463.846	10649.56
464.056	10636.19
464.265	10576.32
464.475	10641.23
464.685	10976.41
464.895	10679.4
465.104	10460.07
465.314	10896.2
465.524	10711.36
465.733	10630.18
465.943	10954.52
466.153	11139.74
466.362	11197.28
466.572	11153.69
466.782	10940.57
466.991	11134.9
467.201	10979.12
467.41	10683.66
467.62	11063.21
467.829	11118.23
468.039	11318.76
468.249	11268.77
468.458	11555.33
468.668	11459.62
468.877	11657.24
469.086	11792.86
469.296	11960.06
469.505	12120.88
469.715	11938.56
469.924	11873.27
470.134	12019.55
470.343	11720.59
470.552	11804.1
470.762	11697.92
470.971	11807.2
471.18	11932.94
471.39	12126.3
471.599	11994.16
471.808	12159.43
472.018	12523.09
472.227	12682.35
472.436	13258.95
472.645	13237.25
472.855	13150.25
473.064	13564.68
473.273	13567.2
473.482	13102.2
473.691	13329.86
473.901	13164.2
474.11	13025.87
474.319	13420.14
474.528	13398.83
474.737	14100.39
474.946	13895.79
475.155	14125.97
475.364	14330.37
475.573	14180.6
475.783	14519.66
475.992	14228.26
476.201	14255.39
476.41	14529.73
476.619	14340.83
476.828	14298.21
477.037	14298.79
477.245	14310.22
477.454	14496.02
477.663	14999.96
477.872	15344.25
478.081	15590.89
478.29	15477.35
478.499	15737.75
478.708	16059.76
478.917	15909.02
479.125	15519.78
479.334	15536.64
479.543	16089.01
479.752	16283.53
479.961	16126.99
480.169	16557.3
480.378	16733.22
480.587	17033.72
480.796	16718.11
481.004	16897.91
481.213	17005.82
481.422	17105.02
481.63	17432.65
481.839	17515.19
482.048	17699.05
482.256	17679.29
482.465	18194.66
482.674	17902.1
482.882	18020.87
483.091	18110.96
483.299	17866.64
483.508	18339.39
483.716	18501.94
483.925	18526.16
484.134	17930
484.342	18367.67
484.551	18395.77
484.759	18219.07
484.967	18906.1
485.176	18601.72
485.384	18761.37
485.593	18583.51
485.801	18359.92
486.01	17659.53
486.218	16818.08
486.426	16226.19
486.635	15752.47
486.843	15757.32
487.051	16166.9
487.26	16534.44
487.468	17020.94
487.676	17536.5
487.885	18098.95
488.093	18506.78
488.301	19083.38
488.509	19070.2
488.717	19489.28
488.926	19531.13
489.134	19225
489.342	19276.74
489.55	19060.32
489.758	19388.53
489.967	20129.42
490.175	20020.92
490.383	20793
490.591	21105.13
490.799	20933.66
491.007	20928.43
491.215	20867.59
491.423	20727.32
491.631	20872.82
491.839	20526.4
492.047	20561.28
492.255	20152.28
492.463	20135.23
492.671	19631.1
492.879	20311.73
493.087	20532.02
493.295	20716.47
493.503	21038.48
493.711	21658.47
493.919	21474.41
494.127	21314.18
494.334	21223.51
494.542	21372.5
494.75	21903.56
494.958	21675.13
495.166	22266.64
495.374	22392.77
495.581	22569.08
495.789	22470.85
495.997	22515.61
496.205	21729.77
496.412	22153.69
496.62	22463.68
496.828	22153.3
497.035	22526.84
497.243	22518.71
497.451	22648.52
497.658	22620.42
497.866	22660.72
498.074	22870.55
498.281	22403.82
498.489	22585.94
498.696	22157.56
498.904	21836.72
499.112	21807.46
499.319	22312.75
499.527	22479.18
499.734	22670.22
499.942	22652.78
500.149	22619.65
500.357	22784.34
500.564	22286.4
500.771	22280.59
500.979	21870.43
501.186	21749.72
501.394	22106.22
501.601	21560.63
501.808	21624.95
502.016	21677.26
502.223	21512.77
502.43	21790.99
502.638	21803.2
502.845	22231.38
503.052	22448.76
503.26	22422.03
503.467	22658.98
503.674	22855.25
503.881	22739.19
504.089	22561.14
504.296	22452.06
504.503	22187.01
504.71	21990.55
504.917	22314.5
505.125	22460.97
505.332	22787.43
505.539	22779.1
505.746	23300.87
505.953	23511.66
506.16	23605.63
506.367	23810.03
506.574	24164.2
506.781	23979.56
506.988	23864.09
507.195	23695.72
507.402	23648.64
507.609	23657.94
507.816	23271.42
508.023	23166.99
508.23	22928.1
508.437	22696.57
508.644	22807.78
508.851	22989.13
509.058	23373.71
509.265	23594.39
509.472	23751.52
509.679	23882.49
509.885	23990.02
510.092	23870.09
510.299	23779.61
510.506	23325.28
510.713	23451.99
510.92	23340.39
511.126	23564.75
511.333	23848.39
511.54	23886.18
511.746	23997.19
511.953	24108.79
512.16	24386.24
512.367	24309.51
512.573	24082.83
512.78	23978.01
512.987	23867.96
513.193	23434.94
513.4	23250.3
513.606	23426.99
513.813	23529.1
514.02	23212.32
514.226	23182.68
514.433	23240.42
514.639	23011.41
514.846	23122.42
515.052	23028.65
515.259	23243.52
515.465	23224.72
515.672	23383.79
515.878	23360.15
516.085	23817.2
516.291	23689.91
516.497	23689.13
516.704	22988.35
516.91	22471.63
517.117	21610.23
517.323	20797.07
517.529	20516.91
517.736	20425.27
517.942	20608.17
518.148	21221.18
518.354	21399.43
518.561	21581.16
518.767	21419.39
518.973	21330.07
519.179	21741.78
519.386	22186.62
519.592	22157.18
519.798	22184.88
520.004	23167.18
520.21	23104.21
520.417	23325.66
520.623	23546.92
520.829	23458.96
521.035	23639.92
521.241	23368.29
521.447	23595.75
521.653	23942.56
521.859	23774.77
522.065	23976.85
522.271	24202.95
522.477	24059
522.683	24350.39
522.889	23806.16
523.095	23571.72
523.301	23623.07
523.507	23358.21
523.713	23527.36
523.919	23501.97
524.125	24101.62
524.331	24333.34
524.537	24739.83
524.742	24923.3
524.948	24772.96
525.154	24964.38
525.36	24875.84
525.566	24482.72
525.772	24775.67
525.977	24699.33
526.183	24528.45
526.389	24643.53
526.595	23851.69
526.8	23603.5
527.006	22755.08
527.212	22150.01
527.417	22056.62
527.623	22038.6
527.829	22488.29
528.034	22959.87
528.24	23005.79
528.446	23614.54
528.651	24152.38
528.857	24314.55
529.062	24435.26
529.268	24735.56
529.473	25066.48
529.679	25301.69
529.884	25254.81
530.09	24987.24
530.295	24576.88
530.501	24876.61
530.706	24929.5
530.912	24997.7
531.117	25213.73
531.323	25147.28
531.528	25587.28
531.733	25715.92
531.939	25387.91
532.144	25392.17
532.35	25271.27
532.555	25151.54
532.76	24469.55
532.966	24289.94
533.171	24101.62
533.376	23863.7
533.581	23862.34
533.787	24231.24
533.992	24615.83
534.197	24206.05
534.402	24807.44
534.607	24771.21
534.813	24641.4
535.018	24836.89
535.223	25106.98
535.428	24985.3
535.633	25196.1
535.838	25528.18
536.043	25769.79
536.249	26023.79
536.454	25757.97
536.659	25773.27
536.864	25614.01
537.069	25314.67
537.274	25098.84
537.479	25077.72
537.684	24937.45
537.889	24704.95
538.094	25449.72
538.299	25200.94
538.504	25556.86
538.708	25355.75
538.913	25667.29
539.118	25587.86
539.323	25591.15
539.528	25234.07
539.733	25056.8
539.938	25057.18
540.142	24816.36
540.347	24687.71
540.552	24542.2
540.757	24112.28
540.962	24464.12
541.166	24242.48
541.371	24188.03
541.576	24254.1
541.781	24568.94
541.985	25072.49
542.19	24643.73
542.395	25354.39
542.599	25435.57
542.804	24994.6
543.008	25295.88
543.213	25118.8
543.418	24879.71
543.622	25255
543.827	24835.54
544.031	25168.59
544.236	25328.82
544.44	25669.23
544.645	25617.69
544.849	25466.77
545.054	25753.32
545.258	25740.53
545.463	25830.04
545.667	25387.72
545.872	25771.34
546.076	25608.39
546.281	25562.09
546.485	25567.51
546.689	25603.55
546.894	25604.91
547.098	25725.81
547.302	25684.54
547.507	25583.21
547.711	25767.07
547.915	25536.9
548.119	25121.9
548.324	25080.24
548.528	25232.72
548.732	25219.93
548.936	25488.47
549.141	25435.96
549.345	25460.76
549.549	25667.29
549.753	25893.59
549.957	25736.85
550.161	25881
550.366	25870.15
550.57	25704.11
550.774	25601.42
550.978	25717.28
551.182	25543.88
551.386	25472.97
551.59	25630.29
551.794	25377.06
551.998	25573.52
552.202	25642.69
552.406	25676.21
552.61	25921.68
552.814	25701.59
553.018	25612.66
553.222	25313.51
553.426	25496.99
553.63	25490.02
553.833	25622.93
554.037	25320.68
554.241	25289.87
554.445	25789.16
554.649	25653.15
554.853	25497.38
555.056	25770.95
555.26	25967.41
555.464	25633.39
555.668	25727.55
555.871	25664
556.075	25737.24
556.279	25559.38
556.483	25473.35
556.686	25327.46
556.89	25311.19
557.094	25270.31
557.297	24942.68
557.501	24965.15
557.704	24758.04
557.908	24969.42
558.112	24912.26
558.315	25083.53
558.519	24936.87
558.722	24641.79
558.926	24657.48
559.129	24078.57
559.333	24308.54
559.536	24271.15
559.74	24133.59
559.943	23874.36
560.147	24189.39
560.35	24056.48
560.553	24442.42
560.757	24373.06
560.96	24402.9
561.164	24717.35
561.367	25018.82
561.57	24884.94
561.774	24705.92
561.977	24605.56
562.18	24552.86
562.384	24610.21
562.587	24408.13
562.79	24713.28
562.993	24510.62
563.197	24441.26
563.4	24778.58
563.603	24630.36
563.806	24744.28
564.009	24739.63
564.212	24698.17
564.416	24433.71
564.619	24459.47
564.822	24187.84
565.025	24545.5
565.228	24462.96
565.431	24645.08
565.634	24348.07
565.837	24163.23
566.04	24076.24
566.243	23787.75
566.446	23523.48
566.649	23970.46
566.852	23648.45
567.055	23970.65
567.258	24008.04
567.461	24172.34
567.664	24359.31
567.867	24361.24
568.07	24102.2
568.273	24222.71
568.475	24547.24
568.678	23885.21
568.881	23916.79
569.084	23532.97
569.287	23417.5
569.489	23638.57
569.692	23742.22
569.895	23748.42
570.098	23548.28
570.3	23614.54
570.503	23559.32
570.706	23445.01
570.909	23352.4
571.111	22940.11
571.314	22937.59
571.516	22978.86
571.719	23097.04
571.922	22993.58
572.124	23240.42
572.327	23369.26
572.529	23518.64
572.732	23637.4
572.935	23730.21
573.137	24225.43
573.34	23786.2
573.542	24125.26
573.745	23909.62
573.947	23988.28
574.15	23877.46
574.352	23760.82
574.554	23987.12
574.757	23699.4
574.959	23356.28
575.162	23690.1
575.364	23306.48
575.566	23524.06
575.769	23140.25
575.971	23348.14
576.173	22823.08
576.376	23132.5
576.578	23355.89
576.78	23309.58
576.982	23267.54
577.185	23404.91
577.387	23280.91
577.589	23520.19
577.791	23314.04
577.993	23372.36
578.196	23287.3
578.398	23030.59
578.6	22841.49
578.802	22855.25
579.004	22654.91
579.206	22903.49
579.408	23083.48
579.61	22856.99
579.812	23260.57
580.014	22916.47
580.216	22990.87
580.418	23307.26
580.62	23310.55
580.822	23242.35
581.024	23184.62
581.226	23307.26
581.428	23222.01
581.63	23630.43
581.832	23397.74
582.034	23524.06
582.236	23439.01
582.438	23650.77
582.64	23693.4
582.841	23676.54
583.043	23970.46
583.245	23569.79
583.447	23794.34
583.649	23698.43
583.85	23711.61
584.052	23797.44
584.254	23522.32
584.456	23660.46
584.657	23633.14
584.859	23778.84
585.061	23468.65
585.262	23462.06
585.464	23306.1
585.666	23349.88
585.867	23039.11
586.069	23094.52
586.27	22866.68
586.472	22954.64
586.674	22924.22
586.875	22888.57
587.077	22987.77
587.278	23019.93
587.48	23047.06
587.681	23212.52
587.883	23107.12
588.084	22788.98
588.285	22922.67
588.487	22523.16
588.688	22514.45
588.89	21910.53
589.091	21552.1
589.292	21049.13
589.494	20568.25
589.695	20223.19
589.896	19994.76
590.098	20172.04
590.299	20201.49
590.5	20506.64
590.702	20882.12
590.903	21151.05
591.104	21525.56
591.305	21768.91
591.507	21657.31
591.708	21757.47
591.909	21741.97
592.11	21660.6
592.311	21976.41
592.512	21544.74
592.714	21663.7
592.915	21889.61
593.116	21691.79
593.317	21931.07
593.518	21853.57
593.719	22051
593.92	22031.43
594.121	22002.95
594.322	21986.1
594.523	21834.39
594.724	21650.14
594.925	21748.95
595.126	21534.47
595.327	21550.75
595.528	21713.49
595.729	21585.23
595.929	21653.82
596.13	21845.24
596.331	21983.58
596.532	21851.05
596.733	22128.31
596.934	22153.11
597.135	22262.38
597.335	22077.55
597.536	22097.89
597.737	21948.12
597.938	21877.99
598.138	21926.03
598.339	22070.96
598.54	22000.24
598.74	21713.11
598.941	21710.01
599.142	22011.48
599.342	21919.45
599.543	21876.82
599.744	21983.58
599.944	21977.38
600.145	22169.77
600.345	21927.97
600.546	21943.86
600.746	21967.5
600.947	22175.97
601.147	21644.52
601.348	21928.55
601.548	21754.96
601.749	21779.56
601.949	21517.03
602.15	21519.94
602.35	21379.28
602.551	21470.54
602.751	21535.05
602.951	21723.18
603.152	21554.23
603.352	21746.82
603.552	21715.63
603.753	21945.22
603.953	22047.51
604.153	22010.12
604.354	22032.79
604.554	21915.18
604.754	22010.31
604.954	21956.07
605.155	22084.13
605.355	21977.96
605.555	21945.6
605.755	21988.23
605.955	21904.92
606.155	21818.51
606.356	21857.84
606.556	21837.49
606.756	21863.65
606.956	21779.56
607.156	21916.35
607.356	21705.74
607.556	21781.89
607.756	21787.51
607.956	21832.45
608.156	21649.36
608.356	21395.94
608.556	21673.78
608.756	21371.14
608.956	21524.01
609.156	21375.6
609.356	21316.12
609.556	21226.22
609.755	21401.17
609.955	21162.67
610.155	21170.23
610.355	21276.01
610.555	20957.3
610.755	20719.96
610.954	20853.06
611.154	21102.03
611.354	20969.7
611.554	20919.91
611.753	21166.35
611.953	21038.67
612.153	21110.17
612.352	21032.47
612.552	20797.65
612.752	20707.17
612.951	20941.61
613.151	20608.55
613.351	20858.29
613.55	20785.06
613.75	20759.29
613.949	20409.58
614.149	20503.54
614.348	20446.19
614.548	20404.15
614.747	20347.38
614.947	20495.41
615.146	20395.82
615.346	20714.15
615.545	20662.61
615.745	20538.61
615.944	20373.54
616.144	20358.23
616.343	19995.92
616.542	20261.36
616.742	19828.33
616.941	19852.55
617.14	19586.34
617.34	19790.75
617.539	19957.56
617.738	19904.09
617.938	20138.14
618.137	20030.41
618.336	20130.77
618.535	20281.7
618.734	20339.24
618.934	20176.5
619.133	20229.2
619.332	20464.41
619.531	20013.56
619.73	20433.99
619.929	20216.6
620.128	20357.65
620.328	20330.72
620.527	20364.24
620.726	20329.75
620.925	20316.58
621.124	20519.24
621.323	20267.95
621.522	20004.06
621.721	20286.55
621.92	19976.94
622.119	20099.77
622.318	19972.87
622.517	19903.31
622.715	19901.76
622.914	19736.88
623.113	19914.16
623.312	19392.6
623.511	19747.35
623.71	19640.98
623.909	19396.28
624.107	19676.82
624.306	19454.4
624.505	19455.37
624.704	19432.31
624.902	19165.91
625.101	19416.23
625.3	19187.03
625.499	19076.79
625.697	19107.98
625.896	19028.16
626.095	18859.6
626.293	18902.8
626.492	19126.39
626.69	19055.67
626.889	19261.24
627.088	19148.09
627.286	19291.46
627.485	19034.94
627.683	19017.5
627.882	18810.19
628.08	18655.58
628.279	18552.7
628.477	18540.88
628.676	18423.28
628.874	18514.73
629.073	18462.61
629.271	18451.95
629.469	18557.55
629.668	18554.83
629.866	18380.85
630.065	18429.87
630.263	18413.01
630.461	18301.61
630.66	18415.14
630.858	18291.53
631.056	18520.35
631.254	18495.16
631.453	18309.55
631.651	18381.04
631.849	18319.62
632.047	18198.73
632.245	18216.16
632.444	18235.54
632.642	18470.55
632.84	18644.73
633.038	18320.98
633.236	18271.19
633.434	18460.28
633.632	18510.66
633.83	18319.04
634.028	18603.66
634.227	18424.83
634.425	18680.57
634.623	18243.29
634.821	18531.39
635.019	18467.65
635.216	18739.09
635.414	18615.48
635.612	18389.18
635.81	18461.25
636.008	18440.72
636.206	18436.26
636.404	18271.57
636.602	18361.67
636.8	18175.48
636.997	18390.34
637.195	18354.5
637.393	18358.95
637.591	18599.59
637.789	18548.25
637.986	18534.88
638.184	18572.08
638.382	18598.23
638.58	18519.76
638.777	18662.17
638.975	18620.32
639.173	18515.31
639.37	18477.92
639.568	18448.85
639.765	18367.29
639.963	18222.94
640.161	18093.71
640.358	18301.41
640.556	17880.79
640.753	18184.97
640.951	17983.28
641.148	18065.43
641.346	18005.56
641.543	17859.86
641.741	17992.77
641.938	17879.43
642.136	17996.84
642.333	17752.72
642.531	18037.53
642.728	18016.22
642.925	18152.23
643.123	18035.4
643.32	18037.14
643.517	17838.94
643.715	17871.1
643.912	17947.44
644.109	17898.8
644.306	17903.07
644.504	17815.69
644.701	17962.74
644.898	17932.52
645.095	17841.26
645.293	17771.32
645.49	17728.11
645.687	17686.07
645.884	17765.7
646.081	17407.27
646.278	17476.24
646.475	17298.77
646.672	17273.58
646.87	17246.26
647.067	17144.35
647.264	17241.23
647.461	17032.95
647.658	16868.07
647.855	17077.9
648.052	16796.38
648.249	16699.32
648.446	16871.36
648.642	16958.55
648.839	16648.36
649.036	16713.07
649.233	16701.83
649.43	16706.48
649.627	16276.37
649.824	16466.04
650.021	16222.31
650.217	16492.01
650.414	16602.64
650.611	16532.69
650.808	16919.99
651.004	16802.97
651.201	16819.44
651.398	17059.69
651.595	16767.9
651.791	16569.51
651.988	16801.81
652.185	16370.33
652.381	16827.96
652.578	16546.64
652.775	16634.8
652.971	16891.13
653.168	16638.09
653.364	16943.82
653.561	16654.37
653.757	16733.61
653.954	16854.51
654.15	16506.73
654.347	16881.44
654.543	16762.48
654.74	16463.72
654.936	16517.77
655.133	16350.96
655.329	16401.53
655.525	16029.14
655.722	16041.74
655.918	15648.82
656.115	15137.13
656.311	14786.64
656.507	14267.98
656.704	14082.37
656.9	14120.15
657.096	14412.32
657.292	14419.49
657.489	14747.31
657.685	14977.29
657.881	15029.41
658.077	15282.64
658.273	15530.63
658.47	15761.39
658.666	15783.28
658.862	15998.34
659.058	16038.83
659.254	16075.45
659.45	16223.67
659.646	16029.73
659.842	16130.28
660.038	16290.32
660.234	16086.3
660.43	16172.13
660.626	16418.96
660.822	16222.7
661.018	16400.36
661.214	16311.63
661.41	16182.79
661.606	16417.03
661.802	16595.47
661.998	16357.74
662.194	16406.18
662.39	16441.63
662.586	16323.25
662.781	16331
662.977	16537.15
663.173	16271.72
663.369	16332.55
663.564	16268.23
663.76	16298.65
663.956	16225.02
664.152	16025.85
664.347	16087.27
664.543	16230.25
664.739	16086.88
664.934	15918.32
665.13	16133.38
665.326	16090.76
665.521	16119.43
665.717	16015.58
665.912	16216.3
666.108	15839.85
666.304	16122.72
666.499	15936.53
666.695	15656.37
666.89	16054.33
667.086	15889.65
667.281	15901.08
667.477	16013.26
667.672	15884.22
667.867	15809.05
668.063	15817.77
668.258	15571.32
668.454	15832.49
668.649	15790.25
668.844	15901.08
669.04	15864.65
669.235	15714.11
669.43	15980.32
669.626	15642.42
669.821	15691.64
670.016	15699.39
670.211	15837.72
670.407	15503.12
670.602	15802.27
670.797	15508.35
670.992	15758.87
671.187	15530.25
671.382	15758.29
671.578	15425.23
671.773	15461.85
671.968	15167.36
672.163	15499.25
672.358	15341.54
672.553	15221.02
672.748	15489.56
672.943	15389
673.138	15365.75
673.333	15414.58
673.528	15195.06
673.723	15375.63
673.918	15189.25
674.113	15244.47
674.308	15280.89
674.503	15204.56
674.698	15253.19
674.892	15048.98
675.087	15165.81
675.282	15115.82
675.477	15066.22
675.672	15230.13
675.867	15010.81
676.061	15051.3
676.256	15006.16
676.451	15097.61
676.646	15045.1
676.84	15005.19
677.035	14855.42
677.23	15038.13
677.424	14973.42
677.619	14965.28
677.814	15049.75
678.008	14909.09
678.203	14823.84
678.397	14767.66
678.592	14784.71
678.787	14883.13
678.981	14773.47
679.176	14737.04
679.37	14689.58
679.565	14787.81
679.759	14750.22
679.954	14787.61
680.148	14601.23
680.342	14851.35
680.537	14662.06
680.731	14579.53
680.926	14650.44
681.12	14583.6
681.314	14592.7
681.509	14588.83
681.703	14580.69
681.897	14399.92
682.092	14513.65
682.286	14553.18
682.48	14436.15
682.674	14365.63
682.869	14357.49
683.063	14572.55
683.257	14412.13
683.451	14300.92
683.645	14411.16
683.839	14224.19
684.034	14200.56
684.228	14035.49
684.422	13939.58
684.616	14115.31
684.81	14042.07
685.004	13920.4
685.198	14029.87
685.392	13913.23
685.586	14011.46
685.78	13806.09
685.974	13860.53
686.168	13800.47
686.362	13883.59
686.556	13201.98
686.75	12888.7
686.944	12289.05
687.138	11654.33
687.331	11079.68
687.525	10860.74
687.719	10764.26
687.913	10728.41
688.107	10971.18
688.301	10963.04
688.494	11090.72
688.688	11057.01
688.882	11016.9
689.076	10996.37
689.269	11115.91
689.463	11172.09
689.657	11209.29
689.85	11226.15
690.044	11427.45
690.238	11473.76
690.431	11473.95
690.625	11493.52
690.818	11749.46
691.012	11651.23
691.205	11866.68
691.399	11861.64
691.593	11860.29
691.786	11863.58
691.98	12070.11
692.173	12120.29
692.366	12133.27
692.56	12309.97
692.753	12041.44
692.947	12043.96
693.14	12083.29
693.333	12102.47
693.527	12002.69
693.72	12136.18
693.914	11969.95
694.107	11776.97
694.3	11849.24
694.493	11590.59
694.687	11935.46
694.88	11625.08
695.073	11831.61
695.266	11752.17
695.46	11856.99
695.653	11812.24
695.846	11737.45
696.039	11831.8
696.232	11813.59
696.425	12011.99
696.618	12006.18
696.812	12163.11
697.005	12143.16
697.198	12427.19
697.391	12249.14
697.584	12425.25
697.777	12350.85
697.97	12213.68
698.163	12277.81
698.356	12193.14
698.549	12326.44
698.742	12267.74
698.935	12048.41
699.127	12019.16
699.32	11873.27
699.513	11948.83
699.706	11774.26
699.899	11948.05
700.092	11796.54
700.285	11711.68
700.477	11549.9
700.67	11652.59
700.863	11511.73
701.056	11766.32
701.248	11664.99
701.441	11577.03
701.634	11503.98
701.826	11603.96
702.019	11462.52
702.212	11558.43
702.404	11392.58
702.597	11369.14
702.79	11419.9
702.982	11419.12
703.175	11523.16
703.367	11485
703.56	11512.9
703.752	11607.44
703.945	11596.6
704.137	11605.51
704.33	11628.76
704.522	11613.06
704.715	11688.24
704.907	11694.44
705.1	11767.87
705.292	11683.98
705.484	11562.11
705.677	11621.98
705.869	11690.37
706.061	11630.11
706.254	11664.6
706.446	11513.48
706.638	11530.14
706.831	11666.34
707.023	11570.05
707.215	11752.17
707.407	11753.34
707.599	11523.75
707.792	11796.93
707.984	11723.11
708.176	11564.82
708.368	11562.5
708.56	11571.41
708.752	11575.48
708.944	11419.7
709.136	11607.64
709.329	11447.22
709.521	11565.21
709.713	11495.27
709.905	11474.73
710.097	11571.21
710.289	11472.79
710.481	11479.18
710.672	11505.73
710.864	11494.68
711.056	11427.84
711.248	11416.02
711.44	11393.16
711.632	11349.95
711.824	11416.22
712.016	11305.78
712.207	11365.65
712.399	11304.04
712.591	11316.05
712.783	11366.23
712.975	11240.29
713.166	11203.87
713.358	11264.32
713.55	11126.18
713.741	11232.16
713.933	11208.33
714.125	11120.75
714.316	11035.7
714.508	11127.73
714.7	11008.18
714.891	11007.99
715.083	10892.32
715.274	10850.47
715.466	11003.15
715.657	10823.93
715.849	10673.97
716.04	10676.1
716.232	10557.14
716.423	10394.78
716.615	10177.78
716.806	9937.54
716.998	9710.47
717.189	9404.35
717.381	9216.41
717.572	9030.61
717.763	8867.67
717.955	8655.51
718.146	8573.56
718.337	8365.28
718.528	8180.06
718.72	7922.76
718.911	7890.4
719.102	7744.71
719.293	7837.71
719.485	7714.68
719.676	7642.41
719.867	7535.07
720.058	7581.18
720.249	7501.17
720.44	7512.21
720.632	7617.61
720.823	7730.56
721.014	8020.02
721.205	8200.59
721.396	8356.75
721.587	8514.85
721.778	8703.37
721.969	8811.28
722.16	8921.91
722.351	9022.28
722.542	9210.6
722.733	9157.7
722.924	9056.76
723.115	9078.46
723.305	8851.78
723.496	8868.05
723.687	8489.08
723.878	8545.46
724.069	8394.34
724.26	8436
724.45	8220.94
724.641	8159.91
724.832	8156.81
725.023	8054.51
725.213	8031.06
725.404	7975.27
725.595	7882.85
725.785	7953.37
725.976	8047.34
726.167	7982.05
726.357	8018.66
726.548	8161.46
726.739	7919.08
726.929	8127.55
727.12	8132.78
727.31	8144.02
727.501	7975.27
727.691	7937.48
727.882	7885.95
728.072	7984.18
728.263	7973.72
728.453	8082.8
728.644	8113.21
728.834	7939.42
729.024	7800.12
729.215	7876.45
729.405	7815.62
729.596	7918.3
729.786	7942.91
729.976	8022.15
730.167	7968.1
730.357	7920.44
730.547	7967.13
730.737	8018.66
730.928	7962.48
731.118	8045.6
731.308	7896.8
731.498	7905.52
731.688	8097.52
731.879	8134.33
732.069	8190.91
732.259	8271.12
732.449	8333.31
732.639	8416.43
732.829	8445.88
733.019	8479.78
733.209	8577.04
733.399	8614.44
733.589	8751.8
733.779	8767.89
733.969	8795.98
734.159	8907
734.349	8885.1
734.539	9009.29
734.729	8998.06
734.919	8914.94
735.109	9128.45
735.299	8880.84
735.488	8958.34
735.678	8923.27
735.868	8883.75
736.058	8848.48
736.248	8750.64
736.437	8762.46
736.627	8748.7
736.817	8886.46
737.007	8714.02
737.196	8822.13
737.386	8904.48
737.576	8770.21
737.765	8869.02
737.955	8730.88
738.144	8977.33
738.334	8890.53
738.524	8754.52
738.713	8804.12
738.903	8707.82
739.092	8753.55
739.282	8724.68
739.471	8772.73
739.661	8693.49
739.85	8799.85
740.04	8748.32
740.229	8771.95
740.419	8754.52
740.608	8797.72
740.797	8700.27
740.987	8778.54
741.176	8744.25
741.365	8752.97
741.555	8576.27
741.744	8798.5
741.933	8711.7
742.123	8725.26
742.312	8686.71
742.501	8758.39
742.69	8690
742.88	8602.43
743.069	8815.74
743.258	8728.17
743.447	8756.65
743.636	8746.77
743.825	8690.39
744.014	8714.8
744.204	8739.99
744.393	8624.32
744.582	8820.97
744.771	8753.74
744.96	8682.64
745.149	8744.25
745.338	8660.16
745.527	8757.04
745.716	8619.09
745.905	8648.54
746.094	8676.63
746.283	8730.1
746.471	8604.56
746.66	8698.72
746.849	8693.87
747.038	8681.67
747.227	8618.7
747.416	8653.38
747.604	8526.48
747.793	8555.54
747.982	8538.3
748.171	8603.98
748.359	8464.67
748.548	8577.82
748.737	8495.09
748.926	8494.12
749.114	8327.5
749.303	8469.13
749.491	8492.18
749.68	8336.6
749.869	8420.69
750.057	8378.07
750.246	8321.69
750.434	8300.37
750.623	8285.65
750.811	8192.46
751	8337.19
751.188	8143.63
751.377	8151.96
751.565	8167.08
751.754	8188.39
751.942	8137.43
752.131	8204.86
752.319	8142.86
752.507	8095.39
752.696	8086.67
752.884	8118.06
753.072	8083.57
753.261	8121.16
753.449	8079.31
753.637	7978.95
753.825	8186.45
754.014	8047.15
754.202	7977.98
754.39	8070.59
754.578	8076.4
754.766	8025.25
754.955	7903.19
755.143	7988.25
755.331	7949.69
755.519	7955.89
755.707	7982.82
755.895	7883.82
756.083	7897.38
756.271	7783.07
756.459	7868.32
756.647	7855.53
756.835	7784.81
757.023	7793.72
757.211	7808.64
757.399	7708.48
757.587	7766.21
757.775	7616.25
757.963	7661.4
758.151	7737.93
758.339	7587.77
758.526	7614.31
758.714	7618.38
758.902	7389.96
759.09	7272.54
759.278	6897.64
759.465	6478.96
759.653	5807.82
759.841	5269.2
760.028	4705.01
760.216	4127.25
760.404	3843.41
760.591	3316.23
760.779	2906.64
760.967	2613.5
761.154	2365.12
761.342	2408.33
761.529	2433.51
761.717	2533.87
761.905	2641.02
762.092	2816.94
762.28	2782.26
762.467	2788.65
762.655	2732.47
762.842	2754.55
763.029	2823.91
763.217	2867.51
763.404	2872.93
763.592	2954.31
763.779	2925.24
763.966	2974.26
764.154	3054.28
764.341	3187.58
764.528	3204.05
764.716	3341.41
764.903	3454.17
765.09	3590.18
765.277	3700.43
765.465	3933.89
765.652	4015.07
765.839	4201.46
766.026	4437.83
766.213	4569.58
766.4	4668.19
766.588	4902.63
766.775	5080.1
766.962	5227.15
767.149	5395.13
767.336	5621.62
767.523	5541.03
767.71	5768.87
767.897	5914.38
768.084	6063.76
768.271	6123.24
768.458	6198.8
768.645	6365.03
768.832	6347.6
769.019	6376.66
769.206	6402.04
769.392	6511.31
769.579	6580.48
769.766	6509.76
769.953	6548.32
770.14	6578.35
770.327	6640.15
770.513	6637.63
770.7	6734.9
770.887	6624.85
771.073	6646.93
771.26	6726.56
771.447	6631.82
771.634	6575.05
771.82	6731.8
772.007	6550.06
772.193	6664.95
772.38	6663.21
772.567	6623.88
772.753	6598.11
772.94	6675.03
773.126	6633.95
773.313	6715.13
773.499	6616.71
773.686	6673.48
773.872	6553.35
774.059	6626.01
774.245	6550.06
774.432	6554.71
774.618	6428
774.804	6440.21
774.991	6471.79
775.177	6464.62
775.363	6433.43
775.55	6525.46
775.736	6395.06
775.922	6478.76
776.109	6423.54
776.295	6427.03
776.481	6514.61
776.667	6473.34
776.853	6461.71
777.04	6354.38
777.226	6387.51
777.412	6427.81
777.598	6343.14
777.784	6321.63
777.97	6267.19
778.156	6341.78
778.342	6309.81
778.528	6258.28
778.715	6189.88
778.901	6211.78
779.087	6252.66
779.272	6191.63
779.458	6173.42
779.644	6198.22
779.83	6140.87
780.016	6260.02
780.202	6173.22
780.388	6210.62
780.574	6053.68
780.76	6121.1
780.946	6111.03
781.131	6118
781.317	6057.17
781.503	6048.64
781.689	6003.11
781.874	6182.14
782.06	6032.37
782.246	6073.44
782.432	6031.98
782.617	6042.64
782.803	6045.35
782.989	5974.05
783.174	5965.33
783.36	5862.26
783.545	5929.88
783.731	5934.33
783.916	5771.39
784.102	5897.52
784.288	5787.47
784.473	5846.95
784.659	5764.22
784.844	5831.65
785.029	5807.43
785.215	5718.3
785.4	5712.88
785.586	5895
785.771	5701.06
785.956	5770.81
786.142	5700.48
786.327	5713.46
786.512	5694.47
786.698	5679.36
786.883	5603.02
787.068	5678.97
787.254	5692.54
787.439	5588.69
787.624	5585.01
787.809	5545.09
787.994	5551.1
788.18	5624.34
788.365	5443.96
788.55	5478.06
788.735	5531.14
788.92	5487.74
789.105	5510.22
789.29	5425.55
789.475	5368.2
789.66	5407.92
789.845	5351.93
790.03	5367.04
790.215	5368.4
790.4	5383.9
790.585	5424.97
790.77	5324.03
790.955	5325
791.14	5306.4
791.325	5410.25
791.51	5227.35
791.695	5315.5
791.879	5348.83
792.064	5216.5
792.249	5353.87
792.434	5299.81
792.618	5256.99
792.803	5322.09
792.988	5238.97
793.173	5262.61
793.357	5288.38
793.542	5247.3
793.727	5276.17
793.911	5300.2
794.096	5249.44
794.281	5310.66
794.465	5390.29
794.65	5266.29
794.834	5368.59
795.019	5365.68
795.203	5402.11
795.388	5389.13
795.572	5459.46
795.757	5407.73
795.941	5391.07
796.126	5354.45
796.31	5271.14
796.494	5366.65
796.679	5334.88
796.863	5291.67
797.048	5460.62
797.232	5363.94
797.416	5410.25
797.601	5410.83
797.785	5498.21
797.969	5445.7
798.153	5434.85
798.338	5448.22
798.522	5494.91
798.706	5522.04
798.89	5465.08
799.074	5576.67
799.258	5527.46
799.443	5442.41
799.627	5461.78
799.811	5523.98
799.995	5442.41
800.179	5373.43
800.363	5405.4
800.547	5467.6
800.731	5468.95
800.915	5359.48
801.099	5384.87
801.283	5401.72
801.467	5377.7
801.651	5374.4
801.835	5394.94
802.019	5443.38
802.202	5362.97
802.386	5250.99
802.57	5278.5
802.754	5358.32
802.938	5320.54
803.121	5327.32
803.305	5384.28
803.489	5366.27
803.673	5434.85
803.856	5371.11
804.04	5330.03
804.224	5374.98
804.407	5326.16
804.591	5346.31
804.775	5333.33
804.958	5310.08
805.142	5455.78
805.326	5310.08
805.509	5362.58
805.693	5381.57
805.876	5326.74
806.06	5387.97
806.243	5406.95
806.427	5472.44
806.61	5446.09
806.794	5331.58
806.977	5458.49
807.16	5369.56
807.344	5376.53
807.527	5339.33
807.71	5360.07
807.894	5334.68
808.077	5371.3
808.26	5309.69
808.444	5283.54
808.627	5367.62
808.81	5209.72
808.993	5179.49
809.177	5167.87
809.36	5193.25
809.543	5152.76
809.726	5075.26
809.909	5083.59
810.092	5070.99
810.276	5040
810.459	5031.66
810.642	5052.59
810.825	4965.6
811.008	5009.58
811.191	4852.06
811.374	4905.73
811.557	4896.62
811.74	4912.9
811.923	4824.74
812.106	4789.67
812.289	4813.89
812.472	4706.56
812.654	4710.24
812.837	4666.26
813.02	4612.2
813.203	4516.88
813.386	4378.15
813.569	4359.36
813.751	4257.84
813.934	4291.94
814.117	4219.48
814.3	4169.88
814.482	4081.14
814.665	4011.97
814.848	3973.42
815.03	3933.12
815.213	3878.29
815.396	3829.46
815.578	3807.76
815.761	3731.62
815.943	3781.99
816.126	3632.42
816.309	3628.35
816.491	3523.54
816.674	3400.31
816.856	3490.6
817.039	3510.94
817.221	3518.5
817.403	3541.17
817.586	3529.93
817.768	3563.64
817.951	3417.56
818.133	3401.09
818.315	3449.91
818.498	3499.9
818.68	3561.32
818.862	3533.22
819.045	3546.01
819.227	3580.11
819.409	3522.95
819.591	3519.08
819.774	3562.48
819.956	3511.33
820.138	3577.2
820.32	3617.5
820.502	3732.78
820.684	3822.29
820.866	3811.64
821.048	3867.05
821.231	3905.99
821.413	3916.26
821.595	3876.93
821.777	3842.64
821.959	3833.92
822.141	3974.39
822.323	3726.78
822.505	3622.15
822.686	3546.59
822.868	3335.21
823.05	3198.43
823.232	3113.37
823.414	3023.09
823.596	3131.97
823.778	3100.59
823.96	3185.25
824.141	3180.99
824.323	3267.79
824.505	3364.08
824.687	3474.13
824.868	3531.67
825.05	3628.74
825.232	3736.27
825.413	3792.07
825.595	3774.05
825.777	3662.06
825.958	3737.24
826.14	3701.98
826.321	3780.06
826.503	3717.86
826.685	3757.97
826.866	3786.84
827.048	3774.83
827.229	3683.57
827.411	3614.02
827.592	3569.84
827.773	3569.26
827.955	3449.72
828.136	3419.88
828.318	3430.73
828.499	3445.07
828.68	3368.34
828.862	3377.84
829.043	3372.41
829.224	3365.63
829.406	3354.2
829.587	3335.21
829.768	3382.68
829.949	3359.04
830.131	3392.56
830.312	3401.28
830.493	3375.13
830.674	3369.89
830.855	3342.77
831.036	3387.91
831.218	3453.01
831.399	3462.31
831.58	3377.45
831.761	3405.35
831.942	3390.62
832.123	3417.75
832.304	3292.01
832.485	3315.06
832.666	3342.58
832.847	3391.98
833.028	3382.68
833.209	3330.56
833.389	3337.54
833.57	3232.91
833.751	3265.85
833.932	3328.04
834.113	3350.71
834.294	3291.43
834.475	3381.91
834.655	3417.17
834.836	3387.91
835.017	3392.17
835.198	3333.86
835.378	3342.38
835.559	3485.56
835.74	3387.52
835.92	3401.09
836.101	3341.8
836.281	3442.36
836.462	3437.51
836.643	3451.07
836.823	3462.7
837.004	3438.48
837.184	3446.42
837.365	3498.93
837.545	3443.13
837.726	3372.03
837.906	3494.67
838.087	3420.46
838.267	3423.56
838.448	3420.85
838.628	3441.58
838.808	3414.26
838.989	3457.86
839.169	3332.11
839.349	3461.34
839.53	3461.15
839.71	3485.75
839.89	3392.37
840.07	3437.51
840.251	3410.58
840.431	3441.77
840.611	3399.15
840.791	3417.17
840.971	3381.52
841.151	3341.03
841.332	3344.32
841.512	3401.47
841.692	3320.1
841.872	3406.51
842.052	3335.79
842.232	3376.29
842.412	3306.34
842.592	3295.5
842.772	3363.11
842.952	3341.22
843.132	3304.02
843.312	3333.86
843.492	3249.38
843.672	3329.98
843.851	3227.88
844.031	3262.75
844.211	3234.08
844.391	3254.81
844.571	3272.83
844.751	3280.96
844.93	3216.83
845.11	3256.16
845.29	3248.03
845.47	3290.46
845.649	3276.7
845.829	3295.5
846.009	3291.23
846.188	3274.38
846.368	3246.67
846.547	3215.86
846.727	3268.56
846.907	3194.55
847.086	3219.74
847.266	3266.82
847.445	3226.71
847.625	3198.82
847.804	3183.9
847.984	3162.58
848.163	3183.51
848.343	3145.53
848.522	3120.93
848.701	3192.23
848.881	3131.39
849.06	3148.83
849.239	3106.59
849.419	3113.18
849.598	3014.37
849.777	3010.3
849.957	2943.46
850.136	2898.12
850.315	2883.39
850.494	2846.39
850.674	2898.51
850.853	2950.62
851.032	2919.82
851.211	2914.59
851.39	2952.37
851.569	2878.74
851.748	2851.23
851.927	2971.94
852.107	2903.74
852.286	2893.08
852.465	2868.09
852.644	2933.96
852.823	2950.62
853.002	2895.02
853.181	2916.72
853.359	2897.34
853.538	2820.23
853.717	2871.58
853.896	2751.26
854.075	2614.86
854.254	2605.75
854.433	2481.76
854.611	2494.74
854.79	2394.18
854.969	2513.92
855.148	2544.14
855.327	2530.58
855.505	2582.7
855.684	2628.62
855.863	2611.57
856.041	2627.07
856.22	2720.65
856.399	2674.15
856.577	2795.43
856.756	2759.98
856.934	2910.71
857.113	2880.88
857.291	2771.99
857.47	2772.18
857.648	2787.88
857.827	2803.18
858.005	2827.6
858.184	2730.72
858.362	2864.99
858.541	2776.83
858.719	2726.85
858.898	2748.16
859.076	2700.3
859.254	2822.95
859.433	2732.47
859.611	2713.67
859.789	2651.29
859.967	2770.44
860.146	2752.62
860.324	2632.1
860.502	2709.6
860.68	2618.93
860.859	2641.79
861.037	2661.55
861.215	2645.47
861.393	2651.87
861.571	2682.67
861.749	2657.68
861.927	2671.44
862.105	2676.28
862.283	2633.27
862.461	2603.62
862.639	2560.22
862.817	2615.05
862.995	2613.89
863.173	2584.64
863.351	2613.12
863.529	2624.35
863.707	2622.61
863.885	2639.27
864.063	2485.24
864.241	2542.59
864.418	2626.87
864.596	2579.6
864.774	2542.4
864.952	2572.24
865.129	2492.99
865.307	2474.59
865.485	2425.18
865.663	2524.77
865.84	2405.42
866.018	2397.28
866.196	2197.53
866.373	2218.84
866.551	2134.17
866.728	2133.98
866.906	2153.55
867.084	2186.29
867.261	2263.02
867.439	2242.48
867.616	2280.84
867.794	2322.11
867.971	2302.93
868.149	2312.42
868.326	2375.78
868.503	2371.71
868.681	2364.73
868.858	2348.26
869.035	2319.4
869.213	2362.6
869.39	2323.27
869.567	2392.83
869.745	2336.45
869.922	2355.24
870.099	2369
870.276	2340.71
870.454	2344.78
870.631	2359.5
870.808	2317.46
870.985	2348.85
871.162	2378.1
871.339	2340.32
871.517	2267.28
871.694	2284.52
871.871	2290.92
872.048	2253.52
872.225	2310.1
872.402	2282.58
872.579	2228.92
872.756	2319.2
872.933	2210.7
873.11	2256.62
873.287	2301.57
873.463	2243.06
873.64	2217.49
873.817	2227.17
873.994	2216.71
874.171	2161.88
874.348	2225.04
874.524	2152
874.701	2215.35
874.878	2139.6
875.055	2215.35
875.231	2184.35
875.408	2207.41
875.585	2110.15
875.762	2182.61
875.938	2135.34
876.115	2134.37
876.291	2100.07
876.468	2099.3
876.645	2063.26
876.821	2070.24
876.998	2111.31
877.174	2087.67
877.351	2103.56
877.527	2060.74
877.704	2111.51
877.88	2093.29
878.057	2069.08
878.233	2115.57
878.409	2037.88
878.586	2108.41
878.762	2068.69
878.938	2076.82
879.115	1961.16
879.291	2058.42
879.467	2010.18
879.644	2015.99
879.82	2049.89
879.996	2017.54
880.172	1989.44
880.349	1994.87
880.525	1999.33
880.701	1924.73
880.877	1920.47
881.053	1969.3
881.229	1935.58
881.405	2006.69
881.581	1938.88
881.757	1968.33
881.933	1989.25
882.109	2011.73
882.285	2006.88
882.461	1897.42
882.637	1978.6
882.813	1943.53
882.989	1980.53
883.165	2036.53
883.341	1915.43
883.517	1988.48
883.693	2004.17
883.869	2009.59
884.044	1949.34
884.22	1968.52
884.396	2001.46
884.572	1986.35
884.747	2008.82
884.923	1990.41
885.099	2030.91
885.275	2006.3
885.45	1950.11
885.626	1935.39
885.801	1922.8
885.977	1951.47
886.153	1878.04
886.328	1981.31
886.504	1928.41
886.679	1961.74
886.855	1900.52
887.03	1925.31
887.206	1997
887.381	1962.51
887.557	1956.7
887.732	1982.08
887.908	1958.45
888.083	1962.32
888.258	1946.82
888.434	1911.75
888.609	1932.87
888.784	1989.25
888.96	1966.97
889.135	1935
889.31	1923.57
889.485	1932.29
889.661	1959.41
889.836	1947.79
890.011	1978.21
890.186	1950.31
890.361	1919.11
890.537	1968.91
890.712	1982.28
890.887	1949.53
891.062	1950.31
891.237	2008.82
891.412	1941.01
891.587	1967.55
891.762	1971.43
891.937	1986.93
892.112	1900.32
892.287	1902.06
892.462	1865.83
892.637	1876.49
892.812	1821.47
892.987	1847.82
893.161	1798.99
893.336	1814.88
893.511	1823.6
893.686	1825.34
893.861	1809.84
894.035	1795.5
894.21	1799.57
894.385	1757.34
894.56	1764.12
894.734	1722.66
894.909	1674.02
895.084	1650.97
895.258	1649.61
895.433	1647.87
895.608	1624.23
895.782	1546.35
895.957	1569.98
896.131	1586.06
896.306	1488.61
896.48	1471.17
896.655	1490.35
896.829	1381.27
897.004	1412.08
897.178	1424.09
897.353	1377.78
897.527	1437.27
897.701	1420.6
897.876	1376.62
898.05	1485.9
898.224	1442.5
898.399	1438.82
898.573	1398.32
898.747	1246.23
898.921	1261.34
899.096	1145.29
899.27	1170.48
899.444	1192.76
899.618	1268.9
899.792	1304.74
899.967	1296.8
900.141	1344.65
900.315	1226.47
900.489	1221.82
900.663	1227.24
900.837	1216.59
901.011	1200.89
901.185	1312.88
901.359	1242.36
901.533	1252.43
901.707	1263.67
901.881	1225.89
902.055	1199.93
902.229	1244.49
902.403	1343.1
902.576	1256.89
902.75	1268.71
902.924	1386.12
903.098	1347.56
903.272	1427.58
903.446	1472.14
903.619	1431.65
903.793	1494.42
903.967	1484.35
904.14	1543.44
904.314	1507.6
904.488	1503.14
904.661	1513.41
904.835	1504.3
905.009	1538.79
905.182	1557.58
905.356	1546.93
905.529	1511.66
905.703	1467.68
905.876	1492.1
906.05	1450.63
906.223	1361.51
906.397	1312.1
906.57	1298.74
906.744	1260.18
906.917	1220.27
907.09	1252.82
907.264	1242.36
907.437	1193.14
907.61	1129.79
907.784	1172.8
907.957	1200.31
908.13	1120.29
908.304	1142.96
908.477	1077.48
908.65	1096.85
908.823	1052.48
908.996	1144.71
909.17	1090.46
909.343	1113.32
909.516	1104.41
909.689	1082.51
909.862	1061.2
910.035	1083.1
910.208	1043.76
910.381	1053.26
910.554	1148
910.727	1107.12
910.9	1055.78
911.073	1097.05
911.246	1167.18
911.419	1155.36
911.592	1130.95
911.765	1074.76
911.938	1091.81
912.11	1115.26
912.283	1136.96
912.456	1135.21
912.629	1091.81
912.802	1029.43
912.974	1017.42
913.147	950.96
913.32	888.96
913.493	919.38
913.665	922.87
913.838	930.42
914.01	945.53
914.183	1004.63
914.356	1025.55
914.528	1049.96
914.701	1080.96
914.873	1040.66
915.046	949.02
915.218	887.8
915.391	838.39
915.563	826.77
915.736	880.44
915.908	946.5
916.081	967.82
916.253	974.98
916.425	986.8
916.598	1005.79
916.77	962.2
916.942	940.69
917.115	857.38
917.287	961.42
917.459	850.41
917.632	862.22
917.804	834.52
917.976	941.66
918.148	929.07
918.32	929.07
918.493	950.57
918.665	995.13
918.837	956.58
919.009	1017.8
919.181	1035.82
919.353	982.93
919.525	983.9
919.697	983.9
919.869	975.76
920.041	1060.62
920.213	1102.08
920.385	1056.75
920.557	1015.67
920.729	1011.8
920.901	1029.23
921.073	966.07
921.244	988.16
921.416	1042.6
921.588	967.82
921.76	944.95
921.932	1018.58
922.103	971.88
922.275	1001.72
922.447	973.24
922.619	921.12
922.79	966.27
922.962	897.49
923.134	969.17
923.305	918.99
923.477	869.97
923.648	844.98
923.82	897.1
923.991	838.2
924.163	812.62
924.335	857.19
924.506	789.76
924.677	925.39
924.849	829.29
925.02	838.59
925.192	884.5
925.363	865.52
925.535	865.13
925.706	839.75
925.877	904.65
926.049	827.54
926.22	886.25
926.391	864.55
926.562	895.74
926.734	825.22
926.905	884.31
927.076	818.05
927.247	814.56
927.419	768.64
927.59	724.86
927.761	748.69
927.932	715.56
928.103	714.59
928.274	670.8
928.445	639.8
928.616	656.08
928.787	647.16
928.958	668.28
929.129	626.82
929.3	602.8
929.471	538.86
929.642	523.55
929.813	441.02
929.984	569.67
930.155	469.5
930.326	508.83
930.496	445.47
930.667	388.32
930.838	434.62
931.009	374.95
931.18	381.15
931.35	356.35
931.521	383.67
931.692	328.64
931.863	265.68
932.033	300.36
932.204	302.49
932.374	296.09
932.545	242.62
932.716	322.64
932.886	281.56
933.057	218.79
933.227	218.21
933.398	288.54
933.568	161.05
933.739	130.05
933.909	131.22
934.08	195.35
934.25	114.94
934.421	138.58
934.591	196.7
934.761	170.55
934.932	162.6
935.102	208.52
935.272	152.53
935.443	154.46
935.613	157.37
935.783	175.58
935.953	133.93
936.123	303.65
936.294	152.72
936.464	163.57
936.634	179.65
936.804	133.15
936.974	116.49
937.144	171.71
937.314	154.66
937.484	147.1
937.655	141.87
937.825	208.33
937.995	141.48
938.165	203.87
938.334	171.13
938.504	243.59
938.674	237.97
938.844	236.61
939.014	302.49
939.184	305.78
939.354	363.13
939.524	341.24
939.694	289.12
939.863	281.56
940.033	301.52
940.203	323.03
940.373	289.89
940.542	320.31
940.712	294.74
940.882	320.7
941.051	299.78
941.221	314.69
941.391	302.29
941.56	297.45
941.73	270.33
941.899	393.36
942.069	287.57
942.238	297.06
942.408	267.42
942.577	279.82
942.747	217.05
942.916	200.38
943.086	206.39
943.255	266.64
943.425	264.32
943.594	210.65
943.763	143.23
943.933	153.69
944.102	128.12
944.271	196.7
944.441	217.05
944.61	200.96
944.779	220.53
944.948	299.39
945.117	193.6
945.287	200
945.456	157.95
945.625	172.87
945.794	215.69
945.963	182.17
946.132	200.77
946.301	160.86
946.47	214.91
946.639	152.72
946.808	188.18
946.977	242.23
947.146	256.18
947.315	209.3
947.484	210.26
947.653	195.54
947.822	175.97
947.991	180.23
948.16	274.98
948.329	249.59
948.498	212.2
948.666	209.88
948.835	237.97
949.004	170.93
949.173	156.21
949.341	206.39
949.51	245.14
949.679	193.6
949.847	206.58
950.016	255.6
950.185	266.45
950.353	196.9
950.522	218.4
950.69	262.96
950.859	188.37
951.028	274.2
951.196	239.71
951.365	198.25
951.533	189.15
951.701	200.19
951.87	192.63
952.038	129.08
952.207	201.74
952.375	263.16
952.543	185.66
952.712	190.5
952.88	173.45
953.048	276.91
953.217	207.16
953.385	212.2
953.553	269.55
953.721	177.52
953.89	196.51
954.058	144.97
954.226	167.83
954.394	206.97
954.562	143.81
954.73	194.96
954.898	170.93
955.067	224.21
955.235	168.41
955.403	228.67
955.571	247.08
955.739	233.71
955.907	155.43
956.075	184.5
956.243	162.8
956.41	211.62
956.578	144.78
956.746	164.15
956.914	178.3
957.082	223.25
957.25	258.12
957.418	157.18
957.585	229.25
957.753	262.58
957.921	182.17
958.089	200.38
958.256	236.42
958.424	229.06
958.592	187.6
958.759	184.69
958.927	216.46
959.095	157.37
959.262	186.43
959.43	198.25
959.597	172.48
959.765	183.14
959.932	176.75
960.1	225.18
960.267	175
960.435	218.4
960.602	260.44
960.77	183.53
960.937	187.4
961.104	223.83
961.272	172.68
961.439	199.8
961.606	218.79
961.774	225.38
961.941	175.39
962.108	198.06
962.275	184.11
962.443	260.25
962.61	232.74
962.777	268.97
962.944	241.65
963.111	212.4
963.278	250.76
963.446	254.05
963.613	224.99
963.78	244.56
963.947	233.32
964.114	230.8
964.281	311.98
964.448	235.26
964.615	199.22
964.782	230.8
964.949	254.63
965.116	247.27
965.282	256.18
965.449	229.06
965.616	208.52
965.783	237.39
965.95	217.63
966.117	161.25
966.283	226.93
966.45	260.83
966.617	248.82
966.784	255.21
966.95	274.01
967.117	268.97
967.284	215.69
967.45	245.33
967.617	291.25
967.784	281.37
967.95	297.64
968.117	267.03
968.283	280.79
968.45	343.56
968.616	270.52
968.783	300.74
968.949	275.36
969.116	292.99
969.282	286.79
969.449	283.89
969.615	266.84
969.781	199.61
969.948	285.63
970.114	230.03
970.28	300.36
970.447	252.31
970.613	306.56
970.779	263.54
970.945	281.37
971.112	289.89
971.278	264.9
971.444	266.84
971.61	303.84
971.776	251.34
971.942	282.73
972.108	275.36
972.275	275.17
972.441	280.79
972.607	329.42
972.773	249.21
972.939	274.78
973.105	227.9
973.271	208.33
973.437	241.84
973.602	204.45
973.768	250.37
973.934	215.11
974.1	239.52
974.266	164.54
974.432	242.23
974.598	223.25
974.763	251.14
974.929	218.4
975.095	269.55
975.261	194.18
975.426	173.65
975.592	208.52
975.758	295.51
975.923	177.71
976.089	201.93
976.255	234.68
976.42	243.78
976.586	243.98
976.751	216.27
976.917	293.19
977.082	222.47
977.248	167.64
977.413	178.1
977.579	189.15
977.744	222.28
977.91	188.18
978.075	197.28
978.24	224.02
978.406	219.95
978.571	183.14
978.736	190.5
978.902	244.17
979.067	177.33
979.232	175
979.397	214.53
979.563	275.36
979.728	169.77
979.893	219.76
980.058	218.4
980.223	235.84
980.388	203.29
980.554	224.6
980.719	173.84
980.884	235.84
981.049	254.63
981.214	201.55
981.379	215.5
981.544	205.42
981.709	203.87
981.874	221.89
982.039	205.81
982.204	238.16
982.368	221.89
982.533	184.3
982.698	222.08
982.863	246.49
983.028	199.8
983.193	232.55
983.357	188.95
983.522	219.18
983.687	199.22
983.852	194.38
984.016	208.33
984.181	207.75
984.346	265.09
984.51	252.69
984.675	214.53
984.839	237.39
985.004	227.7
985.168	264.32
985.333	209.68
985.498	197.48
985.662	260.83
985.827	231.19
985.991	187.21
986.155	190.11
986.32	226.15
986.484	252.5
986.649	217.82
986.813	167.06
986.977	203.68
987.142	218.98
987.306	171.32
987.47	181.01
987.634	193.41
987.799	204.26
987.963	190.89
988.127	238.16
988.291	253.66
988.455	213.75
988.62	192.05
988.784	224.99
988.948	243.98
989.112	178.68
989.276	192.63
989.44	206.39
989.604	184.69
989.768	179.26
989.932	253.47
990.096	188.95
990.26	158.34
990.424	136.25
990.588	182.56
990.752	238.75
990.915	232.93
991.079	166.09
991.243	200
991.407	200.38
991.571	180.43
991.734	192.05
991.898	218.01
992.062	261.61
992.226	183.33
992.389	143.03
992.553	118.62
992.717	149.04
992.88	162.6
993.044	173.26
993.207	171.51
993.371	192.05
993.535	204.45
993.698	200
993.862	200.77
994.025	215.3
994.189	183.14
994.352	169.19
994.515	182.75
994.679	203.29
994.842	149.62
995.006	217.05
995.169	163.57
995.332	163.76
995.496	204.45
995.659	110.29
995.822	160.66
995.985	145.55
996.149	227.9
996.312	150.59
996.475	222.66
996.638	126.37
996.801	186.05
996.964	222.86
997.128	184.3
997.291	130.05
997.454	150.2
997.617	113.97
997.78	192.05
997.943	121.53
998.106	190.31
998.269	136.83
998.432	127.73
998.595	147.49
998.758	95.57
998.92	119.98
999.083	88.59
999.246	146.33
999.409	99.25
999.572	78.32
999.735	128.5
999.897	155.82
1000.06	103.9
1000.223	151.95
1000.386	167.64
1000.548	149.43
1000.711	155.63
1000.874	156.79
1001.036	109.52
1001.199	169.58
1001.361	119.4
1001.524	130.25
1001.687	170.16
1001.849	115.72
1002.012	138.77
1002.174	133.15
1002.337	127.34
1002.499	117.07
1002.661	159.7
1002.824	94.6
1002.986	105.64
1003.149	144.39
1003.311	92.66
1003.473	153.88
1003.636	93.43
1003.798	178.49
1003.96	155.24
1004.123	131.6
1004.285	113
1004.447	93.05
1004.609	98.86
1004.771	169.77
1004.933	73.87
1005.096	104.87
1005.258	51.39
1005.42	94.02
1005.582	161.25
1005.744	132.77
1005.906	66.31
1006.068	116.68
1006.23	66.5
1006.392	48.68
1006.554	88.98
1006.716	155.63
1006.878	131.02
1007.04	72.7
1007.202	94.4
1007.363	125.02
1007.525	138.19
1007.687	143.62
1007.849	155.05
1008.011	72.7
1008.172	80.45
1008.334	85.1
1008.496	128.89
1008.658	66.89
1008.819	89.75
1008.981	47.32
1009.143	71.15
1009.304	85.68
1009.466	137.42
1009.627	129.47
1009.789	210.85
1009.95	118.82
1010.112	89.75
1010.273	88.4
1010.435	97.5
1010.596	107
1010.758	90.72
1010.919	95.18
1011.081	51.97
1011.242	96.92
1011.403	118.82
1011.565	92.66
1011.726	125.98
1011.887	53.72
1012.049	87.62
1012.21	105.45
1012.371	152.72
1012.532	14.97
1012.693	124.82
1012.855	68.05
1013.016	71.93
1013.177	125.79
1013.338	79.87
1013.499	137.61
1013.66	105.64
1013.821	103.9
1013.982	91.11
1014.143	92.08
1014.304	89.56
1014.465	91.11
1014.626	86.85
1014.787	63.6
1014.948	150.4
1015.109	16.32
1015.27	129.86
1015.431	79.87
1015.592	58.56
1015.752	117.07
1015.913	99.44
1016.074	97.5
1016.235	58.17
1016.395	96.73
1016.556	61.27
1016.717	56.04
1016.877	119.59
1017.038	64.95
1017.199	74.06
1017.359	52.75
1017.52	107.77
1017.681	52.36
1017.841	63.99
1018.002	69.02
1018.162	50.62
1018.323	120.95
1018.483	57.4
1018.644	79.48
1018.804	35.31
1018.964	48.1
1019.125	45.39
1019.285	65.53
1019.446	37.05
1019.606	42.87
1019.766	24.85
1019.926	91.5
1020.087	77.74
1020.247	30.47
1020.407	90.33
1020.567	108.74
1020.728	69.99
1020.888	18.07
1021.048	74.25
1021.208	27.56
1021.368	52.36
1021.528	73.67
1021.688	69.6
1021.848	86.07
1022.008	56.62
1022.168	59.14
1022.328	62.82
1022.488	69.8
1022.648	39.19
1022.808	56.62
1022.968	72.7
1023.128	49.07
1023.288	36.47
1023.448	52.17
1023.608	66.7
1023.767	66.89
1023.927	53.14
1024.087	44.22
1024.247	43.06
1024.406	53.33
1024.566	1.6
1024.726	9.93
1024.885	49.07
1025.045	66.89
1025.205	54.49
1025.364	55.85
1025.524	72.9
1025.683	39.57
1025.843	58.56
1026.003	36.09
1026.162	111.07
1026.321	87.23
1026.481	44.03
1026.64	39.38
1026.8	79.87
1026.959	43.06
1027.119	70.77
1027.278	26.59
1027.437	43.64
1027.597	33.76
1027.756	55.65
1027.915	82.39
1028.074	80.26
1028.234	21.55
1028.393	72.51
1028.552	34.34
1028.711	-15.45
1028.87	79.29
1029.03	18.07
1029.189	24.27
1029.348	-11.19
1029.507	19.04
1029.666	29.3
1029.825	18.65
1029.984	18.07
1030.143	34.54
1030.302	25.24
1030.461	1.02
1030.62	57.4
1030.779	63.02
1030.938	0.24
1031.097	2.18
1031.255	56.62
1031.414	98.86
1031.573	79.48
1031.732	6.25
1031.891	29.3
1032.049	75.8
1032.208	50.23
1032.367	-7.12
1032.525	31.82
1032.684	33.18
1032.843	22.72
1033.001	8.38
1033.16	181.01
1033.319	81.03
1033.477	52.55
1033.636	8.77
1033.794	-2.66
1033.953	81.42
1034.111	73.28
1034.27	11.48
1034.428	59.34
1034.587	-4.02
1034.745	49.84
1034.903	49.07
1035.062	40.93
1035.22	17.49
1035.378	66.89
1035.537	33.95
1035.695	71.15
1035.853	26.01
1036.011	51.39
1036.17	44.61
1036.328	-21.26
1036.486	40.93
1036.644	44.42
1036.802	-67.57
1036.96	5.47
1037.119	39.38
1037.277	20.97
1037.435	0.24
1037.593	26.2
1037.751	23.88
1037.909	56.24
1038.067	56.24
