Data from calibration2_FLMT105791__0__17-17-42-084.txt Node

Date: Mon Mar 20 17:17:42 GMT 2023
User: antho
Spectrometer: FLMT10579
Trigger mode: 0
Integration Time (sec): 1.000000E-1
Scans to average: 10
Electric dark correction enabled: true
Nonlinearity correction enabled: false
Boxcar width: 0
XAxis mode: Wavelengths
Number of Pixels in Spectrum: 3648
>>>>>Begin Spectral Data<<<<<
345.248	-169.06
345.464	-169.06
345.681	-169.06
345.898	-153.95
346.114	-165.19
346.331	-32.66
346.548	21.01
346.764	-16.19
346.981	8.8
347.197	-13.68
347.414	9.57
347.631	-16.39
347.847	69.83
348.064	1.82
348.28	33.79
348.497	-47.58
348.713	-18.33
348.93	22.36
349.146	81.26
349.363	72.74
349.579	107.61
349.796	84.94
350.012	99.09
350.229	130.86
350.445	130.47
350.661	91.14
350.878	110.71
351.094	139.38
351.311	127.18
351.527	143.07
351.743	122.34
351.96	148.1
352.176	150.82
352.392	150.23
352.609	167.48
352.825	111.49
353.041	115.94
353.257	146.36
353.474	157.98
353.69	146.55
353.906	138.42
354.122	105.29
354.339	192.08
354.555	166.7
354.771	124.27
354.987	220.37
355.203	200.42
355.42	139.97
355.636	128.92
355.852	105.67
356.068	163.8
356.284	109.35
356.5	198.67
356.716	161.47
356.932	161.47
357.148	164.57
357.364	124.27
357.58	186.47
357.796	212.43
358.012	206.62
358.228	182.4
358.444	101.02
358.66	208.94
358.876	157.98
359.092	139.58
359.308	164.57
359.524	186.66
359.74	195.18
359.956	195.57
360.172	219.02
360.388	221.53
360.604	201.97
360.819	279.85
361.035	198.87
361.251	208.75
361.467	161.47
361.683	229.09
361.898	210.68
362.114	224.63
362.33	226.38
362.546	268.61
362.762	201.97
362.977	215.14
363.193	201.97
363.409	271.52
363.624	204.48
363.84	227.54
364.056	204.68
364.271	259.51
364.487	266.29
364.703	253.7
364.918	215.53
365.134	225.41
365.35	237.61
365.565	369.56
365.781	276.75
365.996	324.03
366.212	358.9
366.427	340.11
366.643	289.73
366.858	298.65
367.074	287.02
367.289	372.46
367.505	433.69
367.72	268.81
367.936	324.22
368.151	372.46
368.367	353.09
368.582	312.98
368.798	331
369.013	363.36
369.228	330.42
369.444	326.35
369.659	394.16
369.874	393.39
370.09	423.22
370.305	322.09
370.52	344.95
370.736	417.99
370.951	334.88
371.166	366.26
371.381	397.65
371.597	401.91
371.812	307.17
372.027	328.68
372.242	338.75
372.458	411.79
372.673	318.99
372.888	339.72
373.103	362
373.318	407.14
373.533	357.16
373.749	320.54
373.964	251.37
374.179	345.53
374.394	274.81
374.609	379.44
374.824	270.36
375.039	355.99
375.254	309.5
375.469	405.4
375.684	342.43
375.899	417.61
376.114	382.54
376.329	392.81
376.544	412.37
376.759	420.32
376.974	379.63
377.189	397.84
377.404	393.19
377.619	461.2
377.834	390.68
378.049	434.85
378.264	428.07
378.478	525.33
378.693	482.71
378.908	530.37
379.123	502.47
379.338	489.1
379.553	462.94
379.767	446.86
379.982	438.34
380.197	436.01
380.412	439.31
380.626	508.67
380.841	575.32
381.056	539.28
381.271	579.38
381.485	472.44
381.7	442.02
381.915	487.55
382.129	428.46
382.344	419.35
382.559	411.99
382.773	436.79
382.988	330.23
383.202	382.54
383.417	337.98
383.632	443.18
383.846	350.57
384.061	353.09
384.275	364.13
384.49	443.37
384.704	496.27
384.919	492.2
385.133	516.61
385.348	546.84
385.562	491.04
385.777	557.88
385.991	486
386.206	507.7
386.42	469.92
386.634	546.64
386.849	554.2
387.063	586.36
387.277	533.85
387.492	535.99
387.706	514.48
387.92	507.5
388.135	583.84
388.349	572.41
388.563	535.99
388.778	557.49
388.992	590.04
389.206	619.3
389.42	665.02
389.635	652.62
389.849	694.66
390.063	734
390.277	734.19
390.491	799.48
390.706	717.91
390.92	761.7
391.134	795.41
391.348	821.18
391.562	742.33
391.776	803.74
391.99	812.85
392.205	850.44
392.419	758.02
392.633	730.31
392.847	751.82
393.061	617.36
393.275	647.58
393.489	459.84
393.703	439.89
393.917	463.72
394.131	434.07
394.345	530.17
394.559	639.83
394.773	672.58
394.986	807.62
395.2	815.37
395.414	901.01
395.628	888.8
395.842	955.64
396.056	894.81
396.27	810.53
396.484	847.14
396.697	752.21
396.911	665.99
397.125	583.07
397.339	571.83
397.553	586.75
397.766	740
397.98	830.87
398.194	928.13
398.408	1049.61
398.621	1111.41
398.835	1194.34
399.049	1188.33
399.262	1267.19
399.476	1301.67
399.69	1306.91
399.903	1367.74
400.117	1303.22
400.331	1352.44
400.544	1320.47
400.758	1430.52
400.971	1365.8
401.185	1409.59
401.398	1384.79
401.612	1442.14
401.826	1488.83
402.039	1501.62
402.253	1478.37
402.466	1545.6
402.68	1493.87
402.893	1613.03
403.106	1494.45
403.32	1474.3
403.533	1542.89
403.747	1461.9
403.96	1519.64
404.174	1564.98
404.387	1527
404.6	1579.51
404.814	1588.23
405.027	1531.46
405.24	1539.01
405.454	1509.37
405.667	1621.75
405.88	1571.56
406.094	1603.34
406.307	1604.11
406.52	1553.93
406.733	1519.83
406.947	1508.6
407.16	1617.48
407.373	1631.63
407.586	1616.71
407.799	1659.53
408.012	1624.46
408.226	1645.58
408.439	1733.15
408.652	1677.74
408.865	1784.3
409.078	1879.24
409.291	1849.2
409.504	1775.77
409.717	1877.88
409.93	1851.14
410.143	1737.61
410.357	1597.14
410.57	1537.08
410.783	1581.06
410.996	1669.41
411.209	1725.98
411.421	1863.54
411.634	1909.65
411.847	1910.62
412.06	1950.34
412.273	1970.3
412.486	2008.85
412.699	2015.44
412.912	1991.8
413.125	1957.9
413.338	1937.94
413.55	1977.27
413.763	1934.26
413.976	1984.05
414.189	1961.38
414.402	2004.98
414.615	2105.53
414.827	1987.93
415.04	2049.15
415.253	2004.98
415.466	2092.74
415.678	2125.1
415.891	2075.89
416.104	2035.78
416.316	2078.79
416.529	2105.34
416.742	2189.62
416.954	2193.3
417.167	2123.94
417.38	2077.63
417.592	2072.79
417.805	2023.19
418.017	2004.01
418.23	2051.09
418.442	2056.71
418.655	2087.71
418.868	2074.53
419.08	2120.06
419.293	2178.19
419.505	2193.69
419.718	2170.24
419.93	2211.51
420.142	2157.26
420.355	2134.21
420.567	2116.38
420.78	2178.38
420.992	2173.54
421.205	2317.1
421.417	2290.75
421.629	2316.14
421.842	2344.62
422.054	2332.99
422.266	2376.39
422.479	2337.64
422.691	2220.23
422.903	2224.88
423.115	2176.64
423.328	2173.73
423.54	2219.65
423.752	2218.49
423.964	2313.81
424.177	2318.46
424.389	2308.77
424.601	2434.51
424.813	2376.78
425.025	2421.73
425.238	2413.01
425.45	2357.21
425.662	2357.6
425.874	2574.01
426.086	2385.69
426.298	2432.19
426.51	2387.63
426.722	2408.94
426.934	2415.33
427.146	2423.28
427.358	2369.42
427.57	2366.7
427.782	2309.94
427.994	2299.67
428.206	2323.11
428.418	2425.6
428.63	2494.77
428.842	2518.21
429.054	2422.11
429.266	2403.32
429.478	2334.73
429.69	2282.42
429.902	2270.02
430.114	2280.49
430.325	2108.44
430.537	2011.56
430.749	1923.99
430.961	1844.55
431.173	1905.2
431.384	1978.82
431.596	1954.6
431.808	2227.98
432.02	2545.73
432.231	2724.17
432.443	2881.88
432.655	2780.55
432.867	2698.59
433.078	2760.2
433.29	2760.59
433.502	2854.75
433.713	2931.67
433.925	2953.37
434.136	2870.64
434.348	2616.44
434.56	2597.26
434.771	2780.16
434.983	2715.45
435.194	2838.28
435.406	3004.91
435.617	3015.76
435.829	3125.22
436.04	3096.55
436.252	3064.19
436.463	3220.74
436.675	3271.89
436.886	3378.45
437.098	3359.27
437.309	3390.85
437.521	3299.4
437.732	3200.2
437.943	3148.47
438.155	3179.28
438.366	3063.22
438.578	3180.64
438.789	2995.61
439	3009.36
439.211	3014.21
439.423	3010.91
439.634	3169.79
439.845	3265.69
440.057	3259.88
440.268	3439.29
440.479	3329.05
440.69	3408.09
440.902	3275.38
441.113	3267.82
441.324	3360.82
441.535	3501.67
441.746	3580.14
441.957	3524.54
442.168	3639.62
442.38	3651.44
442.591	3717.32
442.802	3604.75
443.013	3742.89
443.224	3781.45
443.435	3727.58
443.646	3682.25
443.857	3681.28
444.068	3709.95
444.279	3695.42
444.49	3875.61
444.701	3794.04
444.912	4019.17
445.123	3901.37
445.334	3814.96
445.545	3862.43
445.756	3757.81
445.967	3713.63
446.178	3611.72
446.388	3643.11
446.599	3725.45
446.81	3693.1
447.021	3696.97
447.232	3816.13
447.443	3912.03
447.653	3974.81
447.864	4131.16
448.075	4063.93
448.286	4094.35
448.496	4020.34
448.707	4129.22
448.918	3937.22
449.129	4059.47
449.339	4055.79
449.55	4110.23
449.761	4057.54
449.971	4079.43
450.182	4168.36
450.393	4235.78
450.603	4174.56
450.814	4365.01
451.024	4369.27
451.235	4483.39
451.446	4488.24
451.656	4491.72
451.867	4401.05
452.077	4261.94
452.288	4378.57
452.498	4314.64
452.709	4251.86
452.919	4166.03
453.13	4077.49
453.34	4061.41
453.55	3906.02
453.761	4167.39
453.971	4095.51
454.182	4199.75
454.392	4262.71
454.602	4378.96
454.813	4404.15
455.023	4330.14
455.233	4201.3
455.444	4306.31
455.654	4169.91
455.864	4251.86
456.075	4365.4
456.285	4332.08
456.495	4337.69
456.705	4402.99
456.916	4549.46
457.126	4590.53
457.336	4539.77
457.546	4374.12
457.756	4511.1
457.967	4608.55
458.177	4468.47
458.387	4509.16
458.597	4398.34
458.807	4457.62
459.017	4374.31
459.227	4395.43
459.437	4420.62
459.647	4540.93
459.857	4482.62
460.068	4548.1
460.278	4563.22
460.488	4590.73
460.698	4623.66
460.908	4669.78
461.117	4717.05
461.327	4776.14
461.537	4797.46
461.747	4821.67
461.957	4758.71
462.167	4945.28
462.377	4904.02
462.587	4852.29
462.797	4944.51
463.007	4903.24
463.216	5014.65
463.426	5141.55
463.636	4995.47
463.846	4844.54
464.056	4892.97
464.265	4865.27
464.475	4879.6
464.685	5040.8
464.895	4957.68
465.104	4859.45
465.314	5017.55
465.524	4907.89
465.733	4885.03
465.943	5121.21
466.153	5189.02
466.362	5189.21
466.572	5163.25
466.782	5057.27
466.991	5111.13
467.201	5087.5
467.41	4954.39
467.62	5169.06
467.829	5157.83
468.039	5220.41
468.249	5245.79
468.458	5357.77
468.668	5329.68
468.877	5455.03
469.086	5450.58
469.296	5583.49
469.505	5580
469.715	5575.54
469.924	5496.88
470.134	5668.35
470.343	5427.91
470.552	5478.09
470.762	5399.82
470.971	5498.43
471.18	5572.64
471.39	5641.42
471.599	5560.63
471.808	5668.74
472.018	5790.02
472.227	5983.38
472.436	6115.52
472.645	6115.13
472.855	6093.24
473.064	6311.01
473.273	6314.5
473.482	6099.05
473.691	6227.5
473.901	6133.92
474.11	6066.31
474.319	6269.74
474.528	6228.28
474.737	6600.86
474.946	6495.84
475.155	6575.09
475.364	6662.47
475.573	6569.47
475.783	6730.67
475.992	6646
476.201	6643.67
476.41	6724.08
476.619	6580.12
476.828	6607.05
477.037	6621.39
477.245	6621.39
477.454	6777.75
477.663	6955.61
477.872	7070.3
478.081	7274.71
478.29	7093.94
478.499	7318.88
478.708	7408.59
478.917	7416.53
479.125	7184.23
479.334	7317.91
479.543	7427.19
479.752	7570.37
479.961	7510.3
480.169	7780.39
480.378	7779.42
480.587	7962.32
480.796	7885.59
481.004	7848.2
481.213	7966.39
481.422	8001.07
481.63	8169.43
481.839	8229.69
482.048	8417.62
482.256	8335.86
482.465	8492.41
482.674	8468.77
482.882	8443.39
483.091	8529.61
483.299	8347.49
483.508	8620.67
483.716	8700.49
483.925	8717.74
484.134	8433.9
484.342	8672.59
484.551	8677.24
484.759	8564.48
484.967	8969.03
485.176	8865.95
485.384	8922.14
485.593	8678.79
485.801	8684.22
486.01	8382.55
486.218	7945.07
486.426	7674.02
486.635	7400.26
486.843	7601.56
487.051	7833.47
487.26	7934.22
487.468	8116.15
487.676	8382.55
487.885	8633.26
488.093	8851.23
488.301	9137.39
488.509	9157.35
488.717	9297.82
488.926	9318.74
489.134	9174.4
489.342	9178.47
489.55	9107.17
489.758	9312.54
489.967	9631.06
490.175	9628.74
490.383	9918.58
490.591	10097.02
490.799	9983.1
491.007	9918.58
491.215	10022.43
491.423	9902.89
491.631	9903.66
491.839	9855.03
492.047	9810.47
492.255	9612.46
492.463	9638.42
492.671	9429.18
492.879	9762.81
493.087	9883.13
493.295	9929.24
493.503	10097.22
493.711	10319.64
493.919	10342.89
494.127	10251.44
494.334	10202.03
494.542	10256.09
494.75	10576.55
494.958	10423.88
495.166	10715.46
495.374	10763.13
495.581	10793.16
495.789	10776.3
495.997	10858.64
496.205	10413.99
496.412	10601.74
496.62	10824.74
496.828	10635.25
497.035	10836.56
497.243	10924.52
497.451	10883.44
497.658	10970.05
497.866	10797.23
498.074	10991.17
498.281	10808.08
498.489	10826.68
498.696	10602.9
498.904	10470.18
499.112	10541.29
499.319	10784.25
499.527	10897.59
499.734	10973.15
499.942	10851.09
500.149	10897.01
500.357	10933.43
500.564	10705.78
500.771	10700.74
500.979	10481.03
501.186	10432.98
501.394	10692.8
501.601	10346.38
501.808	10442.67
502.016	10519.39
502.223	10477.93
502.43	10432.21
502.638	10531.6
502.845	10711.01
503.052	10905.53
503.26	10860.58
503.467	10960.17
503.674	10993.3
503.881	10919.09
504.089	10840.43
504.296	10826.68
504.503	10656.95
504.71	10641.84
504.917	10744.53
505.125	10852.44
505.332	11022.75
505.539	11022.36
505.746	11301.94
505.953	11351.34
506.16	11458.29
506.367	11485.22
506.574	11701.25
506.781	11655.53
506.988	11549.93
507.195	11450.93
507.402	11368.01
507.609	11390.09
507.816	11198.48
508.023	11207
508.23	11188.6
508.437	10966.37
508.644	11124.47
508.851	11193.44
509.058	11422.64
509.265	11448.6
509.472	11668.51
509.679	11753.95
509.885	11680.91
510.092	11658.05
510.299	11542.96
510.506	11381.37
510.713	11491.42
510.92	11418.96
511.126	11585.97
511.333	11638.28
511.54	11726.63
511.746	11697.96
511.953	11799.87
512.16	11975.6
512.367	11857.8
512.573	11771.77
512.78	11696.41
512.987	11654.17
513.193	11508.86
513.4	11416.44
513.606	11447.05
513.813	11515.64
514.02	11420.9
514.226	11416.25
514.433	11465.65
514.639	11246.53
514.846	11342.82
515.052	11300
515.259	11466.62
515.465	11510.02
515.672	11410.44
515.878	11603.41
516.085	11756.47
516.291	11630.15
516.497	11575.9
516.704	11263.77
516.91	10952.22
517.117	10491.88
517.323	10194.28
517.529	10127.64
517.736	10052.46
517.942	10270.62
518.148	10429.11
518.354	10575.97
518.561	10605.42
518.767	10527.14
518.973	10497.5
519.179	10843.14
519.386	10961.14
519.592	10925.87
519.798	10976.83
520.004	11509.44
520.21	11417.41
520.417	11512.73
520.623	11616.58
520.829	11601.08
521.035	11585.2
521.241	11518.74
521.447	11696.6
521.653	11930.65
521.859	11768.87
522.065	11843.66
522.271	11967.27
522.477	11781.66
522.683	12032.36
522.889	11775.07
523.095	11662.7
523.301	11661.53
523.507	11562.92
523.713	11690.4
523.919	11619.3
524.125	11880.66
524.331	11987.03
524.537	12228.82
524.742	12242.58
524.948	12269.51
525.154	12263.12
525.36	12317.56
525.566	12138.15
525.772	12276.29
525.977	12121.68
526.183	12009.7
526.389	12115.48
526.595	11701.25
526.8	11616.39
527.006	11148.49
527.212	10877.63
527.417	10891.19
527.623	10883.44
527.829	11161.28
528.034	11402.11
528.24	11450.54
528.446	11679.36
528.651	11971.53
528.857	12046.51
529.062	12161.79
529.268	12268.74
529.473	12374.13
529.679	12471.2
529.884	12517.7
530.09	12360.96
530.295	12156.36
530.501	12320.47
530.706	12286.75
530.912	12417.15
531.117	12429.16
531.323	12452.41
531.528	12631.63
531.733	12594.04
531.939	12552.96
532.144	12474.88
532.35	12397.77
532.555	12405.33
532.76	12175.93
532.966	12046.31
533.171	11882.99
533.376	11816.92
533.581	11837.84
533.787	12022.29
533.992	12204.99
534.197	12009.31
534.402	12256.92
534.607	12229.21
534.813	12233.28
535.018	12304
535.223	12438.65
535.428	12405.91
535.633	12537.85
535.838	12688.59
536.043	12777.71
536.249	12910.62
536.454	12730.82
536.659	12780.42
536.864	12694.4
537.069	12537.66
537.274	12471.98
537.479	12421.41
537.684	12302.06
537.889	12334.8
538.094	12683.74
538.299	12539.01
538.504	12718.81
538.708	12604.11
538.913	12804.45
539.118	12759.11
539.323	12703.51
539.528	12507.63
539.733	12393.7
539.938	12482.44
540.142	12384.4
540.347	12293.15
540.552	12223.98
540.757	12056.39
540.962	12132.73
541.166	12074.6
541.371	12054.84
541.576	12144.54
541.781	12126.53
541.985	12541.73
542.19	12304.77
542.395	12710.09
542.599	12630.27
542.804	12499.49
543.008	12647.32
543.213	12551.8
543.418	12341.97
543.622	12569.82
543.827	12384.79
544.031	12574.08
544.236	12655.84
544.44	12773.45
544.645	12842.62
544.849	12745.16
545.054	12840.29
545.258	12865.67
545.463	12863.93
545.667	12635.11
545.872	12901.51
546.076	12794.76
546.281	12722.1
546.485	12652.16
546.689	12857.15
546.894	12795.34
547.098	12830.41
547.302	12744.39
547.507	12764.73
547.711	12816.46
547.915	12741.67
548.119	12565.56
548.324	12605.08
548.528	12645.38
548.732	12694.21
548.936	12833.7
549.141	12756.2
549.345	12759.11
549.549	12802.9
549.753	12931.93
549.957	12933.87
550.161	13013.69
550.366	12937.75
550.57	12881.95
550.774	12836.22
550.978	12868
551.182	12803.48
551.386	12691.88
551.59	12853.47
551.794	12761.63
551.998	12903.45
552.202	12888.73
552.406	12809.29
552.61	12983.28
552.814	12964.1
553.018	12905.97
553.222	12715.91
553.426	12770.15
553.63	12893.38
553.833	12852.5
554.037	12707.19
554.241	12756.79
554.445	12926.31
554.649	12851.53
554.853	12768.22
555.056	12987.15
555.26	13033.26
555.464	12897.25
555.668	12970.68
555.871	12959.06
556.075	12991.61
556.279	12819.37
556.483	12775.19
556.686	12666.69
556.89	12656.23
557.094	12652.74
557.297	12445.63
557.501	12582.03
557.704	12356.31
557.908	12543.28
558.112	12517.31
558.315	12663.79
558.519	12575.83
558.722	12378.98
558.926	12389.83
559.129	12055.03
559.333	12210.81
559.536	12220.69
559.74	12088.16
559.943	12016.09
560.147	12092.62
560.35	12099.98
560.553	12311.17
560.757	12240.64
560.96	12346.04
561.164	12426.64
561.367	12510.15
561.57	12494.65
561.774	12365.42
561.977	12262.34
562.18	12304.39
562.384	12422.96
562.587	12358.64
562.79	12399.13
562.993	12267.19
563.197	12275.71
563.4	12490.38
563.603	12419.86
563.806	12491.55
564.009	12359.99
564.212	12445.63
564.416	12209.64
564.619	12213.52
564.822	12139.51
565.025	12282.88
565.228	12216.81
565.431	12353.6
565.634	12118
565.837	12075.18
566.04	12017.06
566.243	11925.42
566.446	11753.18
566.649	12085.84
566.852	11768.29
567.055	12008.53
567.258	11981.8
567.461	12120.71
567.664	12191.63
567.867	12094.17
568.07	11997.49
568.273	12068.79
568.475	12165.08
568.678	11861.67
568.881	11878.34
569.084	11668.9
569.287	11566.6
569.489	11663.08
569.692	11771.39
569.895	11784.95
570.098	11668.31
570.3	11616.78
570.503	11626.46
570.706	11580.16
570.909	11539.86
571.111	11332.36
571.314	11293.22
571.516	11365.1
571.719	11409.86
571.922	11376.53
572.124	11514.09
572.327	11577.45
572.529	11597.98
572.732	11632.47
572.935	11674.71
573.137	11932.97
573.34	11671.41
573.542	11835.71
573.745	11760.92
573.947	11795.41
574.15	11715.98
574.352	11643.9
574.554	11874.85
574.757	11643.32
574.959	11508.47
575.162	11680.33
575.364	11383.12
575.566	11587.52
575.769	11368.39
575.971	11492.97
576.173	11160.89
576.376	11319.38
576.578	11517.19
576.78	11483.48
576.982	11354.83
577.185	11431.17
577.387	11463.91
577.589	11547.8
577.791	11467.2
577.993	11529.98
578.196	11490.26
578.398	11292.64
578.6	11248.46
578.802	11240.71
579.004	11153.14
579.206	11333.91
579.408	11412.95
579.61	11242.26
579.812	11467.2
580.014	11369.75
580.216	11377.5
580.418	11550.13
580.62	11544.51
580.822	11537.34
581.024	11585.39
581.226	11608.64
581.428	11550.9
581.63	11837.46
581.832	11671.8
582.034	11784.76
582.236	11663.86
582.438	11853.54
582.64	12004.66
582.841	11974.82
583.043	12100.76
583.245	11895.19
583.447	11994.39
583.649	12057.75
583.85	11961.26
584.052	12064.53
584.254	11914.95
584.456	11979.47
584.657	11826.61
584.859	12098.63
585.061	11934.72
585.262	11900.04
585.464	11731.28
585.666	11791.15
585.867	11630.53
586.069	11707.06
586.27	11617.36
586.472	11612.13
586.674	11625.88
586.875	11636.73
587.077	11671.41
587.278	11687.69
587.48	11686.72
587.681	11856.25
587.883	11735.35
588.084	11589.07
588.285	11621.04
588.487	11317.83
588.688	11314.92
588.89	11005.5
589.091	10739.68
589.292	10601.35
589.494	10341.53
589.695	10167.94
589.896	10033.67
590.098	10093.15
590.299	10210.17
590.5	10293.87
590.702	10516.29
590.903	10620.53
591.104	10811.56
591.305	10970.63
591.507	10960.56
591.708	10950.67
591.909	10915.99
592.11	10914.44
592.311	11076.8
592.512	10884.22
592.714	10887.32
592.915	11055.69
593.116	10948.35
593.317	11160.31
593.518	11108.58
593.719	11085.52
593.92	11211.85
594.121	11228.51
594.322	11105.87
594.523	11059.75
594.724	10969.47
594.925	10953.39
595.126	10811.37
595.327	10928.39
595.528	11024.49
595.729	10913.47
595.929	10953
596.13	10996.2
596.331	11182.98
596.532	11076.8
596.733	11227.35
596.934	11265.13
597.135	11219.79
597.335	11223.08
597.536	11175.42
597.737	11182.78
597.938	11138.22
598.138	11110.52
598.339	11146.17
598.54	11206.42
598.74	11060.34
598.941	11092.11
599.142	11280.04
599.342	11123.5
599.543	11054.33
599.744	11216.3
599.944	11240.91
600.145	11277.33
600.345	11266.48
600.546	11253.89
600.746	11238.19
600.947	11360.64
601.147	11024.69
601.348	11235.68
601.548	11141.13
601.749	11048.13
601.949	11023.14
602.15	11079.32
602.35	10968.69
602.551	11026.62
602.751	11058.79
602.951	11126.4
603.152	11051.42
603.352	11199.83
603.552	11204.29
603.753	11294.58
603.953	11344.76
604.153	11321.89
604.354	11341.07
604.554	11306.78
604.754	11351.73
604.954	11261.83
605.155	11382.15
605.355	11297.68
605.555	11302.52
605.755	11337.01
605.955	11319.96
606.155	11288.96
606.356	11215.33
606.556	11225.8
606.756	11327.51
606.956	11220.56
607.156	11333.71
607.356	11179.49
607.556	11255.05
607.756	11179.49
607.956	11264.35
608.156	11216.88
608.356	11059.37
608.556	11168.45
608.756	11103.93
608.956	11103.54
609.156	11046.58
609.356	11112.65
609.556	11031.27
609.755	11061.11
609.955	11048.9
610.155	10962.3
610.355	11086.3
610.555	10864.46
610.755	10819.89
610.954	10850.51
611.154	11002.99
611.354	10989.42
611.554	10918.12
611.753	11006.67
611.953	10931.88
612.153	10943.51
612.352	10863.68
612.552	10829.78
612.752	10775.33
612.951	10965.4
613.151	10758.09
613.351	10884.61
613.55	10894.49
613.75	10872.4
613.949	10632.54
614.149	10742.2
614.348	10677.1
614.548	10672.26
614.747	10623.82
614.947	10772.23
615.146	10616.27
615.346	10833.65
615.545	10784.83
615.745	10751.5
615.944	10689.12
616.144	10748.79
616.343	10538.77
616.542	10577.9
616.742	10423.1
616.941	10417.48
617.14	10305.3
617.34	10479.48
617.539	10466.89
617.738	10437.83
617.938	10645.52
618.137	10540.9
618.336	10593.02
618.535	10702.87
618.734	10660.63
618.934	10599.99
619.133	10645.33
619.332	10790.64
619.531	10506.22
619.73	10692.6
619.929	10750.34
620.128	10738.52
620.328	10692.02
620.527	10674.2
620.726	10687.76
620.925	10667.22
621.124	10748.79
621.323	10669.16
621.522	10556.59
621.721	10706.55
621.92	10547.29
622.119	10598.64
622.318	10550.39
622.517	10508.35
622.715	10442.28
622.914	10370.79
623.113	10464.56
623.312	10226.25
623.511	10378.34
623.71	10308.21
623.909	10271.2
624.107	10452.55
624.306	10233.23
624.505	10215.21
624.704	10166.39
624.902	10017.59
625.101	10222.77
625.3	10099.54
625.499	10036.19
625.697	10096.06
625.896	9973.41
626.095	9985.23
626.293	9927.69
626.492	10035.8
626.69	10006.16
626.889	10141.97
627.088	10116.79
627.286	10026.11
627.485	9929.43
627.683	9864.91
627.882	9761.84
628.08	9555.69
628.279	9546.98
628.477	9534.77
628.676	9489.82
628.874	9508.42
629.073	9488.27
629.271	9493.69
629.469	9578.94
629.668	9567.71
629.866	9453.59
630.065	9445.06
630.263	9487.88
630.461	9447.97
630.66	9500.28
630.858	9530.31
631.056	9663.61
631.254	9731.04
631.453	9528.76
631.651	9652.96
631.849	9538.64
632.047	9566.35
632.245	9575.65
632.444	9548.33
632.642	9745.18
632.84	9831.78
633.038	9666.71
633.236	9635.13
633.434	9765.52
633.632	9753.51
633.83	9626.02
634.028	9859.3
634.227	9770.37
634.425	9890.1
634.623	9637.26
634.821	9891.26
635.019	9876.15
635.216	9904.05
635.414	9893.98
635.612	9738.98
635.81	9766.3
636.008	9908.7
636.206	9816.09
636.404	9791.48
636.602	9791.68
636.8	9705.85
636.997	9861.81
637.195	9777.15
637.393	9845.15
637.591	9972.06
637.789	9872.47
637.986	9945.71
638.184	9862.2
638.382	9996.08
638.58	9952.88
638.777	10039.29
638.975	9906.57
639.173	9999.96
639.37	9993.76
639.568	9940.48
639.765	9974.77
639.963	9803.5
640.161	9711.08
640.358	9865.5
640.556	9710.11
640.753	9761.65
640.951	9686.09
641.148	9750.6
641.346	9786.25
641.543	9658.77
641.741	9750.6
641.938	9642.88
642.136	9671.36
642.333	9637.84
642.531	9799.04
642.728	9768.23
642.925	9788.19
643.123	9758.93
643.32	9820.93
643.517	9627.77
643.715	9707.2
643.912	9723.48
644.109	9653.15
644.306	9754.67
644.504	9626.02
644.701	9666.32
644.898	9704.3
645.095	9702.55
645.293	9700.81
645.49	9664.19
645.687	9620.79
645.884	9628.93
646.081	9449.33
646.278	9443.51
646.475	9381.32
646.672	9325.33
646.87	9298.98
647.067	9347.8
647.264	9257.52
647.461	9213.15
647.658	9073.46
647.855	9204.04
648.052	9032.58
648.249	9019.4
648.446	9016.3
648.642	9135.26
648.839	8936.09
649.036	9038.58
649.233	8941.32
649.43	8962.83
649.627	8684.41
649.824	8885.33
650.021	8777.8
650.217	8908.58
650.414	9068.61
650.611	9029.48
650.808	9233.1
651.004	9157.16
651.201	9182.73
651.398	9262.75
651.595	9097.48
651.791	8978.71
651.988	9084.69
652.185	8875.84
652.381	9133.52
652.578	8921.37
652.775	9081.4
652.971	9153.67
653.168	8982.78
653.364	9227.87
653.561	8997.7
653.757	9142.43
653.954	9201.72
654.15	8982.59
654.347	9229.42
654.543	9155.41
654.74	8932.02
654.936	8927.57
655.133	8951.98
655.329	8926.02
655.525	8756.29
655.722	8750.87
655.918	8541.43
656.115	8179.31
656.311	8027.8
656.507	7802.48
656.704	7684.1
656.9	7762.76
657.096	7899.16
657.292	7883.07
657.489	8097.16
657.685	8213.61
657.881	8222.33
658.077	8337.61
658.273	8531.16
658.47	8668.53
658.666	8628.81
658.862	8893.47
659.058	8753.19
659.254	8818.87
659.45	8816.94
659.646	8804.73
659.842	8846.39
660.038	8939
660.234	8810.54
660.43	8909.93
660.626	9020.76
660.822	9003.32
661.018	9042.07
661.214	9026.18
661.41	8907.03
661.606	9021.73
661.802	9133.91
661.998	8997.31
662.194	9036.06
662.39	9062.03
662.586	9102.71
662.781	9052.34
662.977	9193
663.173	8971.55
663.369	9031.03
663.564	9027.54
663.76	9021.73
663.956	9042.07
664.152	8914.97
664.347	8858.01
664.543	9017.27
664.739	8961.08
664.934	8832.82
665.13	8920.2
665.326	8945.58
665.521	9026.96
665.717	8872.15
665.912	8929.89
666.108	8750.29
666.304	8941.32
666.499	8885.52
666.695	8695.46
666.89	8940.16
667.086	8922.33
667.281	8847.55
667.477	8965.93
667.672	8861.11
667.867	8840.19
668.063	8809.77
668.258	8734.21
668.454	8808.6
668.649	8772.96
668.844	8851.81
669.04	8849.87
669.235	8848.32
669.43	8823.33
669.626	8703.01
669.821	8806.09
670.016	8717.74
670.211	8770.24
670.407	8604.59
670.602	8792.33
670.797	8648.18
670.992	8827.98
671.187	8623.58
671.382	8804.54
671.578	8561.38
671.773	8640.82
671.968	8499.97
672.163	8588.31
672.358	8589.86
672.553	8478.07
672.748	8586.96
672.943	8651.09
673.138	8587.73
673.333	8672.98
673.528	8481.17
673.723	8541.23
673.918	8511.98
674.113	8542.2
674.308	8650.89
674.503	8529.22
674.698	8660.39
674.892	8394.76
675.087	8517.79
675.282	8495.51
675.477	8449.4
675.672	8521.47
675.867	8403.87
676.061	8457.15
676.256	8398.83
676.451	8466.45
676.646	8510.62
676.84	8394.76
677.035	8331.99
677.23	8406.58
677.424	8385.65
677.619	8432.54
677.814	8466.83
678.008	8391.85
678.203	8358.34
678.397	8293.24
678.592	8323.27
678.787	8424.21
678.981	8334.51
679.176	8372.87
679.37	8351.36
679.565	8265.34
679.759	8342.26
679.954	8295.56
680.148	8292.46
680.342	8370.54
680.537	8262.24
680.731	8223.49
680.926	8349.62
681.12	8218.45
681.314	8218.26
681.509	8181.64
681.703	8219.23
681.897	8106.85
682.092	8139.4
682.286	8215.54
682.48	8193.26
682.674	8168.27
682.869	8110.15
683.063	8190.36
683.257	8163.43
683.451	8005.13
683.645	8080.31
683.839	8044.47
684.034	7929.57
684.228	7944.3
684.422	7857.89
684.616	7901.67
684.81	7928.02
685.004	7894.7
685.198	7884.62
685.392	7852.85
685.586	7908.07
685.78	7821.66
685.974	7804.41
686.168	7818.56
686.362	7753.26
686.556	7320.63
686.75	7066.62
686.944	6584.77
687.138	6178.49
687.331	5823.35
687.525	5616.81
687.719	5542.22
687.913	5579.03
688.107	5688.69
688.301	5711.94
688.494	5808.04
688.688	5736.16
688.882	5679.78
689.076	5663.89
689.269	5739.07
689.463	5892.52
689.657	5835.55
689.85	5856.28
690.044	5937.27
690.238	5998.3
690.431	6068.44
690.625	6075.61
690.818	6210.07
691.012	6193.4
691.205	6396.84
691.399	6337.17
691.593	6364.68
691.786	6436.56
691.98	6519.48
692.173	6589.42
692.366	6616.16
692.56	6685.72
692.753	6592.33
692.947	6615.77
693.14	6564.82
693.333	6602.79
693.527	6546.02
693.72	6618.29
693.914	6567.14
694.107	6473.56
694.3	6443.34
694.493	6360.61
694.687	6561.91
694.88	6425.32
695.073	6575.09
695.266	6525.49
695.46	6515.99
695.653	6572.96
695.846	6559.39
696.039	6538.27
696.232	6570.82
696.425	6705.87
696.618	6689.79
696.812	6824.83
697.005	6831.22
697.198	7017.02
697.391	6873.26
697.584	6985.64
697.777	6991.06
697.97	6878.69
698.163	6930.61
698.356	6816.3
698.549	6929.26
698.742	6868.61
698.935	6746.55
699.127	6735.9
699.32	6613.84
699.513	6692.69
699.706	6583.03
699.899	6689.79
700.092	6599.89
700.285	6538.66
700.477	6405.36
700.67	6523.36
700.863	6502.82
701.056	6565.01
701.248	6518.51
701.441	6549.12
701.634	6498.56
701.826	6568.11
702.019	6381.53
702.212	6440.04
702.404	6320.31
702.597	6369.13
702.79	6370.1
702.982	6363.32
703.175	6479.96
703.367	6459.03
703.56	6475.11
703.752	6552.42
703.945	6549.9
704.137	6529.56
704.33	6552.22
704.522	6596.01
704.715	6566.37
704.907	6545.25
705.1	6649.49
705.292	6580.71
705.484	6542.15
705.677	6559.2
705.869	6574.7
706.061	6593.88
706.254	6625.07
706.446	6502.04
706.638	6545.25
706.831	6564.04
707.023	6535.56
707.215	6643.87
707.407	6614.42
707.599	6540.99
707.792	6652.2
707.984	6601.63
708.176	6592.52
708.368	6549.9
708.56	6585.55
708.752	6555.52
708.944	6519.87
709.136	6532.66
709.329	6542.34
709.521	6668.67
709.713	6524.13
709.905	6606.67
710.097	6638.64
710.289	6442.56
710.481	6489.64
710.672	6544.86
710.864	6518.12
711.056	6531.69
711.248	6453.41
711.44	6497.59
711.632	6392
711.824	6521.42
712.016	6492.55
712.207	6455.16
712.399	6466.78
712.591	6490.42
712.783	6463.49
712.975	6447.21
713.166	6368.55
713.358	6330.58
713.55	6386.96
713.741	6421.06
713.933	6393.55
714.125	6341.62
714.316	6228.67
714.508	6344.14
714.7	6210.26
714.891	6256.76
715.083	6233.9
715.274	6150.01
715.466	6190.5
715.657	6156.4
715.849	6041.89
716.04	6017.09
716.232	5951.8
716.423	5893.29
716.615	5705.36
716.806	5531.95
716.998	5380.44
717.189	5208.78
717.381	5004.57
717.572	4941.22
717.763	4865.85
717.955	4737.98
718.146	4650.01
718.337	4511.1
718.528	4433.02
718.72	4251.67
718.911	4324.71
719.102	4147.82
719.293	4253.61
719.485	4158.67
719.676	4140.65
719.867	4028.67
720.058	4037.58
720.249	4045.14
720.44	4014.72
720.632	4128.06
720.823	4219.12
721.014	4361.33
721.205	4529.12
721.396	4597.31
721.587	4716.86
721.778	4770.52
721.969	4852.09
722.16	4969.5
722.351	5035.18
722.542	5121.98
722.733	5182.63
722.924	5001.28
723.115	5045.84
723.305	4902.08
723.496	4940.83
723.687	4663.96
723.878	4698.06
724.069	4647.3
724.26	4639.94
724.45	4502.38
724.641	4493.27
724.832	4476.8
725.023	4422.36
725.213	4406.67
725.404	4361.14
725.595	4302.24
725.785	4305.92
725.976	4371.21
726.167	4355.91
726.357	4330.53
726.548	4480.87
726.739	4317.93
726.929	4439.41
727.12	4441.93
727.31	4428.37
727.501	4322
727.691	4347.96
727.882	4328.78
728.072	4340.79
728.263	4336.53
728.453	4459.17
728.644	4430.11
728.834	4367.14
729.024	4280.15
729.215	4273.76
729.405	4305.14
729.596	4385.74
729.786	4378.57
729.976	4391.75
730.167	4363.85
730.357	4332.66
730.547	4349.32
730.737	4396.79
730.928	4376.64
731.118	4414.61
731.308	4341.57
731.498	4371.99
731.688	4461.5
731.879	4476.8
732.069	4513.42
732.259	4604.68
732.449	4641.49
732.639	4712.01
732.829	4744.18
733.019	4807.53
733.209	4880.77
733.399	4813.92
733.589	4871.85
733.779	4953.03
733.969	4935.6
734.159	5036.35
734.349	5104.93
734.539	5112.3
734.729	5086.72
734.919	5045.84
735.109	5146.01
735.299	5054.17
735.488	5068.12
735.678	5078
735.868	5041.58
736.058	5028.4
736.248	5006.7
736.437	4890.65
736.627	4890.45
736.817	5073.55
737.007	5005.15
737.196	5074.71
737.386	5021.23
737.576	5007.48
737.765	5028.79
737.955	4996.05
738.144	5144.26
738.334	5068.12
738.524	4936.95
738.713	5032.28
738.903	4978.03
739.092	5025.88
739.282	5044.68
739.471	5016.39
739.661	5013.1
739.85	5016.58
740.04	5023.17
740.229	5068.9
740.419	5065.6
740.608	5079.36
740.797	5007.87
740.987	5116.17
741.176	5073.55
741.365	4999.15
741.555	4942.38
741.744	5065.6
741.933	4992.17
742.123	5022.98
742.312	5046.23
742.501	5086.72
742.69	5054.17
742.88	4934.24
743.069	5098.35
743.258	5022.78
743.447	5117.14
743.636	5050.49
743.825	5040.41
744.014	5021.23
744.204	5105.32
744.393	5007.09
744.582	5081.3
744.771	5101.25
744.96	5074.71
745.149	5081.3
745.338	4969.5
745.527	5059.6
745.716	4980.55
745.905	4994.88
746.094	5068.31
746.283	5072.19
746.471	5012.13
746.66	5054.75
746.849	5037.51
747.038	5085.36
747.227	4966.79
747.416	5015.62
747.604	4977.25
747.793	4981.32
747.982	4972.02
748.171	5016.58
748.359	4995.66
748.548	4954.39
748.737	4952.45
748.926	4954.58
749.114	4805.79
749.303	4918.74
749.491	4887.74
749.68	4800.17
749.869	4924.17
750.057	4817.41
750.246	4837.56
750.434	4824
750.623	4850.35
750.811	4798.62
751	4855.77
751.188	4766.84
751.377	4843.18
751.565	4729.45
751.754	4763.36
751.942	4749.21
752.131	4789.51
752.319	4710.85
752.507	4680.82
752.696	4773.62
752.884	4800.75
753.072	4703.29
753.261	4713.95
753.449	4743.59
753.637	4674.43
753.825	4784.47
754.014	4678.5
754.202	4681.4
754.39	4713.18
754.578	4703.1
754.766	4636.26
754.955	4627.93
755.143	4700.58
755.331	4638
755.519	4644.78
755.707	4626.57
755.895	4580.85
756.083	4615.14
756.271	4556.82
756.459	4542.29
756.647	4626.38
756.835	4520.78
757.023	4530.47
757.211	4520.4
757.399	4520.01
757.587	4520.98
757.775	4476.8
757.963	4414.61
758.151	4465.76
758.339	4436.7
758.526	4387.87
758.714	4393.11
758.902	4265.62
759.09	4139.49
759.278	3907.57
759.465	3623.15
759.653	3115.54
759.841	2852.62
760.028	2456.8
760.216	2156.1
760.404	2002.85
760.591	1660.88
760.779	1372.39
760.967	1232.12
761.154	1033.53
761.342	1099.79
761.529	1051.93
761.717	1156.36
761.905	1148.61
762.092	1227.86
762.28	1194.34
762.467	1146.29
762.655	1093.4
762.842	1083.52
763.029	1099.4
763.217	1160.43
763.404	1141.83
763.592	1192.98
763.779	1170.31
763.966	1177.29
764.154	1242.58
764.341	1327.44
764.528	1349.53
764.716	1420.05
764.903	1485.73
765.09	1581.25
765.277	1637.44
765.465	1823.24
765.652	1879.24
765.839	2010.6
766.026	2155.13
766.213	2252.39
766.4	2319.04
766.588	2514.34
766.775	2589.51
766.962	2708.47
767.149	2814.65
767.336	2990.57
767.523	2969.84
767.71	3116.7
767.897	3282.16
768.084	3338.73
768.271	3388.91
768.458	3474.36
768.645	3604.55
768.832	3519.5
769.019	3568.52
769.206	3591.96
769.392	3726.03
769.579	3776.8
769.766	3788.42
769.953	3729.13
770.14	3821.55
770.327	3780.28
770.513	3844.61
770.7	3961.63
770.887	3824.84
771.073	3840.73
771.26	3881.42
771.447	3831.43
771.634	3814.96
771.82	3980.42
772.007	3797.91
772.193	3864.76
772.38	3895.18
772.567	3892.66
772.753	3851.58
772.94	3931.02
773.126	3912.03
773.313	3938.57
773.499	3898.47
773.686	3915.32
773.872	3824.07
774.059	3897.31
774.245	3835.89
774.432	3831.82
774.618	3750.83
774.804	3794.04
774.991	3781.06
775.177	3856.62
775.363	3795.78
775.55	3771.76
775.736	3758
775.922	3757.61
776.109	3808.76
776.295	3768.85
776.481	3795.4
776.667	3804.5
776.853	3723.32
777.04	3778.93
777.226	3759.75
777.412	3787.45
777.598	3733.4
777.784	3701.82
777.97	3683.22
778.156	3727.97
778.342	3681.86
778.528	3646.98
778.715	3617.54
778.901	3639.62
779.087	3649.7
779.272	3612.89
779.458	3592.54
779.644	3655.12
779.83	3653.38
780.016	3711.5
780.202	3626.25
780.388	3627.22
780.574	3557.28
780.76	3568.71
780.946	3618.5
781.131	3604.55
781.317	3601.07
781.503	3525.89
781.689	3535.97
781.874	3666.94
782.06	3533.06
782.246	3561.35
782.432	3534.03
782.617	3542.94
782.803	3586.92
782.989	3470.67
783.174	3485.79
783.36	3448.98
783.545	3497.61
783.731	3498.96
783.916	3379.03
784.102	3459.44
784.288	3413.13
784.473	3452.27
784.659	3390.46
784.844	3449.94
785.029	3382.52
785.215	3384.26
785.4	3322.46
785.586	3458.28
785.771	3294.36
785.956	3397.44
786.142	3311.61
786.327	3314.71
786.512	3354.81
786.698	3325.17
786.883	3238.95
787.068	3295.72
787.254	3299.98
787.439	3258.33
787.624	3222.87
787.809	3228.1
787.994	3181.02
788.18	3265.5
788.365	3177.92
788.55	3204.85
788.735	3225.78
788.92	3169.2
789.105	3176.95
789.29	3177.34
789.475	3097.52
789.66	3132.97
789.845	3109.14
790.03	3086.47
790.215	3096.16
790.4	3145.76
790.585	3132
790.77	3067.29
790.955	3012.08
791.14	3086.86
791.325	3161.07
791.51	3039.01
791.695	3128.9
791.879	3084.15
792.064	3031.84
792.249	3151.38
792.434	3043.46
792.618	3043.46
792.803	3126.39
792.988	3027.19
793.173	3062.26
793.357	3089.38
793.542	3042.49
793.727	3103.14
793.911	3101.01
794.096	3039.59
794.281	3129.68
794.465	3161.26
794.65	3059.74
794.834	3120.19
795.019	3096.74
795.203	3151.57
795.388	3196.72
795.572	3157
795.757	3128.32
795.941	3132.59
796.126	3086.86
796.31	3001.03
796.494	3068.46
796.679	3064.19
796.863	3061.29
797.048	3173.85
797.232	3097.32
797.416	3156.61
797.601	3076.79
797.785	3154.29
797.969	3166.49
798.153	3095
798.338	3152.74
798.522	3193.42
798.706	3173.08
798.89	3201.17
799.074	3234.5
799.258	3242.05
799.443	3172.5
799.627	3129.49
799.811	3199.43
799.995	3105.46
800.179	3093.26
800.363	3159.71
800.547	3150.02
800.731	3195.75
800.915	3068.65
801.099	3071.56
801.283	3079.5
801.467	3100.62
801.651	3060.51
801.835	3190.9
802.019	3133.75
802.202	3198.65
802.386	3024.28
802.57	3024.09
802.754	3070.2
802.938	3011.11
803.121	3059.16
803.305	3151.38
803.489	3070.78
803.673	3087.06
803.856	3097.52
804.04	3064.19
804.224	3109.34
804.407	3057.02
804.591	3046.37
804.775	3088.41
804.958	3102.17
805.142	3191.1
805.326	3094.03
805.509	3091.9
805.693	3115.92
805.876	3126.39
806.06	3114.37
806.243	3113.6
806.427	3146.34
806.61	3171.53
806.794	3090.35
806.977	3163.39
807.16	3112.44
807.344	3160.1
807.527	3106.43
807.71	3084.73
807.894	3129.68
808.077	3134.72
808.26	3053.92
808.444	3038.04
808.627	3136.27
808.81	3047.92
808.993	3017.5
809.177	3044.24
809.36	3024.09
809.543	3009.36
809.726	2895.63
809.909	2906.29
810.092	2890.98
810.276	2924.7
810.459	2922.56
810.642	2900.09
810.825	2839.83
811.008	2882.85
811.191	2792.75
811.374	2793.72
811.557	2748.77
811.74	2864.83
811.923	2752.84
812.106	2729.01
812.289	2690.84
812.472	2671.08
812.654	2694.91
812.837	2652.48
813.02	2594.55
813.203	2566.07
813.386	2459.51
813.569	2455.83
813.751	2398.28
813.934	2417.85
814.117	2392.47
814.3	2307.42
814.482	2261.3
814.665	2247.55
814.848	2201.24
815.03	2140.99
815.213	2144.28
815.396	2111.73
815.578	2106.69
815.761	2062.91
815.943	2118.9
816.126	2001.68
816.309	2006.33
816.491	1908.3
816.674	1882.34
816.856	1924.57
817.039	1901.9
817.221	1994.51
817.403	1948.21
817.586	1962.93
817.768	1943.17
817.951	1895.32
818.133	1846.88
818.315	1877.1
818.498	1917.21
818.68	1986.18
818.862	1980.76
819.045	1990.25
819.227	1994.51
819.409	1924.57
819.591	1997.23
819.774	1988.51
819.956	1939.49
820.138	2025.71
820.32	2009.05
820.502	2088.68
820.684	2134.21
820.866	2164.43
821.048	2187.1
821.231	2169.66
821.413	2208.61
821.595	2168.11
821.777	2234.76
821.959	2153.77
822.141	2256.07
822.323	2104.95
822.505	2035.98
822.686	1961.19
822.868	1858.89
823.05	1784.49
823.232	1737.99
823.414	1655.26
823.596	1746.71
823.778	1724.04
823.96	1767.06
824.141	1804.25
824.323	1795.15
824.505	1869.94
824.687	1906.36
824.868	1991.22
825.05	2104.37
825.232	2108.05
825.413	2204.73
825.595	2146.22
825.777	2075.31
825.958	2081.31
826.14	2106.31
826.321	2163.27
826.503	2124.52
826.685	2168.31
826.866	2141.18
827.048	2152.03
827.229	2123.36
827.411	2064.65
827.592	1982.89
827.773	1997.42
827.955	1929.8
828.136	1960.42
828.318	1904.23
828.499	1970.1
828.68	1886.4
828.862	1933.1
829.043	1939.3
829.224	1934.84
829.406	1862.19
829.587	1874.97
829.768	1876.72
829.949	1957.7
830.131	1931.55
830.312	1943.56
830.493	1915.08
830.674	1933.87
830.855	1926.12
831.036	1894.35
831.218	1937.75
831.399	1989.48
831.58	1924.38
831.761	1917.21
831.942	1895.9
832.123	1912.17
832.304	1829.05
832.485	1893.96
832.666	1906.36
832.847	1914.69
833.028	1884.47
833.209	1904.03
833.389	1901.32
833.57	1823.44
833.751	1861.41
833.932	1921.28
834.113	1913.33
834.294	1901.13
834.475	1963.32
834.655	1979.21
834.836	1966.81
835.017	1970.1
835.198	1916.82
835.378	1930.19
835.559	1993.74
835.74	1928.45
835.92	1936.78
836.101	1910.82
836.281	1956.54
836.462	1943.17
836.643	1976.5
836.823	2015.63
837.004	1989.86
837.184	2000.52
837.365	2039.46
837.545	1983.28
837.726	1947.82
837.906	2065.81
838.087	1970.68
838.267	1961.19
838.448	1970.88
838.628	1991.22
838.808	1980.56
838.989	2030.55
839.169	1955.18
839.349	2025.13
839.53	2029.2
839.71	2011.37
839.89	1957.51
840.07	2023.77
840.251	1951.12
840.431	2063.1
840.611	1956.15
840.791	1935.23
840.971	2011.56
841.151	1949.76
841.332	1911.59
841.512	2025.71
841.692	1913.33
841.872	1985.8
842.052	1942.98
842.232	1978.63
842.412	1916.43
842.592	1960.22
842.772	1989.67
842.952	1988.12
843.132	1919.15
843.312	1916.82
843.492	1908.88
843.672	1967.97
843.851	1858.12
844.031	1906.36
844.211	1877.1
844.391	1875.94
844.571	1930.58
844.751	1947.82
844.93	1890.86
845.11	1893.38
845.29	1923.02
845.47	1958.48
845.649	1901.71
845.829	1912.75
846.009	1893.77
846.188	1916.63
846.368	1909.46
846.547	1916.63
846.727	1984.05
846.907	1890.47
847.086	1914.11
847.266	1911.4
847.445	1910.04
847.625	1854.44
847.804	1865.09
847.984	1866.64
848.163	1852.69
848.343	1831.19
848.522	1854.24
848.701	1867.42
848.881	1807.74
849.06	1891.25
849.239	1847.46
849.419	1826.73
849.598	1763.18
849.777	1754.66
849.957	1718.42
850.136	1663.98
850.315	1659.33
850.494	1656.04
850.674	1704.48
850.853	1763.76
851.032	1708.93
851.211	1805.42
851.39	1733.73
851.569	1663.4
851.748	1661.66
851.927	1761.05
852.107	1713.97
852.286	1682.97
852.465	1670.76
852.644	1725.79
852.823	1738.38
853.002	1685.29
853.181	1677.93
853.359	1719.97
853.538	1621.36
853.717	1720.94
853.896	1596.56
854.075	1535.53
854.254	1473.14
854.433	1436.72
854.611	1508.6
854.79	1396.22
854.969	1491.93
855.148	1549.67
855.327	1467.13
855.505	1510.92
855.684	1512.28
855.863	1553.93
856.041	1522.16
856.22	1560.33
856.399	1516.15
856.577	1649.64
856.756	1617.29
856.934	1732.57
857.113	1733.73
857.291	1632.21
857.47	1618.45
857.648	1678.51
857.827	1648.87
858.005	1670.96
858.184	1619.42
858.362	1695.37
858.541	1615.16
858.719	1616.71
858.898	1586.48
859.076	1618.45
859.254	1662.63
859.433	1616.51
859.611	1602.76
859.789	1545.99
859.967	1625.43
860.146	1673.48
860.324	1542.31
860.502	1574.28
860.68	1544.44
860.859	1524.1
861.037	1561.49
861.215	1593.07
861.393	1560.91
861.571	1565.56
861.749	1533.2
861.927	1548.9
862.105	1584.93
862.283	1538.63
862.461	1521.97
862.639	1507.63
862.817	1510.73
862.995	1538.82
863.173	1524.48
863.351	1527.97
863.529	1533.01
863.707	1579.31
863.885	1557.23
864.063	1497.75
864.241	1487.28
864.418	1573.11
864.596	1484.77
864.774	1470.04
864.952	1513.83
865.129	1512.47
865.307	1466.94
865.485	1419.09
865.663	1488.83
865.84	1390.99
866.018	1440.2
866.196	1271.64
866.373	1332.67
866.551	1284.62
866.728	1265.06
866.906	1284.62
867.084	1318.34
867.261	1363.67
867.439	1322.02
867.616	1370.65
867.794	1360.19
867.971	1338.68
868.149	1410.95
868.326	1449.12
868.503	1388.09
868.681	1405.14
868.858	1332.09
869.035	1350.89
869.213	1384.02
869.39	1364.06
869.567	1446.02
869.745	1357.67
869.922	1411.34
870.099	1410.95
870.276	1435.36
870.454	1360.19
870.631	1395.64
870.808	1350.31
870.985	1394.09
871.162	1414.82
871.339	1371.42
871.517	1328.99
871.694	1345.27
871.871	1380.53
872.048	1342.56
872.225	1342.75
872.402	1328.41
872.579	1282.49
872.756	1333.26
872.933	1315.04
873.11	1324.54
873.287	1349.34
873.463	1308.65
873.64	1299.54
873.817	1324.34
873.994	1302.84
874.171	1269.9
874.348	1322.79
874.524	1257.11
874.701	1297.8
874.878	1214.49
875.055	1267.96
875.231	1320.27
875.408	1319.31
875.585	1207.9
875.762	1269.9
875.938	1268.54
876.115	1255.18
876.291	1271.84
876.468	1261.96
876.645	1236.19
876.821	1222.63
876.998	1281.91
877.174	1247.81
877.351	1237.74
877.527	1194.73
877.704	1271.84
877.88	1220.49
878.057	1215.65
878.233	1257.31
878.409	1196.86
878.586	1225.53
878.762	1212.55
878.938	1198.02
879.115	1153.07
879.291	1213.71
879.467	1142.61
879.644	1189.88
879.82	1230.18
879.996	1176.32
880.172	1136.8
880.349	1182.52
880.525	1212.36
880.701	1143.77
880.877	1156.36
881.053	1166.63
881.229	1213.52
881.405	1213.13
881.581	1100.37
881.757	1157.14
881.933	1186.78
882.109	1196.28
882.285	1165.86
882.461	1120.33
882.637	1178.45
882.813	1127.11
882.989	1160.43
883.165	1204.99
883.341	1110.06
883.517	1184.85
883.693	1139.31
883.869	1143.77
884.044	1141.45
884.22	1204.61
884.396	1196.86
884.572	1178.65
884.747	1199.76
884.923	1192.21
885.099	1170.9
885.275	1207.13
885.45	1106.57
885.626	1131.95
885.801	1116.65
885.977	1148.23
886.153	1088.55
886.328	1165.28
886.504	1104.25
886.679	1170.12
886.855	1101.73
887.03	1168.38
887.206	1159.66
887.381	1124.4
887.557	1186.2
887.732	1148.42
887.908	1155.01
888.083	1194.34
888.258	1136.8
888.434	1146.87
888.609	1168.76
888.784	1186.4
888.96	1120.52
889.135	1131.37
889.31	1108.12
889.485	1155.98
889.661	1096.69
889.836	1156.75
890.011	1149.58
890.186	1138.54
890.361	1151.71
890.537	1136.21
890.712	1157.72
890.887	1181.16
891.062	1136.02
891.237	1173.03
891.412	1096.88
891.587	1151.91
891.762	1184.07
891.937	1217.39
892.112	1094.95
892.287	1103.47
892.462	1094.17
892.637	1073.25
892.812	1055.81
892.987	1045.93
893.161	1034.11
893.336	1029.27
893.511	1054.84
893.686	1074.6
893.861	1043.22
894.035	1030.23
894.21	1066.27
894.385	982.38
894.56	1003.3
894.734	979.86
894.909	975.79
895.084	953.7
895.258	973.85
895.433	970.56
895.608	907.59
895.782	872.91
895.957	899.65
896.131	892.29
896.306	846.56
896.48	821.76
896.655	857.02
896.829	741.36
897.004	747.75
897.178	780.49
897.353	766.35
897.527	840.94
897.701	791.93
897.876	746.01
898.05	831.26
898.224	797.35
898.399	817.69
898.573	770.23
898.747	674.9
898.921	733.8
899.096	618.91
899.27	632.86
899.444	660.57
899.618	669.28
899.792	673.35
899.967	715.01
900.141	724.5
900.315	652.43
900.489	681.49
900.663	681.68
900.837	661.73
901.011	617.75
901.185	735.93
901.359	701.06
901.533	711.52
901.707	695.25
901.881	703.19
902.055	638.09
902.229	669.48
902.403	719.27
902.576	686.53
902.75	712.3
902.924	787.08
903.098	737.48
903.272	800.84
903.446	811.3
903.619	823.12
903.793	845.21
903.967	814.21
904.14	886.47
904.314	879.31
904.488	855.28
904.661	876.4
904.835	828.93
905.009	896.55
905.182	922.71
905.356	868.26
905.529	843.46
905.703	797.16
905.876	827.77
906.05	783.59
906.223	783.59
906.397	729.93
906.57	693.7
906.744	710.16
906.917	697.18
907.09	687.5
907.264	675.87
907.437	636.93
907.61	603.8
907.784	655.33
907.957	641.38
908.13	590.82
908.304	673.74
908.477	612.9
908.65	617.17
908.823	588.3
908.996	646.42
909.17	584.03
909.343	589.65
909.516	601.28
909.689	577.06
909.862	601.86
910.035	617.55
910.208	582.48
910.381	562.14
910.554	672.77
910.727	577.06
910.9	585.39
911.073	593.72
911.246	654.56
911.419	645.84
911.592	640.03
911.765	589.85
911.938	577.45
912.11	627.43
912.283	608.06
912.456	649.72
912.629	622.78
912.802	580.93
912.974	568.15
913.147	494.52
913.32	452.29
913.493	504.4
913.665	518.16
913.838	528.04
914.01	493.94
914.183	533.27
914.356	523.2
914.528	569.5
914.701	628.02
914.873	587.72
915.046	527.65
915.218	489.29
915.391	417.41
915.563	440.86
915.736	510.02
915.908	536.76
916.081	533.08
916.253	496.46
916.425	539.28
916.598	553.62
916.77	520.87
916.942	483.48
917.115	420.71
917.287	498.4
917.459	479.22
917.632	415.86
917.804	388.93
917.976	478.06
918.148	504.6
918.32	512.93
918.493	518.16
918.665	551.49
918.837	522.62
919.009	566.4
919.181	603.41
919.353	541.22
919.525	539.47
919.697	541.6
919.869	554
920.041	604.77
920.213	673.16
920.385	621.43
920.557	549.74
920.729	545.09
920.901	577.25
921.073	544.32
921.244	561.75
921.416	564.27
921.588	553.04
921.76	555.55
921.932	583.84
922.103	579.58
922.275	528.24
922.447	540.83
922.619	494.72
922.79	523.2
922.962	509.05
923.134	561.37
923.305	510.02
923.477	488.71
923.648	462.94
923.82	485.22
923.991	416.25
924.163	423.03
924.335	482.71
924.506	444.92
924.677	528.04
924.849	441.63
925.02	494.33
925.192	484.06
925.363	475.15
925.535	489.68
925.706	447.64
925.877	522.81
926.049	442.6
926.22	505.95
926.391	481.54
926.562	510.6
926.734	448.61
926.905	489.29
927.076	414.51
927.247	433.3
927.419	433.88
927.59	398.62
927.761	383.89
927.932	389.71
928.103	384.86
928.274	344.37
928.445	338.94
928.616	340.88
928.787	350.76
928.958	353.09
929.129	347.66
929.3	337.78
929.471	304.07
929.642	254.86
929.813	221.73
929.984	278.69
930.155	197.32
930.326	277.53
930.496	247.5
930.667	176.2
930.838	225.8
931.009	187.24
931.18	226.96
931.35	195.18
931.521	206.23
931.692	120.4
931.863	127.57
932.033	157.6
932.204	172.32
932.374	178.33
932.545	126.02
932.716	162.05
932.886	160.5
933.057	82.62
933.227	92.69
933.398	174.45
933.568	85.33
933.739	57.43
933.909	74.87
934.08	110.32
934.25	44.64
934.421	33.79
934.591	114.78
934.761	62.08
934.932	27.4
935.102	66.15
935.272	59.17
935.443	74.67
935.613	62.47
935.783	86.88
935.953	51.42
936.123	222.7
936.294	44.26
936.464	57.04
936.634	64.21
936.804	27.01
936.974	36.7
937.144	66.15
937.314	75.45
937.484	54.91
937.655	25.85
937.825	134.54
937.995	42.9
938.165	106.45
938.334	75.25
938.504	106.06
938.674	52.78
938.844	69.83
939.014	143.45
939.184	149.07
939.354	207
939.524	165.15
939.694	125.44
939.863	108.19
940.033	201.38
940.203	156.63
940.373	135.9
940.542	180.65
940.712	122.53
940.882	158.76
941.051	180.46
941.221	148.68
941.391	194.02
941.56	132.99
941.73	96.37
941.899	238.58
942.069	116.91
942.238	151.78
942.408	113.62
942.577	138.22
942.747	127.57
942.916	64.4
943.086	85.91
943.255	172.32
943.425	103.35
943.594	84.36
943.763	23.72
943.933	80.68
944.102	29.53
944.271	97.73
944.441	109.55
944.61	83.59
944.779	72.54
944.948	145.39
945.117	74.67
945.287	92.69
945.456	3.76
945.625	62.27
945.794	101.22
945.963	81.65
946.132	105.48
946.301	90.95
946.47	130.28
946.639	42.12
946.808	86.69
946.977	122.14
947.146	138.42
947.315	71.96
947.484	121.37
947.653	96.57
947.822	53.17
947.991	82.04
948.16	152.37
948.329	141.13
948.498	100.64
948.666	83.78
948.835	112.26
949.004	51.42
949.173	54.72
949.341	104.9
949.51	106.84
949.679	114.97
949.847	116.33
950.016	176
950.185	165.15
950.353	68.67
950.522	104.9
950.69	148.3
950.859	85.72
951.028	121.95
951.196	119.24
951.365	104.12
951.533	81.84
951.701	123.3
951.87	125.82
952.038	63.82
952.207	96.76
952.375	174.26
952.543	94.24
952.712	81.65
952.88	72.35
953.048	163.02
953.217	116.52
953.385	103.93
953.553	154.69
953.721	75.25
953.89	101.99
954.058	69.64
954.226	76.03
954.394	122.14
954.562	70.8
954.73	102.19
954.898	84.75
955.067	131.05
955.235	84.94
955.403	124.47
955.571	156.82
955.739	127.57
955.907	46.19
956.075	90.95
956.243	82.23
956.41	125.82
956.578	46
956.746	67.89
956.914	94.05
957.082	132.6
957.25	123.69
957.418	63.24
957.585	65.76
957.753	145.78
957.921	105.29
958.089	95.21
958.256	114.97
958.424	102.38
958.592	127.57
958.759	67.5
958.927	106.25
959.095	62.85
959.262	86.88
959.43	89.79
959.597	79.71
959.765	104.9
959.932	63.82
960.1	141.13
960.267	112.65
960.435	95.6
960.602	146.36
960.77	102.77
960.937	55.3
961.104	127.18
961.272	61.69
961.439	82.04
961.606	108.97
961.774	108.39
961.941	106.64
962.108	108.97
962.275	120.98
962.443	131.44
962.61	94.82
962.777	180.85
962.944	161.08
963.111	139.19
963.278	117.88
963.446	129.5
963.613	112.26
963.78	126.79
963.947	153.33
964.114	117.3
964.281	212.04
964.448	141.13
964.615	115.36
964.782	120.59
964.949	140.93
965.116	149.85
965.282	161.08
965.449	115.17
965.616	100.83
965.783	138.22
965.95	114
966.117	68.47
966.283	117.88
966.45	119.43
966.617	107.42
966.784	158.95
966.95	155.08
967.117	158.95
967.284	130.28
967.45	108.77
967.617	156.24
967.784	129.7
967.95	211.46
968.117	128.73
968.283	173.48
968.45	255.63
968.616	145.39
968.783	185.88
968.949	149.65
969.116	181.43
969.282	146.17
969.449	159.92
969.615	132.41
969.781	77.58
969.948	113.62
970.114	125.05
970.28	169.03
970.447	138.61
970.613	185.5
970.779	145.97
970.945	173.1
971.112	127.57
971.278	142.87
971.444	149.65
971.61	190.15
971.776	121.17
971.942	140.55
972.108	166.9
972.275	143.65
972.441	150.62
972.607	208.55
972.773	142.1
972.939	163.22
973.105	117.49
973.271	103.15
973.437	111.49
973.602	87.27
973.768	139
973.934	131.64
974.1	144.62
974.266	64.99
974.432	135.7
974.598	99.86
974.763	171.74
974.929	120.01
975.095	183.37
975.261	98.12
975.426	102.19
975.592	127.95
975.758	172.32
975.923	52.59
976.089	98.31
976.255	149.65
976.42	119.62
976.586	132.99
976.751	133.96
976.917	188.02
977.082	145.78
977.248	105.67
977.413	47.36
977.579	133.96
977.744	127.37
977.91	108.77
978.075	108.97
978.24	135.7
978.406	107.42
978.571	104.32
978.736	74.09
978.902	155.66
979.067	104.9
979.232	64.21
979.397	108.97
979.563	188.6
979.728	82.23
979.893	98.89
980.058	125.44
980.223	138.42
980.388	124.85
980.554	148.1
980.719	87.85
980.884	123.5
981.049	166.12
981.214	100.44
981.379	139
981.544	81.84
981.709	117.88
981.874	108.19
982.039	111.68
982.204	157.21
982.368	105.29
982.533	67.89
982.698	134.15
982.863	152.37
983.028	93.08
983.193	120.79
983.357	111.29
983.522	128.54
983.687	111.1
983.852	82.04
984.016	95.21
984.181	121.37
984.346	119.43
984.51	137.25
984.675	108.58
984.839	134.54
985.004	144.03
985.168	137.64
985.333	112.65
985.498	105.09
985.662	147.91
985.827	142.29
985.991	119.43
986.155	100.25
986.32	145.39
986.484	180.27
986.649	124.27
986.813	47.74
986.977	127.37
987.142	123.69
987.306	78.55
987.47	75.64
987.634	122.72
987.799	121.37
987.963	107.42
988.127	141.52
988.291	202.16
988.455	110.32
988.62	95.02
988.784	111.87
988.948	139.58
989.112	95.79
989.276	136.48
989.44	112.84
989.604	96.76
989.768	94.44
989.932	187.82
990.096	70.41
990.26	51.81
990.424	66.54
990.588	108.19
990.752	185.69
990.915	129.89
991.079	95.4
991.243	89.98
991.407	123.3
991.571	98.31
991.734	146.55
991.898	157.4
992.062	180.27
992.226	105.67
992.389	98.31
992.553	56.65
992.717	68.09
992.88	95.4
993.044	105.29
993.207	75.64
993.371	143.07
993.535	120.98
993.698	131.25
993.862	117.69
994.025	182.78
994.189	105.09
994.352	127.57
994.515	120.98
994.679	152.95
994.842	113.04
995.006	149.85
995.169	64.02
995.332	66.92
995.496	128.54
995.659	31.86
995.822	77.19
995.985	81.45
996.149	130.09
996.312	74.67
996.475	169.8
996.638	89.98
996.801	142.68
996.964	150.23
997.128	110.13
997.291	111.68
997.454	122.92
997.617	33.41
997.78	132.22
997.943	107.42
998.106	116.72
998.269	73.7
998.432	112.84
998.595	103.15
998.758	13.26
998.92	39.02
999.083	25.46
999.246	66.54
999.409	52
999.572	31.86
999.735	63.24
999.897	108.97
1000.06	61.89
1000.223	59.75
1000.386	122.53
1000.548	83.39
1000.711	114.97
1000.874	123.5
1001.036	53.17
1001.199	113.04
1001.361	73.12
1001.524	73.51
1001.687	106.06
1001.849	64.6
1002.012	89.4
1002.174	78.55
1002.337	116.91
1002.499	85.33
1002.661	118.27
1002.824	52
1002.986	77.19
1003.149	71.38
1003.311	46.97
1003.473	138.22
1003.636	62.85
1003.798	94.44
1003.96	71.57
1004.123	78.74
1004.285	65.18
1004.447	70.99
1004.609	66.54
1004.771	107.61
1004.933	22.75
1005.096	42.32
1005.258	27.01
1005.42	23.52
1005.582	103.35
1005.744	60.34
1005.906	35.15
1006.068	74.09
1006.23	41.16
1006.392	3.18
1006.554	35.54
1006.716	108.39
1006.878	98.31
1007.04	30.69
1007.202	55.69
1007.363	56.65
1007.525	80.49
1007.687	95.99
1007.849	90.37
1008.011	31.08
1008.172	25.27
1008.334	67.5
1008.496	89.59
1008.658	29.14
1008.819	48.32
1008.981	19.26
1009.143	24.88
1009.304	49.49
1009.466	76.61
1009.627	115.17
1009.789	146.94
1009.95	93.08
1010.112	35.73
1010.273	81.84
1010.435	43.87
1010.596	41.93
1010.758	31.66
1010.919	55.1
1011.081	22.56
1011.242	43.67
1011.403	71.57
1011.565	61.69
1011.726	77.19
1011.887	23.52
1012.049	51.04
1012.21	80.87
1012.371	95.02
1012.532	2.79
1012.693	38.64
1012.855	27.01
1013.016	43.67
1013.177	80.87
1013.338	52.78
1013.499	141.9
1013.66	95.6
1013.821	83.59
1013.982	61.5
1014.143	49.1
1014.304	39.22
1014.465	59.56
1014.626	66.54
1014.787	40.57
1014.948	135.7
1015.109	-18.71
1015.27	107.03
1015.431	22.75
1015.592	43.48
1015.752	91.53
1015.913	33.02
1016.074	69.44
1016.235	34.76
1016.395	37.67
1016.556	24.49
1016.717	42.51
1016.877	92.69
1017.038	15.58
1017.199	66.54
1017.359	70.99
1017.52	34.57
1017.681	25.07
1017.841	58.2
1018.002	33.99
1018.162	28.17
1018.323	80.29
1018.483	45.81
1018.644	45.22
1018.804	5.89
1018.964	14.81
1019.125	14.42
1019.285	46.39
1019.446	7.83
1019.606	0.27
1019.766	14.03
1019.926	66.15
1020.087	60.72
1020.247	16.16
1020.407	74.29
1020.567	74.29
1020.728	20.04
1020.888	-0.89
1021.048	20.81
1021.208	-2.05
1021.368	18.1
1021.528	77.58
1021.688	72.74
1021.848	72.35
1022.008	58.59
1022.168	35.92
1022.328	17.71
1022.488	33.21
1022.648	13.64
1022.808	41.16
1022.968	59.17
1023.128	-4.18
1023.288	10.54
1023.448	41.93
1023.608	72.74
1023.767	38.44
1023.927	6.86
1024.087	1.82
1024.247	2.6
1024.406	10.35
1024.566	-1.66
1024.726	6.09
1024.885	62.27
1025.045	44.26
1025.205	38.64
1025.364	21.2
1025.524	43.67
1025.683	34.76
1025.843	49.1
1026.003	32.63
1026.162	96.57
1026.321	69.05
1026.481	38.64
1026.64	18.87
1026.8	30.5
1026.959	36.12
1027.119	13.26
1027.278	13.84
1027.437	-13.87
1027.597	3.37
1027.756	37.28
1027.915	55.3
1028.074	44.84
1028.234	-5.93
1028.393	33.21
1028.552	26.43
1028.711	-39.64
1028.87	70.02
1029.03	-23.17
1029.189	33.99
1029.348	-28.01
1029.507	7.83
1029.666	5.51
1029.825	-4.96
1029.984	9.77
1030.143	26.82
1030.302	46.97
1030.461	-42.93
1030.62	41.93
1030.779	33.21
1030.938	8.02
1031.097	-12.71
1031.255	58.98
1031.414	66.34
1031.573	61.89
1031.732	12.09
1031.891	3.76
1032.049	63.24
1032.208	55.69
1032.367	5.31
1032.525	-4.38
1032.684	30.5
1032.843	17.71
1033.001	-19.1
1033.16	171.35
1033.319	50.84
1033.477	44.45
1033.636	40.57
1033.794	-9.41
1033.953	70.02
1034.111	37.86
1034.27	-41.77
1034.428	35.73
1034.587	-22.59
1034.745	19.84
1034.903	24.11
1035.062	27.59
1035.22	-19.49
1035.378	47.36
1035.537	-3.02
1035.695	36.51
1035.853	-9.41
1036.011	46.58
1036.17	45.61
1036.328	-32.28
1036.486	20.04
1036.644	40.38
1036.802	-67.34
1036.96	7.25
1037.119	27.98
1037.277	3.57
1037.435	-32.28
1037.593	13.06
1037.751	14.03
1037.909	54.33
1038.067	54.33
