Data from calibration2_FLMT105791__2__17-17-44-084.txt Node

Date: Mon Mar 20 17:17:44 GMT 2023
User: antho
Spectrometer: FLMT10579
Trigger mode: 0
Integration Time (sec): 1.000000E-1
Scans to average: 10
Electric dark correction enabled: true
Nonlinearity correction enabled: false
Boxcar width: 0
XAxis mode: Wavelengths
Number of Pixels in Spectrum: 3648
>>>>>Begin Spectral Data<<<<<
345.248	-161.89
345.464	-161.89
345.681	-161.89
345.898	-182.24
346.114	-141.74
346.331	-51.46
346.548	32.82
346.764	0.66
346.981	8.22
347.197	-25.11
347.414	23.14
347.631	-19.29
347.847	61.89
348.064	-7.67
348.28	24.69
348.497	-43.32
348.713	-4.57
348.93	37.28
349.146	71.38
349.363	73.9
349.579	92.3
349.796	117.69
350.012	78.35
350.229	91.34
350.445	98.7
350.661	70.6
350.878	118.46
351.094	144.81
351.311	150.62
351.527	154.69
351.743	68.09
351.96	140.35
352.176	157.6
352.392	141.71
352.609	125.63
352.825	88.04
353.041	101.6
353.257	65.18
353.474	113.42
353.69	147.33
353.906	146.36
354.122	100.83
354.339	174.26
354.555	148.88
354.771	140.35
354.987	226.38
355.203	221.15
355.42	151.78
355.636	152.95
355.852	128.92
356.068	157.79
356.284	111.29
356.5	234.32
356.716	170.58
356.932	126.4
357.148	152.95
357.364	116.52
357.58	216.3
357.796	192.28
358.012	148.68
358.228	170.97
358.444	76.22
358.66	174.07
358.876	147.33
359.092	98.12
359.308	167.87
359.524	170.38
359.74	176.78
359.956	192.28
360.172	176.39
360.388	229.09
360.604	201
360.819	269.39
361.035	201.58
361.251	233.16
361.467	159.92
361.683	218.82
361.898	206.42
362.114	201.19
362.33	193.63
362.546	238
362.762	214.17
362.977	226.57
363.193	198.48
363.409	261.25
363.624	219.98
363.84	205.84
364.056	192.86
364.271	269
364.487	252.15
364.703	244.78
364.918	205.45
365.134	246.33
365.35	256.6
365.565	379.24
365.781	278.88
365.996	288.96
366.212	350.76
366.427	325.58
366.643	281.6
366.858	310.46
367.074	294
367.289	368.98
367.505	421.29
367.72	295.55
367.936	327.32
368.151	367.04
368.367	319.57
368.582	328.48
368.798	301.55
369.013	386.8
369.228	331.39
369.444	324.22
369.659	380.41
369.874	371.11
370.09	390.68
370.305	311.24
370.52	344.37
370.736	398.81
370.951	337.59
371.166	387.58
371.381	385.44
371.597	389.32
371.812	334.1
372.027	329.45
372.242	350.57
372.458	419.54
372.673	302.71
372.888	341.27
373.103	370.72
373.318	395.91
373.533	364.52
373.749	317.05
373.964	267.06
374.179	346.11
374.394	294.19
374.609	385.25
374.824	282.56
375.039	370.14
375.254	276.95
375.469	371.88
375.684	368.39
375.899	415.86
376.114	375.56
376.329	407.72
376.544	398.62
376.759	424
376.974	343.98
377.189	372.46
377.404	378.08
377.619	428.46
377.834	366.07
378.049	439.11
378.264	461.78
378.478	503.44
378.693	473.21
378.908	497.24
379.123	480.77
379.338	479.61
379.553	443.96
379.767	436.98
379.982	472.05
380.197	455
380.412	427.1
380.626	508.47
380.841	543.35
381.056	537.15
381.271	579.77
381.485	509.05
381.7	439.89
381.915	468.17
382.129	396.49
382.344	426.91
382.559	418.96
382.773	420.9
382.988	313.76
383.202	350.76
383.417	328.48
383.632	439.11
383.846	370.53
384.061	356.19
384.275	343.79
384.49	426.52
384.704	459.65
384.919	475.54
385.133	494.14
385.348	551.68
385.562	479.61
385.777	565.63
385.991	495.1
386.206	517.77
386.42	481.16
386.634	554
386.849	547.22
387.063	593.33
387.277	514.09
387.492	517.58
387.706	504.4
387.92	528.04
388.135	599.53
388.349	591.4
388.563	569.89
388.778	554.59
388.992	540.05
389.206	613.1
389.42	686.91
389.635	620.65
389.849	662.7
390.063	725.47
390.277	735.16
390.491	806.07
390.706	735.74
390.92	754.92
391.134	758.99
391.348	779.14
391.562	754.73
391.776	844.04
391.99	811.3
392.205	857.61
392.419	751.82
392.633	710.16
392.847	712.68
393.061	603.41
393.275	622.59
393.489	484.64
393.703	470.11
393.917	455.39
394.131	413.92
394.345	543.54
394.559	621.82
394.773	652.23
394.986	788.24
395.2	821.76
395.414	894.03
395.628	862.84
395.842	965.33
396.056	900.42
396.27	821.18
396.484	831.26
396.697	749.69
396.911	612.32
397.125	571.83
397.339	571.83
397.553	586.55
397.766	724.5
397.98	820.6
398.194	949.05
398.408	1000.01
398.621	1089.33
398.835	1143.58
399.049	1207.51
399.262	1244.33
399.476	1282.88
399.69	1292.76
399.903	1371.23
400.117	1293.73
400.331	1317.17
400.544	1298.57
400.758	1462.87
400.971	1378.79
401.185	1409.2
401.398	1351.47
401.612	1455.7
401.826	1472.56
402.039	1476.24
402.253	1438.07
402.466	1532.04
402.68	1523.52
402.893	1571.37
403.106	1531.65
403.32	1517.12
403.533	1528.55
403.747	1474.88
403.96	1524.29
404.174	1551.61
404.387	1536.3
404.6	1542.31
404.814	1552.58
405.027	1505.69
405.24	1493.1
405.454	1495.42
405.667	1605.28
405.88	1548.51
406.094	1579.12
406.307	1584.93
406.52	1535.72
406.733	1488.64
406.947	1498.91
407.16	1594.23
407.373	1655.26
407.586	1615.74
407.799	1592.88
408.012	1642.28
408.226	1645.77
408.439	1729.47
408.652	1686.07
408.865	1781.78
409.078	1854.63
409.291	1817.04
409.504	1796.12
409.717	1834.67
409.93	1828.47
410.143	1724.43
410.357	1606.83
410.57	1520.03
410.783	1610.31
410.996	1679.09
411.209	1772.29
411.421	1919.73
411.634	1945.88
411.847	1920.7
412.06	1950.15
412.273	2006.91
412.486	1979.01
412.699	2016.21
412.912	1980.95
413.125	1992.96
413.338	1932.71
413.55	1939.68
413.763	1929.22
413.976	1955.18
414.189	1922.25
414.402	1997.61
414.615	2089.06
414.827	1966.03
415.04	2038.5
415.253	1986.18
415.466	2087.9
415.678	2044.89
415.891	2072.98
416.104	1996.45
416.316	2056.51
416.529	2079.57
416.742	2196.4
416.954	2200.66
417.167	2171.21
417.38	2105.34
417.592	2088.87
417.805	1987.35
418.017	2035.59
418.23	2095.26
418.442	2037.53
418.655	2092.36
418.868	2071.82
419.08	2110.76
419.293	2142.93
419.505	2174.89
419.718	2140.99
419.93	2201.05
420.142	2115.41
420.355	2113.86
420.567	2126.84
420.78	2181.48
420.992	2169.47
421.205	2291.14
421.417	2273.32
421.629	2339.19
421.842	2287.46
422.054	2303.93
422.266	2338.61
422.479	2347.52
422.691	2215.19
422.903	2230.89
423.115	2134.79
423.328	2155.32
423.54	2216.16
423.752	2219.07
423.964	2278.16
424.177	2283.78
424.389	2292.3
424.601	2386.85
424.813	2401.77
425.025	2338.8
425.238	2391.7
425.45	2289.4
425.662	2342.48
425.874	2625.94
426.086	2354.3
426.298	2370.97
426.51	2370
426.722	2375.62
426.934	2381.62
427.146	2401.58
427.358	2308.19
427.57	2377.55
427.782	2282.62
427.994	2283.2
428.206	2298.12
428.418	2405.65
428.63	2507.36
428.842	2497.48
429.054	2414.36
429.266	2397.9
429.478	2290.95
429.69	2317.88
429.902	2225.46
430.114	2221.78
430.325	2113.09
430.537	2010.4
430.749	1931.35
430.961	1795.34
431.173	1911.59
431.384	1959.83
431.596	1980.56
431.808	2293.27
432.02	2547.66
432.231	2716.42
432.443	2885.95
432.655	2742.38
432.867	2686.39
433.078	2707.12
433.29	2796.63
433.502	2867.93
433.713	2924.5
433.925	2963.64
434.136	2854.56
434.348	2637.17
434.56	2615.09
434.771	2771.05
434.983	2632.72
435.194	2833.63
435.406	2947.36
435.617	3009.17
435.829	3054.89
436.04	3072.14
436.252	3049.86
436.463	3229.65
436.675	3268.02
436.886	3325.75
437.098	3324.78
437.309	3351.13
437.521	3267.05
437.732	3215.9
437.943	3183.54
438.155	3124.84
438.366	3074.66
438.578	3155.64
438.789	2975.65
439	2990.38
439.211	2986.89
439.423	3026.41
439.634	3147.7
439.845	3258.72
440.057	3274.99
440.268	3419.72
440.479	3353.26
440.69	3326.91
440.902	3303.66
441.113	3295.53
441.324	3383.29
441.535	3479.59
441.746	3577.43
441.957	3542.94
442.168	3633.23
442.38	3644.27
442.591	3716.15
442.802	3591.19
443.013	3713.05
443.224	3800.05
443.435	3674.88
443.646	3681.67
443.857	3621.22
444.068	3617.15
444.279	3649.31
444.49	3862.63
444.701	3752.96
444.912	3954.66
445.123	3912.81
445.334	3846.54
445.545	3842.48
445.756	3733.78
445.967	3716.15
446.178	3657.06
446.388	3594.48
446.599	3628
446.81	3703.37
447.021	3699.1
447.232	3872.12
447.443	3913.77
447.653	3969.96
447.864	4033.51
448.075	4060.44
448.286	4078.27
448.496	3956.4
448.707	4048.82
448.918	3961.05
449.129	4062.38
449.339	4014.91
449.55	4145.3
449.761	4060.25
449.971	4072.65
450.182	4166.03
450.393	4220.09
450.603	4183.08
450.814	4375.28
451.024	4311.73
451.235	4489.59
451.446	4496.57
451.656	4434.76
451.867	4339.82
452.077	4230.94
452.288	4357.26
452.498	4261.36
452.709	4268.72
452.919	4136.2
453.13	4096.09
453.34	4040.29
453.55	3868.44
453.761	4124.96
453.971	4072.26
454.182	4133.87
454.392	4216.8
454.602	4399.89
454.813	4371.02
455.023	4274.14
455.233	4163.9
455.444	4269.3
455.654	4125.35
455.864	4259.61
456.075	4302.63
456.285	4319.48
456.495	4362.88
456.705	4405.12
456.916	4586.66
457.126	4601.58
457.336	4459.37
457.546	4412.09
457.756	4511.68
457.967	4592.28
458.177	4442.12
458.387	4462.85
458.597	4374.89
458.807	4442.12
459.017	4337.5
459.227	4384.19
459.437	4375.47
459.647	4489.4
459.857	4490.17
460.068	4538.8
460.278	4590.92
460.488	4573.48
460.698	4586.66
460.908	4602.93
461.117	4674.04
461.327	4702.33
461.537	4800.75
461.747	4761.81
461.957	4766.84
462.167	4913.51
462.377	4811.41
462.587	4829.62
462.797	4949.93
463.007	4837.37
463.216	4991.98
463.426	5081.88
463.636	4981.32
463.846	4800.56
464.056	4836.98
464.265	4805.98
464.475	4831.36
464.685	4978.61
464.895	4919.9
465.104	4820.32
465.314	5047.97
465.524	4875.34
465.733	4888.71
465.943	5077.81
466.153	5161.12
466.362	5203.36
466.572	5109.97
466.782	5008.64
466.991	5104.35
467.201	5025.69
467.41	4945.09
467.62	5069.09
467.829	5118.69
468.039	5206.84
468.249	5182.43
468.458	5350.02
468.668	5296.16
468.877	5390.52
469.086	5417.64
469.296	5517.23
469.505	5520.91
469.715	5490.49
469.924	5453.1
470.134	5567.41
470.343	5431.98
470.552	5441.86
470.762	5387.42
470.971	5454.65
471.18	5513.93
471.39	5607.9
471.599	5518
471.808	5632.7
472.018	5802.62
472.227	5895.62
472.436	6085.1
472.645	6086.84
472.855	6026.01
473.064	6219.95
473.273	6257.73
473.482	6053.71
473.691	6221.69
473.901	6107.38
474.11	6047.71
474.319	6263.73
474.528	6265.48
474.737	6595.82
474.946	6416.41
475.155	6484.61
475.364	6683.97
475.573	6554.55
475.783	6683.39
475.992	6611.7
476.201	6636.31
476.41	6711.87
476.619	6593.3
476.828	6610.74
477.037	6633.21
477.245	6636.31
477.454	6733.96
477.663	6936.04
477.872	7074.76
478.081	7205.93
478.29	7139.67
478.499	7259.98
478.708	7316.75
478.917	7347.75
479.125	7179
479.334	7267.15
479.543	7503.33
479.752	7541.5
479.961	7501.2
480.169	7742.22
480.378	7769.15
480.587	7919.3
480.796	7742.8
481.004	7811.58
481.213	7941.39
481.422	8004.36
481.63	8123.71
481.839	8153.93
482.048	8319.01
482.256	8234.34
482.465	8471.87
482.674	8388.37
482.882	8478.07
483.091	8518.95
483.299	8365.5
483.508	8623.96
483.716	8669.69
483.925	8665.43
484.134	8464.51
484.342	8583.08
484.551	8628.61
484.759	8517.98
484.967	8845.8
485.176	8809.19
485.384	8812.87
485.593	8733.04
485.801	8603.43
486.01	8269.41
486.218	7894.12
486.426	7574.05
486.635	7377.39
486.843	7504.3
487.051	7773.22
487.26	7883.85
487.468	8111.31
487.676	8323.46
487.885	8604.59
488.093	8808.99
488.301	9102.52
488.509	9092.83
488.717	9236.01
488.926	9231.36
489.134	9106.01
489.342	9108.72
489.55	9101.36
489.758	9235.82
489.967	9614.4
490.175	9533.41
490.383	9875.96
490.591	10064.86
490.799	9936.41
491.007	9912.58
491.215	9941.44
491.423	9848.45
491.631	9872.47
491.839	9744.6
492.047	9784.32
492.255	9493.89
492.463	9572.55
492.671	9407.67
492.879	9742.47
493.087	9840.7
493.295	9883.71
493.503	10029.99
493.711	10346.76
493.919	10306.27
494.127	10225.28
494.334	10164.25
494.542	10250.67
494.75	10478.51
494.958	10439.76
495.166	10703.07
495.374	10693.57
495.581	10774.75
495.789	10742.2
495.997	10765.65
496.205	10373.31
496.412	10543.61
496.62	10800.71
496.828	10608.71
497.035	10795.1
497.243	10840.43
497.451	10870.46
497.658	10907.08
497.866	10840.24
498.074	10936.53
498.281	10731.16
498.489	10806.53
498.696	10618.01
498.904	10462.24
499.112	10472.12
499.319	10746.46
499.527	10807.49
499.734	10925.1
499.942	10830.36
500.149	10841.79
500.357	10887.32
500.564	10619.17
500.771	10686.21
500.979	10474.44
501.186	10386.48
501.394	10668.97
501.601	10310.34
501.808	10423.68
502.016	10443.83
502.223	10351.03
502.43	10512.03
502.638	10472.51
502.845	10633.12
503.052	10821.06
503.26	10789.67
503.467	10914.44
503.674	10986.52
503.881	10909.99
504.089	10834.62
504.296	10763.71
504.503	10585.65
504.71	10543.42
504.917	10734.84
505.125	10802.84
505.332	10926.26
505.539	10947.57
505.746	11208.75
505.953	11327.71
506.16	11461
506.367	11395.71
506.574	11601.47
506.781	11582.1
506.988	11469.34
507.195	11415.86
507.402	11367.04
507.609	11399.39
507.816	11151.78
508.023	11236.84
508.23	11123.3
508.437	10930.52
508.644	11047.74
508.851	11173.29
509.058	11386.8
509.265	11438.92
509.472	11555.55
509.679	11667.54
509.885	11558.07
510.092	11550.32
510.299	11557.49
510.506	11405.01
510.713	11442.6
510.92	11373.43
511.126	11445.89
511.333	11642.74
511.54	11699.12
511.746	11704.54
511.953	11745.62
512.16	11866.71
512.367	11759.38
512.573	11670.45
512.78	11681.88
512.987	11568.53
513.193	11504.98
513.4	11216.3
513.606	11362.19
513.813	11443.57
514.02	11309.49
514.226	11386.61
514.433	11355.22
514.639	11250.98
514.846	11276.75
515.052	11279.46
515.259	11289.93
515.465	11443.37
515.672	11407.53
515.878	11512.54
516.085	11637.31
516.291	11577.64
516.497	11502.08
516.704	11188.98
516.91	10897.59
517.117	10397.91
517.323	10105.35
517.529	10050.14
517.736	10080.17
517.942	10102.84
518.148	10408.96
518.354	10552.33
518.561	10545.35
518.767	10430.08
518.973	10597.47
519.179	10761
519.386	10837.14
519.592	10861.94
519.798	10893.71
520.004	11433.69
520.21	11363.36
520.417	11450.15
520.623	11563.69
520.829	11547.22
521.035	11605.73
521.241	11499.56
521.447	11611.93
521.653	11827.19
521.859	11692.34
522.065	11819.24
522.271	11857.99
522.477	11823.31
522.683	11920.38
522.889	11717.53
523.095	11584.81
523.301	11628.4
523.507	11559.82
523.713	11569.12
523.919	11504.79
524.125	11862.84
524.331	12044.57
524.537	12214.68
524.742	12180.39
524.948	12112.96
525.154	12310
525.36	12225.92
525.566	12066.27
525.772	12224.37
525.977	12115.29
526.183	11994.2
526.389	12101.53
526.595	11644.1
526.8	11520.68
527.006	11191.89
527.212	10910.18
527.417	10767.78
527.623	10900.69
527.829	11069.63
528.034	11319.76
528.24	11414.5
528.446	11669.67
528.651	11907.59
528.857	11975.4
529.062	12037.79
529.268	12227.47
529.473	12325.5
529.679	12419.47
529.884	12406.88
530.09	12327.05
530.295	12058.71
530.501	12254.59
530.706	12302.06
530.912	12319.5
531.117	12415.21
531.323	12435.75
531.528	12596.36
531.733	12626.78
531.939	12516.35
532.144	12434.39
532.35	12310
532.555	12333.25
532.76	12054.06
532.966	11912.82
533.171	11848.69
533.376	11755.5
533.581	11720.43
533.787	11979.47
533.992	12192.98
534.197	11967.27
534.402	12244.32
534.607	12254.01
534.813	12245.1
535.018	12236.19
535.223	12363.09
535.428	12304.39
535.633	12432.84
535.838	12648.87
536.043	12720.75
536.249	12955.76
536.454	12638.41
536.659	12738.38
536.864	12704.09
537.069	12446.4
537.274	12378.98
537.479	12348.95
537.684	12349.53
537.889	12241.81
538.094	12610.31
538.299	12415.02
538.504	12663.98
538.708	12530.68
538.913	12709.51
539.118	12690.91
539.323	12583.38
539.528	12460.55
539.733	12369.68
539.938	12424.9
540.142	12355.73
540.347	12206.54
540.552	12093.78
540.757	11931.81
540.962	12190.85
541.166	11911.66
541.371	12015.9
541.576	12024.03
541.781	12119.36
541.985	12435.55
542.19	12205.57
542.395	12679.48
542.599	12605.66
542.804	12380.33
543.008	12578.54
543.213	12510.34
543.418	12318.72
543.622	12466.94
543.827	12241.22
544.031	12597.14
544.236	12534.56
544.44	12769.38
544.645	12756.4
544.849	12697.69
545.054	12718.04
545.258	12761.24
545.463	12881.17
545.667	12628.72
545.872	12778.29
546.076	12728.89
546.281	12725.59
546.485	12645.38
546.689	12733.92
546.894	12735.47
547.098	12768.6
547.302	12681.81
547.507	12716.1
547.711	12706.99
547.915	12736.05
548.119	12503.56
548.324	12531.65
548.528	12577.76
548.732	12578.93
548.936	12726.75
549.141	12784.49
549.345	12702.73
549.549	12804.06
549.753	12870.32
549.957	12933.48
550.161	12908.68
550.366	12915.46
550.57	12814.72
550.774	12707.38
550.978	12851.53
551.182	12736.05
551.386	12602.95
551.59	12706.99
551.794	12630.46
551.998	12884.85
552.202	12798.05
552.406	12784.49
552.61	13018.34
552.814	12818.4
553.018	12855.21
553.222	12613.03
553.426	12642.86
553.63	12870.32
553.833	12767.64
554.037	12696.34
554.241	12781.2
554.445	12844.75
554.649	12846.88
554.853	12738.19
555.056	12936.58
555.26	12976.88
555.464	12854.63
555.668	12918.56
555.871	12912.95
556.075	12919.73
556.279	12754.46
556.483	12716.49
556.686	12551.22
556.89	12674.64
557.094	12649.45
557.297	12451.05
557.501	12472.75
557.704	12336.94
557.908	12583.77
558.112	12453.18
558.315	12705.44
558.519	12545.02
558.722	12365.22
558.926	12313.3
559.129	12050.38
559.333	12179.23
559.536	12174.96
559.74	12020.55
559.943	12005.43
560.147	12052.71
560.35	12043.99
560.553	12309.81
560.757	12199.18
560.96	12367.55
561.164	12382.66
561.367	12467.13
561.57	12412.5
561.774	12284.43
561.977	12259.82
562.18	12224.76
562.384	12297.6
562.587	12181.36
562.79	12323.37
562.993	12196.28
563.197	12183.49
563.4	12350.11
563.603	12399.13
563.806	12357.86
564.009	12350.11
564.212	12367.16
564.416	12127.88
564.619	12182.91
564.822	12090.68
565.025	12294.89
565.228	12146.68
565.431	12301.29
565.634	12106.76
565.837	12025.2
566.04	11898.29
566.243	11826.8
566.446	11784.37
566.649	11944.98
566.852	11819.63
567.055	11920.57
567.258	11934.52
567.461	12116.26
567.664	12161.98
567.867	12086.23
568.07	11968.62
568.273	12033.53
568.475	12131.95
568.678	11815.17
568.881	11838.81
569.084	11626.46
569.287	11569.12
569.489	11663.47
569.692	11750.08
569.895	11746.98
570.098	11580.74
570.3	11594.69
570.503	11583.26
570.706	11548.97
570.909	11495.49
571.111	11330.42
571.314	11317.24
571.516	11369.17
571.719	11403.85
571.922	11365.29
572.124	11456.94
572.327	11610.19
572.529	11519.32
572.732	11622.98
572.935	11634.41
573.137	11887.83
573.34	11629.56
573.542	11846.95
573.745	11738.64
573.947	11745.04
574.15	11642.93
574.352	11677.03
574.554	11749.69
574.757	11622.78
574.959	11412.57
575.162	11609.61
575.364	11409.66
575.566	11530.75
575.769	11335.26
575.971	11471.66
576.173	11132.41
576.376	11306.2
576.578	11459.07
576.78	11419.93
576.982	11269.19
577.185	11413.34
577.387	11374.21
577.589	11518.16
577.791	11441.05
577.993	11424.97
578.196	11422.06
578.398	11317.44
578.6	11185.11
578.802	11177.55
579.004	11129.12
579.206	11218.63
579.408	11381.96
579.61	11230.83
579.812	11505.76
580.014	11247.69
580.216	11382.92
580.418	11494.52
580.62	11465.07
580.822	11517.77
581.024	11554.39
581.226	11602.25
581.428	11562.14
581.63	11782.82
581.832	11670.83
582.034	11772.55
582.236	11698.93
582.438	11827.38
582.64	11918.83
582.841	11933.55
583.043	12099.4
583.245	11792.51
583.447	11981.99
583.649	11897.71
583.85	12020.16
584.052	11908.17
584.254	11888.99
584.456	11936.85
584.657	11820.99
584.859	12044.38
585.061	11897.9
585.262	11857.22
585.464	11857.02
585.666	11817.31
585.867	11651.26
586.069	11681.1
586.27	11654.17
586.472	11606.12
586.674	11633.44
586.875	11622.01
587.077	11671.41
587.278	11661.73
587.48	11632.08
587.681	11748.72
587.883	11726.24
588.084	11534.63
588.285	11547.42
588.487	11395.52
588.688	11372.27
588.89	10977.22
589.091	10728.83
589.292	10534.7
589.494	10295.03
589.695	10139.26
589.896	9984.65
590.098	10065.44
590.299	10151.66
590.5	10255.7
590.702	10457.97
590.903	10562.79
591.104	10795.48
591.305	10904.76
591.507	10866.98
591.708	10987.29
591.909	10942.73
592.11	10911.15
592.311	11047.94
592.512	10825.13
592.714	10803.04
592.915	10968.11
593.116	10905.14
593.317	11086.68
593.518	11095.21
593.719	11070.41
593.92	11100.63
594.121	11142.1
594.322	11061.88
594.523	10985.55
594.724	10869.11
594.925	10952.22
595.126	10761.38
595.327	10814.86
595.528	10953.97
595.729	10894.68
595.929	10949.32
596.13	10970.24
596.331	11141.52
596.532	11024.49
596.733	11204.48
596.934	11247.88
597.135	11247.69
597.335	11212.43
597.536	11181.62
597.737	11140.74
597.938	11130.28
598.138	11083.97
598.339	11154.3
598.54	11186.46
598.74	11063.24
598.941	11045.8
599.142	11226.18
599.342	11152.75
599.543	11041.74
599.744	11221.73
599.944	11201.38
600.145	11207.39
600.345	11136.48
600.546	11233.35
600.746	11170.19
600.947	11363.16
601.147	11096.37
601.348	11213.78
601.548	11073.7
601.749	11066.53
601.949	10934.98
602.15	11052
602.35	10881.89
602.551	10943.12
602.751	10993.1
602.951	11050.84
603.152	11006.47
603.352	11128.73
603.552	11142.48
603.753	11215.91
603.953	11319.57
604.153	11251.76
604.354	11316.86
604.554	11245.94
604.754	11322.48
604.954	11216.11
605.155	11380.21
605.355	11257.38
605.555	11280.82
605.755	11297.09
605.955	11227.15
606.155	11194.21
606.356	11281.59
606.556	11262.8
606.756	11207.58
606.956	11241.88
607.156	11363.55
607.356	11202.74
607.556	11225.8
607.756	11264.35
607.956	11227.73
608.156	11211.85
608.356	11083.2
608.556	11127.95
608.756	11052.97
608.956	11100.44
609.156	11089.78
609.356	11030.69
609.556	10947.19
609.755	11029.14
609.955	10995.04
610.155	10991.36
610.355	11016.35
610.555	10833.26
610.755	10843.14
610.954	10853.22
611.154	10968.89
611.354	10931.69
611.554	10881.89
611.753	10954.55
611.953	10866.2
612.153	10952.03
612.352	10880.93
612.552	10803.62
612.752	10767.39
612.951	10901.46
613.151	10753.63
613.351	10859.61
613.55	10811.18
613.75	10773.2
613.949	10593.02
614.149	10680.59
614.348	10647.07
614.548	10589.34
614.747	10597.47
614.947	10740.65
615.146	10564.73
615.346	10876.47
615.545	10838.88
615.745	10702.68
615.944	10668.77
616.144	10635.83
616.343	10472.31
616.542	10501.76
616.742	10450.61
616.941	10387.26
617.14	10349.28
617.34	10450.22
617.539	10407.21
617.738	10460.3
617.938	10594.37
618.137	10522.11
618.336	10625.76
618.535	10660.63
618.734	10591.08
618.934	10627.5
619.133	10604.25
619.332	10659.67
619.531	10518.23
619.73	10740.07
619.929	10607.35
620.128	10724.96
620.328	10749.76
620.527	10666.06
620.726	10641.07
620.925	10693.18
621.124	10754.8
621.323	10618.2
621.522	10491.11
621.721	10642.03
621.92	10491.88
622.119	10520.17
622.318	10429.69
622.517	10418.26
622.715	10399.08
622.914	10386.29
623.113	10451.39
623.312	10145.46
623.511	10413.99
623.71	10275.08
623.909	10177.04
624.107	10342.7
624.306	10278.56
624.505	10231.1
624.704	10222.38
624.902	10069.12
625.101	10222.57
625.3	10061.96
625.499	9997.63
625.697	10005.77
625.896	9909.86
626.095	9940.28
626.293	9863.17
626.492	9934.47
626.69	9949.58
626.889	10135.97
627.088	10098.57
627.286	9987.56
627.485	9873.83
627.683	9821.13
627.882	9749.05
628.08	9568.68
628.279	9448.75
628.477	9496.21
628.676	9316.8
628.874	9469.28
629.073	9432.08
629.271	9492.14
629.469	9571
629.668	9574.88
629.866	9412.32
630.065	9504.16
630.263	9568.09
630.461	9435.76
630.66	9574.49
630.858	9528.18
631.056	9650.44
631.254	9619.82
631.453	9468.51
631.651	9553.56
631.849	9537.87
632.047	9451.26
632.245	9480.52
632.444	9510.74
632.642	9673.69
632.84	9766.49
633.038	9659.74
633.236	9583.79
633.434	9675.82
633.632	9733.17
633.83	9621.57
634.028	9805.24
634.227	9726
634.425	9846.7
634.623	9631.26
634.821	9776.95
635.019	9774.63
635.216	9751.18
635.414	9906.18
635.612	9760.48
635.81	9743.44
636.008	9850
636.206	9802.14
636.404	9692.48
636.602	9798.27
636.8	9657.8
636.997	9825.2
637.195	9779.47
637.393	9790.52
637.591	9976.71
637.789	9882.93
637.986	9870.34
638.184	9918.39
638.382	9952.29
638.58	9899.79
638.777	10034.44
638.975	9915.48
639.173	9918.39
639.37	9862.4
639.568	9954.43
639.765	9896.3
639.963	9825.39
640.161	9699.26
640.358	9854.65
640.556	9652.57
640.753	9785.48
640.951	9693.64
641.148	9698.29
641.346	9742.85
641.543	9705.65
641.741	9685.5
641.938	9590.76
642.136	9679.11
642.333	9595.8
642.531	9702.55
642.728	9686.86
642.925	9733.36
643.123	9762.62
643.32	9732.97
643.517	9655.09
643.715	9577.2
643.912	9733.17
644.109	9648.11
644.306	9711.47
644.504	9604.91
644.701	9702.94
644.898	9615.56
645.095	9621.18
645.293	9673.88
645.49	9607.42
645.687	9571.39
645.884	9525.66
646.081	9400.5
646.278	9353.42
646.475	9365.82
646.672	9332.88
646.87	9266.24
647.067	9230
647.264	9256.35
647.461	9113.37
647.658	9071.13
647.855	9144.37
648.052	8988.79
648.249	8907.8
648.446	8986.27
648.642	9131
648.839	8878.93
649.036	8919.82
649.233	8904.7
649.43	8914.58
649.627	8735.95
649.824	8844.06
650.021	8674.14
650.217	8880.68
650.414	8939
650.611	8960.5
650.808	9149.6
651.004	9106.2
651.201	9096.32
651.398	9185.25
651.595	9106.98
651.791	8897.34
651.988	9054.86
652.185	8804.92
652.381	9118.21
652.578	8907.8
652.775	8991.31
652.971	9118.79
653.168	8971.74
653.364	9240.66
653.561	9013.01
653.757	9190.48
653.954	9195.71
654.15	8999.25
654.347	9117.83
654.543	9176.72
654.74	9004.48
654.936	8966.51
655.133	8888.62
655.329	8902.77
655.525	8701.66
655.722	8695.26
655.918	8475.55
656.115	8200.24
656.311	7998.74
656.507	7808.48
656.704	7592.45
656.9	7693.01
657.096	7914.46
657.292	7861.57
657.489	8101.62
657.685	8209.54
657.881	8270.96
658.077	8289.36
658.273	8506.55
658.47	8646.24
658.666	8621.44
658.862	8765.79
659.058	8752.42
659.254	8859.37
659.45	8883.78
659.646	8783.03
659.842	8796.2
660.038	8979.3
660.234	8814.8
660.43	8889.78
660.626	8936.87
660.822	9015.53
661.018	9000.03
661.214	8951.4
661.41	8883.39
661.606	8994.6
661.802	9133.33
661.998	8998.86
662.194	8986.85
662.39	9048.85
662.586	9068.23
662.781	8996.54
662.977	9168.39
663.173	8975.42
663.369	8997.12
663.564	9005.26
663.76	8987.24
663.956	8986.66
664.152	8906.83
664.347	8858.2
664.543	8953.33
664.739	8917.49
664.934	8803.95
665.13	8935.51
665.326	8896.18
665.521	8972.9
665.717	8836.31
665.912	8847.94
666.108	8757.46
666.304	8982.01
666.499	8820.42
666.695	8637.91
666.89	8866.92
667.086	8830.89
667.281	8882.23
667.477	8882.23
667.672	8793.88
667.867	8752.61
668.063	8801.63
668.258	8673.56
668.454	8739.82
668.649	8767.72
668.844	8854.52
669.04	8782.64
669.235	8722.77
669.43	8775.86
669.626	8702.24
669.821	8739.05
670.016	8646.83
670.211	8778.77
670.407	8604.59
670.602	8729.36
670.797	8653.8
670.992	8801.63
671.187	8611.56
671.382	8747.96
671.578	8548.21
671.773	8676.08
671.968	8455.98
672.163	8587.35
672.358	8541.43
672.553	8423.44
672.748	8632.1
672.943	8588.51
673.138	8573.59
673.333	8619.51
673.528	8446.49
673.723	8556.93
673.918	8470.32
674.113	8477.1
674.308	8560.03
674.503	8518.76
674.698	8554.6
674.892	8419.75
675.087	8449.01
675.282	8471.48
675.477	8430.99
675.672	8536.78
675.867	8396.5
676.061	8441.26
676.256	8300.99
676.451	8427.5
676.646	8395.92
676.84	8341.87
677.035	8278.9
677.23	8319.2
677.424	8416.46
677.619	8321.91
677.814	8425.37
678.008	8352.72
678.203	8348.84
678.397	8323.66
678.592	8319.01
678.787	8341.09
678.981	8295.37
679.176	8315.13
679.37	8246.93
679.565	8223.88
679.759	8256.23
679.954	8225.04
680.148	8259.53
680.342	8285.1
680.537	8194.43
680.731	8184.16
680.926	8250.03
681.12	8237.44
681.314	8195.59
681.509	8162.46
681.703	8201.79
681.897	8124.87
682.092	8155.87
682.286	8156.84
682.48	8114.21
682.674	8086.32
682.869	8035.75
683.063	8172.15
683.257	8125.26
683.451	8011.72
683.645	8110.15
683.839	7954.18
684.034	7950.5
684.228	7966.19
684.422	7793.56
684.616	7879.01
684.81	7893.15
685.004	7845.68
685.198	7927.44
685.392	7885.79
685.586	7850.72
685.78	7786.59
685.974	7831.15
686.168	7777.48
686.362	7722.26
686.556	7232.86
686.75	7011.02
686.944	6582.06
687.138	6167.83
687.331	5848.92
687.525	5660.21
687.719	5477.9
687.913	5567.79
688.107	5617.98
688.301	5648.39
688.494	5775.69
688.688	5712.14
688.882	5594.34
689.076	5688.11
689.269	5694.31
689.463	5821.99
689.657	5829.74
689.85	5803
690.044	5928.75
690.238	5960.33
690.431	6014.19
690.625	6005.66
690.818	6214.14
691.012	6153.69
691.205	6275.94
691.399	6319.73
691.593	6357.9
691.786	6436.17
691.98	6542.15
692.173	6621.97
692.366	6580.71
692.56	6645.03
692.753	6620.81
692.947	6529.94
693.14	6570.82
693.333	6581.48
693.527	6534.59
693.72	6564.24
693.914	6518.12
694.107	6426.29
694.3	6462.71
694.493	6337.36
694.687	6549.32
694.88	6384.44
695.073	6538.86
695.266	6507.47
695.46	6501.08
695.653	6527.04
695.846	6523.74
696.039	6543.31
696.232	6549.71
696.425	6711.87
696.618	6730.28
696.812	6754.11
697.005	6883.34
697.198	6994.55
697.391	6799.45
697.584	6971.49
697.777	6967.04
697.97	6877.53
698.163	6890.51
698.356	6873.84
698.549	6920.93
698.742	6931.19
698.935	6715.75
699.127	6757.02
699.32	6660.14
699.513	6659.37
699.706	6609.77
699.899	6701.02
700.092	6580.71
700.285	6516.77
700.477	6454.19
700.67	6477.83
700.863	6482.48
701.056	6569.66
701.248	6465.04
701.441	6541.18
701.634	6416.8
701.826	6516.58
702.019	6327.28
702.212	6440.63
702.404	6341.62
702.597	6309.65
702.79	6352.47
702.982	6373.01
703.175	6426.87
703.367	6483.06
703.56	6447.6
703.752	6531.3
703.945	6530.72
704.137	6516.19
704.33	6524.91
704.522	6495.46
704.715	6540.02
704.907	6575.09
705.1	6630.5
705.292	6588.84
705.484	6471.04
705.677	6514.25
705.869	6576.25
706.061	6586.91
706.254	6587.68
706.446	6494.88
706.638	6513.48
706.831	6523.94
707.023	6484.41
707.215	6622.17
707.407	6629.72
707.599	6496.23
707.792	6616.16
707.984	6576.25
708.176	6582.26
708.368	6509.41
708.56	6555.71
708.752	6564.04
708.944	6486.35
709.136	6498.36
709.329	6473.95
709.521	6600.86
709.713	6484.41
709.905	6503.59
710.097	6576.25
710.289	6463.29
710.481	6487.9
710.672	6465.62
710.864	6511.93
711.056	6503.79
711.248	6404.01
711.44	6449.93
711.632	6385.41
711.824	6459.23
712.016	6408.46
712.207	6457.09
712.399	6359.83
712.591	6441.01
712.783	6469.49
712.975	6450.89
713.166	6328.64
713.358	6333.87
713.55	6365.06
713.741	6312.75
713.933	6333.1
714.125	6262.38
714.316	6280.59
714.508	6286.79
714.7	6270.52
714.891	6217.04
715.083	6218.98
715.274	6131.21
715.466	6188.95
715.657	6193.21
715.849	5992.68
716.04	5970.21
716.232	5864.23
716.423	5842.14
716.615	5693.15
716.806	5533.7
716.998	5402.72
717.189	5209.36
717.381	5034.21
717.572	4917.58
717.763	4791.06
717.955	4701.36
718.146	4607.58
718.337	4487.46
718.528	4382.84
718.72	4231.52
718.911	4271.24
719.102	4178.63
719.293	4253.8
719.485	4167.2
719.676	4073.42
719.867	4039.32
720.058	3988.95
720.249	3949.42
720.44	4017.04
720.632	4131.16
720.823	4174.75
721.014	4392.14
721.205	4433.21
721.396	4599.25
721.587	4732.74
721.778	4816.44
721.969	4858.1
722.16	4986.17
722.351	5025.69
722.542	5133.61
722.733	5112.49
722.924	4965.43
723.115	5030.34
723.305	4916.8
723.496	4887.55
723.687	4679.46
723.878	4678.69
724.069	4601.96
724.26	4630.06
724.45	4498.7
724.641	4462.47
724.832	4434.37
725.023	4375.67
725.213	4351.06
725.404	4357.84
725.595	4263.29
725.785	4306.89
725.976	4383.22
726.167	4327.43
726.357	4303.01
726.548	4475.45
726.739	4330.53
726.929	4411.51
727.12	4422.55
727.31	4401.63
727.501	4337.11
727.691	4275.5
727.882	4340.02
728.072	4390.39
728.263	4309.99
728.453	4451.23
728.644	4415.58
728.834	4361.52
729.024	4249.93
729.215	4291.19
729.405	4307.47
729.596	4314.06
729.786	4383.61
729.976	4402.21
730.167	4389.23
730.357	4340.02
730.547	4311.93
730.737	4355.32
730.928	4326.65
731.118	4434.37
731.308	4378.77
731.498	4376.06
731.688	4441.74
731.879	4462.08
732.069	4483.59
732.259	4562.05
732.449	4628.9
732.639	4713.76
732.829	4671.13
733.019	4713.76
733.209	4777.5
733.399	4844.73
733.589	4966.6
733.779	4910.02
733.969	4878.64
734.159	5004.57
734.349	5016.78
734.539	5073.93
734.729	5027.63
734.919	5053.4
735.109	5142.91
735.299	5013.29
735.488	5040.61
735.678	5044.1
735.868	5030.73
736.058	4982.29
736.248	4967.76
736.437	4947.22
736.627	4863.52
736.817	5045.06
737.007	4925.14
737.196	4994.69
737.386	4995.27
737.576	4914.87
737.765	5020.85
737.955	4942.38
738.144	5076.65
738.334	4998.18
738.524	4962.72
738.713	4999.34
738.903	4944.51
739.092	4979
739.282	4929.98
739.471	4987.72
739.661	4977.64
739.85	5014.45
740.04	4934.24
740.229	5056.5
740.419	5066.38
740.608	5070.06
740.797	5012.32
740.987	5101.06
741.176	5016
741.365	4979.38
741.555	4925.14
741.744	5061.53
741.933	4939.09
742.123	5018.13
742.312	5011.16
742.501	5025.11
742.69	5022.01
742.88	4953.03
743.069	5099.51
743.258	5018.72
743.447	5109.78
743.636	5055.72
743.825	5034.41
744.014	5028.79
744.204	5070.64
744.393	4946.83
744.582	5071.8
744.771	5064.25
744.96	4974.93
745.149	5060.76
745.338	5019.68
745.527	5067.15
745.716	5026.08
745.905	4966.6
746.094	5039.64
746.283	5033.44
746.471	4946.25
746.66	5011.35
746.849	5031.89
747.038	5032.28
747.227	4997.4
747.416	5013.48
747.604	4951.48
747.793	4974.54
747.982	5022.4
748.171	4969.89
748.359	4945.28
748.548	4913.32
748.737	4894.72
748.926	4901.89
749.114	4786.02
749.303	4918.94
749.491	4886.19
749.68	4774.59
749.869	4912.74
750.057	4806.37
750.246	4817.99
750.434	4827.68
750.623	4820.12
750.811	4750.96
751	4845.12
751.188	4740.88
751.377	4787.77
751.565	4727.9
751.754	4734.88
751.942	4706.01
752.131	4784.28
752.319	4689.15
752.507	4624.83
752.696	4700.78
752.884	4756.77
753.072	4653.31
753.261	4726.74
753.449	4701.55
753.637	4652.73
753.825	4776.72
754.014	4657.57
754.202	4644.01
754.39	4726.93
754.578	4724.03
754.766	4611.65
754.955	4570.38
755.143	4660.67
755.331	4588.79
755.519	4610.3
755.707	4579.88
755.895	4622.11
756.083	4587.43
756.271	4535.32
756.459	4530.86
756.647	4550.43
756.835	4489.59
757.023	4500.05
757.211	4483.39
757.399	4451.81
757.587	4473.32
757.775	4406.67
757.963	4400.27
758.151	4475.25
758.339	4405.12
758.526	4394.66
758.714	4346.61
758.902	4236.95
759.09	4137.17
759.278	3892.46
759.465	3536.55
759.653	3119.6
759.841	2797.02
760.028	2440.71
760.216	2127.23
760.404	1962.55
760.591	1658.17
760.779	1379.95
760.967	1241.42
761.154	1026.17
761.342	1071.7
761.529	1048.64
761.717	1171.28
761.905	1111.22
762.092	1213.13
762.28	1155.4
762.467	1162.37
762.655	1099.4
762.842	1106.57
763.029	1132.53
763.217	1158.3
763.404	1146.1
763.592	1196.28
763.779	1143.77
763.966	1165.08
764.154	1241.81
764.341	1330.93
764.528	1343.91
764.716	1418.7
764.903	1450.47
765.09	1555.68
765.277	1628.91
765.465	1799.6
765.652	1896.48
765.839	1982.5
766.026	2099.33
766.213	2199.89
766.4	2326.79
766.588	2531.39
766.775	2558.32
766.962	2742.57
767.149	2810.77
767.336	2959.18
767.523	2955.69
767.71	3079.11
767.897	3234.5
768.084	3334.28
768.271	3400.73
768.458	3467.57
768.645	3491.41
768.832	3530.93
769.019	3565.8
769.206	3570.45
769.392	3654.15
769.579	3793.46
769.766	3722.74
769.953	3718.09
770.14	3779.31
770.327	3810.51
770.513	3856.81
770.7	3931.79
770.887	3800.82
771.073	3862.43
771.26	3908.93
771.447	3822.33
771.634	3803.15
771.82	3933.15
772.007	3794.43
772.193	3881.81
772.38	3908.54
772.567	3874.64
772.753	3817.68
772.94	3870.57
773.126	3884.33
773.313	3886.46
773.499	3889.94
773.686	3893.63
773.872	3813.22
774.059	3893.82
774.245	3771.95
774.432	3814.58
774.618	3712.47
774.804	3774.28
774.991	3721
775.177	3812.64
775.363	3793.07
775.55	3833.56
775.736	3766.72
775.922	3738.24
776.109	3766.33
776.295	3759.75
776.481	3781.25
776.667	3791.13
776.853	3736.3
777.04	3712.86
777.226	3704.72
777.412	3830.46
777.598	3695.81
777.784	3674.88
777.97	3670.23
778.156	3730.3
778.342	3671.4
778.528	3640.2
778.715	3577.62
778.901	3594.29
779.087	3672.75
779.272	3603
779.458	3597.19
779.644	3626.64
779.83	3578.59
780.016	3707.63
780.202	3627.42
780.388	3550.11
780.574	3491.6
780.76	3559.41
780.946	3585.57
781.131	3581.69
781.317	3546.24
781.503	3528.02
781.689	3553.99
781.874	3684.18
782.06	3535.58
782.246	3557.47
782.432	3522.21
782.617	3525.12
782.803	3583.05
782.989	3451.69
783.174	3433.48
783.36	3440.26
783.545	3431.34
783.731	3461.76
783.916	3341.25
784.102	3451.69
784.288	3395.5
784.473	3424.76
784.659	3415.07
784.844	3409.26
785.029	3395.69
785.215	3360.82
785.4	3269.18
785.586	3492.96
785.771	3301.92
785.956	3369.54
786.142	3339.51
786.327	3316.45
786.512	3276.15
786.698	3301.34
786.883	3254.07
787.068	3272.28
787.254	3303.86
787.439	3243.02
787.624	3208.53
787.809	3206.4
787.994	3196.52
788.18	3258.13
788.365	3148.28
788.55	3194.2
788.735	3174.05
788.92	3142.27
789.105	3154.48
789.29	3191.68
789.475	3109.34
789.66	3118.83
789.845	3120.38
790.03	3102.56
790.215	3114.57
790.4	3096.55
790.585	3181.22
790.77	3095
790.955	3033.58
791.14	3079.69
791.325	3137.24
791.51	2960.54
791.695	2999.68
791.879	3039.2
792.064	2984.37
792.249	3099.84
792.434	3037.46
792.618	3082.02
792.803	3090.16
792.988	3065.94
793.173	3026.02
793.357	3111.66
793.542	3025.06
793.727	3054.51
793.911	3069.23
794.096	3050.82
794.281	3078.53
794.465	3142.66
794.65	3056.06
794.834	3119.02
795.019	3110.11
795.203	3147.5
795.388	3122.32
795.572	3139.95
795.757	3110.5
795.941	3112.63
796.126	3057.41
796.31	3026.41
796.494	3094.61
796.679	3047.92
796.863	3047.14
797.048	3161.26
797.232	3074.46
797.416	3128.71
797.601	3101.2
797.785	3153.12
797.969	3182.57
798.153	3062.84
798.338	3128.9
798.522	3167.85
798.706	3180.25
798.89	3143.05
799.074	3258.72
799.258	3168.04
799.443	3110.11
799.627	3140.92
799.811	3177.92
799.995	3143.63
800.179	3093.64
800.363	3076.98
800.547	3099.26
800.731	3137.62
800.915	3019.05
801.099	3056.83
801.283	3052.76
801.467	3099.26
801.651	3090.16
801.835	3119.99
802.019	3119.6
802.202	3149.83
802.386	3059.35
802.57	3038.62
802.754	3071.56
802.938	3050.05
803.121	3089.57
803.305	3137.62
803.489	3085.12
803.673	3060.71
803.856	3085.7
804.04	3107.79
804.224	3123.87
804.407	3054.7
804.591	3053.92
804.775	3012.46
804.958	3050.44
805.142	3190.32
805.326	3087.06
805.509	3101.39
805.693	3125.42
805.876	3171.34
806.06	3083.37
806.243	3117.28
806.427	3166.69
806.61	3157.97
806.794	3095.97
806.977	3120.77
807.16	3121.35
807.344	3119.02
807.527	3075.62
807.71	3068.26
807.894	3102.56
808.077	3109.34
808.26	3072.72
808.444	3028.16
808.627	3129.68
808.81	3045.79
808.993	2928.57
809.177	2971.97
809.36	2975.65
809.543	2969.06
809.726	2930.31
809.909	2895.83
810.092	2917.14
810.276	2885.95
810.459	2896.02
810.642	2869.48
810.825	2851.46
811.008	2867.93
811.191	2752.07
811.374	2766.02
811.557	2751.29
811.74	2837.9
811.923	2704.4
812.106	2705.37
812.289	2705.18
812.472	2667.79
812.654	2691.23
812.837	2618.38
813.02	2613.15
813.203	2546.5
813.386	2480.63
813.569	2444.01
813.751	2362.25
813.934	2409.72
814.117	2348.88
814.3	2310.71
814.482	2263.05
814.665	2233.02
814.848	2198.92
815.03	2104.56
815.213	2126.46
815.396	2109.6
815.578	2102.82
815.761	2069.69
815.943	2143.51
816.126	2009.63
816.309	1975.91
816.491	1892.6
816.674	1873.23
816.856	1943.17
817.039	1927.28
817.221	1967.78
817.403	1939.88
817.586	1977.85
817.768	1939.1
817.951	1879.62
818.133	1856.95
818.315	1895.12
818.498	1922.05
818.68	1983.47
818.862	1955.77
819.045	1956.73
819.227	1989.28
819.409	1921.67
819.591	1949.95
819.774	1933.68
819.956	1922.83
820.138	2010.79
820.32	2021.06
820.502	2101.08
820.684	2162.49
820.866	2111.54
821.048	2188.65
821.231	2189.23
821.413	2190.59
821.595	2181.29
821.777	2202.41
821.959	2163.07
822.141	2226.04
822.323	2110.76
822.505	1991.03
822.686	1935.23
822.868	1875.55
823.05	1777.13
823.232	1734.7
823.414	1651
823.596	1750.01
823.778	1742.64
823.96	1786.62
824.141	1749.81
824.323	1784.11
824.505	1839.32
824.687	1961.58
824.868	1978.63
825.05	2081.51
825.232	2103.59
825.413	2184.97
825.595	2115.61
825.777	2079.57
825.958	2095.46
826.14	2078.99
826.321	2122.78
826.503	2106.31
826.685	2120.45
826.866	2102.82
827.048	2136.53
827.229	2085.19
827.411	2026.29
827.592	1981.92
827.773	2000.33
827.955	1930
828.136	1913.14
828.318	1914.5
828.499	1947.05
828.68	1883.3
828.862	1918.76
829.043	1923.8
829.224	1916.63
829.406	1894.15
829.587	1914.88
829.768	1897.06
829.949	1885.82
830.131	1870.9
830.312	1942.98
830.493	1933.1
830.674	1941.23
830.855	1870.13
831.036	1888.92
831.218	1969.13
831.399	1994.51
831.58	1945.88
831.761	1917.6
831.942	1931.35
832.123	1925.93
832.304	1854.24
832.485	1892.8
832.666	1913.33
832.847	1943.95
833.028	1881.56
833.209	1894.73
833.389	1880.98
833.57	1819.95
833.751	1860.05
833.932	1891.44
834.113	1884.08
834.294	1852.3
834.475	1907.91
834.655	1957.32
834.836	1986.18
835.017	1947.05
835.198	1928.06
835.378	1957.9
835.559	1945.88
835.74	1932.32
835.92	1886.98
836.101	1903.84
836.281	1936
836.462	1963.52
836.643	2025.51
836.823	1957.32
837.004	1954.8
837.184	2028.03
837.365	1998.39
837.545	2006.33
837.726	1960.03
837.906	1993.93
838.087	1999.94
838.267	1982.7
838.448	1969.33
838.628	1954.8
838.808	1932.9
838.989	2005.17
839.169	1932.13
839.349	2012.92
839.53	1989.67
839.71	2016.02
839.89	1944.72
840.07	2006.91
840.251	1929.42
840.431	1968.55
840.611	1945.88
840.791	1945.11
840.971	1963.13
841.151	1946.85
841.332	1928.45
841.512	1974.95
841.692	1885.63
841.872	1958.09
842.052	1935.23
842.232	1968.94
842.412	1901.13
842.592	1933.29
842.772	1945.69
842.952	1973.2
843.132	1904.62
843.312	1880.59
843.492	1877.69
843.672	1924.38
843.851	1860.25
844.031	1905.78
844.211	1899.19
844.391	1889.5
844.571	1906.55
844.751	1954.99
844.93	1922.25
845.11	1855.4
845.29	1896.67
845.47	1886.79
845.649	1878.85
845.829	1918.18
846.009	1885.63
846.188	1931.55
846.368	1892.41
846.547	1863.35
846.727	1938.13
846.907	1826.92
847.086	1875.75
847.266	1912.56
847.445	1875.55
847.625	1845.52
847.804	1839.9
847.984	1855.4
848.163	1859.09
848.343	1796.51
848.522	1854.05
848.701	1790.89
848.881	1813.17
849.06	1832.35
849.239	1833.32
849.419	1834.48
849.598	1743.03
849.777	1770.54
849.957	1713.77
850.136	1652.94
850.315	1657.01
850.494	1653.52
850.674	1648.29
850.853	1761.44
851.032	1700.21
851.211	1753.3
851.39	1734.12
851.569	1657.59
851.748	1675.22
851.927	1758.34
852.107	1680.06
852.286	1648.68
852.465	1645.77
852.644	1723.46
852.823	1711.84
853.002	1683.16
853.181	1706.61
853.359	1740.12
853.538	1626.39
853.717	1682.78
853.896	1602.37
854.075	1534.95
854.254	1489.8
854.433	1379.95
854.611	1491.74
854.79	1409.01
854.969	1507.05
855.148	1534.75
855.327	1458.22
855.505	1505.3
855.684	1500.46
855.863	1562.07
856.041	1539.79
856.22	1608.18
856.399	1487.67
856.577	1636.66
856.756	1653.71
856.934	1712.42
857.113	1732.96
857.291	1637.83
857.47	1585.71
857.648	1639.57
857.827	1650.81
858.005	1677.35
858.184	1591.33
858.362	1701.38
858.541	1623.68
858.719	1614
858.898	1586.29
859.076	1600.63
859.254	1694.79
859.433	1566.33
859.611	1562.07
859.789	1546.38
859.967	1652.55
860.146	1642.86
860.324	1564.2
860.502	1570.01
860.68	1500.07
860.859	1543.66
861.037	1560.91
861.215	1548.31
861.393	1568.08
861.571	1552.19
861.749	1548.51
861.927	1547.35
862.105	1579.9
862.283	1538.82
862.461	1503.56
862.639	1503.95
862.817	1533.2
862.995	1529.13
863.173	1521.77
863.351	1504.72
863.529	1533.01
863.707	1560.71
863.885	1574.08
864.063	1450.08
864.241	1476.24
864.418	1542.11
864.596	1474.5
864.774	1434.39
864.952	1480.31
865.129	1494.65
865.307	1465.39
865.485	1404.36
865.663	1471.01
865.84	1367.16
866.018	1429.16
866.196	1284.82
866.373	1315.04
866.551	1291.41
866.728	1215.65
866.906	1282.49
867.084	1261.18
867.261	1348.17
867.439	1359.99
867.616	1366.39
867.794	1343.33
867.971	1375.1
868.149	1370.07
868.326	1406.69
868.503	1393.7
868.681	1382.85
868.858	1382.27
869.035	1320.86
869.213	1394.09
869.39	1396.8
869.567	1418.5
869.745	1358.64
869.922	1332.87
870.099	1352.82
870.276	1390.02
870.454	1402.04
870.631	1374.91
870.808	1373.94
870.985	1426.64
871.162	1446.4
871.339	1364.64
871.517	1325.31
871.694	1303.22
871.871	1364.25
872.048	1354.76
872.225	1319.11
872.402	1348.37
872.579	1320.47
872.756	1370.07
872.933	1263.89
873.11	1299.54
873.287	1333.45
873.463	1307.29
873.64	1294.31
873.817	1342.56
873.994	1312.91
874.171	1284.82
874.348	1330.74
874.524	1280.17
874.701	1288.11
874.878	1216.43
875.055	1290.44
875.231	1268.16
875.408	1300.9
875.585	1219.91
875.762	1280.94
875.938	1243.36
876.115	1241.42
876.291	1261.96
876.468	1220.69
876.645	1198.21
876.821	1232.51
876.998	1256.14
877.174	1250.91
877.351	1234.44
877.527	1215.65
877.704	1250.53
877.88	1224.95
878.057	1225.34
878.233	1283.07
878.409	1223.79
878.586	1243.16
878.762	1213.52
878.938	1196.28
879.115	1143.58
879.291	1186.4
879.467	1135.63
879.644	1186.78
879.82	1211.78
879.996	1161.4
880.172	1110.83
880.349	1136.99
880.525	1178.06
880.701	1125.95
880.877	1126.14
881.053	1180.97
881.229	1135.63
881.405	1195.89
881.581	1121.68
881.757	1142.03
881.933	1151.13
882.109	1216.62
882.285	1166.63
882.461	1112.77
882.637	1150.94
882.813	1101.15
882.989	1142.22
883.165	1204.99
883.341	1097.85
883.517	1173.8
883.693	1197.05
883.869	1184.65
884.044	1110.83
884.22	1155.01
884.396	1203.83
884.572	1141.83
884.747	1196.86
884.923	1150.16
885.099	1201.12
885.275	1199.57
885.45	1131.76
885.626	1140.09
885.801	1115.68
885.977	1145.32
886.153	1112.96
886.328	1138.73
886.504	1097.85
886.679	1118.2
886.855	1155.01
887.03	1116.45
887.206	1157.53
887.381	1136.6
887.557	1149.78
887.732	1136.02
887.908	1161.01
888.083	1168.38
888.258	1134.66
888.434	1140.67
888.609	1163.15
888.784	1186.59
888.96	1127.5
889.135	1121.68
889.31	1107.93
889.485	1126.91
889.661	1118.78
889.836	1163.15
890.011	1141.45
890.186	1112.19
890.361	1134.66
890.537	1136.99
890.712	1136.41
890.887	1144.16
891.062	1160.63
891.237	1199.38
891.412	1136.02
891.587	1153.65
891.762	1168.57
891.937	1177.48
892.112	1100.56
892.287	1112.96
892.462	1071.89
892.637	1082.16
892.812	1050.38
892.987	1055.42
893.161	1060.85
893.336	1042.83
893.511	1035.85
893.686	1053.68
893.861	1030.43
894.035	1032.95
894.21	1033.92
894.385	999.82
894.56	1025.39
894.734	978.12
894.909	950.02
895.084	981.22
895.258	958.16
895.433	980.25
895.608	912.63
895.782	866.71
895.957	868.65
896.131	872.72
896.306	802.19
896.48	819.24
896.655	837.07
896.829	774.29
897.004	770.23
897.178	771.97
897.353	758.79
897.527	805.29
897.701	765.96
897.876	759.96
898.05	805.88
898.224	792.31
898.399	825.06
898.573	773.33
898.747	635.96
898.921	713.65
899.096	601.08
899.27	642.74
899.444	659.02
899.618	692.73
899.792	694.28
899.967	685.75
900.141	738.26
900.315	663.47
900.489	693.5
900.663	688.46
900.837	685.56
901.011	613.29
901.185	747.75
901.359	678.58
901.533	689.82
901.707	679.55
901.881	692.92
902.055	608.64
902.229	693.11
902.403	735.35
902.576	672.77
902.75	733.61
902.924	794.83
903.098	756.86
903.272	766.35
903.446	815.76
903.619	812.85
903.793	825.64
903.967	811.49
904.14	877.76
904.314	868.65
904.488	826.22
904.661	881.82
904.835	805.88
905.009	875.62
905.182	910.11
905.356	872.72
905.529	845.79
905.703	815.56
905.876	796.38
906.05	775.26
906.223	769.64
906.397	720.43
906.57	707.65
906.744	664.25
906.917	666.76
907.09	662.31
907.264	679.55
907.437	620.46
907.61	641.58
907.784	624.92
907.957	649.91
908.13	618.33
908.304	655.92
908.477	604.18
908.65	631.12
908.823	582.48
908.996	674.51
909.17	591.78
909.343	616
909.516	585
909.689	601.28
909.862	576.48
910.035	610.77
910.208	578.42
910.381	567.37
910.554	647.39
910.727	632.47
910.9	565.24
911.073	582.1
911.246	643.32
911.419	654.95
911.592	633.83
911.765	557.1
911.938	579.19
912.11	612.9
912.283	605.93
912.456	622.59
912.629	613.48
912.802	553.04
912.974	531.72
913.147	478.25
913.32	445.12
913.493	495.69
913.665	486.19
913.838	493.36
914.01	502.85
914.183	536.37
914.356	510.41
914.528	570.09
914.701	604.18
914.873	596.05
915.046	524.55
915.218	482.12
915.391	409.27
915.563	443.37
915.736	510.02
915.908	548.97
916.081	531.53
916.253	508.67
916.425	519.32
916.598	539.09
916.77	527.07
916.942	479.99
917.115	439.11
917.287	514.48
917.459	487.16
917.632	437.17
917.804	417.02
917.976	484.84
918.148	507.5
918.32	509.25
918.493	515.25
918.665	564.08
918.837	537.92
919.009	584.23
919.181	578.8
919.353	524.75
919.525	516.8
919.697	557.69
919.869	581.71
920.041	578.61
920.213	653.78
920.385	592.56
920.557	511.96
920.729	590.62
920.901	583.45
921.073	552.65
921.244	559.62
921.416	581.52
921.588	540.64
921.76	536.18
921.932	595.27
922.103	559.82
922.275	549.16
922.447	548.97
922.619	487.36
922.79	538.89
922.962	510.6
923.134	546.25
923.305	485.81
923.477	461.59
923.648	480.77
923.82	501.89
923.991	452.87
924.163	443.96
924.335	488.9
924.506	438.53
924.677	506.15
924.849	434.27
925.02	478.83
925.192	492
925.363	471.47
925.535	465.46
925.706	444.92
925.877	517
926.049	447.25
926.22	465.07
926.391	448.22
926.562	499.95
926.734	452.09
926.905	495.1
927.076	410.63
927.247	437.56
927.419	382.34
927.59	386.8
927.761	366.65
927.932	393.58
928.103	382.93
928.274	309.5
928.445	319.38
928.616	357.93
928.787	350.18
928.958	344.56
929.129	335.46
929.3	320.15
929.471	278.3
929.642	239.16
929.813	202.16
929.984	283.53
930.155	224.44
930.326	250.6
930.496	212.82
930.667	162.25
930.838	244.2
931.009	197.7
931.18	204.48
931.35	176.78
931.521	170.38
931.692	138.61
931.863	110.32
932.033	136.48
932.204	160.12
932.374	173.29
932.545	126.21
932.716	182.78
932.886	142.1
933.057	83.39
933.227	95.99
933.398	186.85
933.568	58.59
933.739	33.41
933.909	66.15
934.08	125.82
934.25	18.68
934.421	67.5
934.591	112.84
934.761	32.82
934.932	23.14
935.102	67.31
935.272	52.39
935.443	51.04
935.613	31.86
935.783	87.65
935.953	46.19
936.123	218.63
936.294	55.1
936.464	60.14
936.634	54.72
936.804	55.88
936.974	2.6
937.144	93.85
937.314	51.42
937.484	43.09
937.655	37.67
937.825	106.25
937.995	43.67
938.165	113.62
938.334	76.42
938.504	92.3
938.674	73.7
938.844	74.48
939.014	138.03
939.184	127.37
939.354	208.55
939.524	140.16
939.694	123.69
939.863	106.84
940.033	149.07
940.203	173.87
940.373	144.42
940.542	160.7
940.712	119.43
940.882	154.88
941.051	160.12
941.221	165.93
941.391	175.42
941.56	81.07
941.73	106.25
941.899	208.75
942.069	102.19
942.238	124.47
942.408	108
942.577	151.78
942.747	105.67
942.916	67.5
943.086	95.6
943.255	177.94
943.425	117.88
943.594	91.14
943.763	44.06
943.933	60.14
944.102	30.11
944.271	67.31
944.441	117.1
944.61	67.7
944.779	82.23
944.948	157.6
945.117	37.86
945.287	92.89
945.456	52.97
945.625	68.09
945.794	107.03
945.963	70.41
946.132	110.32
946.301	44.06
946.47	119.04
946.639	16.36
946.808	66.15
946.977	106.25
947.146	168.83
947.315	86.88
947.484	107.03
947.653	75.45
947.822	57.04
947.991	78.16
948.16	171.16
948.329	112.26
948.498	87.65
948.666	89.59
948.835	132.41
949.004	42.32
949.173	46.77
949.341	82.42
949.51	111.29
949.679	130.09
949.847	115.36
950.016	184.53
950.185	170.58
950.353	60.14
950.522	77.39
950.69	161.08
950.859	93.08
951.028	122.92
951.196	99.09
951.365	54.14
951.533	100.64
951.701	92.69
951.87	120.4
952.038	55.88
952.207	92.3
952.375	148.88
952.543	76.61
952.712	90.17
952.88	114.39
953.048	154.88
953.217	112.65
953.385	101.02
953.553	154.5
953.721	68.86
953.89	85.33
954.058	32.63
954.226	80.29
954.394	98.89
954.562	18.87
954.73	109.35
954.898	68.47
955.067	118.27
955.235	71.38
955.403	132.99
955.571	174.65
955.739	111.68
955.907	63.82
956.075	90.37
956.243	83
956.41	114.78
956.578	39.41
956.746	64.21
956.914	90.95
957.082	135.7
957.25	101.02
957.418	82.81
957.585	130.28
957.753	143.07
957.921	60.92
958.089	76.22
958.256	104.32
958.424	128.54
958.592	101.22
958.759	64.79
958.927	94.05
959.095	52.78
959.262	109.74
959.43	116.52
959.597	70.6
959.765	76.03
959.932	59.56
960.1	97.73
960.267	92.69
960.435	117.49
960.602	143.84
960.77	78.74
960.937	61.89
961.104	111.49
961.272	51.04
961.439	98.5
961.606	102.38
961.774	118.65
961.941	80.1
962.108	118.65
962.275	94.63
962.443	137.84
962.61	112.65
962.777	203.32
962.944	163.02
963.111	121.56
963.278	132.41
963.446	116.91
963.613	101.02
963.78	133.57
963.947	149.85
964.114	119.04
964.281	201.77
964.448	106.06
964.615	111.29
964.782	112.45
964.949	149.27
965.116	119.82
965.282	135.32
965.449	117.88
965.616	73.7
965.783	144.03
965.95	136.29
966.117	102.19
966.283	106.64
966.45	108.19
966.617	145.2
966.784	153.72
966.95	137.06
967.117	146.36
967.284	78.55
967.45	83.59
967.617	151.78
967.784	173.29
967.95	153.72
968.117	131.25
968.283	173.48
968.45	223.67
968.616	165.93
968.783	180.85
968.949	157.21
969.116	154.88
969.282	156.82
969.449	146.94
969.615	172.52
969.781	98.12
969.948	144.23
970.114	96.95
970.28	188.98
970.447	141.9
970.613	196.54
970.779	152.17
970.945	150.23
971.112	122.34
971.278	140.16
971.444	156.63
971.61	182.01
971.776	136.29
971.942	143.07
972.108	167.87
972.275	131.44
972.441	161.47
972.607	201.58
972.773	122.14
972.939	166.9
973.105	105.09
973.271	99.28
973.437	98.89
973.602	87.46
973.768	162.63
973.934	128.34
974.1	164.57
974.266	58.01
974.432	148.3
974.598	111.29
974.763	146.55
974.929	105.29
975.095	179.1
975.261	76.61
975.426	88.62
975.592	104.51
975.758	157.4
975.923	102.38
976.089	110.9
976.255	155.27
976.42	136.29
976.586	135.9
976.751	119.24
976.917	206.81
977.082	139.97
977.248	99.28
977.413	37.28
977.579	89.4
977.744	133.19
977.91	72.35
978.075	72.54
978.24	131.05
978.406	72.54
978.571	100.64
978.736	105.67
978.902	143.07
979.067	95.6
979.232	59.37
979.397	137.25
979.563	175.62
979.728	89.59
979.893	102.77
980.058	98.89
980.223	138.03
980.388	111.1
980.554	122.72
980.719	100.44
980.884	129.5
981.049	149.65
981.214	117.49
981.379	135.7
981.544	99.67
981.709	122.53
981.874	125.63
982.039	112.84
982.204	174.84
982.368	129.5
982.533	98.31
982.698	155.66
982.863	134.93
983.028	130.86
983.193	127.57
983.357	130.09
983.522	123.89
983.687	98.7
983.852	109.94
984.016	95.02
984.181	125.24
984.346	121.95
984.51	135.7
984.675	95.02
984.839	137.06
985.004	140.55
985.168	155.66
985.333	136.29
985.498	122.34
985.662	132.8
985.827	130.09
985.991	91.34
986.155	93.08
986.32	127.57
986.484	150.23
986.649	114.97
986.813	80.29
986.977	144.23
987.142	121.95
987.306	74.48
987.47	119.24
987.634	106.25
987.799	131.05
987.963	122.72
988.127	151.4
988.291	185.88
988.455	105.29
988.62	101.22
988.784	145.39
988.948	144.81
989.112	94.05
989.276	106.84
989.44	104.9
989.604	84.36
989.768	83.78
989.932	190.34
990.096	53.75
990.26	48.13
990.424	106.84
990.588	113.62
990.752	180.46
990.915	117.69
991.079	100.83
991.243	69.05
991.407	132.8
991.571	102.96
991.734	115.94
991.898	123.3
992.062	216.11
992.226	107.42
992.389	95.4
992.553	52.2
992.717	96.95
992.88	86.1
993.044	92.11
993.207	94.44
993.371	126.02
993.535	107.8
993.698	111.87
993.862	115.75
994.025	152.37
994.189	121.75
994.352	93.47
994.515	91.72
994.679	113.81
994.842	106.25
995.006	125.44
995.169	65.95
995.332	96.37
995.496	107.03
995.659	51.04
995.822	81.26
995.985	88.24
996.149	135.51
996.312	71.57
996.475	157.6
996.638	52.97
996.801	148.1
996.964	141.71
997.128	62.47
997.291	91.72
997.454	103.93
997.617	33.99
997.78	114
997.943	78.35
998.106	130.67
998.269	54.72
998.432	87.46
998.595	95.99
998.758	37.28
998.92	49.68
999.083	27.98
999.246	65.57
999.409	56.85
999.572	29.53
999.735	78.94
999.897	118.85
1000.06	69.64
1000.223	47.16
1000.386	89.59
1000.548	115.75
1000.711	79.9
1000.874	106.64
1001.036	25.66
1001.199	133.77
1001.361	74.09
1001.524	85.14
1001.687	96.95
1001.849	71.19
1002.012	105.09
1002.174	58.59
1002.337	82.04
1002.499	62.08
1002.661	92.69
1002.824	66.54
1002.986	46.19
1003.149	89.01
1003.311	29.14
1003.473	141.32
1003.636	63.24
1003.798	97.92
1003.96	86.1
1004.123	63.44
1004.285	48.91
1004.447	69.25
1004.609	63.24
1004.771	98.7
1004.933	32.82
1005.096	28.37
1005.258	27.01
1005.42	65.95
1005.582	97.73
1005.744	100.25
1005.906	41.74
1006.068	37.86
1006.23	45.22
1006.392	13.45
1006.554	27.79
1006.716	105.87
1006.878	70.6
1007.04	50.84
1007.202	53.55
1007.363	80.68
1007.525	52.78
1007.687	83.78
1007.849	123.69
1008.011	-5.34
1008.172	16.36
1008.334	64.4
1008.496	86.3
1008.658	-22.2
1008.819	6.09
1008.981	26.43
1009.143	41.35
1009.304	50.65
1009.466	76.42
1009.627	101.22
1009.789	148.68
1009.95	71.96
1010.112	34.76
1010.273	77.58
1010.435	16.74
1010.596	30.69
1010.758	36.7
1010.919	33.99
1011.081	44.06
1011.242	46.77
1011.403	76.22
1011.565	66.15
1011.726	62.27
1011.887	15
1012.049	43.87
1012.21	100.44
1012.371	108.97
1012.532	-7.28
1012.693	30.5
1012.855	29.34
1013.016	57.24
1013.177	69.83
1013.338	44.45
1013.499	107.8
1013.66	71.38
1013.821	78.74
1013.982	57.82
1014.143	62.47
1014.304	34.18
1014.465	70.22
1014.626	73.7
1014.787	47.16
1014.948	134.35
1015.109	-24.53
1015.27	71.57
1015.431	31.27
1015.592	34.96
1015.752	86.88
1015.913	45.03
1016.074	73.9
1016.235	33.79
1016.395	43.87
1016.556	46.97
1016.717	26.43
1016.877	114.97
1017.038	25.66
1017.199	66.15
1017.359	40.77
1017.52	42.9
1017.681	49.49
1017.841	52.2
1018.002	16.16
1018.162	18.1
1018.323	95.02
1018.483	39.99
1018.644	17.13
1018.804	8.41
1018.964	21.59
1019.125	27.59
1019.285	38.44
1019.446	38.06
1019.606	6.67
1019.766	-2.83
1019.926	65.76
1020.087	43.87
1020.247	-2.05
1020.407	42.71
1020.567	79.32
1020.728	48.52
1020.888	3.57
1021.048	14.81
1021.208	36.31
1021.368	22.94
1021.528	84.75
1021.688	45.61
1021.848	57.04
1022.008	53.94
1022.168	11.32
1022.328	62.08
1022.488	56.27
1022.648	6.86
1022.808	19.07
1022.968	39.99
1023.128	-14.84
1023.288	15.58
1023.448	12.09
1023.608	78.94
1023.767	53.36
1023.927	-5.34
1024.087	9.77
1024.247	19.84
1024.406	16.16
1024.566	-3.79
1024.726	2.79
1024.885	35.15
1025.045	66.34
1025.205	13.84
1025.364	25.07
1025.524	70.6
1025.683	-0.69
1025.843	61.11
1026.003	28.95
1026.162	106.25
1026.321	66.15
1026.481	28.95
1026.64	15
1026.8	37.09
1026.959	42.9
1027.119	27.4
1027.278	23.33
1027.437	4.54
1027.597	30.69
1027.756	25.66
1027.915	16.36
1028.074	54.52
1028.234	2.21
1028.393	28.95
1028.552	27.01
1028.711	-58.04
1028.87	74.29
1029.03	-27.63
1029.189	45.42
1029.348	-29.18
1029.507	12.09
1029.666	3.76
1029.825	1.44
1029.984	-4.38
1030.143	29.53
1030.302	-1.66
1030.461	-36.15
1030.62	40.57
1030.779	47.74
1030.938	15
1031.097	-16.97
1031.255	41.35
1031.414	63.63
1031.573	57.04
1031.732	-40.61
1031.891	-6.12
1032.049	71.96
1032.208	22.17
1032.367	1.44
1032.525	15
1032.684	4.92
1032.843	23.91
1033.001	-39.44
1033.16	161.28
1033.319	75.45
1033.477	4.73
1033.636	12.48
1033.794	-35.38
1033.953	52.59
1034.111	37.28
1034.27	-12.71
1034.428	37.86
1034.587	-14.64
1034.745	54.33
1034.903	11.32
1035.062	55.69
1035.22	-23.17
1035.378	49.49
1035.537	-18.13
1035.695	42.9
1035.853	30.69
1036.011	63.05
1036.17	4.73
1036.328	-61.72
1036.486	38.06
1036.644	24.49
1036.802	-75.29
1036.96	-38.47
1037.119	0.66
1037.277	-2.05
1037.435	-19.68
1037.593	-11.35
1037.751	27.98
1037.909	33.6
1038.067	33.6
