Data from calibration2_FLMT105791__7__17-17-49-083.txt Node

Date: Mon Mar 20 17:17:49 GMT 2023
User: antho
Spectrometer: FLMT10579
Trigger mode: 0
Integration Time (sec): 1.000000E-1
Scans to average: 10
Electric dark correction enabled: true
Nonlinearity correction enabled: false
Boxcar width: 0
XAxis mode: Wavelengths
Number of Pixels in Spectrum: 3648
>>>>>Begin Spectral Data<<<<<
345.248	-151.62
345.464	-151.62
345.681	-151.62
345.898	-180.69
346.114	-150.85
346.331	-42.16
346.548	18.29
346.764	-8.64
346.981	-8.25
347.197	6.28
347.414	4.15
347.631	-10.38
347.847	65.76
348.064	3.18
348.28	32.24
348.497	-33.44
348.713	-27.04
348.93	23.33
349.146	93.08
349.363	101.6
349.579	125.63
349.796	88.43
350.012	99.09
350.229	128.34
350.445	109.74
350.661	104.7
350.878	133.57
351.094	118.85
351.311	135.12
351.527	109.74
351.743	92.5
351.96	132.22
352.176	131.44
352.392	136.29
352.609	147.52
352.825	113.81
353.041	124.47
353.257	121.37
353.474	140.35
353.69	160.89
353.906	111.49
354.122	115.55
354.339	190.34
354.555	136.87
354.771	161.86
354.987	219.4
355.203	201.97
355.42	111.49
355.636	147.52
355.852	144.81
356.068	141.71
356.284	114.97
356.5	200.42
356.716	149.46
356.932	147.33
357.148	186.47
357.364	128.92
357.58	148.68
357.796	190.53
358.012	193.63
358.228	183.56
358.444	60.92
358.66	196.73
358.876	127.95
359.092	119.43
359.308	163.41
359.524	187.43
359.74	150.04
359.956	162.44
360.172	212.43
360.388	249.43
360.604	158.37
360.819	281.79
361.035	208.55
361.251	201.77
361.467	160.12
361.683	229.28
361.898	212.04
362.114	226.76
362.33	220.76
362.546	251.76
362.762	207.78
362.977	213.98
363.193	185.11
363.409	263.19
363.624	208.36
363.84	225.22
364.056	215.14
364.271	264.16
364.487	246.14
364.703	247.11
364.918	214.95
365.134	262.61
365.35	224.25
365.565	353.48
365.781	296.71
365.996	332.94
366.212	394.16
366.427	316.08
366.643	309.88
366.858	319.38
367.074	310.85
367.289	369.17
367.505	422.84
367.72	314.14
367.936	319.38
368.151	350.76
368.367	334.68
368.582	326.93
368.798	327.51
369.013	370.14
369.228	313.56
369.444	356.77
369.659	384.48
369.874	344.76
370.09	430.2
370.305	301.75
370.52	358.13
370.736	391.64
370.951	338.36
371.166	390.29
371.381	396.29
371.597	380.21
371.812	350.57
372.027	341.08
372.242	363.55
372.458	395.91
372.673	328.48
372.888	306.98
373.103	353.86
373.318	404.82
373.533	362.78
373.749	326.93
373.964	267.65
374.179	364.52
374.394	274.04
374.609	337.78
374.824	288.57
375.039	377.69
375.254	288.96
375.469	378.47
375.684	345.53
375.899	441.44
376.114	418.57
376.329	393.39
376.544	414.51
376.759	394.36
376.974	344.56
377.189	387.58
377.404	394.36
377.619	472.82
377.834	416.44
378.049	433.69
378.264	432.14
378.478	485.42
378.693	467.01
378.908	535.02
379.123	481.93
379.338	502.66
379.553	445.7
379.767	434.66
379.982	459.26
380.197	430.59
380.412	454.61
380.626	467.21
380.841	559.82
381.056	529.2
381.271	558.65
381.485	465.27
381.7	455.39
381.915	473.02
382.129	422.06
382.344	424.77
382.559	386.22
382.773	422.26
382.988	294.58
383.202	372.08
383.417	317.05
383.632	449.77
383.846	351.54
384.061	387.58
384.275	366.84
384.49	431.75
384.704	465.07
384.919	491.81
385.133	516.42
385.348	557.88
385.562	485.81
385.777	537.73
385.991	529.01
386.206	500.72
386.42	490.84
386.634	557.69
386.849	568.34
387.063	589.07
387.277	519.71
387.492	494.33
387.706	537.15
387.92	515.64
388.135	584.23
388.349	577.64
388.563	558.85
388.778	531.72
388.992	583.26
389.206	578.22
389.42	666.96
389.635	621.43
389.849	714.43
390.063	732.64
390.277	712.88
390.491	794.83
390.706	748.53
390.92	748.14
391.134	767.71
391.348	801.03
391.562	757.44
391.776	829.9
391.99	788.24
392.205	829.71
392.419	746.01
392.633	726.44
392.847	721.98
393.061	599.34
393.275	619.49
393.489	479.99
393.703	417.99
393.917	479.02
394.131	415.47
394.345	535.79
394.559	637.32
394.773	700.48
394.986	775.07
395.2	785.73
395.414	899.07
395.628	859.16
395.842	955.64
396.056	917.09
396.27	850.24
396.484	841.52
396.697	742.13
396.911	665.6
397.125	557.1
397.339	565.63
397.553	613.1
397.766	722.56
397.98	845.98
398.194	962.81
398.408	1002.92
398.621	1101.92
398.835	1142.61
399.049	1192.79
399.262	1255.37
399.476	1273.97
399.69	1315.43
399.903	1316.4
400.117	1272.42
400.331	1337.32
400.544	1322.02
400.758	1451.44
400.971	1380.72
401.185	1362.32
401.398	1355.73
401.612	1461.52
401.826	1489.22
402.039	1449.5
402.253	1492.13
402.466	1526.81
402.68	1502.2
402.893	1575.83
403.106	1513.05
403.32	1469.65
403.533	1488.45
403.747	1473.72
403.96	1486.12
404.174	1529.91
404.387	1525.07
404.6	1542.89
404.814	1567.11
405.027	1489.42
405.24	1512.67
405.454	1527.2
405.667	1605.08
405.88	1541.15
406.094	1559.75
406.307	1596.36
406.52	1554.9
406.733	1473.33
406.947	1491.93
407.16	1584.16
407.373	1612.06
407.586	1620.58
407.799	1601.01
408.012	1666.31
408.226	1585.9
408.439	1749.81
408.652	1660.3
408.865	1783.72
409.078	1844.75
409.291	1816.85
409.504	1817.04
409.717	1849.59
409.93	1818.2
410.143	1719.78
410.357	1623.1
410.57	1533.59
410.783	1587.65
410.996	1665.34
411.209	1726.56
411.421	1894.15
411.634	1914.5
411.847	1895.51
412.06	1977.85
412.273	1991.41
412.486	1977.27
412.699	2003.43
412.912	2018.73
413.125	1969.33
413.338	1953.25
413.55	1938.91
413.763	1946.85
413.976	1946.85
414.189	1958.87
414.402	1993.93
414.615	2119.87
414.827	1965.45
415.04	2027.26
415.253	2035.01
415.466	2036.36
415.678	2096.43
415.891	2046.83
416.104	2037.91
416.316	2022.03
416.529	2098.75
416.742	2159.59
416.954	2182.26
417.167	2127.43
417.38	2094.49
417.592	2095.46
417.805	2012.53
418.017	2008.27
418.23	2056.9
418.442	2014.28
418.655	2035.01
418.868	2070.27
419.08	2114.83
419.293	2127.23
419.505	2142.54
419.718	2132.85
419.93	2154.16
420.142	2124.71
420.355	2147.77
420.567	2124.52
420.78	2182.06
420.992	2179.35
421.205	2321.95
421.417	2304.51
421.629	2346.17
421.842	2299.09
422.054	2301.02
422.266	2351.78
422.479	2296.95
422.691	2185.74
422.903	2219.46
423.115	2081.51
423.328	2125.49
423.54	2163.27
423.752	2191.56
423.964	2281.26
424.177	2317.1
424.389	2282.23
424.601	2412.04
424.813	2340.16
425.025	2383.75
425.238	2372.13
425.45	2314.97
425.662	2338.42
425.874	2625.55
426.086	2344.03
426.298	2396.54
426.51	2411.85
426.722	2349.85
426.934	2393.05
427.146	2402.35
427.358	2336.09
427.57	2325.24
427.782	2285.14
427.994	2275.64
428.206	2311.49
428.418	2419.21
428.63	2504.84
428.842	2518.41
429.054	2422.7
429.266	2366.32
429.478	2301.22
429.69	2311.1
429.902	2196.4
430.114	2256.85
430.325	2079.76
430.537	2004.2
430.749	1902.68
430.961	1809.68
431.173	1881.56
431.384	1927.48
431.596	1973.98
431.808	2289.59
432.02	2538.36
432.231	2741.22
432.443	2870.83
432.655	2731.14
432.867	2631.36
433.078	2703.24
433.29	2782.48
433.502	2822.59
433.713	2878.39
433.925	2958.41
434.136	2810.77
434.348	2629.62
434.56	2583.31
434.771	2722.42
434.983	2634.66
435.194	2812.9
435.406	2948.91
435.617	2968.68
435.829	3075.43
436.04	3064
436.252	3048.5
436.463	3170.95
436.675	3293.2
436.886	3279.83
437.098	3361.98
437.309	3354.04
437.521	3222.29
437.732	3157.19
437.943	3136.65
438.155	3130.84
438.366	3062.84
438.578	3126.39
438.789	3003.74
439	2931.86
439.211	2962.48
439.423	3028.74
439.634	3108.95
439.845	3233.92
440.057	3247.87
440.268	3401.12
440.479	3342.8
440.69	3341.83
440.902	3270.92
441.113	3251.74
441.324	3313.74
441.535	3444.13
441.746	3606.88
441.957	3553.02
442.168	3586.15
442.38	3623.74
442.591	3711.89
442.802	3582.85
443.013	3702.4
443.224	3767.11
443.435	3679.73
443.646	3701.04
443.857	3641.37
444.068	3641.95
444.279	3624.32
444.49	3840.73
444.701	3764.78
444.912	3947.87
445.123	3873.09
445.334	3798.11
445.545	3831.24
445.756	3718.87
445.967	3655.9
446.178	3605.33
446.388	3606.69
446.599	3627.61
446.81	3706.27
447.021	3691.16
447.232	3769.63
447.443	3900.02
447.653	3952.52
447.864	4033.7
448.075	4069.16
448.286	4045.33
448.496	3988.75
448.707	4049.2
448.918	3921.52
449.129	4049.59
449.339	4023.82
449.55	4042.42
449.761	4059.28
449.971	4012.2
450.182	4157.12
450.393	4200.52
450.603	4140.46
450.814	4319.09
451.024	4306.5
451.235	4455.88
451.446	4422.75
451.656	4411.71
451.867	4325.88
452.077	4239.66
452.288	4351.45
452.498	4270.85
452.709	4246.44
452.919	4110.43
453.13	4024.21
453.34	4032.15
453.55	3888.78
453.761	4138.91
453.971	4028.67
454.182	4198.58
454.392	4159.45
454.602	4338.86
454.813	4365.59
455.023	4260.78
455.233	4132.32
455.444	4302.82
455.654	4119.73
455.864	4206.72
456.075	4299.14
456.285	4240.24
456.495	4341.37
456.705	4361.91
456.916	4490.95
457.126	4515.17
457.336	4504.51
457.546	4322.58
457.756	4478.55
457.967	4555.85
458.177	4436.12
458.387	4440.77
458.597	4321.81
458.807	4423.14
459.017	4347.77
459.227	4374.31
459.437	4346.99
459.647	4506.06
459.857	4407.06
460.068	4554.3
460.278	4529.89
460.488	4507.03
460.698	4554.11
460.908	4574.84
461.117	4693.99
461.327	4664.74
461.537	4813.54
461.747	4719.96
461.957	4748.05
462.167	4885.42
462.377	4853.64
462.587	4791.64
462.797	4951.48
463.007	4878.05
463.216	4970.47
463.426	5072.58
463.636	4977.45
463.846	4826.91
464.056	4782.34
464.265	4800.56
464.475	4786.99
464.685	4965.05
464.895	4919.52
465.104	4789.12
465.314	5000.5
465.524	4885.61
465.733	4872.24
465.943	5025.69
466.153	5094.47
466.362	5135.16
466.572	5082.07
466.782	4999.73
466.991	5061.92
467.201	5043.9
467.41	4923.39
467.62	5122.37
467.829	5100.09
468.039	5195.8
468.249	5161.31
468.458	5229.9
468.668	5236.29
468.877	5343.44
469.086	5342.08
469.296	5490.3
469.505	5496.3
469.715	5514.71
469.924	5442.25
470.134	5532.53
470.343	5363.97
470.552	5369.59
470.762	5387.03
470.971	5385.28
471.18	5465.5
471.39	5506.18
471.599	5452.9
471.808	5623.98
472.018	5783.82
472.227	5838.85
472.436	6078.71
472.645	6050.81
472.855	5966.53
473.064	6201.93
473.273	6266.45
473.482	6056.62
473.691	6204.45
473.901	6086.26
474.11	6020.39
474.319	6294.73
474.528	6224.4
474.737	6543.89
474.946	6392.58
475.155	6526.46
475.364	6660.92
475.573	6468.53
475.783	6625.65
475.992	6596.59
476.201	6584.19
476.41	6680.1
476.619	6528.78
476.828	6578.19
477.037	6550.87
477.245	6552.61
477.454	6709.74
477.663	6859.51
477.872	7039.5
478.081	7171.63
478.29	7052.29
478.499	7195.85
478.708	7276.65
478.917	7286.14
479.125	7157.68
479.334	7260.95
479.543	7418.86
479.752	7520.38
479.961	7446.95
480.169	7689.91
480.378	7680.61
480.587	7891.02
480.796	7793.56
481.004	7808.68
481.213	7797.63
481.422	7913.69
481.63	8114.41
481.839	8108.98
482.048	8226.01
482.256	8182.99
482.465	8386.43
482.674	8323.07
482.882	8374.03
483.091	8449.59
483.299	8276.57
483.508	8554.6
483.716	8599.94
483.925	8641.01
484.134	8366.67
484.342	8520.31
484.551	8557.12
484.759	8514.69
484.967	8828.56
485.176	8735.76
485.384	8764.62
485.593	8709.21
485.801	8545.11
486.01	8328.5
486.218	7820.11
486.426	7564.55
486.635	7304.35
486.843	7426.02
487.051	7697.66
487.26	7864.47
487.468	8055.7
487.676	8272.7
487.885	8555.57
488.093	8799.3
488.301	9023.28
488.509	9007.97
488.717	9153.86
488.926	9236.2
489.134	9088.96
489.342	9074.43
489.55	9016.11
489.758	9261.2
489.967	9548.33
490.175	9518.49
490.383	9817.25
490.591	9981.74
490.799	9858.91
491.007	9838.76
491.215	9930.4
491.423	9760.29
491.631	9855.42
491.839	9761.65
492.047	9632.42
492.255	9474.32
492.463	9512.88
492.671	9335.21
492.879	9682.02
493.087	9753.9
493.295	9849.03
493.503	9980.19
493.711	10286.51
493.919	10223.35
494.127	10124.54
494.334	10150.3
494.542	10138.87
494.75	10420
494.958	10384.93
495.166	10587.79
495.374	10628.86
495.581	10701.32
495.789	10669.16
495.997	10716.43
496.205	10308.6
496.412	10476.19
496.62	10680.98
496.828	10599.8
497.035	10686.79
497.243	10789.86
497.451	10830.94
497.658	10788.31
497.866	10748.4
498.074	10864.07
498.281	10631.18
498.489	10666.64
498.696	10485.1
498.904	10394.43
499.112	10446.16
499.319	10672.26
499.527	10697.83
499.734	10851.67
499.942	10694.15
500.149	10811.76
500.357	10825.51
500.564	10520.94
500.771	10569.96
500.979	10453.13
501.186	10309.56
501.394	10571.12
501.601	10301.81
501.808	10333.4
502.016	10348.31
502.223	10285.35
502.43	10427.56
502.638	10405.28
502.845	10573.06
503.052	10729.41
503.26	10712.75
503.467	10822.8
503.674	10896.04
503.881	10815.83
504.089	10809.63
504.296	10693.57
504.503	10515.32
504.71	10539.93
504.917	10647.46
505.125	10726.31
505.332	10868.14
505.539	10841.4
505.746	11231.8
505.953	11283.53
506.16	11358.12
506.367	11367.04
506.574	11540.05
506.781	11435.24
506.988	11447.83
507.195	11325.77
507.402	11322.09
507.609	11264.93
507.816	11137.25
508.023	11065.57
508.23	11002.99
508.437	10857.68
508.644	10943.7
508.851	11051.23
509.058	11317.83
509.265	11341.27
509.472	11419.54
509.679	11586.75
509.885	11463.33
510.092	11524.75
510.299	11503.05
510.506	11257.96
510.713	11340.3
510.92	11299.81
511.126	11464.49
511.333	11528.82
511.54	11639.83
511.746	11589.26
511.953	11684.2
512.16	11812.85
512.367	11666.57
512.573	11579.58
512.78	11555.94
512.987	11542.18
513.193	11398.04
513.4	11215.53
513.606	11348.82
513.813	11376.53
514.02	11324.8
514.226	11258.34
514.433	11276.17
514.639	11169.03
514.846	11238.19
515.052	11118.85
515.259	11287.02
515.465	11392.61
515.672	11393.19
515.878	11478.64
516.085	11531.72
516.291	11508.28
516.497	11459.07
516.704	11120.2
516.91	10826.87
517.117	10323.32
517.323	9999.38
517.529	10043.16
517.736	10006.16
517.942	10087.53
518.148	10358.2
518.354	10453.32
518.561	10520.94
518.767	10435.5
518.973	10483.36
519.179	10630.6
519.386	10825.13
519.592	10823.96
519.798	10841.59
520.004	11352.31
520.21	11313.37
520.417	11413.92
520.623	11431.17
520.829	11497.43
521.035	11521.26
521.241	11452.48
521.447	11500.33
521.653	11771
521.859	11634.41
522.065	11742.13
522.271	11876.2
522.477	11719.66
522.683	11954.28
522.889	11655.14
523.095	11407.34
523.301	11587.91
523.507	11368.97
523.713	11516.42
523.919	11529.01
524.125	11780.3
524.331	11887.83
524.537	12135.44
524.742	12125.94
524.948	12111.99
525.154	12171.48
525.36	12138.34
525.566	12040.31
525.772	12160.82
525.977	11956.03
526.183	11916.12
526.389	11957.58
526.595	11565.63
526.8	11402.69
527.006	11093.66
527.212	10774.17
527.417	10764.87
527.623	10808.85
527.829	11046.97
528.034	11212.43
528.24	11300.39
528.446	11509.05
528.651	11817.31
528.857	11878.92
529.062	11970.56
529.268	12103.08
529.473	12243.94
529.679	12344.49
529.884	12327.05
530.09	12165.47
530.295	12017.64
530.501	12167.21
530.706	12203.64
530.912	12226.5
531.117	12384.21
531.323	12308.45
531.528	12516.35
531.733	12530.68
531.939	12399.52
532.144	12351.08
532.35	12326.28
532.555	12265.83
532.76	11966.49
532.966	11954.09
533.171	11772.55
533.376	11620.65
533.581	11645.84
533.787	11828.16
533.992	12096.88
534.197	11874.46
534.402	12198.02
534.607	12159.85
534.813	12174.96
535.018	12119.55
535.223	12226.11
535.428	12287.53
535.633	12407.65
535.838	12535.72
536.043	12700.6
536.249	12731.6
536.454	12534.75
536.659	12603.14
536.864	12496.58
537.069	12407.27
537.274	12244.71
537.479	12245.49
537.684	12273.58
537.889	12199.76
538.094	12509.37
538.299	12409.78
538.504	12560.71
538.708	12452.22
538.913	12631.82
539.118	12591.91
539.323	12578.34
539.528	12309.04
539.733	12332.48
539.938	12255.17
540.142	12265.25
540.347	12160.43
540.552	12094.56
540.757	11946.53
540.962	12006.79
541.166	11844.82
541.371	11940.14
541.576	12010.86
541.781	11970.17
541.985	12337.9
542.19	12142.22
542.395	12533.59
542.599	12497.55
542.804	12380.72
543.008	12498.52
543.213	12372.2
543.418	12303.42
543.622	12429.93
543.827	12191.24
544.031	12413.08
544.236	12487.67
544.44	12630.46
544.645	12700.6
544.849	12576.6
545.054	12687.23
545.258	12662.82
545.463	12770.15
545.667	12529.91
545.872	12725.59
546.076	12599.66
546.281	12629.49
546.485	12535.33
546.689	12698.66
546.894	12710.67
547.098	12681.61
547.302	12673.67
547.507	12590.36
547.711	12728.3
547.915	12579.89
548.119	12455.7
548.324	12489.8
548.528	12497.94
548.732	12502.59
548.936	12709.32
549.141	12622.71
549.345	12669.79
549.549	12805.8
549.753	12751.17
549.957	12779.84
550.161	12830.02
550.366	12773.06
550.57	12769.96
550.774	12700.21
550.978	12721.91
551.182	12731.02
551.386	12577.96
551.59	12647.32
551.794	12582.99
551.998	12760.08
552.202	12755.04
552.406	12719.97
552.61	12839.9
552.814	12760.47
553.018	12708.93
553.222	12578.15
553.426	12593.84
553.63	12801.35
553.833	12714.74
554.037	12536.3
554.241	12647.32
554.445	12821.11
554.649	12752.72
554.853	12626.39
555.056	12826.73
555.26	12854.05
555.464	12734.31
555.668	12782.94
555.871	12759.3
556.075	12914.3
556.279	12652.94
556.483	12632.01
556.686	12572.73
556.89	12562.07
557.094	12525.84
557.297	12343.33
557.501	12404.75
557.704	12236.57
557.908	12306.9
558.112	12370.65
558.315	12479.53
558.519	12338.87
558.722	12194.73
558.926	12252.46
559.129	11903.33
559.333	12127.11
559.536	12074.99
559.74	11971.14
559.943	11884.73
560.147	12056.2
560.35	11901
560.553	12153.65
560.757	12105.99
560.96	12202.09
561.164	12235.41
561.367	12367.16
561.57	12334.42
561.774	12223.21
561.977	12146.48
562.18	12154.81
562.384	12275.13
562.587	12074.02
562.79	12245.68
562.993	12131.18
563.197	12121.68
563.4	12257.69
563.603	12263.12
563.806	12332.29
564.009	12214.29
564.212	12279.78
564.416	11999.04
564.619	12062.59
564.822	11972.5
565.025	12173.22
565.228	12012.6
565.431	12120.13
565.634	12017.45
565.837	11921.74
566.04	11854.12
566.243	11783.21
566.446	11630.15
566.649	11854.5
566.852	11716.75
567.055	11828.74
567.258	11883.57
567.461	12007.95
567.664	12037.6
567.867	11983.35
568.07	11880.47
568.273	11992.45
568.475	12081
568.678	11758.21
568.881	11771.77
569.084	11568.92
569.287	11492
569.489	11570.08
569.692	11647.39
569.895	11660.18
570.098	11537.73
570.3	11525.52
570.503	11477.09
570.706	11430.59
570.909	11424.39
571.111	11224.25
571.314	11207.78
571.516	11288.38
571.719	11372.66
571.922	11250.79
572.124	11461
572.327	11501.11
572.529	11388.93
572.732	11544.51
572.935	11544.7
573.137	11792.89
573.34	11594.5
573.542	11730.12
573.745	11601.28
573.947	11588.68
574.15	11553.42
574.352	11566.79
574.554	11707.64
574.757	11568.92
574.959	11305.04
575.162	11537.15
575.364	11323.44
575.566	11478.64
575.769	11300.58
575.971	11333.13
576.173	11020.42
576.376	11318.79
576.578	11380.6
576.78	11351.92
576.982	11226.38
577.185	11303.1
577.387	11278.3
577.589	11394.94
577.791	11306.39
577.993	11354.64
578.196	11320.93
578.398	11183.17
578.6	11163.41
578.802	11142.48
579.004	11029.34
579.206	11085.91
579.408	11229.09
579.61	11072.73
579.812	11395.71
580.014	11246.33
580.216	11176.78
580.418	11464.49
580.62	11375.56
580.822	11398.62
581.024	11419.35
581.226	11506.92
581.428	11486
581.63	11722.56
581.832	11537.73
582.034	11705.13
582.236	11584.81
582.438	11738.06
582.64	11736.51
582.841	11771
583.043	11911.47
583.245	11698.73
583.447	11893.06
583.649	11791.15
583.85	11861.87
584.052	11864.77
584.254	11828.93
584.456	11880.85
584.657	11773.91
584.859	11919.6
585.061	11700.28
585.262	11795.22
585.464	11668.12
585.666	11709.78
585.867	11540.25
586.069	11551.48
586.27	11515.83
586.472	11505.76
586.674	11465.07
586.875	11542.38
587.077	11595.85
587.278	11517.38
587.48	11483.29
587.681	11684.01
587.883	11600.5
588.084	11411.6
588.285	11516.42
588.487	11242.07
588.688	11271.71
588.89	10885.58
589.091	10642.81
589.292	10497.69
589.494	10189.63
589.695	10009.45
589.896	9903.66
590.098	9934.86
590.299	10104.77
590.5	10110.97
590.702	10369.24
590.903	10560.47
591.104	10665.09
591.305	10862.13
591.507	10817.96
591.708	10896.81
591.909	10786.57
592.11	10844.69
592.311	10906.31
592.512	10799.16
592.714	10719.92
592.915	10922
593.116	10843.34
593.317	10990.59
593.518	11012.87
593.719	11091.53
593.92	11055.3
594.121	10998.92
594.322	11040.96
594.523	10964.04
594.724	10809.63
594.925	10831.71
595.126	10715.85
595.327	10780.95
595.528	10863.49
595.729	10798.39
595.929	10847.41
596.13	10954.55
596.331	11097.92
596.532	10958.81
596.733	11175.61
596.934	11083.39
597.135	11209.13
597.335	11097.34
597.536	11066.15
597.737	11026.04
597.938	10971.41
598.138	10971.41
598.339	11054.91
598.54	11109.93
598.74	10995.43
598.941	10977.22
599.142	11122.14
599.342	11040.57
599.543	11041.15
599.744	11093.66
599.944	11026.24
600.145	11117.68
600.345	11039.22
600.546	11111.87
600.746	11106.45
600.947	11271.33
601.147	10940.79
601.348	11149.26
601.548	11012.29
601.749	11022.36
601.949	10909.41
602.15	10972.96
602.35	10824.74
602.551	10904.37
602.751	10954.74
602.951	11020.23
603.152	10939.44
603.352	10976.44
603.552	11052.78
603.753	11191.11
603.953	11239.36
604.153	11248.46
604.354	11213.01
604.554	11191.11
604.754	11218.24
604.954	11134.35
605.155	11297.48
605.355	11215.33
605.555	11275.2
605.755	11201.58
605.955	11191.89
606.155	11186.85
606.356	11175.81
606.556	11201.19
606.756	11166.12
606.956	11113.03
607.156	11166.51
607.356	11072.54
607.556	11153.14
607.756	11179.68
607.956	11217.66
608.156	11140.74
608.356	10950.87
608.556	11119.62
608.756	11012.09
608.956	11056.65
609.156	11000.27
609.356	10956.87
609.556	10936.92
609.755	11000.47
609.955	10870.66
610.155	10854.77
610.355	10979.54
610.555	10845.28
610.755	10743.95
610.954	10750.73
611.154	10865.62
611.354	10892.55
611.554	10767.2
611.753	10904.76
611.953	10786.18
612.153	10913.47
612.352	10786.18
612.552	10756.15
612.752	10720.7
612.951	10796.45
613.151	10689.5
613.351	10758.09
613.55	10730.19
613.75	10717.98
613.949	10610.84
614.149	10575.77
614.348	10578.1
614.548	10577.9
614.747	10503.51
614.947	10616.07
615.146	10467.08
615.346	10692.02
615.545	10678.46
615.745	10686.98
615.944	10587.01
616.144	10539.15
616.343	10414.96
616.542	10502.54
616.742	10336.5
616.941	10309.56
617.14	10178.59
617.34	10347.15
617.539	10374.08
617.738	10381.25
617.938	10500.79
618.137	10480.84
618.336	10473.67
618.535	10572.29
618.734	10625.95
618.934	10480.64
619.133	10532.76
619.332	10667.03
619.531	10366.33
619.73	10644.75
619.929	10594.57
620.128	10649.4
620.328	10577.9
620.527	10557.95
620.726	10645.33
620.925	10629.83
621.124	10668.58
621.323	10509.32
621.522	10459.33
621.721	10588.95
621.92	10430.85
622.119	10487.62
622.318	10420.78
622.517	10376.99
622.715	10340.95
622.914	10298.33
623.113	10378.54
623.312	10112.52
623.511	10236.91
623.71	10174.14
623.909	10130.74
624.107	10284.96
624.306	10136.55
624.505	10152.24
624.704	10060.02
624.902	10019.33
625.101	10113.88
625.3	9921.1
625.499	9981.36
625.697	9993.18
625.896	9927.69
626.095	9844.57
626.293	9781.41
626.492	9879.64
626.69	9885.45
626.889	10088.11
627.088	9970.51
627.286	10003.25
627.485	9812.22
627.683	9759.71
627.882	9612.07
628.08	9462.89
628.279	9340.63
628.477	9537.48
628.676	9307.31
628.874	9481.49
629.073	9369.5
629.271	9383.84
629.469	9406.12
629.668	9486.91
629.866	9373.57
630.065	9380.35
630.263	9432.08
630.461	9360.4
630.66	9433.44
630.858	9423.56
631.056	9545.43
631.254	9617.89
631.453	9394.69
631.651	9540.97
631.849	9458.43
632.047	9506.48
632.245	9421.43
632.444	9478
632.642	9594.64
632.84	9681.44
633.038	9561.7
633.236	9524.89
633.434	9643.46
633.632	9607.81
633.83	9553.18
634.028	9688.99
634.227	9597.74
634.425	9781.02
634.623	9582.24
634.821	9716.12
635.019	9772.3
635.216	9741.69
635.414	9782.57
635.612	9670
635.81	9676.4
636.008	9834.88
636.206	9732.2
636.404	9700.81
636.602	9738.4
636.8	9612.85
636.997	9709.72
637.195	9739.75
637.393	9764.94
637.591	9885.06
637.789	9806.02
637.986	9803.3
638.184	9812.22
638.382	9906.96
638.58	9812.99
638.777	9875.76
638.975	9841.47
639.173	9903.47
639.37	9844.18
639.568	9832.95
639.765	9813.96
639.963	9740.14
640.161	9667.87
640.358	9834.3
640.556	9602.39
640.753	9701
640.951	9605.68
641.148	9607.62
641.346	9659.16
641.543	9577.59
641.741	9545.81
641.938	9540
642.136	9627.38
642.333	9528.57
642.531	9724.25
642.728	9628.35
642.925	9758.74
643.123	9653.73
643.32	9657.22
643.517	9651.6
643.715	9605.49
643.912	9580.88
644.109	9605.29
644.306	9641.52
644.504	9573.91
644.701	9681.44
644.898	9618.27
645.095	9609.36
645.293	9499.89
645.49	9534.19
645.687	9533.22
645.884	9546.98
646.081	9330.75
646.278	9382.29
646.475	9267.59
646.672	9278.83
646.87	9184.28
647.067	9212.96
647.264	9199.59
647.461	9093.8
647.658	8996.35
647.855	9070.36
648.052	8963.02
648.249	8870.99
648.446	9007.58
648.642	9080.24
648.839	8848.13
649.036	8875.06
649.233	8876.8
649.43	8887.85
649.627	8675.11
649.824	8831.47
650.021	8655.35
650.217	8807.25
650.414	8911.29
650.611	8951.4
650.808	9034.51
651.004	9066.68
651.201	9076.36
651.398	9143.79
651.595	9051.37
651.791	8940.16
651.988	9035.68
652.185	8726.65
652.381	9016.5
652.578	8839.8
652.775	9026.38
652.971	9060.28
653.168	8962.05
653.364	9148.44
653.561	8986.46
653.757	9051.37
653.954	9155.8
654.15	8893.08
654.347	9105.81
654.543	9093.41
654.74	8924.08
654.936	8903.93
655.133	8828.95
655.329	8875.25
655.525	8710.76
655.722	8681.12
655.918	8447.27
656.115	8192.29
656.311	7994.87
656.507	7717.03
656.704	7604.66
656.9	7660.65
657.096	7892.37
657.292	7812.74
657.489	7985.37
657.685	8156.84
657.881	8199.66
658.077	8247.71
658.273	8434.29
658.47	8570.3
658.666	8542.59
658.862	8662.13
659.058	8653.22
659.254	8741.57
659.45	8819.65
659.646	8734.98
659.842	8816.16
660.038	8920.78
660.234	8781.29
660.43	8889.98
660.626	9007.39
660.822	8919.23
661.018	8948.68
661.214	8911.87
661.41	8830.11
661.606	8969.03
661.802	9079.08
661.998	8949.07
662.194	8961.47
662.39	9003.13
662.586	8950.04
662.781	8958.76
662.977	9056.99
663.173	8958.95
663.369	8978.71
663.564	8965.73
663.76	8957.98
663.956	8910.9
664.152	8868.09
664.347	8788.46
664.543	8908.77
664.739	8855.69
664.934	8738.66
665.13	8841.54
665.326	8841.35
665.521	8914.97
665.717	8784.58
665.912	8914.97
666.108	8663.1
666.304	8897.34
666.499	8745.25
666.695	8663.68
666.89	8806.47
667.086	8730.33
667.281	8759.78
667.477	8842.32
667.672	8773.54
667.867	8635.59
668.063	8799.5
668.258	8645.08
668.454	8768.31
668.649	8737.11
668.844	8758.04
669.04	8816.74
669.235	8681.7
669.43	8755.71
669.626	8569.91
669.821	8741.57
670.016	8663.29
670.211	8771.79
670.407	8466.83
670.602	8698.56
670.797	8588.9
670.992	8732.46
671.187	8546.85
671.382	8689.06
671.578	8430.41
671.773	8600.71
671.968	8396.5
672.163	8515.08
672.358	8482.53
672.553	8423.63
672.748	8531.74
672.943	8548.6
673.138	8489.89
673.333	8552.08
673.528	8398.25
673.723	8473.81
673.918	8366.47
674.113	8451.53
674.308	8552.28
674.503	8456.76
674.698	8506.36
674.892	8351.36
675.087	8366.09
675.282	8403.48
675.477	8400.38
675.672	8450.75
675.867	8344.19
676.061	8393.21
676.256	8257.2
676.451	8400.77
676.646	8369.57
676.84	8311.84
677.035	8264.18
677.23	8312.81
677.424	8354.85
677.619	8316.29
677.814	8325.4
678.008	8274.06
678.203	8243.25
678.397	8262.43
678.592	8253.13
678.787	8388.17
678.981	8229.11
679.176	8270.96
679.37	8180.48
679.565	8219.03
679.759	8233.37
679.954	8158.2
680.148	8157.23
680.342	8280.64
680.537	8209.34
680.731	8163.04
680.926	8285.87
681.12	8166.53
681.314	8126.81
681.509	8179.89
681.703	8128.55
681.897	8079.53
682.092	8092.32
682.286	8120.22
682.48	8077.98
682.674	8064.81
682.869	7966.58
683.063	8092.9
683.257	8085.54
683.451	7971.62
683.645	8052.6
683.839	7950.69
684.034	7917.75
684.228	7898.57
684.422	7850.91
684.616	7889.08
684.81	7831.73
685.004	7782.52
685.198	7811.78
685.392	7763.73
685.586	7909.04
685.78	7749
685.974	7794.92
686.168	7696.5
686.362	7690.3
686.556	7246.81
686.75	6963.74
686.944	6635.92
687.138	6091.3
687.331	5811.14
687.525	5612.36
687.719	5464.92
687.913	5468.79
688.107	5604.8
688.301	5610.23
688.494	5739.45
688.688	5677.46
688.882	5597.05
689.076	5634.83
689.269	5676.29
689.463	5784.79
689.657	5797.19
689.85	5795.25
690.044	5928.75
690.238	5940.95
690.431	5971.56
690.625	6009.15
690.818	6162.21
691.012	6168.22
691.205	6298.42
691.399	6330.58
691.593	6344.72
691.786	6423.38
691.98	6504.76
692.173	6539.24
692.366	6520.26
692.56	6596.01
692.753	6547.77
692.947	6529.56
693.14	6558.04
693.333	6571.99
693.527	6535.17
693.72	6550.09
693.914	6447.99
694.107	6427.84
694.3	6430.36
694.493	6310.82
694.687	6498.36
694.88	6306.75
695.073	6478.6
695.266	6484.22
695.46	6455.54
695.653	6450.89
695.846	6454.38
696.039	6482.28
696.232	6518.71
696.425	6621.97
696.618	6659.17
696.812	6758.57
697.005	6838.58
697.198	6938.56
697.391	6842.85
697.584	6904.65
697.777	6959.29
697.97	6874.04
698.163	6867.26
698.356	6826.96
698.549	6867.64
698.742	6829.67
698.935	6724.66
699.127	6671.19
699.32	6574.31
699.513	6610.15
699.706	6550.29
699.899	6660.53
700.092	6551.06
700.285	6497.2
700.477	6404.2
700.67	6479.96
700.863	6446.63
701.056	6481.7
701.248	6458.45
701.441	6477.44
701.634	6366.42
701.826	6508.63
702.019	6293.96
702.212	6416.02
702.404	6360.61
702.597	6311.4
702.79	6325.73
702.982	6318.57
703.175	6412.73
703.367	6407.69
703.56	6410.79
703.752	6522.19
703.945	6447.6
704.137	6462.52
704.33	6512.51
704.522	6511.54
704.715	6542.73
704.907	6518.71
705.1	6522.58
705.292	6539.05
705.484	6440.04
705.677	6490.81
705.869	6543.89
706.061	6554.74
706.254	6572.57
706.446	6442.18
706.638	6505.34
706.831	6514.64
707.023	6399.16
707.215	6648.9
707.407	6564.43
707.599	6469.11
707.792	6593.3
707.984	6541.96
708.176	6554.94
708.368	6509.02
708.56	6573.15
708.752	6523.16
708.944	6463.1
709.136	6499.53
709.329	6422.22
709.521	6510.57
709.713	6422.03
709.905	6477.83
710.097	6521.03
710.289	6415.05
710.481	6451.86
710.672	6429.97
710.864	6479.57
711.056	6486.93
711.248	6509.99
711.44	6378.43
711.632	6396.26
711.824	6467.56
712.016	6483.83
712.207	6404.59
712.399	6378.43
712.591	6420.67
712.783	6445.08
712.975	6372.04
713.166	6310.23
713.358	6306.17
713.55	6331.16
713.741	6347.05
713.933	6339.49
714.125	6240.87
714.316	6173.64
714.508	6320.5
714.7	6182.94
714.891	6189.14
715.083	6151.36
715.274	6107.57
715.466	6144.39
715.657	6154.66
715.849	5971.37
716.04	5976.6
716.232	5868.3
716.423	5832.84
716.615	5655.95
716.806	5528.08
716.998	5333.75
717.189	5145.81
717.381	5020.07
717.572	4871.85
717.763	4800.56
717.955	4670.55
718.146	4614.36
718.337	4514.78
718.528	4377.41
718.72	4241.98
718.911	4232.49
719.102	4155.57
719.293	4145.3
719.485	4133.68
719.676	4048.04
719.867	4022.08
720.058	4032.93
720.249	3991.27
720.44	3983.91
720.632	4105.78
720.823	4173.2
721.014	4379.16
721.205	4432.63
721.396	4557.6
721.587	4704.26
721.778	4740.3
721.969	4814.7
722.16	4918.94
722.351	5000.12
722.542	5064.44
722.733	5070.64
722.924	4972.02
723.115	4986.17
723.305	4900.92
723.496	4896.65
723.687	4668.61
723.878	4630.45
724.069	4590.73
724.26	4611.26
724.45	4441.74
724.641	4458.01
724.832	4429.92
725.023	4382.45
725.213	4345.83
725.404	4352.22
725.595	4288.09
725.785	4274.53
725.976	4302.04
726.167	4263.88
726.357	4287.32
726.548	4403.37
726.739	4307.28
726.929	4356.1
727.12	4430.89
727.31	4393.11
727.501	4293.91
727.691	4266.98
727.882	4252.64
728.072	4357.46
728.263	4317.35
728.453	4381.87
728.644	4400.86
728.834	4321.23
729.024	4259.81
729.215	4261.36
729.405	4242.18
729.596	4328.98
729.786	4347.57
729.976	4354.36
730.167	4366.95
730.357	4322.78
730.547	4318.32
730.737	4342.92
730.928	4409.77
731.118	4421.97
731.308	4322.97
731.498	4355.71
731.688	4426.24
731.879	4413.26
732.069	4465.76
732.259	4533.77
732.449	4590.34
732.639	4686.63
732.829	4662.41
733.019	4738.75
733.209	4759.29
733.399	4821.29
733.589	4894.52
733.779	4918.74
733.969	4897.82
734.159	5044.29
734.349	5010
734.539	5020.07
734.729	5081.3
734.919	5058.82
735.109	5166.74
735.299	5018.33
735.488	5059.01
735.678	5050.49
735.868	5012.32
736.058	5012.71
736.248	4983.65
736.437	4928.43
736.627	4868.95
736.817	5014.65
737.007	4943.35
737.196	4946.83
737.386	4981.9
737.576	4873.21
737.765	4993.33
737.955	4909.44
738.144	5111.71
738.334	5033.83
738.524	4910.6
738.713	4981.52
738.903	4942.77
739.092	4939.47
739.282	4951.68
739.471	4935.4
739.661	4962.14
739.85	5014.26
740.04	4996.63
740.229	4974.54
740.419	4994.69
740.608	5024.53
740.797	4999.53
740.987	5068.9
741.176	4984.23
741.365	4994.88
741.555	4904.02
741.744	5061.92
741.933	4946.83
742.123	4973.96
742.312	5065.99
742.501	5065.6
742.69	5047.2
742.88	4945.67
743.069	5078.58
743.258	5038.86
743.447	5070.45
743.636	5051.85
743.825	5006.32
744.014	4984.23
744.204	5049.91
744.393	4976.67
744.582	5067.93
744.771	5046.03
744.96	4993.92
745.149	5004.38
745.338	4976.67
745.527	5009.61
745.716	4971.83
745.905	4916.42
746.094	4991.4
746.283	4997.02
746.471	4964.08
746.66	5003.22
746.849	5032.47
747.038	5016
747.227	4950.9
747.416	4979.58
747.604	4925.14
747.793	4948.77
747.982	4944.9
748.171	4979.19
748.359	4930.56
748.548	4954.39
748.737	4922.81
748.926	4925.14
749.114	4744.76
749.303	4879.8
749.491	4860.04
749.68	4800.94
749.869	4893.36
750.057	4804.82
750.246	4829.81
750.434	4815.09
750.623	4803.85
750.811	4729.64
751	4814.12
751.188	4729.45
751.377	4741.46
751.565	4738.94
751.754	4712.98
751.942	4696.71
752.131	4780.41
752.319	4676.17
752.507	4669.78
752.696	4712.59
752.884	4704.07
753.072	4684.5
753.261	4729.06
753.449	4667.06
753.637	4582.2
753.825	4780.21
754.014	4667.45
754.202	4619.21
754.39	4704.07
754.578	4689.54
754.766	4599.45
754.955	4568.06
755.143	4659.9
755.331	4584.92
755.519	4594.02
755.707	4556.63
755.895	4574.26
756.083	4602.93
756.271	4510.52
756.459	4556.24
756.647	4544.81
756.835	4480.29
757.023	4517.49
757.211	4491.53
757.399	4462.27
757.587	4433.99
757.775	4369.47
757.963	4456.27
758.151	4416.36
758.339	4376.25
758.526	4372.37
758.714	4386.52
758.902	4208.66
759.09	4120.31
759.278	3863.21
759.465	3531.51
759.653	3150.8
759.841	2796.43
760.028	2466.68
760.216	2128.59
760.404	1979.79
760.591	1641.7
760.779	1363.29
760.967	1219.91
761.154	1025.78
761.342	1060.07
761.529	1068.21
761.717	1139.12
761.905	1104.05
762.092	1209.26
762.28	1169.35
762.467	1148.42
762.655	1076.35
762.842	1111.41
763.029	1111.22
763.217	1125.17
763.404	1166.25
763.592	1162.37
763.779	1136.21
763.966	1226.89
764.154	1209.06
764.341	1317.17
764.528	1330.54
764.716	1376.46
764.903	1436.91
765.09	1584.16
765.277	1579.31
765.465	1757.56
765.652	1911.01
765.839	1963.71
766.026	2101.27
766.213	2192.14
766.4	2337.83
766.588	2522.86
766.775	2566.46
766.962	2715.45
767.149	2796.24
767.336	2970.23
767.523	2959.57
767.71	3091.12
767.897	3217.64
768.084	3335.83
768.271	3360.63
768.458	3409.26
768.645	3550.11
768.832	3513.88
769.019	3520.47
769.206	3543.52
769.392	3609.79
769.579	3755.87
769.766	3695.03
769.953	3699.88
770.14	3779.7
770.327	3756.26
770.513	3781.45
770.7	3881.23
770.887	3802.56
771.073	3809.34
771.26	3876.38
771.447	3788.61
771.634	3829.3
771.82	3902.54
772.007	3815.16
772.193	3825.43
772.38	3859.33
772.567	3846.54
772.753	3832.4
772.94	3891.11
773.126	3881.61
773.313	3929.27
773.499	3830.27
773.686	3854.68
773.872	3810.7
774.059	3832.59
774.245	3798.88
774.432	3792.1
774.618	3742.7
774.804	3764.2
774.991	3734.17
775.177	3809.93
775.363	3779.12
775.55	3809.54
775.736	3704.72
775.922	3755.87
776.109	3783.38
776.295	3734.36
776.481	3793.85
776.667	3783.96
776.853	3713.83
777.04	3677.02
777.226	3720.22
777.412	3795.98
777.598	3667.33
777.784	3684.18
777.97	3673.92
778.156	3704.14
778.342	3651.83
778.528	3664.23
778.715	3570.07
778.901	3646.6
779.087	3658.22
779.272	3568.71
779.458	3594.29
779.644	3601.65
779.83	3592.35
780.016	3654.54
780.202	3598.16
780.388	3576.46
780.574	3472.42
780.76	3531.51
780.946	3548.75
781.131	3584.6
781.317	3523.76
781.503	3456.14
781.689	3489.47
781.874	3662.68
782.06	3473.19
782.246	3549.53
782.432	3494.31
782.617	3485.98
782.803	3546.82
782.989	3404.8
783.174	3399.38
783.36	3390.85
783.545	3460.79
783.731	3410.42
783.916	3329.43
784.102	3430.38
784.288	3432.12
784.473	3371.28
784.659	3350.36
784.844	3444.52
785.029	3371.86
785.215	3368.38
785.4	3301.92
785.586	3363.92
785.771	3279.64
785.956	3346.68
786.142	3308.9
786.327	3289.52
786.512	3317.61
786.698	3309.28
786.883	3212.02
787.068	3267.82
787.254	3278.09
787.439	3172.69
787.624	3229.27
787.809	3188.58
787.994	3172.69
788.18	3275.38
788.365	3170.95
788.55	3154.29
788.735	3193.23
788.92	3151.19
789.105	3149.05
789.29	3191.68
789.475	3085.7
789.66	3117.67
789.845	3045.79
790.03	3069.23
790.215	3126.39
790.4	3147.5
790.585	3124.84
790.77	3083.76
790.955	2990.38
791.14	3062.26
791.325	3126.19
791.51	2968.48
791.695	3058.77
791.879	3028.35
792.064	2998.9
792.249	3081.82
792.434	3001.81
792.618	3044.43
792.803	3056.25
792.988	3031.45
793.173	3065.74
793.357	3038.81
793.542	2976.04
793.727	3043.07
793.911	3086.28
794.096	3013.04
794.281	3086.67
794.465	3169.59
794.65	3047.53
794.834	3080.66
795.019	3121.93
795.203	3118.44
795.388	3104.49
795.572	3144.02
795.757	3100.42
795.941	3106.43
796.126	3075.04
796.31	3044.82
796.494	3052.57
796.679	3086.67
796.863	2994.25
797.048	3139.37
797.232	3101.59
797.416	3080.66
797.601	3072.91
797.785	3154.48
797.969	3138.2
798.153	3027.77
798.338	3116.89
798.522	3145.76
798.706	3186.06
798.89	3140.53
799.074	3205.82
799.258	3181.02
799.443	3139.37
799.627	3115.92
799.811	3170.75
799.995	3118.64
800.179	3101.59
800.363	3092.09
800.547	3114.37
800.731	3155.06
800.915	3050.24
801.099	3095.77
801.283	3051.41
801.467	3101.97
801.651	3058.77
801.835	3120.38
802.019	3106.04
802.202	3130.45
802.386	2995.03
802.57	3014.59
802.754	3040.56
802.938	3018.28
803.121	3049.66
803.305	3096.55
803.489	3077.56
803.673	3046.17
803.856	3077.76
804.04	3044.82
804.224	3062.45
804.407	3011.3
804.591	3007.81
804.775	3023.7
804.958	3070.2
805.142	3153.51
805.326	3060.71
805.509	3042.49
805.693	3124.25
805.876	3089.19
806.06	3107.21
806.243	3124.84
806.427	3149.44
806.61	3144.99
806.794	3042.69
806.977	3141.11
807.16	3098.29
807.344	3120.77
807.527	3073.3
807.71	3078.72
807.894	3106.04
808.077	3126.58
808.26	3007.81
808.444	3009.94
808.627	3075.82
808.81	3002
808.993	2956.66
809.177	2955.89
809.36	2965.38
809.543	3009.56
809.726	2860.76
809.909	2896.8
810.092	2882.26
810.276	2907.26
810.459	2885.17
810.642	2878.97
810.825	2795.08
811.008	2868.12
811.191	2708.86
811.374	2779.77
811.557	2785.78
811.74	2846.03
811.923	2700.92
812.106	2684.45
812.289	2624.19
812.472	2655.97
812.654	2656.74
812.837	2601.72
813.02	2584.86
813.203	2526.74
813.386	2445.75
813.569	2426.38
813.751	2343.84
813.934	2458.35
814.117	2358.95
814.3	2311.49
814.482	2269.25
814.665	2219.84
814.848	2186.13
815.03	2132.85
815.213	2108.05
815.396	2093.52
815.578	2091.97
815.761	2024.74
815.943	2095.07
816.126	2004.01
816.309	1981.15
816.491	1924.38
816.674	1840.87
816.856	1882.53
817.039	1894.35
817.221	1958.67
817.403	1918.37
817.586	1952.67
817.768	1906.94
817.951	1869.55
818.133	1855.4
818.315	1891.25
818.498	1943.37
818.68	1983.66
818.862	1943.17
819.045	1978.24
819.227	1937.75
819.409	1915.85
819.591	1990.06
819.774	1934.45
819.956	1924.38
820.138	1995.29
820.32	1985.8
820.502	2055.93
820.684	2139.05
820.866	2117.54
821.048	2177.99
821.231	2199.89
821.413	2200.08
821.595	2173.34
821.777	2170.24
821.959	2181.67
822.141	2218.87
822.323	2076.86
822.505	1992.77
822.686	1951.89
822.868	1875.17
823.05	1728.31
823.232	1725.4
823.414	1630.85
823.596	1740.51
823.778	1680.45
823.96	1732.18
824.141	1758.72
824.323	1801.74
824.505	1870.71
824.687	1939.88
824.868	1956.54
825.05	2079.76
825.232	2083.25
825.413	2205.7
825.595	2136.34
825.777	2043.53
825.958	2116.77
826.14	2054
826.321	2130.14
826.503	2122.58
826.685	2115.41
826.866	2119.48
827.048	2123.74
827.229	2071.04
827.411	2056.71
827.592	1973.78
827.773	1974.36
827.955	1927.67
828.136	1945.69
828.318	1886.4
828.499	1951.7
828.68	1886.21
828.862	1868.39
829.043	1952.08
829.224	1896.87
829.406	1849.59
829.587	1872.45
829.768	1869.16
829.949	1902.1
830.131	1883.5
830.312	1977.66
830.493	1899.19
830.674	1897.06
830.855	1882.72
831.036	1894.93
831.218	1976.88
831.399	1968.55
831.58	1896.87
831.761	1912.56
831.942	1894.93
832.123	1892.8
832.304	1865.48
832.485	1884.85
832.666	1914.88
832.847	1916.43
833.028	1887.95
833.209	1881.56
833.389	1914.5
833.57	1804.06
833.751	1859.47
833.932	1891.63
834.113	1877.3
834.294	1865.48
834.475	1895.51
834.655	1977.08
834.836	1953.83
835.017	1939.49
835.198	1876.72
835.378	1921.08
835.559	1983.28
835.74	1893.38
835.92	1894.15
836.101	1862.96
836.281	1916.05
836.462	1939.1
836.643	1983.28
836.823	1961.38
837.004	1961.19
837.184	2034.43
837.365	1991.41
837.545	2033.46
837.726	1960.42
837.906	2001.49
838.087	1995.29
838.267	1973.4
838.448	1939.1
838.628	1967.58
838.808	1965.45
838.989	2011.76
839.169	1871.29
839.349	1988.12
839.53	1976.69
839.71	1998
839.89	1938.52
840.07	1990.06
840.251	1924.57
840.431	2013.5
840.611	1987.35
840.791	1944.53
840.971	1976.69
841.151	1945.3
841.332	1878.46
841.512	1980.37
841.692	1889.12
841.872	1948.02
842.052	1941.62
842.232	1960.22
842.412	1896.09
842.592	1930.77
842.772	1974.17
842.952	1913.33
843.132	1894.35
843.312	1907.52
843.492	1880.79
843.672	1932.13
843.851	1839.52
844.031	1958.28
844.211	1900.16
844.391	1888.92
844.571	1904.62
844.751	1906.36
844.93	1860.05
845.11	1876.91
845.29	1900.55
845.47	1924.18
845.649	1891.44
845.829	1947.82
846.009	1864.32
846.188	1906.36
846.368	1884.47
846.547	1851.53
846.727	1925.93
846.907	1804.06
847.086	1857.73
847.266	1915.47
847.445	1868.19
847.625	1862.96
847.804	1816.46
847.984	1858.5
848.163	1812.2
848.343	1810.26
848.522	1845.52
848.701	1878.27
848.881	1793.6
849.06	1847.07
849.239	1842.62
849.419	1830.8
849.598	1728.89
849.777	1702.34
849.957	1719.97
850.136	1666.89
850.315	1640.93
850.494	1661.66
850.674	1656.81
850.853	1737.8
851.032	1676.77
851.211	1758.14
851.39	1704.48
851.569	1637.44
851.748	1648.68
851.927	1692.66
852.107	1743.42
852.286	1672.51
852.465	1660.69
852.644	1725.79
852.823	1675.61
853.002	1688.78
853.181	1703.89
853.359	1690.72
853.538	1616.71
853.717	1714.36
853.896	1590.75
854.075	1538.05
854.254	1505.3
854.433	1411.53
854.611	1480.7
854.79	1418.7
854.969	1472.56
855.148	1502.98
855.327	1469.85
855.505	1506.47
855.684	1513.83
855.863	1538.24
856.041	1516.54
856.22	1580.86
856.399	1544.83
856.577	1648.68
856.756	1631.04
856.934	1721.14
857.113	1726.56
857.291	1600.43
857.47	1585.71
857.648	1628.33
857.827	1643.44
858.005	1649.26
858.184	1568.85
858.362	1718.42
858.541	1617.48
858.719	1628.53
858.898	1596.36
859.076	1588.23
859.254	1675.61
859.433	1597.91
859.611	1565.17
859.789	1513.05
859.967	1609.73
860.146	1638.41
860.324	1552.77
860.502	1536.5
860.68	1518.87
860.859	1526.81
861.037	1573.7
861.215	1564.4
861.393	1528.17
861.571	1552.58
861.749	1552.38
861.927	1558.2
862.105	1545.6
862.283	1529.72
862.461	1528.36
862.639	1493.48
862.817	1523.32
862.995	1546.76
863.173	1528.94
863.351	1543.08
863.529	1541.34
863.707	1580.48
863.885	1536.3
864.063	1481.86
864.241	1477.4
864.418	1590.75
864.596	1483.6
864.774	1454.73
864.952	1467.13
865.129	1501.82
865.307	1449.5
865.485	1401.45
865.663	1469.46
865.84	1392.15
866.018	1384.6
866.196	1268.16
866.373	1296.64
866.551	1295.67
866.728	1213.13
866.906	1285.98
867.084	1284.82
867.261	1330.74
867.439	1329.96
867.616	1344.3
867.794	1389.44
867.971	1378.98
868.149	1353.6
868.326	1413.85
868.503	1428.19
868.681	1391.38
868.858	1338.49
869.035	1362.9
869.213	1363.87
869.39	1351.47
869.567	1456.87
869.745	1348.17
869.922	1347.21
870.099	1387.12
870.276	1407.27
870.454	1378.98
870.631	1390.8
870.808	1360.38
870.985	1415.6
871.162	1417.34
871.339	1389.05
871.517	1302.64
871.694	1315.04
871.871	1343.33
872.048	1345.07
872.225	1331.9
872.402	1356.7
872.579	1296.06
872.756	1351.86
872.933	1278.23
873.11	1300.9
873.287	1320.08
873.463	1276.29
873.64	1276.68
873.817	1351.27
873.994	1328.02
874.171	1265.44
874.348	1304.77
874.524	1258.47
874.701	1279.97
874.878	1241.81
875.055	1275.13
875.231	1281.52
875.408	1280.56
875.585	1194.73
875.762	1260.6
875.938	1262.73
876.115	1220.49
876.291	1224.76
876.468	1242.19
876.645	1205.38
876.821	1206.16
876.998	1211.19
877.174	1259.83
877.351	1210.61
877.527	1193.37
877.704	1256.53
877.88	1229.02
878.057	1223.01
878.233	1235.03
878.409	1220.88
878.586	1217.78
878.762	1183.3
878.938	1193.95
879.115	1136.21
879.291	1191.24
879.467	1151.91
879.644	1166.83
879.82	1185.81
879.996	1181.36
880.172	1108.51
880.349	1148.61
880.525	1207.51
880.701	1166.44
880.877	1099.4
881.053	1163.53
881.229	1149.58
881.405	1167.6
881.581	1163.92
881.757	1151.52
881.933	1170.12
882.109	1205.38
882.285	1139.7
882.461	1078.67
882.637	1141.83
882.813	1104.63
882.989	1150.36
883.165	1196.86
883.341	1144.16
883.517	1181.94
883.693	1147.45
883.869	1176.9
884.044	1112.38
884.22	1191.24
884.396	1195.69
884.572	1161.98
884.747	1174.58
884.923	1203.06
885.099	1184.85
885.275	1171.09
885.45	1148.61
885.626	1140.48
885.801	1106.96
885.977	1134.66
886.153	1077.9
886.328	1152.1
886.504	1116.45
886.679	1154.23
886.855	1123.81
887.03	1147.84
887.206	1185.43
887.381	1123.23
887.557	1144.16
887.732	1171.67
887.908	1149.2
888.083	1169.93
888.258	1103.08
888.434	1157.14
888.609	1156.36
888.784	1160.63
888.96	1118
889.135	1108.7
889.31	1112
889.485	1163.15
889.661	1121.68
889.836	1170.31
890.011	1177.48
890.186	1106.57
890.361	1101.73
890.537	1133.11
890.712	1147.06
890.887	1150.94
891.062	1118.2
891.237	1211.97
891.412	1120.13
891.587	1135.25
891.762	1151.33
891.937	1173.61
892.112	1107.93
892.287	1127.5
892.462	1056.78
892.637	1060.07
892.812	1024.23
892.987	1059.1
893.161	1052.32
893.336	1038.76
893.511	1048.06
893.686	1064.72
893.861	1037.79
894.035	1038.18
894.21	1065.69
894.385	994.59
894.56	1017.45
894.734	966.88
894.909	971.72
895.084	977.54
895.258	912.44
895.433	930.07
895.608	887.64
895.782	860.71
895.957	889.96
896.131	845.79
896.306	821.76
896.48	813.63
896.655	832.61
896.829	745.23
897.004	772.74
897.178	783.4
897.353	788.44
897.527	807.62
897.701	788.05
897.876	738.84
898.05	817.11
898.224	793.48
898.399	807.04
898.573	744.07
898.747	691.37
898.921	704.16
899.096	617.17
899.27	648.55
899.444	658.43
899.618	689.24
899.792	687.3
899.967	669.67
900.141	745.81
900.315	659.98
900.489	681.3
900.663	710.94
900.837	671.03
901.011	622.78
901.185	757.44
901.359	696.8
901.533	702.61
901.707	670.83
901.881	674.13
902.055	655.72
902.229	653.01
902.403	758.21
902.576	684.59
902.75	703.96
902.924	795.03
903.098	731.09
903.272	803.74
903.446	810.33
903.619	785.14
903.793	823.89
903.967	820.02
904.14	858.96
904.314	869.62
904.488	831.26
904.661	858.96
904.835	833.58
905.009	908.76
905.182	890.35
905.356	911.08
905.529	829.9
905.703	836.49
905.876	815.76
906.05	782.43
906.223	770.81
906.397	710.94
906.57	700.09
906.744	680.91
906.917	687.11
907.09	681.1
907.264	670.25
907.437	665.99
907.61	599.53
907.784	610.77
907.957	656.3
908.13	614.65
908.304	643.71
908.477	574.74
908.65	639.83
908.823	545.67
908.996	677.81
909.17	601.86
909.343	600.5
909.516	594.5
909.689	616.97
909.862	592.75
910.035	574.15
910.208	557.49
910.381	564.47
910.554	644.48
910.727	631.89
910.9	565.05
911.073	591.2
911.246	643.13
911.419	643.13
911.592	632.67
911.765	607.67
911.938	580.55
912.11	600.7
912.283	598.18
912.456	640.22
912.629	586.75
912.802	596.43
912.974	520.87
913.147	487.74
913.32	439.5
913.493	495.69
913.665	537.92
913.838	504.79
914.01	515.64
914.183	537.15
914.356	517.97
914.528	551.49
914.701	612.9
914.873	589.65
915.046	525.52
915.218	488.52
915.391	422.84
915.563	463.33
915.736	479.99
915.908	552.45
916.081	519.52
916.253	499.17
916.425	496.85
916.598	496.27
916.77	523.97
916.942	488.13
917.115	392.61
917.287	495.3
917.459	447.44
917.632	471.86
917.804	405.59
917.976	476.31
918.148	476.31
918.32	471.86
918.493	545.87
918.665	554.97
918.837	495.69
919.009	584.81
919.181	534.24
919.353	549.35
919.525	546.06
919.697	523.78
919.869	534.44
920.041	609.8
920.213	671.8
920.385	588.3
920.557	541.8
920.729	569.89
920.901	562.53
921.073	538.7
921.244	532.11
921.416	603.22
921.588	540.83
921.76	521.45
921.932	605.15
922.103	542.19
922.275	522.62
922.447	547.61
922.619	471.08
922.79	531.92
922.962	502.47
923.134	545.87
923.305	461.59
923.477	458.1
923.648	474.96
923.82	491.23
923.991	437.95
924.163	439.11
924.335	452.48
924.506	432.52
924.677	507.5
924.849	422.06
925.02	494.72
925.192	490.26
925.363	482.32
925.535	471.47
925.706	441.82
925.877	545.09
926.049	457.71
926.22	477.67
926.391	485.42
926.562	479.02
926.734	419.54
926.905	504.99
927.076	442.02
927.247	422.26
927.419	408.5
927.59	417.22
927.761	372.46
927.932	400.56
928.103	395.71
928.274	353.86
928.445	319.18
928.616	357.93
928.787	351.73
928.958	376.92
929.129	335.07
929.3	331.78
929.471	288.38
929.642	227.93
929.813	211.46
929.984	295.93
930.155	209.72
930.326	267.45
930.496	226.38
930.667	167.67
930.838	240.52
931.009	155.47
931.18	188.4
931.35	179.1
931.521	231.22
931.692	136.67
931.863	127.76
932.033	169.8
932.204	155.08
932.374	166.9
932.545	101.41
932.716	186.47
932.886	159.73
933.057	90.95
933.227	57.24
933.398	168.06
933.568	80.87
933.739	49.87
933.909	68.28
934.08	110.71
934.25	32.44
934.421	40.19
934.591	99.47
934.761	57.43
934.932	45.22
935.102	78.16
935.272	82.04
935.443	48.32
935.613	60.34
935.783	91.34
935.953	45.61
936.123	196.15
936.294	39.41
936.464	53.17
936.634	39.41
936.804	37.67
936.974	2.99
937.144	56.07
937.314	91.92
937.484	36.51
937.655	32.82
937.825	88.82
937.995	49.29
938.165	129.7
938.334	78.74
938.504	83.2
938.674	74.48
938.844	90.75
939.014	128.15
939.184	145
939.354	191.89
939.524	175.23
939.694	117.49
939.863	116.91
940.033	170.97
940.203	146.36
940.373	140.93
940.542	155.27
940.712	144.81
940.882	148.88
941.051	177.55
941.221	180.46
941.391	186.85
941.56	100.05
941.73	96.95
941.899	219.79
942.069	122.92
942.238	153.33
942.408	94.05
942.577	149.65
942.747	97.34
942.916	78.35
943.086	70.6
943.255	129.31
943.425	120.2
943.594	95.99
943.763	28.37
943.933	66.92
944.102	40.77
944.271	109.94
944.441	119.04
944.61	76.61
944.779	140.16
944.948	207.39
945.117	57.43
945.287	76.8
945.456	63.05
945.625	66.34
945.794	89.98
945.963	58.4
946.132	116.14
946.301	69.05
946.47	135.9
946.639	51.04
946.808	104.7
946.977	90.56
947.146	132.22
947.315	93.27
947.484	125.82
947.653	80.1
947.822	77.77
947.991	83.2
948.16	154.5
948.329	134.35
948.498	79.52
948.666	93.85
948.835	132.8
949.004	66.92
949.173	31.27
949.341	126.02
949.51	103.93
949.679	127.95
949.847	121.17
950.016	174.45
950.185	124.08
950.353	72.15
950.522	81.84
950.69	121.75
950.859	93.66
951.028	117.69
951.196	94.63
951.365	71.57
951.533	95.4
951.701	119.04
951.87	127.95
952.038	53.94
952.207	100.25
952.375	155.27
952.543	104.32
952.712	90.56
952.88	59.56
953.048	157.6
953.217	112.65
953.385	113.42
953.553	160.7
953.721	67.5
953.89	94.63
954.058	37.86
954.226	70.6
954.394	92.3
954.562	57.62
954.73	113.04
954.898	81.07
955.067	146.17
955.235	69.25
955.403	118.27
955.571	149.07
955.739	122.14
955.907	63.82
956.075	68.09
956.243	65.95
956.41	105.87
956.578	74.87
956.746	61.11
956.914	71.38
957.082	91.92
957.25	114.39
957.418	76.22
957.585	102.57
957.753	143.45
957.921	68.28
958.089	89.98
958.256	100.83
958.424	102.57
958.592	113.23
958.759	75.06
958.927	129.12
959.095	72.93
959.262	90.95
959.43	108.77
959.597	70.41
959.765	84.17
959.932	61.3
960.1	125.82
960.267	93.66
960.435	104.12
960.602	144.23
960.77	61.3
960.937	44.45
961.104	97.15
961.272	70.41
961.439	80.68
961.606	96.76
961.774	144.81
961.941	101.99
962.108	115.75
962.275	99.67
962.443	138.61
962.61	136.29
962.777	170.97
962.944	132.99
963.111	126.6
963.278	123.11
963.446	119.24
963.613	117.3
963.78	112.45
963.947	126.6
964.114	96.76
964.281	184.72
964.448	151.4
964.615	93.08
964.782	110.71
964.949	151.4
965.116	132.8
965.282	168.64
965.449	111.68
965.616	79.52
965.783	140.35
965.95	127.37
966.117	90.17
966.283	100.83
966.45	115.17
966.617	125.44
966.784	135.7
966.95	163.8
967.117	157.21
967.284	87.65
967.45	103.74
967.617	196.54
967.784	143.84
967.95	190.53
968.117	121.75
968.283	139.38
968.45	253.11
968.616	144.62
968.783	212.62
968.949	154.88
969.116	204.1
969.282	149.07
969.449	154.3
969.615	127.37
969.781	90.17
969.948	131.05
970.114	64.6
970.28	211.27
970.447	136.87
970.613	154.88
970.779	127.95
970.945	169.03
971.112	172.52
971.278	132.41
971.444	135.7
971.61	208.94
971.776	143.45
971.942	156.05
972.108	176.58
972.275	141.13
972.441	149.27
972.607	201
972.773	92.11
972.939	138.8
973.105	139
973.271	89.98
973.437	119.04
973.602	107.42
973.768	145.78
973.934	106.45
974.1	161.28
974.266	68.67
974.432	132.6
974.598	100.05
974.763	149.46
974.929	122.72
975.095	183.75
975.261	90.75
975.426	70.8
975.592	114.2
975.758	178.91
975.923	77.97
976.089	71.19
976.255	135.32
976.42	130.47
976.586	148.49
976.751	150.82
976.917	184.33
977.082	149.27
977.248	107.61
977.413	54.33
977.579	89.4
977.744	112.84
977.91	69.05
978.075	94.82
978.24	148.88
978.406	121.56
978.571	96.76
978.736	87.65
978.902	142.87
979.067	51.23
979.232	77
979.397	109.16
979.563	163.02
979.728	86.88
979.893	109.16
980.058	81.65
980.223	155.27
980.388	136.09
980.554	151.2
980.719	102.77
980.884	139
981.049	143.26
981.214	104.12
981.379	136.29
981.544	69.05
981.709	96.57
981.874	133.38
982.039	112.26
982.204	181.43
982.368	129.5
982.533	89.98
982.698	141.71
982.863	157.21
983.028	95.4
983.193	136.67
983.357	129.7
983.522	113.23
983.687	110.52
983.852	114.59
984.016	75.06
984.181	130.86
984.346	120.01
984.51	161.47
984.675	116.52
984.839	138.61
985.004	153.53
985.168	156.82
985.333	157.6
985.498	126.6
985.662	111.49
985.827	128.73
985.991	127.57
986.155	127.76
986.32	135.9
986.484	171.16
986.649	149.27
986.813	52.78
986.977	131.44
987.142	131.44
987.306	83.2
987.47	102.77
987.634	108.39
987.799	130.09
987.963	123.3
988.127	127.95
988.291	200.03
988.455	143.45
988.62	114.2
988.784	127.57
988.948	139.19
989.112	86.69
989.276	115.17
989.44	112.65
989.604	93.27
989.768	95.79
989.932	193.25
990.096	88.62
990.26	78.94
990.424	68.86
990.588	95.21
990.752	187.63
990.915	112.65
991.079	95.79
991.243	103.35
991.407	148.1
991.571	102.38
991.734	138.61
991.898	118.46
992.062	176.39
992.226	110.32
992.389	91.53
992.553	36.51
992.717	86.1
992.88	91.92
993.044	91.34
993.207	103.93
993.371	126.4
993.535	121.75
993.698	97.34
993.862	103.35
994.025	150.43
994.189	105.48
994.352	111.49
994.515	107.8
994.679	138.22
994.842	56.85
995.006	133.57
995.169	62.47
995.332	70.22
995.496	129.7
995.659	44.26
995.822	104.7
995.985	94.82
996.149	124.47
996.312	87.07
996.475	164.77
996.638	63.44
996.801	159.73
996.964	163.99
997.128	70.41
997.291	86.49
997.454	106.45
997.617	40.38
997.78	148.49
997.943	96.95
998.106	128.73
998.269	65.76
998.432	74.87
998.595	80.1
998.758	59.95
998.92	68.86
999.083	45.81
999.246	49.29
999.409	55.49
999.572	20.62
999.735	69.83
999.897	108.77
1000.06	62.27
1000.223	54.91
1000.386	103.35
1000.548	105.87
1000.711	89.59
1000.874	81.45
1001.036	41.74
1001.199	103.74
1001.361	72.93
1001.524	82.04
1001.687	106.64
1001.849	68.47
1002.012	101.22
1002.174	102.57
1002.337	108.97
1002.499	64.99
1002.661	97.54
1002.824	57.62
1002.986	40.19
1003.149	48.91
1003.311	58.2
1003.473	139
1003.636	58.01
1003.798	95.21
1003.96	89.2
1004.123	80.49
1004.285	62.27
1004.447	80.1
1004.609	55.3
1004.771	132.02
1004.933	55.49
1005.096	60.14
1005.258	7.25
1005.42	86.3
1005.582	95.6
1005.744	99.47
1005.906	37.09
1006.068	55.3
1006.23	22.17
1006.392	26.62
1006.554	36.12
1006.716	98.31
1006.878	108.77
1007.04	34.96
1007.202	50.65
1007.363	59.17
1007.525	85.91
1007.687	67.12
1007.849	107.03
1008.011	9.19
1008.172	32.63
1008.334	56.27
1008.496	53.36
1008.658	42.9
1008.819	31.86
1008.981	33.99
1009.143	49.1
1009.304	49.68
1009.466	79.52
1009.627	121.75
1009.789	170.38
1009.95	60.92
1010.112	55.3
1010.273	80.1
1010.435	20.23
1010.596	59.37
1010.758	45.42
1010.919	57.82
1011.081	17.71
1011.242	65.76
1011.403	73.12
1011.565	54.72
1011.726	55.49
1011.887	41.93
1012.049	45.42
1012.21	97.54
1012.371	103.93
1012.532	12.48
1012.693	45.42
1012.855	16.74
1013.016	71.57
1013.177	52.59
1013.338	55.3
1013.499	129.89
1013.66	64.99
1013.821	97.34
1013.982	68.67
1014.143	46.77
1014.304	42.51
1014.465	66.73
1014.626	53.75
1014.787	52.2
1014.948	132.02
1015.109	-7.09
1015.27	96.76
1015.431	51.81
1015.592	2.02
1015.752	83.59
1015.913	79.13
1016.074	52
1016.235	44.84
1016.395	46.19
1016.556	58.79
1016.717	46.77
1016.877	82.04
1017.038	44.84
1017.199	42.32
1017.359	60.34
1017.52	57.43
1017.681	31.86
1017.841	35.54
1018.002	34.18
1018.162	27.59
1018.323	104.7
1018.483	46.77
1018.644	42.71
1018.804	2.02
1018.964	24.49
1019.125	42.9
1019.285	56.27
1019.446	0.27
1019.606	22.56
1019.766	-3.41
1019.926	52.78
1020.087	78.16
1020.247	7.44
1020.407	66.54
1020.567	62.85
1020.728	34.76
1020.888	19.07
1021.048	13.06
1021.208	26.82
1021.368	-11.93
1021.528	89.98
1021.688	69.83
1021.848	69.25
1022.008	44.84
1022.168	27.21
1022.328	23.72
1022.488	53.36
1022.648	9.57
1022.808	13.64
1022.968	73.12
1023.128	11.9
1023.288	39.22
1023.448	35.92
1023.608	64.6
1023.767	33.02
1023.927	12.29
1024.087	26.62
1024.247	-1.28
1024.406	17.32
1024.566	15.39
1024.726	4.15
1024.885	33.79
1025.045	40.96
1025.205	11.71
1025.364	9.96
1025.524	60.72
1025.683	21.39
1025.843	58.01
1026.003	39.61
1026.162	58.79
1026.321	103.93
1026.481	45.81
1026.64	8.22
1026.8	50.84
1026.959	29.14
1027.119	48.91
1027.278	31.08
1027.437	25.27
1027.597	7.83
1027.756	64.99
1027.915	24.88
1028.074	61.3
1028.234	-8.44
1028.393	30.5
1028.552	8.61
1028.711	-41.57
1028.87	63.44
1029.03	1.24
1029.189	8.99
1029.348	-26.27
1029.507	1.44
1029.666	-12.13
1029.825	-17.16
1029.984	21.01
1030.143	46.77
1030.302	10.16
1030.461	0.86
1030.62	27.98
1030.779	19.46
1030.938	-7.28
1031.097	-2.63
1031.255	58.79
1031.414	72.93
1031.573	96.18
1031.732	0.66
1031.891	-1.28
1032.049	65.18
1032.208	44.84
1032.367	-8.83
1032.525	29.14
1032.684	-0.5
1032.843	19.65
1033.001	3.76
1033.16	185.11
1033.319	67.7
1033.477	30.11
1033.636	18.68
1033.794	-33.05
1033.953	43.09
1034.111	56.07
1034.27	20.23
1034.428	32.63
1034.587	-7.28
1034.745	29.72
1034.903	48.52
1035.062	58.98
1035.22	4.34
1035.378	38.64
1035.537	-10.77
1035.695	62.08
1035.853	6.09
1036.011	45.81
1036.17	31.47
1036.328	-21.43
1036.486	30.89
1036.644	52.78
1036.802	-52.62
1036.96	6.67
1037.119	35.92
1037.277	14.81
1037.435	-22.98
1037.593	-7.48
1037.751	20.42
1037.909	69.83
1038.067	69.83
