Data from gum_young_FLMT105791__43__17-38-42-044.txt Node

Date: Mon Mar 20 17:38:42 GMT 2023
User: antho
Spectrometer: FLMT10579
Trigger mode: 0
Integration Time (sec): 1.000000E-1
Scans to average: 10
Electric dark correction enabled: true
Nonlinearity correction enabled: false
Boxcar width: 0
XAxis mode: Wavelengths
Number of Pixels in Spectrum: 3648
>>>>>Begin Spectral Data<<<<<
345.248	-133.72
345.464	-133.72
345.681	-133.72
345.898	-131.59
346.114	-154.84
346.331	-2.55
346.548	15.27
346.764	7.52
346.981	-18.83
347.197	-38.01
347.414	20.31
347.631	-5.07
347.847	51.5
348.064	1.52
348.28	-1
348.497	-36.84
348.713	6.17
348.93	17.6
349.146	15.66
349.363	-5.84
349.579	16.05
349.796	9.66
350.012	0.55
350.229	38.72
350.445	9.46
350.661	-26.19
350.878	-4.29
351.094	43.95
351.311	0.36
351.527	22.83
351.743	-2.36
351.96	27.67
352.176	56.54
352.392	16.82
352.609	29.42
352.825	-33.16
353.041	17.99
353.257	-16.31
353.474	20.89
353.69	-5.46
353.906	2.87
354.122	-6.62
354.339	54.6
354.555	-6.04
354.771	-14.18
354.987	57.12
355.203	63.32
355.42	20.5
355.636	-15.14
355.852	-15.14
356.068	14.11
356.284	-12.04
356.5	48.99
356.716	2.87
356.932	8.11
357.148	25.74
357.364	6.36
357.58	49.37
357.796	55.38
358.012	10.04
358.228	-5.65
358.444	-50.6
358.66	30.39
358.876	46.47
359.092	-39.17
359.308	20.5
359.524	36.59
359.74	-16.89
359.956	-8.17
360.172	-11.85
360.388	36.97
360.604	-6.81
360.819	69.91
361.035	8.49
361.251	10.24
361.467	8.88
361.683	52.28
361.898	7.72
362.114	47.63
362.33	27.67
362.546	42.79
362.762	38.52
362.977	0.74
363.193	3.26
363.409	53.25
363.624	17.99
363.84	-4.88
364.056	-11.46
364.271	24.57
364.487	32.71
364.703	0.36
364.918	-21.34
365.134	-7.01
365.35	20.7
365.565	93.35
365.781	28.84
365.996	23.22
366.212	73.01
366.427	22.44
366.643	21.86
366.858	23.6
367.074	-30.06
367.289	47.44
367.505	83.47
367.72	-21.15
367.936	4.23
368.151	30.19
368.367	47.44
368.582	15.47
368.798	7.33
369.013	70.88
369.228	30.58
369.444	37.36
369.659	49.76
369.874	35.81
370.09	66.42
370.305	-44.21
370.52	-33.16
370.736	56.74
370.951	39.3
371.166	61.39
371.381	76.5
371.597	50.15
371.812	1.71
372.027	11.21
372.242	36.59
372.458	94.9
372.673	8.3
372.888	18.37
373.103	28.25
373.318	106.92
373.533	44.92
373.749	26.9
373.964	-17.08
374.179	54.8
374.394	-11.46
374.609	47.44
374.824	12.37
375.039	73.01
375.254	-0.03
375.469	65.84
375.684	14.89
375.899	74.75
376.114	37.55
376.329	33.29
376.544	46.08
376.759	50.15
376.974	15.47
377.189	-8.36
377.404	28.06
377.619	72.82
377.834	-37.23
378.049	-13.79
378.264	-4.49
378.478	13.72
378.693	6.17
378.908	33.87
379.123	21.67
379.338	31.55
379.553	42.4
379.767	29.42
379.982	62.55
380.197	51.89
380.412	24.38
380.626	31.35
380.841	103.04
381.056	55.96
381.271	98.39
381.485	17.21
381.7	-4.68
381.915	45.11
382.129	11.59
382.344	51.12
382.559	19.54
382.773	44.14
382.988	-6.81
383.202	52.09
383.417	0.16
383.632	120.48
383.846	43.56
384.061	48.6
384.275	17.79
384.49	26.32
384.704	53.83
384.919	19.92
385.133	8.11
385.348	60.22
385.562	-9.72
385.777	84.64
385.991	29.03
386.206	42.4
386.42	8.3
386.634	68.36
386.849	39.3
387.063	60.03
387.277	0.36
387.492	21.67
387.706	21.09
387.92	22.44
388.135	62.16
388.349	46.66
388.563	42.2
388.778	53.05
388.992	63.52
389.206	55.96
389.42	136.56
389.635	43.56
389.849	65.07
390.063	65.65
390.277	90.06
390.491	78.44
390.706	54.41
390.92	74.56
391.134	60.42
391.348	76.11
391.562	-4.29
391.776	30.77
391.99	28.84
392.205	92
392.419	39.69
392.633	44.92
392.847	88.51
393.061	22.44
393.275	102.65
393.489	66.04
393.703	41.62
393.917	84.25
394.131	33.87
394.345	84.25
394.559	82.7
394.773	45.69
394.986	55.77
395.2	56.74
395.414	85.22
395.628	40.65
395.842	71.85
396.056	53.44
396.27	-12.63
396.484	74.56
396.697	48.4
396.911	96.26
397.125	79.02
397.339	89.29
397.553	64.29
397.766	115.25
397.98	109.24
398.194	106.92
398.408	71.85
398.621	90.06
398.835	76.69
399.049	103.82
399.262	126.68
399.476	116.8
399.69	99.75
399.903	158.84
400.117	108.08
400.331	105.75
400.544	56.54
400.758	206.89
400.971	112.92
401.185	116.22
401.398	69.33
401.612	128.62
401.826	113.31
402.039	92.77
402.253	116.02
402.466	108.27
402.68	76.89
402.893	95.29
403.106	117.77
403.32	107.5
403.533	142.95
403.747	99.36
403.96	117.18
404.174	143.15
404.387	74.95
404.6	117.38
404.814	135.4
405.027	105.17
405.24	104.98
405.454	95.29
405.667	135.01
405.88	36.78
406.094	127.84
406.307	130.75
406.52	125.32
406.733	92
406.947	78.44
407.16	172.02
407.373	173.95
407.586	95.49
407.799	73.01
408.012	110.4
408.226	123.19
408.439	151.28
408.652	75.92
408.865	127.65
409.078	151.48
409.291	144.7
409.504	98.39
409.717	129
409.93	138.3
410.143	141.21
410.357	61.19
410.57	98.78
410.783	130.17
410.996	135.59
411.209	129.97
411.421	191.58
411.634	142.95
411.847	114.08
412.06	159.03
412.273	124.35
412.486	140.43
412.699	224.33
412.912	147.02
413.125	159.62
413.338	143.34
413.55	157.48
413.763	133.85
413.976	143.53
414.189	122.22
414.402	141.02
414.615	202.05
414.827	94.71
415.04	138.3
415.253	172.79
415.466	186.16
415.678	215.03
415.891	144.31
416.104	158.26
416.316	142.18
416.529	149.15
416.742	194.1
416.954	163.1
417.167	122.42
417.38	160.58
417.592	162.13
417.805	144.7
418.017	95.29
418.23	175.12
418.442	141.6
418.655	144.31
418.868	142.18
419.08	186.55
419.293	207.66
419.505	153.03
419.718	165.82
419.93	205.92
420.142	138.3
420.355	203.4
420.567	187.71
420.78	168.53
420.992	184.8
421.205	219.48
421.417	161.75
421.629	167.37
421.842	149.93
422.054	124.93
422.266	182.28
422.479	203.21
422.691	171.82
422.903	189.65
423.115	164.27
423.328	146.63
423.54	191.78
423.752	172.79
423.964	162.52
424.177	196.81
424.389	169.5
424.601	281.09
424.813	201.08
425.025	216.19
425.238	204.18
425.45	178.99
425.662	167.37
425.874	440.55
426.086	176.47
426.298	213.48
426.51	218.32
426.722	198.36
426.934	178.02
427.146	229.17
427.358	167.37
427.57	220.84
427.782	216
427.994	219.29
428.206	162.91
428.418	149.93
428.63	215.41
428.842	223.94
429.054	213.28
429.266	225.88
429.478	158.84
429.69	214.83
429.902	112.15
430.114	195.26
430.325	204.56
430.537	179.77
430.749	181.9
430.961	106.92
431.173	167.56
431.384	193.91
431.596	125.32
431.808	170.47
432.02	216.96
432.231	262.11
432.443	270.83
432.655	237.5
432.867	191.2
433.078	231.88
433.29	282.45
433.502	246.22
433.713	242.73
433.925	258.81
434.136	253.39
434.348	191.39
434.56	188.87
434.771	289.81
434.983	161.36
435.194	198.17
435.406	231.5
435.617	261.14
435.829	297.76
436.04	249.13
436.252	286.52
436.463	295.43
436.675	279.16
436.886	282.06
437.098	269.66
437.309	298.73
437.521	254.16
437.732	284.58
437.943	261.14
438.155	259.98
438.366	199.53
438.578	297.56
438.789	248.93
439	243.12
439.211	259.78
439.423	283.61
439.634	271.41
439.845	303.76
440.057	298.14
440.268	281.09
440.479	256.1
440.69	280.32
440.902	286.52
441.113	278.96
441.324	262.5
441.535	281.09
441.746	338.83
441.957	259.4
442.168	285.16
442.38	302.02
442.591	317.33
442.802	281.68
443.013	267.53
443.224	336.31
443.435	282.26
443.646	306.28
443.857	296.98
444.068	281.09
444.279	282.84
444.49	350.07
444.701	308.99
444.912	382.04
445.123	351.43
445.334	355.69
445.545	328.18
445.756	303.76
445.967	292.14
446.178	302.99
446.388	354.72
446.599	329.34
446.81	345.42
447.021	323.14
447.232	362.86
447.443	399.86
447.653	323.91
447.864	375.45
448.075	341.54
448.286	367.31
448.496	364.41
448.707	379.71
448.918	344.26
449.129	425.05
449.339	341.35
449.55	371.96
449.761	353.94
449.971	417.88
450.182	358.4
450.393	390.95
450.603	365.37
450.814	412.65
451.024	399.28
451.235	395.21
451.446	446.56
451.656	438.03
451.867	391.14
452.077	381.07
452.288	416.91
452.498	420.21
452.709	386.11
452.919	413.04
453.13	376.03
453.34	422.53
453.55	348.52
453.761	413.23
453.971	373.9
454.182	422.14
454.392	424.47
454.602	460.5
454.813	430.86
455.023	440.74
455.233	367.89
455.444	428.54
455.654	327.98
455.864	416.91
456.075	420.21
456.285	378.16
456.495	431.44
456.705	424.66
456.916	466.32
457.126	469.61
457.336	435.9
457.546	352.2
457.756	389.79
457.967	468.84
458.177	413.23
458.387	421.95
458.597	392.31
458.807	410.71
459.017	409.16
459.227	412.46
459.437	418.66
459.647	442.49
459.857	427.37
460.068	426.21
460.278	466.51
460.488	451.98
460.698	499.25
460.908	435.32
461.117	385.72
461.327	427.57
461.537	467.87
461.747	469.42
461.957	426.21
462.167	558.54
462.377	509.52
462.587	476.59
462.797	507.78
463.007	480.46
463.216	494.99
463.426	513.59
463.636	508.75
463.846	455.66
464.056	448.88
464.265	521.54
464.475	449.27
464.685	479.49
464.895	490.54
465.104	456.63
465.314	523.67
465.524	453.92
465.733	447.14
465.943	556.8
466.153	552.92
466.362	508.75
466.572	527.15
466.782	497.12
466.991	486.85
467.201	568.81
467.41	424.66
467.62	513.01
467.829	490.34
468.039	524.64
468.249	490.54
468.458	532.19
468.668	523.47
468.877	523.47
469.086	581.02
469.296	580.05
469.505	518.44
469.715	570.36
469.924	535.49
470.134	616.67
470.343	562.8
470.552	513.98
470.762	517.47
470.971	509.52
471.18	542.65
471.39	554.08
471.599	546.14
471.808	590.32
472.018	523.09
472.227	609.3
472.436	621.7
472.645	564.55
472.855	561.45
473.064	604.46
473.273	592.45
473.482	595.16
473.691	634.3
473.901	627.71
474.11	595.93
474.319	661.61
474.528	610.27
474.737	660.45
474.946	650.38
475.155	627.9
475.364	691.65
475.573	656.19
475.783	665.3
475.992	632.55
476.201	689.9
476.41	668.01
476.619	619.57
476.828	625
477.037	630.81
477.245	645.53
477.454	687.96
477.663	650.76
477.872	654.45
478.081	752.87
478.29	649.41
478.499	773.79
478.708	745.12
478.917	779.8
479.125	702.5
479.334	720.51
479.543	727.29
479.752	755
479.961	743.38
480.169	775.73
480.378	724.78
480.587	870.47
480.796	790.07
481.004	757.91
481.213	799.18
481.422	782.51
481.63	797.43
481.839	812.93
482.048	839.86
482.256	788.71
482.465	843.93
482.674	832.5
482.882	835.21
483.091	884.62
483.299	828.82
483.508	837.92
483.716	849.74
483.925	866.21
484.134	858.07
484.342	825.14
484.551	862.92
484.759	905.93
484.967	889.27
485.176	869.12
485.384	898.95
485.593	900.7
485.801	863.69
486.01	804.99
486.218	802.86
486.426	728.65
486.635	765.27
486.843	758.49
487.051	767.59
487.26	818.74
487.468	804.41
487.676	899.73
487.885	868.15
488.093	885.78
488.301	931.89
488.509	916.2
488.717	959.02
488.926	915.81
489.134	910
489.342	921.24
489.55	890.62
489.758	944.29
489.967	938.48
490.175	1032.45
490.383	993.89
490.591	1082.43
490.799	959.21
491.007	1060.35
491.215	1009.58
491.423	1013.07
491.631	987.11
491.839	990.79
492.047	1023.15
492.255	950.88
492.463	939.06
492.671	974.9
492.879	1053.57
493.087	977.62
493.295	1031.48
493.503	1042.13
493.711	1056.28
493.919	1069.26
494.127	1086.5
494.334	1094.06
494.542	1032.06
494.75	1068.29
494.958	1088.44
495.166	1118.47
495.374	1122.15
495.581	1162.26
495.789	1122.54
495.997	1156.64
496.205	1112.46
496.412	1133.58
496.62	1108.2
496.828	1145.21
497.035	1090.57
497.243	1188.22
497.451	1160.9
497.658	1185.12
497.866	1170.98
498.074	1218.83
498.281	1157.41
498.489	1216.12
498.696	1166.13
498.904	1152.18
499.112	1150.44
499.319	1239.17
499.527	1206.43
499.734	1231.04
499.942	1188.41
500.149	1175.04
500.357	1218.06
500.564	1164.39
500.771	1204.88
500.979	1166.91
501.186	1151.99
501.394	1212.24
501.601	1175.24
501.808	1218.83
502.016	1237.04
502.223	1207.79
502.43	1239.37
502.638	1205.27
502.845	1206.43
503.052	1309.12
503.26	1270.95
503.467	1309.89
503.674	1264.94
503.881	1290.52
504.089	1328.3
504.296	1311.25
504.503	1257.39
504.71	1264.75
504.917	1285.48
505.125	1307.37
505.332	1293.81
505.539	1360.85
505.746	1432.15
505.953	1413.93
506.16	1430.79
506.367	1440.87
506.574	1474.38
506.781	1465.47
506.988	1398.05
507.195	1415.1
507.402	1408.32
507.609	1451.13
507.816	1408.7
508.023	1445.71
508.23	1434.08
508.437	1393.59
508.644	1493.18
508.851	1526.11
509.058	1507.51
509.265	1515.07
509.472	1556.34
509.679	1629.77
509.885	1536.38
510.092	1551.69
510.299	1557.7
510.506	1570.48
510.713	1591.21
510.92	1601.68
511.126	1613.11
511.333	1619.5
511.54	1633.06
511.746	1689.06
511.953	1696.61
512.16	1683.24
512.367	1669.49
512.573	1638.1
512.78	1697.97
512.987	1682.47
513.193	1672.2
513.4	1613.69
513.606	1652.63
513.813	1706.3
514.02	1673.56
514.226	1721.02
514.433	1749.12
514.639	1656.51
514.846	1703.39
515.052	1724.32
515.259	1744.08
515.465	1776.82
515.672	1725.87
515.878	1858
516.085	1800.27
516.291	1836.69
516.497	1810.34
516.704	1746.99
516.91	1717.15
517.117	1658.06
517.323	1610.01
517.529	1617.18
517.736	1656.51
517.942	1690.8
518.148	1696.42
518.354	1753.77
518.561	1773.34
518.767	1759
518.973	1818.67
519.179	1857.62
519.386	1831.07
519.592	1833.59
519.798	1873.89
520.004	1952.75
520.21	1969.6
520.417	2009.13
520.623	2026.76
520.829	2014.55
521.035	2042.84
521.241	2071.71
521.447	2079.46
521.653	2192.41
521.859	2133.32
522.065	2154.82
522.271	2223.02
522.477	2167.03
522.683	2244.53
522.889	2178.07
523.095	2173.81
523.301	2175.94
523.507	2136.42
523.713	2160.06
523.919	2177.3
524.125	2306.14
524.331	2247.44
524.537	2331.91
524.742	2377.25
524.948	2387.71
525.154	2359.42
525.36	2467.14
525.566	2364.85
525.772	2414.45
525.977	2363.49
526.183	2398.17
526.389	2405.92
526.595	2336.75
526.8	2333.07
527.006	2257.12
527.212	2194.16
527.417	2178.85
527.623	2244.92
527.829	2293.16
528.034	2332.88
528.24	2377.83
528.446	2394.88
528.651	2471.02
528.857	2488.26
529.062	2543.09
529.268	2552.97
529.473	2596.57
529.679	2638.8
529.884	2643.07
530.09	2578.36
530.295	2598.51
530.501	2626.99
530.706	2591.53
530.912	2576.03
531.117	2642.68
531.323	2661.28
531.528	2696.93
531.733	2710.88
531.939	2655.85
532.144	2686.27
532.35	2694.41
532.555	2661.09
532.76	2640.74
532.966	2605.29
533.171	2607.61
533.376	2562.08
533.581	2573.12
533.787	2660.7
533.992	2668.45
534.197	2665.93
534.402	2726.18
534.607	2740.33
534.813	2768.62
535.018	2732.38
535.223	2746.92
535.428	2751.95
535.633	2786.63
535.838	2843.79
536.043	2860.84
536.249	2918.19
536.454	2838.36
536.659	2881.96
536.864	2811.05
537.069	2830.42
537.274	2804.85
537.479	2796.52
537.684	2826.35
537.889	2787.99
538.094	2896.49
538.299	2823.64
538.504	2895.52
538.708	2907.53
538.913	2899.59
539.118	2900.56
539.323	2944.15
539.528	2834.88
539.733	2840.3
539.938	2861.61
540.142	2839.91
540.347	2857.35
540.552	2801.94
540.757	2798.65
540.962	2815.11
541.166	2753.31
541.371	2766.87
541.576	2763.38
541.781	2776.37
541.985	2925.36
542.19	2839.72
542.395	2939.69
542.599	2979.03
542.804	2909.66
543.008	2995.88
543.213	2877.31
543.418	2829.06
543.622	2959.26
543.827	2828.48
544.031	2951.51
544.236	2962.17
544.44	2985.23
544.645	3058.46
544.849	2949.96
545.054	2994.52
545.258	3096.63
545.463	3023.2
545.667	2977.28
545.872	2996.07
546.076	2997.04
546.281	2983.48
546.485	2936.01
546.689	2992.97
546.894	3025.72
547.098	2983.09
547.302	2939.31
547.507	3018.16
547.711	3042.38
547.915	3035.21
548.119	2986.97
548.324	2982.51
548.528	3075.9
548.732	3012.16
548.936	3083.84
549.141	3099.15
549.345	3032.69
549.549	3059.24
549.753	3061.76
549.957	3120.85
550.161	3134.6
550.366	3079.19
550.57	3041.61
550.774	3047.61
550.978	3041.02
551.182	3074.93
551.386	3046.84
551.59	3028.04
551.794	3002.47
551.998	3086.17
552.202	3059.24
552.406	3059.43
552.61	3097.02
552.814	3060.21
553.018	3112.32
553.222	3063.5
553.426	3050.13
553.63	3110.39
553.833	3098.37
554.037	3021.46
554.241	3061.37
554.445	3064.86
554.649	3105.93
554.853	3029.4
555.056	3114.84
555.26	3153.2
555.464	3086.55
555.668	3063.5
555.871	3110.77
556.075	3083.07
556.279	3040.25
556.483	3016.03
556.686	3028.43
556.89	3056.14
557.094	3054.59
557.297	2996.66
557.501	3032.69
557.704	2946.28
557.908	3032.11
558.112	2965.08
558.315	3049.16
558.519	2964.69
558.722	2914.51
558.926	2911.02
559.129	2858.51
559.333	2847.47
559.536	2871.69
559.74	2836.43
559.943	2839.33
560.147	2818.8
560.35	2850.57
560.553	2895.33
560.757	2834.1
560.96	2930.39
561.164	2855.03
561.367	2934.08
561.57	2903.27
561.774	2882.93
561.977	2858.32
562.18	2856.38
562.384	2918.77
562.587	2832.75
562.79	2837.78
562.993	2873.63
563.197	2854.83
563.4	2914.51
563.603	2868.98
563.806	2899.2
564.009	2793.22
564.212	2838.75
564.416	2723.28
564.619	2840.11
564.822	2736.65
565.025	2834.68
565.228	2756.41
565.431	2803.88
565.634	2689.18
565.837	2758.15
566.04	2696.15
566.243	2645.78
566.446	2587.07
566.649	2700.42
566.852	2658.76
567.055	2681.82
567.258	2660.12
567.461	2737.81
567.664	2732.19
567.867	2648.1
568.07	2669.42
568.273	2683.95
568.475	2724.44
568.678	2572.93
568.881	2615.94
569.084	2588.43
569.287	2479.74
569.489	2539.03
569.692	2591.14
569.895	2589.01
570.098	2511.9
570.3	2478.58
570.503	2407.08
570.706	2452.81
570.909	2454.55
571.111	2361.75
571.314	2398.36
571.516	2415.03
571.719	2459.4
571.922	2395.46
572.124	2374.92
572.327	2427.62
572.529	2370.47
572.732	2412.7
572.935	2438.08
573.137	2490.01
573.34	2382.86
573.542	2425.68
573.745	2380.15
573.947	2416.58
574.15	2391.97
574.352	2381.12
574.554	2477.22
574.757	2325.52
574.959	2300.33
575.162	2339.08
575.364	2291.22
575.566	2357.87
575.769	2285.22
575.971	2319.12
576.173	2190.86
576.376	2280.95
576.578	2327.07
576.78	2333.46
576.982	2211.98
577.185	2275.14
577.387	2273.79
577.589	2205.39
577.791	2242.79
577.993	2253.64
578.196	2270.88
578.398	2236.59
578.6	2267.59
578.802	2203.07
579.004	2171.68
579.206	2203.07
579.408	2183.69
579.61	2172.46
579.812	2238.33
580.014	2172.07
580.216	2168.77
580.418	2192.41
580.62	2232.32
580.822	2167.61
581.024	2212.37
581.226	2242.79
581.428	2205.59
581.63	2303.62
581.832	2204.81
582.034	2288.9
582.236	2271.65
582.438	2298.97
582.64	2264.49
582.841	2296.26
583.043	2355.55
583.245	2266.04
583.447	2269.33
583.649	2296.84
583.85	2253.64
584.052	2312.53
584.254	2218.37
584.456	2324.93
584.657	2214.69
584.859	2258.09
585.061	2243.37
585.262	2211.01
585.464	2193.38
585.666	2249.37
585.867	2167.22
586.069	2210.43
586.27	2193.57
586.472	2201.32
586.674	2158.51
586.875	2174.97
587.077	2187.76
587.278	2204.62
587.48	2158.7
587.681	2236.2
587.883	2172.07
588.084	2073.26
588.285	2147.46
588.487	2097.28
588.688	2091.08
588.89	1997.89
589.091	1982.97
589.292	1938.41
589.494	1914.38
589.695	1856.65
589.896	1788.25
590.098	1827.2
590.299	1869.24
590.5	1847.15
590.702	1862.65
590.903	1937.05
591.104	1973.09
591.305	2011.06
591.507	2009.13
591.708	2002.15
591.909	1976.58
592.11	2032.38
592.311	2010.68
592.512	1962.05
592.714	1931.63
592.915	1941.31
593.116	1960.3
593.317	2003.31
593.518	2004.48
593.719	2003.31
593.92	2023.27
594.121	2011.06
594.322	1986.46
594.523	2004.09
594.724	1941.12
594.925	1966.89
595.126	1946.93
595.327	1953.33
595.528	1946.74
595.729	1945.96
595.929	1951.78
596.13	2012.61
596.331	2011.45
596.532	1994.4
596.733	2069.58
596.934	2019.01
597.135	2002.54
597.335	1995.56
597.536	1982.97
597.737	1974.25
597.938	1940.54
598.138	1961.08
598.339	1974.06
598.54	1989.75
598.74	1954.3
598.941	1947.71
599.142	2007.38
599.342	1986.85
599.543	1973.28
599.744	1958.17
599.944	1987.04
600.145	1975.61
600.345	2013
600.546	2067.25
600.746	2013.78
600.947	2039.74
601.147	2002.93
601.348	2040.71
601.548	1949.84
601.749	1983.55
601.949	1926.98
602.15	1926.59
602.35	1952.94
602.551	1980.65
602.751	1950.42
602.951	1927.75
603.152	1911.28
603.352	1988.2
603.552	1974.83
603.753	2008.35
603.953	2042.06
604.153	2004.09
604.354	1987.62
604.554	1954.88
604.754	2001.57
604.954	1957.59
605.155	1986.07
605.355	1967.28
605.555	1980.84
605.755	2040.32
605.955	2028.11
606.155	1989.75
606.356	1974.06
606.556	1991.69
606.756	1978.13
606.956	1931.82
607.156	2002.73
607.356	1935.12
607.556	1961.46
607.756	1967.86
607.956	1957.4
608.156	1977.16
608.356	1897.92
608.556	1965.53
608.756	1922.13
608.956	1902.18
609.156	1943.06
609.356	1902.37
609.556	1845.02
609.755	1905.08
609.955	1855.29
610.155	1877.38
610.355	1894.82
610.555	1897.14
610.755	1878.93
610.954	1787.87
611.154	1864.59
611.354	1889.39
611.554	1825.26
611.753	1856.45
611.953	1815.19
612.153	1906.83
612.352	1877.57
612.552	1796.59
612.752	1789.22
612.951	1842.89
613.151	1797.55
613.351	1794.84
613.55	1830.88
613.75	1823.52
613.949	1803.95
614.149	1813.05
614.348	1805.5
614.548	1760.55
614.747	1704.75
614.947	1754.93
615.146	1700.68
615.346	1801.82
615.545	1772.75
615.745	1806.85
615.944	1752.8
616.144	1771.2
616.343	1762.49
616.542	1741.56
616.742	1735.36
616.941	1725.48
617.14	1679.56
617.34	1688.47
617.539	1707.07
617.738	1686.15
617.938	1750.67
618.137	1732.46
618.336	1688.09
618.535	1755.71
618.734	1691.96
618.934	1727.42
619.133	1757.84
619.332	1758.22
619.531	1661.74
619.73	1723.35
619.929	1736.33
620.128	1753.38
620.328	1778.37
620.527	1723.54
620.726	1669.88
620.925	1723.16
621.124	1700.87
621.323	1722.96
621.522	1667.74
621.721	1685.18
621.92	1679.56
622.119	1726.64
622.318	1657.09
622.517	1671.81
622.715	1648.76
622.914	1578.62
623.113	1652.44
623.312	1596.64
623.511	1639.65
623.71	1633.26
623.909	1637.33
624.107	1687.89
624.306	1568.35
624.505	1575.33
624.704	1608.84
624.902	1594.12
625.101	1650.5
625.3	1612.91
625.499	1571.84
625.697	1576.68
625.896	1565.83
626.095	1588.89
626.293	1515.46
626.492	1538.71
626.69	1597.41
626.889	1546.46
627.088	1605.74
627.286	1534.64
627.485	1553.82
627.683	1510.61
627.882	1538.51
628.08	1448.23
628.279	1475.93
628.477	1517.59
628.676	1466.44
628.874	1538.32
629.073	1424.78
629.271	1476.13
629.469	1488.33
629.668	1491.24
629.866	1469.54
630.065	1465.28
630.263	1514.1
630.461	1443.77
630.66	1461.21
630.858	1511.58
631.056	1520.88
631.254	1535.22
631.453	1440.67
631.651	1509.26
631.849	1501.12
632.047	1496.28
632.245	1499.57
632.444	1456.37
632.642	1554.4
632.84	1546.46
633.038	1532.12
633.236	1467.02
633.434	1500.93
633.632	1475.93
633.83	1504.61
634.028	1562.93
634.227	1506.93
634.425	1571.84
634.623	1563.9
634.821	1527.28
635.019	1506.35
635.216	1510.61
635.414	1548.78
635.612	1519.72
635.81	1537.93
636.008	1547.62
636.206	1507.71
636.404	1530.76
636.602	1487.56
636.8	1512.94
636.997	1516.23
637.195	1524.37
637.393	1516.04
637.591	1576.49
637.789	1554.01
637.986	1501.12
638.184	1521.66
638.382	1578.23
638.58	1533.28
638.777	1569.13
638.975	1493.95
639.173	1491.63
639.37	1488.72
639.568	1519.14
639.765	1535.8
639.963	1502.09
640.161	1525.73
640.358	1515.07
640.556	1446.48
640.753	1440.09
640.951	1405.8
641.148	1443.97
641.346	1458.3
641.543	1436.8
641.741	1461.21
641.938	1435.83
642.136	1424.98
642.333	1375.38
642.531	1467.6
642.728	1472.64
642.925	1437.96
643.123	1395.53
643.32	1428.08
643.517	1376.54
643.715	1371.5
643.912	1386.42
644.109	1387.2
644.306	1400.57
644.504	1337.21
644.701	1372.28
644.898	1398.63
645.095	1348.06
645.293	1363.56
645.49	1381.19
645.687	1385.26
645.884	1350
646.081	1288.19
646.278	1305.05
646.475	1293.23
646.672	1281.99
646.87	1301.17
647.067	1282.96
647.264	1276.57
647.461	1231.43
647.658	1214.76
647.855	1264.94
648.052	1225.61
648.249	1154.51
648.446	1235.88
648.642	1230.26
648.839	1174.08
649.036	1170.39
649.233	1174.85
649.43	1164.39
649.627	1127.38
649.824	1189.96
650.021	1179.5
650.217	1191.9
650.414	1154.31
650.611	1236.46
650.808	1231.62
651.004	1238.79
651.201	1222.13
651.398	1288.19
651.595	1179.89
651.791	1180.66
651.988	1205.08
652.185	1168.26
652.381	1177.95
652.578	1144.05
652.775	1173.69
652.971	1145.79
653.168	1174.27
653.364	1226
653.561	1139.98
653.757	1185.7
653.954	1207.79
654.15	1164
654.347	1216.7
654.543	1177.37
654.74	1103.16
654.936	1098.51
655.133	1154.51
655.329	1139.59
655.525	1136.1
655.722	1157.03
655.918	1064.03
656.115	1083.01
656.311	1003.77
656.507	990.02
656.704	937.32
656.9	1006.87
657.096	997.38
657.292	995.83
657.489	1032.25
657.685	1060.93
657.881	1018.69
658.077	1038.65
658.273	1083.01
658.47	1112.08
658.666	1079.53
658.862	1114.98
659.058	1085.34
659.254	1114.01
659.45	1130.29
659.646	1092.7
659.842	1080.3
660.038	1098.71
660.234	1067.13
660.43	1085.73
660.626	1139.01
660.822	1117.11
661.018	1112.08
661.214	1097.35
661.41	1076.43
661.606	1098.13
661.802	1080.88
661.998	1080.69
662.194	1064.41
662.39	1092.12
662.586	1083.4
662.781	1092.31
662.977	1120.41
663.173	1096.38
663.369	1051.24
663.564	1072.16
663.76	1077.78
663.956	1038.45
664.152	1084.18
664.347	1024.7
664.543	1063.64
664.739	1022.57
664.934	978
665.13	998.54
665.326	1038.07
665.521	1041.75
665.717	1005.52
665.912	991.18
666.108	932.86
666.304	978
666.499	1009
666.695	931.12
666.89	962.5
667.086	977.62
667.281	1008.23
667.477	1054.92
667.672	983.43
667.867	946.04
668.063	992.73
668.258	959.02
668.454	1002.8
668.649	1053.57
668.844	1000.48
669.04	991.18
669.235	947.97
669.43	950.1
669.626	938.09
669.821	923.95
670.016	924.14
670.211	955.53
670.407	930.73
670.602	921.82
670.797	953.2
670.992	983.23
671.187	913.29
671.382	958.63
671.578	904.38
671.773	958.05
671.968	902.83
672.163	919.3
672.358	970.45
672.553	891.2
672.748	929.76
672.943	982.65
673.138	912.13
673.333	948.55
673.528	903.41
673.723	893.92
673.918	933.05
674.113	901.67
674.308	967.54
674.503	894.3
674.698	951.07
674.892	948.94
675.087	919.88
675.282	910.77
675.477	874.93
675.672	919.49
675.867	901.47
676.061	843.74
676.256	864.08
676.451	903.41
676.646	917.55
676.84	874.54
677.035	855.56
677.23	851.49
677.424	900.5
677.619	932.47
677.814	935.57
678.008	923.75
678.203	841.61
678.397	844.12
678.592	896.24
678.787	953.59
678.981	895.66
679.176	895.08
679.37	909.8
679.565	864.86
679.759	880.74
679.954	903.99
680.148	965.22
680.342	916.2
680.537	908.64
680.731	868.73
680.926	918.52
681.12	912.9
681.314	891.01
681.509	895.66
681.703	910.58
681.897	903.41
682.092	881.52
682.286	873.77
682.48	963.86
682.674	948.17
682.869	878.81
683.063	903.22
683.257	964.44
683.451	902.83
683.645	935.77
683.839	919.69
684.034	911.74
684.228	925.69
684.422	875.32
684.616	893.34
684.81	959.4
685.004	912.9
685.198	917.94
685.392	928.02
685.586	897.6
685.78	962.89
685.974	1002.03
686.168	961.73
686.362	964.64
686.556	883.84
686.75	843.54
686.944	809.44
687.138	799.76
687.331	707.73
687.525	718.38
687.719	671.5
687.913	746.28
688.107	774.76
688.301	764.11
688.494	828.04
688.688	750.74
688.882	744.93
689.076	772.24
689.269	800.53
689.463	871.64
689.657	840.44
689.85	823.97
690.044	848.97
690.238	834.63
690.431	861.17
690.625	879
690.818	931.89
691.012	928.02
691.205	981.68
691.399	929.57
691.593	1007.26
691.786	1076.81
691.98	1064.8
692.173	1085.15
692.366	1074.3
692.56	1148.11
692.753	1140.75
692.947	1086.11
693.14	1161.87
693.333	1184.15
693.527	1122.73
693.72	1183.76
693.914	1185.7
694.107	1166.52
694.3	1190.16
694.493	1157.03
694.687	1276.37
694.88	1215.73
695.073	1266.3
695.266	1290.13
695.46	1296.14
695.653	1335.27
695.846	1332.37
696.039	1318.03
696.232	1352.32
696.425	1424.78
696.618	1422.65
696.812	1449.58
697.005	1537.35
697.198	1608.26
697.391	1523.01
697.584	1560.41
697.777	1632.68
697.97	1616.01
698.163	1669.68
698.356	1654.57
698.549	1703.2
698.742	1677.43
698.935	1623.38
699.127	1699.52
699.32	1619.69
699.513	1662.51
699.706	1683.44
699.899	1723.54
700.092	1659.99
700.285	1697
700.477	1680.53
700.67	1738.07
700.863	1766.17
701.056	1822.35
701.248	1825.65
701.441	1866.53
701.634	1792.32
701.826	1923.68
702.019	1806.85
702.212	1897.53
702.404	1836.69
702.597	1861.3
702.79	1851.42
702.982	1912.64
703.175	1969.02
703.367	1973.67
703.56	1990.53
703.752	2094.76
703.945	2053.49
704.137	2087.4
704.33	2074.81
704.522	2110.26
704.715	2149.4
704.907	2168.19
705.1	2167.03
705.292	2165.29
705.484	2195.51
705.677	2255.96
705.869	2255.38
706.061	2242.01
706.254	2288.9
706.446	2268.55
706.638	2279.79
706.831	2301.88
707.023	2298.58
707.215	2421.42
707.407	2400.88
707.599	2413.86
707.792	2453.58
707.984	2437.5
708.176	2484.19
708.368	2460.56
708.56	2477.41
708.752	2501.05
708.944	2479.54
709.136	2548.52
709.329	2493.3
709.521	2636.48
709.713	2564.99
709.905	2595.21
710.097	2639.39
710.289	2568.28
710.481	2626.02
710.672	2645
710.864	2654.5
711.056	2684.72
711.248	2693.64
711.44	2714.56
711.632	2695.19
711.824	2733.16
712.016	2753.5
712.207	2781.98
712.399	2769.58
712.591	2856.19
712.783	2818.99
712.975	2833.52
713.166	2789.54
713.358	2838.56
713.55	2865.88
713.741	2856.96
713.933	2885.06
714.125	2859.68
714.316	2874.21
714.508	2913.34
714.7	2906.37
714.891	2882.73
715.083	2903.27
715.274	2816.47
715.466	2911.02
715.657	2940.66
715.849	2843.4
716.04	2883.7
716.232	2808.33
716.423	2830.23
716.615	2741.49
716.806	2684.14
716.998	2591.72
717.189	2508.61
717.381	2424.13
717.572	2378.21
717.763	2393.33
717.955	2331.13
718.146	2289.28
718.337	2261
718.528	2218.95
718.72	2150.17
718.911	2163.16
719.102	2126.92
719.293	2178.46
719.485	2135.06
719.676	2110.65
719.867	2047.29
720.058	2064.73
720.249	2090.31
720.44	2095.34
720.632	2172.65
720.823	2224.19
721.014	2358.45
721.205	2404.56
721.396	2501.24
721.587	2635.32
721.778	2680.65
721.969	2713.4
722.16	2767.07
722.351	2793.61
722.542	2942.41
722.733	2912.96
722.924	2844.18
723.115	2876.92
723.305	2843.98
723.496	2846.11
723.687	2655.66
723.878	2694.6
724.069	2726.96
724.26	2678.91
724.45	2621.95
724.641	2618.66
724.832	2630.86
725.023	2636.29
725.213	2624.08
725.404	2565.76
725.595	2614.39
725.785	2552.59
725.976	2655.27
726.167	2626.99
726.357	2663.22
726.548	2720.37
726.739	2645.78
726.929	2746.72
727.12	2793.22
727.31	2759.32
727.501	2707
727.691	2727.93
727.882	2731.03
728.072	2769.2
728.263	2788.18
728.453	2843.79
728.644	2814.92
728.834	2805.23
729.024	2750.02
729.215	2778.3
729.405	2813.56
729.596	2856.58
729.786	2885.06
729.976	2886.22
730.167	2896.49
730.357	2893.97
730.547	2881.57
730.737	2927.88
730.928	2957.91
731.118	2990.84
731.308	2952.68
731.498	3003.44
731.688	3004.02
731.879	3063.31
732.069	3110.77
732.259	3146.62
732.449	3248.91
732.639	3277.01
732.829	3327.77
733.019	3345.59
733.209	3441.31
733.399	3424.45
733.589	3559.3
733.779	3590.88
733.969	3584.49
734.159	3672.83
734.349	3676.13
734.539	3702.86
734.729	3649
734.919	3714.49
735.109	3793.15
735.299	3695.11
735.488	3733.09
735.678	3740.65
735.868	3728.83
736.058	3708.87
736.248	3701.7
736.437	3692.01
736.627	3680.78
736.817	3778.81
737.007	3718.56
737.196	3852.63
737.386	3795.86
737.576	3767
737.765	3864.64
737.955	3800.51
738.144	3933.04
738.334	3919.86
738.524	3814.46
738.713	3887.89
738.903	3841.78
739.092	3905.14
739.282	3886.15
739.471	3929.16
739.661	3915.21
739.85	3981.67
740.04	3937.69
740.229	4008.79
740.419	4038.63
740.608	4018.29
740.797	4018.09
740.987	4077.18
741.176	4066.14
741.365	4016.93
741.555	3955.51
741.744	4094.62
741.933	4010.54
742.123	4057.03
742.312	4059.55
742.501	4137.44
742.69	4151.2
742.88	4106.05
743.069	4218.81
743.258	4156.62
743.447	4158.36
743.636	4176.58
743.825	4158.17
744.014	4194.01
744.204	4221.72
744.393	4133.18
744.582	4246.91
744.771	4256.98
744.96	4226.37
745.149	4240.13
745.338	4189.36
745.527	4245.36
745.716	4200.8
745.905	4178.9
746.094	4263.76
746.283	4238.77
746.471	4206.03
746.66	4290.89
746.849	4243.81
747.038	4272.48
747.227	4195.76
747.416	4244.97
747.604	4213.19
747.793	4241.09
747.982	4253.49
748.171	4268.99
748.359	4286.24
748.548	4252.53
748.737	4235.09
748.926	4237.22
749.114	4116.9
749.303	4219.59
749.491	4206.8
749.68	4115.93
749.869	4253.69
750.057	4144.61
750.246	4135.11
750.434	4182.97
750.623	4182.97
750.811	4114.38
751	4194.98
751.188	4133.18
751.377	4156.04
751.565	4115.16
751.754	4103.92
751.942	4099.27
752.131	4207.38
752.319	4064.78
752.507	4027.78
752.696	4155.26
752.884	4126.2
753.072	4126.59
753.261	4164.76
753.449	4125.23
753.637	4087.45
753.825	4173.09
754.014	4110.12
754.202	4085.9
754.39	4139.38
754.578	4148.68
754.766	4050.45
754.955	4055.29
755.143	4102.37
755.331	4086.68
755.519	4061.1
755.707	4047.73
755.895	4054.9
756.083	4045.22
756.271	3997.36
756.459	4022.55
756.647	4031.27
756.835	4013.44
757.023	4039.02
757.211	3995.81
757.399	4020.03
757.587	4013.83
757.775	3935.75
757.963	3985.15
758.151	3959
758.339	3884.6
758.526	3880.34
758.714	3888.28
758.902	3747.23
759.09	3636.99
759.278	3364.39
759.465	3148.17
759.653	2759.7
759.841	2472.18
760.028	2118.79
760.216	1873.89
760.404	1711.14
760.591	1411.03
760.779	1202.75
760.967	1031.28
761.154	851.1
761.342	870.86
761.529	855.17
761.717	915.23
761.905	914.07
762.092	1009.39
762.28	912.71
762.467	915.62
762.655	845.29
762.842	846.45
763.029	879.39
763.217	897.02
763.404	852.46
763.592	886.56
763.779	843.16
763.966	917.36
764.154	951.07
764.341	1015.2
764.528	1024.89
764.716	1057.25
764.903	1160.9
765.09	1276.18
765.277	1283.74
765.465	1440.87
765.652	1529.99
765.839	1631.13
766.026	1782.25
766.213	1841.34
766.4	1968.63
766.588	2183.11
766.775	2228.25
766.962	2317.96
767.149	2418.51
767.336	2584.75
767.523	2609.94
767.71	2729.67
767.897	2866.26
768.084	2954.81
768.271	3029.59
768.458	3071.25
768.645	3175.29
768.832	3128.21
769.019	3203.77
769.206	3190.4
769.392	3300.06
769.579	3383.76
769.766	3370.01
769.953	3398.1
770.14	3459.52
770.327	3412.83
770.513	3487.81
770.7	3523.65
770.887	3483.35
771.073	3444.21
771.26	3492.26
771.447	3479.28
771.634	3466.69
771.82	3516.48
772.007	3466.3
772.193	3515.32
772.38	3538.95
772.567	3521.9
772.753	3504.47
772.94	3553.87
773.126	3553.68
773.313	3583.9
773.499	3525.97
773.686	3570.54
773.872	3522.1
774.059	3577.32
774.245	3544.96
774.432	3472.89
774.618	3416.7
774.804	3497.3
774.991	3472.31
775.177	3519
775.363	3457.97
775.55	3482.57
775.736	3388.22
775.922	3456.22
776.109	3470.95
776.295	3443.05
776.481	3499.04
776.667	3466.3
776.853	3434.72
777.04	3432.59
777.226	3406.43
777.412	3529.65
777.598	3393.26
777.784	3411.66
777.97	3396.94
778.156	3414.76
778.342	3408.37
778.528	3371.56
778.715	3316.73
778.901	3339.01
779.087	3351.6
779.272	3363.42
779.458	3314.01
779.644	3359.74
779.83	3295.41
780.016	3395.39
780.202	3325.83
780.388	3360.9
780.574	3255.11
780.76	3270.42
780.946	3314.4
781.131	3319.44
781.317	3270.61
781.503	3257.25
781.689	3230.7
781.874	3360.9
782.06	3245.43
782.246	3267.9
782.432	3262.86
782.617	3223.73
782.803	3278.17
782.989	3215.78
783.174	3183.43
783.36	3163.28
783.545	3223.34
783.731	3156.11
783.916	3122.59
784.102	3212.3
784.288	3168.32
784.473	3159.6
784.659	3116.59
784.844	3180.91
785.029	3124.72
785.215	3125.11
785.4	3079.19
785.586	3167.93
785.771	3049.55
785.956	3096.44
786.142	3060.21
786.327	3096.05
786.512	3057.69
786.698	3050.32
786.883	2976.51
787.068	3024.56
787.254	3023.2
787.439	2967.59
787.624	2999.76
787.809	2993.94
787.994	2998.01
788.18	2999.76
788.365	2921.87
788.55	2902.49
788.735	2969.34
788.92	2950.54
789.105	2949.58
789.29	2896.49
789.475	2831.97
789.66	2848.25
789.845	2845.34
790.03	2850.57
790.215	2860.84
790.4	2879.83
790.585	2889.13
790.77	2833.52
790.955	2743.62
791.14	2825.77
791.325	2836.43
791.51	2741.88
791.695	2808.53
791.879	2831.97
792.064	2783.92
792.249	2844.56
792.434	2777.53
792.618	2815.7
792.803	2846.31
792.988	2769
793.173	2781.98
793.357	2859.29
793.542	2732.19
793.727	2854.06
793.911	2894.16
794.096	2835.26
794.281	2877.31
794.465	2927.88
794.65	2809.88
794.834	2878.47
795.019	2947.44
795.203	2911.41
795.388	2888.16
795.572	2948.99
795.757	2864.52
795.941	2883.51
796.126	2845.53
796.31	2817.44
796.494	2832.75
796.679	2801.17
796.863	2814.53
797.048	2918.96
797.232	2823.25
797.416	2824.22
797.601	2798.45
797.785	2927.1
797.969	2877.89
798.153	2837.59
798.338	2886.03
798.522	2910.05
798.706	2897.85
798.89	2949.96
799.074	3002.86
799.258	2990.26
799.443	2909.28
799.627	2918.58
799.811	2921.29
799.995	2877.89
800.179	2873.63
800.363	2885.83
800.547	2892.61
800.731	2886.61
800.915	2862.97
801.099	2829.65
801.283	2868.59
801.467	2842.63
801.651	2832.55
801.835	2936.4
802.019	2850.18
802.202	2855.41
802.386	2806.2
802.57	2794.19
802.754	2812.6
802.938	2808.53
803.121	2827.32
803.305	2863.75
803.489	2836.04
803.673	2884.28
803.856	2876.73
804.04	2856.19
804.224	2874.4
804.407	2826.16
804.591	2838.36
804.775	2840.88
804.958	2848.83
805.142	2948.22
805.326	2841.27
805.509	2890.1
805.693	2906.76
805.876	2885.64
806.06	2888.93
806.243	2948.03
806.427	2930.98
806.61	2929.62
806.794	2862.2
806.977	2936.4
807.16	2896.3
807.344	2938.73
807.527	2879.83
807.71	2872.85
807.894	2876.15
808.077	2905.01
808.26	2846.31
808.444	2806.01
808.627	2844.18
808.81	2819.96
808.993	2799.03
809.177	2771.91
809.36	2785.28
809.543	2806.01
809.726	2694.99
809.909	2714.17
810.092	2693.05
810.276	2683.17
810.459	2654.3
810.642	2653.92
810.825	2639
811.008	2678.72
811.191	2521.39
811.374	2582.42
811.557	2577.58
811.74	2609.55
811.923	2517.71
812.106	2484.19
812.289	2468.89
812.472	2494.66
812.654	2461.72
812.837	2410.18
813.02	2376.47
813.203	2348.77
813.386	2222.44
813.569	2201.71
813.751	2164.32
813.934	2167.03
814.117	2164.32
814.3	2083.72
814.482	2040.71
814.665	2027.34
814.848	1979.29
815.03	1958.75
815.213	1931.24
815.396	1904.89
815.578	1848.32
815.761	1865.17
815.943	1871.57
816.126	1767.72
816.309	1778.18
816.491	1741.17
816.674	1668.91
816.856	1715.6
817.039	1724.32
817.221	1801.62
817.403	1714.05
817.586	1734.01
817.768	1716.96
817.951	1639.84
818.133	1654.38
818.315	1687.51
818.498	1746.79
818.68	1788.45
818.862	1757.84
819.045	1747.37
819.227	1810.34
819.409	1729.36
819.591	1784.38
819.774	1715.6
819.956	1722.38
820.138	1818.48
820.32	1807.05
820.502	1882.22
820.684	1939.76
820.866	1940.73
821.048	2005.06
821.231	1999.25
821.413	2032.38
821.595	1985.1
821.777	2024.43
821.959	1977.93
822.141	2023.27
822.323	1892.1
822.505	1842.89
822.686	1770.43
822.868	1679.17
823.05	1589.66
823.232	1546.65
823.414	1493.57
823.596	1586.18
823.778	1538.13
823.96	1568.55
824.141	1606.91
824.323	1653.02
824.505	1707.46
824.687	1764.62
824.868	1792.52
825.05	1909.93
825.232	1946.93
825.413	2013.58
825.595	1986.85
825.777	1918.84
825.958	1965.53
826.14	1946.93
826.321	1984.13
826.503	1918.65
826.685	1957.4
826.866	2004.28
827.048	1955.46
827.229	1945.38
827.411	1837.47
827.592	1822.74
827.773	1829.72
827.955	1747.37
828.136	1735.36
828.318	1724.12
828.499	1791.55
828.68	1727.42
828.862	1744.47
829.043	1778.76
829.224	1712.11
829.406	1715.21
829.587	1729.16
829.768	1745.44
829.949	1771.59
830.131	1736.72
830.312	1809.76
830.493	1749.51
830.674	1747.57
830.855	1724.32
831.036	1764.23
831.218	1821.97
831.399	1830.69
831.58	1798.91
831.761	1748.15
831.942	1779.15
832.123	1756.29
832.304	1722.57
832.485	1711.14
832.666	1746.21
832.847	1764.81
833.028	1736.33
833.209	1754.74
833.389	1741.56
833.57	1673.56
833.751	1705.72
833.932	1779.54
834.113	1761.71
834.294	1723.16
834.475	1790.58
834.655	1818.48
834.836	1808.6
835.017	1816.93
835.198	1737.88
835.378	1785.74
835.559	1808.6
835.74	1770.62
835.92	1762.68
836.101	1776.63
836.281	1809.95
836.462	1849.67
836.643	1845.99
836.823	1880.48
837.004	1843.67
837.184	1911.87
837.365	1866.14
837.545	1854.13
837.726	1867.5
837.906	1900.63
838.087	1846.19
838.267	1814.22
838.448	1803.56
838.628	1870.21
838.808	1858.97
838.989	1863.43
839.169	1792.9
839.349	1868.08
839.53	1904.31
839.71	1890.75
839.89	1859.36
840.07	1913.22
840.251	1832.24
840.431	1862.85
840.611	1822.35
840.791	1860.33
840.971	1813.25
841.151	1833.2
841.332	1828.17
841.512	1880.48
841.692	1787.29
841.872	1837.85
842.052	1794.26
842.232	1860.13
842.412	1794.26
842.592	1814.22
842.772	1843.86
842.952	1855.48
843.132	1820.61
843.312	1785.74
843.492	1784.96
843.672	1831.85
843.851	1749.7
844.031	1781.28
844.211	1761.52
844.391	1759.58
844.571	1777.99
844.751	1841.54
844.93	1785.15
845.11	1734.78
845.29	1796
845.47	1802.01
845.649	1757.45
845.829	1809.57
846.009	1777.6
846.188	1806.85
846.368	1792.32
846.547	1781.09
846.727	1817.32
846.907	1740.59
847.086	1763.26
847.266	1809.57
847.445	1767.72
847.625	1779.34
847.804	1737.49
847.984	1769.07
848.163	1718.7
848.343	1706.3
848.522	1717.54
848.701	1757.84
848.881	1712.69
849.06	1740.4
849.239	1750.09
849.419	1737.69
849.598	1670.65
849.777	1658.44
849.957	1650.31
850.136	1609.43
850.315	1578.43
850.494	1602.26
850.674	1619.31
850.853	1685.37
851.032	1616.59
851.211	1662.71
851.39	1616.59
851.569	1569.9
851.748	1592.57
851.927	1668.71
852.107	1625.7
852.286	1564.09
852.465	1593.34
852.644	1656.89
852.823	1626.48
853.002	1608.07
853.181	1611.17
853.359	1625.7
853.538	1556.53
853.717	1617.56
853.896	1512.16
854.075	1437.96
854.254	1419.55
854.433	1363.17
854.611	1445.13
854.79	1318.61
854.969	1413.93
855.148	1436.8
855.327	1390.88
855.505	1421.49
855.684	1440.67
855.863	1461.02
856.041	1445.71
856.22	1490.85
856.399	1485.82
856.577	1568.74
856.756	1549.95
856.934	1639.07
857.113	1617.76
857.291	1560.02
857.47	1488.33
857.648	1558.28
857.827	1544.91
858.005	1595.67
858.184	1544.13
858.362	1624.54
858.541	1531.93
858.719	1534.25
858.898	1550.33
859.076	1509.45
859.254	1614.46
859.433	1508.29
859.611	1546.85
859.789	1482.52
859.967	1566.8
860.146	1581.53
860.324	1468.18
860.502	1487.75
860.68	1454.04
860.859	1511.39
861.037	1512.55
861.215	1492.98
861.393	1528.25
861.571	1487.75
861.749	1460.05
861.927	1480.97
862.105	1459.85
862.283	1449
862.461	1470.32
862.639	1423.04
862.817	1477.29
862.995	1449.58
863.173	1463.53
863.351	1481.17
863.529	1453.65
863.707	1480
863.885	1472.83
864.063	1395.92
864.241	1447.65
864.418	1452.68
864.596	1427.88
864.774	1408.7
864.952	1400.76
865.129	1435.83
865.307	1402.89
865.485	1345.35
865.663	1409.67
865.84	1343.8
866.018	1348.45
866.196	1237.04
866.373	1232.78
866.551	1223.29
866.728	1171.36
866.906	1191.32
867.084	1240.92
867.261	1251.57
867.439	1276.96
867.616	1291.68
867.794	1306.02
867.971	1312.41
868.149	1322.29
868.326	1346.12
868.503	1342.05
868.681	1328.49
868.858	1328.3
869.035	1268.43
869.213	1332.56
869.39	1294.59
869.567	1402.5
869.745	1304.08
869.922	1324.04
870.099	1306.79
870.276	1333.53
870.454	1332.17
870.631	1322.29
870.808	1337.99
870.985	1323.84
871.162	1367.44
871.339	1326.36
871.517	1251.57
871.694	1276.57
871.871	1313.38
872.048	1268.24
872.225	1272.31
872.402	1304.47
872.579	1261.26
872.756	1284.51
872.933	1234.14
873.11	1258.36
873.287	1249.64
873.463	1241.89
873.64	1233.17
873.817	1232.59
873.994	1250.02
874.171	1190.35
874.348	1259.32
874.524	1194.23
874.701	1226.58
874.878	1186.67
875.055	1230.84
875.231	1216.7
875.408	1244.02
875.585	1162.26
875.762	1189.77
875.938	1210.89
876.115	1213.21
876.291	1195.78
876.468	1212.44
876.645	1140.56
876.821	1176.21
876.998	1205.66
877.174	1203.91
877.351	1192.68
877.527	1176.79
877.704	1173.69
877.88	1168.26
878.057	1170.39
878.233	1203.53
878.409	1144.24
878.586	1180.47
878.762	1170.78
878.938	1168.07
879.115	1122.35
879.291	1162.06
879.467	1112.46
879.644	1120.02
879.82	1151.79
879.996	1132.42
880.172	1090.18
880.349	1141.91
880.525	1146.76
880.701	1053.37
880.877	1071.97
881.053	1127
881.229	1110.72
881.405	1194.03
881.581	1070.61
881.757	1146.18
881.933	1111.11
882.109	1162.84
882.285	1112.85
882.461	1053.18
882.637	1151.41
882.813	1054.92
882.989	1093.86
883.165	1140.95
883.341	1100.26
883.517	1114.01
883.693	1139.4
883.869	1104.13
884.044	1102.39
884.22	1089.41
884.396	1151.21
884.572	1105.1
884.747	1113.43
884.923	1126.8
885.099	1097.74
885.275	1151.99
885.45	1101.03
885.626	1105.68
885.801	1062.87
885.977	1079.53
886.153	1015.59
886.328	1133.2
886.504	1059.96
886.679	1101.03
886.855	1064.8
887.03	1100.45
887.206	1094.25
887.381	1082.63
887.557	1136.88
887.732	1111.3
887.908	1096.19
888.083	1102
888.258	1088.25
888.434	1068.68
888.609	1067.9
888.784	1128.35
888.96	1121.38
889.135	1108.01
889.31	1075.46
889.485	1124.67
889.661	1074.1
889.836	1122.35
890.011	1111.5
890.186	1060.73
890.361	1086.7
890.537	1092.12
890.712	1097.16
890.887	1109.17
891.062	1065.38
891.237	1146.95
891.412	1060.54
891.587	1089.21
891.762	1103.94
891.937	1134.55
892.112	1068.48
892.287	1078.75
892.462	1028.38
892.637	1004.16
892.812	957.47
892.987	984.78
893.161	961.92
893.336	989.05
893.511	979.36
893.686	991.18
893.861	963.67
894.035	989.43
894.21	978.78
894.385	916.39
894.56	933.44
894.734	909.8
894.909	904.38
895.084	888.3
895.258	881.71
895.433	893.72
895.608	834.63
895.782	837.34
895.957	822.42
896.131	801.69
896.306	757.13
896.48	767.59
896.655	748.22
896.829	660.45
897.004	685.83
897.178	699.98
897.353	727.68
897.527	749.19
897.701	741.83
897.876	666.85
898.05	735.82
898.224	733.88
898.399	755
898.573	706.37
898.747	600.2
898.921	653.09
899.096	587.99
899.27	584.5
899.444	580.24
899.618	624.42
899.792	620.73
899.967	642.05
900.141	650.96
900.315	600
900.489	582.37
900.663	616.67
900.837	617.25
901.011	577.14
901.185	682.15
901.359	613.95
901.533	639.33
901.707	627.71
901.881	631.78
902.055	551.95
902.229	625.19
902.403	655.61
902.576	634.3
902.75	635.85
902.924	718.19
903.098	674.4
903.272	733.11
903.446	732.33
903.619	761.2
903.793	767.79
903.967	773.99
904.14	794.53
904.314	816.81
904.488	791.43
904.661	784.45
904.835	786.39
905.009	789.68
905.182	837.54
905.356	820.49
905.529	790.26
905.703	780.77
905.876	769.34
906.05	729.43
906.223	715.09
906.397	658.9
906.57	662
906.744	625.58
906.917	613.95
907.09	603.3
907.264	632.55
907.437	592.45
907.61	558.54
907.784	544.59
907.957	576.95
908.13	525.22
908.304	582.37
908.477	552.53
908.65	534.13
908.823	506.62
908.996	588.96
909.17	540.91
909.343	549.63
909.516	543.82
909.689	522.7
909.862	538.97
910.035	546.92
910.208	512.62
910.381	490.15
910.554	593.61
910.727	554.47
910.9	525.22
911.073	504.1
911.246	617.44
911.419	620.15
911.592	577.72
911.765	536.26
911.938	485.5
912.11	537.23
912.283	556.02
912.456	588.57
912.629	532.19
912.802	516.5
912.974	453.92
913.147	432.02
913.32	393.47
913.493	416.91
913.665	465.54
913.838	463.02
914.01	457.99
914.183	485.89
914.356	471.35
914.528	508.75
914.701	535.29
914.873	521.15
915.046	460.5
915.218	405.29
915.391	356.46
915.563	389.59
915.736	476.78
915.908	470.97
916.081	463.41
916.253	452.56
916.425	517.27
916.598	459.92
916.77	464.38
916.942	435.32
917.115	386.11
917.287	435.32
917.459	409.74
917.632	395.79
917.804	351.04
917.976	421.37
918.148	432.99
918.32	433.19
918.493	468.64
918.665	513.98
918.837	463.22
919.009	519.4
919.181	529.67
919.353	506.42
919.525	481.43
919.697	497.32
919.869	513.98
920.041	536.45
920.213	600.39
920.385	546.72
920.557	524.44
920.729	517.08
920.901	507.78
921.073	507.97
921.244	523.09
921.416	528.9
921.588	496.93
921.76	486.66
921.932	556.02
922.103	501.77
922.275	530.06
922.447	503.32
922.619	450.04
922.79	489.76
922.962	460.89
923.134	497.32
923.305	437.84
923.477	428.34
923.648	412.84
923.82	451.4
923.991	378.16
924.163	386.88
924.335	412.65
924.506	411.1
924.677	444.62
924.849	396.57
925.02	430.67
925.192	437.26
925.363	447.33
925.535	442.87
925.706	408
925.877	449.66
926.049	408.77
926.22	435.51
926.391	449.66
926.562	458.76
926.734	393.86
926.905	447.91
927.076	394.82
927.247	397.54
927.419	340.96
927.59	344.84
927.761	329.14
927.932	347.55
928.103	349.49
928.274	275.09
928.445	303.76
928.616	305.89
928.787	267.53
928.958	335.15
929.129	288.65
929.3	265.21
929.471	251.65
929.642	169.3
929.813	168.92
929.984	254.16
930.155	177.44
930.326	230.91
930.496	192.36
930.667	139.66
930.838	168.14
931.009	127.65
931.18	151.48
931.35	154.58
931.521	189.65
931.692	103.04
931.863	65.84
932.033	140.05
932.204	134.82
932.374	143.53
932.545	64.87
932.716	126.68
932.886	127.65
933.057	49.18
933.227	53.25
933.398	145.28
933.568	47.05
933.739	4.04
933.909	42.59
934.08	87.54
934.25	18.76
934.421	28.45
934.591	61.97
934.761	20.12
934.932	-18.44
935.102	95.29
935.272	37.94
935.443	44.14
935.613	40.27
935.783	59.25
935.953	22.83
936.123	157.48
936.294	14.69
936.464	51.5
936.634	33.68
936.804	11.01
936.974	9.85
937.144	48.21
937.314	49.76
937.484	34.07
937.655	13.14
937.825	66.04
937.995	40.65
938.165	79.6
938.334	44.92
938.504	64.87
938.674	41.82
938.844	67
939.014	106.14
939.184	97.42
939.354	141.4
939.524	126.68
939.694	65.45
939.863	92
940.033	138.3
940.203	125.52
940.373	81.54
940.542	129.97
940.712	96.65
940.882	139.27
941.051	125.52
941.221	103.62
941.391	137.33
941.56	78.24
941.73	73.98
941.899	168.33
942.069	77.66
942.238	119.51
942.408	67.97
942.577	127.84
942.747	79.21
942.916	47.44
943.086	46.08
943.255	117.38
943.425	47.82
943.594	40.07
943.763	2.68
943.933	32.9
944.102	17.79
944.271	78.82
944.441	73.01
944.61	48.02
944.779	73.4
944.948	134.43
945.117	34.07
945.287	54.99
945.456	1.71
945.625	40.27
945.794	59.45
945.963	57.51
946.132	91.42
946.301	26.51
946.47	100.33
946.639	5.39
946.808	37.55
946.977	76.11
947.146	107.3
947.315	50.92
947.484	78.63
947.653	57.51
947.822	58.29
947.991	49.37
948.16	114.08
948.329	111.95
948.498	80.95
948.666	58.29
948.835	73.98
949.004	37.36
949.173	26.12
949.341	59.64
949.51	99.75
949.679	90.64
949.847	92.58
950.016	111.18
950.185	104.01
950.353	54.99
950.522	71.46
950.69	104.78
950.859	86.38
951.028	101.3
951.196	85.02
951.365	65.26
951.533	75.53
951.701	71.85
951.87	99.55
952.038	29.22
952.207	62.16
952.375	132.1
952.543	47.63
952.712	74.95
952.88	45.3
953.048	131.72
953.217	67.39
953.385	72.24
953.553	100.33
953.721	29.22
953.89	59.45
954.058	55.38
954.226	45.89
954.394	87.15
954.562	36.78
954.73	68.94
954.898	73.2
955.067	85.8
955.235	79.21
955.403	84.05
955.571	124.16
955.739	90.06
955.907	33.68
956.075	34.84
956.243	48.6
956.41	96.45
956.578	29.42
956.746	13.92
956.914	42.01
957.082	81.92
957.25	97.23
957.418	55.57
957.585	65.07
957.753	108.08
957.921	55.77
958.089	61.77
958.256	94.52
958.424	74.17
958.592	87.54
958.759	62.16
958.927	102.07
959.095	37.55
959.262	51.12
959.43	92.19
959.597	55.77
959.765	61.39
959.932	49.57
960.1	92.19
960.267	65.07
960.435	64.1
960.602	79.21
960.77	57.12
960.937	25.15
961.104	98
961.272	36.97
961.439	35.23
961.606	90.06
961.774	109.82
961.941	49.57
962.108	75.72
962.275	81.54
962.443	102.46
962.61	99.55
962.777	142.18
962.944	107.11
963.111	100.52
963.278	104.2
963.446	87.74
963.613	70.88
963.78	97.62
963.947	111.76
964.114	106.33
964.281	176.08
964.448	107.88
964.615	72.62
964.782	90.84
964.949	134.82
965.116	132.1
965.282	124.93
965.449	76.69
965.616	62.35
965.783	111.18
965.95	103.04
966.117	62.55
966.283	73.01
966.45	124.93
966.617	108.85
966.784	136.17
966.95	126.29
967.117	142.95
967.284	95.1
967.45	96.84
967.617	159.23
967.784	111.76
967.95	155.93
968.117	110.79
968.283	161.94
968.45	187.13
968.616	124.16
968.783	136.95
968.949	129.39
969.116	163.1
969.282	93.74
969.449	106.72
969.615	142.95
969.781	90.84
969.948	121.06
970.114	62.55
970.28	166.78
970.447	121.25
970.613	166.78
970.779	123.97
970.945	143.34
971.112	121.25
971.278	126.29
971.444	142.95
971.61	151.67
971.776	110.4
971.942	122.61
972.108	132.68
972.275	116.02
972.441	132.68
972.607	180.54
972.773	93.55
972.939	131.52
973.105	119.9
973.271	88.32
973.437	81.15
973.602	85.22
973.768	128.81
973.934	112.34
974.1	124.55
974.266	39.88
974.432	132.3
974.598	78.24
974.763	131.91
974.929	82.5
975.095	155.35
975.261	54.8
975.426	89.09
975.592	88.9
975.758	140.24
975.923	66.04
976.089	99.94
976.255	129.2
976.42	108.85
976.586	99.17
976.751	114.08
976.917	183.06
977.082	132.49
977.248	59.06
977.413	65.26
977.579	98.97
977.744	103.62
977.91	79.21
978.075	69.14
978.24	97.81
978.406	124.55
978.571	85.8
978.736	74.37
978.902	105.75
979.067	59.64
979.232	37.75
979.397	87.74
979.563	129.58
979.728	60.61
979.893	81.54
980.058	60.61
980.223	111.57
980.388	111.57
980.554	93.16
980.719	84.05
980.884	106.53
981.049	145.28
981.214	59.84
981.379	94.9
981.544	66.62
981.709	108.85
981.874	93.74
982.039	109.63
982.204	116.99
982.368	105.17
982.533	72.24
982.698	128.42
982.863	129.58
983.028	97.04
983.193	95.49
983.357	80.18
983.522	120.48
983.687	103.82
983.852	99.75
984.016	99.75
984.181	127.84
984.346	121.25
984.51	97.23
984.675	82.7
984.839	165.62
985.004	106.92
985.168	156.13
985.333	122.61
985.498	73.2
985.662	147.6
985.827	121.25
985.991	111.37
986.155	109.05
986.32	105.95
986.484	116.99
986.649	103.82
986.813	56.54
986.977	121.45
987.142	88.51
987.306	48.6
987.47	69.52
987.634	91.22
987.799	114.67
987.963	118.35
988.127	105.95
988.291	145.47
988.455	77.27
988.62	116.22
988.784	114.08
988.948	101.49
989.112	82.12
989.276	87.93
989.44	94.71
989.604	73.01
989.768	80.76
989.932	168.33
990.096	59.06
990.26	79.6
990.424	50.92
990.588	100.14
990.752	156.32
990.915	123.77
991.079	79.4
991.243	80.95
991.407	115.63
991.571	92.19
991.734	99.94
991.898	98.2
992.062	173.18
992.226	83.09
992.389	53.05
992.553	33.1
992.717	76.69
992.88	79.99
993.044	104.01
993.207	80.76
993.371	115.25
993.535	114.28
993.698	92.58
993.862	98.39
994.025	114.28
994.189	94.52
994.352	80.18
994.515	124.35
994.679	113.31
994.842	77.66
995.006	118.15
995.169	77.47
995.332	65.07
995.496	98.39
995.659	34.84
995.822	55.19
995.985	73.4
996.149	112.15
996.312	78.05
996.475	111.37
996.638	85.99
996.801	136.95
996.964	144.5
997.128	86.57
997.291	88.12
997.454	92.39
997.617	30.19
997.78	122.42
997.943	26.32
998.106	101.88
998.269	61.39
998.432	50.92
998.595	70.49
998.758	41.24
998.92	59.06
999.083	15.85
999.246	53.44
999.409	38.91
999.572	8.69
999.735	59.06
999.897	110.79
1000.06	65.45
1000.223	46.66
1000.386	78.63
1000.548	115.25
1000.711	81.54
1000.874	67.78
1001.036	19.15
1001.199	82.31
1001.361	38.91
1001.524	55.57
1001.687	91.03
1001.849	37.36
1002.012	67.59
1002.174	51.5
1002.337	91.42
1002.499	74.37
1002.661	94.13
1002.824	30
1002.986	47.24
1003.149	61.77
1003.311	26.51
1003.473	121.06
1003.636	60.61
1003.798	94.13
1003.96	85.6
1004.123	63.71
1004.285	39.88
1004.447	43.37
1004.609	46.47
1004.771	108.47
1004.933	8.3
1005.096	43.37
1005.258	4.04
1005.42	51.5
1005.582	78.63
1005.744	61.97
1005.906	20.31
1006.068	53.25
1006.23	28.64
1006.392	-16.5
1006.554	26.7
1006.716	53.25
1006.878	62.35
1007.04	5.2
1007.202	44.14
1007.363	66.04
1007.525	67.2
1007.687	66.62
1007.849	84.05
1008.011	5.78
1008.172	11.79
1008.334	37.94
1008.496	60.61
1008.658	13.14
1008.819	24.19
1008.981	1.32
1009.143	2.29
1009.304	39.69
1009.466	71.07
1009.627	103.62
1009.789	127.45
1009.95	73.98
1010.112	5.97
1010.273	49.37
1010.435	27.67
1010.596	49.76
1010.758	47.82
1010.919	45.5
1011.081	32.52
1011.242	46.85
1011.403	49.37
1011.565	35.42
1011.726	51.7
1011.887	-6.23
1012.049	38.14
1012.21	68.75
1012.371	81.15
1012.532	-46.92
1012.693	52.28
1012.855	13.92
1013.016	57.32
1013.177	47.82
1013.338	26.12
1013.499	91.22
1013.66	48.02
1013.821	54.41
1013.982	61.39
1014.143	44.92
1014.304	6.56
1014.465	84.83
1014.626	62.94
1014.787	30
1014.948	119.32
1015.109	-28.9
1015.27	85.41
1015.431	32.71
1015.592	22.44
1015.752	70.1
1015.913	38.91
1016.074	64.49
1016.235	37.75
1016.395	41.62
1016.556	51.5
1016.717	16.44
1016.877	73.4
1017.038	43.95
1017.199	49.76
1017.359	41.82
1017.52	34.07
1017.681	20.12
1017.841	39.69
1018.002	28.06
1018.162	25.74
1018.323	84.64
1018.483	25.15
1018.644	36.78
1018.804	-9.33
1018.964	-3.33
1019.125	0.55
1019.285	31.94
1019.446	-0.42
1019.606	12.95
1019.766	-16.11
1019.926	32.52
1020.087	64.1
1020.247	-10.49
1020.407	57.7
1020.567	83.09
1020.728	22.05
1020.888	-17.66
1021.048	24.57
1021.208	-2.94
1021.368	4.04
1021.528	61.77
1021.688	56.74
1021.848	60.8
1022.008	40.07
1022.168	10.24
1022.328	43.56
1022.488	50.92
1022.648	16.44
1022.808	33.1
1022.968	33.49
1023.128	-3.13
1023.288	10.82
1023.448	27.48
1023.608	36.78
1023.767	44.72
1023.927	1.52
1024.087	9.27
1024.247	-5.07
1024.406	11.4
1024.566	-13.98
1024.726	3.65
1024.885	31.74
1025.045	36.39
1025.205	34.84
1025.364	4.42
1025.524	27.48
1025.683	17.02
1025.843	4.04
1026.003	40.27
1026.162	71.65
1026.321	56.54
1026.481	9.66
1026.64	9.46
1026.8	21.09
1026.959	46.27
1027.119	29.42
1027.278	-10.69
1027.437	0.74
1027.597	22.44
1027.756	47.82
1027.915	12.56
1028.074	32.52
1028.234	-12.63
1028.393	-3.33
1028.552	-2.74
1028.711	-30.84
1028.87	54.8
1029.03	-17.47
1029.189	19.34
1029.348	-25.61
1029.507	-3.13
1029.666	-1.58
1029.825	-14.18
1029.984	1.13
1030.143	23.8
1030.302	-7.59
1030.461	-42.85
1030.62	32.32
1030.779	27.09
1030.938	10.24
1031.097	-13.21
1031.255	56.54
1031.414	60.61
1031.573	50.73
1031.732	-25.22
1031.891	15.08
1032.049	46.85
1032.208	14.31
1032.367	-17.86
1032.525	1.13
1032.684	-3.71
1032.843	19.54
1033.001	-31.03
1033.16	139.85
1033.319	48.6
1033.477	46.08
1033.636	-7.98
1033.794	-23.28
1033.953	30.77
1034.111	35.23
1034.27	-9.53
1034.428	31.74
1034.587	-16.11
1034.745	0.74
1034.903	27.48
1035.062	27.48
1035.22	-26.77
1035.378	28.06
1035.537	-16.31
1035.695	46.47
1035.853	-8.17
1036.011	33.68
1036.17	3.65
1036.328	-39.36
1036.486	24.38
1036.644	9.85
1036.802	-72.49
1036.96	-8.17
1037.119	-14.18
1037.277	-3.71
1037.435	-20.38
1037.593	-7.59
1037.751	6.36
1037.909	34.65
1038.067	34.65
