Data from gum_young_FLMT105791__3__17-38-02-045.txt Node

Date: Mon Mar 20 17:38:02 GMT 2023
User: antho
Spectrometer: FLMT10579
Trigger mode: 0
Integration Time (sec): 1.000000E-1
Scans to average: 10
Electric dark correction enabled: true
Nonlinearity correction enabled: false
Boxcar width: 0
XAxis mode: Wavelengths
Number of Pixels in Spectrum: 3648
>>>>>Begin Spectral Data<<<<<
345.248	-155.27
345.464	-155.27
345.681	-155.27
345.898	-170.58
346.114	-163.8
346.331	-13.45
346.548	9.61
346.764	3.41
346.981	-17.13
347.197	-21.01
347.414	11.74
347.631	-6.09
347.847	56.49
348.064	5.93
348.28	11.35
348.497	-32.24
348.713	-8.61
348.93	11.54
349.146	8.25
349.363	-13.45
349.579	3.79
349.796	-13.26
350.012	-0.08
350.229	8.06
350.445	13.09
350.661	-36.31
350.878	7.67
351.094	12.13
351.311	50.49
351.527	25.88
351.743	-34.57
351.96	21.43
352.176	26.66
352.392	46.42
352.609	31.5
352.825	9.03
353.041	7.09
353.257	-13.84
353.474	-10.93
353.69	7.67
353.906	17.36
354.122	-45.42
354.339	40.41
354.555	-3.96
354.771	4.18
354.987	31.5
355.203	28.79
355.42	-5.12
355.636	8.25
355.852	-13.64
356.068	21.04
356.284	-47.16
356.5	40.22
356.716	15.23
356.932	-5.7
357.148	30.34
357.364	16.39
357.58	26.27
357.796	38.67
358.012	46.22
358.228	28.59
358.444	-66.34
358.66	38.28
358.876	25.3
359.092	-11.32
359.308	41.57
359.524	41.19
359.74	-9.96
359.956	-3.96
360.172	16.78
360.388	21.04
360.604	-26.82
360.819	64.63
361.035	24.91
361.251	23.36
361.467	-19.26
361.683	62.89
361.898	14.26
362.114	24.91
362.33	15.03
362.546	27.04
362.762	-5.31
362.977	-16.94
363.193	-6.09
363.409	40.61
363.624	-17.91
363.84	8.25
364.056	-17.13
364.271	7.09
364.487	18.13
364.703	13.87
364.918	5.93
365.134	-13.45
365.35	16.78
365.565	99.89
365.781	23.36
365.996	35.57
366.212	71.61
366.427	19.49
366.643	-5.51
366.858	0.5
367.074	-47.74
367.289	62.89
367.505	115.2
367.72	-39.22
367.936	2.63
368.151	63.86
368.367	23.17
368.582	24.53
368.798	19.1
369.013	52.23
369.228	4.57
369.444	23.36
369.659	68.7
369.874	20.84
370.09	73.54
370.305	-45.03
370.52	10.96
370.736	59.59
370.951	4.38
371.166	70.25
371.381	70.64
371.597	55.33
371.812	-19.07
372.027	3.79
372.242	9.03
372.458	79.16
372.673	-6.28
372.888	8.83
373.103	33.05
373.318	77.42
373.533	65.02
373.749	29.56
373.964	-23.72
374.179	44.29
374.394	3.41
374.609	62.11
374.824	8.06
375.039	53.39
375.254	4.96
375.469	70.25
375.684	36.34
375.899	76.84
376.114	22.01
376.329	24.72
376.544	39.44
376.759	53.01
376.974	-0.86
377.189	19.29
377.404	-6.09
377.619	67.34
377.834	-9.57
378.049	-15.77
378.264	5.93
378.478	16.78
378.693	12.13
378.908	25.88
379.123	25.11
379.338	45.26
379.553	32.86
379.767	30.73
379.982	51.46
380.197	35.96
380.412	17.94
380.626	34.02
380.841	106.48
381.056	42.74
381.271	82.46
381.485	-1.44
381.7	10.96
381.915	31.89
382.129	22.01
382.344	40.8
382.559	19.68
382.773	41.96
382.988	-27.21
383.202	30.73
383.417	-24.69
383.632	84.39
383.846	31.69
384.061	43.32
384.275	1.66
384.49	35.57
384.704	44.67
384.919	62.5
385.133	7.09
385.348	41.96
385.562	-11.9
385.777	53.97
385.991	36.54
386.206	21.62
386.42	0.89
386.634	46.42
386.849	55.33
387.063	15.23
387.277	10.38
387.492	15.81
387.706	14.64
387.92	7.28
388.135	47
388.349	38.47
388.563	13.48
388.778	36.34
388.992	44.48
389.206	45.45
389.42	89.43
389.635	26.08
389.849	54.56
390.063	63.27
390.277	16.78
390.491	79.55
390.706	46.22
390.92	59.59
391.134	47.77
391.348	58.04
391.562	1.28
391.776	21.81
391.99	-3.37
392.205	71.02
392.419	6.51
392.633	15.23
392.847	75.87
393.061	15.03
393.275	75.67
393.489	25.49
393.703	53.39
393.917	71.99
394.131	11.74
394.345	78.58
394.559	73.93
394.773	35.18
394.986	37.31
395.2	15.81
395.414	46.61
395.628	-1.63
395.842	64.82
396.056	14.26
396.27	1.47
396.484	58.24
396.697	28.98
396.911	59.01
397.125	58.43
397.339	65.6
397.553	65.41
397.766	90.79
397.98	78.39
398.194	82.65
398.408	30.34
398.621	68.51
398.835	61.14
399.049	60.17
399.262	109.77
399.476	84.01
399.69	77.42
399.903	98.54
400.117	58.04
400.331	82.07
400.544	28.21
400.758	156.47
400.971	75.67
401.185	91.95
401.398	51.26
401.612	104.54
401.826	107.64
402.039	90.21
402.253	43.32
402.466	82.84
402.68	52.42
402.893	53.01
403.106	92.72
403.32	103.38
403.533	61.14
403.747	49.32
403.96	105.71
404.174	91.17
404.387	36.73
404.6	82.65
404.814	110.94
405.027	60.95
405.24	81.68
405.454	53.97
405.667	141.35
405.88	19.29
406.094	99.12
406.307	109.19
406.52	66.57
406.733	62.69
406.947	54.75
407.16	122.17
407.373	121.21
407.586	48.55
407.799	60.37
408.012	109.19
408.226	105.9
408.439	151.62
408.652	47
408.865	108.81
409.078	144.07
409.291	101.06
409.504	48.94
409.717	104.16
409.93	99.51
410.143	94.66
410.357	56.88
410.57	69.86
410.783	61.14
410.996	113.26
411.209	86.52
411.421	131.86
411.634	91.37
411.847	71.61
412.06	95.05
412.273	94.27
412.486	102.99
412.699	164.8
412.912	92.34
413.125	113.07
413.338	90.21
413.55	108.81
413.763	91.37
413.976	133.99
414.189	71.22
414.402	93.89
414.615	170.22
414.827	61.34
415.04	129.92
415.253	144.07
415.466	123.92
415.678	167.32
415.891	90.01
416.104	107.26
416.316	122.37
416.529	113.46
416.742	119.07
416.954	155.3
417.167	105.51
417.38	101.25
417.592	141.16
417.805	95.82
418.017	77.03
418.23	127.02
418.442	108.61
418.655	87.69
418.868	119.85
419.08	129.73
419.293	132.83
419.505	139.42
419.718	150.85
419.93	148.33
420.142	119.66
420.355	180.49
420.567	152.98
420.78	151.62
420.992	149.69
421.205	185.53
421.417	122.37
421.629	104.74
421.842	85.17
422.054	81.87
422.266	146
422.479	143.1
422.691	78.97
422.903	144.07
423.115	122.56
423.328	118.88
423.54	141.35
423.752	124.69
423.964	121.59
424.177	146.78
424.389	122.76
424.601	214.01
424.813	143.87
425.025	164.99
425.238	168.29
425.45	141.74
425.662	120.04
425.874	398.07
426.086	146.78
426.298	169.84
426.51	149.69
426.722	142.9
426.934	118.49
427.146	174.68
427.358	90.98
427.57	184.17
427.782	130.7
427.994	123.34
428.206	139.22
428.418	102.99
428.63	138.45
428.842	191.15
429.054	158.21
429.266	168.48
429.478	118.88
429.69	161.7
429.902	91.95
430.114	168.09
430.325	126.82
430.537	119.46
430.749	95.82
430.961	94.86
431.173	130.31
431.384	141.55
431.596	67.73
431.808	131.67
432.02	172.16
432.231	177.39
432.443	189.79
432.655	163.05
432.867	115.2
433.078	176.23
433.29	181.85
433.502	200.45
433.713	180.1
433.925	159.95
434.136	170.03
434.348	129.54
434.56	113.84
434.771	232.22
434.983	110.94
435.194	139.22
435.406	159.95
435.617	163.44
435.829	241.52
436.04	186.89
436.252	188.44
436.463	224.28
436.675	196.57
436.886	177.97
437.098	197.74
437.309	226.99
437.521	183.98
437.732	198.9
437.943	190.57
438.155	189.6
438.366	126.82
438.578	237.07
438.789	211.88
439	230.87
439.211	196.57
439.423	195.99
439.634	202.39
439.845	202.58
440.057	194.83
440.268	229.7
440.479	195.02
440.69	200.64
440.902	194.05
441.113	206.07
441.324	218.66
441.535	226.41
441.746	246.75
441.957	153.75
442.168	183.98
442.38	228.73
442.591	257.02
442.802	207.23
443.013	191.15
443.224	216.72
443.435	216.92
443.646	244.43
443.857	235.13
444.068	198.51
444.279	189.02
444.49	268.84
444.701	243.46
444.912	324.25
445.123	275.82
445.334	273.3
445.545	238.42
445.756	230.87
445.967	218.47
446.178	261.09
446.388	275.62
446.599	237.84
446.81	264.19
447.021	232.8
447.232	275.43
447.443	305.07
447.653	235.32
447.864	279.5
448.075	273.3
448.286	283.18
448.496	275.82
448.707	290.15
448.918	261.28
449.129	332.58
449.339	231.06
449.55	277.56
449.761	242.3
449.971	320.18
450.182	272.33
450.393	271.75
450.603	285.5
450.814	315.73
451.024	292.48
451.235	313.98
451.446	341.11
451.656	340.14
451.867	291.51
452.077	311.08
452.288	348.28
452.498	353.7
452.709	264.77
452.919	308.75
453.13	255.28
453.34	336.65
453.55	235.13
453.761	335.88
453.971	285.12
454.182	320.18
454.392	317.86
454.602	367.07
454.813	319.6
455.023	307.4
455.233	261.87
455.444	307.78
455.654	254.89
455.864	284.73
456.075	290.93
456.285	286.47
456.495	317.47
456.705	299.06
456.916	361.26
457.126	377.73
457.336	319.21
457.546	270.2
457.756	303.13
457.967	357.58
458.177	303.13
458.387	322.12
458.597	292.28
458.807	313.01
459.017	324.64
459.227	301.39
459.437	314.95
459.647	352.73
459.857	326.58
460.068	305.65
460.278	398.26
460.488	327.16
460.698	381.99
460.908	339.36
461.117	302.16
461.327	332.2
461.537	341.5
461.747	347.11
461.957	335.68
462.167	431.78
462.377	354.48
462.587	360.87
462.797	334.91
463.007	377.15
463.216	373.85
463.426	389.74
463.636	392.06
463.846	326.58
464.056	350.8
464.265	369.59
464.475	317.86
464.685	348.86
464.895	368.43
465.104	342.08
465.314	372.11
465.524	356.61
465.733	337.81
465.943	426.94
466.153	442.44
466.362	419.77
466.572	372.88
466.782	386.44
466.991	371.72
467.201	419.77
467.41	346.15
467.62	397.49
467.829	376.18
468.039	410.66
468.249	379.66
468.458	388.38
468.668	412.99
468.877	404.66
469.086	460.26
469.296	423.64
469.505	392.26
469.715	436.63
469.924	420.93
470.134	459.49
470.343	444.57
470.552	393.23
470.762	375.79
470.971	391.29
471.18	395.55
471.39	407.95
471.599	387.61
471.808	431.01
472.018	384.51
472.227	446.7
472.436	483.9
472.645	395.94
472.855	403.88
473.064	488.55
473.273	436.43
473.482	481.19
473.691	478.86
473.901	495.91
474.11	457.36
474.319	509.67
474.528	469.37
474.737	510.25
474.946	481.19
475.155	486.22
475.364	515.87
475.573	489.71
475.783	475.18
475.992	517.42
476.201	524.97
476.41	502.89
476.619	435.85
476.828	478.86
477.037	471.11
477.245	473.82
477.454	535.82
477.663	467.04
477.872	488.94
478.081	574.57
478.29	499.21
478.499	589.3
478.708	542.8
478.917	573.02
479.125	563.72
479.334	527.3
479.543	547.84
479.752	565.66
479.961	555.2
480.169	613.52
480.378	529.62
480.587	677.45
480.796	604.22
481.004	592.4
481.213	618.75
481.422	590.65
481.63	587.17
481.839	609.25
482.048	669.32
482.256	613.71
482.465	612.74
482.674	629.79
482.882	637.15
483.091	709.23
483.299	625.92
483.508	626.11
483.716	640.64
483.925	632.12
484.134	620.1
484.342	635.6
484.551	641.42
484.759	672.61
484.967	687.53
485.176	704
485.384	684.43
485.593	704.97
485.801	652.46
486.01	640.25
486.218	618.75
486.426	571.86
486.635	593.37
486.843	603.25
487.051	620.1
487.26	618.94
487.468	666.41
487.676	676.68
487.885	639.87
488.093	655.95
488.301	703.8
488.509	702.64
488.717	702.83
488.926	699.93
489.134	698.38
489.342	709.42
489.55	661.95
489.758	697.8
489.967	682.3
490.175	823.93
490.383	722.4
490.591	787.5
490.799	748.95
491.007	827.8
491.215	773.94
491.423	769.68
491.631	738.87
491.839	804.16
492.047	784.4
492.255	751.85
492.463	708.07
492.671	718.53
492.879	822.38
493.087	776.26
493.295	793.7
493.503	817.34
493.711	813.85
493.919	878.95
494.127	840.98
494.334	821.02
494.542	785.56
494.75	854.15
494.958	845.04
495.166	855.51
495.374	855.12
495.581	861.51
495.789	864.61
495.997	885.73
496.205	846.59
496.412	821.6
496.62	859.19
496.828	899.68
497.035	886.31
497.243	925.06
497.451	866.55
497.658	917.7
497.866	875.85
498.074	945.21
498.281	872.75
498.489	937.46
498.696	911.89
498.904	892.71
499.112	868.49
499.319	968.46
499.527	906.85
499.734	960.52
499.942	916.73
500.149	936.11
500.357	968.27
500.564	911.5
500.771	972.92
500.979	899.49
501.186	901.23
501.394	930.1
501.601	948.31
501.808	971.56
502.016	960.91
502.223	961.1
502.43	947.54
502.638	946.76
502.845	948.7
503.052	1051.77
503.26	977.37
503.467	1032.59
503.674	1007.21
503.881	1031.24
504.089	1056.62
504.296	1029.1
504.503	973.69
504.71	1003.53
504.917	1007.21
505.125	1028.72
505.332	1044.41
505.539	1070.57
505.746	1134.89
505.953	1093.43
506.16	1126.56
506.367	1145.74
506.574	1184.49
506.781	1171.12
506.988	1130.43
507.195	1134.5
507.402	1101.76
507.609	1141.67
507.816	1104.08
508.023	1155.43
508.23	1140.9
508.437	1121.13
508.644	1152.52
508.851	1210.84
509.058	1236.03
509.265	1189.72
509.472	1185.26
509.679	1278.46
509.885	1249.59
510.092	1231.76
510.299	1235.06
510.506	1229.83
510.713	1246.88
510.92	1247.46
511.126	1285.43
511.333	1340.07
511.54	1308.49
511.746	1350.53
511.953	1379.98
512.16	1390.44
512.367	1337.55
512.573	1321.66
512.78	1335.42
512.987	1388.51
513.193	1351.89
513.4	1272.06
513.606	1385.21
513.813	1376.88
514.02	1370.68
514.226	1413.5
514.433	1395.29
514.639	1327.67
514.846	1416.79
515.052	1390.44
515.259	1415.63
515.465	1442.37
515.672	1444.89
515.878	1503.4
516.085	1468.52
516.291	1508.24
516.497	1478.4
516.704	1432.1
516.91	1372.04
517.117	1354.99
517.323	1307.91
517.529	1349.56
517.736	1363.32
517.942	1415.44
518.148	1411.95
518.354	1452.64
518.561	1444.11
518.767	1442.37
518.973	1482.09
519.179	1545.44
519.386	1509.21
519.592	1519.29
519.798	1528.39
520.004	1612.48
520.21	1583.22
520.417	1656.85
520.623	1671.57
520.829	1661.88
521.035	1707.61
521.241	1711.29
521.447	1729.69
521.653	1850.59
521.859	1723.88
522.065	1784.52
522.271	1857.57
522.477	1808.74
522.683	1890.31
522.889	1807.19
523.095	1781.43
523.301	1811.84
523.507	1812.04
523.713	1862.22
523.919	1795.18
524.125	1896.9
524.331	1869.39
524.537	1990.48
524.742	1975.17
524.948	1983.89
525.154	1997.84
525.36	2066.62
525.566	1991.45
525.772	2043.57
525.977	1969.36
526.183	2051.9
526.389	2033.88
526.595	1953.28
526.8	1917.44
527.006	1875.97
527.212	1843.04
527.417	1813.97
527.623	1850.21
527.829	1941.27
528.034	1937
528.24	1952.89
528.446	2008.5
528.651	2113.9
528.857	2070.69
529.062	2157.68
529.268	2125.13
529.473	2169.89
529.679	2162.72
529.884	2220.46
530.09	2220.26
530.295	2211.16
530.501	2223.94
530.706	2220.07
530.912	2201.86
531.117	2245.84
531.323	2215.42
531.528	2275.29
531.733	2285.75
531.939	2240.22
532.144	2257.85
532.35	2293.11
532.555	2319.85
532.76	2270.44
532.966	2278.77
533.171	2205.15
533.376	2132.88
533.581	2203.41
533.787	2223.17
533.992	2275.48
534.197	2289.43
534.402	2275.09
534.607	2255.72
534.813	2390.18
535.018	2297.96
535.223	2322.56
535.428	2332.44
535.633	2393.09
535.838	2442.88
536.043	2389.6
536.249	2483.95
536.454	2384.75
536.659	2397.54
536.864	2374.29
537.069	2394.64
537.274	2376.42
537.479	2385.92
537.684	2428.15
537.889	2391.73
538.094	2460.9
538.299	2411.3
538.504	2456.83
538.708	2457.22
538.913	2471.17
539.118	2430.48
539.323	2487.83
539.528	2411.88
539.733	2391.92
539.938	2408.78
540.142	2430.67
540.347	2375.26
540.552	2378.36
540.757	2344.26
540.962	2390.18
541.166	2315.97
541.371	2327.02
541.576	2399.28
541.781	2282.65
541.985	2442.88
542.19	2394.64
542.395	2517.86
542.599	2528.71
542.804	2487.25
543.008	2530.45
543.213	2484.15
543.418	2452.37
543.622	2480.85
543.827	2451.79
544.031	2510.69
544.236	2532.58
544.44	2537.43
544.645	2569.4
544.849	2488.21
545.054	2546.53
545.258	2597.88
545.463	2602.72
545.667	2487.44
545.872	2559.32
546.076	2565.52
546.281	2550.6
546.485	2509.91
546.689	2614.93
546.894	2590.51
547.098	2563.2
547.302	2513.01
547.507	2577.14
547.711	2568.81
547.915	2583.15
548.119	2501.39
548.324	2536.85
548.528	2616.67
548.732	2562.42
548.936	2562.61
549.141	2584.51
549.345	2584.12
549.549	2572.11
549.753	2600.39
549.957	2642.24
550.161	2642.63
550.366	2641.47
550.57	2566.88
550.774	2547.11
550.978	2605.43
551.182	2600.01
551.386	2561.06
551.59	2596.52
551.794	2605.24
551.998	2608.53
552.202	2589.93
552.406	2604.46
552.61	2659.29
552.814	2635.27
553.018	2663.94
553.222	2586.44
553.426	2579.08
553.63	2643.6
553.833	2612.6
554.037	2550.8
554.241	2588.58
554.445	2628.1
554.649	2600.98
554.853	2568.81
555.056	2679.06
555.26	2655.42
555.464	2648.25
555.668	2651.54
555.871	2657.16
556.075	2668.4
556.279	2579.47
556.483	2529.1
556.686	2572.3
556.89	2616.48
557.094	2561.45
557.297	2486.66
557.501	2576.37
557.704	2505.65
557.908	2552.54
558.112	2526
558.315	2589.93
558.519	2521.93
558.722	2488.21
558.926	2488.99
559.129	2448.88
559.333	2383.98
559.536	2436.1
559.74	2353.95
559.943	2376.23
560.147	2390.57
560.35	2379.52
560.553	2449.85
560.757	2404.52
560.96	2505.07
561.164	2439
561.367	2528.71
561.57	2472.13
561.774	2474.65
561.977	2412.85
562.18	2414.2
562.384	2510.69
562.587	2414.2
562.79	2424.08
562.993	2394.83
563.197	2434.16
563.4	2467.1
563.603	2451.21
563.806	2462.64
564.009	2389.99
564.212	2428.15
564.416	2362.28
564.619	2400.06
564.822	2302.61
565.025	2390.18
565.228	2378.17
565.431	2369.64
565.634	2284.78
565.837	2291.56
566.04	2325.47
566.243	2223.94
566.446	2182.09
566.649	2287.69
566.852	2256.88
567.055	2266.37
567.258	2278.39
567.461	2283.62
567.664	2321.4
567.867	2238.67
568.07	2225.69
568.273	2229.56
568.475	2263.08
568.678	2185.39
568.881	2189.84
569.084	2244.48
569.287	2078.25
569.489	2101.5
569.692	2183.06
569.895	2165.82
570.098	2083.67
570.3	2092.39
570.503	2033.68
570.706	2067.01
570.909	2064.49
571.111	2022.25
571.314	1998.03
571.516	2041.24
571.719	2021.67
571.922	1979.43
572.124	2018.18
572.327	2048.6
572.529	2014.12
572.732	1995.71
572.935	2036.4
573.137	2084.45
573.34	2031.94
573.542	2048.02
573.745	2043.57
573.947	2013.92
574.15	2008.69
574.352	1993.38
574.554	2044.15
574.757	1967.81
574.959	1921.31
575.162	1946.11
575.364	1974.4
575.566	1998.23
575.769	1900.39
575.971	1936.81
576.173	1832.38
576.376	1941.46
576.578	1950.95
576.78	1981.18
576.982	1861.44
577.185	1878.69
577.387	1874.23
577.589	1859.51
577.791	1891.28
577.993	1912.79
578.196	1838.19
578.398	1862.61
578.6	1886.63
578.802	1790.53
579.004	1792.27
579.206	1777.74
579.408	1836.45
579.61	1823.66
579.812	1898.84
580.014	1822.31
580.216	1812.42
580.418	1844.2
580.62	1825.6
580.822	1807
581.024	1852.14
581.226	1901.94
581.428	1855.63
581.63	1945.92
581.832	1864.74
582.034	1915.89
582.236	1861.44
582.438	1896.32
582.64	1933.71
582.841	1945.72
583.043	1962.19
583.245	1904.26
583.447	1929.25
583.649	1890.31
583.85	1900.58
584.052	1928.29
584.254	1833.54
584.456	1916.85
584.657	1844.59
584.859	1865.51
585.061	1869.97
585.262	1826.37
585.464	1789.76
585.666	1858.54
585.867	1796.73
586.069	1867.06
586.27	1834.51
586.472	1819.98
586.674	1770.19
586.875	1794.79
587.077	1805.84
587.278	1806.42
587.48	1769.8
587.681	1913.95
587.883	1807.97
588.084	1753.72
588.285	1771.16
588.487	1726.59
588.688	1754.88
588.89	1665.56
589.091	1630.3
589.292	1602.98
589.494	1544.28
589.695	1560.94
589.896	1484.8
590.098	1472.4
590.299	1526.26
590.5	1532.46
590.702	1567.92
590.903	1569.47
591.104	1671.76
591.305	1614.61
591.507	1688.62
591.708	1652.2
591.909	1640.18
592.11	1699.66
592.311	1687.65
592.512	1618.87
592.714	1575.86
592.915	1590.78
593.116	1639.99
593.317	1674.67
593.518	1640.18
593.719	1619.84
593.92	1679.9
594.121	1673.7
594.322	1652.78
594.523	1629.72
594.724	1559.2
594.925	1629.91
595.126	1628.56
595.327	1649.87
595.528	1620.81
595.729	1639.02
595.929	1641.35
596.13	1615.38
596.331	1650.84
596.532	1624.68
596.733	1705.28
596.934	1681.84
597.135	1680.48
597.335	1678.35
597.536	1625.85
597.737	1670.21
597.938	1623.52
598.138	1652.39
598.339	1652.58
598.54	1675.06
598.74	1657.81
598.941	1623.91
599.142	1674.67
599.342	1638.05
599.543	1630.69
599.744	1673.7
599.944	1634.76
600.145	1625.65
600.345	1605.89
600.546	1715.94
600.746	1699.86
600.947	1742.29
601.147	1647.35
601.348	1683.78
601.548	1612.86
601.749	1633.6
601.949	1597.95
602.15	1590.97
602.35	1624.68
602.551	1657.23
602.751	1574.7
602.951	1594.65
603.152	1574.89
603.352	1637.66
603.552	1669.05
603.753	1655.49
603.953	1671.18
604.153	1644.06
604.354	1620.42
604.554	1621
604.754	1650.06
604.954	1596.01
605.155	1616.93
605.355	1627.59
605.555	1698.5
605.755	1650.26
605.955	1628.36
606.155	1628.17
606.356	1608.02
606.556	1655.3
606.756	1611.7
606.956	1595.82
607.156	1677.58
607.356	1594.07
607.556	1623.91
607.756	1584.77
607.956	1641.93
608.156	1599.3
608.356	1566.56
608.556	1601.43
608.756	1593.68
608.956	1575.08
609.156	1591.36
609.356	1534.98
609.556	1567.72
609.755	1611.7
609.955	1559.2
610.155	1556.29
610.355	1600.08
610.555	1519.29
610.755	1542.73
610.954	1486.35
611.154	1530.91
611.354	1543.31
611.554	1534.01
611.753	1518.12
611.953	1492.55
612.153	1544.47
612.352	1527.81
612.552	1516.96
612.752	1465.23
612.951	1470.85
613.151	1468.91
613.351	1487.7
613.55	1503.98
613.75	1483.64
613.949	1459.8
614.149	1485.57
614.348	1464.26
614.548	1451.47
614.747	1398.97
614.947	1443.53
615.146	1429.97
615.346	1466.59
615.545	1458.64
615.745	1437.52
615.944	1480.34
616.144	1453.22
616.343	1431.13
616.542	1415.63
616.742	1413.69
616.941	1448.95
617.14	1364.29
617.34	1379.98
617.539	1410.59
617.738	1340.07
617.938	1482.47
618.137	1416.79
618.336	1354.02
618.535	1415.82
618.734	1434.62
618.934	1396.84
619.133	1420.47
619.332	1418.92
619.531	1374.36
619.73	1390.25
619.929	1436.17
620.128	1397.22
620.328	1443.72
620.527	1366.81
620.726	1373.97
620.925	1420.67
621.124	1385.41
621.323	1389.67
621.522	1345.3
621.721	1380.37
621.92	1343.17
622.119	1391.41
622.318	1353.05
622.517	1348.59
622.715	1362.54
622.914	1302.48
623.113	1356.34
623.312	1284.08
623.511	1355.18
623.71	1353.82
623.909	1307.52
624.107	1374.94
624.306	1274
624.505	1306.74
624.704	1303.26
624.902	1288.53
625.101	1355.18
625.3	1306.94
625.499	1283.49
625.697	1282.53
625.896	1275.16
626.095	1275.74
626.293	1234.67
626.492	1294.73
626.69	1298.41
626.889	1291.24
627.088	1303.84
627.286	1287.56
627.485	1241.26
627.683	1211.23
627.882	1257.92
628.08	1153.1
628.279	1189.53
628.477	1249.01
628.676	1198.63
628.874	1240.48
629.073	1182.36
629.271	1198.05
629.469	1233.9
629.668	1200.38
629.866	1173.45
630.065	1196.5
630.263	1226.92
630.461	1168.02
630.66	1189.14
630.858	1231.38
631.056	1221.3
631.254	1233.12
631.453	1196.89
631.651	1234.67
631.849	1207.93
632.047	1220.72
632.245	1219.75
632.444	1223.24
632.642	1243.2
632.84	1268.38
633.038	1233.7
633.236	1168.6
633.434	1217.62
633.632	1232.54
633.83	1193.6
634.028	1243.78
634.227	1215.1
634.425	1271.68
634.623	1236.41
634.821	1226.15
635.019	1255.6
635.216	1223.24
635.414	1274
635.612	1241.06
635.81	1244.75
636.008	1294.54
636.206	1206.77
636.404	1275.16
636.602	1215.49
636.8	1242.61
636.997	1252.88
637.195	1263.54
637.393	1248.62
637.591	1284.08
637.789	1232.73
637.986	1216.07
638.184	1216.65
638.382	1264.31
638.58	1258.7
638.777	1253.85
638.975	1223.43
639.173	1235.25
639.37	1244.94
639.568	1196.7
639.765	1230.21
639.963	1189.91
640.161	1199.99
640.358	1211.03
640.556	1144.19
640.753	1152.72
640.951	1170.35
641.148	1201.15
641.346	1151.55
641.543	1184.68
641.741	1176.74
641.938	1129.85
642.136	1162.02
642.333	1113.38
642.531	1174.22
642.728	1161.63
642.925	1152.13
643.123	1106.8
643.32	1133.34
643.517	1135.67
643.715	1123.07
643.912	1104.47
644.109	1110.28
644.306	1133.53
644.504	1091.49
644.701	1114.35
644.898	1111.06
645.095	1078.9
645.293	1101.37
645.49	1083.94
645.687	1062.62
645.884	1113.77
646.081	1014.57
646.278	1055.26
646.475	1032.98
646.672	1012.44
646.87	1046.93
647.067	1028.52
647.264	1057.2
647.461	971.95
647.658	951.41
647.855	1005.85
648.052	981.25
648.249	929.52
648.446	976.79
648.642	975.44
648.839	932.23
649.036	958.97
649.233	932.04
649.43	929.52
649.627	930.68
649.824	962.26
650.021	908.79
650.217	954.9
650.414	921.19
650.611	938.62
650.808	936.11
651.004	945.02
651.201	949.28
651.398	988.03
651.595	939.21
651.791	925.26
651.988	979.7
652.185	900.46
652.381	939.79
652.578	902.78
652.775	924.29
652.971	931.65
653.168	918.47
653.364	971.17
653.561	869.26
653.757	916.92
653.954	931.65
654.15	880.89
654.347	975.24
654.543	941.53
654.74	866.16
654.936	894.06
655.133	914.02
655.329	905.88
655.525	922.54
655.722	941.34
655.918	867.71
656.115	866.16
656.311	781.5
656.507	773.55
656.704	755.15
656.9	770.26
657.096	759.02
657.292	765.8
657.489	862.87
657.685	808.43
657.881	804.55
658.077	828.96
658.273	848.34
658.47	892.51
658.666	850.08
658.862	899.29
659.058	829.74
659.254	877.21
659.45	861.13
659.646	865.19
659.842	858.22
660.038	878.76
660.234	818.31
660.43	848.53
660.626	908.98
660.822	897.16
661.018	887.28
661.214	823.93
661.41	817.15
661.606	858.61
661.802	836.33
661.998	817.53
662.194	825.09
662.39	848.14
662.586	849.11
662.781	872.36
662.977	866.36
663.173	853.18
663.369	830.13
663.564	809.2
663.76	872.56
663.956	821.02
664.152	838.26
664.347	763.28
664.543	786.73
664.739	780.53
664.934	738.68
665.13	729.18
665.326	805.71
665.521	758.25
665.717	734.61
665.912	759.99
666.108	712.33
666.304	744.88
666.499	747.01
666.695	729.18
666.89	769.1
667.086	786.73
667.281	750.3
667.477	801.26
667.672	748.36
667.867	757.86
668.063	770.06
668.258	710.58
668.454	743.33
668.649	800.29
668.844	746.23
669.04	766.19
669.235	726.08
669.43	715.62
669.626	694.89
669.821	718.72
670.016	682.1
670.211	744.1
670.407	661.76
670.602	685.01
670.797	695.08
670.992	750.5
671.187	660.6
671.382	708.65
671.578	696.63
671.773	738.29
671.968	648
672.163	689.27
672.358	721.43
672.553	670.67
672.748	720.66
672.943	763.48
673.138	702.64
673.333	730.54
673.528	669.9
673.723	714.27
673.918	704.19
674.113	632.12
674.308	733.06
674.503	675.52
674.698	740.23
674.892	688.11
675.087	706.32
675.282	720.47
675.477	664.28
675.672	678.62
675.867	657.3
676.061	651.3
676.256	625.34
676.451	675.52
676.646	676.1
676.84	669.9
677.035	624.75
677.23	626.89
677.424	662.15
677.619	697.8
677.814	724.15
678.008	687.53
678.203	647.23
678.397	649.75
678.592	694.31
678.787	709.23
678.981	645.68
679.176	663.89
679.37	659.05
679.565	628.63
679.759	671.45
679.954	681.13
680.148	730.15
680.342	715.23
680.537	693.15
680.731	698.38
680.926	688.69
681.12	661.57
681.314	634.05
681.509	660.02
681.703	682.49
681.897	691.98
682.092	684.43
682.286	660.6
682.48	782.27
682.674	695.28
682.869	647.81
683.063	704.19
683.257	743.13
683.451	700.12
683.645	717.56
683.839	682.1
684.034	681.52
684.228	728.99
684.422	670.87
684.616	687.53
684.81	739.84
685.004	705.35
685.198	714.07
685.392	752.05
685.586	682.1
685.78	735.19
685.974	753.4
686.168	748.95
686.362	773.94
686.556	686.17
686.75	677.07
686.944	639.87
687.138	660.4
687.331	578.84
687.525	594.72
687.719	550.74
687.913	601.31
688.107	587.36
688.301	585.62
688.494	642
688.688	610.8
688.882	610.61
689.076	611.58
689.269	643.74
689.463	705.93
689.657	640.84
689.85	650.33
690.044	677.65
690.238	714.46
690.431	676.87
690.625	712.33
690.818	748.17
691.012	789.63
691.205	785.18
691.399	773.75
691.593	827.22
691.786	852.02
691.98	885.93
692.173	913.82
692.366	889.03
692.56	928.55
692.753	948.31
692.947	906.27
693.14	981.06
693.333	971.76
693.527	928.16
693.72	973.89
693.914	966.72
694.107	955.67
694.3	994.42
694.493	973.89
694.687	1037.24
694.88	974.86
695.073	1065.34
695.266	1111.45
695.46	1056.04
695.653	1147.87
695.846	1135.86
696.039	1084.9
696.232	1146.52
696.425	1181.39
696.618	1204.25
696.812	1202.9
697.005	1293.18
697.198	1336.39
697.391	1324.38
697.584	1345.3
697.777	1396.84
697.97	1368.55
698.163	1377.66
698.356	1376.49
698.549	1469.88
698.742	1442.95
698.935	1408.07
699.127	1460
699.32	1395.87
699.513	1407.69
699.706	1432.87
699.899	1527.23
700.092	1450.89
700.285	1521.22
700.477	1435.2
700.67	1485.57
700.863	1533.82
701.056	1594.46
701.248	1523.55
701.441	1605.12
701.634	1562.3
701.826	1656.07
702.019	1578.77
702.212	1631.46
702.404	1565.78
702.597	1572.76
702.79	1609.96
702.982	1689.01
703.175	1687.46
703.367	1722.33
703.56	1745.97
703.752	1803.51
703.945	1796.15
704.137	1823.66
704.33	1821.53
704.522	1872.1
704.715	1845.94
704.907	1879.27
705.1	1926.54
705.292	1900.39
705.484	1910.85
705.677	1926.35
705.869	1998.42
706.061	2004.23
706.254	2040.66
706.446	1986.22
706.638	1996.1
706.831	2088.13
707.023	2043.18
707.215	2129.01
707.407	2084.83
707.599	2084.06
707.792	2128.62
707.984	2138.5
708.176	2220.65
708.368	2117.19
708.56	2167.56
708.752	2164.27
708.944	2167.18
709.136	2227.43
709.329	2214.06
709.521	2291.95
709.713	2291.95
709.905	2296.21
710.097	2320.04
710.289	2271.61
710.481	2315.78
710.672	2319.07
710.864	2336.32
711.056	2404.32
711.248	2365.38
711.44	2371.97
711.632	2421.37
711.824	2424.86
712.016	2456.83
712.207	2451.6
712.399	2462.45
712.591	2473.3
712.783	2492.86
712.975	2473.68
713.166	2452.57
713.358	2491.9
713.55	2538.78
713.741	2545.95
713.933	2562.42
714.125	2543.24
714.316	2508.17
714.508	2620.54
714.7	2594.58
714.891	2553.12
715.083	2602.14
715.274	2575.98
715.466	2559.71
715.657	2623.45
715.849	2515.73
716.04	2541.88
716.232	2485.11
716.423	2517.66
716.615	2431.64
716.806	2352.01
716.998	2325.66
717.189	2227.43
717.381	2175.7
717.572	2107.5
717.763	2159.62
717.955	2120.48
718.146	2063.52
718.337	2037.75
718.528	1985.83
718.72	1939.52
718.911	1923.44
719.102	1856.6
719.293	1990.09
719.485	1910.07
719.676	1918.6
719.867	1859.7
720.058	1886.24
720.249	1872.49
720.44	1902.71
720.632	1936.81
720.823	2031.94
721.014	2121.84
721.205	2190.04
721.396	2283.62
721.587	2335.93
721.778	2412.27
721.969	2431.25
722.16	2507.01
722.351	2531.81
722.542	2613.96
722.733	2657.74
722.924	2538.2
723.115	2635.46
723.305	2563.97
723.496	2558.55
723.687	2446.95
723.878	2411.1
724.069	2449.66
724.26	2451.21
724.45	2378.55
724.641	2387.47
724.832	2385.72
725.023	2401.61
725.213	2384.56
725.404	2340.77
725.595	2367.51
725.785	2338.84
725.976	2412.46
726.167	2400.64
726.357	2407.42
726.548	2477.17
726.739	2417.5
726.929	2473.1
727.12	2467.1
727.31	2472.13
727.501	2430.87
727.691	2453.53
727.882	2493.45
728.072	2536.46
728.263	2518.44
728.453	2581.21
728.644	2611.83
728.834	2555.83
729.024	2525.03
729.215	2502.75
729.405	2551.57
729.596	2627.33
729.786	2658.71
729.976	2664.14
730.167	2650.96
730.357	2612.79
730.547	2642.83
730.737	2674.6
730.928	2698.04
731.118	2756.94
731.308	2689.32
731.498	2703.66
731.688	2794.34
731.879	2778.84
732.069	2886.17
732.259	2925.5
732.449	2923.95
732.639	3059.58
732.829	3071.2
733.019	3114.21
733.209	3139.21
733.399	3185.12
733.589	3229.88
733.779	3222.13
733.969	3244.8
734.159	3347.87
734.349	3352.72
734.539	3380.42
734.729	3360.08
734.919	3436.41
735.109	3479.43
735.299	3404.06
735.488	3434.86
735.678	3459.86
735.868	3444.36
736.058	3439.9
736.248	3374.8
736.437	3421.11
736.627	3342.06
736.817	3494.34
737.007	3446.1
737.196	3493.38
737.386	3471.48
737.576	3464.31
737.765	3492.41
737.955	3498.41
738.144	3598.39
738.334	3558.28
738.524	3473.61
738.713	3524.76
738.903	3551.69
739.092	3596.45
739.282	3573.78
739.471	3621.05
739.661	3634.04
739.85	3606.72
740.04	3659.22
740.229	3649.15
740.419	3715.22
740.608	3684.41
740.797	3709.79
740.987	3756.29
741.176	3721.42
741.365	3657.09
741.555	3623.96
741.744	3787.87
741.933	3731.49
742.123	3772.18
742.312	3774.31
742.501	3825.07
742.69	3821.97
742.88	3770.82
743.069	3875.45
743.258	3803.76
743.447	3863.24
743.636	3846.38
743.825	3807.63
744.014	3813.45
744.204	3866.34
744.393	3794.07
744.582	3876.22
744.771	3915.74
744.96	3858.59
745.149	3907.22
745.338	3876.8
745.527	3914.97
745.716	3858.2
745.905	3821.78
746.094	3925.82
746.283	3903.15
746.471	3882.81
746.66	3917.1
746.849	3941.9
747.038	3972.71
747.227	3904.89
747.416	3935.89
747.604	3887.65
747.793	3897.53
747.982	3903.73
748.171	3913.23
748.359	3908.19
748.548	3909.54
748.737	3892.49
748.926	3899.66
749.114	3814.8
749.303	3918.84
749.491	3855.49
749.68	3818.68
749.869	3957.79
750.057	3862.27
750.246	3856.85
750.434	3801.43
750.623	3869.83
750.811	3827.98
751	3895.21
751.188	3789.81
751.377	3796.2
751.565	3790.78
751.754	3800.46
751.942	3784.38
752.131	3857.62
752.319	3750.67
752.507	3788.84
752.696	3835.92
752.884	3830.69
753.072	3761.91
753.261	3811.7
753.449	3795.23
753.637	3682.47
753.825	3854.52
754.014	3780.32
754.202	3814.41
754.39	3845.41
754.578	3776.44
754.766	3765.98
754.955	3735.37
755.143	3813.06
755.331	3718.7
755.519	3782.06
755.707	3707.85
755.895	3749.32
756.083	3718.7
756.271	3669.88
756.459	3717.15
756.647	3776.05
756.835	3714.63
757.023	3694.68
757.211	3702.82
757.399	3688.87
757.587	3681.89
757.775	3626.29
757.963	3681.89
758.151	3667.55
758.339	3612.14
758.526	3555.96
758.714	3595.67
758.902	3457.34
759.09	3365.5
759.278	3213.02
759.465	2905.16
759.653	2515.53
759.841	2263.27
760.028	1948.05
760.216	1708.77
760.404	1561.72
760.591	1319.92
760.779	1082
760.967	976.41
761.154	790.99
761.342	832.45
761.529	818.7
761.717	851.44
761.905	815.21
762.092	897.16
762.28	848.73
762.467	859.77
762.655	756.89
762.842	790.41
763.029	801.65
763.217	784.21
763.404	800.1
763.592	829.74
763.779	784.6
763.966	810.75
764.154	882.05
764.341	921.96
764.528	956.64
764.716	1011.09
764.903	1082.97
765.09	1129.08
765.277	1198.63
765.465	1349.37
765.652	1435.39
765.839	1502.43
766.026	1659.17
766.213	1708.38
766.4	1815.14
766.588	2012.37
766.775	2023.61
766.962	2145.86
767.149	2277.03
767.336	2434.55
767.523	2371.97
767.71	2560.1
767.897	2656
768.084	2726.72
768.271	2811
768.458	2827.85
768.645	2913.88
768.832	2900.12
769.019	2928.6
769.206	2963.28
769.392	3068.29
769.579	3130.49
769.766	3122.74
769.953	3095.42
770.14	3153.35
770.327	3163.04
770.513	3234.14
770.7	3281.61
770.887	3156.84
771.073	3230.46
771.26	3263.2
771.447	3218.84
771.634	3194.81
771.82	3283.93
772.007	3175.82
772.193	3272.31
772.38	3253.71
772.567	3217.29
772.753	3240.34
772.94	3291.88
773.126	3307.38
773.313	3273.08
773.499	3281.42
773.686	3300.79
773.872	3208.37
774.059	3260.88
774.245	3196.17
774.432	3206.24
774.618	3166.72
774.804	3224.45
774.991	3154.32
775.177	3224.26
775.363	3178.92
775.55	3232.59
775.736	3166.33
775.922	3152.57
776.109	3168.66
776.295	3172.14
776.481	3192.68
776.667	3172.92
776.853	3170.4
777.04	3163.81
777.226	3179.31
777.412	3242.86
777.598	3133.01
777.784	3122.16
777.97	3139.98
778.156	3149.28
778.342	3111.69
778.528	3113.44
778.715	3062.09
778.901	3107.82
779.087	3085.34
779.272	3099.1
779.458	3093.68
779.644	3086.12
779.83	3028.19
780.016	3139.21
780.202	3068.68
780.388	3043.88
780.574	2962.7
780.76	2997.38
780.946	3045.24
781.131	3067.71
781.317	3008.81
781.503	2989.25
781.689	2960.76
781.874	3101.04
782.06	2987.5
782.246	3031.87
782.432	3017.14
782.617	3006.1
782.803	3032.64
782.989	2958.63
783.174	2931.7
783.36	2910.39
783.545	2939.45
783.731	2951.27
783.916	2845.48
784.102	2942.16
784.288	2924.15
784.473	2953.4
784.659	2885.98
784.844	2928.41
785.029	2875.9
785.215	2888.88
785.4	2804.6
785.586	2911.94
785.771	2840.83
785.956	2871.45
786.142	2846.07
786.327	2821.65
786.512	2817.39
786.698	2804.8
786.883	2751.71
787.068	2784.26
787.254	2810.22
787.439	2758.1
787.624	2776.7
787.809	2740.28
787.994	2729.43
788.18	2802.09
788.365	2700.56
788.55	2706.57
788.735	2726.14
788.92	2698.24
789.105	2659.87
789.29	2734.08
789.475	2652.32
789.66	2642.44
789.845	2642.83
790.03	2606.59
790.215	2666.46
790.4	2674.79
790.585	2646.89
790.77	2622.48
790.955	2580.63
791.14	2600.78
791.325	2678.09
791.51	2531.42
791.695	2631.01
791.879	2572.88
792.064	2535.1
792.249	2622.87
792.434	2544.98
792.618	2580.05
792.803	2627.71
792.988	2580.44
793.173	2558.55
793.357	2618.61
793.542	2500.42
793.727	2589.74
793.911	2644.18
794.096	2627.33
794.281	2652.13
794.465	2712.38
794.65	2618.8
794.834	2713.16
795.019	2678.86
795.203	2688.16
795.388	2657.36
795.572	2718.77
795.757	2645.54
795.941	2643.79
796.126	2628.29
796.31	2585.09
796.494	2600.2
796.679	2587.8
796.863	2563.2
797.048	2642.24
797.232	2644.57
797.416	2661.62
797.601	2650.77
797.785	2708.12
797.969	2719.16
798.153	2614.34
798.338	2677.7
798.522	2694.75
798.706	2709.47
798.89	2703.47
799.074	2746.87
799.258	2742.41
799.443	2648.64
799.627	2705.21
799.811	2693.2
799.995	2636.24
800.179	2649.61
800.363	2648.25
800.547	2679.83
800.731	2711.99
800.915	2573.27
801.099	2608.92
801.283	2656.58
801.467	2647.48
801.651	2620.35
801.835	2707.54
802.019	2654.26
802.202	2682.35
802.386	2601.17
802.57	2595.16
802.754	2610.47
802.938	2571.33
803.121	2562.81
803.305	2642.44
803.489	2591.48
803.673	2668.59
803.856	2636.63
804.04	2647.48
804.224	2672.47
804.407	2570.75
804.591	2622.09
804.775	2581.6
804.958	2592.26
805.142	2716.84
805.326	2631.59
805.509	2651.93
805.693	2675.96
805.876	2680.61
806.06	2652.71
806.243	2658.32
806.427	2696.49
806.61	2745.7
806.794	2685.26
806.977	2691.65
807.16	2664.33
807.344	2665.49
807.527	2671.11
807.71	2699.01
807.894	2666.85
808.077	2683.71
808.26	2646.7
808.444	2642.83
808.627	2686.42
808.81	2620.54
808.993	2544.21
809.177	2556.22
809.36	2540.91
809.543	2577.73
809.726	2465.55
809.909	2465.16
810.092	2467.29
810.276	2499.65
810.459	2477.75
810.642	2446.75
810.825	2425.63
811.008	2431.45
811.191	2370.8
811.374	2358.79
811.557	2356.08
811.74	2378.75
811.923	2310.55
812.106	2329.54
812.289	2244.87
812.472	2260.76
812.654	2280.13
812.837	2215.61
813.02	2179.58
813.203	2136.37
813.386	2054.41
813.569	2052.86
813.751	2030.97
813.934	2028.84
814.117	1964.71
814.3	1909.69
814.482	1895.54
814.665	1880.24
814.848	1836.84
815.03	1749.07
815.213	1775.23
815.396	1727.76
815.578	1749.46
815.761	1690.95
815.943	1755.27
816.126	1671.18
816.309	1656.85
816.491	1539.82
816.674	1525.87
816.856	1576.25
817.039	1583.22
817.221	1669.83
817.403	1584.97
817.586	1597.75
817.768	1586.52
817.951	1540.4
818.133	1487.9
818.315	1543.89
818.498	1591.94
818.68	1627.2
818.862	1650.45
819.045	1653.55
819.227	1649.68
819.409	1621.58
819.591	1635.34
819.774	1620.81
819.956	1587.29
820.138	1678.35
820.32	1651.61
820.502	1701.6
820.684	1813.97
820.866	1808.55
821.048	1845.75
821.231	1911.04
821.413	1870.74
821.595	1835.09
821.777	1845.36
821.959	1838
822.141	1911.43
822.323	1733.38
822.505	1691.91
822.686	1628.95
822.868	1576.44
823.05	1436.55
823.232	1421.83
823.414	1351.5
823.596	1436.94
823.778	1434.04
823.96	1458.84
824.141	1463.29
824.323	1505.34
824.505	1549.32
824.687	1615.96
824.868	1643.48
825.05	1745.78
825.232	1788.98
825.413	1870.36
825.595	1786.66
825.777	1721.17
825.958	1773.09
826.14	1766.7
826.321	1806.22
826.503	1795.76
826.685	1819.79
826.866	1836.84
827.048	1836.06
827.229	1762.24
827.411	1725.04
827.592	1708.58
827.773	1676.61
827.955	1598.92
828.136	1645.8
828.318	1604.34
828.499	1635.53
828.68	1586.13
828.862	1611.51
829.043	1624.1
829.224	1607.25
829.406	1577.02
829.587	1587.87
829.768	1604.73
829.949	1631.85
830.131	1628.17
830.312	1663.43
830.493	1596.4
830.674	1661.69
830.855	1600.08
831.036	1598.53
831.218	1669.63
831.399	1687.46
831.58	1621.78
831.761	1616.74
831.942	1623.13
832.123	1578.38
832.304	1573.92
832.485	1611.51
832.666	1606.28
832.847	1635.53
833.028	1578.18
833.209	1599.5
833.389	1581.09
833.57	1569.66
833.751	1564.62
833.932	1646
834.113	1594.27
834.294	1564.23
834.475	1620.81
834.655	1664.6
834.836	1670.41
835.017	1711.09
835.198	1632.43
835.378	1653.75
835.559	1683
835.74	1625.85
835.92	1641.15
836.101	1616.35
836.281	1669.25
836.462	1670.21
836.643	1702.76
836.823	1716.71
837.004	1694.24
837.184	1732.41
837.365	1722.33
837.545	1714.39
837.726	1686.1
837.906	1730.86
838.087	1701.02
838.267	1689.59
838.448	1653.94
838.628	1699.47
838.808	1677.58
838.989	1734.93
839.169	1664.4
839.349	1696.95
839.53	1738.22
839.71	1750.81
839.89	1689.78
840.07	1755.46
840.251	1700.05
840.431	1733.76
840.611	1676.03
840.791	1672.35
840.971	1676.8
841.151	1705.28
841.332	1646.77
841.512	1742.68
841.692	1616.16
841.872	1714.39
842.052	1711.09
842.232	1706.25
842.412	1610.73
842.592	1664.79
842.772	1707.03
842.952	1681.06
843.132	1667.31
843.312	1653.94
843.492	1615.77
843.672	1683
843.851	1628.56
844.031	1662.27
844.211	1621.78
844.391	1631.66
844.571	1660.53
844.751	1665.37
844.93	1691.91
845.11	1634.37
845.29	1692.69
845.47	1665.56
845.649	1656.65
845.829	1667.7
846.009	1632.05
846.188	1642.51
846.368	1664.98
846.547	1637.86
846.727	1661.69
846.907	1622.75
847.086	1640.57
847.266	1657.43
847.445	1654.52
847.625	1631.66
847.804	1627.78
847.984	1627.59
848.163	1587.29
848.343	1612.86
848.522	1596.01
848.701	1601.43
848.881	1597.56
849.06	1589.03
849.239	1588.26
849.419	1598.14
849.598	1518.12
849.777	1539.05
849.957	1538.66
850.136	1468.52
850.315	1433.84
850.494	1467.55
850.674	1481.7
850.853	1518.7
851.032	1501.65
851.211	1557.84
851.39	1477.24
851.569	1464.45
851.748	1463.1
851.927	1535.17
852.107	1504.95
852.286	1480.15
852.465	1445.27
852.644	1489.45
852.823	1479.76
853.002	1474.14
853.181	1482.67
853.359	1505.34
853.538	1423.77
853.717	1494.68
853.896	1373.2
854.075	1352.08
854.254	1315.85
854.433	1265.86
854.611	1302.09
854.79	1224.98
854.969	1310.23
855.148	1305.39
855.327	1278.46
855.505	1335.03
855.684	1282.91
855.863	1348.01
856.041	1353.05
856.22	1397.42
856.399	1341.23
856.577	1445.47
856.756	1413.31
856.934	1534.4
857.113	1512.7
857.291	1457.48
857.47	1425.32
857.648	1446.24
857.827	1421.06
858.005	1453.6
858.184	1418.54
858.362	1494.29
858.541	1423.77
858.719	1394.12
858.898	1378.62
859.076	1379.79
859.254	1475.69
859.433	1415.63
859.611	1366.81
859.789	1357.7
859.967	1439.07
860.146	1466.97
860.324	1370.1
860.502	1359.25
860.68	1352.47
860.859	1390.25
861.037	1370.87
861.215	1371.07
861.393	1364.67
861.571	1388.7
861.749	1357.12
861.927	1400.52
862.105	1351.89
862.283	1341.62
862.461	1331.16
862.639	1292.79
862.817	1320.89
862.995	1367
863.173	1352.66
863.351	1360.41
863.529	1353.82
863.707	1354.6
863.885	1349.17
864.063	1277.49
864.241	1291.24
864.418	1369.13
864.596	1297.64
864.774	1277.29
864.952	1309.84
865.129	1328.83
865.307	1248.23
865.485	1214.52
865.663	1310.62
865.84	1227.89
866.018	1212.2
866.196	1130.43
866.373	1125.01
866.551	1125.98
866.728	1086.45
866.906	1129.85
867.084	1124.82
867.261	1149.42
867.439	1210.65
867.616	1198.63
867.794	1166.08
867.971	1213.36
868.149	1198.83
868.326	1258.11
868.503	1221.88
868.681	1214.52
868.858	1206.38
869.035	1181
869.213	1250.95
869.39	1204.45
869.567	1306.74
869.745	1185.26
869.922	1219.17
870.099	1226.92
870.276	1222.46
870.454	1225.95
870.631	1232.93
870.808	1201.54
870.985	1258.7
871.162	1265.09
871.339	1188.36
871.517	1188.75
871.694	1206.38
871.871	1185.07
872.048	1191.46
872.225	1175.19
872.402	1174.61
872.579	1169.77
872.756	1215.1
872.933	1159.69
873.11	1166.86
873.287	1218.4
873.463	1165.5
873.64	1149.23
873.817	1175.38
873.994	1156.78
874.171	1113
874.348	1146.9
874.524	1084.52
874.701	1147.48
874.878	1069.79
875.055	1134.7
875.231	1118.03
875.408	1141.87
875.585	1048.48
875.762	1125.98
875.938	1122.3
876.115	1079.87
876.291	1104.86
876.468	1081.22
876.645	1044.02
876.821	1111.25
876.998	1078.32
877.174	1097.3
877.351	1076.57
877.527	1037.63
877.704	1089.36
877.88	1094.59
878.057	1055.84
878.233	1108.15
878.409	1090.33
878.586	1096.33
878.762	1060.69
878.938	1044.22
879.115	986.29
879.291	1054.49
879.467	1019.03
879.644	1067.08
879.82	1068.63
879.996	1035.89
880.172	1015.54
880.349	1037.44
880.525	1038.02
880.701	956.64
880.877	984.54
881.053	1012.44
881.229	1029.1
881.405	1056.04
881.581	993.07
881.757	1022.52
881.933	1023.49
882.109	1025.23
882.285	1008.76
882.461	983.38
882.637	1017.48
882.813	999.85
882.989	1032.4
883.165	1060.3
883.341	972.34
883.517	1038.02
883.693	1015.93
883.869	1006.63
884.044	998.3
884.22	1034.92
884.396	1063.2
884.572	1043.64
884.747	1055.45
884.923	1037.82
885.099	1060.69
885.275	1050.42
885.45	1013.41
885.626	987.84
885.801	965.36
885.977	981.25
886.153	940.37
886.328	1010.5
886.504	960.32
886.679	983.96
886.855	966.72
887.03	1017.87
887.206	995.59
887.381	1012.44
887.557	1013.6
887.732	1029.88
887.908	1024.84
888.083	1023.1
888.258	983.96
888.434	976.6
888.609	996.36
888.784	1056.23
888.96	1002.17
889.135	978.92
889.31	979.31
889.485	1030.46
889.661	1000.04
889.836	1036.27
890.011	986.87
890.186	999.65
890.361	995.2
890.537	1005.85
890.712	1030.85
890.887	1013.99
891.062	983.57
891.237	1037.44
891.412	964.97
891.587	976.79
891.762	1001.79
891.937	1012.83
892.112	932.62
892.287	986.48
892.462	942.5
892.637	925.26
892.812	880.11
892.987	915.37
893.161	891.93
893.336	890.58
893.511	899.68
893.686	896.78
893.861	895.42
894.035	883.99
894.21	908.79
894.385	867.71
894.56	875.66
894.734	812.5
894.909	811.72
895.084	825.86
895.258	805.13
895.433	790.02
895.608	765.03
895.782	737.32
895.957	769.29
896.131	746.62
896.306	702.83
896.48	701.87
896.655	696.25
896.829	637.93
897.004	641.42
897.178	665.44
897.353	635.8
897.527	644.71
897.701	649.75
897.876	614.1
898.05	684.82
898.224	698.57
898.399	705.55
898.573	663.31
898.747	562.17
898.921	614.87
899.096	488.36
899.27	512.38
899.444	522.07
899.618	573.22
899.792	571.47
899.967	572.64
900.141	618.17
900.315	557.72
900.489	546.48
900.663	555.59
900.837	568.95
901.011	497.85
901.185	594.72
901.359	550.55
901.533	566.82
901.707	589.49
901.881	586.2
902.055	531.76
902.229	556.56
902.403	620.69
902.576	568.18
902.75	574.77
902.924	645.87
903.098	642.77
903.272	659.82
903.446	698.38
903.619	691.21
903.793	717.56
903.967	710.78
904.14	751.66
904.314	722.98
904.488	745.85
904.661	740.61
904.835	743.91
905.009	725.89
905.182	771.81
905.356	724.73
905.529	728.02
905.703	739.45
905.876	700.9
906.05	654.98
906.223	641.03
906.397	580.19
906.57	591.43
906.744	570.89
906.917	545.12
907.09	595.11
907.264	546.29
907.437	534.86
907.61	497.27
907.784	527.11
907.957	538.34
908.13	497.66
908.304	530.4
908.477	491.65
908.65	506.96
908.823	479.25
908.996	574.96
909.17	482.35
909.343	503.66
909.516	497.07
909.689	490.49
909.862	463.75
910.035	472.08
910.208	454.45
910.381	467.04
910.554	541.44
910.727	505.6
910.9	466.46
911.073	516.06
911.246	538.15
911.419	549.39
911.592	506.76
911.765	470.92
911.938	497.27
912.11	497.07
912.283	482.74
912.456	557.72
912.629	481.77
912.802	482.54
912.974	405.63
913.147	416.28
913.32	380.63
913.493	374.82
913.665	409.31
913.838	436.63
914.01	421.32
914.183	450.96
914.356	425.19
914.528	496.11
914.701	473.44
914.873	462.59
915.046	423.64
915.218	386.06
915.391	323.67
915.563	372.3
915.736	385.48
915.908	433.72
916.081	418.41
916.253	417.44
916.425	405.24
916.598	474.21
916.77	432.36
916.942	394.58
917.115	332.58
917.287	380.05
917.459	362.42
917.632	367.26
917.804	290.35
917.976	390.9
918.148	404.85
918.32	403.11
918.493	448.06
918.665	453.68
918.837	448.44
919.009	484.29
919.181	486.22
919.353	452.13
919.525	443.6
919.697	449.61
919.869	444.18
920.041	530.4
920.213	546.29
920.385	507.73
920.557	452.9
920.729	484.29
920.901	476.15
921.073	458.13
921.244	425.19
921.416	473.82
921.588	458.33
921.76	437.79
921.932	513.16
922.103	473.63
922.275	456.39
922.447	481.77
922.619	410.47
922.79	440.89
922.962	432.56
923.134	463.36
923.305	392.64
923.477	395.55
923.648	403.69
923.82	406.21
923.991	360.68
924.163	363.2
924.335	404.66
924.506	363.58
924.677	422.29
924.849	357.96
925.02	396.33
925.192	409.69
925.363	383.15
925.535	391.68
925.706	392.06
925.877	406.01
926.049	377.15
926.22	402.72
926.391	395.74
926.562	400.39
926.734	354.28
926.905	423.45
927.076	340.53
927.247	331.23
927.419	326.38
927.59	327.16
927.761	305.46
927.932	276.2
928.103	308.17
928.274	253.73
928.445	274.27
928.616	246.75
928.787	268.45
928.958	287.05
929.129	297.32
929.3	269.81
929.471	216.92
929.642	173.71
929.813	135.93
929.984	234.35
930.155	142.52
930.326	205.1
930.496	176.42
930.667	121.21
930.838	140.97
931.009	128.18
931.18	127.79
931.35	127.79
931.521	143.68
931.692	89.04
931.863	60.17
932.033	111.91
932.204	110.94
932.374	118.11
932.545	88.85
932.716	110.94
932.886	129.34
933.057	47.19
933.227	78.77
933.398	126.82
933.568	61.53
933.739	29.18
933.909	10.77
934.08	87.11
934.25	4.96
934.421	33.05
934.591	68.12
934.761	35.18
934.932	17.16
935.102	55.91
935.272	33.44
935.443	41.57
935.613	56.49
935.783	46.61
935.953	8.06
936.123	146.39
936.294	34.02
936.464	12.9
936.634	24.14
936.804	-12.87
936.974	-28.17
937.144	40.99
937.314	46.22
937.484	29.18
937.655	-2.79
937.825	66.37
937.995	27.04
938.165	68.51
938.334	38.09
938.504	62.5
938.674	51.26
938.844	24.72
939.014	101.44
939.184	88.46
939.354	134.38
939.524	122.56
939.694	82.84
939.863	50.87
940.033	115.78
940.203	133.6
940.373	101.44
940.542	101.64
940.712	70.64
940.882	107.26
941.051	144.45
941.221	102.8
941.391	142.32
941.56	78.39
941.73	68.89
941.899	157.44
942.069	81.1
942.238	96.02
942.408	65.79
942.577	105.32
942.747	55.72
942.916	28.01
943.086	76.45
943.255	95.63
943.425	78.19
943.594	38.67
943.763	30.53
943.933	35.38
944.102	14.64
944.271	79.36
944.441	71.22
944.61	51.65
944.779	76.26
944.948	134.57
945.117	20.07
945.287	47.97
945.456	11.93
945.625	48.16
945.794	29.18
945.963	31.5
946.132	80.52
946.301	55.33
946.47	80.32
946.639	-2.41
946.808	22.78
946.977	98.54
947.146	89.43
947.315	59.98
947.484	63.66
947.653	25.11
947.822	45.06
947.991	22.98
948.16	127.02
948.329	104.93
948.498	43.51
948.666	64.63
948.835	96.02
949.004	54.36
949.173	21.23
949.341	64.63
949.51	68.89
949.679	105.32
949.847	91.76
950.016	133.22
950.185	98.92
950.353	43.9
950.522	60.56
950.69	125.27
950.859	53.97
951.028	91.17
951.196	56.3
951.365	31.5
951.533	53.01
951.701	90.4
951.87	75.29
952.038	46.03
952.207	65.99
952.375	131.09
952.543	21.04
952.712	66.37
952.88	29.95
953.048	122.56
953.217	49.52
953.385	60.17
953.553	86.52
953.721	16.39
953.89	53.39
954.058	19.68
954.226	38.28
954.394	76.84
954.562	13.68
954.73	47.39
954.898	32.28
955.067	96.21
955.235	54.56
955.403	96.21
955.571	115.97
955.739	80.71
955.907	26.85
956.075	47.39
956.243	20.84
956.41	56.3
956.578	16.78
956.746	15.23
956.914	35.57
957.082	91.95
957.25	109.39
957.418	60.76
957.585	77.03
957.753	93.31
957.921	49.13
958.089	64.24
958.256	94.86
958.424	62.69
958.592	87.69
958.759	61.72
958.927	91.76
959.095	34.99
959.262	65.6
959.43	63.08
959.597	43.12
959.765	81.49
959.932	44.09
960.1	132.64
960.267	68.7
960.435	24.72
960.602	94.86
960.77	46.22
960.937	16.78
961.104	91.95
961.272	28.98
961.439	58.82
961.606	75.29
961.774	97.76
961.941	58.62
962.108	90.4
962.275	53.39
962.443	81.29
962.61	76.84
962.777	125.27
962.944	100.09
963.111	91.95
963.278	96.6
963.446	81.87
963.613	75.67
963.78	82.26
963.947	102.02
964.114	65.99
964.281	151.43
964.448	115.97
964.615	53.01
964.782	111.52
964.949	85.17
965.116	99.51
965.282	130.31
965.449	65.02
965.616	44.87
965.783	107.45
965.95	77.03
966.117	56.88
966.283	53.97
966.45	96.02
966.617	75.87
966.784	113.65
966.95	114.42
967.117	141.55
967.284	91.95
967.45	76.84
967.617	135.74
967.784	123.34
967.95	112.68
968.117	88.85
968.283	117.72
968.45	167.9
968.616	140.97
968.783	132.64
968.949	116.94
969.116	163.64
969.282	90.4
969.449	108.61
969.615	109.77
969.781	72.57
969.948	88.85
970.114	80.71
970.28	164.8
970.447	104.35
970.613	149.49
970.779	109.19
970.945	123.72
971.112	138.45
971.278	85.75
971.444	93.5
971.61	141.35
971.776	99.7
971.942	106.48
972.108	110.36
972.275	107.26
972.441	102.99
972.607	161.12
972.773	75.87
972.939	104.35
973.105	111.13
973.271	81.1
973.437	77.61
973.602	65.6
973.768	107.06
973.934	90.4
974.1	135.35
974.266	42.16
974.432	104.54
974.598	60.17
974.763	98.34
974.929	76.26
975.095	127.99
975.261	40.61
975.426	71.8
975.592	98.34
975.758	153.56
975.923	42.16
976.089	78.39
976.255	96.6
976.42	86.91
976.586	111.52
976.751	99.31
976.917	180.1
977.082	87.3
977.248	27.43
977.413	21.43
977.579	97.76
977.744	75.67
977.91	62.69
978.075	55.33
978.24	99.31
978.406	88.46
978.571	71.02
978.736	41.96
978.902	94.27
979.067	56.11
979.232	31.31
979.397	85.56
979.563	124.3
979.728	42.93
979.893	86.14
980.058	87.88
980.223	128.57
980.388	84.59
980.554	74.32
980.719	82.46
980.884	103.38
981.049	125.08
981.214	62.89
981.379	79.36
981.544	58.43
981.709	90.59
981.874	65.99
982.039	95.63
982.204	129.73
982.368	74.51
982.533	64.82
982.698	142.9
982.863	126.63
983.028	79.74
983.193	95.44
983.357	100.47
983.522	69.28
983.687	75.67
983.852	72.57
984.016	71.8
984.181	88.46
984.346	81.87
984.51	99.51
984.675	64.82
984.839	98.73
985.004	79.55
985.168	126.05
985.333	113.07
985.498	59.21
985.662	118.3
985.827	83.42
985.991	78.77
986.155	85.56
986.32	94.66
986.484	132.05
986.649	90.98
986.813	46.42
986.977	109.19
987.142	117.52
987.306	45.84
987.47	98.15
987.634	83.62
987.799	92.72
987.963	114.42
988.127	117.33
988.291	157.44
988.455	82.84
988.62	48.74
988.784	95.44
988.948	103.19
989.112	66.96
989.276	88.85
989.44	80.52
989.604	68.12
989.768	57.27
989.932	160.92
990.096	66.96
990.26	59.01
990.424	59.59
990.588	65.6
990.752	146
990.915	112.68
991.079	70.44
991.243	65.41
991.407	110.16
991.571	69.86
991.734	98.92
991.898	104.74
992.062	163.44
992.226	87.69
992.389	48.55
992.553	40.22
992.717	68.31
992.88	72.19
993.044	44.87
993.207	62.5
993.371	77.03
993.535	82.07
993.698	75.29
993.862	133.99
994.025	89.04
994.189	88.27
994.352	58.82
994.515	88.46
994.679	80.91
994.842	57.85
995.006	103.77
995.169	61.92
995.332	39.83
995.496	93.89
995.659	34.79
995.822	53.59
995.985	71.02
996.149	121.79
996.312	72.19
996.475	142.32
996.638	56.3
996.801	105.51
996.964	115.01
997.128	55.91
997.291	78.77
997.454	71.41
997.617	8.64
997.78	134.77
997.943	52.81
998.106	85.17
998.269	44.29
998.432	80.91
998.595	55.33
998.758	19.49
998.92	68.12
999.083	10.77
999.246	76.84
999.409	28.98
999.572	5.54
999.735	47.58
999.897	76.45
1000.06	63.27
1000.223	40.02
1000.386	98.15
1000.548	77.81
1000.711	83.04
1000.874	61.72
1001.036	25.11
1001.199	74.51
1001.361	51.84
1001.524	53.2
1001.687	79.74
1001.849	35.18
1002.012	65.02
1002.174	63.27
1002.337	67.54
1002.499	27.24
1002.661	81.1
1002.824	-17.71
1002.986	36.54
1003.149	57.27
1003.311	10.38
1003.473	83.62
1003.636	21.81
1003.798	66.18
1003.96	61.72
1004.123	40.22
1004.285	22.59
1004.447	58.62
1004.609	48.55
1004.771	109.77
1004.933	21.62
1005.096	19.29
1005.258	13.09
1005.42	15.23
1005.582	82.84
1005.744	57.66
1005.906	9.99
1006.068	56.49
1006.23	-4.15
1006.392	-12.29
1006.554	9.8
1006.716	71.22
1006.878	86.33
1007.04	-19.46
1007.202	28.59
1007.363	27.63
1007.525	60.37
1007.687	46.81
1007.849	85.17
1008.011	23.75
1008.172	23.17
1008.334	20.26
1008.496	58.43
1008.658	8.83
1008.819	11.93
1008.981	-9.77
1009.143	17.55
1009.304	26.46
1009.466	56.49
1009.627	62.89
1009.789	133.22
1009.95	43.71
1010.112	46.42
1010.273	49.52
1010.435	41.38
1010.596	49.91
1010.758	28.79
1010.919	17.36
1011.081	-0.66
1011.242	33.83
1011.403	55.33
1011.565	42.54
1011.726	48.55
1011.887	23.94
1012.049	42.54
1012.21	80.32
1012.371	106.09
1012.532	-19.26
1012.693	42.16
1012.855	10.77
1013.016	23.75
1013.177	54.36
1013.338	35.96
1013.499	78
1013.66	78.19
1013.821	52.42
1013.982	60.95
1014.143	32.28
1014.304	29.76
1014.465	76.06
1014.626	69.67
1014.787	15.61
1014.948	114.81
1015.109	-9.38
1015.27	79.16
1015.431	22.59
1015.592	-4.92
1015.752	88.85
1015.913	46.61
1016.074	32.47
1016.235	50.68
1016.395	25.3
1016.556	34.6
1016.717	23.17
1016.877	88.46
1017.038	1.28
1017.199	39.83
1017.359	20.84
1017.52	5.93
1017.681	27.43
1017.841	-5.89
1018.002	19.49
1018.162	9.22
1018.323	68.89
1018.483	12.51
1018.644	4.76
1018.804	-15
1018.964	27.63
1019.125	30.14
1019.285	28.79
1019.446	26.85
1019.606	2.24
1019.766	-15.97
1019.926	42.35
1020.087	34.79
1020.247	13.29
1020.407	29.95
1020.567	62.11
1020.728	26.85
1020.888	-0.86
1021.048	-2.6
1021.208	-4.92
1021.368	-7.25
1021.528	73.74
1021.688	36.92
1021.848	81.49
1022.008	24.14
1022.168	19.68
1022.328	32.47
1022.488	37.7
1022.648	8.06
1022.808	40.02
1022.968	25.3
1023.128	7.09
1023.288	12.71
1023.448	26.85
1023.608	41.96
1023.767	33.24
1023.927	-27.79
1024.087	-29.53
1024.247	5.93
1024.406	-0.08
1024.566	-14.61
1024.726	-28.17
1024.885	7.28
1025.045	25.3
1025.205	2.83
1025.364	33.44
1025.524	9.8
1025.683	31.69
1025.843	17.36
1026.003	10.96
1026.162	82.65
1026.321	62.69
1026.481	52.42
1026.64	26.66
1026.8	23.94
1026.959	-9.57
1027.119	28.01
1027.278	-6.47
1027.437	24.14
1027.597	51.84
1027.756	30.92
1027.915	35.96
1028.074	33.63
1028.234	-0.66
1028.393	20.65
1028.552	1.28
1028.711	-56.46
1028.87	49.52
1029.03	-27.01
1029.189	-12.09
1029.348	-30.69
1029.507	0.11
1029.666	-23.72
1029.825	-25.46
1029.984	-9.57
1030.143	22.39
1030.302	16
1030.461	-37.09
1030.62	31.31
1030.779	25.49
1030.938	-9.96
1031.097	-17.13
1031.255	44.09
1031.414	44.87
1031.573	21.43
1031.732	-13.26
1031.891	24.33
1032.049	61.14
1032.208	22.59
1032.367	6.51
1032.525	-7.64
1032.684	8.83
1032.843	22.98
1033.001	-47.55
1033.16	116.75
1033.319	58.43
1033.477	34.99
1033.636	-1.44
1033.794	-58.01
1033.953	27.24
1034.111	29.56
1034.27	-12.48
1034.428	35.76
1034.587	-24.69
1034.745	4.38
1034.903	-7.06
1035.062	42.16
1035.22	-29.34
1035.378	51.65
1035.537	-8.61
1035.695	24.33
1035.853	12.13
1036.011	28.21
1036.17	8.83
1036.328	-41.16
1036.486	-2.6
1036.644	9.99
1036.802	-62.85
1036.96	-23.14
1037.119	1.66
1037.277	-23.33
1037.435	-40.57
1037.593	-18.49
1037.751	14.26
1037.909	28.01
1038.067	28.01
