Data from gum_young_FLMT105791__119__17-40-47-040.txt Node

Date: Mon Mar 20 17:40:47 GMT 2023
User: antho
Spectrometer: FLMT10579
Trigger mode: 0
Integration Time (sec): 1.000000E-1
Scans to average: 10
Electric dark correction enabled: true
Nonlinearity correction enabled: false
Boxcar width: 0
XAxis mode: Wavelengths
Number of Pixels in Spectrum: 3648
>>>>>Begin Spectral Data<<<<<
345.248	-154.32
345.464	-154.32
345.681	-154.32
345.898	-168.66
346.114	-128.94
346.331	-15.4
346.548	4.17
346.764	-5.13
346.981	9.98
347.197	-25.67
347.414	15.79
347.631	-2.81
347.847	70.04
348.064	-16.18
348.28	17.34
348.497	-29.35
348.713	-22.77
348.93	49.7
349.146	21.22
349.363	-6.1
349.579	35.55
349.796	1.84
350.012	3.39
350.229	26.25
350.445	9.01
350.661	-10.75
350.878	2.03
351.094	16.37
351.311	25.09
351.527	21.8
351.743	-13.85
351.96	34.39
352.176	41.37
352.392	13.08
352.609	54.93
352.825	-6.1
353.041	-3.2
353.257	-21.22
353.474	6.1
353.69	62.48
353.906	24.51
354.122	-26.06
354.339	67.91
354.555	37.88
354.771	-6.1
354.987	42.92
355.203	50.47
355.42	8.62
355.636	-3.39
355.852	-29.55
356.068	26.45
356.284	-7.46
356.5	55.7
356.716	20.83
356.932	0.87
357.148	21.02
357.364	3.39
357.58	71.01
357.796	47.18
358.012	60.55
358.228	12.88
358.444	-8.43
358.66	32.45
358.876	40.2
359.092	-8.23
359.308	39.62
359.524	36.13
359.74	3.58
359.956	-3.39
360.172	25.48
360.388	40.4
360.604	-0.68
360.819	84.38
361.035	33.42
361.251	47.18
361.467	-12.3
361.683	69.85
361.898	11.33
362.114	57.25
362.33	37.1
362.546	53.18
362.762	25.67
362.977	23.93
363.193	-4.17
363.409	63.65
363.624	-16.18
363.84	0.87
364.056	1.26
364.271	30.71
364.487	17.15
364.703	3.39
364.918	-5.72
365.134	9.98
365.35	-1.26
365.565	119.64
365.781	15.02
365.996	38.07
366.212	96.58
366.427	13.85
366.643	-4.94
366.858	-1.07
367.074	-18.12
367.289	58.03
367.505	102.78
367.72	-21.8
367.936	-9.01
368.151	39.82
368.367	43.11
368.582	10.37
368.798	21.99
369.013	39.43
369.228	10.75
369.444	29.16
369.659	77.79
369.874	24.12
370.09	72.75
370.305	-22.38
370.52	1.45
370.736	55.51
370.951	53.18
371.166	88.25
371.381	66.55
371.597	48.34
371.812	-2.23
372.027	-2.23
372.242	34
372.458	84.18
372.673	24.7
372.888	-0.29
373.103	56.67
373.318	83.21
373.533	47.56
373.749	28
373.964	-1.65
374.179	49.31
374.394	-4.75
374.609	84.96
374.824	7.85
375.039	82.25
375.254	18.31
375.469	79.53
375.684	18.12
375.899	53.38
376.114	33.03
376.329	24.9
376.544	57.45
376.759	69.07
376.974	6.1
377.189	27.8
377.404	18.7
377.619	53.96
377.834	-2.81
378.049	-10.95
378.264	-12.69
378.478	23.15
378.693	0.68
378.908	76.05
379.123	24.9
379.338	74.5
379.553	54.54
379.767	48.15
379.982	62.29
380.197	53.76
380.412	45.43
380.626	53.96
380.841	87.86
381.056	48.53
381.271	80.7
381.485	37.1
381.7	-3.39
381.915	53.96
382.129	32.07
382.344	47.76
382.559	18.89
382.773	65.58
382.988	-16.37
383.202	39.04
383.417	3.78
383.632	118.09
383.846	40.01
384.061	34.58
384.275	15.21
384.49	46.4
384.704	42.33
384.919	52.21
385.133	33.62
385.348	33.81
385.562	17.73
385.777	68.1
385.991	30.52
386.206	24.32
386.42	7.65
386.634	89.8
386.849	52.21
387.063	36.33
387.277	3.2
387.492	19.08
387.706	10.56
387.92	19.28
388.135	59.77
388.349	70.43
388.563	34.2
388.778	54.73
388.992	74.11
389.206	40.01
389.42	111.5
389.635	34.97
389.849	87.86
390.063	85.15
390.277	66.55
390.491	121.96
390.706	59.38
390.92	104.53
391.134	51.83
391.348	76.63
391.562	31.68
391.776	44.08
391.99	10.95
392.205	68.3
392.419	11.72
392.633	53.57
392.847	96.78
393.061	29.93
393.275	89.61
393.489	59.19
393.703	62.48
393.917	77.01
394.131	14.82
394.345	52.99
394.559	77.98
394.773	47.18
394.986	67.91
395.2	43.3
395.414	59.38
395.628	41.75
395.842	74.3
396.056	32.65
396.27	21.22
396.484	54.93
396.697	80.31
396.911	83.8
397.125	64.03
397.339	79.73
397.553	62.87
397.766	98.33
397.98	69.26
398.194	95.23
398.408	41.37
398.621	83.02
398.835	64.81
399.049	74.11
399.262	126.42
399.476	83.41
399.69	73.33
399.903	150.44
400.117	96.97
400.331	107.43
400.544	51.83
400.758	184.74
400.971	79.34
401.185	127.78
401.398	76.24
401.612	141.92
401.826	101.23
402.039	100.46
402.253	28.58
402.466	107.05
402.68	73.91
402.893	113.63
403.106	108.4
403.32	86.12
403.533	122.93
403.747	105.88
403.96	100.26
404.174	109.18
404.387	74.3
404.6	123.9
404.814	147.93
405.027	104.14
405.24	99.68
405.454	104.33
405.667	122.16
405.88	63.84
406.094	113.44
406.307	120.22
406.52	104.33
406.733	55.12
406.947	83.02
407.16	169.24
407.373	116.73
407.586	79.53
407.799	76.82
408.012	128.75
408.226	135.14
408.439	160.13
408.652	96.58
408.865	136.49
409.078	159.74
409.291	109.56
409.504	83.6
409.717	123.51
409.93	135.72
410.143	111.7
410.357	84.57
410.57	72.17
410.783	129.91
410.996	132.04
411.209	127.2
411.421	149.28
411.634	120.41
411.847	93.1
412.06	130.1
412.273	133.98
412.486	145.79
412.699	194.81
412.912	115.18
413.125	156.84
413.338	133.59
413.55	171.37
413.763	138.24
413.976	150.83
414.189	129.13
414.402	136.11
414.615	193.07
414.827	131.07
415.04	163.23
415.253	178.54
415.466	164.2
415.678	196.56
415.891	170.4
416.104	142.89
416.316	145.21
416.529	129.71
416.742	144.24
416.954	185.13
417.167	117.7
417.38	139.79
417.592	185.32
417.805	101.62
418.017	114.99
418.23	159.94
418.442	140.18
418.655	138.43
418.868	183.19
419.08	196.56
419.293	209.54
419.505	167.3
419.718	163.04
419.93	173.31
420.142	131.46
420.355	197.91
420.567	176.6
420.78	200.63
420.992	164.01
421.205	205.28
421.417	144.24
421.629	159.55
421.842	159.16
422.054	110.53
422.266	179.51
422.479	195.39
422.691	135.53
422.903	194.23
423.115	127.58
423.328	162.84
423.54	148.31
423.752	150.83
423.964	160.91
424.177	170.01
424.389	161.29
424.601	272.12
424.813	206.63
425.025	206.83
425.238	177.57
425.45	150.44
425.662	170.98
425.874	424.98
426.086	193.07
426.298	192.29
426.51	151.8
426.722	189.78
426.934	174.08
427.146	178.34
427.358	148.12
427.57	197.53
427.782	180.09
427.994	171.37
428.206	164.78
428.418	142.11
428.63	204.5
428.842	216.13
429.054	197.14
429.266	201.01
429.478	149.28
429.69	152.77
429.902	112.28
430.114	205.66
430.325	176.02
430.537	165.17
430.749	154.51
430.961	83.6
431.173	165.75
431.384	179.89
431.596	101.81
431.808	169.04
432.02	191.91
432.231	231.04
432.443	262.43
432.655	209.54
432.867	179.12
433.078	195.2
433.29	275.22
433.502	253.52
433.713	241.7
433.925	203.73
434.136	232.98
434.348	174.08
434.56	143.66
434.771	288.78
434.983	158.39
435.194	199.66
435.406	188.23
435.617	255.84
435.829	296.53
436.04	251.58
436.252	236.66
436.463	295.76
436.675	247.12
436.886	234.53
437.098	234.72
437.309	317.07
437.521	254.1
437.732	250.03
437.943	234.53
438.155	258.75
438.366	199.46
438.578	327.14
438.789	225.42
439	257.01
439.211	218.45
439.423	252.16
439.634	251.97
439.845	268.24
440.057	269.41
440.268	282.58
440.479	224.65
440.69	277.54
440.902	238.41
441.113	266.89
441.324	238.41
441.535	295.76
441.746	335.28
441.957	251.58
442.168	270.96
442.38	302.73
442.591	325.01
442.802	250.61
443.013	264.76
443.224	290.52
443.435	290.14
443.646	246.16
443.857	296.92
444.068	262.62
444.279	260.3
444.49	358.53
444.701	291.88
444.912	385.46
445.123	350.39
445.334	301.37
445.545	307.96
445.756	289.75
445.967	255.26
446.178	304.09
446.388	313.58
446.599	339.74
446.81	322.3
447.021	318.81
447.232	353.88
447.443	371.7
447.653	278.12
447.864	369.19
448.075	331.21
448.286	335.86
448.496	319.78
448.707	367.25
448.918	323.27
449.129	402.51
449.339	324.43
449.55	356.4
449.761	311.84
449.971	389.14
450.182	329.27
450.393	359.3
450.603	331.6
450.814	398.25
451.024	364.73
451.235	399.02
451.446	414.52
451.656	399.22
451.867	353.49
452.077	365.5
452.288	426.15
452.498	417.82
452.709	365.5
452.919	359.11
453.13	336.05
453.34	401.35
453.55	288.39
453.761	366.67
453.971	368.99
454.182	398.44
454.392	387.4
454.602	457.92
454.813	375
455.023	414.33
455.233	332.95
455.444	378.1
455.654	322.3
455.864	385.07
456.075	404.83
456.285	345.16
456.495	366.28
456.705	395.73
456.916	445.33
457.126	446.3
457.336	421.11
457.546	316.49
457.756	381.2
457.967	420.53
458.177	381
458.387	396.7
458.597	384.88
458.807	411.42
459.017	393.79
459.227	378.68
459.437	408.9
459.647	423.24
459.857	432.93
460.068	387.79
460.278	456.57
460.488	445.72
460.698	471.48
460.908	448.62
461.117	379.84
461.327	397.67
461.537	436.03
461.747	433.7
461.957	423.24
462.167	523.21
462.377	468.77
462.587	438.74
462.797	452.69
463.007	418.01
463.216	447.07
463.426	478.27
463.636	452.69
463.846	406
464.056	401.15
464.265	486.98
464.475	421.88
464.685	423.24
464.895	457.53
465.104	414.52
465.314	462.96
465.524	444.17
465.733	414.52
465.943	510.43
466.153	511.59
466.362	502.1
466.572	457.15
466.782	449.01
466.991	489.11
467.201	508.68
467.41	421.5
467.62	482.72
467.829	482.14
468.039	505.97
468.249	449.59
468.458	463.73
468.668	494.35
468.877	474.78
469.086	524.18
469.296	514.11
469.505	464.12
469.715	532.71
469.924	529.03
470.134	575.91
470.343	535.81
470.552	453.47
470.762	483.11
470.971	497.45
471.18	505
471.39	510.43
471.599	463.54
471.808	534.65
472.018	472.65
472.227	552.66
472.436	574.75
472.645	528.83
472.855	512.75
473.064	582.5
473.273	568.36
473.482	575.33
473.691	585.02
473.901	583.86
474.11	557.7
474.319	627.26
474.528	562.35
474.737	606.14
474.946	583.86
475.155	602.07
475.364	611.18
475.573	622.22
475.783	624.54
475.992	619.31
476.201	642.18
476.41	610.4
476.619	554.99
476.828	592.77
477.037	562.35
477.245	590.44
477.454	667.94
477.663	592.38
477.872	620.28
478.081	696.42
478.29	635.98
478.499	720.26
478.708	677.44
478.917	722.19
479.125	681.7
479.334	691.58
479.543	678.41
479.752	686.35
479.961	702.43
480.169	726.46
480.378	666.01
480.587	814.42
480.796	722.39
481.004	699.91
481.213	756.68
481.422	725.87
481.63	750.87
481.839	765.4
482.048	793.1
482.256	766.17
482.465	765.59
482.674	759.97
482.882	795.62
483.091	848.13
483.299	776.83
483.508	827.4
483.716	788.26
483.925	784
484.134	792.33
484.342	783.03
484.551	783.03
484.759	820.62
484.967	840.18
485.176	841.93
485.384	865.37
485.593	818.49
485.801	822.94
486.01	785.35
486.218	754.94
486.426	692.55
486.635	700.69
486.843	711.92
487.051	767.34
487.26	730.52
487.468	780.32
487.676	801.63
487.885	785.55
488.093	828.37
488.301	844.06
488.509	852.58
488.717	900.63
488.926	835.92
489.134	840.57
489.342	856.65
489.55	854.13
489.758	856.27
489.967	842.9
490.175	961.66
490.383	915.17
490.591	982.4
490.799	880.68
491.007	978.13
491.215	952.56
491.423	909.35
491.631	942.68
491.839	908.97
492.047	987.82
492.255	880.1
492.463	866.73
492.671	873.7
492.879	966.51
493.087	946.16
493.295	956.05
493.503	951.59
493.711	1028.31
493.919	1032.77
494.127	1000.8
494.334	1029.67
494.542	999.06
494.75	1009.52
494.958	987.24
495.166	1049.24
495.374	1038.39
495.581	1041.29
495.789	1051.56
495.997	1099.61
496.205	1026.96
496.412	1047.88
496.62	1048.66
496.828	1044.01
497.035	1031.41
497.243	1086.24
497.451	1101.55
497.658	1085.28
497.866	1102.52
498.074	1139.33
498.281	1048.46
498.489	1154.64
498.696	1047.3
498.904	1068.03
499.112	1048.46
499.319	1143.59
499.527	1088.96
499.734	1145.14
499.942	1070.74
500.149	1112.98
500.357	1132.55
500.564	1102.71
500.771	1118.6
500.979	1086.24
501.186	1068.03
501.394	1120.54
501.601	1103.68
501.808	1124.8
502.016	1138.94
502.223	1139.14
502.43	1131.39
502.638	1128.87
502.845	1129.06
503.052	1211.79
503.26	1186.22
503.467	1214.89
503.674	1203.07
503.881	1226.9
504.089	1261.2
504.296	1192.8
504.503	1128.67
504.71	1198.42
504.917	1199
505.125	1207.53
505.332	1237.37
505.539	1288.52
505.746	1328.82
505.953	1262.75
506.16	1305.76
506.367	1358.65
506.574	1372.6
506.781	1367.95
506.988	1296.07
507.195	1334.05
507.402	1310.41
507.609	1342.77
507.816	1303.05
508.023	1345.09
508.23	1349.74
508.437	1319.71
508.644	1382.29
508.851	1414.06
509.058	1415.23
509.265	1376.67
509.472	1455.33
509.679	1506.68
509.885	1426.46
510.092	1473.93
510.299	1477.42
510.506	1483.81
510.713	1478.39
510.92	1472.38
511.126	1479.55
511.333	1557.05
511.54	1553.17
511.746	1574.1
511.953	1581.46
512.16	1635.71
512.367	1614.59
512.573	1607.81
512.78	1604.52
512.987	1571.19
513.193	1559.18
513.4	1562.28
513.606	1637.26
513.813	1623.7
514.02	1627.57
514.226	1676.2
514.433	1671.75
514.639	1586.31
514.846	1695.39
515.052	1634.35
515.259	1673.69
515.465	1712.24
515.672	1725.03
515.878	1807.18
516.085	1745.37
516.291	1782.38
516.497	1789.74
516.704	1717.67
516.91	1693.06
517.117	1589.41
517.323	1568.29
517.529	1644.43
517.736	1622.15
517.942	1677.75
518.148	1681.82
518.354	1720.57
518.561	1734.13
518.767	1723.67
518.973	1783.15
519.179	1814.73
519.386	1803.5
519.592	1789.55
519.798	1849.22
520.004	1983.29
520.21	1933.89
520.417	1973.22
520.623	2015.07
520.829	2032.31
521.035	2027.27
521.241	2035.99
521.447	2080.17
521.653	2159.8
521.859	2132.48
522.065	2139.84
522.271	2234.39
522.477	2175.49
522.683	2236.71
522.889	2181.5
523.095	2197.97
523.301	2177.62
523.507	2175.49
523.713	2185.76
523.919	2181.5
524.125	2281.66
524.331	2282.63
524.537	2386.48
524.742	2363.04
524.948	2400.43
525.154	2396.17
525.36	2491.88
525.566	2433.17
525.772	2469.79
525.977	2425.81
526.183	2454.68
526.389	2501.18
526.595	2362.07
526.8	2363.43
527.006	2258.22
527.212	2250.08
527.417	2215.02
527.623	2257.83
527.829	2322.74
528.034	2378.93
528.24	2365.75
528.446	2416.71
528.651	2523.65
528.857	2546.13
529.062	2577.13
529.268	2560.47
529.473	2642.62
529.679	2652.3
529.884	2713.33
530.09	2664.9
530.295	2668.96
530.501	2681.95
530.706	2689.31
530.912	2649.2
531.117	2716.05
531.323	2718.76
531.528	2742.98
531.733	2786.76
531.939	2757.31
532.144	2769.71
532.35	2774.17
532.555	2784.44
532.76	2692.8
532.966	2728.83
533.171	2714.11
533.376	2659.86
533.581	2656.95
533.787	2713.53
533.992	2743.75
534.197	2822.41
534.402	2817.96
534.607	2793.16
534.813	2864.65
535.018	2827.06
535.223	2888.29
535.428	2857.29
535.633	2915.8
535.838	2928.59
536.043	2954.55
536.249	3026.82
536.454	2928.39
536.659	2991.36
536.864	2964.04
537.069	2939.82
537.274	2883.44
537.479	2927.04
537.684	2909.79
537.889	2841.01
538.094	2990.39
538.299	2946.99
538.504	3026.04
538.708	2980.9
538.913	3017.13
539.118	3009.77
539.323	3037.47
539.528	2926.46
539.733	2992.72
539.938	2987.87
540.142	2993.3
540.347	2951.06
540.552	2939.05
540.757	2916.38
540.962	2952.8
541.166	2838.69
541.371	2880.54
541.576	2913.67
541.781	2855.54
541.985	2937.69
542.19	2915.61
542.395	3057.43
542.599	3058.59
542.804	2967.34
543.008	3089.59
543.213	3015.19
543.418	2976.64
543.622	3012.67
543.827	2993.69
544.031	3075.06
544.236	3086.3
544.44	3049.87
544.645	3137.64
544.849	3066.73
545.054	3119.23
545.258	3189.18
545.463	3188.79
545.667	3066.53
545.872	3125.63
546.076	3097.15
546.281	3109.74
546.485	3057.43
546.689	3095.6
546.894	3148.3
547.098	3133.57
547.302	3109.74
547.507	3154.11
547.711	3151.01
547.915	3193.63
548.119	3052.39
548.324	3079.52
548.528	3106.45
548.732	3143.26
548.936	3181.23
549.141	3153.91
549.345	3112.84
549.549	3232.77
549.753	3183.17
549.957	3248.66
550.161	3252.14
550.366	3212.62
550.57	3189.56
550.774	3177.55
550.978	3192.08
551.182	3203.71
551.386	3188.79
551.59	3169.03
551.794	3188.01
551.998	3236.26
552.202	3153.33
552.406	3167.86
552.61	3241.49
552.814	3189.95
553.018	3236.64
553.222	3169.41
553.426	3187.63
553.63	3263.58
553.833	3186.08
554.037	3139.38
554.241	3200.8
554.445	3212.43
554.649	3219.59
554.853	3203.71
555.056	3233.74
555.26	3265.51
555.464	3240.13
555.668	3252.34
555.871	3240.52
556.075	3232.96
556.279	3191.89
556.483	3158.56
556.686	3175.23
556.89	3203.71
557.094	3202.74
557.297	3090.75
557.501	3189.95
557.704	3082.42
557.908	3098.7
558.112	3102.38
558.315	3142.1
558.519	3084.94
558.722	3085.91
558.926	3037.86
559.129	2956.87
559.333	2984.58
559.536	2977.8
559.74	2974.12
559.943	2925.49
560.147	2999.11
560.35	2947.77
560.553	2984.97
560.757	2955.32
560.96	3014.03
561.164	2983.61
561.367	3048.13
561.57	2990.97
561.774	2953.39
561.977	2967.14
562.18	2935.75
562.384	3021
562.587	2958.42
562.79	2928.59
562.993	2881.89
563.197	2954.35
563.4	2955.71
563.603	2986.9
563.806	2988.07
564.009	2915.41
564.212	2922.19
564.416	2844.69
564.619	2894.1
564.822	2827.45
565.025	2922.58
565.228	2853.8
565.431	2865.81
565.634	2769.91
565.837	2773.78
566.04	2780.37
566.243	2734.84
566.446	2619.75
566.649	2743.17
566.852	2639.71
567.055	2715.66
567.258	2738.91
567.461	2802.26
567.664	2795.48
567.867	2703.45
568.07	2742.98
568.273	2723.21
568.475	2763.9
568.678	2660.44
568.881	2683.69
569.084	2606.58
569.287	2524.24
569.489	2572.87
569.692	2596.89
569.895	2641.07
570.098	2512.03
570.3	2530.82
570.503	2479.29
570.706	2482.77
570.909	2470.37
571.111	2420.58
571.314	2421.16
571.516	2456.04
571.719	2438.41
571.922	2392.88
572.124	2431.43
572.327	2424.65
572.529	2403.53
572.732	2407.21
572.935	2438.02
573.137	2526.75
573.34	2365.94
573.542	2462.82
573.745	2456.04
573.947	2449.64
574.15	2364.78
574.352	2395.98
574.554	2453.13
574.757	2306.85
574.959	2322.35
575.162	2340.56
575.364	2288.45
575.566	2372.34
575.769	2254.73
575.971	2271.4
576.173	2157.86
576.376	2254.35
576.578	2335.91
576.78	2325.84
576.982	2197.19
577.185	2296
577.387	2195.64
577.589	2199.32
577.791	2254.15
577.993	2260.93
578.196	2201.07
578.398	2190.8
578.6	2257.83
578.802	2175.3
579.004	2140.81
579.206	2166.19
579.408	2199.71
579.61	2172
579.812	2262.68
580.014	2156.31
580.216	2155.34
580.418	2241.56
580.62	2154.57
580.822	2160.57
581.024	2198.35
581.226	2238.65
581.428	2201.45
581.63	2288.06
581.832	2145.07
582.034	2245.24
582.236	2172.2
582.438	2254.54
582.64	2299.88
582.841	2294.84
583.043	2262.87
583.245	2261.9
583.447	2243.5
583.649	2209.98
583.85	2219.86
584.052	2251.05
584.254	2192.73
584.456	2270.23
584.657	2162.9
584.859	2288.64
585.061	2189.83
585.262	2191.77
585.464	2120.08
585.666	2178.4
585.867	2153.4
586.069	2217.34
586.27	2101.48
586.472	2142.75
586.674	2091.6
586.875	2105.74
587.077	2119.89
587.278	2165.42
587.48	2091.02
587.681	2217.53
587.883	2130.93
588.084	2052.66
588.285	2068.15
588.487	2055.75
588.688	2042.97
588.89	1961.01
589.091	1930.21
589.292	1895.72
589.494	1850
589.695	1803.5
589.896	1753.7
590.098	1734.91
590.299	1784.7
590.5	1761.84
590.702	1796.91
590.903	1864.72
591.104	1932.92
591.305	1887.78
591.507	1963.34
591.708	1935.63
591.909	1887
592.11	1974.96
592.311	1943.58
592.512	1927.3
592.714	1839.92
592.915	1906.38
593.116	1904.83
593.317	1933.69
593.518	1906.38
593.719	1886.23
593.92	1956.17
594.121	1968.37
594.322	1935.63
594.523	1917.61
594.724	1844.57
594.925	1900.56
595.126	1892.04
595.327	1881.77
595.528	1863.56
595.729	1894.56
595.929	1877.51
596.13	1890.88
596.331	1905.6
596.532	1915.68
596.733	1953.07
596.934	1952.49
597.135	1955.01
597.335	1933.5
597.536	1910.64
597.737	1942.03
597.938	1896.3
598.138	1930.01
598.339	1934.66
598.54	1911.8
598.74	1868.98
598.941	1898.04
599.142	1972.44
599.342	1892.23
599.543	1899.4
599.744	1896.69
599.944	1851.16
600.145	1901.53
600.345	1919.94
600.546	1937.18
600.746	1938.34
600.947	1968.96
601.147	1880.61
601.348	1937.38
601.548	1870.53
601.749	1905.79
601.949	1847.09
602.15	1844.57
602.35	1907.54
602.551	1848.25
602.751	1823.84
602.951	1852.13
603.152	1784.12
603.352	1894.56
603.552	1879.83
603.753	1938.15
603.953	1926.33
604.153	1915.48
604.354	1924.59
604.554	1914.71
604.754	1902.11
604.954	1884.29
605.155	1881.19
605.355	1904.24
605.555	1911.03
605.755	1971.67
605.955	1901.34
606.155	1911.03
606.356	1879.25
606.556	1899.01
606.756	1885.64
606.956	1850.96
607.156	1936.41
607.356	1859.1
607.556	1875.96
607.756	1839.15
607.956	1891.84
608.156	1847.67
608.356	1797.88
608.556	1909.86
608.756	1804.46
608.956	1831.98
609.156	1849.22
609.356	1791.29
609.556	1798.46
609.755	1818.61
609.955	1783.15
610.155	1808.15
610.355	1825.97
610.555	1784.7
610.755	1769.01
610.954	1752.15
611.154	1768.23
611.354	1809.5
611.554	1750.8
611.753	1774.82
611.953	1706.62
612.153	1770.75
612.352	1779.86
612.552	1708.37
612.752	1670.2
612.951	1771.33
613.151	1763.97
613.351	1707.98
613.55	1690.35
613.75	1752.54
613.949	1673.69
614.149	1736.27
614.348	1676.59
614.548	1657.99
614.747	1653.73
614.947	1687.05
615.146	1613.43
615.346	1701.2
615.545	1663.22
615.745	1669.04
615.944	1700.04
616.144	1657.22
616.343	1675.62
616.542	1638.04
616.742	1578.94
616.941	1600.84
617.14	1542.32
617.34	1587.08
617.539	1608.59
617.738	1561.7
617.938	1646.75
618.137	1615.95
618.336	1556.27
618.535	1593.09
618.734	1643.27
618.934	1591.92
619.133	1609.94
619.332	1612.27
619.531	1547.56
619.73	1600.45
619.929	1607.42
620.128	1645.4
620.328	1661.48
620.527	1583.79
620.726	1603.74
620.925	1625.05
621.124	1583.98
621.323	1607.62
621.522	1548.72
621.721	1556.47
621.92	1505.32
622.119	1606.84
622.318	1527.41
622.517	1563.83
622.715	1526.24
622.914	1495.05
623.113	1522.18
623.312	1477.81
623.511	1557.44
623.71	1503.77
623.909	1482.26
624.107	1553.95
624.306	1491.56
624.505	1481.1
624.704	1462.11
624.902	1488.27
625.101	1541.16
625.3	1445.64
625.499	1427.24
625.697	1448.74
625.896	1446.42
626.095	1432.47
626.293	1400.31
626.492	1404.18
626.69	1464.24
626.889	1432.47
627.088	1498.73
627.286	1430.73
627.485	1397.4
627.683	1402.63
627.882	1449.13
628.08	1331.53
628.279	1346.25
628.477	1407.28
628.676	1329.98
628.874	1404.57
629.073	1351.1
629.271	1334.63
629.469	1402.63
629.668	1367.56
629.866	1374.93
630.065	1341.6
630.263	1391.4
630.461	1352.07
630.66	1380.93
630.858	1404.96
631.056	1394.11
631.254	1423.95
631.453	1387.91
631.651	1409.41
631.849	1346.25
632.047	1377.83
632.245	1376.48
632.444	1397.6
632.642	1424.14
632.84	1400.31
633.038	1394.11
633.236	1370.28
633.434	1379.38
633.632	1382.87
633.83	1408.83
634.028	1414.45
634.227	1386.36
634.425	1459.01
634.623	1359.04
634.821	1384.42
635.019	1402.05
635.216	1374.73
635.414	1445.06
635.612	1405.73
635.81	1379.77
636.008	1443.9
636.206	1396.24
636.404	1413.87
636.602	1387.91
636.8	1384.23
636.997	1421.43
637.195	1420.65
637.393	1369.7
637.591	1445.64
637.789	1420.46
637.986	1387.13
638.184	1393.14
638.382	1422.98
638.58	1458.43
638.777	1462.11
638.975	1362.72
639.173	1362.33
639.37	1418.52
639.568	1403.21
639.765	1386.16
639.963	1385.78
640.161	1396.05
640.358	1410.77
640.556	1311.77
640.753	1313.9
640.951	1310.99
641.148	1366.6
641.346	1354.78
641.543	1304.4
641.741	1345.87
641.938	1279.6
642.136	1340.83
642.333	1267.4
642.531	1356.71
642.728	1347.42
642.925	1301.88
643.123	1312.73
643.32	1300.53
643.517	1265.07
643.715	1303.63
643.912	1271.08
644.109	1260.62
644.306	1270.3
644.504	1258.68
644.701	1269.53
644.898	1320.87
645.095	1234.07
645.293	1271.85
645.49	1245.12
645.687	1229.62
645.884	1270.11
646.081	1168.01
646.278	1217.02
646.475	1177.89
646.672	1184.28
646.87	1193
647.067	1194.16
647.264	1196.49
647.461	1124.61
647.658	1134.1
647.855	1164.71
648.052	1119.57
648.249	1103.1
648.446	1081.59
648.642	1115.5
648.839	1101.94
649.036	1081.79
649.233	1068.42
649.43	1050.59
649.627	1028.7
649.824	1043.23
650.021	1031.61
650.217	1083.92
650.414	1043.04
650.611	1097.09
650.808	1070.94
651.004	1108.52
651.201	1094.19
651.398	1149.21
651.595	1091.67
651.791	1049.82
651.988	1115.5
652.185	1044.59
652.381	1102.32
652.578	1013.59
652.775	1054.86
652.971	1059.51
653.168	1050.79
653.364	1105.23
653.561	1030.44
653.757	1057.57
653.954	1111.24
654.15	1017.46
654.347	1099.22
654.543	1054.86
654.74	1018.04
654.936	1019.4
655.133	1028.89
655.329	1044.2
655.525	1019.98
655.722	1021.34
655.918	963.41
656.115	997.12
656.311	908.19
656.507	869.63
656.704	856.07
656.9	921.36
657.096	888.62
657.292	880.48
657.489	945.78
657.685	938.41
657.881	935.31
658.077	970.38
658.273	985.88
658.47	988.21
658.666	963.02
658.862	1039.36
659.058	993.63
659.254	1023.28
659.45	972.13
659.646	1001
659.842	1016.49
660.038	1016.88
660.234	973.48
660.43	999.64
660.626	1058.93
660.822	1025.21
661.018	1051.18
661.214	977.16
661.41	918.26
661.606	1012.81
661.802	1038
661.998	988.6
662.194	952.17
662.39	995.57
662.586	967.67
662.781	990.15
662.977	1003.51
663.173	1008.94
663.369	938.41
663.564	966.9
663.76	1004.48
663.956	979.88
664.152	991.7
664.347	926.98
664.543	934.15
664.739	918.07
664.934	892.11
665.13	874.67
665.326	969.03
665.521	936.09
665.717	910.13
665.912	905.48
666.108	833.79
666.304	900.63
666.499	917.68
666.695	817.32
666.89	878.74
667.086	915.55
667.281	895.21
667.477	961.47
667.672	907.61
667.867	891.33
668.063	918.85
668.258	883.39
668.454	906.64
668.649	949.65
668.844	866.73
669.04	898.12
669.235	885.33
669.43	889.01
669.626	838.63
669.821	867.7
670.016	831.66
670.211	891.92
670.407	839.6
670.602	889.01
670.797	854.52
670.992	905.28
671.187	840.18
671.382	907.22
671.578	859.75
671.773	887.85
671.968	798.34
672.163	847.74
672.358	877.19
672.553	839.8
672.748	853.75
672.943	908.38
673.138	833.79
673.333	866.73
673.528	825.65
673.723	887.07
673.918	864.21
674.113	822.36
674.308	879.9
674.503	854.52
674.698	884.75
674.892	855.49
675.087	880.48
675.282	881.26
675.477	833.4
675.672	844.64
675.867	817.32
676.061	824.49
676.256	779.15
676.451	848.9
676.646	839.02
676.84	813.25
677.035	816.16
677.23	793.69
677.424	834.37
677.619	888.23
677.814	904.12
678.008	879.71
678.203	784.39
678.397	818.1
678.592	841.35
678.787	860.53
678.981	847.35
679.176	815.97
679.37	829.14
679.565	831.85
679.759	840.38
679.954	853.36
680.148	877.19
680.342	895.4
680.537	853.17
680.731	834.76
680.926	865.76
681.12	841.15
681.314	827.01
681.509	844.64
681.703	836.31
681.897	865.18
682.092	823.72
682.286	830.3
682.48	901.22
682.674	887.65
682.869	839.6
683.063	875.06
683.257	917.3
683.451	827.4
683.645	884.55
683.839	868.28
684.034	859.75
684.228	904.51
684.422	862.47
684.616	814.42
684.81	878.93
685.004	843.67
685.198	869.25
685.392	907.03
685.586	850.07
685.78	873.12
685.974	883.2
686.168	915.36
686.362	941.51
686.556	844.06
686.75	820.23
686.944	789.23
687.138	777.22
687.331	682.86
687.525	715.02
687.719	620.86
687.913	711.15
688.107	727.42
688.301	694.1
688.494	747.57
688.688	715.61
688.882	697.01
689.076	710.96
689.269	715.02
689.463	808.41
689.657	772.37
689.85	773.92
690.044	784.97
690.238	821.59
690.431	803.76
690.625	821.2
690.818	849.68
691.012	842.12
691.205	902.38
691.399	893.27
691.593	916.91
691.786	989.37
691.98	975.81
692.173	1013.2
692.366	1010.49
692.56	1038
692.753	1079.08
692.947	1023.47
693.14	1073.46
693.333	1070.36
693.527	1052.14
693.72	1097.48
693.914	1057.18
694.107	1070.55
694.3	1138.56
694.493	1093.41
694.687	1193.39
694.88	1123.44
695.073	1216.05
695.266	1223.22
695.46	1238.92
695.653	1276.5
695.846	1282.12
696.039	1243.57
696.232	1245.31
696.425	1350.9
696.618	1406.31
696.812	1374.54
697.005	1466.96
697.198	1530.31
697.391	1491.95
697.584	1547.75
697.777	1556.08
697.97	1561.12
698.163	1590.18
698.356	1568.29
698.549	1633.19
698.742	1617.89
698.935	1593.67
699.127	1639.78
699.32	1582.24
699.513	1613.82
699.706	1636.68
699.899	1706.04
700.092	1644.04
700.285	1758.35
700.477	1661.67
700.67	1712.05
700.863	1759.9
701.056	1842.63
701.248	1798.46
701.441	1856.78
701.634	1809.11
701.826	1922.84
702.019	1788.77
702.212	1828.3
702.404	1878.28
702.597	1850.77
702.79	1897.85
702.982	1943.77
703.175	1955.78
703.367	2037.35
703.56	2061.76
703.752	2080.36
703.945	2073
704.137	2132.09
704.33	2121.05
704.522	2153.6
704.715	2166.58
704.907	2200.29
705.1	2239.62
705.292	2266.75
705.484	2250.86
705.677	2330.29
705.869	2296
706.061	2328.36
706.254	2374.28
706.446	2329.71
706.638	2390.36
706.831	2465.53
707.023	2406.82
707.215	2518.23
707.407	2524.82
707.599	2517.84
707.792	2557.56
707.984	2535.86
708.176	2586.43
708.368	2553.69
708.56	2582.17
708.752	2615.1
708.944	2592.63
709.136	2695.9
709.329	2673.61
709.521	2742.78
709.713	2726.12
709.905	2773.98
710.097	2793.93
710.289	2742.2
710.481	2807.11
710.672	2820.48
710.864	2825.9
711.056	2874.92
711.248	2893.32
711.44	2908.44
711.632	2890.22
711.824	2953.19
712.016	2981.87
712.207	2993.1
712.399	3003.76
712.591	3073.12
712.783	3039.99
712.975	3000.66
713.166	3022.17
713.358	3046.97
713.55	3100.63
713.741	3119.81
713.933	3132.8
714.125	3101.41
714.316	3080.48
714.508	3137.64
714.7	3158.56
714.891	3114.39
715.083	3182.4
715.274	3149.46
715.466	3185.88
715.657	3237.42
715.849	3083
716.04	3128.34
716.232	3132.21
716.423	3093.08
716.615	3037.28
716.806	2921.42
716.998	2869.69
717.189	2752.28
717.381	2670.32
717.572	2585.27
717.763	2623.63
717.955	2550.39
718.146	2538.19
718.337	2458.17
718.528	2380.86
718.72	2328.55
718.911	2355.29
719.102	2304.91
719.293	2368.46
719.485	2321.96
719.676	2310.34
719.867	2271.4
720.058	2280.5
720.249	2242.53
720.44	2284.76
720.632	2365.94
720.823	2436.86
721.014	2560.47
721.205	2636.22
721.396	2749.37
721.587	2858.84
721.778	2897.97
721.969	2949.9
722.16	3042.32
722.351	3114.78
722.542	3242.07
722.733	3231.03
722.924	3156.82
723.115	3178.33
723.305	3125.05
723.496	3138.22
723.687	2975.09
723.878	3027.01
724.069	2961.33
724.26	2939.82
724.45	2888.29
724.641	2909.02
724.832	2929.55
725.023	2848.57
725.213	2884.61
725.404	2847.79
725.595	2850.12
725.785	2834.04
725.976	2934.2
726.167	2850.89
726.357	2906.31
726.548	3026.43
726.739	2940.21
726.929	3002.6
727.12	3006.67
727.31	3025.65
727.501	2951.64
727.691	2987.87
727.882	2975.28
728.072	3018.1
728.263	3031.85
728.453	3091.33
728.644	3084.36
728.834	3061.11
729.024	3088.04
729.215	3008.99
729.405	3033.21
729.596	3134.73
729.786	3171.55
729.976	3161.66
730.167	3194.79
730.357	3137.83
730.547	3165.54
730.737	3145.58
730.928	3232.96
731.118	3259.7
731.308	3182.01
731.498	3216.3
731.688	3327.51
731.879	3366.26
732.069	3407.92
732.259	3466.23
732.449	3539.86
732.639	3662.69
732.829	3646.61
733.019	3662.69
733.209	3746.01
733.399	3742.91
733.589	3862.84
733.779	3946.34
733.969	3933.94
734.159	3985.48
734.349	4008.92
734.539	4069.37
734.729	4049.61
734.919	4072.47
735.109	4195.89
735.299	4066.66
735.488	4096.88
735.678	4088.74
735.868	4088.36
736.058	4053.68
736.248	4066.08
736.437	3995.75
736.627	4031.4
736.817	4169.15
737.007	4074.6
737.196	4156.94
737.386	4131.76
737.576	4142.03
737.765	4228.44
737.955	4179.42
738.144	4354.57
738.334	4254.79
738.524	4171.09
738.713	4214.87
738.903	4254.01
739.092	4258.47
739.282	4285.01
739.471	4332.87
739.661	4275.13
739.85	4331.12
740.04	4311.55
740.229	4336.55
740.419	4391.96
740.608	4354.18
740.797	4349.33
740.987	4447.95
741.176	4364.45
741.365	4391.77
741.555	4350.88
741.744	4465.39
741.933	4415.98
742.123	4453.38
742.312	4454.35
742.501	4462.68
742.69	4505.11
742.88	4410.17
743.069	4517.7
743.258	4500.84
743.447	4572.34
743.636	4502.39
743.825	4495.23
744.014	4508.4
744.204	4555.29
744.393	4491.16
744.582	4592.1
744.771	4642.86
744.96	4544.83
745.149	4549.67
745.338	4533.01
745.527	4627.56
745.716	4574.47
745.905	4537.66
746.094	4570.59
746.283	4630.27
746.471	4559.74
746.66	4675.99
746.849	4596.56
747.038	4644.41
747.227	4556.84
747.416	4644.02
747.604	4587.26
747.793	4588.81
747.982	4598.49
748.171	4634.72
748.359	4551.99
748.548	4620.97
748.737	4604.5
748.926	4614.57
749.114	4445.05
749.303	4517.89
749.491	4542.69
749.68	4435.75
749.869	4518.86
750.057	4534.36
750.246	4473.91
750.434	4505.3
750.623	4475.08
750.811	4505.69
751	4559.94
751.188	4468.3
751.377	4469.07
751.565	4495.81
751.754	4450.08
751.942	4427.22
752.131	4476.82
752.319	4453.57
752.507	4389.44
752.696	4460.35
752.884	4428.96
753.072	4428.38
753.261	4439.43
753.449	4438.46
753.637	4429.93
753.825	4465.78
754.014	4447.37
754.202	4424.51
754.39	4475.66
754.578	4454.93
754.766	4394.09
754.955	4350.3
755.143	4418.5
755.331	4361.73
755.519	4395.06
755.707	4429.55
755.895	4350.3
756.083	4372
756.271	4266.22
756.459	4369.29
756.647	4340.03
756.835	4309.04
757.023	4300.51
757.211	4289.27
757.399	4281.33
757.587	4305.94
757.775	4239.87
757.963	4234.83
758.151	4256.53
758.339	4225.14
758.526	4198.21
758.714	4226.11
758.902	4121.49
759.09	3960.29
759.278	3699.7
759.465	3403.85
759.653	2983.03
759.841	2666.83
760.028	2316.15
760.216	2003.06
760.404	1883.71
760.591	1559.57
760.779	1310.99
760.967	1100.19
761.154	922.72
761.342	982.98
761.529	953.33
761.717	976.78
761.905	985.5
762.092	1067.84
762.28	972.32
762.467	958.18
762.655	902.96
762.842	913.81
763.029	918.46
763.217	928.73
763.404	914.2
763.592	926.01
763.779	892.69
763.966	938.22
764.154	1004.29
764.341	1040.33
764.528	1036.84
764.716	1157.54
764.903	1224.39
765.09	1301.88
765.277	1341.6
765.465	1581.07
765.652	1609.56
765.839	1701.2
766.026	1871.7
766.213	1908.89
766.4	2114.65
766.588	2283.21
766.775	2325.45
766.962	2478.32
767.149	2588.56
767.336	2754.41
767.523	2766.23
767.71	2895.46
767.897	3073.51
768.084	3136.28
768.271	3208.36
768.458	3240.52
768.645	3358.51
768.832	3329.84
769.019	3426.9
769.206	3468.75
769.392	3547.03
769.579	3656.11
769.766	3629.95
769.953	3572.99
770.14	3665.6
770.327	3633.63
770.513	3722.95
770.7	3765.96
770.887	3706.68
771.073	3726.24
771.26	3740.77
771.447	3718.3
771.634	3696.21
771.82	3832.22
772.007	3669.67
772.193	3784.56
772.38	3788.24
772.567	3751.62
772.753	3784.76
772.94	3804.52
773.126	3832.22
773.313	3814.2
773.499	3773.52
773.686	3819.24
773.872	3729.15
774.059	3781.07
774.245	3735.93
774.432	3737.09
774.618	3652.43
774.804	3736.12
774.991	3702.99
775.177	3780.49
775.363	3678.78
775.55	3702.41
775.736	3631.69
775.922	3739.22
776.109	3718.11
776.295	3705.13
776.481	3715.78
776.667	3684.39
776.853	3697.57
777.04	3631.11
777.226	3636.93
777.412	3717.91
777.598	3608.64
777.784	3642.54
777.97	3592.17
778.156	3631.69
778.342	3626.08
778.528	3575.12
778.715	3556.71
778.901	3566.6
779.087	3588.88
779.272	3561.56
779.458	3545.48
779.644	3555.36
779.83	3583.06
780.016	3627.63
780.202	3515.06
780.388	3574.73
780.574	3503.82
780.76	3459.84
780.946	3532.5
781.131	3479.8
781.317	3502.27
781.503	3482.51
781.689	3479.99
781.874	3593.72
782.06	3461.97
782.246	3491.03
782.432	3439.5
782.617	3487.35
782.803	3485.22
782.989	3416.64
783.174	3405.01
783.36	3402.69
783.545	3393
783.731	3400.75
783.916	3327.9
784.102	3373.04
784.288	3329.26
784.473	3363.55
784.659	3322.86
784.844	3387.57
785.029	3329.64
785.215	3337.01
785.4	3260.48
785.586	3409.08
785.771	3236.45
785.956	3297.48
786.142	3269.58
786.327	3270.55
786.512	3240.52
786.698	3227.54
786.883	3202.54
787.068	3199.06
787.254	3238
787.439	3201.77
787.624	3175.42
787.809	3127.37
787.994	3145.58
788.18	3226.76
788.365	3072.93
788.55	3106.83
788.735	3081.45
788.92	3086.49
789.105	3107.41
789.29	3130.28
789.475	3030.5
789.66	3070.41
789.845	2989.62
790.03	3026.04
790.215	3024.68
790.4	3052.97
790.585	3066.92
790.77	3056.27
790.955	2935.37
791.14	3012.67
791.325	3068.86
791.51	2908.82
791.695	3002.99
791.879	2990
792.064	2972.37
792.249	3056.65
792.434	2970.63
792.618	2975.47
792.803	3027.01
792.988	2980.51
793.173	3022.94
793.357	3008.41
793.542	2950.09
793.727	3010.15
793.911	3024.3
794.096	3012.87
794.281	3045.61
794.465	3136.48
794.65	3022.94
794.834	3083.39
795.019	3099.67
795.203	3114.97
795.388	3091.14
795.572	3146.16
795.757	3089.78
795.941	3051.23
796.126	3056.85
796.31	2984.58
796.494	3039.02
796.679	2958.42
796.863	2975.28
797.048	3089.59
797.232	3023.33
797.416	2996.79
797.601	3026.82
797.785	3119.23
797.969	3109.16
798.153	3006.09
798.338	3096.95
798.522	3111.68
798.706	3127.37
798.89	3117.1
799.074	3226.18
799.258	3131.83
799.443	3077.77
799.627	3042.9
799.811	3147.13
799.995	3042.9
800.179	3056.65
800.363	3038.05
800.547	3081.45
800.731	3117.3
800.915	2991.36
801.099	2997.75
801.283	2995.82
801.467	3038.83
801.651	3018.48
801.835	3099.28
802.019	3093.27
802.202	3039.6
802.386	2991.94
802.57	2968.3
802.754	3016.93
802.938	2996.01
803.121	2984.19
803.305	3027.59
803.489	3009.38
803.673	3049.87
803.856	3026.82
804.04	3008.02
804.224	3006.28
804.407	3014.8
804.591	3008.99
804.775	2986.13
804.958	2962.88
805.142	3070.8
805.326	2978.77
805.509	3042.32
805.693	3077.97
805.876	3099.86
806.06	3084.94
806.243	3026.04
806.427	3099.86
806.61	3120.59
806.794	3034.18
806.977	3096.57
807.16	3052.97
807.344	3095.02
807.527	3058.98
807.71	3064.4
807.894	3048.32
808.077	3087.27
808.26	3050.84
808.444	3019.26
808.627	3077.97
808.81	2990.2
808.993	2954.55
809.177	2947.77
809.36	2988.26
809.543	2971.6
809.726	2899.33
809.909	2871.43
810.092	2888.29
810.276	2834.04
810.459	2869.3
810.642	2812.73
810.825	2809.63
811.008	2809.82
811.191	2707.52
811.374	2749.95
811.557	2738.71
811.74	2770.68
811.923	2649.78
812.106	2660.83
812.289	2628.28
812.472	2602.32
812.654	2611.23
812.837	2572.67
813.02	2545.35
813.203	2463.21
813.386	2376.41
813.569	2321.38
813.751	2271.4
813.934	2309.95
814.117	2263.26
814.3	2218.89
814.482	2180.53
814.665	2116.01
814.848	2072.22
815.03	2017.39
815.213	1991.43
815.396	1993.56
815.578	1992.21
815.761	1986.97
815.943	2001.12
816.126	1877.31
816.309	1877.51
816.491	1814.35
816.674	1755.64
816.856	1824.03
817.039	1747.89
817.221	1851.35
817.403	1835.66
817.586	1828.1
817.768	1884.68
817.951	1750.02
818.133	1716.12
818.315	1750.41
818.498	1843.99
818.68	1900.18
818.862	1848.06
819.045	1863.75
819.227	1861.23
819.409	1830.43
819.591	1871.11
819.774	1864.72
819.956	1779.08
820.138	1934.86
820.32	1922.84
820.502	1992.79
820.684	2061.76
820.866	2076.1
821.048	2108.45
821.231	2132.67
821.413	2109.42
821.595	2128.02
821.777	2108.26
821.959	2118.34
822.141	2176.07
822.323	2061.95
822.505	1944.54
822.686	1862.2
822.868	1767.27
823.05	1664.58
823.232	1602.39
823.414	1576.81
823.596	1637.45
823.778	1617.3
823.96	1646.17
824.141	1664
824.323	1690.15
824.505	1805.43
824.687	1824.42
824.868	1912.77
825.05	2000.34
825.232	2062.54
825.413	2116.01
825.595	2044.13
825.777	1978.84
825.958	2049.75
826.14	2057.11
826.321	2077.07
826.503	2041.81
826.685	2071.84
826.866	2104.19
827.048	2094.89
827.229	2037.16
827.411	1949.58
827.592	1950.55
827.773	1911.61
827.955	1844.38
828.136	1863.17
828.318	1844.38
828.499	1894.36
828.68	1837.01
828.862	1855.03
829.043	1885.06
829.224	1784.9
829.406	1789.55
829.587	1787.8
829.768	1801.75
829.949	1847.48
830.131	1862.01
830.312	1865.5
830.493	1831.01
830.674	1868.79
830.855	1849.03
831.036	1861.43
831.218	1919.74
831.399	1923.04
831.58	1889.52
831.761	1892.43
831.942	1872.47
832.123	1845.73
832.304	1784.9
832.485	1833.53
832.666	1865.88
832.847	1885.26
833.028	1862.59
833.209	1853.48
833.389	1845.54
833.57	1789.35
833.751	1818.61
833.932	1885.64
834.113	1846.9
834.294	1833.33
834.475	1870.92
834.655	1961.98
834.836	1935.63
835.017	1883.71
835.198	1882.93
835.378	1868.4
835.559	1924.01
835.74	1890.68
835.92	1880.61
836.101	1877.7
836.281	1917.42
836.462	1932.14
836.643	1940.09
836.823	1964.11
837.004	1966.82
837.184	2014.1
837.365	1980.58
837.545	1982.32
837.726	1935.05
837.906	2011.58
838.087	1960.04
838.267	1949
838.448	1936.21
838.628	1948.61
838.808	1936.6
838.989	1999.76
839.169	1944.35
839.349	2002.28
839.53	1938.54
839.71	2009.84
839.89	1935.24
840.07	2029.79
840.251	1919.94
840.431	1996.66
840.611	1960.63
840.791	1953.84
840.971	1965.47
841.151	1926.53
841.332	1940.67
841.512	1985.04
841.692	1864.14
841.872	1941.64
842.052	1927.88
842.232	1952.88
842.412	1910.06
842.592	1923.23
842.772	1941.64
842.952	1921.49
843.132	1918.39
843.312	1931.76
843.492	1883.13
843.672	1967.99
843.851	1852.13
844.031	1898.82
844.211	1886.23
844.391	1889.13
844.571	1908.89
844.751	1893.78
844.93	1860.85
845.11	1880.41
845.29	1915.68
845.47	1934.47
845.649	1897.85
845.829	1926.72
846.009	1892.23
846.188	1930.79
846.368	1896.11
846.547	1892.43
846.727	1931.18
846.907	1866.27
847.086	1886.42
847.266	1941.44
847.445	1864.91
847.625	1887.39
847.804	1848.45
847.984	1859.68
848.163	1817.64
848.343	1841.86
848.522	1865.69
848.701	1861.23
848.881	1816.48
849.06	1848.06
849.239	1847.67
849.419	1832.75
849.598	1749.05
849.777	1769.78
849.957	1740.14
850.136	1677.75
850.315	1654.12
850.494	1695.39
850.674	1679.69
850.853	1711.47
851.032	1711.66
851.211	1777.92
851.39	1716.7
851.569	1672.52
851.748	1662.25
851.927	1753.9
852.107	1692.09
852.286	1685.89
852.465	1671.36
852.644	1716.31
852.823	1710.5
853.002	1717.08
853.181	1736.27
853.359	1698.68
853.538	1642.3
853.717	1697.13
853.896	1585.14
854.075	1544.84
854.254	1484.59
854.433	1426.46
854.611	1454.17
854.79	1445.64
854.969	1476.64
855.148	1505.9
855.327	1469.86
855.505	1527.41
855.684	1526.44
855.863	1536.32
856.041	1523.73
856.22	1563.83
856.399	1565.77
856.577	1610.14
856.756	1625.64
856.934	1686.28
857.113	1703.14
857.291	1623.7
857.47	1607.62
857.648	1652.18
857.827	1612.27
858.005	1656.64
858.184	1586.5
858.362	1674.46
858.541	1615.76
858.719	1640.75
858.898	1619.82
859.076	1641.52
859.254	1635.32
859.433	1618.85
859.611	1590.57
859.789	1529.92
859.967	1632.22
860.146	1663.61
860.324	1555.69
860.502	1599.09
860.68	1529.54
860.859	1555.31
861.037	1558.79
861.215	1593.28
861.393	1542.13
861.571	1570.22
861.749	1537.67
861.927	1571.39
862.105	1558.6
862.283	1559.76
862.461	1522.18
862.639	1520.43
862.817	1534.77
862.995	1560.54
863.173	1536.32
863.351	1539.61
863.529	1533.02
863.707	1558.02
863.885	1534.96
864.063	1474.51
864.241	1495.83
864.418	1527.99
864.596	1508.42
864.774	1439.06
864.952	1501.83
865.129	1529.15
865.307	1460.76
865.485	1448.55
865.663	1498.54
865.84	1400.11
866.018	1416.2
866.196	1314.67
866.373	1306.92
866.551	1280.77
866.728	1268.37
866.906	1281.73
867.084	1315.06
867.261	1354.39
867.439	1379.77
867.616	1352.26
867.794	1355.36
867.971	1406.51
868.149	1381.9
868.326	1452.23
868.503	1431.11
868.681	1386.55
868.858	1383.06
869.035	1357.1
869.213	1387.91
869.39	1407.48
869.567	1474.32
869.745	1383.06
869.922	1358.65
870.099	1422.98
870.276	1399.34
870.454	1397.01
870.631	1414.84
870.808	1377.45
870.985	1406.31
871.162	1437.9
871.339	1389.46
871.517	1342.18
871.694	1341.99
871.871	1375.51
872.048	1350.13
872.225	1358.85
872.402	1384.61
872.579	1351.87
872.756	1345.09
872.933	1311.96
873.11	1361.75
873.287	1369.31
873.463	1299.75
873.64	1318.35
873.817	1355.75
873.994	1333.85
874.171	1312.35
874.348	1326.68
874.524	1295.3
874.701	1316.42
874.878	1240.27
875.055	1318.35
875.231	1292.97
875.408	1309.44
875.585	1263.33
875.762	1274.76
875.938	1257.13
876.115	1254.03
876.291	1261.39
876.468	1249.38
876.645	1231.55
876.821	1239.3
876.998	1269.92
877.174	1248.6
877.351	1228.07
877.527	1214.31
877.704	1229.81
877.88	1227.1
878.057	1257.52
878.233	1298.01
878.409	1216.83
878.586	1259.84
878.762	1216.64
878.938	1198.23
879.115	1170.33
879.291	1212.57
879.467	1158.12
879.644	1206.17
879.82	1210.05
879.996	1184.47
880.172	1147.47
880.349	1198.04
880.525	1228.26
880.701	1150.76
880.877	1134.87
881.053	1191.45
881.229	1131
881.405	1197.84
881.581	1150.57
881.757	1144.37
881.933	1188.93
882.109	1181.37
882.285	1182.34
882.461	1122.47
882.637	1148.82
882.813	1137.2
882.989	1155.8
883.165	1200.17
883.341	1152.12
883.517	1202.49
883.693	1193.19
883.869	1203.07
884.044	1102.91
884.22	1144.17
884.396	1214.7
884.572	1160.26
884.747	1201.52
884.923	1192.61
885.099	1164.32
885.275	1178.47
885.45	1163.74
885.626	1175.37
885.801	1152.7
885.977	1155.99
886.153	1076.75
886.328	1157.16
886.504	1107.36
886.679	1176.53
886.855	1100.77
887.03	1159.09
887.206	1201.33
887.381	1154.83
887.557	1151.15
887.732	1161.42
887.908	1171.3
888.083	1195.52
888.258	1163.94
888.434	1127.12
888.609	1134.49
888.784	1181.37
888.96	1137.01
889.135	1145.92
889.31	1086.24
889.485	1144.37
889.661	1140.49
889.836	1184.09
890.011	1156.77
890.186	1138.56
890.361	1121.89
890.537	1155.99
890.712	1160.64
890.887	1176.53
891.062	1153.09
891.237	1207.92
891.412	1146.69
891.587	1134.87
891.762	1145.53
891.937	1194.74
892.112	1084.31
892.287	1105.42
892.462	1092.06
892.637	1056.6
892.812	1023.47
892.987	1058.73
893.161	1051.37
893.336	1040.71
893.511	1045.36
893.686	1061.83
893.861	1035.68
894.035	1039.94
894.21	1040.52
894.385	994.21
894.56	1032.96
894.734	928.73
894.909	943.26
895.084	961.28
895.258	919.81
895.433	912.45
895.608	907.8
895.782	857.04
895.957	858.01
896.131	846.77
896.306	795.04
896.48	787.49
896.655	787.87
896.829	725.29
897.004	735.95
897.178	739.44
897.353	724.71
897.527	779.54
897.701	745.83
897.876	690.03
898.05	776.05
898.224	777.99
898.399	795.43
898.573	737.11
898.747	638.3
898.921	683.83
899.096	616.41
899.27	596.06
899.444	597.03
899.618	653.61
899.792	663.49
899.967	642.18
900.141	702.82
900.315	632.29
900.489	614.08
900.663	641.59
900.837	644.69
901.011	590.06
901.185	692.94
901.359	669.3
901.533	630.55
901.707	645.28
901.881	648.57
902.055	581.92
902.229	640.04
902.403	684.02
902.576	644.89
902.75	635.39
902.924	742.54
903.098	700.11
903.272	738.47
903.446	779.54
903.619	767.53
903.793	814.61
903.967	771.4
904.14	873.12
904.314	821.2
904.488	806.67
904.661	859.75
904.835	827.2
905.009	868.08
905.182	875.06
905.356	860.33
905.529	843.48
905.703	787.87
905.876	800.66
906.05	754.16
906.223	761.52
906.397	682.09
906.57	666.78
906.744	658.26
906.917	629.39
907.09	671.82
907.264	612.73
907.437	621.44
907.61	579.01
907.784	595.48
907.957	587.54
908.13	570.68
908.304	590.44
908.477	574.75
908.65	573.98
908.823	554.99
908.996	624.74
909.17	557.31
909.343	558.48
909.516	588.51
909.689	585.41
909.862	534.06
910.035	560.61
910.208	514.5
910.381	502.68
910.554	605.75
910.727	542.01
910.9	540.07
911.073	534.84
911.246	609.63
911.419	615.83
911.592	594.51
911.765	527.48
911.938	543.75
912.11	532.71
912.283	566.81
912.456	580.56
912.629	557.31
912.802	514.5
912.974	477.3
913.147	441.65
913.32	418.98
913.493	419.75
913.665	468.38
913.838	494.73
914.01	478.07
914.183	485.82
914.356	508.49
914.528	527.28
914.701	548.01
914.873	529.61
915.046	488.73
915.218	446.49
915.391	395.92
915.563	398.63
915.736	463.73
915.908	468.19
916.081	486.4
916.253	464.51
916.425	460.83
916.598	502.48
916.77	491.05
916.942	464.7
917.115	386.82
917.287	442.62
917.459	424.6
917.632	397.28
917.804	374.8
917.976	438.55
918.148	447.27
918.32	462.18
918.493	504.61
918.665	537.55
918.837	495.7
919.009	542.4
919.181	546.27
919.353	529.41
919.525	527.86
919.697	510.04
919.869	499.96
920.041	572.62
920.213	636.56
920.385	536.78
920.557	536.39
920.729	550.15
920.901	532.9
921.073	507.52
921.244	531.74
921.416	522.25
921.588	500.93
921.76	520.31
921.932	555.96
922.103	509.26
922.275	512.75
922.447	542.01
922.619	446.1
922.79	526.7
922.962	496.09
923.134	502.48
923.305	471.68
923.477	428.28
923.648	455.98
923.82	436.8
923.991	422.47
924.163	427.7
924.335	460.44
924.506	421.88
924.677	505.58
924.849	403.87
925.02	474.39
925.192	479.43
925.363	433.51
925.535	463.93
925.706	417.23
925.877	472.07
926.049	415.88
926.22	466.06
926.391	442.81
926.562	461.02
926.734	440.29
926.905	475.55
927.076	399.8
927.247	409.87
927.419	397.08
927.59	357.56
927.761	362.99
927.932	331.99
928.103	358.72
928.274	310.87
928.445	275.02
928.616	320.75
928.787	297.69
928.958	317.84
929.129	298.86
929.3	292.07
929.471	261.66
929.642	193.84
929.813	166.53
929.984	280.84
930.155	176.02
930.326	219.81
930.496	218.26
930.667	119.45
930.838	164.59
931.009	150.06
931.18	179.89
931.35	159.16
931.521	134.36
931.692	116.54
931.863	83.99
932.033	130.68
932.204	126.23
932.374	113.05
932.545	90.19
932.716	124.87
932.886	117.51
933.057	59
933.227	78.18
933.398	150.64
933.568	38.65
933.739	40.78
933.909	37.1
934.08	103.56
934.25	-6.88
934.421	27.03
934.591	54.73
934.761	66.94
934.932	20.44
935.102	67.71
935.272	47.76
935.443	48.53
935.613	25.48
935.783	62.1
935.953	44.46
936.123	171.18
936.294	5.91
936.464	39.23
936.634	38.85
936.804	41.95
936.974	5.52
937.144	44.66
937.314	34.97
937.484	43.88
937.655	21.6
937.825	71.78
937.995	6.88
938.165	67.33
938.334	72.75
938.504	78.76
938.674	42.14
938.844	77.21
939.014	99.3
939.184	109.76
939.354	141.34
939.524	136.69
939.694	84.57
939.863	95.61
940.033	129.33
940.203	151.61
940.373	108.21
940.542	123.13
940.712	96.78
940.882	117.31
941.051	124.68
941.221	139.4
941.391	161.29
941.56	99.49
941.73	69.07
941.899	175.83
942.069	71.4
942.238	124.48
942.408	101.43
942.577	105.88
942.747	74.69
942.916	8.23
943.086	44.66
943.255	123.71
943.425	74.69
943.594	88.25
943.763	9.59
943.933	45.63
944.102	5.91
944.271	61.51
944.441	80.7
944.61	41.56
944.779	66.94
944.948	138.24
945.117	42.72
945.287	55.7
945.456	29.93
945.625	40.4
945.794	80.7
945.963	24.7
946.132	82.44
946.301	44.46
946.47	88.06
946.639	10.17
946.808	49.5
946.977	88.83
947.146	104.72
947.315	48.92
947.484	84.18
947.653	36.33
947.822	65.58
947.991	68.49
948.16	142.31
948.329	90.58
948.498	52.21
948.666	78.76
948.835	112.28
949.004	15.79
949.173	66.36
949.341	91.35
949.51	71.78
949.679	125.65
949.847	102.4
950.016	148.51
950.185	109.37
950.353	41.95
950.522	60.74
950.69	106.08
950.859	73.53
951.028	102.78
951.196	102.98
951.365	69.85
951.533	67.33
951.701	91.93
951.87	81.47
952.038	47.76
952.207	73.91
952.375	94.06
952.543	42.14
952.712	61.9
952.88	87.48
953.048	108.4
953.217	75.27
953.385	68.88
953.553	113.63
953.721	35.17
953.89	91.74
954.058	34.39
954.226	51.63
954.394	81.86
954.562	22.96
954.73	76.05
954.898	42.92
955.067	126.81
955.235	61.32
955.403	77.21
955.571	145.6
955.739	87.28
955.907	33.42
956.075	41.17
956.243	53.18
956.41	99.49
956.578	27.8
956.746	20.83
956.914	46.21
957.082	83.6
957.25	83.02
957.418	62.87
957.585	103.36
957.753	105.11
957.921	43.5
958.089	67.91
958.256	100.85
958.424	84.38
958.592	112.86
958.759	59.58
958.927	114.99
959.095	14.05
959.262	55.51
959.43	58.41
959.597	30.52
959.765	97.36
959.932	33.62
960.1	93.87
960.267	64.81
960.435	81.08
960.602	103.17
960.77	63.45
960.937	40.4
961.104	82.44
961.272	40.2
961.439	64.23
961.606	71.2
961.774	100.85
961.941	64.23
962.108	87.67
962.275	92.51
962.443	114.8
962.61	83.99
962.777	172.34
962.944	111.31
963.111	111.5
963.278	97.36
963.446	82.44
963.613	66.55
963.78	103.17
963.947	80.5
964.114	88.83
964.281	151.03
964.448	116.73
964.615	98.33
964.782	83.8
964.949	103.75
965.116	124.87
965.282	136.3
965.449	87.67
965.616	73.14
965.783	112.08
965.95	97.75
966.117	77.21
966.283	71.4
966.45	107.63
966.617	108.4
966.784	113.05
966.95	135.33
967.117	136.88
967.284	69.65
967.45	108.4
967.617	131.26
967.784	135.72
967.95	166.72
968.117	118.67
968.283	141.92
968.45	193.07
968.616	134.17
968.783	139.98
968.949	143.47
969.116	174.08
969.282	123.32
969.449	141.92
969.615	118.48
969.781	90.77
969.948	111.11
970.114	119.06
970.28	172.92
970.447	126.42
970.613	174.47
970.779	104.33
970.945	150.64
971.112	144.24
971.278	127.58
971.444	109.37
971.61	155.48
971.776	130.68
971.942	108.79
972.108	152.96
972.275	109.56
972.441	158.39
972.607	187.45
972.773	106.85
972.939	139.01
973.105	116.93
973.271	86.12
973.437	102.2
973.602	86.51
973.768	127.97
973.934	116.93
974.1	132.23
974.266	34.78
974.432	151.41
974.598	95.42
974.763	128.55
974.929	83.21
975.095	174.08
975.261	79.73
975.426	90.58
975.592	93.87
975.758	153.54
975.923	72.17
976.089	108.4
976.255	131.65
976.42	116.15
976.586	135.14
976.751	89.8
976.917	165.56
977.082	131.65
977.248	59.77
977.413	66.94
977.579	117.7
977.744	114.21
977.91	65.58
978.075	63.45
978.24	146.38
978.406	68.49
978.571	104.53
978.736	99.1
978.902	136.3
979.067	60.35
979.232	51.83
979.397	103.95
979.563	150.83
979.728	65.58
979.893	114.41
980.058	81.08
980.223	128.16
980.388	121.96
980.554	123.32
980.719	96.78
980.884	91.16
981.049	148.51
981.214	100.65
981.379	109.76
981.544	88.06
981.709	94.45
981.874	102.2
982.039	92.32
982.204	107.24
982.368	119.64
982.533	89.03
982.698	160.71
982.863	156.84
983.028	109.37
983.193	100.07
983.357	112.86
983.522	118.09
983.687	101.43
983.852	90.38
984.016	88.06
984.181	105.3
984.346	125.84
984.51	136.11
984.675	114.21
984.839	139.79
985.004	121.19
985.168	128.16
985.333	132.43
985.498	95.42
985.662	130.1
985.827	128.16
985.991	98.71
986.155	99.3
986.32	103.36
986.484	142.89
986.649	139.98
986.813	58.22
986.977	125.26
987.142	132.62
987.306	88.83
987.47	54.15
987.634	94.26
987.799	109.56
987.963	108.6
988.127	116.93
988.291	176.21
988.455	106.85
988.62	91.93
988.784	141.73
988.948	116.15
989.112	102.78
989.276	107.63
989.44	99.49
989.604	89.61
989.768	77.6
989.932	174.28
990.096	65
990.26	45.63
990.424	63.65
990.588	88.83
990.752	147.15
990.915	112.66
991.079	80.7
991.243	84.38
991.407	128.36
991.571	86.51
991.734	100.85
991.898	101.81
992.062	177.96
992.226	108.21
992.389	85.54
992.553	69.26
992.717	77.4
992.88	79.73
993.044	101.43
993.207	71.2
993.371	113.63
993.535	109.18
993.698	90.77
993.862	122.55
994.025	124.87
994.189	96.2
994.352	113.83
994.515	97.75
994.679	101.43
994.842	85.15
995.006	117.12
995.169	53.38
995.332	84.96
995.496	128.75
995.659	50.66
995.822	100.65
995.985	72.36
996.149	133.39
996.312	98.91
996.475	131.26
996.638	56.48
996.801	143.66
996.964	152.38
997.128	75.08
997.291	89.61
997.454	88.64
997.617	33.42
997.78	120.41
997.943	88.45
998.106	103.36
998.269	67.13
998.432	85.54
998.595	99.1
998.758	40.98
998.92	40.78
999.083	-0.87
999.246	56.09
999.409	28
999.572	21.02
999.735	77.98
999.897	74.5
1000.06	63.45
1000.223	62.48
1000.386	87.67
1000.548	96.58
1000.711	96.78
1000.874	89.61
1001.036	27.22
1001.199	105.5
1001.361	35.36
1001.524	71.01
1001.687	114.02
1001.849	43.5
1002.012	80.7
1002.174	87.48
1002.337	102.78
1002.499	62.1
1002.661	122.35
1002.824	25.48
1002.986	51.05
1003.149	97.36
1003.311	48.92
1003.473	113.83
1003.636	46.6
1003.798	73.14
1003.96	81.66
1004.123	81.47
1004.285	55.51
1004.447	54.54
1004.609	48.34
1004.771	105.5
1004.933	27.42
1005.096	24.32
1005.258	4.94
1005.42	37.1
1005.582	106.46
1005.744	65.97
1005.906	37.49
1006.068	77.79
1006.23	31.29
1006.392	-2.62
1006.554	17.92
1006.716	88.45
1006.878	34.97
1007.04	21.6
1007.202	50.28
1007.363	57.83
1007.525	73.91
1007.687	78.56
1007.849	120.22
1008.011	3
1008.172	58.22
1008.334	37.1
1008.496	64.23
1008.658	3
1008.819	17.92
1008.981	18.89
1009.143	18.5
1009.304	57.83
1009.466	71.2
1009.627	80.89
1009.789	166.33
1009.95	67.91
1010.112	47.76
1010.273	54.35
1010.435	15.4
1010.596	36.13
1010.758	24.12
1010.919	36.33
1011.081	10.37
1011.242	65.39
1011.403	71.59
1011.565	20.83
1011.726	56.67
1011.887	42.33
1012.049	65.78
1012.21	70.23
1012.371	105.11
1012.532	-5.13
1012.693	45.63
1012.855	47.95
1013.016	35.55
1013.177	87.09
1013.338	34.78
1013.499	91.16
1013.66	89.22
1013.821	88.25
1013.982	64.42
1014.143	58.41
1014.304	30.9
1014.465	69.65
1014.626	48.92
1014.787	35.75
1014.948	114.99
1015.109	-3.97
1015.27	63.65
1015.431	15.98
1015.592	19.67
1015.752	76.24
1015.913	25.87
1016.074	15.4
1016.235	37.3
1016.395	22.18
1016.556	34.78
1016.717	12.3
1016.877	72.75
1017.038	20.63
1017.199	50.47
1017.359	39.82
1017.52	65.78
1017.681	20.63
1017.841	40.98
1018.002	19.86
1018.162	33.42
1018.323	111.31
1018.483	24.32
1018.644	14.43
1018.804	-19.47
1018.964	9.4
1019.125	42.53
1019.285	50.08
1019.446	19.08
1019.606	15.4
1019.766	1.65
1019.926	51.63
1020.087	36.72
1020.247	-0.29
1020.407	34.58
1020.567	97.36
1020.728	55.12
1020.888	3
1021.048	16.37
1021.208	20.44
1021.368	13.08
1021.528	71.4
1021.688	66.94
1021.848	35.75
1022.008	49.31
1022.168	20.44
1022.328	29.16
1022.488	33.81
1022.648	-1.07
1022.808	36.52
1022.968	47.18
1023.128	-6.68
1023.288	-10.56
1023.448	17.34
1023.608	28.19
1023.767	61.13
1023.927	6.1
1024.087	-11.92
1024.247	-21.02
1024.406	-6.88
1024.566	9.2
1024.726	-10.75
1024.885	32.84
1025.045	48.73
1025.205	38.27
1025.364	-5.72
1025.524	47.95
1025.683	9.59
1025.843	27.42
1026.003	24.32
1026.162	67.91
1026.321	55.7
1026.481	23.73
1026.64	19.08
1026.8	34.2
1026.959	34.78
1027.119	45.24
1027.278	-10.95
1027.437	18.12
1027.597	21.41
1027.756	13.85
1027.915	33.03
1028.074	51.25
1028.234	-0.68
1028.393	40.4
1028.552	-3.58
1028.711	-71.2
1028.87	71.4
1029.03	-21.8
1029.189	13.85
1029.348	-17.73
1029.507	26.64
1029.666	28
1029.825	2.23
1029.984	1.26
1030.143	21.22
1030.302	9.4
1030.461	-22.38
1030.62	19.08
1030.779	35.75
1030.938	-5.91
1031.097	-7.27
1031.255	54.15
1031.414	57.83
1031.573	77.4
1031.732	-30.9
1031.891	16.57
1032.049	58.61
1032.208	46.01
1032.367	-5.13
1032.525	26.25
1032.684	19.08
1032.843	-1.26
1033.001	-28
1033.16	161.29
1033.319	51.25
1033.477	28.38
1033.636	-14.24
1033.794	-25.09
1033.953	26.64
1034.111	38.85
1034.27	3
1034.428	25.67
1034.587	-15.6
1034.745	21.41
1034.903	10.95
1035.062	55.51
1035.22	-6.88
1035.378	33.81
1035.537	9.78
1035.695	34.58
1035.853	4.94
1036.011	37.68
1036.17	1.65
1036.328	-57.06
1036.486	8.04
1036.644	2.62
1036.802	-61.51
1036.96	-8.04
1037.119	17.73
1037.277	-6.3
1037.435	-23.54
1037.593	-26.06
1037.751	7.46
1037.909	22.18
1038.067	22.18
