Data from gum_young_FLMT105791__21__17-38-20-045.txt Node

Date: Mon Mar 20 17:38:20 GMT 2023
User: antho
Spectrometer: FLMT10579
Trigger mode: 0
Integration Time (sec): 1.000000E-1
Scans to average: 10
Electric dark correction enabled: true
Nonlinearity correction enabled: false
Boxcar width: 0
XAxis mode: Wavelengths
Number of Pixels in Spectrum: 3648
>>>>>Begin Spectral Data<<<<<
345.248	-146.99
345.464	-146.99
345.681	-146.99
345.898	-165.98
346.114	-156.29
346.331	-48.95
346.548	18.47
346.764	5.68
346.981	0.26
347.197	-19.5
347.414	6.65
347.631	3.36
347.847	70.2
348.064	-7.1
348.28	18.28
348.497	-31.71
348.713	-15.63
348.93	14.79
349.146	10.14
349.363	-12.92
349.579	6.46
349.796	-2.65
350.012	-33.26
350.229	37.46
350.445	8.4
350.661	-9.24
350.878	-23.19
351.094	17.5
351.311	8.2
351.527	33
351.743	-49.92
351.96	29.9
352.176	37.85
352.392	8.98
352.609	11.88
352.825	-3.23
353.041	-17.18
353.257	-15.44
353.474	-18.92
353.69	-8.46
353.906	15.56
354.122	-17.76
354.339	36.68
354.555	-10.4
354.771	-3.62
354.987	50.83
355.203	52.57
355.42	-0.71
355.636	-1.68
355.852	-19.5
356.068	2.39
356.284	-16.6
356.5	51.6
356.716	-3.81
356.932	-4.78
357.148	26.41
357.364	-0.13
357.58	16.34
357.796	64.19
358.012	39.4
358.228	15.76
358.444	-51.67
358.66	34.94
358.876	14.4
359.092	-2.45
359.308	-8.07
359.524	-7.49
359.74	6.85
359.956	-2.45
360.172	-10.98
360.388	14.98
360.604	-27.84
360.819	60.51
361.035	19.25
361.251	29.71
361.467	-2.65
361.683	30.48
361.898	1.61
362.114	30.87
362.33	30.87
362.546	40.17
362.762	4.33
362.977	-6.72
363.193	-16.21
363.409	29.32
363.624	-14.08
363.84	-42.17
364.056	-3.04
364.271	14.98
364.487	29.51
364.703	-2.07
364.918	-6.14
365.134	10.91
365.35	-14.08
365.565	91.71
365.781	25.64
365.996	18.08
366.212	93.06
366.427	48.89
366.643	-5.94
366.858	0.65
367.074	-19.31
367.289	65.36
367.505	118.44
367.72	-34.81
367.936	-0.13
368.151	34.36
368.367	35.71
368.582	32.23
368.798	5.68
369.013	49.28
369.228	26.03
369.444	9.56
369.659	57.22
369.874	37.26
370.09	37.26
370.305	-37.72
370.52	-6.52
370.736	51.21
370.951	9.56
371.166	39.2
371.381	68.26
371.597	30.1
371.812	-45.66
372.027	-25.51
372.242	-10.79
372.458	76.01
372.673	22.54
372.888	17.89
373.103	48.89
373.318	86.67
373.533	43.85
373.749	26.41
373.964	-34.81
374.179	55.86
374.394	-0.52
374.609	50.83
374.824	-12.14
375.039	41.53
375.254	4.33
375.469	66.33
375.684	13.24
375.899	45.01
376.114	31.06
376.329	20.21
376.544	43.08
376.759	35.33
376.974	14.98
377.189	5.1
377.404	-8.46
377.619	23.7
377.834	-22.41
378.049	-43.92
378.264	3.55
378.478	22.54
378.693	-1.29
378.908	7.43
379.123	-16.4
379.338	86.86
379.553	20.02
379.767	-11.75
379.982	55.09
380.197	37.85
380.412	13.63
380.626	11.69
380.841	96.16
381.056	26.03
381.271	66.71
381.485	16.73
381.7	-25.32
381.915	38.04
382.129	-0.32
382.344	32.81
382.559	7.43
382.773	74.66
382.988	-11.56
383.202	56.25
383.417	1.23
383.632	97.71
383.846	11.11
384.061	11.11
384.275	32.81
384.49	34.16
384.704	31.45
384.919	36.49
385.133	9.17
385.348	10.53
385.562	-10.2
385.777	51.99
385.991	13.24
386.206	23.31
386.42	13.43
386.634	58.58
386.849	61.29
387.063	28.35
387.277	-22.41
387.492	5.68
387.706	0.65
387.92	2
388.135	47.53
388.349	31.06
388.563	27.38
388.778	40.17
388.992	42.88
389.206	51.41
389.42	87.06
389.635	15.76
389.849	47.92
390.063	53.93
390.277	23.51
390.491	71.17
390.706	58.58
390.92	44.82
391.134	36.68
391.348	56.64
391.562	7.43
391.776	27
391.99	-2.65
392.205	49.47
392.419	-2.84
392.633	31.06
392.847	80.66
393.061	7.62
393.275	73.11
393.489	20.99
393.703	51.41
393.917	65.16
394.131	-6.52
394.345	35.33
394.559	65.16
394.773	28.16
394.986	24.09
395.2	23.7
395.414	35.71
395.628	27.58
395.842	42.69
396.056	37.26
396.27	-15.24
396.484	50.05
396.697	15.95
396.911	66.13
397.125	58.96
397.339	75.24
397.553	62.26
397.766	88.8
397.98	64.19
398.194	87.25
398.408	21.38
398.621	62.64
398.835	45.01
399.049	45.6
399.262	76.01
399.476	82.02
399.69	43.46
399.903	119.03
400.117	59.54
400.331	90.74
400.544	24.86
400.758	129.88
400.971	46.37
401.185	81.05
401.398	45.79
401.612	93.84
401.826	70.98
402.039	86.48
402.253	24.86
402.466	55.86
402.68	52.18
402.893	68.84
403.106	48.5
403.32	51.99
403.533	77.18
403.747	72.72
403.96	76.98
404.174	78.14
404.387	22.35
404.6	60.9
404.814	86.48
405.027	73.3
405.24	66.71
405.454	57.61
405.667	99.84
405.88	44.24
406.094	67.1
406.307	105.66
406.52	95.39
406.733	51.99
406.947	12.46
407.16	148.09
407.373	72.33
407.586	33.2
407.799	42.3
408.012	132.78
408.226	82.79
408.439	113.02
408.652	33.2
408.865	61.48
409.078	109.73
409.291	70.39
409.504	21.96
409.717	99.84
409.93	102.75
410.143	87.06
410.357	39.78
410.57	41.91
410.783	63.81
410.996	103.53
411.209	99.65
411.421	112.05
411.634	74.66
411.847	58.58
412.06	97.13
412.273	69.23
412.486	73.3
412.699	151.57
412.912	72.14
413.125	128.13
413.338	93.84
413.55	93.45
413.763	86.67
413.976	85.7
414.189	60.9
414.402	90.93
414.615	131.62
414.827	58.19
415.04	103.91
415.253	105.08
415.466	122.9
415.678	144.79
415.891	115.93
416.104	82.41
416.316	99.07
416.529	89.58
416.742	110.69
416.954	121.74
417.167	92.29
417.38	87.06
417.592	126.97
417.805	81.24
418.017	55.86
418.23	124.84
418.442	78.73
418.655	107.01
418.868	116.7
419.08	119.41
419.293	140.53
419.505	101.59
419.718	117.28
419.93	149.06
420.142	66.71
420.355	140.92
420.567	121.35
420.78	121.54
420.992	119.41
421.205	191.87
421.417	82.99
421.629	107.21
421.842	77.18
422.054	69.04
422.266	137.43
422.479	139.76
422.691	121.93
422.903	129.29
423.115	85.89
423.328	109.34
423.54	134.91
423.752	114.38
423.964	92.87
424.177	139.18
424.389	109.53
424.601	213.96
424.813	92.29
425.025	128.33
425.238	138.59
425.45	125.81
425.662	124.64
425.874	377.1
426.086	115.34
426.298	146.73
426.51	125.23
426.722	121.35
426.934	113.6
427.146	139.76
427.358	85.89
427.57	147.31
427.782	104.3
427.994	140.92
428.206	99.46
428.418	66.91
428.63	146.34
428.842	157.39
429.054	142.08
429.266	156.03
429.478	98.1
429.69	105.66
429.902	86.28
430.114	136.66
430.325	121.93
430.537	72.33
430.749	101.2
430.961	37.26
431.173	94.23
431.384	155.64
431.596	58.77
431.808	121.54
432.02	113.02
432.231	154.29
432.443	169.98
432.655	125.23
432.867	96.36
433.078	163.01
433.29	192.65
433.502	172.31
433.713	162.04
433.925	162.81
434.136	165.91
434.348	88.8
434.56	87.25
434.771	231.98
434.983	99.26
435.194	122.13
435.406	136.66
435.617	180.83
435.829	205.24
436.04	162.23
436.252	164.94
436.463	202.14
436.675	208.92
436.886	157.19
437.098	182.96
437.309	209.89
437.521	161.46
437.732	156.61
437.943	178.7
438.155	196.91
438.366	119.22
438.578	216.67
438.789	138.59
439	202.34
439.211	134.14
439.423	159.13
439.634	180.25
439.845	200.01
440.057	177.92
440.268	211.44
440.479	181.61
440.69	200.4
440.902	179.86
441.113	165.91
441.324	164.56
441.535	205.82
441.746	218.81
441.957	161.07
442.168	180.64
442.38	194.59
442.591	193.23
442.802	161.84
443.013	192.07
443.224	200.01
443.435	155.26
443.646	214.54
443.857	193.04
444.068	178.31
444.279	179.86
444.49	233.34
444.701	178.89
444.912	282.35
445.123	236.24
445.334	242.25
445.545	189.36
445.756	204.86
445.967	202.53
446.178	232.17
446.388	232.37
446.599	219.77
446.81	233.34
447.021	212.22
447.232	265.89
447.443	286.23
447.653	200.21
447.864	260.27
448.075	217.06
448.286	276.35
448.496	246.9
448.707	282.35
448.918	225.39
449.129	328.27
449.339	202.14
449.55	254.07
449.761	243.99
449.971	254.45
450.182	227.14
450.393	257.75
450.603	259.88
450.814	258.33
451.024	239.92
451.235	285.45
451.446	302.7
451.656	313.16
451.867	221.32
452.077	273.83
452.288	291.85
452.498	328.85
452.709	246.7
452.919	278.48
453.13	251.35
453.34	291.65
453.55	192.46
453.761	267.44
453.971	253.49
454.182	299.21
454.392	271.89
454.602	303.09
454.813	279.25
455.023	275.38
455.233	264.72
455.444	270.73
455.654	219.39
455.864	265.89
456.075	278.48
456.285	241.09
456.495	272.28
456.705	284.68
456.916	320.91
457.126	328.47
457.336	316.26
457.546	230.82
457.756	258.52
457.967	320.91
458.177	255.04
458.387	309.09
458.597	268.79
458.807	276.54
459.017	285.07
459.227	299.99
459.437	298.24
459.647	313.94
459.857	316.65
460.068	274.8
460.278	319.55
460.488	317.81
460.698	369.35
460.908	290.3
461.117	240.12
461.327	284.49
461.537	297.66
461.747	293.4
461.957	304.83
462.167	389.3
462.377	350.17
462.587	305.8
462.797	325.75
463.007	333.89
463.216	360.24
463.426	359.08
463.636	350.75
463.846	292.04
464.056	283.71
464.265	318.78
464.475	308.12
464.685	333.12
464.895	340.48
465.104	325.56
465.314	344.93
465.524	315.68
465.733	292.43
465.943	386.01
466.153	403.45
466.362	358.69
466.572	322.65
466.782	325.75
466.991	335.05
467.201	369.54
467.41	293.79
467.62	335.63
467.829	335.44
468.039	366.25
468.249	328.47
468.458	336.02
468.668	371.48
468.877	362.57
469.086	412.16
469.296	379.62
469.505	373.61
469.715	424.76
469.924	373.8
470.134	411.58
470.343	395.5
470.552	341.83
470.762	322.65
470.971	332.92
471.18	342.8
471.39	368.77
471.599	339.12
471.808	406.93
472.018	349
472.227	404.42
472.436	424.76
472.645	383.68
472.855	367.6
473.064	441.23
473.273	381.17
473.482	394.15
473.691	448.59
473.901	425.53
474.11	395.5
474.319	447.43
474.528	413.13
474.737	458.08
474.946	440.84
475.155	452.85
475.364	458.28
475.573	432.7
475.783	447.43
475.992	450.72
476.201	463.9
476.41	429.6
476.619	396.86
476.828	438.13
477.037	448.78
477.245	438.13
477.454	481.33
477.663	448.59
477.872	444.33
478.081	510.2
478.29	436
478.499	558.64
478.708	492.76
478.917	541.39
479.125	490.25
479.334	482.69
479.543	465.83
479.752	504.39
479.961	524.15
480.169	541.39
480.378	505.74
480.587	594.67
480.796	531.13
481.004	521.24
481.213	549.14
481.422	510.59
481.63	545.85
481.839	532.68
482.048	557.86
482.256	545.08
482.465	577.43
482.674	580.73
482.882	601.26
483.091	628.19
483.299	574.72
483.508	581.31
483.716	561.74
483.925	599.91
484.134	559.61
484.342	535.39
484.551	613.86
484.759	599.13
484.967	607.07
485.176	653.38
485.384	615.6
485.593	601.84
485.801	602.81
486.01	580.92
486.218	552.83
486.426	534.23
486.635	511.17
486.843	519.31
487.051	557.86
487.26	581.69
487.468	602.23
487.676	628.58
487.885	592.74
488.093	612.5
488.301	641.56
488.509	636.33
488.717	666.94
488.926	624.32
489.134	621.22
489.342	663.07
489.55	646.79
489.758	667.33
489.967	643.5
490.175	760.91
490.383	675.66
490.591	735.34
490.799	660.94
491.007	737.08
491.215	707.63
491.423	678.76
491.631	705.69
491.839	696.39
492.047	730.49
492.255	687.29
492.463	674.11
492.671	695.04
492.879	731.85
493.087	709.76
493.295	720.61
493.503	742.7
493.711	750.64
493.919	768.85
494.127	768.08
494.334	747.93
494.542	724.87
494.75	735.34
494.958	773.7
495.166	794.04
495.374	787.07
495.581	791.13
495.789	755.87
495.997	837.83
496.205	778.54
496.412	789.78
496.62	796.95
496.828	814.38
497.035	807.41
497.243	850.81
497.451	809.54
497.658	823.88
497.866	789.78
498.074	864.18
498.281	800.82
498.489	908.93
498.696	789.2
498.904	820.39
499.112	797.33
499.319	889.17
499.527	850.03
499.734	896.15
499.942	817.87
500.149	851.39
500.357	894.21
500.564	790.94
500.771	867.08
500.979	831.43
501.186	840.73
501.394	884.91
501.601	842.67
501.808	890.53
502.016	853.13
502.223	871.35
502.43	870.96
502.638	869.99
502.845	857.78
503.052	954.66
503.26	893.05
503.467	980.23
503.674	922.3
503.881	922.3
504.089	994.96
504.296	982.75
504.503	915.71
504.71	954.66
504.917	902.93
505.125	921.33
505.332	967.44
505.539	990.11
505.746	1064.32
505.953	1026.92
506.16	1018.79
506.367	1074.78
506.574	1066.06
506.781	1068.77
506.988	1023.24
507.195	1060.44
507.402	1028.86
507.609	1095.9
507.816	1018.98
508.023	1048.24
508.23	1027.89
508.437	993.02
508.644	1091.64
508.851	1106.36
509.058	1121.09
509.265	1106.75
509.472	1104.81
509.679	1217.77
509.885	1120.31
510.092	1160.61
510.299	1145.89
510.506	1163.52
510.713	1155.96
510.92	1165.26
511.126	1208.66
511.333	1218.35
511.54	1222.22
511.746	1281.7
511.953	1235.01
512.16	1276.28
512.367	1235.01
512.573	1254
512.78	1242.57
512.987	1240.05
513.193	1247.41
513.4	1227.84
513.606	1268.92
513.813	1297.4
514.02	1262.91
514.226	1353.39
514.433	1327.23
514.639	1280.73
514.846	1278.6
515.052	1275.12
515.259	1324.91
515.465	1338.08
515.672	1334.4
515.878	1426.04
516.085	1373.73
516.291	1385.94
516.497	1352.81
516.704	1320.84
516.91	1281.7
517.117	1245.47
517.323	1213.7
517.529	1225.71
517.736	1261.36
517.942	1270.66
518.148	1293.33
518.354	1333.05
518.561	1372.38
518.767	1343.12
518.973	1415.19
519.179	1432.24
519.386	1406.67
519.592	1394.46
519.798	1410.16
520.004	1530.47
520.21	1454.72
520.417	1554.3
520.623	1547.33
520.829	1582.98
521.035	1598.09
521.241	1566.51
521.447	1605.45
521.653	1691.48
521.859	1619.21
522.065	1675.4
522.271	1729.06
522.477	1694.97
522.683	1711.05
522.889	1693.8
523.095	1675.4
523.301	1686.63
523.507	1683.34
523.713	1711.05
523.919	1704.65
524.125	1804.43
524.331	1765.49
524.537	1823.42
524.742	1835.04
524.948	1855.78
525.154	1839.69
525.36	1910.41
525.566	1858.88
525.772	1874.18
525.977	1836.79
526.183	1856.94
526.389	1872.83
526.595	1790.1
526.8	1840.28
527.006	1762.97
527.212	1756.19
527.417	1679.85
527.623	1735.46
527.829	1787.19
528.034	1804.63
528.24	1844.15
528.446	1835.43
528.651	1937.73
528.857	1927.66
529.062	2001.67
529.268	1980.55
529.473	2008.84
529.679	2007.67
529.884	2065.6
530.09	2031.7
530.295	2076.65
530.501	2055.34
530.706	2030.54
530.912	2047.39
531.117	2080.33
531.323	2080.91
531.528	2124.5
531.733	2158.21
531.939	2099.12
532.144	2115.01
532.35	2077.03
532.555	2116.56
532.76	2092.73
532.966	2085.75
533.171	2059.4
533.376	2024.92
533.581	2033.25
533.787	2069.09
533.992	2145.43
534.197	2114.04
534.402	2102.8
534.607	2128.18
534.813	2227.77
535.018	2158.6
535.223	2132.45
535.428	2186.5
535.633	2227.58
535.838	2227
536.043	2204.13
536.249	2296.74
536.454	2246.76
536.659	2255.86
536.864	2219.05
537.069	2204.91
537.274	2243.46
537.479	2208.2
537.684	2209.75
537.889	2190.57
538.094	2303.91
538.299	2227.77
538.504	2282.79
538.708	2246.56
538.913	2321.16
539.118	2268.26
539.323	2289.19
539.528	2254.12
539.733	2243.27
539.938	2269.81
540.142	2290.16
540.347	2216.53
540.552	2239.98
540.757	2193.86
540.962	2211.88
541.166	2164.41
541.371	2195.8
541.576	2203.36
541.781	2154.15
541.985	2240.56
542.19	2244.24
542.395	2305.85
542.599	2347.12
542.804	2318.64
543.008	2347.51
543.213	2278.53
543.418	2242.11
543.622	2298.49
543.827	2292.09
544.031	2366.49
544.236	2362.81
544.44	2334.72
544.645	2371.53
544.849	2298.68
545.054	2356.03
545.258	2428.3
545.463	2410.28
545.667	2330.46
545.872	2363.78
546.076	2350.22
546.281	2378.31
546.485	2343.44
546.689	2405.44
546.894	2415.12
547.098	2391.29
547.302	2355.26
547.507	2389.16
547.711	2456.78
547.915	2418.61
548.119	2346.54
548.324	2328.13
548.528	2394.78
548.732	2399.43
548.936	2417.64
549.141	2427.72
549.345	2349.64
549.549	2392.07
549.753	2412.02
549.957	2465.3
550.161	2451.35
550.366	2443.8
550.57	2370.37
550.774	2410.86
550.978	2431.79
551.182	2497.27
551.386	2421.52
551.59	2401.56
551.794	2408.92
551.998	2467.24
552.202	2437.79
552.406	2405.82
552.61	2443.22
552.814	2467.63
553.018	2486.42
553.222	2388.77
553.426	2421.13
553.63	2514.9
553.833	2408.92
554.037	2355.26
554.241	2452.71
554.445	2460.46
554.649	2443.22
554.853	2386.64
555.056	2462.59
555.26	2488.75
555.464	2454.07
555.668	2486.04
555.871	2461.62
556.075	2477.7
556.279	2396.72
556.483	2419.19
556.686	2398.46
556.89	2406.79
557.094	2412.61
557.297	2337.04
557.501	2380.83
557.704	2285.31
557.908	2411.83
558.112	2350.02
558.315	2412.22
558.519	2374.63
558.722	2336.85
558.926	2345.96
559.129	2253.73
559.333	2245.01
559.536	2294.23
559.74	2282.21
559.943	2240.95
560.147	2261.68
560.35	2278.92
560.553	2297.52
560.757	2253.54
560.96	2366.3
561.164	2290.74
561.367	2385.48
561.57	2254.51
561.774	2266.33
561.977	2268.07
562.18	2217.89
562.384	2313.41
562.587	2251.99
562.79	2238.43
562.993	2265.74
563.197	2299.84
563.4	2341.69
563.603	2302.56
563.806	2367.66
564.009	2250.83
564.212	2263.61
564.416	2165.58
564.619	2228.16
564.822	2166.74
565.025	2266.91
565.228	2180.88
565.431	2226.41
565.634	2126.05
565.837	2160.93
566.04	2146.98
566.243	2093.7
566.446	2075.87
566.649	2141.94
566.852	2083.43
567.055	2076.45
567.258	2143.68
567.461	2189.02
567.664	2177.2
567.867	2051.65
568.07	2146.01
568.273	2088.66
568.475	2143.88
568.678	2072.19
568.881	2048.55
569.084	2045.07
569.287	1951.49
569.489	1993.92
569.692	2020.46
569.895	2036.35
570.098	1949.74
570.3	1970.67
570.503	1900.34
570.706	1948.97
570.909	1943.16
571.111	1861.98
571.314	1875.34
571.516	1895.49
571.719	1887.74
571.922	1866.43
572.124	1910.02
572.327	1907.89
572.529	1861.98
572.732	1887.74
572.935	1914.29
573.137	1954.39
573.34	1900.14
573.542	1911.19
573.745	1904.79
573.947	1903.44
574.15	1868.37
574.352	1865.46
574.554	1892.2
574.757	1819.93
574.959	1825.55
575.162	1844.93
575.364	1793
575.566	1898.4
575.769	1782.93
575.971	1809.66
576.173	1716.86
576.376	1796.1
576.578	1794.75
576.78	1839.11
576.982	1749.41
577.185	1805.6
577.387	1710.27
577.589	1787
577.791	1775.56
577.993	1755.41
578.196	1749.6
578.398	1759.48
578.6	1760.26
578.802	1692.06
579.004	1657.38
579.206	1682.95
579.408	1755.41
579.61	1702.72
579.812	1769.56
580.014	1684.12
580.216	1693.42
580.418	1696.9
580.62	1703.68
580.822	1701.17
581.024	1728.87
581.226	1745.15
581.428	1701.75
581.63	1805.79
581.832	1709.11
582.034	1775.95
582.236	1746.7
582.438	1778.08
582.64	1793.97
582.841	1821.09
583.043	1820.71
583.245	1755.22
583.447	1826.13
583.649	1771.11
583.85	1784.67
584.052	1760.06
584.254	1705.23
584.456	1798.81
584.657	1715.89
584.859	1760.65
585.061	1757.16
585.262	1735.26
585.464	1683.92
585.666	1773.24
585.867	1683.15
586.069	1746.31
586.27	1708.53
586.472	1688.96
586.674	1703.68
586.875	1685.28
587.077	1670.75
587.278	1701.94
587.48	1679.47
587.681	1750.38
587.883	1697.29
588.084	1606.23
588.285	1629.48
588.487	1626.19
588.688	1640.72
588.89	1542.49
589.091	1502.77
589.292	1503.54
589.494	1490.56
589.695	1460.53
589.896	1396.21
590.098	1388.26
590.299	1445.23
590.5	1431.47
590.702	1456.66
590.903	1478.74
591.104	1554.69
591.305	1526.79
591.507	1590.73
591.708	1565.35
591.909	1533.77
592.11	1591.31
592.311	1582.98
592.512	1542.68
592.714	1500.06
592.915	1502.19
593.116	1505.09
593.317	1557.6
593.518	1526.21
593.719	1534.16
593.92	1604.68
594.121	1609.33
594.322	1510.13
594.523	1529.12
594.724	1456.46
594.925	1476.03
595.126	1523.11
595.327	1542.87
595.528	1524.47
595.729	1545.78
595.929	1515.94
596.13	1537.06
596.331	1530.67
596.532	1547.91
596.733	1578.52
596.934	1583.75
597.135	1554.5
597.335	1563.8
597.536	1504.32
597.737	1559.92
597.938	1526.02
598.138	1530.28
598.339	1526.99
598.54	1511.87
598.74	1500.44
598.941	1542.68
599.142	1578.52
599.342	1549.27
599.543	1511.49
599.744	1508.58
599.944	1531.06
600.145	1539.77
600.345	1517.69
600.546	1592.09
600.746	1564.38
600.947	1606.81
601.147	1540.74
601.348	1605.07
601.548	1526.79
601.749	1506.26
601.949	1484.94
602.15	1460.92
602.35	1491.72
602.551	1537.64
602.751	1453.17
602.951	1495.99
603.152	1448.52
603.352	1572.71
603.552	1538.42
603.753	1543.07
603.953	1566.9
604.153	1527.37
604.354	1495.79
604.554	1534.93
604.754	1520.01
604.954	1463.82
605.155	1509.16
605.355	1502.77
605.555	1544.42
605.755	1560.5
605.955	1493.27
606.155	1510.91
606.356	1502.38
606.556	1532.22
606.756	1543.65
606.956	1468.67
607.156	1541.91
607.356	1474.87
607.556	1517.11
607.756	1508.39
607.956	1548.3
608.156	1534.93
608.356	1457.43
608.556	1547.91
608.756	1472.54
608.956	1466.15
609.156	1445.03
609.356	1432.83
609.556	1413.45
609.755	1458.79
609.955	1467.89
610.155	1436.31
610.355	1437.48
610.555	1425.46
610.755	1436.89
610.954	1384.78
611.154	1447.55
611.354	1464.41
611.554	1419.84
611.753	1438.25
611.953	1379.16
612.153	1414.23
612.352	1454.91
612.552	1369.47
612.752	1367.34
612.951	1403.18
613.151	1412.09
613.351	1353.39
613.55	1382.45
613.75	1378.96
613.949	1372.96
614.149	1402.6
614.348	1353.39
614.548	1353.97
614.747	1299.33
614.947	1313.09
615.146	1317.74
615.346	1407.44
615.545	1339.25
615.745	1371.79
615.944	1356.1
616.144	1324.91
616.343	1389.62
616.542	1277.44
616.742	1327.62
616.941	1290.81
617.14	1243.53
617.34	1287.13
617.539	1322.2
617.738	1291.97
617.938	1365.01
618.137	1280.93
618.336	1260.78
618.535	1334.6
618.734	1310.18
618.934	1344.67
619.133	1299.53
619.332	1323.75
619.531	1309.21
619.73	1322.97
619.929	1347.58
620.128	1335.18
620.328	1362.69
620.527	1278.41
620.726	1319.1
620.925	1310.96
621.124	1316.38
621.323	1301.27
621.522	1223.97
621.721	1268.53
621.92	1235.4
622.119	1285
622.318	1218.73
622.517	1249.54
622.715	1239.08
622.914	1232.88
623.113	1264.27
623.312	1169.72
623.511	1257.68
623.71	1236.56
623.909	1229.39
624.107	1255.74
624.306	1184.05
624.505	1195.48
624.704	1194.9
624.902	1211.18
625.101	1231.33
625.3	1242.57
625.499	1174.17
625.697	1181.54
625.896	1178.24
626.095	1198
626.293	1163.71
626.492	1170.88
626.69	1199.17
626.889	1212.73
627.088	1196.45
627.286	1168.94
627.485	1117.21
627.683	1126.51
627.882	1147.44
628.08	1072.46
628.279	1105.2
628.477	1159.84
628.676	1059.67
628.874	1158.09
629.073	1138.91
629.271	1093.19
629.469	1094.16
629.668	1109.46
629.866	1090.67
630.065	1090.28
630.263	1162.55
630.461	1096.09
630.66	1131.55
630.858	1178.44
631.056	1178.82
631.254	1192.97
631.453	1104.81
631.651	1124.57
631.849	1135.62
632.047	1173.2
632.245	1110.82
632.444	1129.03
632.642	1168.75
632.84	1157.12
633.038	1141.62
633.236	1090.67
633.434	1112.95
633.632	1137.55
633.83	1109.85
634.028	1144.34
634.227	1148.4
634.425	1222.22
634.623	1138.91
634.821	1155.57
635.019	1126.32
635.216	1150.54
635.414	1169.33
635.612	1143.37
635.81	1107.14
636.008	1174.95
636.206	1129.61
636.404	1171.65
636.602	1137.17
636.8	1149.37
636.997	1156.54
637.195	1146.08
637.393	1149.95
637.591	1210.02
637.789	1156.35
637.986	1134.84
638.184	1164.29
638.382	1172.62
638.58	1174.56
638.777	1186.96
638.975	1163.71
639.173	1158.09
639.37	1134.45
639.568	1156.35
639.765	1129.8
639.963	1110.62
640.161	1149.76
640.358	1150.34
640.556	1038.36
640.753	1039.13
640.951	1066.64
641.148	1079.62
641.346	1078.07
641.543	1087.76
641.741	1095.71
641.938	1058.31
642.136	1101.91
642.333	1011.43
642.531	1086.21
642.728	1111.01
642.925	1063.93
643.123	1026.73
643.32	1083.89
643.517	1048.43
643.715	1036.03
643.912	1033.9
644.109	1047.46
644.306	1043.39
644.504	1010.65
644.701	1031.96
644.898	1056.57
645.095	968.22
645.293	1024.21
645.49	1029.83
645.687	1018.21
645.884	1022.86
646.081	938.38
646.278	937.03
646.475	951.17
646.672	919.4
646.87	969.58
647.067	932.18
647.264	943.03
647.461	905.83
647.658	903.31
647.855	938.19
648.052	884.33
648.249	828.53
648.446	887.23
648.642	865.73
648.839	860.3
649.036	879.68
649.233	875.8
649.43	848.87
649.627	843.25
649.824	834.73
650.021	845.19
650.217	851.2
650.414	864.56
650.611	875.22
650.808	880.06
651.004	890.91
651.201	897.89
651.398	921.91
651.595	873.86
651.791	853.91
651.988	882.97
652.185	822.91
652.381	857.4
652.578	816.9
652.775	884.13
652.971	844.8
653.168	852.55
653.364	856.62
653.561	830.47
653.757	813.61
653.954	875.41
654.15	821.17
654.347	912.03
654.543	831.05
654.74	790.17
654.936	794.23
655.133	853.13
655.329	838.6
655.525	808.57
655.722	824.27
655.918	764.59
656.115	793.46
656.311	717.51
656.507	737.27
656.704	663.84
656.9	723.71
657.096	706.85
657.292	694.65
657.489	790.17
657.685	771.57
657.881	757.62
658.077	754.71
658.273	770.98
658.47	829.69
658.666	762.65
658.862	808.57
659.058	770.02
659.254	826.98
659.45	779.7
659.646	764.2
659.842	782.03
660.038	790.75
660.234	760.72
660.43	781.25
660.626	848.1
660.822	809.73
661.018	810.9
661.214	767.3
661.41	722.94
661.606	805.08
661.802	800.05
661.998	742.12
662.194	745.8
662.39	774.08
662.586	748.51
662.781	752.97
662.977	812.45
663.173	764.59
663.369	758.39
663.564	769.24
663.76	797.33
663.956	760.33
664.152	780.48
664.347	679.15
664.543	731.27
664.739	739.79
664.934	673.92
665.13	672.56
665.326	748.9
665.521	752.77
665.717	675.08
665.912	689.8
666.108	640.01
666.304	683.8
666.499	706.47
666.695	644.08
666.89	693.49
667.086	722.55
667.281	706.08
667.477	777.18
667.672	683.99
667.867	678.37
668.063	716.74
668.258	671.59
668.454	647.18
668.649	761.88
668.844	671.98
669.04	691.74
669.235	671.01
669.43	675.66
669.626	635.75
669.821	662.1
670.016	637.69
670.211	661.32
670.407	634.01
670.602	654.35
670.797	618.51
670.992	668.3
671.187	622.38
671.382	683.8
671.578	642.92
671.773	665.78
671.968	612.89
672.163	648.92
672.358	649.89
672.553	635.17
672.748	606.69
672.943	720.61
673.138	624.71
673.333	646.02
673.528	622.96
673.723	645.44
673.918	628.77
674.113	615.79
674.308	687.09
674.503	653.38
674.698	655.12
674.892	623.16
675.087	625.67
675.282	649.7
675.477	594.29
675.672	621.8
675.867	615.99
676.061	591.77
676.256	573.94
676.451	609.01
676.646	588.28
676.84	574.53
677.035	580.92
677.23	582.28
677.424	612.31
677.619	654.35
677.814	623.16
678.008	642.72
678.203	574.14
678.397	600.1
678.592	617.15
678.787	674.89
678.981	630.32
679.176	635.56
679.37	615.99
679.565	629.74
679.759	622.57
679.954	592.16
680.148	672.37
680.342	660.16
680.537	621.02
680.731	618.12
680.926	607.66
681.12	639.24
681.314	572.2
681.509	575.3
681.703	596.61
681.897	636.14
682.092	620.64
682.286	587.31
682.48	686.32
682.674	622.57
682.869	615.02
683.063	643.31
683.257	664.62
683.451	608.24
683.645	639.82
683.839	652.41
684.034	635.75
684.228	650.09
684.422	587.51
684.616	613.47
684.81	695.42
685.004	632.07
685.198	659.39
685.392	702.2
685.586	656.67
685.78	639.62
685.974	700.65
686.168	663.07
686.362	736.3
686.556	631.68
686.75	576.08
686.944	585.96
687.138	592.74
687.331	533.26
687.525	523.76
687.719	514.85
687.913	539.84
688.107	546.24
688.301	544.88
688.494	575.69
688.688	564.45
688.882	553.99
689.076	535.58
689.269	578.59
689.463	660.55
689.657	590.41
689.85	617.92
690.044	626.26
690.238	634.78
690.431	653.96
690.625	627.61
690.818	704.53
691.012	667.91
691.205	711.12
691.399	702.01
691.593	747.35
691.786	775.63
691.98	817.68
692.173	832.4
692.366	840.15
692.56	841.51
692.753	879.48
692.947	821.94
693.14	886.46
693.333	900.02
693.527	869.02
693.72	894.79
693.914	886.07
694.107	883.36
694.3	946.13
694.493	899.63
694.687	989.73
694.88	942.64
695.073	997.86
695.266	975.39
695.46	995.73
695.653	1047.66
695.846	1049.4
696.039	973.26
696.232	1035.64
696.425	1094.93
696.618	1140.27
696.812	1123.99
697.005	1206.14
697.198	1291.58
697.391	1202.46
697.584	1221.83
697.777	1299.91
697.97	1251.48
698.163	1295.07
698.356	1247.02
698.549	1387.88
698.742	1314.06
698.935	1326.26
699.127	1377.61
699.32	1301.46
699.513	1310.96
699.706	1347
699.899	1367.34
700.092	1358.23
700.285	1365.21
700.477	1329.56
700.67	1418.1
700.863	1406.67
701.056	1486.88
701.248	1445.81
701.441	1475.84
701.634	1438.64
701.826	1547.14
702.019	1441.74
702.212	1536.29
702.404	1490.37
702.597	1445.23
702.79	1522.14
702.982	1538.03
703.175	1597.9
703.367	1597.51
703.56	1641.3
703.752	1690.9
703.945	1649.63
704.137	1664.35
704.33	1666.29
704.522	1697.29
704.715	1749.41
704.907	1774.98
705.1	1811.99
705.292	1782.93
705.484	1760.26
705.677	1787
705.869	1833.88
706.061	1838.53
706.254	1894.52
706.446	1811.99
706.638	1856.74
706.831	1926.69
707.023	1898.21
707.215	1987.52
707.407	1961.56
707.599	1981.9
707.792	2006.7
707.984	1975.9
708.176	2022.59
708.368	2016.78
708.56	2040.03
708.752	2034.41
708.944	1989.27
709.136	2076.45
709.329	2050.69
709.521	2112.88
709.713	2115.01
709.905	2124.12
710.097	2192.7
710.289	2134
710.481	2142.72
710.672	2184.56
710.864	2205.68
711.056	2233.2
711.248	2208.2
711.44	2219.83
711.632	2191.73
711.824	2259.54
712.016	2301.59
712.207	2285.51
712.399	2299.84
712.591	2347.89
712.783	2306.24
712.975	2344.6
713.166	2323.48
713.358	2332.78
713.55	2391.68
713.741	2395.56
713.933	2419.77
714.125	2358.16
714.316	2356.42
714.508	2402.92
714.7	2426.55
714.891	2402.92
715.083	2432.75
715.274	2420.16
715.466	2406.79
715.657	2441.47
715.849	2399.82
716.04	2386.84
716.232	2357.97
716.423	2340.53
716.615	2286.28
716.806	2220.21
716.998	2156.66
717.189	2099.32
717.381	2038.29
717.572	2011.35
717.763	2002.44
717.955	1961.56
718.146	1929.59
718.337	1874.18
718.528	1814.31
718.72	1770.72
718.911	1827.68
719.102	1782.54
719.293	1803.85
719.485	1799.4
719.676	1770.14
719.867	1720.35
720.058	1747.08
720.249	1728.1
720.44	1789.71
720.632	1853.84
720.823	1906.34
721.014	1995.85
721.205	2083.04
721.396	2122.95
721.587	2222.54
721.778	2259.54
721.969	2329.68
722.16	2321.16
722.351	2370.76
722.542	2466.85
722.733	2486.62
722.924	2390.91
723.115	2436.24
723.305	2379.28
723.496	2388.39
723.687	2275.82
723.878	2312.24
724.069	2235.33
724.26	2293.26
724.45	2235.71
724.641	2201.42
724.832	2245.4
725.023	2227
725.213	2241.33
725.404	2191.54
725.595	2216.15
725.785	2190.57
725.976	2253.54
726.167	2205.49
726.357	2228.35
726.548	2338.98
726.739	2244.82
726.929	2338.59
727.12	2343.24
727.31	2359.13
727.501	2281.24
727.691	2338.01
727.882	2368.82
728.072	2368.82
728.263	2421.52
728.453	2399.04
728.644	2439.15
728.834	2392.26
729.024	2384.9
729.215	2372.11
729.405	2440.5
729.596	2509.48
729.786	2504.83
729.976	2504.83
730.167	2497.47
730.357	2491.07
730.547	2481.77
730.737	2507.73
730.928	2563.92
731.118	2586.4
731.308	2535.44
731.498	2568.38
731.688	2636.58
731.879	2666.61
732.069	2708.65
732.259	2735.78
732.449	2752.24
732.639	2853.19
732.829	2827.81
733.019	2894.45
733.209	2980.48
733.399	2962.46
733.589	3047.13
733.779	3062.63
733.969	3087.43
734.159	3134.12
734.349	3181.39
734.539	3246.3
734.729	3193.99
734.919	3250.95
735.109	3284.47
735.299	3208.52
735.488	3262.57
735.678	3288.54
735.868	3250.56
736.058	3197.86
736.248	3229.44
736.437	3212.39
736.627	3162.41
736.817	3294.15
737.007	3239.32
737.196	3312.37
737.386	3287.76
737.576	3255.6
737.765	3265.48
737.955	3299.19
738.144	3445.86
738.334	3381.53
738.524	3326.12
738.713	3359.64
738.903	3349.37
739.092	3384.63
739.282	3398.97
739.471	3394.32
739.661	3352.67
739.85	3443.92
740.04	3426.87
740.229	3480.54
740.419	3500.11
740.608	3483.45
740.797	3464.07
740.987	3537.89
741.176	3509.8
741.365	3502.63
741.555	3445.86
741.744	3553.39
741.933	3554.16
742.123	3540.8
742.312	3558.04
742.501	3593.88
742.69	3581.48
742.88	3549.32
743.069	3639.03
743.258	3554.94
743.447	3646.97
743.636	3671.96
743.825	3623.72
744.014	3651.81
744.204	3678.16
744.393	3602.99
744.582	3688.24
744.771	3715.75
744.96	3649.68
745.149	3727.57
745.338	3677.39
745.527	3683.78
745.716	3648.91
745.905	3650.46
746.094	3695.99
746.283	3704.12
746.471	3689.79
746.66	3751.59
746.849	3718.85
747.038	3777.55
747.227	3686.49
747.416	3743.45
747.604	3677
747.793	3690.95
747.982	3769.03
748.171	3711.68
748.359	3677.77
748.548	3744.23
748.737	3716.14
748.926	3687.46
749.114	3629.14
749.303	3676.81
749.491	3637.09
749.68	3633.21
749.869	3712.65
750.057	3672.93
750.246	3626.43
750.434	3702.38
750.623	3668.28
750.811	3639.99
751	3662.27
751.188	3622.94
751.377	3644.84
751.565	3663.24
751.754	3592.72
751.942	3583.42
752.131	3674.67
752.319	3586.91
752.507	3556.88
752.696	3638.64
752.884	3657.04
753.072	3601.83
753.261	3604.15
753.449	3603.96
753.637	3532.08
753.825	3673.71
754.014	3596.59
754.202	3627.59
754.39	3633.41
754.578	3611.32
754.766	3553.78
754.955	3556.1
755.143	3609.77
755.331	3589.81
755.519	3585.74
755.707	3564.82
755.895	3557.65
756.083	3562.11
756.271	3536.92
756.459	3558.04
756.647	3530.72
756.835	3490.61
757.023	3505.34
757.211	3497.2
757.399	3495.26
757.587	3499.53
757.775	3436.75
757.963	3462.13
758.151	3482.48
758.339	3438.5
758.526	3458.84
758.714	3447.6
758.902	3311.79
759.09	3209.87
759.278	2984.16
759.465	2752.83
759.653	2406.21
759.841	2159.18
760.028	1881.74
760.216	1619.02
760.404	1502.77
760.591	1241.21
760.779	1041.65
760.967	884.91
761.154	777.38
761.342	772.15
761.529	766.14
761.717	836.67
761.905	783.19
762.092	858.17
762.28	787.45
762.467	774.47
762.655	724.1
762.842	739.79
763.029	734.37
763.217	783.77
763.404	762.65
763.592	783.38
763.779	739.02
763.966	806.83
764.154	820.78
764.341	873.28
764.528	900.6
764.716	955.63
764.903	1002.13
765.09	1103.46
765.277	1131.55
765.465	1297.98
765.652	1313.48
765.839	1436.89
766.026	1571.55
766.213	1638.97
766.4	1774.4
766.588	1936.96
766.775	1944.9
766.962	2076.65
767.149	2128.77
767.336	2307.21
767.523	2276.21
767.71	2417.45
767.897	2555.4
768.084	2634.64
768.271	2624.76
768.458	2721.24
768.645	2764.45
768.832	2732.29
769.019	2784.02
769.206	2846.41
769.392	2934.56
769.579	2999.85
769.766	2958.2
769.953	2962.85
770.14	3047.32
770.327	2996.56
770.513	3080.65
770.7	3094.98
770.887	3037.44
771.073	3079.87
771.26	3062.43
771.447	3044.22
771.634	3037.63
771.82	3143.03
772.007	3035.11
772.193	3138.77
772.38	3077.16
772.567	3054.3
772.753	3094.6
772.94	3116.88
773.126	3125.98
773.313	3141.68
773.499	3108.16
773.686	3141.87
773.872	3052.16
774.059	3133.34
774.245	3081.23
774.432	3074.83
774.618	3015.16
774.804	3071.73
774.991	3029.3
775.177	3069.8
775.363	3074.06
775.55	3079.29
775.736	3032.6
775.922	2995.78
776.109	3016.52
776.295	3005.47
776.481	3060.5
776.667	3084.71
776.853	3042.67
777.04	2982.42
777.226	3033.37
777.412	3056.04
777.598	2978.93
777.784	3017.87
777.97	2967.88
778.156	3012.06
778.342	2989.78
778.528	2942.5
778.715	2939.99
778.901	2939.02
779.087	2981.64
779.272	2943.08
779.458	2952
779.644	2965.56
779.83	2907.82
780.016	3029.11
780.202	2921
780.388	2889.61
780.574	2830.32
780.76	2898.14
780.946	2938.44
781.131	2896.78
781.317	2901.82
781.503	2894.45
781.689	2859.39
781.874	2983
782.06	2825.48
782.246	2849.51
782.432	2866.55
782.617	2892.13
782.803	2926.81
782.989	2787.7
783.174	2802.81
783.36	2762.51
783.545	2791.38
783.731	2855.7
783.916	2753.99
784.102	2817.92
784.288	2767.55
784.473	2791.96
784.659	2728.41
784.844	2792.35
785.029	2775.3
785.215	2718.53
785.4	2695.67
785.586	2812.69
785.771	2704.58
785.956	2727.44
786.142	2711.75
786.327	2697.61
786.512	2710.39
786.698	2685.01
786.883	2613.52
787.068	2630.18
787.254	2674.75
787.439	2658.28
787.624	2653.43
787.809	2613.91
787.994	2630.38
788.18	2670.87
788.365	2578.26
788.55	2605.58
788.735	2581.94
788.92	2590.47
789.105	2568.77
789.29	2569.73
789.475	2522.07
789.66	2555.78
789.845	2507.93
790.03	2465.3
790.215	2530.21
790.4	2514.9
790.585	2566.83
790.77	2535.05
790.955	2431.98
791.14	2494.75
791.325	2548.81
791.51	2424.81
791.695	2472.67
791.879	2453.29
792.064	2444.77
792.249	2523.43
792.434	2452.9
792.618	2457.55
792.803	2510.45
792.988	2435.27
793.173	2425
793.357	2494.95
793.542	2439.15
793.727	2474.02
793.911	2529.05
794.096	2512.77
794.281	2530.02
794.465	2552.1
794.65	2496.69
794.834	2528.27
795.019	2538.15
795.203	2566.05
795.388	2554.62
795.572	2584.07
795.757	2518.39
795.941	2558.5
796.126	2525.95
796.31	2460.27
796.494	2504.83
796.679	2450.19
796.863	2457.75
797.048	2522.85
797.232	2505.99
797.416	2526.14
797.601	2480.8
797.785	2567.41
797.969	2562.18
798.153	2481.97
798.338	2572.83
798.522	2601.12
798.706	2570.12
798.89	2577.1
799.074	2650.14
799.258	2607.9
799.443	2559.08
799.627	2546.1
799.811	2602.48
799.995	2504.83
800.179	2522.27
800.363	2542.42
800.547	2559.66
800.731	2588.72
800.915	2484.49
801.099	2506.96
801.283	2523.82
801.467	2502.7
801.651	2473.64
801.835	2551.52
802.019	2499.79
802.202	2519.94
802.386	2465.69
802.57	2459.69
802.754	2468.99
802.938	2487.78
803.121	2471.7
803.305	2540.67
803.489	2506.96
803.673	2511.22
803.856	2559.85
804.04	2515.68
804.224	2543
804.407	2514.13
804.591	2458.52
804.775	2490.3
804.958	2529.05
805.142	2603.64
805.326	2512.77
805.509	2528.85
805.693	2559.47
805.876	2574.38
806.06	2545.32
806.243	2572.45
806.427	2567.8
806.61	2586.4
806.794	2547.65
806.977	2549
807.16	2554.43
807.344	2558.3
807.527	2559.66
807.71	2549.78
807.894	2553.07
808.077	2533.31
808.26	2479.25
808.444	2460.65
808.627	2528.27
808.81	2484.68
808.993	2408.92
809.177	2417.45
809.36	2473.05
809.543	2486.04
809.726	2391.29
809.909	2342.47
810.092	2376.37
810.276	2366.69
810.459	2362.62
810.642	2366.88
810.825	2286.67
811.008	2326
811.191	2243.46
811.374	2294.23
811.557	2264.78
811.74	2291.32
811.923	2224.09
812.106	2182.43
812.289	2138.65
812.472	2113.27
812.654	2156.47
812.837	2124.7
813.02	2078
813.203	2042.94
813.386	1930.56
813.569	1938.7
813.751	1881.16
813.934	1930.56
814.117	1896.07
814.3	1841.63
814.482	1788.74
814.665	1774.6
814.848	1714.15
815.03	1700.97
815.213	1677.72
815.396	1668.81
815.578	1637.23
815.761	1592.86
815.943	1666.68
816.126	1590.92
816.309	1543.46
816.491	1506.26
816.674	1448.91
816.856	1492.69
817.039	1489.98
817.221	1560.89
817.403	1501.99
817.586	1497.92
817.768	1515.75
817.951	1432.63
818.133	1477.97
818.315	1521.37
818.498	1541.91
818.68	1587.44
818.862	1563.6
819.045	1562.64
819.227	1566.32
819.409	1522.92
819.591	1571.94
819.774	1536.48
819.956	1506.06
820.138	1602.55
820.32	1583.17
820.502	1638.39
820.684	1745.92
820.866	1741.85
821.048	1792.61
821.231	1757.35
821.413	1774.01
821.595	1762.2
821.777	1783.9
821.959	1720.54
822.141	1790.1
822.323	1684.31
822.505	1613.2
822.686	1572.71
822.868	1477.97
823.05	1350.68
823.232	1333.63
823.414	1324.52
823.596	1377.99
823.778	1365.6
823.96	1425.46
824.141	1428.76
824.323	1410.35
824.505	1484.36
824.687	1542.68
824.868	1611.85
825.05	1695.35
825.232	1687.02
825.413	1797.65
825.595	1749.02
825.777	1657.57
825.958	1699.23
826.14	1687.22
826.321	1736.81
826.503	1713.18
826.685	1737.59
826.866	1737.4
827.048	1728.87
827.229	1679.85
827.411	1632.19
827.592	1608.36
827.773	1582.79
827.955	1582.01
828.136	1562.44
828.318	1526.6
828.499	1545.78
828.68	1496.18
828.862	1542.68
829.043	1570
829.224	1514.2
829.406	1516.52
829.587	1532.41
829.768	1509.74
829.949	1535.32
830.131	1513.04
830.312	1581.24
830.493	1532.61
830.674	1572.52
830.855	1507.22
831.036	1530.47
831.218	1568.25
831.399	1623.09
831.58	1533.77
831.761	1559.92
831.942	1583.95
832.123	1546.36
832.304	1504.32
832.485	1545.2
832.666	1539.19
832.847	1544.04
833.028	1549.46
833.209	1529.7
833.389	1521.95
833.57	1491.14
833.751	1506.06
833.932	1580.85
834.113	1539.19
834.294	1545.2
834.475	1582.59
834.655	1607.97
834.836	1624.83
835.017	1599.06
835.198	1524.08
835.378	1597.7
835.559	1611.07
835.74	1572.32
835.92	1575.62
836.101	1569.61
836.281	1596.74
836.462	1627.54
836.643	1614.56
836.823	1656.02
837.004	1636.45
837.184	1705.23
837.365	1638.78
837.545	1666.48
837.726	1598.09
837.906	1723.64
838.087	1613.2
838.267	1612.43
838.448	1620.37
838.628	1630.84
838.808	1611.07
838.989	1673.85
839.169	1600.61
839.349	1634.13
839.53	1679.47
839.71	1680.82
839.89	1610.49
840.07	1684.5
840.251	1609.72
840.431	1642.27
840.611	1627.93
840.791	1611.65
840.971	1583.37
841.151	1597.32
841.332	1577.36
841.512	1627.74
841.692	1576.59
841.872	1607.39
842.052	1590.54
842.232	1658.93
842.412	1576.59
842.592	1602.55
842.772	1629.29
842.952	1605.45
843.132	1564.38
843.312	1566.9
843.492	1575.04
843.672	1600.42
843.851	1554.69
844.031	1598.87
844.211	1555.66
844.391	1553.53
844.571	1576.78
844.751	1555.08
844.93	1587.24
845.11	1545.39
845.29	1587.05
845.47	1645.17
845.649	1573.1
845.829	1581.24
846.009	1527.18
846.188	1598.29
846.368	1555.27
846.547	1548.49
846.727	1585.5
846.907	1504.12
847.086	1559.15
847.266	1553.92
847.445	1573.1
847.625	1523.69
847.804	1522.34
847.984	1568.45
848.163	1506.84
848.343	1555.85
848.522	1545.39
848.701	1528.15
848.881	1500.83
849.06	1527.57
849.239	1502.96
849.419	1505.29
849.598	1461.89
849.777	1458.59
849.957	1449.88
850.136	1395.82
850.315	1379.54
850.494	1395.43
850.674	1400.08
850.853	1461.69
851.032	1432.44
851.211	1463.82
851.39	1434.96
851.569	1387.49
851.748	1386.33
851.927	1433.41
852.107	1436.31
852.286	1385.55
852.465	1373.15
852.644	1452.39
852.823	1427.21
853.002	1420.23
853.181	1390.01
853.359	1418.49
853.538	1375.86
853.717	1401.44
853.896	1317.16
854.075	1313.48
854.254	1223.38
854.433	1171.65
854.611	1224.16
854.79	1185.41
854.969	1252.25
855.148	1278.6
855.327	1252.45
855.505	1291.97
855.684	1254.38
855.863	1266.78
856.041	1240.43
856.22	1308.25
856.399	1301.08
856.577	1384.39
856.756	1342.54
856.934	1424.69
857.113	1449.68
857.291	1375.48
857.47	1356.88
857.648	1381.29
857.827	1391.75
858.005	1378.77
858.184	1325.88
858.362	1423.53
858.541	1349.13
858.719	1330.72
858.898	1334.21
859.076	1320.45
859.254	1406.28
859.433	1329.36
859.611	1348.74
859.789	1306.7
859.967	1360.56
860.146	1374.51
860.324	1292.55
860.502	1322
860.68	1285.19
860.859	1317.93
861.037	1290.23
861.215	1343.12
861.393	1340.41
861.571	1299.91
861.749	1295.85
861.927	1323.16
862.105	1309.8
862.283	1288.48
862.461	1270.08
862.639	1262.33
862.817	1273.95
862.995	1284.61
863.173	1293.13
863.351	1285.58
863.529	1265.23
863.707	1290.03
863.885	1265.82
864.063	1215.44
864.241	1240.24
864.418	1304.56
864.596	1222.8
864.774	1211.95
864.952	1241.6
865.129	1300.3
865.307	1194.71
865.485	1166.04
865.663	1245.47
865.84	1170.88
866.018	1187.93
866.196	1068.39
866.373	1074.97
866.551	1048.82
866.728	1005.42
866.906	1067.42
867.084	1085.24
867.261	1122.25
867.439	1106.75
867.616	1128.84
867.794	1133.49
867.971	1138.72
868.149	1108.88
868.326	1183.47
868.503	1176.5
868.681	1159.84
868.858	1114.69
869.035	1130
869.213	1166.62
869.39	1143.17
869.567	1203.43
869.745	1143.75
869.922	1145.69
870.099	1182.31
870.276	1164.29
870.454	1173.4
870.631	1158.48
870.808	1149.95
870.985	1142.79
871.162	1208.08
871.339	1166.62
871.517	1126.7
871.694	1111.4
871.871	1132.9
872.048	1133.29
872.225	1131.16
872.402	1131.35
872.579	1113.53
872.756	1166.23
872.933	1096.67
873.11	1119.34
873.287	1114.69
873.463	1110.04
873.64	1097.45
873.817	1139.49
873.994	1082.92
874.171	1037
874.348	1089.89
874.524	1039.91
874.701	1062.19
874.878	1022.66
875.055	1075.75
875.231	1062.19
875.408	1107.72
875.585	1016.27
875.762	1068.39
875.938	1050.95
876.115	1046.69
876.291	1066.06
876.468	1057.15
876.645	1022.47
876.821	1014.33
876.998	1007.55
877.174	1047.46
877.351	1037.19
877.527	1022.47
877.704	1044.75
877.88	1022.66
878.057	1011.43
878.233	1055.6
878.409	1016.85
878.586	1040.87
878.762	1011.23
878.938	996.89
879.115	965.7
879.291	1027.89
879.467	969.38
879.644	961.05
879.82	1019.76
879.996	977.52
880.172	935.86
880.349	975.78
880.525	985.27
880.701	926.37
880.877	954.85
881.053	980.23
881.229	933.15
881.405	989.53
881.581	961.44
881.757	978.29
881.933	964.34
882.109	1004.06
882.285	992.44
882.461	925.79
882.637	956.21
882.813	937.61
882.989	950.98
883.165	1019.56
883.341	895.18
883.517	991.28
883.693	955.63
883.869	983.14
884.044	958.34
884.22	986.04
884.396	988.56
884.572	952.33
884.747	989.34
884.923	962.21
885.099	990.69
885.275	999.61
885.45	935.67
885.626	956.21
885.801	928.11
885.977	910.29
886.153	891.88
886.328	974.42
886.504	934.89
886.679	925.98
886.855	938.19
887.03	949.62
887.206	994.57
887.381	961.05
887.557	955.63
887.732	981.2
887.908	970.35
888.083	984.88
888.258	942.06
888.434	927.92
888.609	955.43
888.784	987.79
888.96	965.7
889.135	923.27
889.31	905.83
889.485	957.95
889.661	917.85
889.836	962.02
890.011	959.5
890.186	962.41
890.361	889.95
890.537	980.04
890.712	983.33
890.887	914.55
891.062	932.38
891.237	981.59
891.412	919.4
891.587	973.64
891.762	962.99
891.937	952.33
892.112	930.05
892.287	958.92
892.462	880.84
892.637	887.04
892.812	864.76
892.987	866.89
893.161	862.43
893.336	870.38
893.511	880.84
893.686	909.51
893.861	848.29
894.035	873.48
894.21	847.9
894.385	803.73
894.56	825.43
894.734	792.3
894.909	740.95
895.084	781.45
895.258	721.39
895.433	790.36
895.608	730.49
895.782	706.47
895.957	703.95
896.131	695.04
896.306	638.85
896.48	678.57
896.655	641.37
896.829	632.84
897.004	616.76
897.178	618.7
897.353	597.19
897.527	640.79
897.701	609.59
897.876	587.12
898.05	660.74
898.224	627.42
898.399	662.29
898.573	619.09
898.747	512.72
898.921	566.39
899.096	484.43
899.27	506.33
899.444	522.6
899.618	515.63
899.792	560.77
899.967	509.43
900.141	554.38
900.315	496.64
900.489	502.06
900.663	509.43
900.837	521.05
901.011	503.23
901.185	579.76
901.359	533.64
901.533	555.93
901.707	510.39
901.881	546.24
902.055	523.96
902.229	531.71
902.403	583.82
902.576	510.78
902.75	527.64
902.924	659
903.098	598.94
903.272	657.64
903.446	664.42
903.619	645.05
903.793	702.59
903.967	633.23
904.14	712.09
904.314	698.72
904.488	692.13
904.661	707.63
904.835	675.08
905.009	735.72
905.182	738.44
905.356	736.69
905.529	675.47
905.703	664.81
905.876	678.37
906.05	633.62
906.223	617.34
906.397	548.76
906.57	554.38
906.744	541.39
906.917	559.41
907.09	534.61
907.264	534.42
907.437	501.48
907.61	461.96
907.784	504
907.957	518.92
908.13	488.31
908.304	499.54
908.477	487.34
908.65	480.17
908.823	454.01
908.996	514.08
909.17	462.73
909.343	474.55
909.516	487.53
909.689	477.65
909.862	462.35
910.035	478.04
910.208	433.48
910.381	443.55
910.554	516.98
910.727	453.63
910.9	479.4
911.073	446.46
911.246	518.34
911.419	519.5
911.592	479.59
911.765	454.98
911.938	437.55
912.11	460.99
912.283	458.28
912.456	477.46
912.629	478.43
912.802	432.12
912.974	378.26
913.147	395.31
913.32	349
913.493	361.02
913.665	394.34
913.838	385.43
914.01	398.02
914.183	399.77
914.356	410.23
914.528	446.46
914.701	474.16
914.873	434.45
915.046	418.56
915.218	376.52
915.391	317.62
915.563	338.54
915.736	383.88
915.908	410.42
916.081	383.88
916.253	382.91
916.425	420.11
916.598	432.7
916.77	416.23
916.942	369.15
917.115	301.34
917.287	402.48
917.459	351.72
917.632	317.81
917.804	305.99
917.976	369.35
918.148	374
918.32	376.32
918.493	418.56
918.665	426.11
918.837	408.87
919.009	477.46
919.181	469.51
919.353	425.34
919.525	426.7
919.697	425.73
919.869	418.56
920.041	494.31
920.213	522.79
920.385	481.33
920.557	433.67
920.729	446.65
920.901	459.63
921.073	423.01
921.244	418.56
921.416	471.45
921.588	420.88
921.76	441.23
921.932	510.01
922.103	431.54
922.275	452.27
922.447	432.7
922.619	378.65
922.79	430.18
922.962	389.5
923.134	413.33
923.305	361.98
923.477	348.42
923.648	374.19
923.82	361.02
923.991	335.83
924.163	318.2
924.335	350.94
924.506	362.57
924.677	400.35
924.849	328.08
925.02	387.37
925.192	388.14
925.363	362.18
925.535	385.43
925.706	353.65
925.877	388.92
926.049	327.3
926.22	364.5
926.391	364.89
926.562	391.05
926.734	342.8
926.905	412.16
927.076	293.4
927.247	344.16
927.419	299.21
927.59	311.03
927.761	296.3
927.932	288.55
928.103	291.85
928.274	269.76
928.445	239.15
928.616	261.24
928.787	245.74
928.958	262.2
929.129	260.85
929.3	251.16
929.471	195.75
929.642	173.66
929.813	133.36
929.984	225.59
930.155	120.58
930.326	186.26
930.496	169.01
930.667	93.45
930.838	131.04
931.009	113.79
931.18	154.48
931.35	128.91
931.521	151.77
931.692	83.96
931.863	60.71
932.033	114.96
932.204	112.63
932.374	97.71
932.545	41.91
932.716	129.29
932.886	99.26
933.057	44.63
933.227	77.37
933.398	105.85
933.568	56.25
933.739	-12.34
933.909	11.3
934.08	78.14
934.25	11.3
934.421	7.04
934.591	56.83
934.761	23.9
934.932	-20.28
935.102	40.95
935.272	27.58
935.443	29.51
935.613	16.73
935.783	20.99
935.953	-6.52
936.123	121.16
936.294	13.43
936.464	9.36
936.634	39.59
936.804	-16.21
936.974	3.94
937.144	20.99
937.314	23.7
937.484	7.62
937.655	7.81
937.825	59.93
937.995	12.46
938.165	63.23
938.334	21.76
938.504	21.57
938.674	35.13
938.844	33.39
939.014	76.98
939.184	81.63
939.354	109.53
939.524	110.89
939.694	83.38
939.863	52.57
940.033	107.59
940.203	120.19
940.373	83.96
940.542	98.29
940.712	72.91
940.882	74.46
941.051	126
941.221	120.77
941.391	130.65
941.56	65.74
941.73	38.62
941.899	138.79
942.069	100.23
942.238	107.21
942.408	46.37
942.577	101.98
942.747	83.38
942.916	20.6
943.086	58.77
943.255	103.33
943.425	70.01
943.594	40.75
943.763	14.98
943.933	9.36
944.102	-16.99
944.271	57.03
944.441	48.5
944.61	42.88
944.779	52.18
944.948	113.41
945.117	29.51
945.287	47.15
945.456	5.88
945.625	22.93
945.794	63.23
945.963	40.75
946.132	54.9
946.301	26.61
946.47	63.42
946.639	-7.1
946.808	31.26
946.977	64.58
947.146	109.14
947.315	12.27
947.484	77.18
947.653	40.95
947.822	41.53
947.991	38.62
948.16	101.98
948.329	105.27
948.498	35.13
948.666	53.35
948.835	71.17
949.004	43.46
949.173	24.67
949.341	43.85
949.51	84.73
949.679	69.04
949.847	64.58
950.016	119.22
950.185	97.52
950.353	38.43
950.522	56.64
950.69	96.94
950.859	50.83
951.028	77.95
951.196	68.07
951.365	62.06
951.533	52.18
951.701	76.21
951.87	83.96
952.038	9.95
952.207	50.44
952.375	96.74
952.543	37.65
952.712	30.48
952.88	36.88
953.048	113.79
953.217	53.35
953.385	66.52
953.553	87.06
953.721	31.45
953.89	47.92
954.058	-4
954.226	33.2
954.394	47.15
954.562	8.98
954.73	66.33
954.898	37.46
955.067	91.51
955.235	41.72
955.403	76.01
955.571	92.87
955.739	82.99
955.907	20.02
956.075	36.49
956.243	31.65
956.41	61.09
956.578	6.85
956.746	11.5
956.914	59.35
957.082	75.82
957.25	76.4
957.418	33.2
957.585	53.15
957.753	97.71
957.921	31.26
958.089	42.69
958.256	70.01
958.424	73.88
958.592	57.03
958.759	40.36
958.927	90.16
959.095	41.72
959.262	47.53
959.43	57.61
959.597	44.82
959.765	49.08
959.932	25.45
960.1	96.94
960.267	51.41
960.435	44.63
960.602	82.79
960.77	40.36
960.937	23.9
961.104	78.92
961.272	21.18
961.439	55.48
961.606	65.16
961.774	103.91
961.941	26.61
962.108	74.46
962.275	53.15
962.443	104.49
962.61	95.78
962.777	137.04
962.944	72.33
963.111	88.8
963.278	86.86
963.446	61.68
963.613	65.94
963.78	95.19
963.947	100.81
964.114	98.29
964.281	136.66
964.448	101.78
964.615	54.9
964.782	55.48
964.949	102.94
965.116	104.49
965.282	123.48
965.449	61.87
965.616	29.32
965.783	69.43
965.95	80.28
966.117	30.29
966.283	62.06
966.45	71.17
966.617	70.59
966.784	85.7
966.95	119.99
967.117	112.24
967.284	70.59
967.45	66.52
967.617	118.25
967.784	78.14
967.95	103.14
968.117	93.64
968.283	146.92
968.45	176.18
968.616	129.1
968.783	133.75
968.949	113.02
969.116	115.15
969.282	101.98
969.449	110.31
969.615	93.26
969.781	63.81
969.948	93.84
970.114	61.87
970.28	154.29
970.447	97.71
970.613	129.1
970.779	93.64
970.945	110.11
971.112	116.31
971.278	109.92
971.444	94.03
971.61	135.88
971.776	86.67
971.942	116.51
972.108	119.61
972.275	104.88
972.441	138.4
972.607	154.29
972.773	74.85
972.939	94.61
973.105	88.03
973.271	60.32
973.437	93.64
973.602	73.49
973.768	84.15
973.934	83.96
974.1	91.51
974.266	47.92
974.432	103.33
974.598	51.6
974.763	109.73
974.929	75.63
975.095	147.12
975.261	73.49
975.426	61.68
975.592	79.11
975.758	141.89
975.923	49.28
976.089	70.78
976.255	105.27
976.42	101.01
976.586	114.38
976.751	103.14
976.917	143.63
977.082	96.74
977.248	38.23
977.413	30.87
977.579	58.19
977.744	108.76
977.91	54.51
978.075	72.14
978.24	115.54
978.406	82.79
978.571	81.24
978.736	56.06
978.902	89.38
979.067	55.09
979.232	20.02
979.397	85.51
979.563	105.85
979.728	64.58
979.893	71.56
980.058	56.06
980.223	107.98
980.388	81.24
980.554	97.33
980.719	72.72
980.884	79.69
981.049	111.28
981.214	64.19
981.379	85.7
981.544	59.35
981.709	82.99
981.874	87.44
982.039	61.68
982.204	91.71
982.368	54.9
982.533	50.83
982.698	125.81
982.863	114.76
983.028	73.69
983.193	91.51
983.357	72.14
983.522	77.56
983.687	83.18
983.852	65.16
984.016	70.2
984.181	77.37
984.346	116.31
984.51	64
984.675	97.33
984.839	107.79
985.004	77.76
985.168	105.46
985.333	102.17
985.498	63.81
985.662	107.01
985.827	105.66
985.991	100.43
986.155	53.15
986.32	98.88
986.484	131.23
986.649	112.83
986.813	43.27
986.977	74.85
987.142	123.29
987.306	43.27
987.47	51.6
987.634	83.76
987.799	80.28
987.963	87.25
988.127	98.88
988.291	152.54
988.455	89.58
988.62	70.78
988.784	97.71
988.948	101.78
989.112	62.45
989.276	88.41
989.44	88.03
989.604	66.52
989.768	49.28
989.932	145.96
990.096	26.22
990.26	25.64
990.424	46.37
990.588	83.96
990.752	157
990.915	98.49
991.079	52.38
991.243	48.5
991.407	113.41
991.571	73.3
991.734	90.35
991.898	83.57
992.062	134.91
992.226	52.18
992.389	61.09
992.553	26.61
992.717	59.93
992.88	50.44
993.044	40.56
993.207	66.91
993.371	86.86
993.535	96.36
993.698	50.83
993.862	93.45
994.025	104.3
994.189	84.93
994.352	50.44
994.515	85.89
994.679	92.09
994.842	54.7
995.006	81.24
995.169	52.38
995.332	67.88
995.496	82.99
995.659	52.38
995.822	56.83
995.985	81.44
996.149	95.97
996.312	72.53
996.475	112.24
996.638	41.91
996.801	126
996.964	107.01
997.128	70.98
997.291	53.73
997.454	95
997.617	8.01
997.78	127.55
997.943	41.14
998.106	89.38
998.269	64.58
998.432	38.81
998.595	59.74
998.758	33.97
998.92	52.76
999.083	13.05
999.246	69.43
999.409	-0.52
999.572	21.76
999.735	48.7
999.897	54.12
1000.06	42.11
1000.223	47.53
1000.386	81.05
1000.548	56.83
1000.711	86.48
1000.874	63.03
1001.036	11.69
1001.199	76.98
1001.361	45.98
1001.524	69.43
1001.687	81.83
1001.849	27
1002.012	69.43
1002.174	37.07
1002.337	79.5
1002.499	53.54
1002.661	60.32
1002.824	13.82
1002.986	13.43
1003.149	50.63
1003.311	11.5
1003.473	97.33
1003.636	32.42
1003.798	70.98
1003.96	58.38
1004.123	57.41
1004.285	13.43
1004.447	51.8
1004.609	48.7
1004.771	86.67
1004.933	16.34
1005.096	18.66
1005.258	27.38
1005.42	26.03
1005.582	70.2
1005.744	27.77
1005.906	6.07
1006.068	38.04
1006.23	12.85
1006.392	-12.53
1006.554	39.4
1006.716	99.26
1006.878	44.63
1007.04	24.67
1007.202	13.24
1007.363	51.02
1007.525	74.27
1007.687	57.61
1007.849	77.76
1008.011	12.08
1008.172	22.73
1008.334	27.19
1008.496	72.72
1008.658	5.3
1008.819	24.48
1008.981	-0.32
1009.143	19.83
1009.304	5.88
1009.466	53.73
1009.627	93.06
1009.789	112.24
1009.95	36.88
1010.112	-9.43
1010.273	60.13
1010.435	21.57
1010.596	-3.04
1010.758	43.08
1010.919	12.66
1011.081	17.11
1011.242	31.65
1011.403	55.48
1011.565	31.26
1011.726	49.66
1011.887	1.03
1012.049	1.81
1012.21	43.08
1012.371	71.36
1012.532	-31.9
1012.693	18.47
1012.855	-1.49
1013.016	38.62
1013.177	55.86
1013.338	34.75
1013.499	88.61
1013.66	64.19
1013.821	66.52
1013.982	19.25
1014.143	31.65
1014.304	24.48
1014.465	43.85
1014.626	30.29
1014.787	45.98
1014.948	92.48
1015.109	-34.23
1015.27	72.33
1015.431	39.78
1015.592	26.03
1015.752	61.68
1015.913	56.45
1016.074	65.16
1016.235	38.62
1016.395	26.41
1016.556	14.79
1016.717	7.23
1016.877	79.31
1017.038	12.85
1017.199	39.78
1017.359	7.81
1017.52	34.16
1017.681	18.28
1017.841	12.66
1018.002	30.1
1018.162	18.86
1018.323	55.67
1018.483	30.1
1018.644	13.05
1018.804	-4.97
1018.964	-1.87
1019.125	8.4
1019.285	31.26
1019.446	5.49
1019.606	7.43
1019.766	-21.05
1019.926	44.05
1020.087	51.6
1020.247	-9.24
1020.407	57.22
1020.567	57.41
1020.728	15.95
1020.888	-17.18
1021.048	2
1021.208	-10.98
1021.368	-1.29
1021.528	59.93
1021.688	37.46
1021.848	48.89
1022.008	34.16
1022.168	22.93
1022.328	4.52
1022.488	4.52
1022.648	16.73
1022.808	22.35
1022.968	21.38
1023.128	4.91
1023.288	8.98
1023.448	-1.68
1023.608	45.01
1023.767	58.77
1023.927	2.39
1024.087	-12.72
1024.247	-18.54
1024.406	4.33
1024.566	-16.99
1024.726	-31.13
1024.885	12.85
1025.045	37.46
1025.205	-2.26
1025.364	11.88
1025.524	24.28
1025.683	9.17
1025.843	28.55
1026.003	-10.2
1026.162	55.48
1026.321	49.66
1026.481	44.05
1026.64	-15.24
1026.8	18.47
1026.959	14.6
1027.119	2.2
1027.278	-2.07
1027.437	-4
1027.597	0.06
1027.756	23.12
1027.915	39.98
1028.074	18.28
1028.234	14.21
1028.393	8.98
1028.552	9.95
1028.711	-59.03
1028.87	49.86
1029.03	-6.14
1029.189	1.81
1029.348	-68.13
1029.507	-4.97
1029.666	7.23
1029.825	-9.04
1029.984	-2.65
1030.143	40.95
1030.302	-11.75
1030.461	-25.9
1030.62	19.44
1030.779	24.09
1030.938	-4.97
1031.097	-0.9
1031.255	31.06
1031.414	66.13
1031.573	46.18
1031.732	-22.02
1031.891	18.28
1032.049	56.06
1032.208	15.18
1032.367	6.85
1032.525	5.3
1032.684	5.49
1032.843	32.81
1033.001	-27.84
1033.16	134.53
1033.319	34.75
1033.477	22.15
1033.636	-4.2
1033.794	-57.28
1033.953	29.51
1034.111	39.78
1034.27	0.65
1034.428	39.2
1034.587	-40.04
1034.745	14.4
1034.903	-1.68
1035.062	17.31
1035.22	-22.41
1035.378	44.05
1035.537	-32.29
1035.695	22.15
1035.853	-10.59
1036.011	45.01
1036.17	18.66
1036.328	-42.17
1036.486	36.68
1036.644	15.18
1036.802	-63.1
1036.96	-25.12
1037.119	-8.07
1037.277	-5.55
1037.435	-3.81
1037.593	-12.53
1037.751	7.62
1037.909	45.4
1038.067	45.4
