Data from gum_young_FLMT105791__102__17-40-30-041.txt Node

Date: Mon Mar 20 17:40:30 GMT 2023
User: antho
Spectrometer: FLMT10579
Trigger mode: 0
Integration Time (sec): 1.000000E-1
Scans to average: 10
Electric dark correction enabled: true
Nonlinearity correction enabled: false
Boxcar width: 0
XAxis mode: Wavelengths
Number of Pixels in Spectrum: 3648
>>>>>Begin Spectral Data<<<<<
345.248	-121.87
345.464	-121.87
345.681	-121.87
345.898	-140.47
346.114	-141.24
346.331	-37.97
346.548	28.87
346.764	-13.17
346.981	2.52
347.197	-25.96
347.414	16.08
347.631	-36.81
347.847	55.8
348.064	40.88
348.28	30.03
348.497	-38.94
348.713	-21.31
348.93	26.35
349.146	45.72
349.363	10.07
349.579	24.41
349.796	14.53
350.012	-15.11
350.229	40.11
350.445	-1.16
350.661	-33.71
350.878	28.29
351.094	31.58
351.311	37.2
351.527	26.16
351.743	3.68
351.96	26.16
352.176	47.47
352.392	19.96
352.609	29.45
352.825	6.59
353.041	4.84
353.257	4.07
353.474	3.68
353.69	6.01
353.906	14.53
354.122	-2.71
354.339	44.56
354.555	2.52
354.771	-3.49
354.987	52.89
355.203	54.06
355.42	-8.52
355.636	-3.29
355.852	12.21
356.068	14.72
356.284	-7.56
356.5	65.1
356.716	35.07
356.932	27.51
357.148	26.74
357.364	7.56
357.58	36.62
357.796	67.04
358.012	33.52
358.228	21.89
358.444	-43.79
358.66	45.34
358.876	12.98
359.092	10.66
359.308	31
359.524	53.47
359.74	-1.36
359.956	9.69
360.172	26.74
360.388	57.35
360.604	8.14
360.819	98.81
361.035	23.64
361.251	56.77
361.467	22.67
361.683	47.08
361.898	36.42
362.114	58.9
362.33	31.97
362.546	55.41
362.762	21.31
362.977	18.99
363.193	-4.65
363.409	18.41
363.624	-21.31
363.84	-10.27
364.056	22.47
364.271	69.56
364.487	27.9
364.703	27.12
364.918	-6.2
365.134	15.31
365.35	8.14
365.565	111.99
365.781	15.11
365.996	44.76
366.212	86.61
366.427	37.78
366.643	2.91
366.858	-18.41
367.074	9.69
367.289	75.95
367.505	93
367.72	-19.57
367.936	-11.24
368.151	72.27
368.367	35.26
368.582	29.64
368.798	7.17
369.013	62.58
369.228	15.31
369.444	41.07
369.659	100.17
369.874	14.14
370.09	69.36
370.305	-22.47
370.52	32.36
370.736	67.62
370.951	47.08
371.166	62.97
371.381	62
371.597	50.76
371.812	17.24
372.027	7.56
372.242	12.59
372.458	88.93
372.673	20.92
372.888	44.76
373.103	64.13
373.318	101.72
373.533	50.37
373.749	39.33
373.964	-22.86
374.179	86.22
374.394	-6.59
374.609	76.34
374.824	9.69
375.039	71.49
375.254	29.45
375.469	53.67
375.684	40.49
375.899	52.31
376.114	30.42
376.329	35.07
376.544	58.9
376.759	69.17
376.974	37.01
377.189	34.1
377.404	16.47
377.619	47.66
377.834	-9.69
378.049	-11.04
378.264	-14.92
378.478	29.84
378.693	28.09
378.908	56.77
379.123	40.88
379.338	56.96
379.553	36.62
379.767	64.13
379.982	40.69
380.197	63.74
380.412	42.62
380.626	70.91
380.841	110.82
381.056	48.05
381.271	89.12
381.485	9.69
381.7	13.56
381.915	28.67
382.129	-5.42
382.344	50.96
382.559	46.11
382.773	75.95
382.988	-21.51
383.202	41.46
383.417	31.39
383.632	118.19
383.846	30.42
384.061	54.44
384.275	34.87
384.49	52.31
384.704	40.69
384.919	58.9
385.133	40.88
385.348	68.2
385.562	7.94
385.777	68.59
385.991	34.1
386.206	50.76
386.42	18.99
386.634	84.86
386.849	43.01
387.063	48.63
387.277	25.19
387.492	18.21
387.706	7.75
387.92	-14.72
388.135	76.72
388.349	43.98
388.563	39.72
388.778	60.26
388.992	69.75
389.206	78.08
389.42	106.37
389.635	28.67
389.849	78.08
390.063	65.49
390.277	45.53
390.491	109.47
390.706	76.72
390.92	83.12
391.134	46.11
391.348	95.71
391.562	12.4
391.776	54.44
391.99	41.46
392.205	84.09
392.419	29.64
392.633	42.62
392.847	73.62
393.061	37.39
393.275	99
393.489	57.93
393.703	78.08
393.917	84.47
394.131	29.84
394.345	64.32
394.559	85.64
394.773	53.67
394.986	64.13
395.2	39.14
395.414	74.79
395.628	26.74
395.842	61.42
396.056	55.02
396.27	3.68
396.484	69.56
396.697	45.72
396.911	87.19
397.125	65.49
397.339	76.72
397.553	57.35
397.766	125.55
397.98	99
398.194	83.89
398.408	84.86
398.621	100.17
398.835	125.74
399.049	86.22
399.262	121.67
399.476	126.52
399.69	117.6
399.903	149.96
400.117	83.51
400.331	111.02
400.544	53.28
400.758	154.22
400.971	107.53
401.185	121.29
401.398	56.96
401.612	142.79
401.826	125.74
402.039	134.46
402.253	94.55
402.466	125.94
402.68	87.38
402.893	104.43
403.106	113.92
403.32	80.21
403.533	101.14
403.747	100.94
403.96	91.64
404.174	116.25
404.387	77.5
404.6	92.61
404.814	123.22
405.027	99.97
405.24	108.3
405.454	95.9
405.667	151.12
405.88	77.31
406.094	116.64
406.307	161.59
406.52	97.45
406.733	83.7
406.947	57.16
407.16	144.73
407.373	146.28
407.586	91.64
407.799	91.06
408.012	138.14
408.226	146.67
408.439	179.99
408.652	79.24
408.865	116.25
409.078	159.84
409.291	129.23
409.504	75.95
409.717	147.25
409.93	140.85
410.143	113.73
410.357	103.07
410.57	114.7
410.783	109.08
410.996	117.02
411.209	110.05
411.421	159.26
411.634	140.85
411.847	137.56
412.06	137.37
412.273	109.66
412.486	129.23
412.699	227.46
412.912	126.32
413.125	140.47
413.338	137.17
413.55	150.93
413.763	137.56
413.976	171.27
414.189	129.42
414.402	132.33
414.615	189.48
414.827	117.99
415.04	182.51
415.253	173.79
415.466	191.42
415.678	206.92
415.891	150.35
416.104	144.34
416.316	136.98
416.529	141.82
416.742	164.49
416.954	181.93
417.167	159.45
417.38	140.47
417.592	163.52
417.805	120.9
418.017	120.12
418.23	166.43
418.442	121.48
418.655	135.62
418.868	152.09
419.08	183.09
419.293	193.75
419.505	184.64
419.718	197.82
419.93	169.92
420.142	154.8
420.355	198.01
420.567	209.83
420.78	197.04
420.992	155.97
421.205	225.91
421.417	139.89
421.629	162.36
421.842	129.62
422.054	132.91
422.266	205.95
422.479	215.25
422.691	126.52
422.903	181.15
423.115	133.1
423.328	153.06
423.54	166.62
423.752	170.11
423.964	134.85
424.177	184.06
424.389	152.67
424.601	268.73
424.813	190.26
425.025	218.74
425.238	196.85
425.45	148.41
425.662	166.82
425.874	460.92
426.086	177.28
426.298	198.2
426.51	159.84
426.722	169.72
426.934	190.45
427.146	213.12
427.358	154.8
427.57	205.37
427.782	185.22
427.994	174.18
428.206	143.95
428.418	132.72
428.63	211.18
428.842	221.65
429.054	201.5
429.266	208.67
429.478	155.77
429.69	164.88
429.902	155.19
430.114	200.33
430.325	188.71
430.537	153.25
430.749	160.62
430.961	137.56
431.173	152.67
431.384	170.3
431.596	86.8
431.808	155.97
432.02	197.43
432.231	209.05
432.443	245.67
432.655	210.02
432.867	196.27
433.078	222.62
433.29	250.52
433.502	223.78
433.713	236.18
433.925	231.53
434.136	251.1
434.348	159.84
434.56	167.01
434.771	281.71
434.983	166.04
435.194	199.95
435.406	208.67
435.617	273.57
435.829	264.46
436.04	248.38
436.252	257.3
436.463	285.78
436.675	285.58
436.886	270.28
437.098	259.04
437.309	296.24
437.521	248.38
437.732	248.58
437.943	255.17
438.155	227.07
438.366	220.1
438.578	292.95
438.789	241.6
439	245.28
439.211	226.88
439.423	235.98
439.634	258.46
439.845	293.33
440.057	257.88
440.268	274.93
440.479	226.49
440.69	243.54
440.902	253.42
441.113	251.87
441.324	208.47
441.535	266.4
441.746	308.06
441.957	245.87
442.168	250.52
442.38	301.08
442.591	307.28
442.802	266.6
443.013	275.31
443.224	305.54
443.435	259.82
443.646	273.96
443.857	313.29
444.068	258.27
444.279	273.96
444.49	353.59
444.701	292.36
444.912	376.06
445.123	336.93
445.334	313.48
445.545	308.64
445.756	266.01
445.967	271.83
446.178	307.48
446.388	321.62
446.599	311.74
446.81	337.9
447.021	287.52
447.232	357.85
447.443	369.86
447.653	285
447.864	329.18
448.075	336.15
448.286	350.1
448.496	332.47
448.707	362.69
448.918	335.96
449.129	410.74
449.339	311.93
449.55	335.76
449.761	334.8
449.971	378.78
450.182	332.47
450.393	343.32
450.603	340.03
450.814	383.62
451.024	374.51
451.235	365.41
451.446	416.75
451.656	413.84
451.867	351.84
452.077	375.68
452.288	398.54
452.498	401.44
452.709	340.22
452.919	375.87
453.13	359.01
453.34	392.34
453.55	317.94
453.761	369.67
453.971	375.48
454.182	392.34
454.392	390.98
454.602	426.44
454.813	408.23
455.023	399.51
455.233	338.67
455.444	356.49
455.654	334.21
455.864	368.31
456.075	381.49
456.285	334.6
456.495	373.93
456.705	391.37
456.916	428.38
457.126	433.22
457.336	420.24
457.546	343.9
457.756	358.63
457.967	433.03
458.177	384.98
458.387	410.94
458.597	372.96
458.807	383.23
459.017	354.17
459.227	365.6
459.437	384.01
459.647	407.64
459.857	426.05
460.068	387.3
460.278	449.3
460.488	432.64
460.698	451.24
460.908	416.56
461.117	391.95
461.327	396.99
461.537	416.56
461.747	400.67
461.957	430.31
462.167	529.32
462.377	449.69
462.587	450.27
462.797	437.87
463.007	452.21
463.216	452.21
463.426	488.05
463.636	462.86
463.846	403.77
464.056	396.79
464.265	479.72
464.475	385.94
464.685	491.54
464.895	438.84
465.104	427.02
465.314	453.76
465.524	436.51
465.733	410.74
465.943	518.08
466.153	517.31
466.362	476.42
466.572	475.07
466.782	439.42
466.991	481.46
467.201	518.66
467.41	399.51
467.62	504.71
467.829	466.16
468.039	502.39
468.249	464.41
468.458	480.88
468.668	489.21
468.877	508.59
469.086	527.38
469.296	503.94
469.505	491.54
469.715	560.32
469.924	495.41
470.134	542.49
470.343	521.18
470.552	481.27
470.762	499.29
470.971	458.21
471.18	485.14
471.39	521.18
471.599	485.92
471.808	515.17
472.018	492.51
472.227	540.94
472.436	539.97
472.645	538.42
472.855	521.96
473.064	570
473.273	535.52
473.482	561.09
473.691	542.88
473.901	555.67
474.11	551.79
474.319	623.87
474.528	552.57
474.737	621.35
474.946	591.32
475.155	595
475.364	613.21
475.573	569.04
475.783	610.3
475.992	594.22
476.201	645.37
476.41	623.28
476.619	545.2
476.828	611.08
477.037	557.99
477.245	599.26
477.454	647.12
477.663	584.15
477.872	619.8
478.081	666.49
478.29	599.84
478.499	693.23
478.708	640.14
478.917	702.14
479.125	686.64
479.334	665.91
479.543	629.68
479.752	670.95
479.961	701.75
480.169	722.48
480.378	670.56
480.587	817.23
480.796	715.31
481.004	721.71
481.213	723.65
481.422	693.03
481.63	709.31
481.839	748.06
482.048	784.29
482.256	736.43
482.465	751.35
482.674	735.08
482.882	753.48
483.091	813.16
483.299	787.39
483.508	780.8
483.716	773.44
483.925	792.62
484.134	759.49
484.342	750.38
484.551	809.28
484.759	808.89
484.967	793.59
485.176	858.69
485.384	787.58
485.593	823.43
485.801	818.97
486.01	763.17
486.218	721.9
486.426	703.69
486.635	696.52
486.843	697.1
487.051	747.67
487.26	743.21
487.468	758.71
487.676	823.62
487.885	792.04
488.093	834.86
488.301	825.56
488.509	818.97
488.717	876.9
488.926	857.72
489.134	826.53
489.342	832.92
489.55	823.62
489.758	842.22
489.967	835.44
490.175	945.49
490.383	900.73
490.591	959.82
490.799	869.54
491.007	935.61
491.215	954.4
491.423	902.09
491.631	897.63
491.839	917.78
492.047	958.66
492.255	843.96
492.463	834.28
492.671	876.32
492.879	929.6
493.087	953.82
493.295	956.14
493.503	981.52
493.711	991.02
493.919	994.12
494.127	967.57
494.334	996.44
494.542	959.63
494.75	985.2
494.958	983.46
495.166	1036.55
495.374	1002.45
495.581	1017.17
495.789	1047.4
495.997	1064.45
496.205	1000.9
496.412	993.73
496.62	1045.85
496.828	1035.58
497.035	1018.92
497.243	1064.64
497.451	1076.46
497.658	1058.44
497.866	1038.87
498.074	1098.16
498.281	1029.96
498.489	1141.17
498.696	1059.02
498.904	1021.82
499.112	1060.96
499.319	1118.89
499.527	1035.58
499.734	1138.26
499.942	1043.33
500.149	1086.92
500.357	1110.95
500.564	1050.88
500.771	1106.68
500.979	1047.2
501.186	1065.22
501.394	1109.2
501.601	1078.01
501.808	1142.53
502.016	1099.13
502.223	1071.81
502.43	1090.22
502.638	1109.78
502.845	1115.4
503.052	1170.23
503.26	1121.02
503.467	1213.63
503.674	1136.52
503.881	1159.58
504.089	1246.38
504.296	1194.84
504.503	1132.65
504.71	1166.94
504.917	1161.51
505.125	1213.83
505.332	1177.98
505.539	1216.54
505.746	1284.93
505.953	1259.55
506.16	1264.2
506.367	1299.46
506.574	1350.03
506.781	1358.56
506.988	1274.47
507.195	1328.52
507.402	1308.76
507.609	1333.17
507.816	1291.52
508.023	1295.59
508.23	1296.94
508.437	1300.63
508.644	1320.77
508.851	1373.47
509.058	1404.09
509.265	1366.31
509.472	1393.82
509.679	1478.1
509.885	1413.77
510.092	1406.99
510.299	1387.04
510.506	1450.97
510.713	1447.68
510.92	1447.49
511.126	1483.91
511.333	1534.28
511.54	1518.78
511.746	1537.38
511.953	1573.81
512.16	1577.68
512.367	1540.1
512.573	1534.48
512.78	1552.5
512.987	1547.85
513.193	1517.43
513.4	1493.6
513.606	1549.2
513.813	1591.25
514.02	1554.43
514.226	1627.86
514.433	1620.7
514.639	1570.9
514.846	1634.84
515.052	1610.04
515.259	1631.74
515.465	1631.74
515.672	1662.74
515.878	1764.07
516.085	1734.04
516.291	1721.25
516.497	1701.1
516.704	1666.23
516.91	1624.38
517.117	1600.55
517.323	1514.72
517.529	1602.29
517.736	1570.9
517.942	1612.75
518.148	1613.33
518.354	1674.17
518.561	1697.61
518.767	1688.7
518.973	1747.99
519.179	1764.84
519.386	1776.27
519.592	1746.63
519.798	1751.47
520.004	1893.69
520.21	1883.22
520.417	1914.42
520.623	1954.13
520.829	1983.97
521.035	1968.28
521.241	2010.71
521.447	2005.28
521.653	2156.99
521.859	2053.72
522.065	2118.04
522.271	2160.86
522.477	2121.92
522.683	2203.87
522.889	2132.58
523.095	2099.83
523.301	2137.23
523.507	2076
523.713	2141.88
523.919	2098.67
524.125	2228.67
524.331	2217.05
524.537	2326.52
524.742	2324.77
524.948	2316.64
525.154	2332.33
525.36	2414.48
525.566	2345.12
525.772	2411.77
525.977	2297.84
526.183	2368.75
526.389	2408.28
526.595	2312.18
526.8	2313.73
527.006	2220.34
527.212	2201.94
527.417	2172.68
527.623	2189.73
527.829	2273.43
528.034	2301.33
528.24	2348.8
528.446	2355.77
528.651	2485.39
528.857	2493.14
529.062	2533.44
529.268	2540.03
529.473	2562.5
529.679	2598.54
529.884	2672.36
530.09	2637.48
530.295	2645.42
530.501	2667.9
530.706	2660.92
530.912	2596.21
531.117	2623.34
531.323	2634.57
531.528	2696.96
531.733	2721.95
531.939	2692.7
532.144	2700.06
532.35	2710.33
532.555	2767.87
532.76	2702.97
532.966	2663.06
533.171	2612.1
533.376	2610.36
533.581	2588.27
533.787	2629.15
533.992	2742.69
534.197	2689.6
534.402	2733.58
534.607	2739.78
534.813	2822.9
535.018	2737.07
535.223	2758.38
535.428	2773.69
535.633	2847.31
535.838	2884.12
536.043	2894.2
536.249	2983.13
536.454	2911.63
536.659	2924.81
536.864	2857.77
537.069	2852.35
537.274	2880.44
537.479	2870.95
537.684	2886.06
537.889	2860.87
538.094	2938.76
538.299	2863.97
538.504	2965.3
538.708	2898.65
538.913	2961.04
539.118	2956.78
539.323	2956.58
539.528	2929.07
539.733	2933.33
539.938	2915.12
540.142	2966.08
540.347	2920.74
540.552	2860.1
540.757	2818.44
540.962	2869.78
541.166	2797.71
541.371	2806.04
541.576	2850.41
541.781	2781.63
541.985	2901.17
542.19	2885.28
542.395	2948.25
542.599	2980.99
542.804	2971.31
543.008	3027.69
543.213	2946.7
543.418	2898.65
543.622	2980.22
543.827	2890.13
544.031	3034.28
544.236	3005.99
544.44	3027.11
544.645	3100.15
544.849	2994.75
545.054	3055.01
545.258	3082.91
545.463	3066.05
545.667	2972.08
545.872	3098.41
546.076	3057.33
546.281	3028.46
546.485	3038.93
546.689	3070.12
546.894	3054.23
547.098	3051.91
547.302	3040.67
547.507	3052.68
547.711	3076.51
547.915	3098.6
548.119	2988.94
548.324	3034.47
548.528	3094.14
548.732	3073.8
548.936	3107.9
549.141	3085.62
549.345	3078.64
549.549	3051.91
549.753	3129.6
549.957	3185.98
550.161	3151.49
550.366	3159.24
550.57	3037.38
550.774	3126.11
550.978	3102.86
551.182	3081.36
551.386	3073.41
551.59	3139.67
551.794	3111.58
551.998	3099.57
552.202	3129.99
552.406	3127.27
552.61	3186.95
552.814	3151.3
553.018	3183.07
553.222	3069.73
553.426	3060.24
553.63	3176.68
553.833	3114.49
554.037	3095.5
554.241	3099.76
554.445	3115.84
554.649	3106.54
554.853	3088.14
555.056	3167.57
555.26	3176.1
555.464	3085.81
555.668	3124.95
555.871	3184.43
556.075	3177.84
556.279	3094.92
556.483	3064.5
556.686	3113.13
556.89	3109.84
557.094	3073.02
557.297	2977.89
557.501	3103.83
557.704	2946.31
557.908	3067.41
558.112	3000.95
558.315	3073.02
558.519	3042.22
558.722	2963.36
558.926	3012.58
559.129	2883.15
559.333	2899.23
559.536	2885.86
559.74	2866.1
559.943	2832.58
560.147	2870.17
560.35	2857.19
560.553	2878.89
560.757	2847.12
560.96	2947.48
561.164	2851.96
561.367	2993.98
561.57	2896.52
561.774	2917.83
561.977	2904.08
562.18	2854.28
562.384	2983.32
562.587	2872.3
562.79	2845.76
562.993	2820.57
563.197	2860.1
563.4	2911.63
563.603	2888.96
563.806	2936.24
564.009	2874.05
564.212	2859.71
564.416	2761.29
564.619	2870.37
564.822	2762.45
565.025	2863
565.228	2751.02
565.431	2834.52
565.634	2691.34
565.837	2717.5
566.04	2644.07
566.243	2695.8
566.446	2618.69
566.649	2725.25
566.852	2611.71
567.055	2664.8
567.258	2693.86
567.461	2689.99
567.664	2700.26
567.867	2669.84
568.07	2671.58
568.273	2635.93
568.475	2671.77
568.678	2631.28
568.881	2578.58
569.084	2534.41
569.287	2441.99
569.489	2503.8
569.692	2550.88
569.895	2554.36
570.098	2474.54
570.3	2451.1
570.503	2418.93
570.706	2405.76
570.909	2433.47
571.111	2355.77
571.314	2333.88
571.516	2366.43
571.719	2343.95
571.922	2336.98
572.124	2370.5
572.327	2383.09
572.529	2361.97
572.732	2313.73
572.935	2346.67
573.137	2407.5
573.34	2305.98
573.542	2431.33
573.745	2333.3
573.947	2357.52
574.15	2317.8
574.352	2300.17
574.554	2376.31
574.757	2294.16
574.959	2244.56
575.162	2281.76
575.364	2266.26
575.566	2309.08
575.769	2211.62
575.971	2223.83
576.173	2102.35
576.376	2211.04
576.578	2258.51
576.78	2276.92
576.982	2096.93
577.185	2197.29
577.387	2158.73
577.589	2127.93
577.791	2191.28
577.993	2215.5
578.196	2167.84
578.398	2161.83
578.6	2167.26
578.802	2064.76
579.004	2091.11
579.206	2056.82
579.408	2141.1
579.61	2096.73
579.812	2160.67
580.014	2103.13
580.216	2068.06
580.418	2115.53
580.62	2122.5
580.822	2100.03
581.024	2164.35
581.226	2139.55
581.428	2093.83
581.63	2222.67
581.832	2147.88
582.034	2162.22
582.236	2144.59
582.438	2172.49
582.64	2188.57
582.841	2230.42
583.043	2244.95
583.245	2204.84
583.447	2184.5
583.649	2137.81
583.85	2160.28
584.052	2216.66
584.254	2118.82
584.456	2223.06
584.657	2116.88
584.859	2144.98
585.061	2142.46
585.262	2118.24
585.464	2079.68
585.666	2158.34
585.867	2107.58
586.069	2124.05
586.27	2082.2
586.472	2098.86
586.674	2083.36
586.875	2050.81
587.077	2079.3
587.278	2087.24
587.48	2047.91
587.681	2118.43
587.883	2050.04
588.084	1996.57
588.285	2033.57
588.487	2022.33
588.688	1985.91
588.89	1870.44
589.091	1884.58
589.292	1858.62
589.494	1794.87
589.695	1777.63
589.896	1693.93
590.098	1693.74
590.299	1752.06
590.5	1746.24
590.702	1775.69
590.903	1805.14
591.104	1899.5
591.305	1877.41
591.507	1923.33
591.708	1876.64
591.909	1864.82
592.11	1892.52
592.311	1888.65
592.512	1823.74
592.714	1853
592.915	1832.27
593.116	1828.78
593.317	1902.21
593.518	1881.48
593.719	1895.43
593.92	1877.41
594.121	1933.98
594.322	1896.01
594.523	1840.99
594.724	1803.01
594.925	1835.56
595.126	1815.61
595.327	1841.76
595.528	1867.92
595.729	1835.37
595.929	1861.14
596.13	1849.12
596.331	1861.72
596.532	1867.53
596.733	1927.01
596.934	1908.41
597.135	1896.79
597.335	1878.38
597.536	1814.25
597.737	1859.97
597.938	1844.09
598.138	1877.41
598.339	1829.36
598.54	1858.23
598.74	1831.49
598.941	1879.35
599.142	1930.11
599.342	1842.92
599.543	1826.07
599.744	1857.26
599.944	1838.85
600.145	1835.56
600.345	1818.51
600.546	1917.13
600.746	1895.24
600.947	1937.28
601.147	1842.15
601.348	1922.17
601.548	1849.32
601.749	1831.11
601.949	1818.51
602.15	1804.56
602.35	1836.14
602.551	1868.89
602.751	1819.67
602.951	1829.56
603.152	1783.44
603.352	1828.97
603.552	1859.39
603.753	1871.02
603.953	1856.68
604.153	1870.44
604.354	1855.52
604.554	1881.87
604.754	1847.57
604.954	1816.57
605.155	1870.05
605.355	1797.39
605.555	1842.73
605.755	1869.47
605.955	1838.27
606.155	1852.42
606.356	1825.29
606.556	1846.22
606.756	1793.32
606.956	1811.54
607.156	1877.8
607.356	1802.62
607.556	1829.56
607.756	1812.31
607.956	1860.75
608.156	1824.32
608.356	1779.96
608.556	1833.04
608.756	1780.54
608.956	1758.06
609.156	1788.67
609.356	1778.02
609.556	1736.17
609.755	1756.32
609.955	1729.58
610.155	1722.22
610.355	1740.82
610.555	1715.44
610.755	1707.3
610.954	1666.03
611.154	1743.53
611.354	1736.56
611.554	1668.74
611.753	1715.83
611.953	1688.89
612.153	1713.5
612.352	1699.16
612.552	1661.38
612.752	1627.67
612.951	1695.87
613.151	1662.35
613.351	1667.58
613.55	1669.52
613.75	1655.96
613.949	1642.78
614.149	1631.55
614.348	1645.3
614.548	1619.34
614.747	1584.85
614.947	1604.42
615.146	1556.76
615.346	1654.99
615.545	1643.95
615.745	1620.7
615.944	1606.94
616.144	1574.2
616.343	1575.16
616.542	1557.92
616.742	1562.77
616.941	1562.77
617.14	1496.7
617.34	1563.73
617.539	1556.37
617.738	1534.87
617.938	1604.23
618.137	1554.05
618.336	1545.72
618.535	1543
618.734	1528.47
618.934	1567.22
619.133	1562.57
619.332	1595.12
619.531	1527.31
619.73	1523.63
619.929	1589.89
620.128	1566.64
620.328	1596.48
620.527	1527.5
620.726	1506
620.925	1561.02
621.124	1507.16
621.323	1546.49
621.522	1491.85
621.721	1504.83
621.92	1500.96
622.119	1512.97
622.318	1475.39
622.517	1505.03
622.715	1475.19
622.914	1458.14
623.113	1497.67
623.312	1409.12
623.511	1480.81
623.71	1477.9
623.909	1396.53
624.107	1492.43
624.306	1416.49
624.505	1414.55
624.704	1437.6
624.902	1435.28
625.101	1469.19
625.3	1463.37
625.499	1407.57
625.697	1403.31
625.896	1394.4
626.095	1429.85
626.293	1359.52
626.492	1380.45
626.69	1394.59
626.889	1379.67
627.088	1426.95
627.286	1369.99
627.485	1377.54
627.683	1376.57
627.882	1389.75
628.08	1266.72
628.279	1294.43
628.477	1365.14
628.676	1309.15
628.874	1368.05
629.073	1291.33
629.271	1303.34
629.469	1325.23
629.668	1311.86
629.866	1328.91
630.065	1308.96
630.263	1350.42
630.461	1311.09
630.66	1346.54
630.858	1323.68
631.056	1338.41
631.254	1402.34
631.453	1320.58
631.651	1368.05
631.849	1302.56
632.047	1382.58
632.245	1303.14
632.444	1340.34
632.642	1366.31
632.84	1345.19
633.038	1324.26
633.236	1320.19
633.434	1312.25
633.632	1331.04
633.83	1346.35
634.028	1365.14
634.227	1381.81
634.425	1417.07
634.623	1363.01
634.821	1348.09
635.019	1360.11
635.216	1372.12
635.414	1375.41
635.612	1347.71
635.81	1359.72
636.008	1419.97
636.206	1362.24
636.404	1372.51
636.602	1321.94
636.8	1333.17
636.997	1303.92
637.195	1373.47
637.393	1318.84
637.591	1393.82
637.789	1359.72
637.986	1368.05
638.184	1345.57
638.382	1386.65
638.58	1400.02
638.777	1399.82
638.975	1341.31
639.173	1350.42
639.37	1360.49
639.568	1381.22
639.765	1374.25
639.963	1331.82
640.161	1346.16
640.358	1344.61
640.556	1321.94
640.753	1269.82
640.951	1259.36
641.148	1267.11
641.346	1272.14
641.543	1263.62
641.741	1278.73
641.938	1266.33
642.136	1286.68
642.333	1250.83
642.531	1301.79
642.728	1318.84
642.925	1268.08
643.123	1265.94
643.32	1284.16
643.517	1260.13
643.715	1230.1
643.912	1222.16
644.109	1255.29
644.306	1213.63
644.504	1194.06
644.701	1214.21
644.898	1236.69
645.095	1187.67
645.293	1221.38
645.49	1207.24
645.687	1204.33
645.884	1232.23
646.081	1131.48
646.278	1144.27
646.475	1170.04
646.672	1163.26
646.87	1163.06
647.067	1133.03
647.264	1167.71
647.461	1105.72
647.658	1047.98
647.855	1113.85
648.052	1129.74
648.249	1022.6
648.446	1055.73
648.642	1077.82
648.839	1060.38
649.036	1074.13
649.233	1036.74
649.43	1041.39
649.627	999.93
649.824	1039.65
650.021	1032.29
650.217	1060.18
650.414	1047.59
650.611	1062.51
650.808	1113.08
651.004	1058.63
651.201	1065.03
651.398	1123.54
651.595	1042.94
651.791	1043.91
651.988	1075.88
652.185	1032.67
652.381	1045.46
652.578	1000.7
652.775	987.72
652.971	1010.2
653.168	1037.9
653.364	1042.94
653.561	991.99
653.757	1027.64
653.954	1049.53
654.15	1003.03
654.347	1097.97
654.543	1061.54
654.74	977.07
654.936	995.47
655.133	988.3
655.329	1015.04
655.525	1001.87
655.722	1012.14
655.918	946.46
656.115	977.07
656.311	906.35
656.507	862.76
656.704	850.94
656.9	878.84
657.096	885.81
657.292	879.22
657.489	923.4
657.685	935.22
657.881	911.39
658.077	929.41
658.273	953.24
658.47	966.22
658.666	952.27
658.862	963.7
659.058	909.06
659.254	990.24
659.45	947.42
659.646	988.11
659.842	951.49
660.038	1006.52
660.234	943.94
660.43	943.55
660.626	1021.82
660.822	997.02
661.018	994.5
661.214	940.45
661.41	887.17
661.606	951.3
661.802	974.55
661.998	948.78
662.194	926.89
662.39	949.17
662.586	968.15
662.781	968.93
662.977	992.76
663.173	969.51
663.369	933.67
663.564	936.96
663.76	952.85
663.956	891.62
664.152	946.26
664.347	875.54
664.543	909.84
664.739	899.96
664.934	897.24
665.13	861.4
665.326	947.23
665.521	893.95
665.717	848.03
665.912	868.18
666.108	828.46
666.304	886.59
666.499	902.86
666.695	823.23
666.89	893.17
667.086	891.04
667.281	893.76
667.477	935.99
667.672	877.29
667.867	879.61
668.063	898.99
668.258	820.13
668.454	866.05
668.649	927.86
668.844	859.46
669.04	898.41
669.235	854.04
669.43	845.13
669.626	817.23
669.821	855.78
670.016	810.06
670.211	885.42
670.407	805.6
670.602	864.69
670.797	847.64
670.992	905.38
671.187	812.58
671.382	900.73
671.578	807.54
671.773	828.27
671.968	806.96
672.163	847.64
672.358	863.14
672.553	825.56
672.748	823.81
672.943	883.68
673.138	827.49
673.333	848.03
673.528	821.29
673.723	831.95
673.918	808.51
674.113	786.81
674.308	910.42
674.503	845.51
674.698	851.13
674.892	846.29
675.087	873.99
675.282	853.46
675.477	827.49
675.672	847.45
675.867	824.39
676.061	808.89
676.256	753.29
676.451	851.13
676.646	814.51
676.84	813.35
677.035	767.82
677.23	801.34
677.424	854.81
677.619	883.29
677.814	859.85
678.008	856.94
678.203	827.3
678.397	833.89
678.592	839.51
678.787	887.94
678.981	831.56
679.176	875.54
679.37	841.83
679.565	842.03
679.759	834.08
679.954	829.04
680.148	869.93
680.342	884.65
680.537	854.81
680.731	855.59
680.926	861.21
681.12	879.61
681.314	799.01
681.509	853.65
681.703	884.26
681.897	863.73
682.092	836.21
682.286	878.64
682.48	946.84
682.674	892.79
682.869	873.8
683.063	869.73
683.257	926.5
683.451	867.6
683.645	885.42
683.839	870.7
684.034	872.25
684.228	898.21
684.422	802.11
684.616	840.28
684.81	892.21
685.004	882.71
685.198	881.74
685.392	928.82
685.586	880.39
685.78	917.78
685.974	938.51
686.168	907.12
686.362	991.21
686.556	840.28
686.75	841.06
686.944	805.6
687.138	797.27
687.331	706.4
687.525	758.33
687.719	684.32
687.913	744.18
688.107	750.58
688.301	711.44
688.494	770.73
688.688	741.28
688.882	730.62
689.076	751.55
689.269	775.76
689.463	796.69
689.657	789.91
689.85	794.75
690.044	797.08
690.238	834.28
690.431	799.4
690.625	836.02
690.818	875.16
691.012	848.42
691.205	900.92
691.399	906.74
691.593	932.12
691.786	999.74
691.98	1022.4
692.173	1025.5
692.366	992.76
692.56	1050.11
692.753	1093.7
692.947	1000.9
693.14	1085.18
693.333	1107.27
693.527	1066
693.72	1094.87
693.914	1096.22
694.107	1112.88
694.3	1126.83
694.493	1147.56
694.687	1180.7
694.88	1160.35
695.073	1231.65
695.266	1238.24
695.46	1194.84
695.653	1247.15
695.846	1255.87
696.039	1238.43
696.232	1287.84
696.425	1314.38
696.618	1376.38
696.812	1358.75
697.005	1448.07
697.198	1505.8
697.391	1453.69
697.584	1518.98
697.777	1566.25
697.97	1544.55
698.163	1603.65
698.356	1538.74
698.549	1616.82
698.742	1612.56
698.935	1544.94
699.127	1625.73
699.32	1608.1
699.513	1600.55
699.706	1640.26
699.899	1649.18
700.092	1665.64
700.285	1709.04
700.477	1601.51
700.67	1698.39
700.863	1741.4
701.056	1830.14
701.248	1779.37
701.441	1799.52
701.634	1776.66
701.826	1896.4
702.019	1803.79
702.212	1843.12
702.404	1783.44
702.597	1837.5
702.79	1866.75
702.982	1889.04
703.175	1947.93
703.367	1951.03
703.56	2006.64
703.752	2051.98
703.945	2078.71
704.137	2079.68
704.33	2098.67
704.522	2120.95
704.715	2146.33
704.907	2172.49
705.1	2239.14
705.292	2243.59
705.484	2188.18
705.677	2234.29
705.869	2277.3
706.061	2305.59
706.254	2355.97
706.446	2307.72
706.638	2306.95
706.831	2420.68
707.023	2338.92
707.215	2446.45
707.407	2466.01
707.599	2439.47
707.792	2478.61
707.984	2526.66
708.176	2549.13
708.368	2547.58
708.56	2548.74
708.752	2526.46
708.944	2539.64
709.136	2579.36
709.329	2601.25
709.521	2716.72
709.713	2681.27
709.905	2667.32
710.097	2722.92
710.289	2699.29
710.481	2716.72
710.672	2766.13
710.864	2800.62
711.056	2808.17
711.248	2810.3
711.44	2841.11
711.632	2795
711.824	2875.02
712.016	2903.88
712.207	2928.1
712.399	2889.93
712.591	2999.21
712.783	2948.06
712.975	2967.63
713.166	2926.94
713.358	2999.98
713.55	3036.41
713.741	3026.33
713.933	3012.77
714.125	3045.51
714.316	3052.68
714.508	3079.61
714.7	3098.99
714.891	3063.34
715.083	3116.42
715.274	3080.97
715.466	3089.49
715.657	3138.51
715.849	3025.94
716.04	3082.52
716.232	3008.12
716.423	3045.51
716.615	2963.36
716.806	2848.47
716.998	2802.17
717.189	2722.34
717.381	2606.48
717.572	2579.55
717.763	2542.54
717.955	2494.11
718.146	2465.63
718.337	2390.26
718.528	2377.28
718.72	2281.76
718.911	2343.18
719.102	2248.82
719.293	2341.24
719.485	2315.09
719.676	2271.3
719.867	2240.49
720.058	2230.81
720.249	2302.88
720.44	2267.04
720.632	2322.84
720.823	2389.48
721.014	2555.14
721.205	2628.37
721.396	2717.11
721.587	2834.33
721.778	2883.93
721.969	2923.65
722.16	3017.03
722.351	3059.66
722.542	3175.9
722.733	3148.59
722.924	3113.71
723.115	3115.65
723.305	3085.81
723.496	3072.25
723.687	2917.64
723.878	2925.2
724.069	2917.45
724.26	2952.51
724.45	2868.43
724.641	2880.05
724.832	2868.43
725.023	2830.45
725.213	2809.53
725.404	2794.8
725.595	2820.77
725.785	2827.74
725.976	2866.1
726.167	2837.62
726.357	2844.02
726.548	2949.03
726.739	2860.1
726.929	2944.76
727.12	2982.74
727.31	2988.16
727.501	2933.33
727.691	2918.61
727.882	2962.4
728.072	3007.15
728.263	2959.1
728.453	3078.64
728.644	3083.87
728.834	3068.37
729.024	2984.87
729.215	3028.27
729.405	3034.08
729.596	3107.71
729.786	3112.74
729.976	3174.74
730.167	3127.86
730.357	3072.64
730.547	3145.29
730.737	3178.62
730.928	3183.65
731.118	3238.29
731.308	3218.92
731.498	3200.9
731.688	3285.76
731.879	3307.85
732.069	3362.48
732.259	3412.08
732.449	3489.58
732.639	3539.37
732.829	3512.25
733.019	3605.64
733.209	3684.3
733.399	3699.99
733.589	3782.91
733.779	3823.02
733.969	3875.33
734.159	3916.41
734.349	3988.87
734.539	3986.74
734.729	4022.58
734.919	4021.42
735.109	4135.15
735.299	4002.43
735.488	4057.45
735.678	4044.47
735.868	4044.09
736.058	4025.87
736.248	4010.96
736.437	4024.52
736.627	3974.14
736.817	4087.49
737.007	4018.9
737.196	4081.29
737.386	4078.77
737.576	4067.72
737.765	4106.47
737.955	4070.63
738.144	4223.11
738.334	4195.6
738.524	4114.42
738.713	4148.32
738.903	4173.32
739.092	4189.98
739.282	4179.13
739.471	4211.68
739.661	4234.15
739.85	4239.96
740.04	4261.86
740.229	4273.48
740.419	4316.49
740.608	4353.69
740.797	4285.11
740.987	4361.44
741.176	4351.37
741.365	4309.13
741.555	4241.32
741.744	4367.84
741.933	4308.94
742.123	4355.83
742.312	4368.23
742.501	4393.8
742.69	4425.57
742.88	4321.34
743.069	4511.79
743.258	4432.94
743.447	4475.37
743.636	4475.95
743.825	4393.02
744.014	4485.25
744.204	4534.27
744.393	4385.86
744.582	4526.9
744.771	4463.16
744.96	4452.7
745.149	4492.61
745.338	4470.91
745.527	4565.85
745.716	4489.51
745.905	4453.28
746.094	4547.83
746.283	4533.1
746.471	4526.71
746.66	4561.97
746.849	4499.59
747.038	4555
747.227	4482.34
747.416	4560.42
747.604	4443.59
747.793	4480.02
747.982	4523.61
748.171	4547.05
748.359	4481.95
748.548	4527.68
748.737	4515.28
748.926	4512.57
749.114	4361.83
749.303	4459.48
749.491	4487.57
749.68	4373.65
749.869	4475.56
750.057	4431.58
750.246	4438.56
750.434	4398.26
750.623	4402.52
750.811	4376.94
751	4415.69
751.188	4353.11
751.377	4407.94
751.565	4355.83
751.754	4374.23
751.942	4364.35
752.131	4381.01
752.319	4356.6
752.507	4324.83
752.696	4408.72
752.884	4377.91
753.072	4317.85
753.261	4353.89
753.449	4349.24
753.637	4318.82
753.825	4377.33
754.014	4311.46
754.202	4357.18
754.39	4388.18
754.578	4339.74
754.766	4312.81
754.955	4297.31
755.143	4374.42
755.331	4268.06
755.519	4345.75
755.707	4286.66
755.895	4314.94
756.083	4366.09
756.271	4255.08
756.459	4256.82
756.647	4278.33
756.835	4245.97
757.023	4267.86
757.211	4215.16
757.399	4170.02
757.587	4225.63
757.775	4163.05
757.963	4163.05
758.151	4184.75
758.339	4111.32
758.526	4139.6
758.714	4167.12
758.902	3973.95
759.09	3924.35
759.278	3706.19
759.465	3350.47
759.653	2948.45
759.841	2685.53
760.028	2305.98
760.216	1989.59
760.404	1856.29
760.591	1522.47
760.779	1315.35
760.967	1117.34
761.154	939.09
761.342	940.06
761.529	923.4
761.717	993.92
761.905	949.94
762.092	1026.47
762.28	984.43
762.467	971.64
762.655	914.68
762.842	925.92
763.029	919.33
763.217	912.36
763.404	919.33
763.592	965.25
763.779	923.98
763.966	958.66
764.154	1006.9
764.341	1070.84
764.528	1058.25
764.716	1150.86
764.903	1217.12
765.09	1272.92
765.277	1380.45
765.465	1540.87
765.652	1597.83
765.839	1709.04
766.026	1886.52
766.213	1917.32
766.4	2064.38
766.588	2245.53
766.775	2294.94
766.962	2472.6
767.149	2547.78
767.336	2712.85
767.523	2687.66
767.71	2853.32
767.897	2989.13
768.084	3036.99
768.271	3145.87
768.458	3206.9
768.645	3296.42
768.832	3251.66
769.019	3345.05
769.206	3375.46
769.392	3467.49
769.579	3521.36
769.766	3536.86
769.953	3516.9
770.14	3615.71
770.327	3548.87
770.513	3602.15
770.7	3701.93
770.887	3651.17
771.073	3681.39
771.26	3664.92
771.447	3628.3
771.634	3638.96
771.82	3767.41
772.007	3653.69
772.193	3712.39
772.38	3688.95
772.567	3677.71
772.753	3693.02
772.94	3752.5
773.126	3715.49
773.313	3734.28
773.499	3705.61
773.686	3793.18
773.872	3681.39
774.059	3713.55
774.245	3642.64
774.432	3697.08
774.618	3586.26
774.804	3634.12
774.991	3575.02
775.177	3667.44
775.363	3667.05
775.55	3665.7
775.736	3595.37
775.922	3639.15
776.109	3614.35
776.295	3623.27
776.481	3657.37
776.667	3630.82
776.853	3551
777.04	3575.8
777.226	3573.67
777.412	3658.14
777.598	3543.25
777.784	3577.16
777.97	3550.03
778.156	3583.74
778.342	3558.17
778.528	3501.98
778.715	3501.98
778.901	3506.05
779.087	3482.03
779.272	3511.67
779.458	3440.56
779.644	3496.75
779.83	3444.44
780.016	3554.49
780.202	3504.31
780.388	3445.21
780.574	3410.73
780.76	3415.57
780.946	3441.53
781.131	3451.22
781.317	3375.66
781.503	3418.67
781.689	3421.19
781.874	3500.24
782.06	3392.13
782.246	3436.49
782.432	3417.31
782.617	3394.84
782.803	3402.2
782.989	3367.91
783.174	3339.62
783.36	3297.97
783.545	3339.04
783.731	3370.43
783.916	3228.41
784.102	3378.56
784.288	3292.35
784.473	3310.37
784.659	3320.83
784.844	3249.14
785.029	3242.75
785.215	3244.68
785.4	3183.65
785.586	3291.38
785.771	3218.34
785.956	3230.74
786.142	3233.83
786.327	3221.44
786.512	3189.85
786.698	3198.77
786.883	3114.1
787.068	3107.51
787.254	3168.74
787.439	3130.96
787.624	3100.15
787.809	3093.56
787.994	3071.09
788.18	3172.42
788.365	3058.69
788.55	3028.08
788.735	3053.84
788.92	3057.14
789.105	3062.56
789.29	3054.81
789.475	2983.71
789.66	2959.49
789.845	2945.35
790.03	2940.5
790.215	2972.28
790.4	3018.97
790.585	3017.23
790.77	2980.03
790.955	2876.76
791.14	2948.64
791.325	3025.75
791.51	2867.65
791.695	2939.53
791.879	2942.63
792.064	2903.3
792.249	3007.93
792.434	2940.31
792.618	2947.67
792.803	2937.98
792.988	2945.73
793.173	2947.67
793.357	2956
793.542	2892.45
793.727	2943.41
793.911	3009.48
794.096	2974.21
794.281	2991.84
794.465	3076.32
794.65	2932.17
794.834	3009.28
795.019	3041.44
795.203	3034.08
795.388	2994.56
795.572	3058.69
795.757	2958.71
795.941	3020.71
796.126	2954.65
796.31	2903.69
796.494	2933.72
796.679	2914.93
796.863	2912.6
797.048	2994.56
797.232	2943.41
797.416	2967.24
797.601	2985.06
797.785	3046.09
797.969	3011.22
798.153	2959.3
798.338	3035.24
798.522	3076.12
798.706	3008.7
798.89	3050.74
799.074	3121.27
799.258	3102.67
799.443	3040.28
799.627	3039.31
799.811	3076.9
799.995	3014.9
800.179	2966.08
800.363	2987.19
800.547	2983.51
800.731	3039.31
800.915	2924.42
801.099	2961.62
801.283	2960.65
801.467	2942.63
801.651	2997.85
801.835	2989.52
802.019	2968.79
802.202	2962.2
802.386	2960.46
802.57	2912.21
802.754	2932.36
802.938	2934.88
803.121	2928.88
803.305	2981.19
803.489	2930.23
803.673	2941.66
803.856	2961.81
804.04	2948.64
804.224	2975.96
804.407	2946.31
804.591	2898.46
804.775	2957.36
804.958	2960.46
805.142	3071.09
805.326	2962.78
805.509	2991.07
805.693	3015.29
805.876	3044.35
806.06	2996.69
806.243	3025.17
806.427	3017.81
806.61	3065.47
806.794	3010.44
806.977	3029.04
807.16	3011.99
807.344	3029.82
807.527	2956.97
807.71	2989.91
807.894	2995.72
808.077	3002.11
808.26	2960.26
808.444	2939.92
808.627	3002.89
808.81	2929.85
808.993	2897.88
809.177	2830.84
809.36	2933.33
809.543	2904.66
809.726	2836.46
809.909	2826.19
810.092	2808.37
810.276	2793.25
810.459	2802.94
810.642	2819.99
810.825	2713.24
811.008	2736.49
811.191	2603.96
811.374	2700.45
811.557	2698.51
811.74	2737.26
811.923	2584.2
812.106	2596.79
812.289	2570.44
812.472	2563.28
812.654	2551.26
812.837	2523.95
813.02	2439.47
813.203	2417.97
813.386	2310.24
813.569	2298.42
813.751	2233.32
813.934	2271.3
814.117	2266.26
814.3	2173.65
814.482	2106.03
814.665	2079.68
814.848	2052.75
815.03	1991.53
815.213	2010.13
815.396	1947.16
815.578	1955.68
815.761	1906.86
815.943	1964.98
816.126	1847.38
816.309	1862.49
816.491	1796.42
816.674	1733.07
816.856	1794.87
817.039	1746.63
817.221	1829.75
817.403	1781.51
817.586	1813.47
817.768	1824.52
817.951	1731.52
818.133	1722.41
818.315	1733.26
818.498	1772.59
818.68	1839.24
818.862	1776.66
819.045	1822.97
819.227	1805.92
819.409	1803.21
819.591	1808.63
819.774	1825.29
819.956	1821.22
820.138	1871.4
820.32	1885.74
820.502	1915.77
820.684	2008.77
820.866	2039.96
821.048	2095.38
821.231	2101.19
821.413	2117.85
821.595	2080.65
821.777	2104.68
821.959	2081.62
822.141	2115.72
822.323	1935.73
822.505	1918.87
822.686	1860.55
822.868	1736.36
823.05	1622.05
823.232	1584.08
823.414	1500.18
823.596	1570.52
823.778	1611.2
823.96	1593.18
824.141	1664.68
824.323	1658.86
824.505	1767.75
824.687	1834.21
824.868	1884
825.05	1958.59
825.232	1996.57
825.413	2082.4
825.595	2025.82
825.777	1935.92
825.958	2000.44
826.14	2003.93
826.321	2057.98
826.503	2004.51
826.685	2062.83
826.866	2051.98
827.048	2054.88
827.229	1979.13
827.411	1939.99
827.592	1936.7
827.773	1865.79
827.955	1838.27
828.136	1842.54
828.318	1809.6
828.499	1846.6
828.68	1778.02
828.862	1823.16
829.043	1808.24
829.224	1757.67
829.406	1811.54
829.587	1800.88
829.768	1802.82
829.949	1791.97
830.131	1785.77
830.312	1862.3
830.493	1825.68
830.674	1840.99
830.855	1826.46
831.036	1806.11
831.218	1844.47
831.399	1900.27
831.58	1837.89
831.761	1807.47
831.942	1822.58
832.123	1802.24
832.304	1787.9
832.485	1834.98
832.666	1823.74
832.847	1842.15
833.028	1839.05
833.209	1838.47
833.389	1819.67
833.57	1761.16
833.751	1783.83
833.932	1843.89
834.113	1834.01
834.294	1800.49
834.475	1854.16
834.655	1889.23
834.836	1891.94
835.017	1843.5
835.198	1821.22
835.378	1854.74
835.559	1909.57
835.74	1805.92
835.92	1859.78
836.101	1828.59
836.281	1908.99
836.462	1897.17
836.643	1927.98
836.823	1968.08
837.004	1953.55
837.184	1948.71
837.365	1933.21
837.545	1917.71
837.726	1872.37
837.906	1961.3
838.087	1909.57
838.267	1925.07
838.448	1874.5
838.628	1890.78
838.808	1906.86
838.989	1955.88
839.169	1884.97
839.349	1922.75
839.53	1939.22
839.71	1942.32
839.89	1887.1
840.07	1997.53
840.251	1917.32
840.431	1948.9
840.611	1938.44
840.791	1884.97
840.971	1936.12
841.151	1927.59
841.332	1874.7
841.512	1945.42
841.692	1828.2
841.872	1914.42
842.052	1894.85
842.232	1922.75
842.412	1841.76
842.592	1874.12
842.772	1896.01
842.952	1902.21
843.132	1902.99
843.312	1863.46
843.492	1868.5
843.672	1910.74
843.851	1796.42
844.031	1876.83
844.211	1860.94
844.391	1833.82
844.571	1859.78
844.751	1848.93
844.93	1846.8
845.11	1839.05
845.29	1835.75
845.47	1887.87
845.649	1843.12
845.829	1864.82
846.009	1830.72
846.188	1868.5
846.368	1900.85
846.547	1829.17
846.727	1882.06
846.907	1799.14
847.086	1864.04
847.266	1859.2
847.445	1844.47
847.625	1794.1
847.804	1825.1
847.984	1821.81
848.163	1779.18
848.343	1779.57
848.522	1792.94
848.701	1805.72
848.881	1788.48
849.06	1799.72
849.239	1792.94
849.419	1816.57
849.598	1694.32
849.777	1727.45
849.957	1689.67
850.136	1665.64
850.315	1641.43
850.494	1625.54
850.674	1675.53
850.853	1725.32
851.032	1654.21
851.211	1728.61
851.39	1691.41
851.569	1621.86
851.748	1641.04
851.927	1734.23
852.107	1675.72
852.286	1618.37
852.465	1621.47
852.644	1738.49
852.823	1710.4
853.002	1683.86
853.181	1642.2
853.359	1679.98
853.538	1588.34
853.717	1685.99
853.896	1533.9
854.075	1466.67
854.254	1448.84
854.433	1419.97
854.611	1474.61
854.79	1390.52
854.969	1455.82
855.148	1494.18
855.327	1462.21
855.505	1506
855.684	1439.54
855.863	1519.56
856.041	1475.58
856.22	1585.43
856.399	1522.47
856.577	1624.38
856.756	1590.08
856.934	1716.6
857.113	1655.96
857.291	1621.86
857.47	1535.06
857.648	1642.98
857.827	1603.06
858.005	1654.6
858.184	1595.31
858.362	1657.31
858.541	1624.57
858.719	1575.75
858.898	1615.66
859.076	1576.91
859.254	1673.98
859.433	1579.62
859.611	1548.43
859.789	1515.49
859.967	1571.48
860.146	1613.33
860.324	1547.07
860.502	1541.45
860.68	1515.49
860.859	1509.68
861.037	1573.03
861.215	1549.98
861.393	1571.48
861.571	1536.61
861.749	1503.67
861.927	1551.33
862.105	1524.02
862.283	1506.58
862.461	1504.83
862.639	1486.23
862.817	1527.7
862.995	1514.33
863.173	1485.07
863.351	1503.48
863.529	1529.25
863.707	1534.87
863.885	1527.5
864.063	1473.45
864.241	1494.76
864.418	1514.13
864.596	1465.7
864.774	1422.69
864.952	1433.92
865.129	1461.63
865.307	1443.22
865.485	1389.56
865.663	1445.16
865.84	1368.63
866.018	1400.21
866.196	1263.04
866.373	1290.36
866.551	1268.85
866.728	1229.33
866.906	1245.21
867.084	1306.24
867.261	1307.99
867.439	1337.05
867.616	1357.59
867.794	1313.61
867.971	1341.89
868.149	1373.47
868.326	1383.16
868.503	1367.47
868.681	1409.32
868.858	1365.53
869.035	1302.18
869.213	1382.97
869.39	1368.05
869.567	1404.86
869.745	1338.6
869.922	1387.04
870.099	1389.17
870.276	1369.02
870.454	1398.85
870.631	1353.13
870.808	1333.56
870.985	1362.62
871.162	1410.09
871.339	1372.89
871.517	1306.05
871.694	1300.63
871.871	1350.22
872.048	1335.69
872.225	1325.81
872.402	1346.54
872.579	1292.1
872.756	1364.56
872.933	1278.15
873.11	1336.08
873.287	1319.61
873.463	1293.07
873.64	1262.65
873.817	1309.73
873.994	1281.64
874.171	1249.09
874.348	1306.44
874.524	1262.46
874.701	1274.66
874.878	1205.3
875.055	1284.93
875.231	1240.18
875.408	1286.09
875.585	1194.45
875.762	1228.94
875.938	1238.24
876.115	1279.12
876.291	1200.65
876.468	1208.4
876.645	1192.71
876.821	1212.28
876.998	1228.16
877.174	1245.41
877.351	1205.69
877.527	1191.74
877.704	1238.24
877.88	1223.13
878.057	1186.12
878.233	1239.79
878.409	1175.85
878.586	1221.77
878.762	1203.95
878.938	1190.77
879.115	1119.86
879.291	1190.19
879.467	1125.87
879.644	1151.63
879.82	1188.25
879.996	1158.41
880.172	1115.6
880.349	1121.02
880.525	1159.77
880.701	1104.75
880.877	1105.52
881.053	1176.43
881.229	1140.4
881.405	1184.96
881.581	1116.95
881.757	1130.71
881.933	1181.28
882.109	1174.5
882.285	1149.31
882.461	1097.38
882.637	1120.83
882.813	1126.25
882.989	1102.42
883.165	1214.6
883.341	1121.99
883.517	1171.4
883.693	1147.37
883.869	1212.86
884.044	1124.9
884.22	1147.95
884.396	1171.98
884.572	1141.17
884.747	1163.26
884.923	1162.48
885.099	1166.75
885.275	1173.72
885.45	1104.55
885.626	1120.63
885.801	1105.72
885.977	1139.04
886.153	1050.5
886.328	1132.45
886.504	1076.27
886.679	1122.38
886.855	1102.42
887.03	1146.21
887.206	1154.73
887.381	1127.22
887.557	1127.8
887.732	1125.87
887.908	1143.5
888.083	1131.68
888.258	1140.2
888.434	1106.3
888.609	1117.34
888.784	1199.88
888.96	1129.55
889.135	1080.72
889.31	1098.35
889.485	1113.27
889.661	1132.84
889.836	1167.91
890.011	1160.55
890.186	1111.33
890.361	1096.22
890.537	1097.58
890.712	1137.49
890.887	1142.53
891.062	1139.04
891.237	1164.03
891.412	1141.36
891.587	1132.07
891.762	1128.38
891.937	1178.37
892.112	1076.07
892.287	1122.96
892.462	1045.07
892.637	1045.85
892.812	1034.61
892.987	1054.95
893.161	1003.22
893.336	1005.55
893.511	1036.74
893.686	1031.32
893.861	1008.65
894.035	1003.8
894.21	1016.79
894.385	973.19
894.56	991.02
894.734	951.11
894.909	924.56
895.084	951.49
895.258	888.14
895.433	897.05
895.608	876.9
895.782	848.03
895.957	860.43
896.131	846.29
896.306	778.86
896.48	783.51
896.655	780.41
896.829	721.32
897.004	715.7
897.178	718.8
897.353	743.21
897.527	772.86
897.701	725.78
897.876	705.63
898.05	784.48
898.224	751.55
898.399	771.89
898.573	712.02
898.747	661.26
898.921	663.78
899.096	564.77
899.27	590.54
899.444	594.22
899.618	643.43
899.792	648.08
899.967	658.35
900.141	705.82
900.315	619.41
900.489	653.32
900.663	631.81
900.837	596.35
901.011	589.38
901.185	677.53
901.359	655.83
901.533	639.75
901.707	640.53
901.881	624.64
902.055	587.25
902.229	618.83
902.403	671.53
902.576	623.09
902.75	648.28
902.924	747.48
903.098	721.32
903.272	737.21
903.446	807.15
903.619	764.72
903.793	821.29
903.967	764.14
904.14	818.39
904.314	819.16
904.488	804.83
904.661	850.74
904.835	797.85
905.009	843.58
905.182	900.73
905.356	857.53
905.529	842.99
905.703	777.12
905.876	785.65
906.05	733.14
906.223	741.66
906.397	664.75
906.57	669.98
906.744	656.03
906.917	636.07
907.09	635.3
907.264	656.8
907.437	596.35
907.61	584.34
907.784	609.92
907.957	597.71
908.13	556.64
908.304	581.63
908.477	551.6
908.65	574.27
908.823	522.34
908.996	620.77
909.17	556.05
909.343	548.11
909.516	552.57
909.689	553.15
909.862	531.06
910.035	564.39
910.208	538.62
910.381	536.29
910.554	592.09
910.727	545.2
910.9	536.49
911.073	539
911.246	612.43
911.419	599.65
911.592	611.47
911.765	520.21
911.938	551.21
912.11	557.6
912.283	557.6
912.456	618.63
912.629	551.4
912.802	498.9
912.974	502.19
913.147	442.71
913.32	387.11
913.493	437.67
913.665	467.71
913.838	454.72
914.01	462.47
914.183	500.45
914.356	488.82
914.528	531.25
914.701	556.64
914.873	512.27
915.046	451.24
915.218	420.04
915.391	362.69
915.563	388.66
915.736	428.57
915.908	467.32
916.081	493.09
916.253	468.87
916.425	452.21
916.598	498.9
916.77	500.45
916.942	445.81
917.115	372.58
917.287	430.7
917.459	433.41
917.632	372.58
917.804	356.11
917.976	446.2
918.148	436.32
918.32	424.11
918.493	479.33
918.665	521.37
918.837	491.15
919.009	555.86
919.181	532.42
919.353	512.07
919.525	525.44
919.697	487.47
919.869	502
920.041	583.18
920.213	590.15
920.385	577.75
920.557	502
920.729	532.22
920.901	547.53
921.073	514.98
921.244	522.34
921.416	549.85
921.588	503.94
921.76	537.45
921.932	582.6
922.103	527.96
922.275	532.61
922.447	538.04
922.619	477.78
922.79	489.21
922.962	468.29
923.134	528.15
923.305	476.81
923.477	414.23
923.648	445.62
923.82	460.34
923.991	401.06
924.163	414.04
924.335	424.5
924.506	420.24
924.677	463.83
924.849	404.35
925.02	448.14
925.192	471.97
925.363	431.09
925.535	450.66
925.706	413.26
925.877	461.89
926.049	419.85
926.22	433.61
926.391	425.28
926.562	465.38
926.734	415.01
926.905	466.16
927.076	392.92
927.247	419.46
927.419	354.56
927.59	352.04
927.761	354.56
927.932	322.2
928.103	321.81
928.274	309.41
928.445	269.11
928.616	317.75
928.787	325.88
928.958	339.45
929.129	312.71
929.3	259.04
929.471	244.32
929.642	221.07
929.813	175.73
929.984	213.32
930.155	183.48
930.326	230.37
930.496	182.9
930.667	150.54
930.838	179.41
931.009	144.34
931.18	141.82
931.35	157.9
931.521	165.27
931.692	121.87
931.863	82.54
932.033	121.09
932.204	132.91
932.374	143.95
932.545	99.39
932.716	142.4
932.886	99.97
933.057	34.68
933.227	67.23
933.398	139.69
933.568	59.67
933.739	23.25
933.909	6.59
934.08	93
934.25	22.28
934.421	29.84
934.591	95.52
934.761	52.12
934.932	17.24
935.102	86.99
935.272	22.86
935.443	40.88
935.613	42.04
935.783	63.16
935.953	28.87
936.123	164.1
936.294	18.21
936.464	18.02
936.634	37.01
936.804	1.16
936.974	34.87
937.144	66.46
937.314	65.68
937.484	27.71
937.655	-1.36
937.825	95.71
937.995	5.62
938.165	65.1
938.334	38.94
938.504	100.36
938.674	45.53
938.844	50.37
939.014	95.13
939.184	129.81
939.354	161.97
939.524	136.4
939.694	105.4
939.863	94.16
940.033	179.41
940.203	151.9
940.373	112.76
940.542	121.29
940.712	84.67
940.882	139.5
941.051	146.67
941.221	135.43
941.391	160.81
941.56	73.04
941.73	89.51
941.899	186.19
942.069	91.64
942.238	117.99
942.408	84.67
942.577	117.22
942.747	86.61
942.916	81.18
943.086	68.2
943.255	114.5
943.425	100.75
943.594	59.29
943.763	26.35
943.933	65.49
944.102	27.9
944.271	66.65
944.441	85.83
944.61	70.14
944.779	69.56
944.948	146.47
945.117	52.7
945.287	46.11
945.456	6.39
945.625	55.99
945.794	60.06
945.963	52.12
946.132	91.84
946.301	51.15
946.47	80.6
946.639	27.9
946.808	50.18
946.977	62.77
947.146	103.27
947.315	33.71
947.484	90.87
947.653	71.3
947.822	53.86
947.991	62
948.16	116.83
948.329	120.51
948.498	49.41
948.666	57.54
948.835	97.26
949.004	37.01
949.173	34.29
949.341	59.87
949.51	87.57
949.679	110.44
949.847	77.69
950.016	143.37
950.185	118.38
950.353	68.2
950.522	79.63
950.69	121.29
950.859	66.07
951.028	116.44
951.196	78.86
951.365	54.83
951.533	86.02
951.701	95.9
951.87	73.82
952.038	32.16
952.207	57.93
952.375	126.71
952.543	60.45
952.712	90.29
952.88	47.66
953.048	129.62
953.217	105.98
953.385	82.73
953.553	120.51
953.721	43.4
953.89	74.98
954.058	44.37
954.226	57.93
954.394	85.06
954.562	7.94
954.73	53.86
954.898	85.83
955.067	120.9
955.235	72.27
955.403	102.3
955.571	140.27
955.739	86.8
955.907	62
956.075	31.19
956.243	50.76
956.41	105.2
956.578	18.99
956.746	36.62
956.914	56.38
957.082	93.97
957.25	96.29
957.418	61.81
957.585	75.95
957.753	101.72
957.921	43.98
958.089	75.95
958.256	94.16
958.424	80.41
958.592	80.6
958.759	62.19
958.927	118.77
959.095	34.29
959.262	87.57
959.43	86.22
959.597	53.09
959.765	83.12
959.932	55.02
960.1	94.74
960.267	85.06
960.435	80.79
960.602	139.11
960.77	53.67
960.937	59.29
961.104	84.09
961.272	39.33
961.439	65.49
961.606	77.89
961.774	127.49
961.941	66.07
962.108	96.87
962.275	84.86
962.443	126.13
962.61	106.56
962.777	164.49
962.944	120.7
963.111	99.2
963.278	103.27
963.446	87.38
963.613	76.53
963.78	114.5
963.947	85.25
964.114	109.08
964.281	160.62
964.448	105.4
964.615	100.55
964.782	87.96
964.949	122.06
965.116	139.89
965.282	129.42
965.449	94.35
965.616	66.07
965.783	116.64
965.95	93
966.117	28.29
966.283	104.62
966.45	108.69
966.617	128.65
966.784	122.06
966.95	137.17
967.117	132.14
967.284	89.7
967.45	85.25
967.617	138.53
967.784	120.51
967.95	178.63
968.117	144.92
968.283	163.52
968.45	209.05
968.616	126.32
968.783	148.99
968.949	147.64
969.116	175.34
969.282	116.44
969.449	130.97
969.615	141.24
969.781	92.42
969.948	117.02
970.114	99.39
970.28	183.28
970.447	117.8
970.613	124.97
970.779	142.99
970.945	136.59
971.112	121.29
971.278	129.62
971.444	107.14
971.61	174.37
971.776	101.72
971.942	140.27
972.108	167.59
972.275	77.89
972.441	154.8
972.607	143.95
972.773	98.62
972.939	124.39
973.105	110.05
973.271	75.56
973.437	103.85
973.602	98.04
973.768	123.22
973.934	98.62
974.1	148.41
974.266	54.64
974.432	123.22
974.598	97.84
974.763	133.88
974.929	102.49
975.095	157.32
975.261	77.5
975.426	91.06
975.592	117.6
975.758	171.85
975.923	72.27
976.089	73.43
976.255	145.7
976.42	117.99
976.586	119.54
976.751	117.22
976.917	200.53
977.082	134.07
977.248	74.4
977.413	63.94
977.579	92.42
977.744	113.92
977.91	78.27
978.075	102.88
978.24	137.37
978.406	102.88
978.571	80.79
978.736	78.86
978.902	117.99
979.067	73.82
979.232	47.08
979.397	118.38
979.563	164.49
979.728	87.19
979.893	113.73
980.058	96.1
980.223	135.24
980.388	95.52
980.554	103.07
980.719	115.67
980.884	125.74
981.049	141.63
981.214	81.18
981.379	114.7
981.544	80.6
981.709	99.59
981.874	60.26
982.039	99.39
982.204	130.59
982.368	95.71
982.533	82.92
982.698	119.74
982.863	136.01
983.028	94.55
983.193	111.21
983.357	107.92
983.522	120.9
983.687	105.98
983.852	96.49
984.016	83.7
984.181	112.76
984.346	93.58
984.51	117.41
984.675	126.52
984.839	129.42
985.004	104.04
985.168	151.32
985.333	119.93
985.498	105.98
985.662	124.19
985.827	146.86
985.991	104.82
986.155	80.02
986.32	148.41
986.484	161.2
986.649	117.8
986.813	79.44
986.977	99
987.142	120.12
987.306	95.13
987.47	66.07
987.634	100.36
987.799	99
987.963	121.09
988.127	111.6
988.291	161
988.455	109.08
988.62	99.39
988.784	104.24
988.948	139.3
989.112	81.37
989.276	118.96
989.44	88.93
989.604	55.8
989.768	95.32
989.932	185.22
990.096	87.38
990.26	82.34
990.424	57.74
990.588	99
990.752	153.06
990.915	112.18
991.079	103.07
991.243	97.26
991.407	104.24
991.571	108.89
991.734	91.84
991.898	105.01
992.062	195.3
992.226	102.1
992.389	110.63
992.553	54.25
992.717	68.39
992.88	54.25
993.044	120.12
993.207	95.71
993.371	129.04
993.535	104.04
993.698	111.4
993.862	115.28
994.025	136.79
994.189	96.1
994.352	98.23
994.515	129.62
994.679	142.4
994.842	74.4
995.006	119.93
995.169	86.02
995.332	92.61
995.496	150.74
995.659	47.27
995.822	88.54
995.985	69.94
996.149	139.5
996.312	74.79
996.475	140.85
996.638	68.59
996.801	144.34
996.964	109.27
997.128	60.26
997.291	94.35
997.454	111.4
997.617	75.37
997.78	128.84
997.943	61.22
998.106	129.23
998.269	79.24
998.432	68.01
998.595	84.09
998.758	36.62
998.92	29.45
999.083	50.18
999.246	72.07
999.409	63.74
999.572	28.09
999.735	74.4
999.897	90.09
1000.06	68.59
1000.223	68.97
1000.386	99.78
1000.548	89.7
1000.711	107.14
1000.874	120.12
1001.036	27.71
1001.199	109.66
1001.361	49.6
1001.524	68.01
1001.687	112.37
1001.849	46.11
1002.012	104.04
1002.174	56.77
1002.337	83.31
1002.499	54.06
1002.661	80.41
1002.824	50.96
1002.986	40.11
1003.149	83.31
1003.311	60.06
1003.473	124.39
1003.636	69.94
1003.798	82.15
1003.96	75.95
1004.123	53.28
1004.285	32.74
1004.447	66.07
1004.609	52.7
1004.771	116.44
1004.933	36.04
1005.096	40.3
1005.258	18.21
1005.42	37.97
1005.582	102.3
1005.744	53.28
1005.906	46.11
1006.068	64.71
1006.23	31.39
1006.392	27.71
1006.554	23.25
1006.716	102.1
1006.878	62.97
1007.04	11.82
1007.202	49.41
1007.363	77.5
1007.525	70.91
1007.687	67.81
1007.849	109.47
1008.011	13.37
1008.172	54.06
1008.334	40.3
1008.496	70.33
1008.658	23.64
1008.819	38.56
1008.981	32.16
1009.143	8.14
1009.304	21.51
1009.466	82.92
1009.627	96.1
1009.789	137.37
1009.95	70.33
1010.112	36.81
1010.273	71.11
1010.435	34.49
1010.596	50.18
1010.758	47.66
1010.919	38.94
1011.081	28.87
1011.242	63.74
1011.403	60.64
1011.565	43.59
1011.726	73.04
1011.887	54.83
1012.049	43.79
1012.21	70.72
1012.371	86.22
1012.532	-16.08
1012.693	26.35
1012.855	20.54
1013.016	41.46
1013.177	82.15
1013.338	54.64
1013.499	90.87
1013.66	71.3
1013.821	84.09
1013.982	49.79
1014.143	61.81
1014.304	29.64
1014.465	63.36
1014.626	65.87
1014.787	38.94
1014.948	124.77
1015.109	-10.07
1015.27	96.49
1015.431	34.87
1015.592	33.52
1015.752	75.95
1015.913	78.66
1016.074	61.81
1016.235	52.51
1016.395	37.39
1016.556	25.77
1016.717	27.51
1016.877	69.75
1017.038	29.26
1017.199	59.67
1017.359	58.51
1017.52	43.79
1017.681	21.89
1017.841	36.62
1018.002	60.84
1018.162	23.06
1018.323	108.11
1018.483	35.46
1018.644	18.99
1018.804	1.36
1018.964	7.36
1019.125	20.73
1019.285	54.64
1019.446	8.91
1019.606	0.77
1019.766	-9.11
1019.926	43.21
1020.087	42.62
1020.247	-3.68
1020.407	83.51
1020.567	53.86
1020.728	31
1020.888	1.55
1021.048	10.66
1021.208	-13.37
1021.368	35.84
1021.528	84.86
1021.688	67.81
1021.848	70.72
1022.008	71.88
1022.168	25.38
1022.328	62.97
1022.488	62.58
1022.648	10.27
1022.808	45.53
1022.968	32.16
1023.128	14.14
1023.288	38.56
1023.448	14.53
1023.608	60.06
1023.767	42.62
1023.927	12.01
1024.087	12.79
1024.247	12.98
1024.406	19.96
1024.566	-7.17
1024.726	15.31
1024.885	29.64
1025.045	49.41
1025.205	47.47
1025.364	37.97
1025.524	45.53
1025.683	29.26
1025.843	54.25
1026.003	35.26
1026.162	70.14
1026.321	53.86
1026.481	22.67
1026.64	9.3
1026.8	35.26
1026.959	22.67
1027.119	37.39
1027.278	29.64
1027.437	15.69
1027.597	31.77
1027.756	38.56
1027.915	25.77
1028.074	52.12
1028.234	31.39
1028.393	12.79
1028.552	26.35
1028.711	-53.47
1028.87	56.38
1029.03	-24.02
1029.189	35.65
1029.348	-39.52
1029.507	2.52
1029.666	15.31
1029.825	-20.54
1029.984	3.68
1030.143	43.4
1030.302	6.59
1030.461	-43.4
1030.62	30.81
1030.779	37.78
1030.938	-6.97
1031.097	-20.73
1031.255	48.82
1031.414	39.91
1031.573	58.32
1031.732	-3.68
1031.891	11.82
1032.049	56.77
1032.208	35.65
1032.367	-18.41
1032.525	29.06
1032.684	18.21
1032.843	35.46
1033.001	-19.96
1033.16	152.48
1033.319	55.41
1033.477	18.99
1033.636	-5.23
1033.794	-6.59
1033.953	24.22
1034.111	63.36
1034.27	5.62
1034.428	57.74
1034.587	12.4
1034.745	35.46
1034.903	8.14
1035.062	27.12
1035.22	-1.74
1035.378	43.98
1035.537	8.14
1035.695	33.52
1035.853	15.5
1036.011	53.28
1036.17	18.6
1036.328	-28.67
1036.486	33.52
1036.644	26.16
1036.802	-53.67
1036.96	-12.21
1037.119	-10.46
1037.277	4.26
1037.435	4.46
1037.593	-8.14
1037.751	10.66
1037.909	56.38
1038.067	56.38
