Data from gum_young_FLMT105791__8__17-38-07-045.txt Node

Date: Mon Mar 20 17:38:07 GMT 2023
User: antho
Spectrometer: FLMT10579
Trigger mode: 0
Integration Time (sec): 1.000000E-1
Scans to average: 10
Electric dark correction enabled: true
Nonlinearity correction enabled: false
Boxcar width: 0
XAxis mode: Wavelengths
Number of Pixels in Spectrum: 3648
>>>>>Begin Spectral Data<<<<<
345.248	-156.92
345.464	-156.92
345.681	-156.92
345.898	-157.11
346.114	-148.01
346.331	-35.83
346.548	42.64
346.764	-7.15
346.981	-5.22
347.197	-24.98
347.414	8.35
347.631	-13.55
347.847	64.73
348.064	-4.63
348.28	13.77
348.497	-20.71
348.713	-17.42
348.93	29.66
349.146	9.9
349.363	-10.25
349.579	15.32
349.796	16.68
350.012	8.15
350.229	18.62
350.445	-5.22
350.661	1.57
350.878	12.22
351.094	16.87
351.311	-1.73
351.527	-4.44
351.743	-36.41
351.96	-7.93
352.176	29.85
352.392	24.23
352.609	42.06
352.825	-27.3
353.041	19.58
353.257	-8.31
353.474	22.88
353.69	24.43
353.906	-2.7
354.122	-26.53
354.339	43.42
354.555	20.36
354.771	5.25
354.987	55.62
355.203	60.66
355.42	-13.93
355.636	-1.73
355.852	-22.46
356.068	0.21
356.284	-30.98
356.5	46.71
356.716	41.87
356.932	5.25
357.148	28.5
357.364	-10.45
357.58	62.6
357.796	28.69
358.012	33.34
358.228	20.75
358.444	-17.61
358.66	43.61
358.876	27.72
359.092	20.55
359.308	31.6
359.524	25.59
359.74	-2.89
359.956	0.4
360.172	3.7
360.388	7.77
360.604	-16.06
360.819	81.2
361.035	4.08
361.251	35.08
361.467	-5.99
361.683	42.83
361.898	21.33
362.114	25.2
362.33	18.62
362.546	50.2
362.762	10.09
362.977	8.54
363.193	-44.74
363.409	26.56
363.624	-24.01
363.84	-5.22
364.056	10.87
364.271	25.78
364.487	6.41
364.703	-10.64
364.918	-18.78
365.134	-4.83
365.35	-4.05
365.565	110.84
365.781	-7.93
365.996	7.77
366.212	53.88
366.427	17.45
366.643	0.21
366.858	-27.69
367.074	-14.51
367.289	43.61
367.505	95.34
367.72	-4.25
367.936	-0.37
368.151	24.23
368.367	8.54
368.582	-2.31
368.798	-19.94
369.013	47.87
369.228	-24.01
369.444	47.87
369.659	68.22
369.874	17.84
370.09	59.69
370.305	-43.58
370.52	-19.36
370.736	76.55
370.951	-1.53
371.166	33.53
371.381	81.58
371.597	46.32
371.812	6.8
372.027	-6.57
372.242	-8.31
372.458	75
372.673	-0.18
372.888	18.81
373.103	43.42
373.318	73.64
373.533	18.23
373.749	27.72
373.964	-37.96
374.179	64.34
374.394	-5.99
374.609	77.13
374.824	-11.8
375.039	38.57
375.254	20.17
375.469	66.86
375.684	-0.95
375.899	43.22
376.114	14.35
376.329	26.95
376.544	41.09
376.759	43.22
376.974	-6.57
377.189	12.42
377.404	-0.95
377.619	22.49
377.834	-12.58
378.049	-26.91
378.264	-12.19
378.478	16.87
378.693	10.87
378.908	27.53
379.123	12.03
379.338	55.04
379.553	39.35
379.767	20.94
379.982	24.04
380.197	42.64
380.412	24.82
380.626	38.96
380.841	85.46
381.056	4.67
381.271	66.08
381.485	-11.03
381.7	-9.48
381.915	42.64
382.129	-22.85
382.344	7.38
382.559	22.68
382.773	48.07
382.988	-22.26
383.202	29.08
383.417	-15.29
383.632	102.12
383.846	38.18
384.061	37.99
384.275	28.11
384.49	35.28
384.704	44.58
384.919	23.46
385.133	-7.73
385.348	24.23
385.562	-8.7
385.777	47.29
385.991	24.04
386.206	2.73
386.42	-14.51
386.634	60.27
386.849	39.73
387.063	40.12
387.277	-9.86
387.492	19.39
387.706	-0.18
387.92	7.57
388.135	58.72
388.349	39.54
388.563	11.45
388.778	33.92
388.992	30.63
389.206	41.28
389.42	92.24
389.635	12.42
389.849	59.69
390.063	42.45
390.277	34.89
390.491	99.21
390.706	37.02
390.92	62.6
391.134	30.43
391.348	47.1
391.562	-5.22
391.776	36.83
391.99	34.89
392.205	38.96
392.419	17.45
392.633	28.3
392.847	59.5
393.061	10.67
393.275	71.32
393.489	21.72
393.703	13.97
393.917	68.22
394.131	-1.73
394.345	40.7
394.559	92.43
394.773	-7.15
394.986	48.84
395.2	19.78
395.414	66.28
395.628	-1.73
395.842	54.85
396.056	-4.63
396.27	-25.17
396.484	59.88
396.697	52.13
396.911	105.8
397.125	55.82
397.339	62.79
397.553	39.93
397.766	84.68
397.98	63.95
398.194	80.81
398.408	26.56
398.621	58.14
398.835	83.13
399.049	67.83
399.262	77.71
399.476	103.48
399.69	86.43
399.903	135.83
400.117	46.71
400.331	52.91
400.544	27.33
400.758	149.2
400.971	56.4
401.185	73.64
401.398	4.47
401.612	83.33
401.826	60.66
402.039	73.06
402.253	24.82
402.466	77.71
402.68	51.94
402.893	91.27
403.106	67.44
403.32	80.23
403.533	45.35
403.747	37.41
403.96	90.88
404.174	88.56
404.387	16.29
404.6	75.19
404.814	85.85
405.027	75
405.24	60.08
405.454	71.9
405.667	102.31
405.88	19.58
406.094	71.51
406.307	99.8
406.52	52.13
406.733	53.88
406.947	30.24
407.16	124.01
407.373	104.06
407.586	42.06
407.799	38.57
408.012	96.5
408.226	51.36
408.439	110.65
408.652	32.76
408.865	90.5
409.078	109.87
409.291	92.82
409.504	57.37
409.717	96.31
409.93	71.7
410.143	95.73
410.357	35.47
410.57	50.58
410.783	63.57
410.996	90.11
411.209	84.88
411.421	119.56
411.634	86.62
411.847	53.3
412.06	80.81
412.273	76.16
412.486	104.45
412.699	145.52
412.912	103.86
413.125	110.84
413.338	79.65
413.55	126.73
413.763	86.43
413.976	101.93
414.189	66.47
414.402	71.7
414.615	135.45
414.827	80.61
415.04	127.89
415.253	107.55
415.466	133.31
415.678	163.93
415.891	98.63
416.104	76.93
416.316	81.78
416.529	77.71
416.742	96.89
416.954	126.34
417.167	93.4
417.38	88.75
417.592	153.66
417.805	65.31
418.017	59.3
418.23	132.93
418.442	75.97
418.655	56.01
418.868	113.75
419.08	177.1
419.293	142.81
419.505	106.77
419.718	126.73
419.93	144.94
420.142	90.69
420.355	154.63
420.567	152.3
420.78	118.01
420.992	112
421.205	156.18
421.417	74.22
421.629	105.41
421.842	93.6
422.054	75.58
422.266	128.47
422.479	144.36
422.691	91.46
422.903	139.32
423.115	68.41
423.328	114.52
423.54	136.22
423.752	105.03
423.964	97.28
424.177	136.41
424.389	105.41
424.601	205.58
424.813	123.43
425.025	136.8
425.238	149.59
425.45	92.82
425.662	110.06
425.874	378.21
426.086	111.61
426.298	141.84
426.51	148.62
426.722	137.38
426.934	119.56
427.146	158.89
427.358	77.9
427.57	156.95
427.782	104.64
427.994	92.43
428.206	98.44
428.418	98.25
428.63	148.62
428.842	152.5
429.054	134.48
429.266	155.21
429.478	81.97
429.69	102.7
429.902	75
430.114	156.18
430.325	127.89
430.537	126.34
430.749	116.46
430.961	75.58
431.173	109.87
431.384	122.27
431.596	48.26
431.808	95.92
432.02	136.61
432.231	178.07
432.443	179.81
432.655	145.13
432.867	111.23
433.078	142.42
433.29	218.56
433.502	175.36
433.713	171.09
433.925	163.54
434.136	188.34
434.348	113.55
434.56	108.51
434.771	230.38
434.983	100.38
435.194	129.25
435.406	140.48
435.617	182.14
435.829	192.79
436.04	189.11
436.252	174.58
436.463	205.39
436.675	194.15
436.886	185.63
437.098	155.98
437.309	224.38
437.521	157.92
437.732	172.64
437.943	158.7
438.155	180.01
438.366	126.34
438.578	210.43
438.789	164.12
439	178.46
439.211	158.5
439.423	190.86
439.634	187.56
439.845	212.17
440.057	174
440.268	205.78
440.479	137.19
440.69	204.42
440.902	162.18
441.113	169.93
441.324	158.89
441.535	191.63
441.746	261.77
441.957	169.74
442.168	166.83
442.38	196.09
442.591	208.29
442.802	174
443.013	193.18
443.224	226.12
443.435	175.16
443.646	205.97
443.857	211.98
444.068	174.39
444.279	170.32
444.49	258.67
444.701	214.11
444.912	296.06
445.123	218.76
445.334	235.42
445.545	204.03
445.756	205.19
445.967	190.08
446.178	220.89
446.388	248.79
446.599	227.86
446.81	217.4
447.021	181.94
447.232	229.99
447.443	262.54
447.653	211.39
447.864	260.02
448.075	233.68
448.286	263.51
448.496	232.32
448.707	270.87
448.918	213.14
449.129	323.38
449.339	203.64
449.55	230.38
449.761	227.86
449.971	294.12
450.182	243.94
450.393	258.86
450.603	217.4
450.814	265.64
451.024	268.74
451.235	260.22
451.446	321.64
451.656	277.27
451.867	238.52
452.077	266.42
452.288	313.11
452.498	313.31
452.709	249.76
452.919	285.79
453.13	243.17
453.34	311.95
453.55	224.76
453.761	297.22
453.971	281.14
454.182	297.42
454.392	306.72
454.602	341.21
454.813	282.11
455.023	302.26
455.233	217.4
455.444	285.99
455.654	224.57
455.864	279.98
456.075	276.88
456.285	275.52
456.495	312.34
456.705	300.52
456.916	334.62
457.126	322.41
457.336	305.36
457.546	264.09
457.756	275.91
457.967	309.04
458.177	260.22
458.387	292.38
458.597	254.79
458.807	264.87
459.017	278.43
459.227	299.16
459.437	271.84
459.647	301.68
459.857	296.26
460.068	272.42
460.278	334.62
460.488	321.06
460.698	333.07
460.908	309.82
461.117	286.57
461.327	266.61
461.537	289.67
461.747	266.61
461.957	302.46
462.167	390.61
462.377	346.82
462.587	314.47
462.797	344.5
463.007	330.36
463.216	337.91
463.426	359.61
463.636	330.94
463.846	267.58
464.056	281.34
464.265	367.36
464.475	292.77
464.685	352.05
464.895	336.75
465.104	296.06
465.314	343.92
465.524	308.46
465.733	323.57
465.943	399.33
466.153	411.54
466.362	382.28
466.572	333.07
466.782	323.38
466.991	330.94
467.201	403.79
467.41	290.64
467.62	352.44
467.829	323.38
468.039	380.15
468.249	343.53
468.458	349.34
468.668	384.41
468.877	376.27
469.086	397.97
469.296	394.68
469.505	333.65
469.715	414.83
469.924	387.12
470.134	392.94
470.343	421.61
470.552	351.86
470.762	354.96
470.971	336.94
471.18	380.15
471.39	384.99
471.599	335.78
471.808	390.8
472.018	362.13
472.227	420.25
472.436	420.64
472.645	377.82
472.855	381.31
473.064	441.37
473.273	406.5
473.482	404.75
473.691	459.78
473.901	436.92
474.11	397.97
474.319	475.28
474.528	436.92
474.737	451.06
474.946	430.33
475.155	434.4
475.364	483.22
475.573	427.62
475.783	425.1
475.992	480.32
476.201	480.12
476.41	455.9
476.619	434.01
476.828	456.87
477.037	412.7
477.245	448.93
477.454	482.25
477.663	446.6
477.872	471.21
478.081	529.91
478.29	473.34
478.499	532.24
478.708	481.87
478.917	566.53
479.125	494.07
479.334	510.35
479.543	476.63
479.752	520.23
479.961	504.53
480.169	529.72
480.378	489.81
480.587	615.94
480.796	541.15
481.004	525.26
481.213	539.21
481.422	528.17
481.63	530.69
481.839	566.34
482.048	596.95
482.256	570.6
482.465	589.2
482.674	598.7
482.882	608.38
483.091	639.19
483.299	588.62
483.508	601.6
483.716	588.04
483.925	595.4
484.134	583.2
484.342	550.45
484.551	635.89
484.759	618.84
484.967	645.39
485.176	645.78
485.384	639.19
485.593	637.25
485.801	625.82
486.01	598.89
486.218	550.65
486.426	521.2
486.635	534.95
486.843	539.8
487.051	554.52
487.26	583.39
487.468	603.15
487.676	621.17
487.885	585.91
488.093	627.56
488.301	654.11
488.509	650.43
488.717	677.55
488.926	689.37
489.134	643.84
489.342	650.62
489.55	630.08
489.758	645.39
489.967	660.11
490.175	732.77
490.383	686.85
490.591	724.24
490.799	651.2
491.007	734.71
491.215	703.71
491.423	711.07
491.631	710.68
491.839	688.59
492.047	703.12
492.255	669.61
492.463	634.15
492.671	685.11
492.879	734.71
493.087	708.55
493.295	731.61
493.503	742.84
493.711	764.54
493.919	771.71
494.127	786.24
494.334	781.2
494.542	760.86
494.75	760.28
494.958	748.27
495.166	806.59
495.374	807.36
495.581	791.47
495.789	787.02
495.997	833.71
496.205	792.44
496.412	788.18
496.62	787.21
496.828	831.97
497.035	817.05
497.243	862.77
497.451	821.89
497.658	841.65
497.866	852.5
498.074	868.78
498.281	808.91
498.489	906.17
498.696	846.69
498.904	831.97
499.112	831.58
499.319	875.37
499.527	839.33
499.734	900.94
499.942	850.37
500.149	829.84
500.357	869.75
500.564	851.73
500.771	854.25
500.979	826.93
501.186	841.65
501.394	865.29
501.601	830.61
501.808	851.34
502.016	877.69
502.223	879.43
502.43	888.35
502.638	886.6
502.845	857.35
503.052	952.28
503.26	903.65
503.467	985.61
503.674	923.22
503.881	931.17
504.089	995.88
504.296	959.06
504.503	902.68
504.71	943.76
504.917	936.01
505.125	960.81
505.332	971.85
505.539	965.07
505.746	1057.49
505.953	1029.4
506.16	1040.25
506.367	1071.44
506.574	1079.19
506.781	1085.78
506.988	1034.82
507.195	1043.93
507.402	1035.4
507.609	1097.01
507.816	1050.51
508.023	1033.08
508.23	1057.88
508.437	1021.06
508.644	1094.49
508.851	1115.03
509.058	1108.83
509.265	1120.84
509.472	1152.23
509.679	1244.26
509.885	1143.71
510.092	1155.52
510.299	1169.67
510.506	1163.86
510.713	1186.14
510.92	1183.42
511.126	1208.03
511.333	1220.82
511.54	1245.62
511.746	1280.3
511.953	1281.85
512.16	1304.13
512.367	1248.91
512.573	1268.67
512.78	1261.7
512.987	1277.59
513.193	1263.83
513.4	1231.28
513.606	1264.22
513.813	1315.17
514.02	1290.37
514.226	1362.64
514.433	1323.31
514.639	1284.37
514.846	1321.95
515.052	1321.76
515.259	1335.32
515.465	1333.58
515.672	1360.51
515.878	1442.46
516.085	1363.42
516.291	1419.6
516.497	1347.92
516.704	1350.82
516.91	1335.32
517.117	1278.36
517.323	1232.44
517.529	1277.2
517.736	1272.35
517.942	1313.04
518.148	1313.04
518.354	1347.14
518.561	1347.53
518.767	1317.88
518.973	1405.07
519.179	1452.93
519.386	1423.67
519.592	1398.48
519.798	1411.85
520.004	1512.79
520.21	1512.79
520.417	1521.13
520.623	1591.84
520.829	1583.9
521.035	1588.74
521.241	1584.29
521.447	1631.56
521.653	1735.8
521.859	1644.35
522.065	1661.98
522.271	1751.68
522.477	1686.78
522.683	1743.16
522.889	1698.4
523.095	1721.27
523.301	1692.79
523.507	1665.66
523.713	1761.57
523.919	1705.77
524.125	1752.27
524.331	1802.64
524.537	1817.37
524.742	1885.18
524.948	1887.89
525.154	1876.65
525.36	1951.24
525.566	1885.76
525.772	1948.92
525.977	1819.3
526.183	1921.79
526.389	1945.63
526.595	1849.33
526.8	1828.6
527.006	1779.58
527.212	1728.44
527.417	1716.81
527.623	1760.4
527.829	1813.88
528.034	1870.26
528.24	1881.3
528.446	1860.96
528.651	1957.06
528.857	1979.34
529.062	2052.96
529.268	2051.8
529.473	2034.75
529.679	2047.92
529.884	2097.72
530.09	2052.38
530.295	2082.22
530.501	2061.68
530.706	2052.96
530.912	2060.52
531.117	2102.75
531.323	2131.04
531.528	2115.54
531.733	2167.27
531.939	2098.88
532.144	2138.4
532.35	2121.35
532.555	2169.99
532.76	2119.61
532.966	2131.43
533.171	2066.91
533.376	2075.05
533.581	2059.74
533.787	2100.82
533.992	2150.61
534.197	2142.47
534.402	2147.32
534.607	2171.73
534.813	2264.34
535.018	2186.26
535.223	2205.44
535.428	2245.93
535.633	2281.97
535.838	2266.28
536.043	2306.77
536.249	2344.55
536.454	2228.11
536.659	2288.95
536.864	2228.69
537.069	2262.79
537.274	2270.15
537.479	2254.07
537.684	2252.13
537.889	2209.9
538.094	2357.14
538.299	2282.94
538.504	2343.2
538.708	2275.19
538.913	2364.51
539.118	2291.46
539.323	2319.75
539.528	2274.03
539.733	2303.67
539.938	2271.7
540.142	2263.37
540.347	2264.92
540.552	2283.91
540.757	2242.64
540.962	2252.72
541.166	2192.85
541.371	2234.7
541.576	2249.23
541.781	2177.54
541.985	2274.8
542.19	2257.75
542.395	2387.56
542.599	2378.07
542.804	2348.43
543.008	2398.22
543.213	2326.34
543.418	2281.39
543.622	2350.75
543.827	2257.17
544.031	2370.9
544.236	2353.85
544.44	2359.08
544.645	2437.16
544.849	2355.98
545.054	2398.8
545.258	2451.11
545.463	2434.06
545.667	2358.31
545.872	2403.06
546.076	2391.63
546.281	2412.36
546.485	2351.14
546.689	2391.24
546.894	2426.12
547.098	2382.14
547.302	2379.23
547.507	2392.6
547.711	2444.91
547.915	2451.69
548.119	2377.1
548.324	2379.43
548.528	2467.97
548.732	2368.38
548.936	2478.82
549.141	2456.34
549.345	2437.55
549.549	2446.85
549.753	2463.71
549.957	2525.12
550.161	2519.7
550.366	2471.84
550.57	2438.71
550.774	2423.21
550.978	2475.72
551.182	2495.87
551.386	2485.99
551.59	2469.13
551.794	2436.97
551.998	2487.92
552.202	2474.17
552.406	2423.41
552.61	2463.32
552.814	2503.62
553.018	2498.97
553.222	2476.3
553.426	2454.6
553.63	2510.21
553.833	2453.82
554.037	2411.98
554.241	2441.23
554.445	2495.87
554.649	2461.77
554.853	2452.86
555.056	2502.84
555.26	2521.83
555.464	2502.46
555.668	2473.2
555.871	2490.44
556.075	2458.28
556.279	2451.31
556.483	2407.52
556.686	2415.66
556.89	2438.91
557.094	2439.87
557.297	2385.82
557.501	2460.22
557.704	2409.65
557.908	2433.68
558.112	2351.33
558.315	2437.74
558.519	2383.49
558.722	2355.59
558.926	2367.03
559.129	2273.25
559.333	2278.87
559.536	2334.67
559.74	2258.33
559.943	2242.45
560.147	2284.1
560.35	2297.47
560.553	2290.5
560.757	2260.85
560.96	2375.74
561.164	2289.33
561.367	2368.77
561.57	2337.19
561.774	2311.03
561.977	2259.5
562.18	2299.02
562.384	2354.24
562.587	2278.1
562.79	2253.1
562.993	2315.88
563.197	2310.65
563.4	2391.83
563.603	2363.54
563.806	2371.48
564.009	2247.29
564.212	2289.91
564.416	2214.16
564.619	2249.62
564.822	2213.38
565.025	2280.81
565.228	2219.97
565.431	2234.31
565.634	2159.52
565.837	2206.22
566.04	2143.05
566.243	2138.99
566.446	2088.22
566.649	2176.77
566.852	2102.75
567.055	2162.24
567.258	2157
567.461	2190.13
567.664	2168.44
567.867	2099.07
568.07	2122.32
568.273	2138.99
568.475	2186.26
568.678	2090.94
568.881	2070.01
569.084	2046.76
569.287	1952.79
569.489	2015.37
569.692	2068.27
569.895	2069.24
570.098	1970.04
570.3	2002.01
570.503	1899.71
570.706	1946.79
570.909	1945.43
571.111	1883.63
571.314	1886.92
571.516	1911.91
571.719	1930.13
571.922	1892.35
572.124	1866.58
572.327	1906.68
572.529	1870.45
572.732	1910.36
572.935	1929.74
573.137	1975.85
573.34	1912.69
573.542	1935.55
573.745	1874.91
573.947	1930.13
574.15	1894.67
574.352	1864.83
574.554	1899.51
574.757	1873.55
574.959	1821.05
575.162	1822.4
575.364	1806.52
575.566	1910.95
575.769	1839.26
575.971	1805.55
576.173	1700.34
576.376	1794.12
576.578	1829.76
576.78	1867.55
576.982	1735.41
577.185	1759.63
577.387	1766.8
577.589	1734.44
577.791	1766.6
577.993	1765.44
578.196	1742.38
578.398	1800.32
578.6	1767.96
578.802	1692.98
579.004	1712.35
579.206	1708.67
579.408	1765.83
579.61	1742.19
579.812	1779.78
580.014	1735.22
580.216	1725.72
580.418	1736.19
580.62	1714.49
580.822	1720.3
581.024	1724.95
581.226	1755.56
581.428	1742
581.63	1822.79
581.832	1743.35
582.034	1785.01
582.236	1748.39
582.438	1760.21
582.64	1821.82
582.841	1861.54
583.043	1862.51
583.245	1779.97
583.447	1776.29
583.649	1753.04
583.85	1809.23
584.052	1835.19
584.254	1748.97
584.456	1833.25
584.657	1722.24
584.859	1771.45
585.061	1705.19
585.262	1781.72
585.464	1706.93
585.666	1788.69
585.867	1698.79
586.069	1755.95
586.27	1690.85
586.472	1695.69
586.674	1706.93
586.875	1710.22
587.077	1686
587.278	1720.1
587.48	1700.73
587.681	1786.37
587.883	1703.05
588.084	1620.71
588.285	1693.56
588.487	1634.86
588.688	1649
588.89	1522.87
589.091	1490.13
589.292	1525.19
589.494	1512.99
589.695	1430.84
589.896	1401.78
590.098	1393.25
590.299	1453.9
590.5	1470.36
590.702	1490.9
590.903	1515.89
591.104	1574.6
591.305	1546.89
591.507	1630.21
591.708	1563.56
591.909	1532.36
592.11	1605.79
592.311	1570.92
592.512	1535.08
592.714	1503.69
592.915	1522.48
593.116	1527.91
593.317	1577.7
593.518	1557.16
593.719	1566.85
593.92	1605.99
594.121	1595.33
594.322	1569.17
594.523	1547.28
594.724	1482.38
594.925	1528.68
595.126	1538.37
595.327	1514.73
595.528	1572.86
595.729	1532.36
595.929	1546.89
596.13	1528.49
596.331	1548.64
596.532	1572.47
596.733	1600.76
596.934	1589.52
597.135	1575.76
597.335	1555.42
597.536	1521.51
597.737	1568.59
597.938	1525.78
598.138	1571.11
598.339	1552.32
598.54	1563.36
598.74	1537.21
598.941	1514.93
599.142	1564.91
599.342	1565.3
599.543	1541.47
599.744	1566.07
599.944	1531.78
600.145	1544.76
600.345	1524.42
600.546	1568.4
600.746	1550.38
600.947	1608.89
601.147	1517.25
601.348	1593.97
601.548	1531.2
601.749	1544.57
601.949	1505.24
602.15	1498.26
602.35	1515.7
602.551	1547.28
602.751	1511.63
602.951	1518.61
603.152	1447.89
603.352	1535.46
603.552	1510.47
603.753	1561.04
603.953	1551.74
604.153	1549.22
604.354	1540.11
604.554	1533.91
604.754	1526.55
604.954	1511.44
605.155	1536.63
605.355	1543.41
605.555	1576.34
605.755	1575.76
605.955	1574.21
606.155	1552.51
606.356	1504.66
606.556	1525.58
606.756	1548.25
606.956	1467.26
607.156	1562.59
607.356	1510.28
607.556	1523.45
607.756	1520.35
607.956	1542.24
608.156	1537.59
608.356	1508.14
608.556	1548.06
608.756	1479.47
608.956	1466.3
609.156	1476.56
609.356	1464.75
609.556	1456.61
609.755	1477.34
609.955	1444.01
610.155	1465.52
610.355	1468.81
610.555	1423.09
610.755	1434.71
610.954	1391.31
611.154	1475.98
611.354	1465.33
611.554	1401
611.753	1426
611.953	1408.95
612.153	1468.23
612.352	1449.05
612.552	1376.2
612.752	1342.1
612.951	1418.63
613.151	1418.25
613.351	1380.27
613.55	1394.03
613.75	1410.11
613.949	1401.97
614.149	1401.97
614.348	1386.67
614.548	1359.35
614.747	1302.77
614.947	1378.72
615.146	1301.8
615.346	1385.7
615.545	1385.89
615.745	1344.23
615.944	1348.5
616.144	1379.11
616.343	1389.77
616.542	1341.33
616.742	1338.23
616.941	1325.83
617.14	1256.47
617.34	1313.43
617.539	1313.43
617.738	1306.45
617.938	1357.6
618.137	1331.83
618.336	1287.27
618.535	1376.2
618.734	1291.73
618.934	1334.93
619.133	1320.6
619.332	1338.62
619.531	1279.72
619.73	1281.85
619.929	1347.53
620.128	1322.34
620.328	1353.53
620.527	1287.08
620.726	1324.28
620.925	1315.37
621.124	1284.75
621.323	1302
621.522	1272.55
621.721	1244.65
621.92	1258.21
622.119	1315.56
622.318	1255.5
622.517	1238.64
622.715	1275.07
622.914	1215.2
623.113	1250.65
623.312	1166.37
623.511	1262.67
623.71	1230.7
623.909	1186.72
624.107	1296.19
624.306	1202.41
624.505	1198.54
624.704	1211.32
624.902	1216.75
625.101	1240.77
625.3	1226.63
625.499	1196.6
625.697	1207.64
625.896	1180.13
626.095	1207.64
626.293	1163.27
626.492	1157.85
626.69	1185.75
626.889	1176.64
627.088	1232.83
627.286	1155.91
627.485	1178.77
627.683	1147.97
627.882	1180.52
628.08	1074.73
628.279	1112.71
628.477	1191.76
628.676	1105.54
628.874	1173.16
629.073	1099.34
629.271	1091.2
629.469	1110.58
629.668	1110.38
629.866	1111.35
630.065	1127.04
630.263	1165.99
630.461	1088.68
630.66	1144.48
630.858	1151.84
631.056	1180.91
631.254	1182.46
631.453	1080.93
631.651	1179.16
631.849	1146.81
632.047	1165.21
632.245	1125.88
632.444	1125.11
632.642	1169.47
632.84	1206.29
633.038	1149.13
633.236	1110.96
633.434	1134.41
633.632	1119.1
633.83	1110.38
634.028	1174.32
634.227	1165.21
634.425	1199.51
634.623	1142.93
634.821	1171.22
635.019	1178.39
635.216	1160.37
635.414	1162.89
635.612	1139.64
635.81	1124.91
636.008	1187.11
636.206	1148.94
636.404	1182.07
636.602	1146.03
636.8	1176.45
636.997	1155.14
637.195	1156.88
637.393	1158.62
637.591	1219.07
637.789	1130.92
637.986	1163.08
638.184	1151.84
638.382	1178
638.58	1170.64
638.777	1205.12
638.975	1131.89
639.173	1157.27
639.37	1129.76
639.568	1106.31
639.765	1158.82
639.963	1098.95
640.161	1185.56
640.358	1153.01
640.556	1059.81
640.753	1081.32
640.951	1057.49
641.148	1081.51
641.346	1075.51
641.543	1059.81
641.741	1107.86
641.938	1042.38
642.136	1092.75
642.333	1048.38
642.531	1084.81
642.728	1099.53
642.925	1035.21
643.123	1032.11
643.32	1057.49
643.517	1044.51
643.715	1045.28
643.912	1046.25
644.109	1053.61
644.306	1019.32
644.504	991.03
644.701	1017.96
644.898	1031.53
645.095	990.06
645.293	1018.93
645.49	1013.7
645.687	1019.13
645.884	1049.74
646.081	917.22
646.278	980.57
646.475	967.2
646.672	949.96
646.87	941.05
647.067	934.85
647.264	964.88
647.461	928.07
647.658	878.66
647.855	945.5
648.052	944.73
648.249	826.93
648.446	937.56
648.642	911.02
648.839	907.33
649.036	863.35
649.233	844.95
649.43	824.41
649.627	812.01
649.824	886.99
650.021	853.67
650.217	856.19
650.414	840.1
650.611	892.61
650.808	888.15
651.004	875.17
651.201	902.49
651.398	961.2
651.595	896.1
651.791	864.71
651.988	900.55
652.185	853.67
652.381	890.87
652.578	845.72
652.775	853.86
652.971	875.37
653.168	863.55
653.364	900.75
653.561	803.87
653.757	857.54
653.954	869.75
654.15	828.29
654.347	878.27
654.543	875.37
654.74	793.22
654.936	816.66
655.133	858.9
655.329	835.65
655.525	797.29
655.722	831.39
655.918	746.33
656.115	789.92
656.311	750.01
656.507	710.49
656.704	672.51
656.9	708.94
657.096	706.22
657.292	736.64
657.489	816.47
657.685	773.84
657.881	744.59
658.077	729.47
658.273	800.19
658.47	821.89
658.666	779.46
658.862	812.79
659.058	786.44
659.254	812.59
659.45	785.27
659.646	789.92
659.842	787.79
660.038	814.53
660.234	753.89
660.43	806.39
660.626	848.63
660.822	817.44
661.018	814.92
661.214	790.5
661.41	759.51
661.606	813.95
661.802	813.17
661.998	743.04
662.194	751.56
662.39	772.1
662.586	781.59
662.781	785.27
662.977	790.89
663.173	765.51
663.369	784.11
663.564	752.34
663.76	775.39
663.956	735.09
664.152	784.3
664.347	682.2
664.543	724.63
664.739	698.28
664.934	666.51
665.13	683.56
665.326	718.43
665.521	719.21
665.717	691.11
665.912	689.18
666.108	631.05
666.304	692.66
666.499	659.14
666.695	638.61
666.89	700.02
667.086	727.34
667.281	710.87
667.477	717.46
667.672	692.08
667.867	701.19
668.063	695.37
668.258	649.26
668.454	682.98
668.649	730.64
668.844	682.01
669.04	695.96
669.235	686.08
669.43	671.93
669.626	630.08
669.821	635.51
670.016	654.69
670.211	651.59
670.407	612.84
670.602	629.31
670.797	666.7
670.992	676
671.187	604.51
671.382	677.74
671.578	636.86
671.773	655.27
671.968	601.8
672.163	642.48
672.358	656.04
672.553	609.74
672.748	630.86
672.943	696.73
673.138	629.11
673.333	690.34
673.528	593.66
673.723	663.02
673.918	620.01
674.113	593.46
674.308	680.65
674.503	670.96
674.698	661.66
674.892	643.84
675.087	642.09
675.282	600.63
675.477	590.95
675.672	631.44
675.867	598.7
676.061	571.18
676.256	573.51
676.451	588.04
676.646	633.57
676.84	596.56
677.035	587.85
677.23	576.61
677.424	608.77
677.619	625.24
677.814	663.02
678.008	652.75
678.203	572.15
678.397	617.88
678.592	618.65
678.787	670.58
678.981	612.64
679.176	607.22
679.37	615.16
679.565	560.53
679.759	610.51
679.954	617.88
680.148	632.79
680.342	651.39
680.537	620.2
680.731	584.16
680.926	623.88
681.12	654.3
681.314	607.41
681.509	633.96
681.703	639.19
681.897	616.71
682.092	603.73
682.286	593.08
682.48	675.81
682.674	650.81
682.869	636.28
683.063	644.42
683.257	699.25
683.451	627.95
683.645	632.02
683.839	628.34
684.034	637.64
684.228	687.04
684.422	620.59
684.616	595.4
684.81	668.83
685.004	633.76
685.198	644.81
685.392	685.49
685.586	642.48
685.78	637.44
685.974	671.93
686.168	674.26
686.362	727.73
686.556	622.72
686.75	613.61
686.944	622.91
687.138	594.24
687.331	542.9
687.525	573.51
687.719	487.29
687.913	535.53
688.107	545.22
688.301	528.56
688.494	605.28
688.688	567.31
688.882	551.42
689.076	539.02
689.269	562.66
689.463	644.23
689.657	601.41
689.85	609.35
690.044	651.01
690.238	635.12
690.431	640.54
690.625	656.04
690.818	685.11
691.012	712.42
691.205	722.11
691.399	685.3
691.593	763.19
691.786	769
691.98	834.68
692.173	846.69
692.366	842.82
692.56	843.79
692.753	907.92
692.947	860.64
693.14	903.27
693.333	929.62
693.527	825.77
693.72	892.22
693.914	884.67
694.107	912.37
694.3	929.03
694.493	883.12
694.687	1004.98
694.88	903.65
695.073	1009.44
695.266	1002.27
695.46	999.95
695.653	1044.89
695.846	1047.41
696.039	1007.5
696.232	1075.51
696.425	1104.96
696.618	1104.57
696.812	1161.14
697.005	1206.29
697.198	1263.64
697.391	1217.33
697.584	1265.57
697.777	1295.02
697.97	1290.57
698.163	1309.75
698.356	1301.42
698.549	1373.3
698.742	1320.6
698.935	1293.47
699.127	1359.54
699.32	1341.52
699.513	1343.85
699.706	1361.09
699.899	1417.28
700.092	1379.69
700.285	1387.05
700.477	1360.9
700.67	1411.85
700.863	1406.81
701.056	1471.72
701.248	1498.26
701.441	1512.99
701.634	1479.47
701.826	1579.06
702.019	1468.23
702.212	1574.02
702.404	1469.4
702.597	1512.99
702.79	1539.73
702.982	1561.62
703.175	1603.27
703.367	1597.85
703.56	1637.57
703.752	1684.45
703.945	1670.89
704.137	1693.56
704.33	1726.11
704.522	1751.88
704.715	1744.32
704.907	1793.34
705.1	1789.47
705.292	1811.55
705.484	1780.94
705.677	1792.18
705.869	1846.04
706.061	1874.13
706.254	1905.52
706.446	1896.41
706.638	1876.26
706.831	1927.99
707.023	1941.56
707.215	2006.85
707.407	2024.29
707.599	1969.26
707.792	2028.94
707.984	1983.79
708.176	2069.82
708.368	2028.74
708.56	2066.72
708.752	2036.3
708.944	2048.31
709.136	2108.57
709.329	2079.31
709.521	2206.6
709.713	2130.85
709.905	2156.81
710.097	2197.5
710.289	2174.83
710.481	2162.43
710.672	2196.72
710.864	2231.4
711.056	2275
711.248	2217.84
711.44	2266.08
711.632	2269.76
711.824	2301.54
712.016	2338.93
712.207	2321.69
712.399	2329.05
712.591	2403.45
712.783	2372.64
712.975	2379.81
713.166	2348.81
713.358	2326.92
713.55	2415.66
713.741	2386.79
713.933	2420.5
714.125	2428.06
714.316	2360.44
714.508	2445.69
714.7	2438.71
714.891	2462.54
715.083	2479.21
715.274	2408.1
715.466	2451.11
715.657	2499.16
715.849	2393.76
716.04	2418.37
716.232	2372.26
716.423	2429.61
716.615	2311.42
716.806	2263.95
716.998	2182.97
717.189	2182
717.381	2051.8
717.572	2022.35
717.763	2055.48
717.955	1995.23
718.146	1960.54
718.337	1903
718.528	1876.26
718.72	1820.47
718.911	1857.47
719.102	1781.13
719.293	1852.82
719.485	1847.59
719.676	1824.53
719.867	1757.5
720.058	1776.29
720.249	1797.8
720.44	1795.86
720.632	1860.18
720.823	1909.59
721.014	2041.92
721.205	2120.19
721.396	2149.06
721.587	2192.65
721.778	2321.3
721.969	2336.8
722.16	2390.08
722.351	2375.16
722.542	2546.05
722.733	2522.61
722.924	2442.97
723.115	2475.52
723.305	2456.15
723.496	2420.11
723.687	2313.55
723.878	2297.08
724.069	2343.97
724.26	2341.26
724.45	2265.7
724.641	2270.35
724.832	2302.31
725.023	2247.68
725.213	2271.12
725.404	2223.07
725.595	2233.92
725.785	2229.27
725.976	2261.05
726.167	2265.5
726.357	2256.98
726.548	2338.16
726.739	2302.9
726.929	2417.21
727.12	2365.67
727.31	2367.61
727.501	2338.35
727.691	2373.03
727.882	2365.28
728.072	2411.98
728.263	2382.91
728.453	2516.6
728.644	2464.87
728.834	2454.02
729.024	2436.78
729.215	2393.76
729.405	2446.66
729.596	2560.77
729.786	2485.99
729.976	2530.35
730.167	2547.4
730.357	2501.49
730.547	2576.66
730.737	2536.55
730.928	2610.37
731.118	2650.67
731.308	2569.1
731.498	2554.38
731.688	2665.78
731.879	2710.54
732.069	2718.29
732.259	2778.74
732.449	2829.69
732.639	2841.71
732.829	2899.44
733.019	2912.23
733.209	2983.72
733.399	2983.92
733.589	3124
733.779	3100.75
733.969	3099.2
734.159	3181.73
734.349	3221.84
734.539	3237.53
734.729	3244.7
734.919	3244.89
735.109	3337.12
735.299	3234.04
735.488	3303.79
735.678	3280.74
735.868	3305.34
736.058	3252.64
736.248	3302.63
736.437	3266.79
736.627	3233.08
736.817	3334.6
737.007	3297.01
737.196	3370.44
737.386	3350.49
737.576	3316.19
737.765	3391.95
737.955	3297.98
738.144	3406.29
738.334	3453.75
738.524	3384.97
738.713	3406.09
738.903	3408.22
739.092	3404.74
739.282	3474.68
739.471	3436.9
739.661	3435.54
739.85	3517.88
740.04	3444.45
740.229	3516.92
740.419	3522.15
740.608	3500.06
740.797	3509.75
740.987	3588.02
741.176	3567.29
741.365	3603.13
741.555	3510.72
741.744	3623.67
741.933	3562.45
742.123	3597.32
742.312	3621.35
742.501	3687.61
742.69	3638.01
742.88	3550.82
743.069	3693.42
743.258	3666.49
743.447	3728.88
743.636	3651.76
743.825	3664.36
744.014	3662.81
744.204	3703.49
744.393	3637.43
744.582	3714.93
744.771	3731.39
744.96	3677.92
745.149	3716.09
745.338	3712.02
745.527	3763.75
745.716	3711.63
745.905	3689.93
746.094	3743.99
746.283	3710.08
746.471	3765.3
746.66	3779.64
746.849	3767.62
747.038	3783.51
747.227	3735.08
747.416	3780.22
747.604	3755.81
747.793	3742.63
747.982	3782.54
748.171	3739.53
748.359	3755.03
748.548	3745.34
748.737	3800.76
748.926	3748.25
749.114	3656.61
749.303	3738.95
749.491	3709.5
749.68	3634.13
749.869	3779.06
750.057	3721.13
750.246	3675.01
750.434	3683.15
750.623	3698.07
750.811	3690.51
751	3739.92
751.188	3659.13
751.377	3729.65
751.565	3659.71
751.754	3612.82
751.942	3612.43
752.131	3734.3
752.319	3613.79
752.507	3623.48
752.696	3680.44
752.884	3734.69
753.072	3636.85
753.261	3607.59
753.449	3654.67
753.637	3612.63
753.825	3710.66
754.014	3623.28
754.202	3644.4
754.39	3675.59
754.578	3671.33
754.766	3608.17
754.955	3573.49
755.143	3727.13
755.331	3593.06
755.519	3653.7
755.707	3605.65
755.895	3611.27
756.083	3588.41
756.271	3566.71
756.459	3558.18
756.647	3605.46
756.835	3551.4
757.023	3584.34
757.211	3535.71
757.399	3522.34
757.587	3517.5
757.775	3484.95
757.963	3483.59
758.151	3487.08
758.339	3452.98
758.526	3453.17
758.714	3460.73
758.902	3338.09
759.09	3210.99
759.278	3015.5
759.465	2775.64
759.653	2409.07
759.841	2193.04
760.028	1887.89
760.216	1638.54
760.404	1515.31
760.591	1253.56
760.779	1047.41
760.967	920.51
761.154	751.17
761.342	794.77
761.529	762.99
761.717	830.61
761.905	820.34
762.092	852.5
762.28	791.47
762.467	765.51
762.655	737.61
762.842	768.81
763.029	785.27
763.217	785.08
763.404	771.13
763.592	796.51
763.779	753.5
763.966	821.31
764.154	826.15
764.341	915.86
764.528	924.58
764.716	980.38
764.903	1044.51
765.09	1111.74
765.277	1137.12
765.465	1305.48
765.652	1369.62
765.839	1487.61
766.026	1584.48
766.213	1669.73
766.4	1777.07
766.588	1919.08
766.775	1931.87
766.962	2104.3
767.149	2151.39
767.336	2289.53
767.523	2297.47
767.71	2414.49
767.897	2528.22
768.084	2608.44
768.271	2645.25
768.458	2722.16
768.645	2753.75
768.832	2805.48
769.019	2801.6
769.206	2872.51
769.392	2937.81
769.579	3002.9
769.766	2981.2
769.953	3001.74
770.14	3039.14
770.327	3050.57
770.513	3112.76
770.7	3141.63
770.887	3063.35
771.073	3123.03
771.26	3140.85
771.447	3066.65
771.634	3081.95
771.82	3172.43
772.007	3068.2
772.193	3128.45
772.38	3164.49
772.567	3106.37
772.753	3112.37
772.94	3195.49
773.126	3168.56
773.313	3177.66
773.499	3134.65
773.686	3130
773.872	3110.63
774.059	3171.27
774.245	3069.94
774.432	3114.7
774.618	3023.44
774.804	3124.19
774.991	3040.3
775.177	3101.33
775.363	3076.72
775.55	3135.82
775.736	3072.46
775.922	3049.02
776.109	3051.15
776.295	3069.36
776.481	3071.49
776.667	3087.77
776.853	3059.48
777.04	3006.59
777.226	3037.78
777.412	3126.9
777.598	2972.1
777.784	3051.73
777.97	2999.22
778.156	3018.02
778.342	3023.25
778.528	2975
778.715	2966.48
778.901	2984.11
779.087	3001.16
779.272	2936.06
779.458	2954.47
779.644	2964.15
779.83	2936.26
780.016	3045.92
780.202	2930.83
780.388	2963.57
780.574	2908.16
780.76	2913.39
780.946	2943.23
781.131	2961.06
781.317	2884.14
781.503	2900.41
781.689	2800.44
781.874	2969.77
782.06	2897.89
782.246	2893.63
782.432	2862.63
782.617	2869.99
782.803	2919.4
782.989	2845.39
783.174	2827.37
783.36	2790.17
783.545	2832.79
783.731	2857.21
783.916	2770.02
784.102	2834.93
784.288	2781.06
784.473	2803.34
784.659	2778.55
784.844	2831.44
785.029	2784.36
785.215	2764.98
785.4	2700.66
785.586	2795.59
785.771	2714.61
785.956	2768.28
786.142	2746
786.327	2733.98
786.512	2747.93
786.698	2677.6
786.883	2649.51
787.068	2683.22
787.254	2714.8
787.439	2666.17
787.624	2646.02
787.809	2679.15
787.994	2645.44
788.18	2669.66
788.365	2587.12
788.55	2578.79
788.735	2613.86
788.92	2590.8
789.105	2579.95
789.29	2610.95
789.475	2521.25
789.66	2530.35
789.845	2506.72
790.03	2534.81
790.215	2537.72
790.4	2554.77
790.585	2572.4
790.77	2547.99
790.955	2458.67
791.14	2494.32
791.325	2588.87
791.51	2427.28
791.695	2507.88
791.879	2476.49
792.064	2430.19
792.249	2515.63
792.434	2453.05
792.618	2518.34
792.803	2522.99
792.988	2446.07
793.173	2475.33
793.357	2551.09
793.542	2467
793.727	2512.92
793.911	2505.94
794.096	2525.32
794.281	2585.77
794.465	2603.59
794.65	2514.47
794.834	2582.47
795.019	2558.25
795.203	2618.51
795.388	2579.37
795.572	2602.82
795.757	2541.2
795.941	2522.99
796.126	2522.02
796.31	2470.68
796.494	2504.59
796.679	2481.72
796.863	2474.56
797.048	2581.12
797.232	2553.22
797.416	2534.42
797.601	2550.89
797.785	2583.05
797.969	2553.41
798.153	2522.8
798.338	2597.39
798.522	2588.87
798.706	2595.84
798.89	2618.51
799.074	2643.12
799.258	2632.85
799.443	2549.73
799.627	2547.4
799.811	2649.12
799.995	2543.34
800.179	2528.22
800.363	2521.06
800.547	2570.46
800.731	2589.64
800.915	2523.77
801.099	2506.91
801.283	2521.25
801.467	2542.56
801.651	2490.83
801.835	2548.57
802.019	2591.97
802.202	2543.72
802.386	2485.02
802.57	2463.51
802.754	2502.65
802.938	2474.36
803.121	2495.87
803.305	2552.64
803.489	2489.86
803.673	2513.31
803.856	2540.43
804.04	2498.77
804.224	2554.57
804.407	2490.64
804.591	2501.29
804.775	2550.7
804.958	2550.89
805.142	2615.99
805.326	2533.65
805.509	2542.56
805.693	2602.24
805.876	2597.59
806.06	2579.76
806.243	2596.81
806.427	2625.68
806.61	2634.01
806.794	2558.64
806.977	2596.42
807.16	2604.17
807.344	2589.25
807.527	2553.6
807.71	2509.82
807.894	2578.99
808.077	2609.02
808.26	2511.56
808.444	2515.82
808.627	2581.7
808.81	2494.71
808.993	2456.15
809.177	2465.64
809.36	2443.94
809.543	2488.31
809.726	2375.55
809.909	2422.24
810.092	2391.24
810.276	2390.08
810.459	2425.54
810.642	2357.92
810.825	2349.2
811.008	2346.88
811.191	2228.88
811.374	2252.91
811.557	2285.65
811.74	2349.59
811.923	2200.02
812.106	2170.76
812.289	2185.29
812.472	2196.33
812.654	2171.73
812.837	2134.53
813.02	2099.85
813.203	2076.02
813.386	1994.45
813.569	1962.29
813.751	1890.8
813.934	1958.8
814.117	1936.13
814.3	1850.5
814.482	1818.33
814.665	1782.49
814.848	1745.87
815.03	1697.63
815.213	1714.29
815.396	1655.59
815.578	1661.98
815.761	1599.4
815.943	1712.16
816.126	1573.44
816.309	1572.86
816.491	1524.61
816.674	1490.13
816.856	1521.71
817.039	1504.66
817.221	1573.24
817.403	1512.21
817.586	1510.08
817.768	1568.98
817.951	1470.17
818.133	1466.88
818.315	1501.94
818.498	1532.36
818.68	1618.77
818.862	1564.72
819.045	1607.92
819.227	1579.83
819.409	1543.79
819.591	1608.51
819.774	1545.15
819.956	1540.69
820.138	1593.97
820.32	1624.59
820.502	1698.4
820.684	1716.62
820.866	1736.38
821.048	1806.32
821.231	1782.3
821.413	1791.98
821.595	1775.13
821.777	1792.18
821.959	1776.87
822.141	1783.85
822.323	1673.99
822.505	1618.77
822.686	1585.64
822.868	1496.91
823.05	1409.33
823.232	1364.58
823.414	1315.95
823.596	1371.94
823.778	1329.7
823.96	1405.46
824.141	1427.35
824.323	1439.95
824.505	1493.03
824.687	1569.17
824.868	1593.97
825.05	1701.31
825.232	1707.51
825.413	1794.7
825.595	1748.58
825.777	1669.15
825.958	1728.63
826.14	1724.56
826.321	1740.25
826.503	1691.43
826.685	1766.41
826.866	1761.95
827.048	1747.03
827.229	1690.07
827.411	1698.79
827.592	1628.85
827.773	1607.34
827.955	1606.18
828.136	1573.24
828.318	1530.43
828.499	1569.37
828.68	1527.52
828.862	1561.04
829.043	1562.98
829.224	1577.89
829.406	1508.92
829.587	1539.53
829.768	1518.99
829.949	1555.61
830.131	1547.28
830.312	1601.34
830.493	1544.57
830.674	1568.59
830.855	1559.68
831.036	1570.34
831.218	1586.03
831.399	1625.56
831.58	1575.96
831.761	1560.65
831.942	1598.43
832.123	1551.35
832.304	1498.26
832.485	1520.54
832.666	1553.09
832.847	1581.38
833.028	1553.29
833.209	1560.46
833.389	1538.18
833.57	1487.41
833.751	1525.58
833.932	1562.59
834.113	1522.87
834.294	1542.83
834.475	1564.14
834.655	1638.34
834.836	1614.51
835.017	1617.22
835.198	1548.83
835.378	1557.74
835.559	1638.15
835.74	1595.52
835.92	1586.42
836.101	1567.24
836.281	1593.39
836.462	1599.21
836.643	1649
836.823	1652.87
837.004	1653.65
837.184	1680.97
837.365	1638.54
837.545	1667.79
837.726	1650.74
837.906	1712.74
838.087	1630.4
838.267	1634.66
838.448	1608.51
838.628	1623.62
838.808	1658.1
838.989	1688.33
839.169	1604.24
839.349	1640.47
839.53	1683.29
839.71	1672.25
839.89	1611.61
840.07	1679.42
840.251	1616.84
840.431	1675.93
840.611	1641.83
840.791	1602.89
840.971	1632.34
841.151	1623.04
841.332	1601.14
841.512	1701.7
841.692	1550.77
841.872	1644.35
842.052	1616.84
842.232	1645.9
842.412	1555.03
842.592	1631.95
842.772	1633.5
842.952	1612.38
843.132	1583.71
843.312	1578.09
843.492	1580.61
843.672	1602.89
843.851	1577.31
844.031	1599.98
844.211	1590.29
844.391	1558.91
844.571	1594.94
844.751	1595.72
844.93	1606.76
845.11	1573.82
845.29	1574.6
845.47	1602.31
845.649	1611.02
845.829	1591.65
846.009	1564.33
846.188	1640.47
846.368	1571.5
846.547	1568.21
846.727	1629.04
846.907	1547.28
847.086	1582.35
847.266	1579.44
847.445	1562.01
847.625	1559.88
847.804	1522.48
847.984	1560.84
848.163	1520.35
848.343	1544.76
848.522	1536.82
848.701	1555.03
848.881	1547.09
849.06	1523.06
849.239	1540.5
849.419	1523.84
849.598	1460.87
849.777	1461.65
849.957	1470.17
850.136	1407.78
850.315	1400.81
850.494	1403.13
850.674	1451.38
850.853	1468.43
851.032	1428.13
851.211	1467.85
851.39	1447.7
851.569	1427.16
851.748	1408.95
851.927	1484.51
852.107	1435.3
852.286	1401
852.465	1407.78
852.644	1476.56
852.823	1438.4
853.002	1403.71
853.181	1406.43
853.359	1461.26
853.538	1382.4
853.717	1416.89
853.896	1341.72
854.075	1300.84
854.254	1261.7
854.433	1209.39
854.611	1245.62
854.79	1206.09
854.969	1244.07
855.148	1275.84
855.327	1251.43
855.505	1282.43
855.684	1261.7
855.863	1296.57
856.041	1303.55
856.22	1339.39
856.399	1293.86
856.577	1364.19
856.756	1398.68
856.934	1472.3
857.113	1477.92
857.291	1346.56
857.47	1363.22
857.648	1394.61
857.827	1393.25
858.005	1405.65
858.184	1342.49
858.362	1449.44
858.541	1337.84
858.719	1371.55
858.898	1357.22
859.076	1332.61
859.254	1422.9
859.433	1360.12
859.611	1329.7
859.789	1314.59
859.967	1423.86
860.146	1388.99
860.324	1299.67
860.502	1341.33
860.68	1288.82
860.859	1297.54
861.037	1295.22
861.215	1334.35
861.393	1325.44
861.571	1314.01
861.749	1291.34
861.927	1328.54
862.105	1323.5
862.283	1312.07
862.461	1252.4
862.639	1281.46
862.817	1283.4
862.995	1319.24
863.173	1268.87
863.351	1286.69
863.529	1282.43
863.707	1349.85
863.885	1304.9
864.063	1220.24
864.241	1284.75
864.418	1330.67
864.596	1256.08
864.774	1220.82
864.952	1264.41
865.129	1297.15
865.307	1236.12
865.485	1187.88
865.663	1246.59
865.84	1178.39
866.018	1195.24
866.196	1053.81
866.373	1109.22
866.551	1078.22
866.728	1002.85
866.906	1068.53
867.084	1077.83
867.261	1128.98
867.439	1167.15
867.616	1173.74
867.794	1140.8
867.971	1173.16
868.149	1148.16
868.326	1210.36
868.503	1176.26
868.681	1171.41
868.858	1151.65
869.035	1107.48
869.213	1151.84
869.39	1138.28
869.567	1221.98
869.745	1136.92
869.922	1179.55
870.099	1188.27
870.276	1179.74
870.454	1166.76
870.631	1178.19
870.808	1160.56
870.985	1193.5
871.162	1190.59
871.339	1172.77
871.517	1128.21
871.694	1107.28
871.871	1153.78
872.048	1141.96
872.225	1161.92
872.402	1171.8
872.579	1113.29
872.756	1180.13
872.933	1063.88
873.11	1125.11
873.287	1104.57
873.463	1125.88
873.64	1097.98
873.817	1147.58
873.994	1108.64
874.171	1066.59
874.348	1135.76
874.524	1041.6
874.701	1095.27
874.878	1083.84
875.055	1070.66
875.231	1075.12
875.408	1107.67
875.585	1029.59
875.762	1102.44
875.938	1058.46
876.115	1041.21
876.291	1040.63
876.468	1052.45
876.645	1038.89
876.821	1021.65
876.998	1065.82
877.174	1032.69
877.351	1037.34
877.527	997.81
877.704	1040.44
877.88	1045.28
878.057	1014.86
878.233	1088.68
878.409	1039.28
878.586	1033.85
878.762	1007.11
878.938	1029.59
879.115	970.3
879.291	1029.4
879.467	989.68
879.644	986.77
879.82	1012.93
879.996	986.58
880.172	960.42
880.349	994.91
880.525	1000.91
880.701	976.11
880.877	973.21
881.053	957.51
881.229	959.65
881.405	1006.15
881.581	942.02
881.757	953.45
881.933	989.29
882.109	1009.25
882.285	948.02
882.461	930.39
882.637	965.07
882.813	905.2
882.989	959.84
883.165	1053.81
883.341	950.54
883.517	1006.92
883.693	977.47
883.869	971.46
884.044	955.19
884.22	1002.66
884.396	1009.83
884.572	1006.15
884.747	1016.8
884.923	1012.15
885.099	972.43
885.275	1015.25
885.45	959.84
885.626	930.78
885.801	972.05
885.977	950.73
886.153	909.47
886.328	977.66
886.504	928.07
886.679	984.06
886.855	946.67
887.03	979.99
887.206	1002.85
887.381	932.13
887.557	948.22
887.732	956.35
887.908	989.1
888.083	1009.44
888.258	974.18
888.434	949.18
888.609	986.77
888.784	982.7
888.96	957.51
889.135	975.34
889.31	931.55
889.485	975.53
889.661	957.71
889.836	975.53
890.011	957.9
890.186	955.77
890.361	944.53
890.537	979.02
890.712	971.46
890.887	969.53
891.062	967.78
891.237	1014.67
891.412	927.68
891.587	966.43
891.762	968.36
891.937	992
892.112	909.85
892.287	965.26
892.462	901.13
892.637	897.07
892.812	872.85
892.987	877.11
893.161	868.78
893.336	870.91
893.511	870.91
893.686	860.06
893.861	893.77
894.035	869.94
894.21	878.08
894.385	800.39
894.56	838.75
894.734	774.04
894.909	765.32
895.084	787.6
895.258	785.08
895.433	777.52
895.608	743.81
895.782	722.69
895.957	694.79
896.131	713.78
896.306	684.14
896.48	649.84
896.655	639.96
896.829	609.54
897.004	626.98
897.178	629.31
897.353	590.95
897.527	660.89
897.701	618.46
897.876	591.14
898.05	665.54
898.224	635.89
898.399	672.51
898.573	629.11
898.747	521.39
898.921	552.2
899.096	479.93
899.27	502.79
899.444	497.95
899.618	542.51
899.792	541.54
899.967	558.98
900.141	582.23
900.315	506.86
900.489	555.1
900.663	560.91
900.837	539.41
901.011	512.09
901.185	593.27
901.359	517.51
901.533	561.88
901.707	548.13
901.881	542.9
902.055	486.71
902.229	522.75
902.403	571.57
902.576	510.54
902.75	546.96
902.924	661.08
903.098	580.48
903.272	665.34
903.446	661.28
903.619	657.98
903.793	690.73
903.967	655.85
904.14	720.56
904.314	716.11
904.488	681.23
904.661	714.17
904.835	686.27
905.009	718.62
905.182	743.04
905.356	716.69
905.529	681.81
905.703	684.53
905.876	666.89
906.05	605.86
906.223	624.66
906.397	548.13
906.57	545.41
906.744	525.85
906.917	548.9
907.09	540.76
907.264	554.33
907.437	511.12
907.61	488.07
907.784	500.27
907.957	503.18
908.13	457.84
908.304	520.23
908.477	475.67
908.65	467.72
908.823	467.14
908.996	516.74
909.17	479.54
909.343	478.96
909.516	467.72
909.689	450.87
909.862	444.47
910.035	469.47
910.208	444.28
910.381	448.35
910.554	534.37
910.727	468.11
910.9	466.56
911.073	428.39
911.246	510.54
911.419	543.28
911.592	512.09
911.765	459.78
911.938	465.4
912.11	490
912.283	482.83
912.456	540.76
912.629	446.02
912.802	424.32
912.974	428.39
913.147	368.72
913.32	319.89
913.493	372.01
913.665	415.8
913.838	428.39
914.01	411.15
914.183	411.54
914.356	404.37
914.528	435.75
914.701	481.67
914.873	431.88
915.046	386.54
915.218	368.14
915.391	315.82
915.563	342.56
915.736	383.25
915.908	425.49
916.081	403.98
916.253	391.19
916.425	424.13
916.598	422
916.77	407.27
916.942	385.38
917.115	309.04
917.287	385.77
917.459	390.8
917.632	334.81
917.804	298.77
917.976	372.01
918.148	378.6
918.32	385.77
918.493	440.21
918.665	433.62
918.837	422
919.009	448.35
919.181	443.12
919.353	429.17
919.525	426.26
919.697	430.52
919.869	406.69
920.041	490
920.213	536.89
920.385	440.4
920.557	451.25
920.729	451.83
920.901	440.02
921.073	429.94
921.244	420.45
921.416	475.67
921.588	434.98
921.76	412.89
921.932	468.88
922.103	426.45
922.275	428.97
922.447	463.07
922.619	386.54
922.79	417.74
922.962	399.72
923.134	430.33
923.305	383.25
923.477	385.77
923.648	323.96
923.82	362.52
923.991	351.67
924.163	344.89
924.335	356.51
924.506	342.75
924.677	403.4
924.849	353.41
925.02	366.59
925.192	370.85
925.363	384.02
925.535	388.09
925.706	372.98
925.877	376.27
926.049	313.31
926.22	400.69
926.391	366.2
926.562	375.89
926.734	366
926.905	384.02
927.076	286.76
927.247	358.45
927.419	303.23
927.59	289.28
927.761	308.07
927.932	268.55
928.103	297.03
928.274	259.64
928.445	253.44
928.616	263.12
928.787	237.74
928.958	277.07
929.129	255.37
929.3	244.33
929.471	211.78
929.642	172.45
929.813	122.08
929.984	221.86
930.155	139.13
930.326	200.54
930.496	170.71
930.667	86.43
930.838	137.58
931.009	117.62
931.18	133.9
931.35	135.45
931.521	146.1
931.692	76.16
931.863	67.44
932.033	90.3
932.204	108.13
932.374	98.63
932.545	73.45
932.716	102.31
932.886	113.55
933.057	30.63
933.227	63.76
933.398	99.99
933.568	46.32
933.739	18.23
933.909	34.12
934.08	71.12
934.25	-7.35
934.421	12.42
934.591	68.41
934.761	49.23
934.932	11.45
935.102	47.48
935.272	21.52
935.443	16.68
935.613	25.78
935.783	50.78
935.953	6.02
936.123	177.29
936.294	0.98
936.464	19
936.634	52.52
936.804	-7.54
936.974	1.76
937.144	60.47
937.314	18.03
937.484	26.56
937.655	-18.58
937.825	93.4
937.995	17.45
938.165	61.24
938.334	27.14
938.504	54.65
938.674	38.57
938.844	55.82
939.014	82.75
939.184	77.71
939.354	132.54
939.524	112.97
939.694	88.56
939.863	64.34
940.033	131.57
940.203	125.76
940.373	98.05
940.542	89.14
940.712	84.3
940.882	99.41
941.051	137.96
941.221	105.8
941.391	127.89
941.56	79.65
941.73	67.25
941.899	164.7
942.069	66.67
942.238	131.76
942.408	82.36
942.577	94.56
942.747	68.02
942.916	25.98
943.086	33.34
943.255	81.39
943.425	81
943.594	49.62
943.763	-4.25
943.933	22.1
944.102	4.67
944.271	49.42
944.441	87.2
944.61	52.13
944.779	56.59
944.948	106.77
945.117	7.96
945.287	49.03
945.456	-13.35
945.625	26.37
945.794	73.45
945.963	26.56
946.132	59.88
946.301	52.72
946.47	73.06
946.639	7.96
946.808	53.49
946.977	55.23
947.146	90.3
947.315	15.9
947.484	66.67
947.653	48.07
947.822	60.47
947.991	10.67
948.16	133.31
948.329	88.95
948.498	51.75
948.666	64.92
948.835	75.19
949.004	30.05
949.173	4.28
949.341	51.36
949.51	55.04
949.679	97.66
949.847	53.68
950.016	121.88
950.185	105.8
950.353	42.64
950.522	51.17
950.69	116.65
950.859	19.58
951.028	81
951.196	71.9
951.365	48.84
951.533	23.27
951.701	75.38
951.87	75.19
952.038	17.26
952.207	61.24
952.375	102.9
952.543	43.22
952.712	56.98
952.88	71.51
953.048	90.88
953.217	75
953.385	35.28
953.553	95.34
953.721	32.37
953.89	64.73
954.058	31.21
954.226	16.1
954.394	48.07
954.562	21.52
954.73	37.99
954.898	19.2
955.067	101.35
955.235	65.12
955.403	70.15
955.571	124.01
955.739	75
955.907	32.76
956.075	49.42
956.243	36.05
956.41	93.79
956.578	-4.25
956.746	9.32
956.914	26.17
957.082	74.61
957.25	45.93
957.418	23.65
957.585	84.49
957.753	75
957.921	21.72
958.089	49.23
958.256	68.22
958.424	77.32
958.592	68.02
958.759	31.79
958.927	74.8
959.095	32.76
959.262	60.27
959.43	47.1
959.597	21.13
959.765	34.31
959.932	12.22
960.1	99.41
960.267	84.3
960.435	62.79
960.602	90.88
960.77	40.9
960.937	16.48
961.104	68.41
961.272	29.27
961.439	56.98
961.606	59.69
961.774	65.89
961.941	16.87
962.108	61.82
962.275	68.8
962.443	97.66
962.61	68.41
962.777	132.54
962.944	85.85
963.111	90.11
963.278	89.91
963.446	70.54
963.613	58.14
963.78	99.6
963.947	98.83
964.114	77.32
964.281	146.88
964.448	76.74
964.615	26.95
964.782	85.26
964.949	111.23
965.116	98.25
965.282	103.67
965.449	50.58
965.616	51.36
965.783	113.75
965.95	92.43
966.117	57.95
966.283	63.95
966.45	98.25
966.617	95.53
966.784	133.7
966.95	119.75
967.117	112.58
967.284	45.93
967.45	63.18
967.617	108.51
967.784	85.85
967.95	124.79
968.117	99.21
968.283	131.38
968.45	182.53
968.616	110.45
968.783	115.49
968.949	104.83
969.116	138.16
969.282	86.43
969.449	95.73
969.615	108.13
969.781	79.45
969.948	90.5
970.114	56.59
970.28	132.15
970.447	79.07
970.613	142.03
970.779	79.84
970.945	104.83
971.112	111.23
971.278	88.56
971.444	103.09
971.61	107.74
971.776	87.98
971.942	112.2
972.108	132.93
972.275	100.76
972.441	106.58
972.607	171.09
972.773	67.25
972.939	112.78
973.105	88.56
973.271	33.92
973.437	63.18
973.602	78.1
973.768	87.98
973.934	89.53
974.1	126.53
974.266	26.56
974.432	83.71
974.598	70.35
974.763	95.92
974.929	86.23
975.095	119.17
975.261	56.98
975.426	62.98
975.592	72.28
975.758	141.45
975.923	39.54
976.089	57.95
976.255	105.61
976.42	101.35
976.586	113.16
976.751	84.1
976.917	161.21
977.082	94.18
977.248	48.07
977.413	29.27
977.579	106.19
977.744	84.1
977.91	27.72
978.075	49.62
978.24	93.4
978.406	89.91
978.571	81.2
978.736	34.5
978.902	85.07
979.067	60.08
979.232	64.73
979.397	93.01
979.563	136.61
979.728	56.98
979.893	102.12
980.058	64.92
980.223	105.61
980.388	78.87
980.554	75.77
980.719	55.82
980.884	91.85
981.049	122.66
981.214	65.12
981.379	69.77
981.544	79.84
981.709	91.85
981.874	67.05
982.039	69.96
982.204	99.41
982.368	89.53
982.533	45.55
982.698	84.68
982.863	112.39
983.028	103.67
983.193	85.85
983.357	87.59
983.522	89.33
983.687	57.37
983.852	64.15
984.016	81
984.181	86.81
984.346	93.21
984.51	95.53
984.675	96.5
984.839	83.71
985.004	71.7
985.168	132.73
985.333	103.09
985.498	84.1
985.662	103.28
985.827	96.31
985.991	78.68
986.155	70.93
986.32	142.61
986.484	127.11
986.649	121.69
986.813	19.39
986.977	89.14
987.142	96.5
987.306	56.4
987.47	68.8
987.634	84.3
987.799	73.25
987.963	86.43
988.127	100.96
988.291	124.01
988.455	88.56
988.62	79.65
988.784	88.95
988.948	115.49
989.112	66.28
989.276	92.24
989.44	84.68
989.604	57.37
989.768	84.68
989.932	129.25
990.096	19
990.26	36.83
990.424	39.93
990.588	82.94
990.752	115.88
990.915	99.02
991.079	59.5
991.243	62.98
991.407	112.97
991.571	38.57
991.734	77.52
991.898	95.34
992.062	165.28
992.226	76.74
992.389	37.02
992.553	9.9
992.717	56.01
992.88	73.83
993.044	71.12
993.207	69.38
993.371	90.88
993.535	77.52
993.698	68.22
993.862	99.8
994.025	93.6
994.189	97.28
994.352	63.57
994.515	80.42
994.679	106
994.842	54.07
995.006	112.78
995.169	42.64
995.332	42.06
995.496	83.91
995.659	17.07
995.822	53.1
995.985	71.51
996.149	106.58
996.312	51.75
996.475	92.63
996.638	39.93
996.801	99.41
996.964	108.13
997.128	87.01
997.291	69.77
997.454	55.82
997.617	31.6
997.78	73.64
997.943	50.2
998.106	107.35
998.269	57.17
998.432	42.06
998.595	49.03
998.758	14.16
998.92	24.82
999.083	-0.95
999.246	74.42
999.409	32.37
999.572	-23.23
999.735	54.65
999.897	62.21
1000.06	36.63
1000.223	24.82
1000.386	87.2
1000.548	80.61
1000.711	75.77
1000.874	69.96
1001.036	7.38
1001.199	90.69
1001.361	24.43
1001.524	71.9
1001.687	54.46
1001.849	25.78
1002.012	66.67
1002.174	71.12
1002.337	83.71
1002.499	42.83
1002.661	93.4
1002.824	2.15
1002.986	28.11
1003.149	65.7
1003.311	68.6
1003.473	88.36
1003.636	34.7
1003.798	75.19
1003.96	64.92
1004.123	48.65
1004.285	28.88
1004.447	50.97
1004.609	36.05
1004.771	114.91
1004.933	20.75
1005.096	13.77
1005.258	-12.58
1005.42	38.18
1005.582	73.45
1005.744	70.15
1005.906	18.42
1006.068	49.42
1006.23	21.91
1006.392	5.25
1006.554	-13.16
1006.716	60.66
1006.878	42.83
1007.04	13
1007.202	19.39
1007.363	53.1
1007.525	32.37
1007.687	55.43
1007.849	78.87
1008.011	3.89
1008.172	4.47
1008.334	22.88
1008.496	68.6
1008.658	-17.61
1008.819	6.6
1008.981	-2.7
1009.143	5.44
1009.304	11.83
1009.466	59.3
1009.627	75.58
1009.789	101.73
1009.95	42.64
1010.112	60.27
1010.273	38.77
1010.435	10.48
1010.596	34.7
1010.758	3.31
1010.919	40.51
1011.081	8.93
1011.242	7.38
1011.403	52.91
1011.565	55.62
1011.726	45.16
1011.887	31.21
1012.049	8.93
1012.21	67.83
1012.371	70.93
1012.532	-18.2
1012.693	16.1
1012.855	24.62
1013.016	35.67
1013.177	55.43
1013.338	21.72
1013.499	97.66
1013.66	62.98
1013.821	45.16
1013.982	39.93
1014.143	12.42
1014.304	31.21
1014.465	60.66
1014.626	55.62
1014.787	31.21
1014.948	90.3
1015.109	-23.04
1015.27	48.26
1015.431	19
1015.592	5.25
1015.752	54.46
1015.913	39.73
1016.074	34.89
1016.235	4.47
1016.395	31.6
1016.556	27.92
1016.717	41.67
1016.877	53.3
1017.038	8.93
1017.199	33.15
1017.359	49.42
1017.52	38.38
1017.681	5.63
1017.841	46.52
1018.002	21.52
1018.162	25.78
1018.323	76.74
1018.483	36.63
1018.644	1.95
1018.804	6.99
1018.964	-1.15
1019.125	13.58
1019.285	17.45
1019.446	-30.4
1019.606	14.16
1019.766	-46.87
1019.926	32.57
1020.087	12.03
1020.247	-3.47
1020.407	51.17
1020.567	41.48
1020.728	33.34
1020.888	15.52
1021.048	-4.25
1021.208	-10.45
1021.368	-2.12
1021.528	64.15
1021.688	48.07
1021.848	32.18
1022.008	37.6
1022.168	19.97
1022.328	20.94
1022.488	46.32
1022.648	-1.92
1022.808	29.85
1022.968	37.41
1023.128	-2.5
1023.288	-4.25
1023.448	27.72
1023.608	36.63
1023.767	21.33
1023.927	-10.83
1024.087	-24.78
1024.247	-7.35
1024.406	-22.85
1024.566	-26.72
1024.726	-13.16
1024.885	27.33
1025.045	57.17
1025.205	13.19
1025.364	-4.44
1025.524	28.88
1025.683	5.63
1025.843	20.17
1026.003	23.85
1026.162	73.06
1026.321	28.69
1026.481	44.58
1026.64	23.07
1026.8	21.33
1026.959	4.67
1027.119	24.43
1027.278	3.12
1027.437	-39.31
1027.597	15.71
1027.756	20.17
1027.915	24.04
1028.074	81
1028.234	-12
1028.393	27.33
1028.552	3.31
1028.711	-51.91
1028.87	41.87
1029.03	-7.35
1029.189	-1.34
1029.348	-22.26
1029.507	-6.57
1029.666	-24.78
1029.825	-21.68
1029.984	-18.78
1030.143	25.98
1030.302	-12.38
1030.461	-35.25
1030.62	18.03
1030.779	15.13
1030.938	-5.99
1031.097	-16.84
1031.255	8.54
1031.414	22.3
1031.573	42.45
1031.732	0.4
1031.891	14.55
1032.049	42.83
1032.208	23.27
1032.367	-23.43
1032.525	-2.89
1032.684	-14.13
1032.843	23.46
1033.001	-18.58
1033.16	147.07
1033.319	40.51
1033.477	21.52
1033.636	-19.75
1033.794	-35.63
1033.953	30.43
1034.111	47.1
1034.27	9.7
1034.428	37.02
1034.587	-36.8
1034.745	25.59
1034.903	14.74
1035.062	12.03
1035.22	-49.2
1035.378	-7.73
1035.537	-23.23
1035.695	24.04
1035.853	16.29
1036.011	44.19
1036.17	-7.54
1036.328	-24.4
1036.486	8.35
1036.644	16.29
1036.802	-58.11
1036.96	0.6
1037.119	-7.15
1037.277	-30.4
1037.435	-20.91
1037.593	13.38
1037.751	5.44
1037.909	6.6
1038.067	6.6
