Data from gum_young_FLMT105791__92__17-39-50-042.txt Node

Date: Mon Mar 20 17:39:50 GMT 2023
User: antho
Spectrometer: FLMT10579
Trigger mode: 0
Integration Time (sec): 1.000000E-1
Scans to average: 10
Electric dark correction enabled: true
Nonlinearity correction enabled: false
Boxcar width: 0
XAxis mode: Wavelengths
Number of Pixels in Spectrum: 3648
>>>>>Begin Spectral Data<<<<<
345.248	-134.3
345.464	-134.3
345.681	-134.3
345.898	-141.27
346.114	-149.8
346.331	-7.59
346.548	50.73
346.764	3.26
346.981	-2.74
347.197	-30.06
347.414	-2.16
347.631	-38.59
347.847	45.5
348.064	12.17
348.28	26.12
348.497	-43.04
348.713	-13.59
348.93	37.75
349.146	39.69
349.363	-1.97
349.579	8.49
349.796	-3.13
350.012	13.53
350.229	41.62
350.445	8.11
350.661	6.17
350.878	2.1
351.094	-10.11
351.311	18.37
351.527	17.02
351.743	-14.18
351.96	16.44
352.176	35.23
352.392	41.62
352.609	27.87
352.825	-10.88
353.041	2.68
353.257	-0.23
353.474	-2.16
353.69	-1.97
353.906	35.81
354.122	-17.08
354.339	47.82
354.555	23.41
354.771	8.11
354.987	73.79
355.203	61.97
355.42	20.5
355.636	13.14
355.852	10.82
356.068	-3.33
356.284	-26.58
356.5	58.29
356.716	8.88
356.932	2.68
357.148	26.7
357.364	30.39
357.58	57.7
357.796	54.02
358.012	51.7
358.228	46.27
358.444	-70.56
358.66	43.75
358.876	22.25
359.092	-13.01
359.308	-13.98
359.524	23.22
359.74	12.76
359.956	-1.78
360.172	9.66
360.388	24.19
360.604	-14.37
360.819	103.23
361.035	5.59
361.251	47.44
361.467	-10.3
361.683	57.12
361.898	5.2
362.114	38.91
362.33	5.01
362.546	25.35
362.762	28.25
362.977	9.46
363.193	-22.7
363.409	24.57
363.624	-15.53
363.84	-5.65
364.056	1.13
364.271	20.31
364.487	37.75
364.703	11.79
364.918	-6.23
365.134	-3.71
365.35	19.54
365.565	107.88
365.781	34.84
365.996	47.05
366.212	82.89
366.427	15.47
366.643	-3.13
366.858	-0.81
367.074	-18.05
367.289	61.19
367.505	104.01
367.72	-37.04
367.936	5.01
368.151	43.17
368.367	46.27
368.582	13.14
368.798	35.04
369.013	42.01
369.228	6.94
369.444	11.01
369.659	47.44
369.874	37.55
370.09	63.13
370.305	-44.79
370.52	-0.23
370.736	70.88
370.951	16.82
371.166	60.8
371.381	69.52
371.597	17.79
371.812	-19.6
372.027	-0.81
372.242	16.44
372.458	87.93
372.673	-3.91
372.888	42.98
373.103	37.55
373.318	90.64
373.533	32.13
373.749	49.18
373.964	-44.98
374.179	70.88
374.394	0.74
374.609	57.7
374.824	-11.85
375.039	79.4
375.254	0.94
375.469	75.14
375.684	34.07
375.899	63.32
376.114	13.72
376.329	5.59
376.544	19.54
376.759	45.5
376.974	5.97
377.189	30.39
377.404	20.12
377.619	22.64
377.834	-28.71
378.049	-6.62
378.264	-28.32
378.478	31.74
378.693	8.88
378.908	22.83
379.123	3.84
379.338	37.94
379.553	31.94
379.767	37.94
379.982	40.46
380.197	47.05
380.412	28.25
380.626	38.33
380.841	81.54
381.056	52.47
381.271	77.08
381.485	12.76
381.7	8.49
381.915	36.39
382.129	2.87
382.344	33.68
382.559	-9.91
382.773	37.55
382.988	-30.06
383.202	38.72
383.417	12.37
383.632	110.02
383.846	6.56
384.061	23.99
384.275	11.01
384.49	39.1
384.704	18.76
384.919	28.64
385.133	46.85
385.348	62.55
385.562	-18.24
385.777	38.14
385.991	29.42
386.206	9.07
386.42	40.46
386.634	79.02
386.849	51.31
387.063	51.5
387.277	16.82
387.492	24.19
387.706	5.59
387.92	4.42
388.135	63.9
388.349	55.19
388.563	34.84
388.778	27.48
388.992	59.06
389.206	65.45
389.42	76.89
389.635	7.52
389.849	80.95
390.063	49.95
390.277	36.78
390.491	102.85
390.706	53.25
390.92	29.61
391.134	42.2
391.348	82.89
391.562	-24.83
391.776	46.27
391.99	-11.85
392.205	70.49
392.419	14.11
392.633	24.38
392.847	63.71
393.061	13.53
393.275	58.67
393.489	-10.11
393.703	36
393.917	67.39
394.131	32.71
394.345	51.12
394.559	43.75
394.773	30.77
394.986	46.27
395.2	41.24
395.414	80.37
395.628	18.37
395.842	49.76
396.056	17.99
396.27	-13.4
396.484	68.36
396.697	31.55
396.911	79.4
397.125	38.72
397.339	40.46
397.553	62.55
397.766	91.61
397.98	80.37
398.194	69.14
398.408	37.17
398.621	51.31
398.835	74.17
399.049	72.43
399.262	78.63
399.476	80.95
399.69	71.46
399.903	109.05
400.117	34.45
400.331	70.1
400.544	40.27
400.758	139.47
400.971	96.07
401.185	108.47
401.398	-7.78
401.612	107.11
401.826	93.16
402.039	86.77
402.253	51.31
402.466	77.66
402.68	56.15
402.893	63.13
403.106	54.8
403.32	48.4
403.533	69.72
403.747	57.7
403.96	97.81
404.174	83.09
404.387	19.92
404.6	75.34
404.814	101.49
405.027	54.02
405.24	78.82
405.454	44.53
405.667	80.57
405.88	1.91
406.094	43.37
406.307	104.01
406.52	82.31
406.733	61.97
406.947	34.07
407.16	101.88
407.373	87.93
407.586	38.14
407.799	61.97
408.012	92.58
408.226	64.68
408.439	116.41
408.652	54.02
408.865	93.94
409.078	93.16
409.291	94.13
409.504	50.54
409.717	74.75
409.93	85.22
410.143	73.2
410.357	30.39
410.57	33.49
410.783	67.39
410.996	87.35
411.209	61.39
411.421	109.24
411.634	57.9
411.847	42.79
412.06	98.78
412.273	59.06
412.486	82.12
412.699	130.17
412.912	77.27
413.125	82.31
413.338	86.19
413.55	80.37
413.763	91.42
413.976	78.44
414.189	65.45
414.402	55.57
414.615	119.7
414.827	68.36
415.04	105.17
415.253	82.31
415.466	110.79
415.678	138.3
415.891	80.18
416.104	111.18
416.316	36.39
416.529	67
416.742	124.35
416.954	132.88
417.167	104.4
417.38	72.82
417.592	106.14
417.805	65.65
418.017	51.7
418.23	115.05
418.442	47.05
418.655	68.94
418.868	109.05
419.08	105.56
419.293	98.2
419.505	122.22
419.718	89.48
419.93	108.66
420.142	95.1
420.355	98.97
420.567	118.35
420.78	91.42
420.992	61.19
421.205	141.4
421.417	61.19
421.629	84.44
421.842	62.94
422.054	59.25
422.266	129
422.479	137.92
422.691	64.87
422.903	131.33
423.115	79.79
423.328	85.41
423.54	104.4
423.752	90.64
423.964	79.21
424.177	115.83
424.389	49.37
424.601	156.9
424.813	103.04
425.025	114.08
425.238	130.17
425.45	102.07
425.662	73.01
425.874	353.56
426.086	90.25
426.298	117.38
426.51	97.04
426.722	104.2
426.934	79.4
427.146	127.65
427.358	95.1
427.57	118.93
427.782	92.97
427.994	96.45
428.206	68.36
428.418	55.77
428.63	113.12
428.842	131.13
429.054	117.96
429.266	119.12
429.478	89.09
429.69	109.24
429.902	64.68
430.114	132.3
430.325	134.43
430.537	65.65
430.749	118.73
430.961	33.1
431.173	75.53
431.384	118.93
431.596	30.58
431.808	82.5
432.02	118.73
432.231	137.92
432.443	117.18
432.655	143.53
432.867	73.01
433.078	143.34
433.29	179.77
433.502	141.4
433.713	154.38
433.925	123.77
434.136	142.37
434.348	76.89
434.56	61.39
434.771	195.85
434.983	65.07
435.194	76.11
435.406	127.45
435.617	138.5
435.829	177.63
436.04	134.62
436.252	143.15
436.463	163.49
436.675	159.03
436.886	122.8
437.098	121.06
437.309	183.25
437.521	120.28
437.732	136.95
437.943	146.25
438.155	154.38
438.366	74.95
438.578	169.88
438.789	116.02
439	135.59
439.211	144.89
439.423	132.49
439.634	137.72
439.845	150.7
440.057	130.36
440.268	169.11
440.479	127.07
440.69	111.37
440.902	147.99
441.113	148.96
441.324	121.25
441.535	164.85
441.746	195.07
441.957	117.96
442.168	144.31
442.38	153.8
442.591	180.35
442.802	131.72
443.013	98
443.224	150.32
443.435	149.54
443.646	144.31
443.857	151.67
444.068	131.13
444.279	129.2
444.49	206.89
444.701	169.11
444.912	240.99
445.123	170.85
445.334	161.55
445.545	176.86
445.756	170.27
445.967	134.62
446.178	160.58
446.388	197.2
446.599	188.1
446.81	176.28
447.021	153.61
447.232	185.97
447.443	204.37
447.653	163.1
447.864	202.05
448.075	160
448.286	197.01
448.496	198.56
448.707	206.31
448.918	181.32
449.129	271.41
449.339	142.95
449.55	188.1
449.761	178.22
449.971	250.48
450.182	165.62
450.393	169.88
450.603	183.06
450.814	244.09
451.024	202.05
451.235	218.9
451.446	226.07
451.656	226.07
451.867	195.46
452.077	218.71
452.288	246.61
452.498	264.43
452.709	189.65
452.919	222.2
453.13	179.38
453.34	259.4
453.55	157.87
453.761	201.08
453.971	212.51
454.182	262.11
454.392	252.81
454.602	264.05
454.813	219.68
455.023	228.4
455.233	174.73
455.444	223.75
455.654	145.28
455.864	204.76
456.075	207.08
456.285	208.83
456.495	198.17
456.705	237.89
456.916	271.21
457.126	274.7
457.336	233.63
457.546	171.24
457.756	181.9
457.967	253
458.177	199.91
458.387	207.28
458.597	197.2
458.807	212.31
459.017	202.82
459.227	216.58
459.437	218.71
459.647	247.96
459.857	236.15
460.068	218.71
460.278	266.37
460.488	240.02
460.698	292.91
460.908	242.93
461.117	185.19
461.327	181.51
461.537	252.23
461.747	244.28
461.957	253.39
462.167	324.3
462.377	287.68
462.587	223.16
462.797	263.46
463.007	244.28
463.216	254.55
463.426	307.25
463.636	263.66
463.846	228.2
464.056	227.23
464.265	253.97
464.475	225.3
464.685	222.78
464.895	281.09
465.104	256.88
465.314	242.73
465.524	221.81
465.733	216
465.943	312.87
466.153	285.94
466.362	241.18
466.572	258.23
466.782	243.31
466.991	261.53
467.201	298.34
467.41	209.21
467.62	287.88
467.829	246.41
468.039	289.43
468.249	224.33
468.458	274.31
468.668	280.32
468.877	246.41
469.086	316.36
469.296	293.11
469.505	237.5
469.715	309.77
469.924	289.23
470.134	330.11
470.343	312.48
470.552	292.14
470.762	279.16
470.971	236.34
471.18	283.23
471.39	269.28
471.599	266.76
471.808	291.94
472.018	237.11
472.227	319.65
472.436	306.09
472.645	272.76
472.855	243.31
473.064	330.5
473.273	293.11
473.482	294.46
473.691	334.57
473.901	321.2
474.11	277.03
474.319	371.96
474.528	313.45
474.737	362.28
474.946	325.08
475.155	311.32
475.364	336.12
475.573	327.21
475.783	342.13
475.992	335.73
476.201	358.21
476.41	298.53
476.619	298.73
476.828	341.16
477.037	310.54
477.245	332.05
477.454	371.19
477.663	325.85
477.872	322.17
478.081	414.97
478.29	299.31
478.499	399.67
478.708	335.54
478.917	390.37
479.125	339.41
479.334	382.04
479.543	333.6
479.752	384.56
479.961	371.77
480.169	382.62
480.378	348.13
480.587	463.41
480.796	373.12
481.004	382.23
481.213	417.88
481.422	394.05
481.63	378.16
481.839	408.77
482.048	458.95
482.256	384.94
482.465	429.51
482.674	447.14
482.882	432.61
483.091	459.92
483.299	397.92
483.508	440.16
483.716	414.01
483.925	426.99
484.134	426.41
484.342	397.73
484.551	470.19
484.759	438.81
484.967	452.95
485.176	455.85
485.384	443.84
485.593	461.09
485.801	465.54
486.01	444.81
486.218	426.41
486.426	355.88
486.635	392.31
486.843	394.63
487.051	418.27
487.26	398.51
487.468	425.05
487.676	465.15
487.885	418.07
488.093	429.12
488.301	436.09
488.509	472.71
488.717	484.53
488.926	441.32
489.134	458.18
489.342	474.26
489.55	436.87
489.758	485.11
489.967	445.2
490.175	556.41
490.383	450.62
490.591	526.38
490.799	441.91
491.007	549.05
491.215	508.55
491.423	507.97
491.631	501
491.839	508.75
492.047	507.78
492.255	482.4
492.463	448.11
492.671	489.18
492.879	554.86
493.087	484.72
493.295	509.52
493.503	534.13
493.711	533.74
493.919	545.37
494.127	573.27
494.334	548.08
494.542	520.37
494.75	548.85
494.958	533.94
495.166	567.84
495.374	570.55
495.581	554.47
495.789	568.03
495.997	578.69
496.205	563
496.412	528.32
496.62	538
496.828	576.95
497.035	576.37
497.243	618.8
497.451	580.05
497.658	571.33
497.866	599.23
498.074	641.46
498.281	565.13
498.489	655.41
498.696	593.22
498.904	578.88
499.112	587.99
499.319	676.15
499.527	597.29
499.734	647.28
499.942	587.8
500.149	613.76
500.357	607.37
500.564	565.71
500.771	636.23
500.979	579.85
501.186	575.4
501.394	597.48
501.601	609.5
501.808	649.99
502.016	614.92
502.223	596.71
502.43	616.67
502.638	632.94
502.845	606.78
503.052	705.6
503.26	634.1
503.467	712.76
503.674	635.46
503.881	655.22
504.089	725.94
504.296	693.58
504.503	618.8
504.71	668.2
504.917	631.97
505.125	680.8
505.332	688.93
505.539	686.22
505.746	731.94
505.953	738.53
506.16	745.31
506.367	782.51
506.574	773.41
506.781	784.64
506.988	695.91
507.195	737.18
507.402	721.09
507.609	796.85
507.816	731.56
508.023	761.98
508.23	752.87
508.437	723.61
508.644	768.76
508.851	810.99
509.058	791.23
509.265	807.89
509.472	797.04
509.679	923.75
509.885	784.06
510.092	787.36
510.299	822.62
510.506	807.12
510.713	850.32
510.92	832.5
511.126	862.53
511.333	887.14
511.54	879
511.746	911.94
511.953	929.95
512.16	960.37
512.367	863.89
512.573	896.82
512.78	907.67
512.987	916.97
513.193	933.25
513.4	850.52
513.606	945.65
513.813	962.12
514.02	906.7
514.226	958.63
514.433	988.27
514.639	915.23
514.846	948.94
515.052	947.59
515.259	983.62
515.465	976.26
515.672	1005.52
515.878	1066.74
516.085	1014.82
516.291	1059.96
516.497	984.4
516.704	1001.64
516.91	968.7
517.117	912.71
517.323	914.84
517.529	936.15
517.736	959.79
517.942	986.33
518.148	985.75
518.354	1001.06
518.561	1018.69
518.767	1025.86
518.973	1057.25
519.179	1057.44
519.386	1074.49
519.592	1071.78
519.798	1094.83
520.004	1171.17
520.21	1140.56
520.417	1207.98
520.623	1194.42
520.829	1200.23
521.035	1184.34
521.241	1204.3
521.447	1211.08
521.653	1321.71
521.859	1229.49
522.065	1259.71
522.271	1391.65
522.477	1273.47
522.683	1331.4
522.889	1314.16
523.095	1339.34
523.301	1310.28
523.507	1274.44
523.713	1321.71
523.919	1261.07
524.125	1379.64
524.331	1352.13
524.537	1453.65
524.742	1425.75
524.948	1469.73
525.154	1433.31
525.36	1519.33
525.566	1456.17
525.772	1493.95
525.977	1445.32
526.183	1463.34
526.389	1505
526.595	1421.1
526.8	1406.77
527.006	1373.44
527.212	1308.15
527.417	1363.17
527.623	1374.02
527.829	1407.93
528.034	1425.75
528.24	1435.05
528.446	1477.48
528.651	1529.6
528.857	1546.26
529.062	1589.08
529.268	1542.97
529.473	1575.33
529.679	1600.51
529.884	1667.55
530.09	1608.84
530.295	1635.78
530.501	1645.27
530.706	1644.69
530.912	1607.88
531.117	1641.59
531.323	1648.37
531.528	1686.54
531.733	1662.9
531.939	1672.59
532.144	1676.85
532.35	1699.71
532.555	1719.09
532.76	1682.66
532.966	1679.95
533.171	1673.17
533.376	1610.01
533.581	1591.02
533.787	1679.17
533.992	1673.56
534.197	1696.22
534.402	1710.95
534.607	1700.1
534.813	1788.64
535.018	1719.86
535.223	1732.26
535.428	1769.65
535.633	1793.87
535.838	1794.26
536.043	1799.88
536.249	1878.54
536.454	1785.74
536.659	1830.49
536.864	1800.65
537.069	1727.03
537.274	1819.25
537.479	1797.55
537.684	1809.76
537.889	1772.17
538.094	1860.13
538.299	1792.32
538.504	1837.08
538.708	1848.12
538.913	1862.65
539.118	1839.6
539.323	1881.06
539.528	1841.34
539.733	1822.74
539.938	1842.12
540.142	1865.37
540.347	1810.73
540.552	1832.04
540.757	1767.14
540.962	1808.79
541.166	1745.24
541.371	1741.76
541.576	1823.71
541.781	1731.68
541.985	1843.28
542.19	1810.54
542.395	1902.76
542.599	1892.3
542.804	1844.05
543.008	1895.01
543.213	1857.23
543.418	1804.72
543.622	1877.18
543.827	1832.82
544.031	1899.47
544.236	1927.17
544.44	1912.83
544.645	1952.55
544.849	1906.83
545.054	1938.21
545.258	1986.85
545.463	2015.71
545.667	1889
545.872	1930.27
546.076	1919.81
546.281	1920.78
546.485	1887.84
546.689	1911.87
546.894	1982.97
547.098	1930.66
547.302	1933.37
547.507	1920.39
547.711	1948.87
547.915	2009.71
548.119	1895.59
548.324	1920
548.528	1993.82
548.732	1905.28
548.936	1988.78
549.141	1986.65
549.345	1970.96
549.549	2002.35
549.753	1980.26
549.957	2057.95
550.161	2029.66
550.366	1990.53
550.57	1971.73
550.774	1992.85
550.978	1991.5
551.182	2033.34
551.386	1960.11
551.59	1967.86
551.794	1947.71
551.998	2021.72
552.202	1968.05
552.406	1961.46
552.61	2005.64
552.814	1984.52
553.018	2051.75
553.222	2011.06
553.426	1980.26
553.63	2036.06
553.833	1968.63
554.037	1944.41
554.241	1970.57
554.445	2000.8
554.649	2022.5
554.853	1964.37
555.056	2038.38
555.26	2041.68
555.464	2019.4
555.668	2016.88
555.871	2045.36
556.075	2026.95
556.279	1968.05
556.483	1940.93
556.686	1984.13
556.89	1985.3
557.094	1996.92
557.297	1939.57
557.501	1973.86
557.704	1908.38
557.908	1976.58
558.112	1896.56
558.315	2001.18
558.519	1916.32
558.722	1924.65
558.926	1889
559.129	1855.87
559.333	1849.09
559.536	1889
559.74	1826.42
559.943	1839.79
560.147	1836.5
560.35	1835.72
560.553	1862.07
560.757	1827.39
560.96	1890.36
561.164	1848.12
561.367	1944.61
561.57	1874.08
561.774	1854.52
561.977	1857.03
562.18	1824.87
562.384	1915.93
562.587	1837.66
562.79	1827.59
562.993	1829.91
563.197	1853.55
563.4	1900.43
563.603	1864.98
563.806	1941.31
564.009	1803.37
564.212	1858.78
564.416	1770.82
564.619	1833.79
564.822	1765.39
565.025	1819.84
565.228	1764.42
565.431	1797.17
565.634	1732.07
565.837	1744.66
566.04	1724.32
566.243	1728.77
566.446	1627.06
566.649	1723.54
566.852	1663.68
567.055	1707.66
567.258	1682.08
567.461	1760.74
567.664	1766.94
567.867	1639.84
568.07	1666.78
568.273	1725.67
568.475	1747.76
568.678	1661.54
568.881	1640.23
569.084	1636.16
569.287	1599.16
569.489	1586.18
569.692	1647.59
569.895	1632.09
570.098	1600.13
570.3	1573.58
570.503	1513.91
570.706	1538.13
570.909	1545.88
571.111	1518.17
571.314	1499.96
571.516	1508.48
571.719	1516.62
571.922	1493.57
572.124	1466.63
572.327	1522.43
572.529	1464.89
572.732	1509.84
572.935	1509.06
573.137	1542.39
573.34	1483.1
573.542	1512.75
573.745	1501.51
573.947	1522.24
574.15	1498.6
574.352	1457.33
574.554	1560.02
574.757	1437.57
574.959	1434.08
575.162	1445.32
575.364	1444.74
575.566	1468.96
575.769	1403.67
575.971	1418.78
576.173	1339.54
576.376	1392.82
576.578	1419.75
576.78	1460.43
576.982	1328.69
577.185	1397.08
577.387	1365.3
577.589	1380.22
577.791	1375.57
577.993	1410.25
578.196	1366.08
578.398	1393.01
578.6	1389.33
578.802	1286.06
579.004	1316.09
579.206	1325.39
579.408	1382.16
579.61	1330.24
579.812	1400.95
580.014	1339.15
580.216	1320.36
580.418	1347.67
580.62	1315.12
580.822	1310.47
581.024	1349.03
581.226	1402.31
581.428	1335.08
581.63	1415.68
581.832	1335.47
582.034	1387.97
582.236	1321.91
582.438	1357.75
582.64	1386.23
582.841	1376.74
583.043	1444.55
583.245	1364.92
583.447	1368.4
583.649	1367.05
583.85	1361.24
584.052	1401.34
584.254	1297.3
584.456	1395.34
584.657	1324.23
584.859	1380.42
585.061	1313.19
585.262	1320.74
585.464	1274.24
585.666	1332.95
585.867	1300.21
586.069	1351.94
586.27	1314.54
586.472	1327.33
586.674	1257.77
586.875	1322.29
587.077	1258.74
587.278	1295.17
587.48	1319
587.681	1380.22
587.883	1305.63
588.084	1258.55
588.285	1288.19
588.487	1219.41
588.688	1285.29
588.89	1188.03
589.091	1136.1
589.292	1163.81
589.494	1122.93
589.695	1109.36
589.896	1038.07
590.098	1058.6
590.299	1145.4
590.5	1067.71
590.702	1130.87
590.903	1120.21
591.104	1210.11
591.305	1166.33
591.507	1202.75
591.708	1187.44
591.909	1158.77
592.11	1237.82
592.311	1182.21
592.512	1145.4
592.714	1127.77
592.915	1132.42
593.116	1152.38
593.317	1183.57
593.518	1160.9
593.719	1175.43
593.92	1196.94
594.121	1180.28
594.322	1207.21
594.523	1183.38
594.724	1057.83
594.925	1144.43
595.126	1158.38
595.327	1177.95
595.528	1173.11
595.729	1164.97
595.929	1156.25
596.13	1144.43
596.331	1161.48
596.532	1171.56
596.733	1212.24
596.934	1183.96
597.135	1189.19
597.335	1178.53
597.536	1126.8
597.737	1170.59
597.938	1152.57
598.138	1164.58
598.339	1156.44
598.54	1167.1
598.74	1131.45
598.941	1188.03
599.142	1179.5
599.342	1142.69
599.543	1117.7
599.744	1133.78
599.944	1151.6
600.145	1135.33
600.345	1133.39
600.546	1200.43
600.746	1211.66
600.947	1216.12
601.147	1146.56
601.348	1186.48
601.548	1134.75
601.749	1157.03
601.949	1111.11
602.15	1096.19
602.35	1140.75
602.551	1199.84
602.751	1116.53
602.951	1163.42
603.152	1080.5
603.352	1121.96
603.552	1140.75
603.753	1145.79
603.953	1183.57
604.153	1154.7
604.354	1168.26
604.554	1120.02
604.754	1160.9
604.954	1112.08
605.155	1172.53
605.355	1099.1
605.555	1163.61
605.755	1198.49
605.955	1120.21
606.155	1169.04
606.356	1107.23
606.556	1134.75
606.756	1170.59
606.956	1078.75
607.156	1167.68
607.356	1097.55
607.556	1127.19
607.756	1088.44
607.956	1147.92
608.156	1123.12
608.356	1073.33
608.556	1157.41
608.756	1108.2
608.956	1076.81
609.156	1091.93
609.356	1073.71
609.556	1066.16
609.755	1114.21
609.955	1062.87
610.155	1088.83
610.355	1045.62
610.555	1033.8
610.755	1061.12
610.954	1032.45
611.154	1072.16
611.354	1067.32
611.554	1003.97
611.753	1034.77
611.953	981.88
612.153	1063.06
612.352	1048.92
612.552	1014.23
612.752	1000.48
612.951	1018.88
613.151	1017.72
613.351	1004.35
613.55	1000.48
613.75	1045.43
613.949	1016.56
614.149	1034.77
614.348	987.69
614.548	980.52
614.747	956.69
614.947	978.78
615.146	909.61
615.346	1027.99
615.545	990.79
615.745	989.63
615.944	1012.3
616.144	986.72
616.343	1009.58
616.542	946.04
616.742	961.15
616.941	954.17
617.14	923.95
617.34	968.9
617.539	948.17
617.738	930.73
617.938	1012.3
618.137	960.76
618.336	923.56
618.535	999.51
618.734	914.45
618.934	959.79
619.133	953.01
619.332	957.47
619.531	925.3
619.73	926.85
619.929	968.7
620.128	967.35
620.328	990.98
620.527	915.04
620.726	936.35
620.925	941.97
621.124	943.13
621.323	947.78
621.522	900.89
621.721	893.53
621.92	884.42
622.119	928.99
622.318	890.04
622.517	920.85
622.715	900.7
622.914	843.54
623.113	904.19
623.312	875.9
623.511	898.18
623.71	875.71
623.909	894.69
624.107	931.7
624.306	859.04
624.505	821.65
624.704	844.12
624.902	834.82
625.101	924.53
625.3	856.91
625.499	830.17
625.697	864.27
625.896	835.79
626.095	864.86
626.293	811.96
626.492	822.81
626.69	857.88
626.889	843.54
627.088	841.61
627.286	799.37
627.485	815.64
627.683	833.08
627.882	811.77
628.08	762.75
628.279	799.18
628.477	882.49
628.676	787.36
628.874	827.46
629.073	778.83
629.271	778.64
629.469	808.09
629.668	810.61
629.866	777.28
630.065	790.65
630.263	826.3
630.461	772.83
630.66	794.72
630.858	815.45
631.056	858.27
631.254	863.5
631.453	818.55
631.651	847.03
631.849	820.68
632.047	800.92
632.245	828.82
632.444	827.07
632.642	838.31
632.84	839.47
633.038	828.62
633.236	805.96
633.434	798.4
633.632	775.54
633.83	788.91
634.028	823.01
634.227	791.04
634.425	846.26
634.623	829.4
634.821	832.5
635.019	818.16
635.216	790.46
635.414	853.04
635.612	825.14
635.81	821.07
636.008	828.82
636.206	801.11
636.404	860.4
636.602	799.76
636.8	803.44
636.997	835.6
637.195	823.2
637.393	804.02
637.591	853.04
637.789	809.44
637.986	806.34
638.184	820.68
638.382	802.27
638.58	825.33
638.777	861.37
638.975	794.53
639.173	787.74
639.37	826.69
639.568	799.18
639.765	812.93
639.963	768.76
640.161	795.11
640.358	798.79
640.556	753.64
640.753	747.64
640.951	751.32
641.148	793.17
641.346	752.48
641.543	752.29
641.741	748.8
641.938	727.68
642.136	759.65
642.333	752.48
642.531	788.71
642.728	795.69
642.925	722.26
643.123	723.03
643.32	751.32
643.517	727.29
643.715	719.35
643.912	709.47
644.109	739.69
644.306	689.9
644.504	672.85
644.701	714.31
644.898	724.97
645.095	689.51
645.293	710.05
645.49	732.33
645.687	705.79
645.884	736.4
646.081	655.8
646.278	668.4
646.475	676.53
646.672	680.6
646.87	725.16
647.067	672.66
647.264	678.08
647.461	629.06
647.658	593.8
647.855	661.03
648.052	627.13
648.249	522.31
648.446	622.28
648.642	605.62
648.839	589.93
649.036	614.73
649.233	581.4
649.43	561.45
649.627	578.5
649.824	625.77
650.021	594.77
650.217	554.08
650.414	546.53
650.611	580.24
650.808	574.04
651.004	599.81
651.201	610.08
651.398	640.88
651.595	560.09
651.791	575.01
651.988	602.33
652.185	564.55
652.381	576.17
652.578	527.54
652.775	592.45
652.971	578.69
653.168	588.38
653.364	610.85
653.561	519.02
653.757	553.89
653.954	586.44
654.15	539.17
654.347	658.32
654.543	572.3
654.74	524.44
654.936	532.19
655.133	547.3
655.329	560.87
655.525	568.81
655.722	562.8
655.918	570.17
656.115	575.59
656.311	484.92
656.507	484.53
656.704	456.05
656.9	479.3
657.096	485.89
657.292	476.78
657.489	533.94
657.685	506.62
657.881	498.67
658.077	534.32
658.273	538.59
658.47	573.46
658.666	520.95
658.862	560.87
659.058	502.16
659.254	557.77
659.45	527.93
659.646	547.11
659.842	526.38
660.038	582.37
660.234	536.26
660.43	507.78
660.626	581.6
660.822	541.68
661.018	558.54
661.214	512.82
661.41	478.33
661.606	541.49
661.802	529.67
661.998	526.38
662.194	507.78
662.39	501
662.586	537.62
662.781	545.56
662.977	537.62
663.173	556.22
663.369	518.44
663.564	499.06
663.76	540.91
663.956	501
664.152	507.2
664.347	455.85
664.543	463.8
664.739	501
664.934	433.57
665.13	417.3
665.326	502.55
665.521	491.12
665.717	467.48
665.912	470
666.108	428.34
666.304	464.57
666.499	470.77
666.695	422.72
666.89	471.94
667.086	484.53
667.281	467.09
667.477	526.57
667.672	472.32
667.867	473.68
668.063	452.37
668.258	420.01
668.454	448.69
668.649	498.87
668.844	447.14
669.04	465.74
669.235	459.73
669.43	478.14
669.626	419.24
669.821	425.24
670.016	440.36
670.211	486.27
670.407	418.07
670.602	421.37
670.797	424.27
670.992	482.98
671.187	402.19
671.382	497.32
671.578	418.66
671.773	472.71
671.968	439.58
672.163	441.71
672.358	463.22
672.553	404.51
672.748	390.37
672.943	485.89
673.138	416.14
673.333	449.46
673.528	382.42
673.723	457.21
673.918	425.82
674.113	379.32
674.308	495.77
674.503	439.77
674.698	434.16
674.892	456.05
675.087	460.7
675.282	432.22
675.477	429.12
675.672	430.28
675.867	431.64
676.061	377.39
676.256	368.86
676.451	376.03
676.646	422.92
676.84	389.59
677.035	389.21
677.23	374.87
677.424	428.15
677.619	450.82
677.814	461.47
678.008	449.07
678.203	385.91
678.397	397.92
678.592	420.59
678.787	453.72
678.981	409.74
679.176	416.72
679.37	426.6
679.565	387.46
679.759	405.87
679.954	426.02
680.148	482.98
680.342	490.73
680.537	449.66
680.731	410.91
680.926	433.38
681.12	461.67
681.314	400.25
681.509	397.92
681.703	423.31
681.897	440.16
682.092	420.21
682.286	423.89
682.48	514.75
682.674	474.65
682.869	430.67
683.063	390.56
683.257	474.07
683.451	410.71
683.645	463.02
683.839	442.29
684.034	430.47
684.228	483.37
684.422	415.94
684.616	432.8
684.81	439
685.004	421.95
685.198	437.45
685.392	458.37
685.586	468.25
685.78	446.94
685.974	466.12
686.168	488.21
686.362	506.62
686.556	448.49
686.75	407.03
686.944	414.01
687.138	446.17
687.331	355.49
687.525	381.07
687.719	353.56
687.913	381.26
688.107	377.39
688.301	351.81
688.494	401.22
688.688	357.63
688.882	361.11
689.076	357.04
689.269	407.42
689.463	473.49
689.657	409.16
689.85	406.26
690.044	435.32
690.238	417.3
690.431	434.93
690.625	453.72
690.818	488.02
691.012	484.92
691.205	528.12
691.399	476.97
691.593	525.02
691.786	589.73
691.98	599.03
692.173	584.12
692.366	580.63
692.56	617.05
692.753	663.55
692.947	566.87
693.14	656.38
693.333	645.53
693.527	617.44
693.72	630.03
693.914	648.83
694.107	637.01
694.3	664.33
694.493	644.76
694.687	722.26
694.88	670.91
695.073	729.81
695.266	738.53
695.46	726.52
695.653	781.35
695.846	767.4
696.039	734.27
696.232	750.16
696.425	846.45
696.618	842.19
696.812	866.99
697.005	911.74
697.198	953.79
697.391	926.66
697.584	926.66
697.777	978.2
697.97	986.53
698.163	1017.33
698.356	992.15
698.549	1095.61
698.742	1015.4
698.935	991.95
699.127	1064.41
699.32	1021.21
699.513	1020.63
699.706	1067.32
699.899	1064.03
700.092	1040.58
700.285	1107.43
700.477	1018.11
700.67	1104.33
700.863	1144.43
701.056	1211.86
701.248	1193.26
701.441	1169.43
701.634	1160.9
701.826	1258.36
702.019	1176.4
702.212	1250.99
702.404	1193.45
702.597	1190.74
702.79	1231.62
702.982	1242.27
703.175	1296.72
703.367	1308.34
703.56	1349.61
703.752	1390.69
703.945	1367.24
704.137	1378.87
704.33	1371.5
704.522	1406.38
704.715	1470.32
704.907	1454.82
705.1	1512.94
705.292	1477.1
705.484	1474.97
705.677	1533.48
705.869	1521.85
706.061	1572.81
706.254	1601.87
706.446	1545.1
706.638	1554.4
706.831	1631.32
707.023	1588.31
707.215	1664.26
707.407	1677.62
707.599	1651.86
707.792	1712.31
707.984	1697
708.176	1697.58
708.368	1744.66
708.56	1712.5
708.752	1759.58
708.944	1733.23
709.136	1759.97
709.329	1766.55
709.521	1869.43
709.713	1829.72
709.905	1853.35
710.097	1893.46
710.289	1844.64
710.481	1900.05
710.672	1910.7
710.864	1890.75
711.056	1926.59
711.248	1903.53
711.44	1920.97
711.632	2007.77
711.824	1984.71
712.016	2024.63
712.207	2032.76
712.399	2029.28
712.591	2063.57
712.783	2067.64
712.975	2074.61
713.166	2050.39
713.358	2076.36
713.55	2073.84
713.741	2113.94
713.933	2085.85
714.125	2122.66
714.316	2128.09
714.508	2178.66
714.7	2186.02
714.891	2175.56
715.083	2197.06
715.274	2169.74
715.466	2208.49
715.657	2215.27
715.849	2127.89
716.04	2167.42
716.232	2107.36
716.423	2166.26
716.615	2090.5
716.806	1977.55
716.998	1949.84
717.189	1931.24
717.381	1802.59
717.572	1813.64
717.763	1810.34
717.955	1765.39
718.146	1737.3
718.337	1714.24
718.528	1649.34
718.72	1629.19
718.911	1643.91
719.102	1611.75
719.293	1666.78
719.485	1623.18
719.676	1653.02
719.867	1630.16
720.058	1612.72
720.249	1609.23
720.44	1631.51
720.632	1691.77
720.823	1702.81
721.014	1811.5
721.205	1833.4
721.396	1966.5
721.587	2041.09
721.778	2056.21
721.969	2129.64
722.16	2166.45
722.351	2172.26
722.542	2283.09
722.733	2318.15
722.924	2227.67
723.115	2259.64
723.305	2209.85
723.496	2258.29
723.687	2131.38
723.878	2141.46
724.069	2120.14
724.26	2138.55
724.45	2089.34
724.641	2060.47
724.832	2083.91
725.023	2060.86
725.213	2051.94
725.404	2065.12
725.595	2062.02
725.785	2039.16
725.976	2119.17
726.167	2069.96
726.357	2089.92
726.548	2220.12
726.739	2105.61
726.929	2178.66
727.12	2189.31
727.31	2203.07
727.501	2131.77
727.691	2176.52
727.882	2168.39
728.072	2203.07
728.263	2215.85
728.453	2280.18
728.644	2290.64
728.834	2236.59
729.024	2227.29
729.215	2217.4
729.405	2236.2
729.596	2308.47
729.786	2325.32
729.976	2317.96
730.167	2315.05
730.357	2283.67
730.547	2310.6
730.737	2375.89
730.928	2383.06
731.118	2458.62
731.308	2344.12
731.498	2388.29
731.688	2458.23
731.879	2485.36
732.069	2529.34
732.259	2568.67
732.449	2585.14
732.639	2628.92
732.829	2696.15
733.019	2761.06
733.209	2782.37
733.399	2797.29
733.589	2856.58
733.779	2909.08
733.969	2869.56
734.159	3015.45
734.349	3005.37
734.539	3002.86
734.729	3003.05
734.919	3042.57
735.109	3108.25
735.299	3018.16
735.488	3070.47
735.678	3090.04
735.868	3067.76
736.058	3093.92
736.248	3018.94
736.437	2980.58
736.627	2993.94
736.817	3160.37
737.007	3087.14
737.196	3129.37
737.386	3094.5
737.576	3085.59
737.765	3164.05
737.955	3121.62
738.144	3240
738.334	3223.92
738.524	3195.05
738.713	3215.78
738.903	3221.6
739.092	3189.05
739.282	3225.47
739.471	3252.98
739.661	3249.11
739.85	3289.02
740.04	3248.72
740.229	3302.78
740.419	3324.09
740.608	3291.35
740.797	3295.61
740.987	3395.97
741.176	3349.47
741.365	3342.3
741.555	3284.37
741.744	3387.83
741.933	3400.43
742.123	3375.43
742.312	3401.59
742.501	3434.14
742.69	3414.38
742.88	3351.6
743.069	3467.27
743.258	3410.11
743.447	3467.66
743.636	3463.01
743.825	3458.74
744.014	3474.63
744.204	3502.53
744.393	3473.27
744.582	3496.91
744.771	3538.18
744.96	3512.02
745.149	3528.69
745.338	3446.73
745.527	3591.85
745.716	3499.04
745.905	3513.38
746.094	3507.96
746.283	3563.75
746.471	3483.35
746.66	3550.19
746.849	3549.22
747.038	3556.39
747.227	3501.17
747.416	3557.94
747.604	3503.5
747.793	3520.35
747.982	3529.46
748.171	3542.83
748.359	3542.83
748.548	3586.81
748.737	3562.4
748.926	3507.57
749.114	3397.91
749.303	3568.79
749.491	3500.98
749.68	3471.14
749.869	3531.01
750.057	3491.29
750.246	3463.59
750.434	3492.84
750.623	3474.44
750.811	3479.67
751	3505.44
751.188	3490.71
751.377	3481.41
751.565	3475.6
751.754	3418.64
751.942	3418.64
752.131	3503.89
752.319	3463.97
752.507	3412.24
752.696	3479.67
752.884	3471.34
753.072	3448.28
753.261	3470.95
753.449	3442.27
753.637	3435.88
753.825	3500.21
754.014	3444.21
754.202	3426.19
754.39	3511.64
754.578	3480.25
754.766	3400.43
754.955	3396.94
755.143	3447.31
755.331	3393.64
755.519	3403.53
755.707	3407.59
755.895	3370.39
756.083	3404.11
756.271	3398.29
756.459	3378.53
756.647	3402.36
756.835	3369.04
757.023	3370.78
757.211	3329.32
757.399	3312.08
757.587	3281.27
757.775	3278.56
757.963	3314.01
758.151	3328.55
758.339	3282.43
758.526	3272.94
758.714	3284.37
758.902	3237.29
759.09	3105.74
759.278	2902.3
759.465	2681.62
759.653	2306.33
759.841	2110.84
760.028	1823.9
760.216	1542.78
760.404	1503.83
760.591	1219.03
760.779	964.64
760.967	830.95
761.154	702.88
761.342	709.66
761.529	718.77
761.717	743.96
761.905	744.73
762.092	843.54
762.28	740.47
762.467	777.28
762.655	707.53
762.842	705.21
763.029	715.86
763.217	724
763.404	694.36
763.592	736.98
763.779	697.85
763.966	763.53
764.154	794.14
764.341	843.35
764.528	824.75
764.716	902.83
764.903	994.67
765.09	1015.01
765.277	1077.59
765.465	1210.11
765.652	1244.41
765.839	1385.26
766.026	1500.54
766.213	1529.41
766.4	1596.83
766.588	1835.92
766.775	1835.53
766.962	1958.75
767.149	2026.37
767.336	2174.39
767.523	2158.31
767.71	2282.5
767.897	2390.23
768.084	2483.23
768.271	2516.94
768.458	2566.15
768.645	2679.1
768.832	2639.77
769.019	2625.05
769.206	2721.73
769.392	2785.67
769.579	2857.35
769.766	2791.48
769.953	2792.64
770.14	2858.71
770.327	2895.91
770.513	2945.31
770.7	2935.82
770.887	2916.25
771.073	2962.75
771.26	2934.27
771.447	2901.72
771.634	2918.19
771.82	3033.27
772.007	2932.14
772.193	2948.61
772.38	2979.8
772.567	2968.18
772.753	2986.97
772.94	2953.45
773.126	2988.32
773.313	2992.59
773.499	2988.91
773.686	2973.41
773.872	2936.4
774.059	2997.62
774.245	2903.27
774.432	2952.87
774.618	2854.25
774.804	2943.76
774.991	2909.86
775.177	2941.44
775.363	2938.34
775.55	2927.29
775.736	2874.79
775.922	2924.97
776.109	2899.78
776.295	2920.71
776.481	2914.7
776.667	2918.58
776.853	2877.89
777.04	2828.68
777.226	2884.86
777.412	2912.57
777.598	2856.38
777.784	2861.42
777.97	2798.84
778.156	2813.76
778.342	2882.54
778.528	2850.18
778.715	2777.92
778.901	2835.07
779.087	2818.6
779.272	2817.83
779.458	2841.85
779.644	2831.78
779.83	2788.77
780.016	2854.06
780.202	2812.4
780.388	2800.58
780.574	2725.02
780.76	2761.45
780.946	2795.93
781.131	2787.6
781.317	2768.62
781.503	2722.31
781.689	2748.27
781.874	2858.71
782.06	2735.48
782.246	2745.37
782.432	2735.48
782.617	2746.33
782.803	2770.75
782.989	2676.97
783.174	2664.96
783.36	2661.67
783.545	2706.04
783.731	2676
783.916	2561.31
784.102	2691.7
784.288	2614.01
784.473	2685.5
784.659	2648.1
784.844	2683.95
785.029	2626.41
785.215	2639
785.4	2577.39
785.586	2637.64
785.771	2578.16
785.956	2633.19
786.142	2592.69
786.327	2592.11
786.512	2564.79
786.698	2579.13
786.883	2463.85
787.068	2522.56
787.254	2550.84
787.439	2526.63
787.624	2497.37
787.809	2551.81
787.994	2519.46
788.18	2533.41
788.365	2438.86
788.55	2434.4
788.735	2452.23
788.92	2480.51
789.105	2431.3
789.29	2447.58
789.475	2407.86
789.66	2376.86
789.845	2359.03
790.03	2387.71
790.215	2411.35
790.4	2422.2
790.585	2419.68
790.77	2341.6
790.955	2343.92
791.14	2383.45
791.325	2406.31
791.51	2302.85
791.695	2369.88
791.879	2361.94
792.064	2345.67
792.249	2396.23
792.434	2354.58
792.618	2376.66
792.803	2383.64
792.988	2334.04
793.173	2380.35
793.357	2391.2
793.542	2311.57
793.727	2359.23
793.911	2420.06
794.096	2387.71
794.281	2457.85
794.465	2487.68
794.65	2379.38
794.834	2402.82
795.019	2438.47
795.203	2447.96
795.388	2400.88
795.572	2474.89
795.757	2433.05
795.941	2413.86
796.126	2391
796.31	2340.43
796.494	2372.21
796.679	2361.75
796.863	2285.99
797.048	2432.66
797.232	2418.13
797.416	2373.18
797.601	2394.3
797.785	2457.26
797.969	2401.08
798.153	2396.81
798.338	2429.75
798.522	2453.78
798.706	2423.55
798.89	2427.62
799.074	2530.69
799.258	2488.07
799.443	2446.61
799.627	2422.97
799.811	2479.74
799.995	2415.8
800.179	2412.31
800.363	2412.51
800.547	2422.78
800.731	2443.31
800.915	2364.65
801.099	2390.42
801.283	2392.94
801.467	2397.4
801.651	2385
801.835	2450.48
802.019	2408.63
802.202	2417.74
802.386	2374.53
802.57	2354
802.754	2366.01
802.938	2337.92
803.121	2338.69
803.305	2421.61
803.489	2412.12
803.673	2370.66
803.856	2434.4
804.04	2366.59
804.224	2400.3
804.407	2359.23
804.591	2354.77
804.775	2360.58
804.958	2370.85
805.142	2455.33
805.326	2374.92
805.509	2437.89
805.693	2410.96
805.876	2439.83
806.06	2426.07
806.243	2398.36
806.427	2434.6
806.61	2500.47
806.794	2394.49
806.977	2496.4
807.16	2430.14
807.344	2463.46
807.527	2446.8
807.71	2408.44
807.894	2418.71
808.077	2440.6
808.26	2407.66
808.444	2442.35
808.627	2349.93
808.81	2370.47
808.993	2357.87
809.177	2314.67
809.36	2343.53
809.543	2351.67
809.726	2237.94
809.909	2241.82
810.092	2243.37
810.276	2217.02
810.459	2272.43
810.642	2245.5
810.825	2196.67
811.008	2212.37
811.191	2123.63
811.374	2149.79
811.557	2164.12
811.74	2200.55
811.923	2073.26
812.106	2102.51
812.289	2056.79
812.472	2056.01
812.654	2093.6
812.837	2025.01
813.02	1978.9
813.203	1956.43
813.386	1867.11
813.569	1842.12
813.751	1798.33
813.934	1822.55
814.117	1823.32
814.3	1744.08
814.482	1749.51
814.665	1682.27
814.848	1710.56
815.03	1575.52
815.213	1598.96
815.396	1582.11
815.578	1552.46
815.761	1540.45
815.943	1591.99
816.126	1509.26
816.309	1467.8
816.491	1414.13
816.674	1376.35
816.856	1400.76
817.039	1434.47
817.221	1494.53
817.403	1462.57
817.586	1436.8
817.768	1434.86
817.951	1367.44
818.133	1385.07
818.315	1399.21
818.498	1470.32
818.68	1497.63
818.862	1476.13
819.045	1482.91
819.227	1480.58
819.409	1435.44
819.591	1490.85
819.774	1487.56
819.956	1424.2
820.138	1533.48
820.32	1528.83
820.502	1580.17
820.684	1618.14
820.866	1600.71
821.048	1693.12
821.231	1684.02
821.413	1665.23
821.595	1670.07
821.777	1682.86
821.959	1659.41
822.141	1719.47
822.323	1591.79
822.505	1521.08
822.686	1517.98
822.868	1455.98
823.05	1326.94
823.232	1293.81
823.414	1239.17
823.596	1277.34
823.778	1318.61
823.96	1320.94
824.141	1331.01
824.323	1353.29
824.505	1418
824.687	1480.78
824.868	1500.15
825.05	1644.3
825.232	1620.08
825.413	1694.29
825.595	1634.61
825.777	1588.69
825.958	1623.57
826.14	1637.71
826.321	1638.68
826.503	1618.92
826.685	1624.73
826.866	1679.17
827.048	1643.33
827.229	1590.44
827.411	1573
827.592	1510.81
827.773	1533.67
827.955	1496.47
828.136	1505.19
828.318	1456.37
828.499	1485.43
828.68	1421.49
828.862	1472.45
829.043	1492.98
829.224	1427.3
829.406	1412.77
829.587	1436.41
829.768	1453.07
829.949	1461.79
830.131	1448.03
830.312	1512.75
830.493	1490.27
830.674	1469.93
830.855	1459.85
831.036	1464.7
831.218	1535.8
831.399	1565.83
831.58	1457.72
831.761	1483.88
831.942	1501.31
832.123	1490.08
832.304	1416.84
832.485	1451.33
832.666	1468.96
832.847	1499.77
833.028	1466.05
833.209	1467.02
833.389	1435.63
833.57	1404.25
833.751	1422.65
833.932	1498.22
834.113	1498.41
834.294	1461.6
834.475	1490.47
834.655	1466.05
834.836	1530.76
835.017	1518.17
835.198	1454.62
835.378	1505.58
835.559	1564.28
835.74	1508.48
835.92	1507.9
836.101	1494.73
836.281	1544.91
836.462	1521.27
836.643	1553.24
836.823	1549.56
837.004	1539.1
837.184	1587.53
837.365	1519.14
837.545	1568.74
837.726	1557.5
837.906	1606.71
838.087	1552.66
838.267	1540.45
838.448	1504.22
838.628	1538.51
838.808	1564.48
838.989	1578.81
839.169	1543.94
839.349	1579.01
839.53	1559.25
839.71	1592.96
839.89	1556.92
840.07	1598.58
840.251	1562.35
840.431	1562.93
840.611	1546.46
840.791	1512.75
840.971	1546.85
841.151	1527.66
841.332	1549.36
841.512	1550.53
841.692	1498.99
841.872	1568.55
842.052	1535.03
842.232	1576.3
842.412	1516.81
842.592	1568.35
842.772	1552.66
842.952	1540.45
843.132	1485.23
843.312	1498.99
843.492	1476.13
843.672	1541.23
843.851	1469.73
844.031	1504.8
844.211	1514.3
844.391	1483.1
844.571	1542
844.751	1520.5
844.93	1494.73
845.11	1465.28
845.29	1518.36
845.47	1493.57
845.649	1517.78
845.829	1537.74
846.009	1486.01
846.188	1507.9
846.368	1492.4
846.547	1468.18
846.727	1530.57
846.907	1472.45
847.086	1499.38
847.266	1532.31
847.445	1509.26
847.625	1478.45
847.804	1414.13
847.984	1471.28
848.163	1435.83
848.343	1462.18
848.522	1482.91
848.701	1443.38
848.881	1426.33
849.06	1487.95
849.239	1466.05
849.419	1436.02
849.598	1404.83
849.777	1376.35
849.957	1375.38
850.136	1285.87
850.315	1321.71
850.494	1313.19
850.674	1352.9
850.853	1420.72
851.032	1363.37
851.211	1400.57
851.39	1386.81
851.569	1338.37
851.748	1290.71
851.927	1404.64
852.107	1361.62
852.286	1317.06
852.465	1326.75
852.644	1374.6
852.823	1353.68
853.002	1356.2
853.181	1374.99
853.359	1363.95
853.538	1295.17
853.717	1351.35
853.896	1283.54
854.075	1211.28
854.254	1200.81
854.433	1122.35
854.611	1213.21
854.79	1147.53
854.969	1201.39
855.148	1187.64
855.327	1188.61
855.505	1219.99
855.684	1241.31
855.863	1253.51
856.041	1208.56
856.22	1256.61
856.399	1206.24
856.577	1314.16
856.756	1287.42
856.934	1386.04
857.113	1377.12
857.291	1289.36
857.47	1267.27
857.648	1294.59
857.827	1310.28
858.005	1357.55
858.184	1246.73
858.362	1348.45
858.541	1296.91
858.719	1267.66
858.898	1301.56
859.076	1263.2
859.254	1343.41
859.433	1263.59
859.611	1225.42
859.789	1243.63
859.967	1293.62
860.146	1309.89
860.324	1223.68
860.502	1253.71
860.68	1221.16
860.859	1257
861.037	1221.93
861.215	1259.71
861.393	1273.86
861.571	1232.59
861.749	1229.88
861.927	1239.17
862.105	1240.92
862.283	1244.41
862.461	1196.36
862.639	1219.03
862.817	1226
862.995	1206.63
863.173	1202.56
863.351	1208.18
863.529	1242.47
863.707	1234.72
863.885	1246.73
864.063	1189.19
864.241	1178.14
864.418	1235.3
864.596	1185.31
864.774	1157.8
864.952	1199.26
865.129	1219.61
865.307	1193.26
865.485	1140.95
865.663	1179.89
865.84	1164.97
866.018	1152.57
866.196	990.21
866.373	1044.46
866.551	1000.28
866.728	961.54
866.906	990.98
867.084	1024.7
867.261	1053.18
867.439	1078.56
867.616	1105.1
867.794	1111.11
867.971	1106.46
868.149	1072.55
868.326	1130.1
868.503	1123.7
868.681	1101.03
868.858	1096.96
869.035	1063.45
869.213	1091.73
869.39	1099.1
869.567	1161.09
869.745	1100.84
869.922	1080.69
870.099	1113.43
870.276	1142.3
870.454	1100.45
870.631	1118.28
870.808	1098.51
870.985	1143.85
871.162	1146.37
871.339	1120.99
871.517	1059.96
871.694	1059.18
871.871	1076.43
872.048	1077.2
872.225	1089.6
872.402	1052.6
872.579	1067.71
872.756	1083.6
872.933	1030.12
873.11	1036.52
873.287	1059.57
873.463	1058.22
873.64	1041.36
873.817	1070.03
873.994	1067.9
874.171	1009.78
874.348	1052.4
874.524	1016.56
874.701	1043.49
874.878	993.89
875.055	1024.7
875.231	1044.27
875.408	1041.36
875.585	965.22
875.762	996.99
875.938	983.23
876.115	1002.22
876.291	1016.56
876.468	1020.05
876.645	972.77
876.821	981.1
876.998	984.01
877.174	1002.8
877.351	984.78
877.527	965.8
877.704	978
877.88	996.6
878.057	972.77
878.233	1011.52
878.409	970.84
878.586	972.19
878.762	950.88
878.938	1019.08
879.115	922.59
879.291	969.29
879.467	896.44
879.644	921.82
879.82	934.99
879.996	913.1
880.172	874.35
880.349	945.07
880.525	943.9
880.701	909.22
880.877	914.84
881.053	946.81
881.229	910
881.405	983.82
881.581	882.68
881.757	900.7
881.933	930.73
882.109	958.44
882.285	928.6
882.461	882.1
882.637	929.76
882.813	885.59
882.989	913.68
883.165	974.32
883.341	884.81
883.517	984.2
883.693	942.16
883.869	962.5
884.044	898.37
884.22	939.25
884.396	953.01
884.572	924.53
884.747	953.2
884.923	930.15
885.099	942.35
885.275	935.38
885.45	898.76
885.626	925.3
885.801	902.44
885.977	899.54
886.153	852.07
886.328	935.19
886.504	880.74
886.679	896.63
886.855	902.64
887.03	914.45
887.206	920.65
887.381	920.27
887.557	960.18
887.732	906.9
887.908	929.76
888.083	920.85
888.258	885.2
888.434	905.35
888.609	906.7
888.784	936.93
888.96	918.72
889.135	914.84
889.31	876.48
889.485	906.7
889.661	910.97
889.836	908.25
890.011	936.54
890.186	895.27
890.361	888.69
890.537	925.3
890.712	898.57
890.887	904.38
891.062	905.54
891.237	944.87
891.412	848.58
891.587	915.81
891.762	912.71
891.937	973.94
892.112	890.82
892.287	890.43
892.462	836.76
892.637	846.84
892.812	853.04
892.987	844.71
893.161	833.86
893.336	844.32
893.511	816.42
893.686	814.48
893.861	810.22
894.035	836.76
894.21	827.85
894.385	750.93
894.56	811.96
894.734	757.33
894.909	754.81
895.084	730.98
895.258	734.27
895.433	733.69
895.608	692.03
895.782	665.49
895.957	690.29
896.131	697.26
896.306	626.93
896.48	628.29
896.655	644.18
896.829	586.83
897.004	604.65
897.178	604.27
897.353	574.23
897.527	626.93
897.701	600.2
897.876	554.67
898.05	650.38
898.224	606.78
898.399	651.35
898.573	595.93
898.747	513.79
898.921	538.2
899.096	484.53
899.27	474.84
899.444	465.54
899.618	492.67
899.792	533.94
899.967	511.65
900.141	551.18
900.315	465.74
900.489	517.66
900.663	516.3
900.837	482.79
901.011	445.59
901.185	563.19
901.359	496.93
901.533	538.78
901.707	527.15
901.881	532.58
902.055	473.87
902.229	522.12
902.403	518.24
902.576	499.06
902.75	522.31
902.924	612.02
903.098	580.63
903.272	605.82
903.446	647.47
903.619	603.49
903.793	663.36
903.967	641.66
904.14	666.07
904.314	684.09
904.488	664.91
904.661	656.38
904.835	639.33
905.009	702.5
905.182	731.36
905.356	636.81
905.529	683.12
905.703	654.45
905.876	603.1
906.05	583.15
906.223	590.12
906.397	544.78
906.57	548.47
906.744	525.8
906.917	503.52
907.09	517.85
907.264	512.82
907.437	494.41
907.61	445.78
907.784	462.64
907.957	483.75
908.13	462.05
908.304	487.44
908.477	437.06
908.65	476.78
908.823	444.42
908.996	513.59
909.17	463.99
909.343	451.79
909.516	454.69
909.689	425.44
909.862	435.9
910.035	454.89
910.208	418.66
910.381	424.08
910.554	528.51
910.727	412.07
910.9	432.8
911.073	430.67
911.246	493.05
911.419	515.72
911.592	472.52
911.765	450.43
911.938	420.4
912.11	446.75
912.283	457.02
912.456	490.15
912.629	455.27
912.802	428.34
912.974	366.15
913.147	383.97
913.32	308.41
913.493	359.76
913.665	392.89
913.838	392.31
914.01	357.43
914.183	412.46
914.356	369.64
914.528	426.6
914.701	454.3
914.873	446.56
915.046	366.92
915.218	358.4
915.391	310.35
915.563	319.26
915.736	364.99
915.908	399.67
916.081	376.22
916.253	379.71
916.425	399.86
916.598	390.95
916.77	401.41
916.942	354.91
917.115	299.31
917.287	350.46
917.459	373.51
917.632	341.93
917.804	294.46
917.976	360.53
918.148	348.13
918.32	366.34
918.493	414.59
918.665	428.34
918.837	379.71
919.009	443.84
919.181	444.62
919.353	427.76
919.525	415.36
919.697	399.28
919.869	414.2
920.041	463.41
920.213	539.55
920.385	432.02
920.557	404.9
920.729	450.62
920.901	444.23
921.073	395.79
921.244	416.91
921.416	434.35
921.588	418.27
921.76	392.31
921.932	469.22
922.103	421.76
922.275	437.64
922.447	430.09
922.619	348.13
922.79	383.78
922.962	360.73
923.134	425.05
923.305	360.14
923.477	338.64
923.648	350.26
923.82	368.86
923.991	291.36
924.163	311.51
924.335	350.26
924.506	339.61
924.677	396.96
924.849	342.32
925.02	345.23
925.192	388.43
925.363	337.48
925.535	354.33
925.706	340.19
925.877	393.27
926.049	322.36
926.22	359.95
926.391	343.68
926.562	360.34
926.734	319.65
926.905	403.54
927.076	306.86
927.247	317.71
927.419	298.34
927.59	286.52
927.761	313.84
927.932	278.58
928.103	274.31
928.274	250.1
928.445	241.57
928.616	234.6
928.787	271.02
928.958	277.03
929.129	252.42
929.3	221.42
929.471	219.48
929.642	170.85
929.813	129.97
929.984	179.38
930.155	131.72
930.326	173.95
930.496	151.09
930.667	104.4
930.838	144.89
931.009	121.64
931.18	137.72
931.35	136.56
931.521	162.72
931.692	83.67
931.863	85.02
932.033	99.75
932.204	102.07
932.374	66.04
932.545	64.29
932.716	124.93
932.886	116.6
933.057	39.88
933.227	57.51
933.398	123
933.568	39.88
933.739	42.79
933.909	36.78
934.08	90.84
934.25	-20.57
934.421	35.42
934.591	52.28
934.761	11.98
934.932	-6.23
935.102	26.12
935.272	42.2
935.443	33.49
935.613	23.99
935.783	45.5
935.953	10.62
936.123	142.18
936.294	-7.98
936.464	25.93
936.634	34.65
936.804	5.78
936.974	8.11
937.144	56.35
937.314	52.28
937.484	30.97
937.655	13.34
937.825	64.87
937.995	-1.78
938.165	65.26
938.334	31.94
938.504	59.25
938.674	10.62
938.844	66.04
939.014	70.49
939.184	103.62
939.354	157.87
939.524	134.23
939.694	64.68
939.863	61.58
940.033	123.58
940.203	110.6
940.373	116.8
940.542	110.98
940.712	68.94
940.882	98
941.051	99.55
941.221	115.05
941.391	122.03
941.56	76.5
941.73	21.47
941.899	179.77
942.069	71.65
942.238	113.31
942.408	46.85
942.577	112.73
942.747	72.43
942.916	29.42
943.086	56.93
943.255	84.25
943.425	83.47
943.594	44.34
943.763	13.34
943.933	15.27
944.102	-5.65
944.271	71.07
944.441	85.8
944.61	19.15
944.779	64.1
944.948	147.99
945.117	42.2
945.287	25.35
945.456	19.92
945.625	35.23
945.794	90.06
945.963	42.59
946.132	78.63
946.301	43.75
946.47	67.97
946.639	-3.52
946.808	44.14
946.977	40.07
947.146	109.43
947.315	45.5
947.484	82.5
947.653	79.79
947.822	32.52
947.991	20.12
948.16	132.88
948.329	102.27
948.498	62.35
948.666	46.66
948.835	86.57
949.004	10.43
949.173	8.69
949.341	53.05
949.51	50.73
949.679	56.35
949.847	85.6
950.016	119.9
950.185	104.4
950.353	46.85
950.522	36.78
950.69	91.03
950.859	24.57
951.028	83.47
951.196	75.72
951.365	38.91
951.533	60.22
951.701	90.64
951.87	91.03
952.038	30.19
952.207	64.68
952.375	97.42
952.543	62.55
952.712	71.27
952.88	36.39
953.048	115.25
953.217	72.43
953.385	57.32
953.553	94.52
953.721	22.25
953.89	60.42
954.058	8.49
954.226	42.01
954.394	51.31
954.562	12.95
954.73	56.74
954.898	40.46
955.067	91.8
955.235	19.34
955.403	94.71
955.571	82.31
955.739	80.76
955.907	12.37
956.075	24.96
956.243	38.91
956.41	78.24
956.578	13.72
956.746	28.64
956.914	48.79
957.082	86.77
957.25	74.17
957.418	28.06
957.585	82.12
957.753	114.28
957.921	38.33
958.089	73.01
958.256	77.66
958.424	68.17
958.592	82.89
958.759	64.49
958.927	64.49
959.095	37.94
959.262	42.01
959.43	39.69
959.597	14.11
959.765	53.44
959.932	22.05
960.1	103.43
960.267	41.82
960.435	52.09
960.602	101.1
960.77	59.45
960.937	23.02
961.104	79.21
961.272	17.79
961.439	32.32
961.606	78.44
961.774	85.41
961.941	70.3
962.108	86.77
962.275	82.31
962.443	71.65
962.61	75.72
962.777	125.9
962.944	80.95
963.111	85.6
963.278	93.55
963.446	67.2
963.613	39.3
963.78	50.54
963.947	81.34
964.114	69.14
964.281	158.07
964.448	98.59
964.615	67.39
964.782	79.21
964.949	109.43
965.116	83.28
965.282	133.27
965.449	67.2
965.616	54.99
965.783	116.8
965.95	55.38
966.117	28.45
966.283	60.61
966.45	64.1
966.617	68.94
966.784	111.76
966.95	114.08
967.117	124.16
967.284	62.55
967.45	76.3
967.617	125.32
967.784	115.83
967.95	129.97
968.117	90.84
968.283	134.23
968.45	176.47
968.616	103.43
968.783	119.7
968.949	105.17
969.116	119.32
969.282	90.64
969.449	87.35
969.615	104.01
969.781	45.5
969.948	75.14
970.114	58.67
970.28	151.67
970.447	79.4
970.613	117.38
970.779	94.71
970.945	98.39
971.112	86.57
971.278	113.5
971.444	83.86
971.61	143.15
971.776	70.88
971.942	117.18
972.108	101.1
972.275	90.45
972.441	127.26
972.607	146.83
972.773	60.8
972.939	111.95
973.105	89.09
973.271	43.17
973.437	85.41
973.602	71.46
973.768	101.88
973.934	87.93
974.1	82.12
974.266	15.27
974.432	104.59
974.598	90.64
974.763	119.12
974.929	42.4
975.095	127.65
975.261	40.65
975.426	51.89
975.592	87.93
975.758	126.87
975.923	21.86
976.089	48.02
976.255	132.49
976.42	77.66
976.586	107.5
976.751	84.83
976.917	183.45
977.082	131.91
977.248	52.47
977.413	28.45
977.579	42.01
977.744	101.69
977.91	38.52
978.075	38.72
978.24	111.95
978.406	67.78
978.571	57.9
978.736	67.59
978.902	96.65
979.067	54.8
979.232	24.19
979.397	86.57
979.563	112.15
979.728	56.93
979.893	52.86
980.058	66.62
980.223	100.91
980.388	89.48
980.554	68.55
980.719	63.9
980.884	68.75
981.049	105.37
981.214	64.29
981.379	85.99
981.544	66.62
981.709	95.87
981.874	86.57
982.039	117.18
982.204	102.46
982.368	55.57
982.533	47.44
982.698	89.48
982.863	109.63
983.028	77.47
983.193	90.25
983.357	88.9
983.522	73.98
983.687	70.69
983.852	71.46
984.016	67.97
984.181	75.14
984.346	70.3
984.51	95.87
984.675	91.42
984.839	87.93
985.004	82.7
985.168	101.49
985.333	102.46
985.498	82.31
985.662	114.08
985.827	106.53
985.991	67
986.155	61.19
986.32	78.05
986.484	134.23
986.649	109.05
986.813	27.09
986.977	82.7
987.142	101.1
987.306	43.56
987.47	56.54
987.634	56.35
987.799	110.6
987.963	67
988.127	95.29
988.291	120.48
988.455	71.07
988.62	64.68
988.784	116.99
988.948	115.63
989.112	57.32
989.276	82.31
989.44	79.99
989.604	65.65
989.768	64.87
989.932	146.63
990.096	74.56
990.26	71.46
990.424	34.65
990.588	82.12
990.752	128.03
990.915	113.7
991.079	64.1
991.243	65.65
991.407	100.72
991.571	92.58
991.734	81.54
991.898	104.78
992.062	152.45
992.226	62.74
992.389	47.24
992.553	8.49
992.717	59.64
992.88	44.72
993.044	109.63
993.207	77.27
993.371	100.72
993.535	94.9
993.698	65.45
993.862	135.59
994.025	107.69
994.189	86.57
994.352	67
994.515	78.63
994.679	101.3
994.842	77.47
995.006	82.31
995.169	38.14
995.332	49.95
995.496	100.14
995.659	17.21
995.822	42.79
995.985	90.84
996.149	106.33
996.312	62.74
996.475	114.47
996.638	72.82
996.801	116.8
996.964	99.36
997.128	59.64
997.291	44.72
997.454	71.65
997.617	17.4
997.78	112.92
997.943	49.57
998.106	104.2
998.269	80.18
998.432	61.19
998.595	69.52
998.758	2.68
998.92	25.15
999.083	26.32
999.246	49.18
999.409	29.61
999.572	8.49
999.735	45.3
999.897	83.09
1000.06	42.59
1000.223	71.85
1000.386	79.99
1000.548	88.7
1000.711	72.43
1000.874	51.12
1001.036	9.46
1001.199	84.05
1001.361	40.27
1001.524	64.68
1001.687	73.98
1001.849	42.79
1002.012	59.25
1002.174	37.75
1002.337	64.29
1002.499	57.32
1002.661	76.11
1002.824	19.73
1002.986	43.56
1003.149	77.85
1003.311	27.48
1003.473	86.38
1003.636	26.32
1003.798	55.57
1003.96	43.37
1004.123	46.47
1004.285	51.31
1004.447	73.4
1004.609	21.47
1004.771	118.54
1004.933	-1.19
1005.096	39.69
1005.258	-18.63
1005.42	31.16
1005.582	72.43
1005.744	74.95
1005.906	0.55
1006.068	44.53
1006.23	13.14
1006.392	2.29
1006.554	34.26
1006.716	82.7
1006.878	48.02
1007.04	16.44
1007.202	36.39
1007.363	50.92
1007.525	35.62
1007.687	52.28
1007.849	82.12
1008.011	-11.08
1008.172	-8.75
1008.334	38.14
1008.496	23.02
1008.658	20.12
1008.819	-3.13
1008.981	2.87
1009.143	6.36
1009.304	36.59
1009.466	58.87
1009.627	104.59
1009.789	145.08
1009.95	43.17
1010.112	35.04
1010.273	54.41
1010.435	32.13
1010.596	-0.03
1010.758	41.24
1010.919	21.09
1011.081	14.11
1011.242	27.87
1011.403	89.67
1011.565	32.32
1011.726	36.97
1011.887	-2.94
1012.049	43.37
1012.21	60.22
1012.371	61
1012.532	-39.17
1012.693	42.01
1012.855	31.55
1013.016	19.92
1013.177	61
1013.338	34.07
1013.499	57.9
1013.66	51.7
1013.821	52.67
1013.982	59.06
1014.143	50.15
1014.304	38.72
1014.465	48.99
1014.626	35.04
1014.787	26.9
1014.948	106.53
1015.109	-40.72
1015.27	83.09
1015.431	18.18
1015.592	4.81
1015.752	85.99
1015.913	62.35
1016.074	36.78
1016.235	21.67
1016.395	35.62
1016.556	38.52
1016.717	27.87
1016.877	87.35
1017.038	12.37
1017.199	20.5
1017.359	34.07
1017.52	42.2
1017.681	12.37
1017.841	19.73
1018.002	20.12
1018.162	3.46
1018.323	66.04
1018.483	33.87
1018.644	25.74
1018.804	2.68
1018.964	-15.53
1019.125	47.05
1019.285	46.27
1019.446	9.66
1019.606	-6.04
1019.766	-18.24
1019.926	62.35
1020.087	38.52
1020.247	-15.92
1020.407	48.21
1020.567	62.94
1020.728	11.59
1020.888	18.76
1021.048	-8.17
1021.208	-12.43
1021.368	31.74
1021.528	63.9
1021.688	47.63
1021.848	32.32
1022.008	32.71
1022.168	30
1022.328	15.27
1022.488	48.99
1022.648	3.07
1022.808	26.51
1022.968	50.73
1023.128	5.39
1023.288	7.14
1023.448	38.72
1023.608	5.39
1023.767	36.78
1023.927	-16.5
1024.087	-5.07
1024.247	5.39
1024.406	28.25
1024.566	-23.86
1024.726	-5.84
1024.885	25.74
1025.045	52.67
1025.205	18.95
1025.364	-5.65
1025.524	44.72
1025.683	14.89
1025.843	27.48
1026.003	29.8
1026.162	65.65
1026.321	70.88
1026.481	28.45
1026.64	30.58
1026.8	38.33
1026.959	37.17
1027.119	29.8
1027.278	-9.14
1027.437	9.07
1027.597	25.54
1027.756	26.7
1027.915	49.37
1028.074	31.16
1028.234	-1.19
1028.393	-2.16
1028.552	1.32
1028.711	-40.33
1028.87	67.78
1029.03	-12.63
1029.189	10.62
1029.348	-27.35
1029.507	-16.11
1029.666	25.54
1029.825	-5.84
1029.984	5.97
1030.143	36.97
1030.302	35.23
1030.461	-52.54
1030.62	36.39
1030.779	51.31
1030.938	-10.3
1031.097	-13.21
1031.255	20.31
1031.414	64.29
1031.573	57.51
1031.732	-29.87
1031.891	5.39
1032.049	63.13
1032.208	44.92
1032.367	-3.71
1032.525	-12.04
1032.684	-2.94
1032.843	33.49
1033.001	-43.43
1033.16	124.16
1033.319	53.25
1033.477	10.04
1033.636	23.41
1033.794	-21.73
1033.953	30.58
1034.111	52.09
1034.27	3.65
1034.428	27.87
1034.587	-39.94
1034.745	41.82
1034.903	44.72
1035.062	33.87
1035.22	-19.6
1035.378	20.89
1035.537	-2.55
1035.695	27.48
1035.853	17.21
1036.011	23.22
1036.17	19.15
1036.328	-30.26
1036.486	5.01
1036.644	21.28
1036.802	-62.03
1036.96	-15.92
1037.119	2.68
1037.277	-5.26
1037.435	-32.58
1037.593	-34.52
1037.751	-1
1037.909	12.37
1038.067	12.37
