Data from gum_young_FLMT105791__141__17-41-09-040.txt Node

Date: Mon Mar 20 17:41:09 GMT 2023
User: antho
Spectrometer: FLMT10579
Trigger mode: 0
Integration Time (sec): 1.000000E-1
Scans to average: 10
Electric dark correction enabled: true
Nonlinearity correction enabled: false
Boxcar width: 0
XAxis mode: Wavelengths
Number of Pixels in Spectrum: 3648
>>>>>Begin Spectral Data<<<<<
345.248	-150.74
345.464	-150.74
345.681	-150.74
345.898	-167.2
346.114	-170.5
346.331	-19.76
346.548	20.34
346.764	-9.3
346.981	17.24
347.197	-19.37
347.414	6.59
347.631	-8.52
347.847	47.66
348.064	-5.42
348.28	21.12
348.497	-33.91
348.713	-16.66
348.93	32.16
349.146	5.42
349.363	-13.76
349.579	4.65
349.796	-8.52
350.012	8.91
350.229	20.73
350.445	3.68
350.661	-15.69
350.878	20.15
351.094	11.82
351.311	25.38
351.527	21.12
351.743	-6.2
351.96	58.12
352.176	16.08
352.392	24.02
352.609	35.07
352.825	-24.99
353.041	19.76
353.257	5.42
353.474	8.33
353.69	3.1
353.906	9.3
354.122	-11.24
354.339	42.82
354.555	19.96
354.771	0
354.987	77.5
355.203	41.46
355.42	-15.11
355.636	3.1
355.852	-30.42
356.068	3.29
356.284	-46.89
356.5	68.2
356.716	29.06
356.932	2.91
357.148	24.99
357.364	8.52
357.58	25.38
357.796	49.79
358.012	29.45
358.228	34.68
358.444	-47.08
358.66	60.64
358.876	26.74
359.092	-29.06
359.308	40.69
359.524	45.92
359.74	28.29
359.956	-12.4
360.172	26.93
360.388	63.36
360.604	6.97
360.819	98.04
361.035	16.47
361.251	29.06
361.467	-1.16
361.683	44.56
361.898	33.32
362.114	39.33
362.33	15.31
362.546	34.29
362.762	2.13
362.977	18.41
363.193	-0.58
363.409	51.15
363.624	-12.4
363.84	-11.24
364.056	5.81
364.271	37.2
364.487	-24.22
364.703	6.01
364.918	7.56
365.134	-14.34
365.35	-9.49
365.565	93
365.781	15.69
365.996	16.08
366.212	58.71
366.427	29.45
366.643	0.19
366.858	2.71
367.074	2.32
367.289	57.74
367.505	104.82
367.72	-25.77
367.936	7.56
368.151	56.19
368.367	47.27
368.582	20.54
368.798	19.96
369.013	69.56
369.228	13.56
369.444	22.09
369.659	73.62
369.874	31.39
370.09	43.59
370.305	-22.47
370.52	12.4
370.736	73.82
370.951	3.49
371.166	76.72
371.381	70.33
371.597	51.15
371.812	-14.14
372.027	-2.32
372.242	-1.16
372.458	81.76
372.673	21.31
372.888	14.72
373.103	29.06
373.318	94.94
373.533	20.54
373.749	43.01
373.964	-11.04
374.179	79.05
374.394	-1.94
374.609	54.83
374.824	1.16
375.039	60.26
375.254	12.21
375.469	78.08
375.684	22.67
375.899	59.09
376.114	11.82
376.329	31.97
376.544	47.66
376.759	62.39
376.974	-31.58
377.189	34.87
377.404	4.46
377.619	49.79
377.834	-23.44
378.049	-38.17
378.264	-12.21
378.478	46.31
378.693	-14.72
378.908	47.08
379.123	43.98
379.338	64.13
379.553	33.91
379.767	51.92
379.982	31.19
380.197	50.37
380.412	32.36
380.626	41.27
380.841	104.82
381.056	42.04
381.271	100.75
381.485	8.14
381.7	-2.91
381.915	50.18
382.129	18.6
382.344	24.99
382.559	15.5
382.773	58.71
382.988	-26.93
383.202	47.47
383.417	33.71
383.632	100.17
383.846	35.46
384.061	41.46
384.275	16.86
384.49	67.81
384.704	49.02
384.919	34.49
385.133	26.74
385.348	78.47
385.562	-45.34
385.777	101.33
385.991	30.22
386.206	33.71
386.42	20.34
386.634	49.99
386.849	45.92
387.063	34.68
387.277	-4.26
387.492	50.76
387.706	-0.19
387.92	16.27
388.135	70.14
388.349	66.46
388.563	7.17
388.778	44.37
388.992	33.13
389.206	60.84
389.42	82.54
389.635	37.59
389.849	53.28
390.063	84.28
390.277	49.79
390.491	108.89
390.706	63.94
390.92	78.47
391.134	53.67
391.348	90.87
391.562	-22.09
391.776	29.26
391.99	28.09
392.205	87.96
392.419	21.89
392.633	41.66
392.847	94.35
393.061	45.92
393.275	124.39
393.489	56.19
393.703	59.09
393.917	60.45
394.131	17.05
394.345	65.49
394.559	93
394.773	40.69
394.986	65.87
395.2	54.64
395.414	61.22
395.628	31.97
395.842	37.2
396.056	43.01
396.27	2.71
396.484	58.32
396.697	81.96
396.911	91.25
397.125	92.03
397.339	78.47
397.553	72.07
397.766	105.98
397.98	89.9
398.194	83.31
398.408	67.62
398.621	76.14
398.835	65.29
399.049	66.65
399.262	119.54
399.476	109.47
399.69	76.92
399.903	145.89
400.117	86.99
400.331	100.36
400.544	77.31
400.758	174.95
400.971	97.65
401.185	110.82
401.398	49.99
401.612	145.7
401.826	105.59
402.039	117.22
402.253	79.44
402.466	111.4
402.68	70.14
402.893	99.39
403.106	107.14
403.32	99.2
403.533	88.35
403.747	75.95
403.96	110.63
404.174	130.39
404.387	61.61
404.6	85.44
404.814	121.87
405.027	110.05
405.24	102.1
405.454	94.35
405.667	122.25
405.88	52.7
406.094	112.37
406.307	112.95
406.52	130.59
406.733	75.56
406.947	63.74
407.16	147.83
407.373	144.15
407.586	80.21
407.799	52.89
408.012	114.89
408.226	144.54
408.439	154.22
408.652	71.3
408.865	144.54
409.078	164.1
409.291	102.1
409.504	91.64
409.717	96.68
409.93	128.45
410.143	123.03
410.357	55.41
410.57	65.1
410.783	112.37
410.996	128.45
411.209	116.83
411.421	165.27
411.634	109.47
411.847	95.32
412.06	129.23
412.273	107.72
412.486	117.22
412.699	187.16
412.912	115.67
413.125	146.86
413.338	137.17
413.55	121.48
413.763	97.65
413.976	132.91
414.189	110.05
414.402	106.37
414.615	194.33
414.827	95.13
415.04	153.45
415.253	148.8
415.466	165.85
415.678	214.28
415.891	157.32
416.104	135.62
416.316	137.75
416.529	104.24
416.742	179.6
416.954	181.73
417.167	124
417.38	139.11
417.592	194.13
417.805	129.04
418.017	92.8
418.23	173.4
418.442	119.15
418.655	127.68
418.868	134.46
419.08	179.41
419.293	185.22
419.505	137.95
419.718	166.62
419.93	182.9
420.142	120.51
420.355	160.23
420.567	194.72
420.78	157.52
420.992	129.04
421.205	200.92
421.417	124.39
421.629	113.54
421.842	148.6
422.054	108.89
422.266	192.39
422.479	198.2
422.691	131.75
422.903	169.34
423.115	136.01
423.328	167.59
423.54	141.05
423.752	161.2
423.964	110.82
424.177	151.32
424.389	187.35
424.601	269.5
424.813	178.83
425.025	189.87
425.238	213.9
425.45	149.57
425.662	157.32
425.874	417.14
426.086	182.51
426.298	197.82
426.51	179.6
426.722	145.5
426.934	161.59
427.146	175.34
427.358	140.08
427.57	202.27
427.782	170.89
427.994	153.06
428.206	153.64
428.418	124.97
428.63	208.47
428.842	192.58
429.054	166.62
429.266	198.78
429.478	157.9
429.69	172.05
429.902	123.61
430.114	182.9
430.325	171.85
430.537	148.41
430.749	142.02
430.961	129.42
431.173	141.24
431.384	160.04
431.596	103.07
431.808	181.15
432.02	185.03
432.231	192
432.443	225.91
432.655	191.03
432.867	168.56
433.078	189.1
433.29	264.08
433.502	221.26
433.713	217
433.925	212.15
434.136	254.97
434.348	141.24
434.56	139.69
434.771	300.7
434.983	130.2
435.194	195.1
435.406	216.61
435.617	240.63
435.829	273.18
436.04	254.2
436.252	243.93
436.463	258.27
436.675	253.42
436.886	253.03
437.098	237.92
437.309	283.65
437.521	221.65
437.732	248.19
437.943	210.8
438.155	244.7
438.366	190.84
438.578	270.28
438.789	228.04
439	265.82
439.211	234.24
439.423	227.65
439.634	246.83
439.845	268.34
440.057	228.04
440.268	268.34
440.479	213.12
440.69	244.32
440.902	216.61
441.113	242.96
441.324	217.97
441.535	267.37
441.746	298.37
441.957	244.32
442.168	235.4
442.38	285.2
442.591	285.78
442.802	242.57
443.013	272.6
443.224	262.72
443.435	256.72
443.646	269.7
443.857	251.29
444.068	258.65
444.279	235.79
444.49	355.14
444.701	279.58
444.912	342.16
445.123	316.2
445.334	300.89
445.545	292.17
445.756	295.08
445.967	245.09
446.178	300.5
446.388	310.96
446.599	305.54
446.81	314.65
447.021	259.43
447.232	327.24
447.443	330.15
447.653	273.57
447.864	342.93
448.075	304.57
448.286	332.47
448.496	312.71
448.707	322.98
448.918	307.67
449.129	379.94
449.339	295.08
449.55	320.85
449.761	298.76
449.971	359.01
450.182	303.21
450.393	358.43
450.603	324.14
450.814	347.2
451.024	318.33
451.235	365.21
451.446	398.34
451.656	407.84
451.867	327.63
452.077	362.11
452.288	386.72
452.498	417.33
452.709	350.88
452.919	372.58
453.13	314.45
453.34	380.91
453.55	305.54
453.761	359.21
453.971	328.79
454.182	379.94
454.392	380.13
454.602	410.16
454.813	372.77
455.023	384.2
455.233	299.73
455.444	392.92
455.654	335.18
455.864	364.05
456.075	338.09
456.285	322.2
456.495	343.9
456.705	384.01
456.916	415.01
457.126	440.58
457.336	404.35
457.546	327.82
457.756	339.06
457.967	401.06
458.177	345.84
458.387	376.26
458.597	342.55
458.807	381.49
459.017	328.79
459.227	351.65
459.437	327.82
459.647	383.23
459.857	389.24
460.068	365.99
460.278	406.48
460.488	401.25
460.698	442.52
460.908	408.81
461.117	345.06
461.327	380.52
461.537	388.66
461.747	420.43
461.957	413.46
462.167	495.8
462.377	432.25
462.587	419.27
462.797	436.71
463.007	402.03
463.216	449.3
463.426	458.99
463.636	423.92
463.846	382.84
464.056	411.13
464.265	428.96
464.475	382.65
464.685	419.66
464.895	429.54
465.104	413.26
465.314	454.53
465.524	413.26
465.733	395.05
465.943	473.71
466.153	462.09
466.362	471.58
466.572	438.45
466.782	417.33
466.991	424.31
467.201	474.87
467.41	376.64
467.62	446.2
467.829	420.04
468.039	426.63
468.249	421.98
468.458	441.74
468.668	468.09
468.877	477.2
469.086	501.42
469.296	488.05
469.505	432.83
469.715	542.3
469.924	484.17
470.134	492.31
470.343	517.11
470.552	473.91
470.762	469.45
470.971	458.02
471.18	458.99
471.39	463.83
471.599	453.95
471.808	494.64
472.018	476.42
472.227	513.82
472.436	532.42
472.645	479.14
472.855	499.09
473.064	545.01
473.273	519.44
473.482	521.18
473.691	548.5
473.901	545.59
474.11	537.45
474.319	588.22
474.528	510.14
474.737	581.63
474.946	539.59
475.155	554.12
475.364	602.36
475.573	545.2
475.783	576.2
475.992	577.75
476.201	600.23
476.41	533.39
476.619	526.99
476.828	557.6
477.037	531.25
477.245	548.5
477.454	641.11
477.663	578.14
477.872	582.6
478.081	660.48
478.29	557.02
478.499	672.69
478.708	626.77
478.917	675.79
479.125	586.67
479.334	622.9
479.543	633.55
479.752	651.38
479.961	652.93
480.169	686.25
480.378	647.7
480.587	754.45
480.796	691.48
481.004	661.45
481.213	677.92
481.422	669.01
481.63	689.74
481.839	703.3
482.048	750.58
482.256	705.43
482.465	727.91
482.674	723.65
482.882	764.14
483.091	796.69
483.299	743.8
483.508	747.09
483.716	730.62
483.925	766.27
484.134	698.85
484.342	732.56
484.551	765.3
484.759	756.97
484.967	771.5
485.176	805.02
485.384	787.39
485.593	793.98
485.801	754.45
486.01	737.6
486.218	699.62
486.426	655.25
486.635	681.22
486.843	665.33
487.051	706.01
487.26	703.3
487.468	723.45
487.676	785.45
487.885	730.62
488.093	801.92
488.301	793.2
488.509	827.49
488.717	809.48
488.926	839.51
489.134	767.63
489.342	805.02
489.55	795.91
489.758	851.33
489.967	836.99
490.175	921.66
490.383	860.24
490.591	944.71
490.799	857.53
491.007	910.03
491.215	858.3
491.423	859.08
491.631	860.04
491.839	849.19
492.047	905.38
492.255	824.39
492.463	815.68
492.671	877.67
492.879	906.93
493.087	892.59
493.295	904.41
493.503	924.95
493.711	936.96
493.919	947.04
494.127	971.45
494.334	963.5
494.542	865.28
494.75	948.97
494.958	931.73
495.166	968.54
495.374	973
495.581	956.34
495.789	978.62
495.997	1021.63
496.205	962.73
496.412	970.29
496.62	977.65
496.828	1032.87
497.035	988.5
497.243	1034.61
497.451	1014.27
497.658	1019.89
497.866	1002.25
498.074	1076.46
498.281	989.27
498.489	1092.93
498.696	1016.98
498.904	966.41
499.112	1000.32
499.319	1097.97
499.527	1050.3
499.734	1075.68
499.942	1010.39
500.149	1042.36
500.357	1042.17
500.564	1012.91
500.771	1067.55
500.979	1041.2
501.186	1007.1
501.394	1071.23
501.601	1041.39
501.808	1057.67
502.016	1025.12
502.223	1032.87
502.43	1054.76
502.638	1040.04
502.845	1031.7
503.052	1134.39
503.26	1076.07
503.467	1164.23
503.674	1118.12
503.881	1126.64
504.089	1177.21
504.296	1130.32
504.503	1092.93
504.71	1132.65
504.917	1077.62
505.125	1153.57
505.332	1142.91
505.539	1153.96
505.746	1232.04
505.953	1226.42
506.16	1202.4
506.367	1250.83
506.574	1283.96
506.781	1307.6
506.988	1196.97
507.195	1237.66
507.402	1238.24
507.609	1272.92
507.816	1203.36
508.023	1258.39
508.23	1238.63
508.437	1199.3
508.644	1286.09
508.851	1313.22
509.058	1326.2
509.265	1321.94
509.472	1335.5
509.679	1394.59
509.885	1335.31
510.092	1338.99
510.299	1345.77
510.506	1372.12
510.713	1364.56
510.92	1378.71
511.126	1414.35
511.333	1418.23
511.54	1413.77
511.746	1483.72
511.953	1501.35
512.16	1519.56
512.367	1466.67
512.573	1475.39
512.78	1447.68
512.987	1491.08
513.193	1497.67
513.4	1439.93
513.606	1471.7
513.813	1491.08
514.02	1508.52
514.226	1560.05
514.433	1531.77
514.639	1460.27
514.846	1519.17
515.052	1510.65
515.259	1549.4
515.465	1529.25
515.672	1588.92
515.878	1679.79
516.085	1593.38
516.291	1675.72
516.497	1638.33
516.704	1573.03
516.91	1551.33
517.117	1536.22
517.323	1435.28
517.529	1490.88
517.736	1505.42
517.942	1535.45
518.148	1557.92
518.354	1596.67
518.561	1580.01
518.767	1603.26
518.973	1683.08
519.179	1690.64
519.386	1672.81
519.592	1694.13
519.798	1717.57
520.004	1807.86
520.21	1796.62
520.417	1879.35
520.623	1878.96
520.829	1888.84
521.035	1880.32
521.241	1896.4
521.447	1952
521.653	2077.75
521.859	1962.66
522.065	1974.09
522.271	2056.82
522.477	2045.2
522.683	2105.06
522.889	2060.7
523.095	2041.13
523.301	2049.26
523.507	1993.85
523.713	2085.11
523.919	2010.32
524.125	2154.86
524.331	2140.91
524.537	2228.87
524.742	2193.61
524.948	2252.12
525.154	2267.23
525.36	2324.77
525.566	2254.44
525.772	2286.41
525.977	2222.09
526.183	2271.88
526.389	2326.32
526.595	2207.36
526.8	2201.16
527.006	2120.18
527.212	2095.38
527.417	2066.7
527.623	2105.26
527.829	2185.27
528.034	2213.76
528.24	2247.08
528.446	2272.65
528.651	2344.34
528.857	2344.54
529.062	2405.76
529.268	2430.17
529.473	2482.87
529.679	2449.55
529.884	2537.31
530.09	2494.11
530.295	2502.44
530.501	2496.43
530.706	2488.3
530.912	2451.87
531.117	2513.1
531.323	2540.41
531.528	2577.81
531.733	2587.11
531.939	2538.67
532.144	2603.58
532.35	2581.68
532.555	2633.8
532.76	2572.77
532.966	2574.9
533.171	2505.35
533.376	2497.01
533.581	2479.96
533.787	2519.1
533.992	2547.19
534.197	2578.58
534.402	2583.43
534.607	2611.91
534.813	2657.82
535.018	2600.09
535.223	2615.78
535.428	2665.57
535.633	2720.02
535.838	2715.56
536.043	2757.6
536.249	2820.77
536.454	2778.72
536.659	2808.17
536.864	2725.05
537.069	2712.85
537.274	2727.57
537.479	2695.8
537.684	2714.01
537.889	2686.89
538.094	2841.3
538.299	2745.01
538.504	2829.48
538.708	2803.91
538.913	2842.08
539.118	2795.58
539.323	2827.55
539.528	2745.98
539.733	2775.04
539.938	2820.38
540.142	2815.92
540.347	2764.77
540.552	2746.56
540.757	2703.36
540.962	2697.16
541.166	2648.91
541.371	2678.94
541.576	2751.4
541.781	2677.78
541.985	2796.55
542.19	2728.93
542.395	2865.72
542.599	2828.32
542.804	2806.43
543.008	2875.79
543.213	2792.67
543.418	2769.81
543.622	2879.08
543.827	2754.89
544.031	2835.88
544.236	2860.29
544.44	2915.9
544.645	2928.68
544.849	2854.28
545.054	2915.12
545.258	2950.38
545.463	2944.96
545.667	2881.99
545.872	2964.91
546.076	2910.28
546.281	2912.02
546.485	2892.65
546.689	2890.51
546.894	2980.8
547.098	2923.84
547.302	2889.74
547.507	2893.23
547.711	2949.03
547.915	2995.72
548.119	2898.07
548.324	2885.67
548.528	2910.86
548.732	2898.85
548.936	2982.93
549.141	3001.14
549.345	2921.71
549.549	2973.83
549.753	2973.44
549.957	3031.95
550.161	3009.28
550.366	2986.42
550.57	2958.91
550.774	3017.42
550.978	2998.04
551.182	3021.1
551.386	2980.22
551.59	2960.85
551.794	2966.08
551.998	3012.19
552.202	2989.71
552.406	2963.56
552.61	3066.63
552.814	2993.78
553.018	3109.45
553.222	3019.94
553.426	2987
553.63	3074.57
553.833	3042.41
554.037	2951.93
554.241	2996.11
554.445	3013.16
554.649	3001.14
554.853	2995.72
555.056	3059.66
555.26	3104.8
555.464	3008.7
555.668	3049.97
555.871	3024.2
556.075	3040.48
556.279	2989.33
556.483	2958.52
556.686	2939.92
556.89	2945.35
557.094	3000.76
557.297	2912.8
557.501	2971.31
557.704	2847.31
557.908	2986.42
558.112	2899.81
558.315	2967.63
558.519	2900.4
558.722	2871.72
558.926	2887.61
559.129	2775.04
559.333	2775.04
559.536	2795.19
559.74	2780.27
559.943	2751.21
560.147	2794.03
560.35	2749.47
560.553	2766.9
560.757	2760.12
560.96	2849.25
561.164	2767.87
561.367	2893.42
561.57	2822.32
561.774	2800.23
561.977	2784.73
562.18	2773.88
562.384	2794.8
562.587	2760.12
562.79	2766.71
562.993	2754.5
563.197	2778.72
563.4	2833.36
563.603	2812.05
563.806	2847.7
564.009	2742.3
564.212	2771.75
564.416	2720.99
564.619	2731.25
564.822	2692.31
565.025	2715.17
565.228	2710.52
565.431	2752.37
565.634	2600.48
565.837	2618.88
566.04	2586.53
566.243	2584.98
566.446	2531.5
566.649	2634.77
566.852	2549.13
567.055	2627.6
567.258	2595.44
567.461	2641.74
567.664	2659.96
567.867	2557.27
568.07	2564.05
568.273	2538.28
568.475	2592.92
568.678	2537.51
568.881	2525.5
569.084	2489.26
569.287	2370.5
569.489	2439.47
569.692	2482.29
569.895	2452.26
570.098	2363.52
570.3	2358.68
570.503	2288.74
570.706	2343.37
570.909	2293.97
571.111	2251.73
571.314	2283.89
571.516	2275.17
571.719	2259.48
571.922	2256.19
572.124	2213.76
572.327	2262.58
572.529	2223.83
572.732	2250.76
572.935	2269.36
573.137	2352.48
573.34	2229.06
573.542	2304.43
573.745	2258.12
573.947	2262
574.15	2226.35
574.352	2200.77
574.554	2255.02
574.757	2143.81
574.959	2160.86
575.162	2182.56
575.364	2139.94
575.566	2253.28
575.769	2112.23
575.971	2154.86
576.173	2011.68
576.376	2100.22
576.578	2180.43
576.78	2134.13
576.982	2069.61
577.185	2114.94
577.387	2080.85
577.589	2061.66
577.791	2134.13
577.993	2141.68
578.196	2099.83
578.398	2066.7
578.6	2077.36
578.802	2026.01
579.004	1993.47
579.206	2014
579.408	2023.69
579.61	2003.93
579.812	2078.71
580.014	2035.12
580.216	1986.68
580.418	2035.12
580.62	2013.42
580.822	1989.59
581.024	2055.08
581.226	2095.38
581.428	2039.19
581.63	2132.96
581.832	2028.53
582.034	2098.28
582.236	2068.45
582.438	2078.71
582.64	2114.17
582.841	2130.64
583.043	2183.73
583.245	2089.76
583.447	2134.13
583.649	2119.98
583.85	2089.56
584.052	2126.76
584.254	2064.38
584.456	2084.33
584.657	1991.72
584.859	2082.4
585.061	2054.69
585.262	2043.65
585.464	2013.81
585.666	2033.18
585.867	1993.85
586.069	2074.84
586.27	2019.62
586.472	2009.16
586.674	2017.68
586.875	2026.21
587.077	2003.54
587.278	1992.11
587.48	1974.48
587.681	2094.21
587.883	1996.57
588.084	1924.68
588.285	1949.1
588.487	1880.7
588.688	1927.78
588.89	1818.51
589.091	1765.04
589.292	1760.39
589.494	1713.11
589.695	1699.36
589.896	1624.18
590.098	1618.95
590.299	1656.54
590.5	1639.1
590.702	1678.82
590.903	1744.89
591.104	1811.92
591.305	1778.02
591.507	1856.49
591.708	1815.99
591.909	1771.62
592.11	1828.78
592.311	1825.49
592.512	1752.25
592.714	1719.31
592.915	1750.51
593.116	1710.98
593.317	1758.64
593.518	1746.83
593.719	1752.06
593.92	1815.99
594.121	1818.51
594.322	1795.65
594.523	1752.83
594.724	1721.25
594.925	1754.19
595.126	1739.85
595.327	1741.21
595.528	1748.96
595.729	1745.47
595.929	1755.54
596.13	1801.07
596.331	1787.51
596.532	1787.51
596.733	1897.56
596.934	1832.66
597.135	1819.29
597.335	1770.46
597.536	1778.99
597.737	1776.27
597.938	1739.08
598.138	1805.14
598.339	1772.59
598.54	1798.17
598.74	1778.21
598.941	1773.76
599.142	1807.08
599.342	1820.26
599.543	1753.8
599.744	1766.59
599.944	1791
600.145	1773.56
600.345	1790.03
600.546	1841.76
600.746	1832.46
600.947	1831.3
601.147	1774.92
601.348	1817.35
601.548	1776.47
601.749	1773.37
601.949	1751.09
602.15	1745.47
602.35	1725.71
602.551	1794.49
602.751	1727.06
602.951	1756.51
603.152	1708.46
603.352	1767.94
603.552	1732.68
603.753	1768.91
603.953	1803.01
604.153	1792.16
604.354	1749.54
604.554	1771.43
604.754	1749.92
604.954	1754.38
605.155	1779.18
605.355	1738.69
605.555	1797.59
605.755	1798.94
605.955	1773.56
606.155	1763.29
606.356	1724.93
606.556	1771.04
606.756	1759.03
606.956	1664.48
607.156	1756.51
607.356	1722.41
607.556	1750.51
607.756	1735.59
607.956	1782.47
608.156	1757.48
608.356	1708.46
608.556	1729.78
608.756	1707.11
608.956	1677.46
609.156	1708.66
609.356	1682.5
609.556	1646.27
609.755	1678.43
609.955	1657.7
610.155	1688.51
610.355	1685.02
610.555	1632.51
610.755	1621.47
610.954	1572.45
611.154	1629.61
611.354	1674.94
611.554	1594.54
611.753	1604.23
611.953	1596.28
612.153	1640.85
612.352	1640.46
612.552	1588.92
612.752	1543.2
612.951	1612.17
613.151	1598.22
613.351	1571.1
613.55	1601.51
613.75	1604.23
613.949	1572.07
614.149	1584.27
614.348	1577.3
614.548	1561.02
614.747	1528.47
614.947	1552.11
615.146	1461.82
615.346	1567.8
615.545	1582.14
615.745	1580.78
615.944	1568
616.144	1557.73
616.343	1536.22
616.542	1500.38
616.742	1496.5
616.941	1502.9
617.14	1443.22
617.34	1475.77
617.539	1521.11
617.738	1464.54
617.938	1550.37
618.137	1462.4
618.336	1473.64
618.535	1503.87
618.734	1506.97
618.934	1477.9
619.133	1485.07
619.332	1540.87
619.531	1453.69
619.73	1506.97
619.929	1506.58
620.128	1507.93
620.328	1555.4
620.527	1466.09
620.726	1485.07
620.925	1506.19
621.124	1476.16
621.323	1459.89
621.522	1429.85
621.721	1445.74
621.92	1421.91
622.119	1471.9
622.318	1391.11
622.517	1433.73
622.715	1395.37
622.914	1360.69
623.113	1426.17
623.312	1353.32
623.511	1450
623.71	1406.22
623.909	1375.99
624.107	1455.43
624.306	1382.97
624.505	1411.06
624.704	1371.54
624.902	1360.11
625.101	1410.29
625.3	1392.46
625.499	1350.22
625.697	1372.31
625.896	1330.46
626.095	1373.28
626.293	1340.92
626.492	1364.37
626.69	1377.35
626.889	1331.43
627.088	1394.21
627.286	1322.91
627.485	1329.49
627.683	1336.86
627.882	1320.19
628.08	1247.34
628.279	1275.63
628.477	1326.59
628.676	1230.88
628.874	1304.69
629.073	1255.87
629.271	1269.24
629.469	1284.74
629.668	1252.58
629.866	1267.88
630.065	1238.24
630.263	1288.61
630.461	1215.57
630.66	1290.16
630.858	1274.86
631.056	1348.48
631.254	1321.36
631.453	1270.4
631.651	1318.64
631.849	1267.3
632.047	1286.29
632.245	1289.78
632.444	1288.61
632.642	1320.39
632.84	1323.68
633.038	1265.94
633.236	1265.36
633.434	1292.29
633.632	1269.24
633.83	1285.71
634.028	1340.73
634.227	1270.98
634.425	1368.82
634.623	1291.71
634.821	1296.75
635.019	1316.12
635.216	1315.16
635.414	1320.39
635.612	1275.63
635.81	1291.13
636.008	1364.17
636.206	1300.04
636.404	1316.9
636.602	1235.33
636.8	1321.16
636.997	1334.72
637.195	1324.07
637.393	1273.31
637.591	1347.51
637.789	1346.74
637.986	1272.92
638.184	1293.84
638.382	1333.56
638.58	1313.22
638.777	1346.93
638.975	1262.46
639.173	1284.16
639.37	1297.91
639.568	1263.23
639.765	1282.41
639.963	1258.58
640.161	1289.78
640.358	1271.95
640.556	1231.26
640.753	1239.21
640.951	1210.92
641.148	1280.28
641.346	1243.28
641.543	1226.23
641.741	1258.97
641.938	1187.86
642.136	1189.61
642.333	1174.3
642.531	1282.61
642.728	1223.9
642.925	1205.69
643.123	1192.13
643.32	1157.06
643.517	1180.89
643.715	1205.11
643.912	1176.24
644.109	1187.67
644.306	1203.17
644.504	1129.16
644.701	1174.3
644.898	1133.81
645.095	1104.36
645.293	1158.22
645.49	1136.52
645.687	1138.85
645.884	1156.28
646.081	1064.64
646.278	1103
646.475	1071.42
646.672	1094.67
646.87	1088.08
647.067	1084.21
647.264	1078.98
647.461	1047.4
647.658	988.11
647.855	1109.59
648.052	1007.1
648.249	966.8
648.446	1000.9
648.642	1008.84
648.839	1003.22
649.036	970.67
649.233	983.65
649.43	969.7
649.627	940.06
649.824	973.97
650.021	960.02
650.217	988.3
650.414	965.25
650.611	995.47
650.808	988.69
651.004	1008.65
651.201	1049.72
651.398	1025.89
651.595	1027.64
651.791	949.17
651.988	1002.25
652.185	984.82
652.381	1025.89
652.578	965.83
652.775	998.19
652.971	985.01
653.168	977.84
653.364	1013.1
653.561	921.27
653.757	985.01
653.954	979
654.15	951.88
654.347	1033.64
654.543	946.26
654.74	937.74
654.936	923.01
655.133	969.7
655.329	964.28
655.525	932.89
655.722	961.18
655.918	907.32
656.115	922.24
656.311	844.93
656.507	788.16
656.704	780.22
656.9	802.31
657.096	799.4
657.292	849.39
657.489	863.53
657.685	870.7
657.881	837.76
658.077	849.39
658.273	890.27
658.47	940.26
658.666	913.71
658.862	929.21
659.058	896.27
659.254	930.37
659.45	890.46
659.646	929.99
659.842	907.9
660.038	958.08
660.234	870.51
660.43	904.41
660.626	955.37
660.822	912.16
661.018	914.87
661.214	915.07
661.41	896.08
661.606	936.57
661.802	926.69
661.998	932.12
662.194	856.17
662.39	895.11
662.586	914.49
662.781	918.75
662.977	933.28
663.173	897.44
663.369	898.6
663.564	896.47
663.76	890.27
663.956	849.58
664.152	907.32
664.347	810.25
664.543	851.33
664.739	866.63
664.934	815.87
665.13	831.56
665.326	879.03
665.521	847.64
665.717	823.04
665.912	825.56
666.108	786.03
666.304	852.68
666.499	821.88
666.695	778.86
666.89	827.3
667.086	876.9
667.281	825.36
667.477	920.88
667.672	842.61
667.867	858.49
668.063	823.04
668.258	812.58
668.454	821.68
668.649	865.28
668.844	783.51
669.04	818.97
669.235	780.41
669.43	773.25
669.626	757.36
669.821	802.69
670.016	782.93
670.211	830.59
670.407	789.13
670.602	805.21
670.797	805.21
670.992	854.81
671.187	792.81
671.382	851.91
671.578	787.19
671.773	845.13
671.968	780.8
672.163	802.11
672.358	835.83
672.553	818.78
672.748	782.55
672.943	855.39
673.138	793.01
673.333	831.37
673.528	787.97
673.723	804.05
673.918	787.97
674.113	733.91
674.308	852.68
674.503	810.83
674.698	791.84
674.892	791.65
675.087	766.85
675.282	790.88
675.477	752.71
675.672	792.81
675.867	758.33
676.061	760.46
676.256	720.35
676.451	761.81
676.646	755.03
676.84	768.6
677.035	715.31
677.23	768.4
677.424	795.91
677.619	786.03
677.814	796.88
678.008	827.69
678.203	706.21
678.397	735.08
678.592	765.3
678.787	789.52
678.981	773.44
679.176	768.01
679.37	766.85
679.565	753.29
679.759	747.86
679.954	775.18
680.148	829.04
680.342	827.11
680.537	789.91
680.731	756.97
680.926	787.58
681.12	805.6
681.314	750.38
681.509	740.89
681.703	759.88
681.897	784.29
682.092	769.56
682.286	782.55
682.48	816.26
682.674	782.74
682.869	768.21
683.063	787.19
683.257	829.04
683.451	750.77
683.645	769.56
683.839	798.82
684.034	784.1
684.228	807.93
684.422	735.08
684.616	763.75
684.81	814.71
685.004	803.47
685.198	822.46
685.392	820.71
685.586	760.46
685.78	819.55
685.974	825.56
686.168	800.95
686.362	867.41
686.556	769.56
686.75	740.11
686.944	741.08
687.138	710.86
687.331	605.46
687.525	633.55
687.719	572.91
687.913	638.98
688.107	622.9
688.301	635.68
688.494	669.4
688.688	627.35
688.882	614.57
689.076	628.13
689.269	680.05
689.463	743.6
689.657	699.43
689.85	681.8
690.044	711.44
690.238	714.54
690.431	743.6
690.625	740.11
690.818	777.7
691.012	806.18
691.205	826.72
691.399	769.56
691.593	819.55
691.786	879.61
691.98	898.02
692.173	938.51
692.366	908.29
692.56	948.39
692.753	969.51
692.947	922.24
693.14	1003.61
693.333	994.31
693.527	938.71
693.72	1027.44
693.914	1010
694.107	976.1
694.3	1033.25
694.493	1001.87
694.687	1067.93
694.88	1007.29
695.073	1125.87
695.266	1097
695.46	1089.63
695.653	1159.19
695.846	1190.77
696.039	1133.81
696.232	1146.21
696.425	1217.7
696.618	1269.63
696.812	1240.18
697.005	1341.7
697.198	1415.32
697.391	1391.49
697.584	1403.31
697.777	1451.17
697.97	1475.19
698.163	1486.82
698.356	1469.77
698.549	1518.78
698.742	1520.33
698.935	1475
699.127	1507.16
699.32	1491.27
699.513	1504.45
699.706	1553.85
699.899	1561.41
700.092	1548.23
700.285	1593.96
700.477	1529.05
700.67	1608.49
700.863	1603.45
701.056	1711.95
701.248	1662.93
701.441	1726.87
701.634	1692.96
701.826	1761.74
702.019	1681.34
702.212	1756.32
702.404	1734.43
702.597	1726.87
702.79	1758.45
702.982	1789.06
703.175	1853.77
703.367	1864.04
703.56	1931.08
703.752	1974.48
703.945	1984.36
704.137	2009.35
704.33	2008.19
704.522	1991.33
704.715	2061.86
704.907	2061.86
705.1	2129.67
705.292	2096.15
705.484	2090.15
705.677	2161.44
705.869	2222.47
706.061	2237.97
706.254	2253.28
706.446	2222.28
706.638	2201.36
706.831	2304.82
707.023	2278.08
707.215	2392.58
707.407	2385.42
707.599	2369.53
707.792	2452.84
707.984	2433.47
708.176	2434.24
708.368	2436.37
708.56	2496.05
708.752	2496.05
708.944	2472.6
709.136	2519.1
709.329	2494.88
709.521	2636.12
709.713	2582.46
709.905	2647.56
710.097	2676.23
710.289	2639.61
710.481	2667.71
710.672	2657.44
710.864	2720.6
711.056	2724.67
711.248	2726.22
711.44	2767.87
711.632	2737.45
711.824	2806.82
712.016	2850.8
712.207	2882.38
712.399	2825.03
712.591	2881.41
712.783	2887.22
712.975	2896.52
713.166	2916.67
713.358	2861.65
713.55	2954.45
713.741	2956
713.933	2980.22
714.125	3009.48
714.316	2927.52
714.508	3019.74
714.7	3038.93
714.891	3008.51
715.083	3054.04
715.274	3024.2
715.466	3038.73
715.657	3043.96
715.849	2970.34
716.04	2976.54
716.232	2981.19
716.423	2977.7
716.615	2891.29
716.806	2805.27
716.998	2753.54
717.189	2643.1
717.381	2563.08
717.572	2465.82
717.763	2465.63
717.955	2465.24
718.146	2391.81
718.337	2348.02
718.528	2325.35
718.72	2210.85
718.911	2268.97
719.102	2162.03
719.293	2266.46
719.485	2216.66
719.676	2220.92
719.867	2164.35
720.058	2180.63
720.249	2193.99
720.44	2205.04
720.632	2315.86
720.823	2339.11
721.014	2459.62
721.205	2538.48
721.396	2648.52
721.587	2757.22
721.778	2780.66
721.969	2881.99
722.16	2970.15
722.351	2980.41
722.542	3112.74
722.733	3082.71
722.924	3018.78
723.115	3048.61
723.305	2996.49
723.496	3036.79
723.687	2843.63
723.878	2882.38
724.069	2866.68
724.26	2873.47
724.45	2785.7
724.641	2770
724.832	2845.57
725.023	2781.05
725.213	2754.5
725.404	2723.31
725.595	2749.27
725.785	2725.83
725.976	2831.62
726.167	2782.99
726.357	2804.3
726.548	2860.1
726.739	2805.85
726.929	2912.8
727.12	2899.04
727.31	2940.31
727.501	2880.63
727.691	2868.62
727.882	2848.28
728.072	2899.62
728.263	2972.28
728.453	3014.51
728.644	2994.17
728.834	2980.61
729.024	2950.19
729.215	2928.49
729.405	2933.91
729.596	3005.41
729.786	3029.63
729.976	3069.15
730.167	3065.47
730.357	3009.09
730.547	3075.16
730.737	3069.34
730.928	3113.71
731.118	3150.52
731.308	3101.51
731.498	3133.86
731.688	3197.41
731.879	3245.65
732.069	3330.9
732.259	3355.12
732.449	3386.7
732.639	3492.68
732.829	3498.88
733.019	3604.47
733.209	3629.08
733.399	3645.94
733.589	3761.02
733.779	3758.31
733.969	3743.78
734.159	3881.34
734.349	3910.4
734.539	3958.06
734.729	3989.26
734.919	4034.4
735.109	3986.74
735.299	3950.89
735.488	3980.92
735.678	3987.9
735.868	3967.36
736.058	3937.52
736.248	3941.21
736.437	3952.25
736.627	3914.66
736.817	4091.94
737.007	3986.35
737.196	4028.2
737.386	4068.5
737.576	4030.72
737.765	4084.77
737.955	4031.49
738.144	4191.53
738.334	4122.17
738.524	4050.87
738.713	4110.73
738.903	4076.44
739.092	4131.66
739.282	4135.15
739.471	4168.08
739.661	4129.72
739.85	4251.01
740.04	4219.04
740.229	4222.33
740.419	4248.49
740.608	4283.94
740.797	4247.13
740.987	4286.27
741.176	4287.43
741.365	4307.97
741.555	4206.25
741.744	4323.66
741.933	4239.38
742.123	4288.79
742.312	4309.13
742.501	4369
742.69	4379.66
742.88	4293.83
743.069	4440.49
743.258	4379.07
743.447	4449.79
743.636	4401.16
743.825	4395.16
744.014	4447.08
744.204	4435.65
744.393	4361.83
744.582	4482.54
744.771	4491.45
744.96	4384.31
745.149	4422.09
745.338	4454.06
745.527	4518.38
745.716	4456.96
745.905	4417.82
746.094	4470.33
746.283	4487.38
746.471	4493.77
746.66	4535.62
746.849	4578.63
747.038	4541.82
747.227	4465.1
747.416	4494.94
747.604	4442.62
747.793	4400
747.982	4480.99
748.171	4527.68
748.359	4454.06
748.548	4502.49
748.737	4483.31
748.926	4471.49
749.114	4357.18
749.303	4454.83
749.491	4441.46
749.68	4354.08
749.869	4466.45
750.057	4430.61
750.246	4416.47
750.434	4423.64
750.623	4418.02
750.811	4380.24
751	4465.49
751.188	4406.78
751.377	4362.61
751.565	4355.24
751.754	4376.94
751.942	4345.94
752.131	4438.56
752.319	4342.65
752.507	4297.31
752.696	4313.98
752.884	4369.77
753.072	4352.14
753.261	4360.67
753.449	4330.25
753.637	4282.59
753.825	4432.36
754.014	4315.72
754.202	4324.63
754.39	4385.86
754.578	4351.18
754.766	4276
754.955	4261.66
755.143	4328.12
755.331	4311.07
755.519	4327.54
755.707	4295.76
755.895	4288.98
756.083	4307.97
756.271	4243.26
756.459	4259.73
756.647	4325.21
756.835	4206.25
757.023	4251.01
757.211	4189.98
757.399	4204.31
757.587	4155.68
757.775	4145.03
757.963	4170.41
758.151	4171.77
758.339	4100.85
758.526	4151.81
758.714	4155.1
758.902	4017.16
759.09	3887.73
759.278	3641.29
759.465	3341.75
759.653	2962.59
759.841	2630.31
760.028	2251.54
760.216	1968.86
760.404	1806.89
760.591	1523.24
760.779	1284.93
760.967	1102.03
761.154	902.47
761.342	900.34
761.529	887.17
761.717	945.29
761.905	934.44
762.092	1010.2
762.28	961.37
762.467	949.94
762.655	847.26
762.842	906.16
763.029	899.57
763.217	917.59
763.404	884.46
763.592	919.33
763.779	876.9
763.966	943.74
764.154	962.92
764.341	1043.14
764.528	1049.53
764.716	1102.81
764.903	1152.99
765.09	1243.66
765.277	1365.72
765.465	1499.6
765.652	1537.58
765.839	1680.56
766.026	1785.38
766.213	1886.32
766.4	2018.07
766.588	2238.36
766.775	2265.29
766.962	2427.27
767.149	2516.2
767.336	2671.39
767.523	2682.82
767.71	2833.55
767.897	2970.73
768.084	3062.95
768.271	3149.17
768.458	3166.02
768.645	3268.32
768.832	3263.28
769.019	3359.19
769.206	3386.9
769.392	3475.05
769.579	3521.55
769.766	3500.62
769.953	3545.57
770.14	3603.7
770.327	3616.68
770.513	3696.5
770.7	3692.24
770.887	3639.15
771.073	3663.57
771.26	3719.37
771.447	3635.67
771.634	3642.84
771.82	3754.63
772.007	3642.06
772.193	3696.89
772.38	3721.5
772.567	3695.73
772.753	3664.34
772.94	3733.9
773.126	3705.22
773.313	3751.53
773.499	3724.21
773.686	3720.14
773.872	3680.81
774.059	3697.67
774.245	3668.6
774.432	3665.7
774.618	3620.36
774.804	3666.86
774.991	3638.38
775.177	3676.74
775.363	3638.77
775.55	3635.67
775.736	3594.79
775.922	3643.03
776.109	3652.14
776.295	3621.91
776.481	3675
776.667	3624.62
776.853	3606.22
777.04	3617.84
777.226	3625.79
777.412	3633.34
777.598	3599.24
777.784	3578.12
777.97	3564.95
778.156	3578.51
778.342	3551.58
778.528	3559.72
778.715	3484.74
778.901	3500.24
779.087	3521.16
779.272	3463.04
779.458	3499.07
779.644	3502.76
779.83	3472.34
780.016	3567.47
780.202	3471.18
780.388	3459.74
780.574	3430.49
780.76	3444.24
780.946	3492.49
781.131	3476.99
781.317	3449.28
781.503	3412.47
781.689	3403.17
781.874	3529.49
782.06	3417.7
782.246	3409.95
782.432	3392.51
782.617	3408.79
782.803	3444.63
782.989	3322.38
783.174	3342.91
783.36	3317.92
783.545	3364.42
783.731	3332.84
783.916	3263.67
784.102	3326.25
784.288	3303.39
784.473	3295.64
784.659	3268.13
784.844	3268.13
785.029	3281.3
785.215	3248.56
785.4	3237.32
785.586	3294.48
785.771	3176.29
785.956	3247.01
786.142	3224.73
786.327	3213.1
786.512	3175.13
786.698	3193.15
786.883	3105.77
787.068	3145.87
787.254	3141.22
787.439	3170.29
787.624	3094.14
787.809	3076.12
787.994	3104.41
788.18	3141.42
788.365	3074.96
788.55	3053.07
788.735	3044.35
788.92	3056.75
789.105	3023.04
789.29	3064.31
789.475	2973.63
789.66	2981.96
789.845	2987.58
790.03	2927.71
790.215	2971.89
790.4	3043.58
790.585	3017.42
790.77	2972.86
790.955	2892.45
791.14	2939.15
791.325	3030.4
791.51	2893.81
791.695	2978.28
791.879	2908.34
792.064	2879.67
792.249	2969.56
792.434	2936.63
792.618	2924.03
792.803	2972.08
792.988	2913.76
793.173	3003.86
793.357	2965.88
793.542	2917.45
793.727	2966.85
793.911	3007.15
794.096	2958.91
794.281	2977.31
794.465	3067.79
794.65	2967.43
794.834	3053.07
795.019	3066.05
795.203	3054.81
795.388	3014.32
795.572	3065.08
795.757	3017.23
795.941	3018
796.126	2941.47
796.31	2941.86
796.494	2960.65
796.679	2956.97
796.863	2920.93
797.048	3018.39
797.232	2991.26
797.416	2980.03
797.601	3024.39
797.785	3041.06
797.969	3048.81
798.153	2983.9
798.338	3059.46
798.522	3039.12
798.706	3066.05
798.89	3063.53
799.074	3141.81
799.258	3097.24
799.443	3023.43
799.627	3030.98
799.811	3081.55
799.995	3047.26
800.179	2967.24
800.363	2987.19
800.547	3020.33
800.731	3053.65
800.915	2971.11
801.099	2960.65
801.283	3021.29
801.467	2990.68
801.651	3036.02
801.835	3032.14
802.019	2968.98
802.202	3020.52
802.386	2975.18
802.57	2918.41
802.754	3019.16
802.938	2909.7
803.121	2932.75
803.305	2980.99
803.489	2955.03
803.673	2979.64
803.856	2962.01
804.04	2941.08
804.224	2975.18
804.407	2945.35
804.591	2941.08
804.775	2940.5
804.958	2967.43
805.142	3045.13
805.326	2957.36
805.509	3012.77
805.693	3003.08
805.876	3027.69
806.06	3001.73
806.243	3041.25
806.427	3062.56
806.61	3095.69
806.794	3005.79
806.977	3060.62
807.16	3009.48
807.344	3043.77
807.527	3030.01
807.71	3020.33
807.894	3049.78
808.077	3040.86
808.26	2976.73
808.444	2938.56
808.627	3034.28
808.81	2976.73
808.993	2901.75
809.177	2878.7
809.36	2918.22
809.543	2942.05
809.726	2805.07
809.909	2806.62
810.092	2824.45
810.276	2800.03
810.459	2778.53
810.642	2786.47
810.825	2727.19
811.008	2759.15
811.191	2675.65
811.374	2660.34
811.557	2668.87
811.74	2749.85
811.923	2620.24
812.106	2592.53
812.289	2565.6
812.472	2530.53
812.654	2542.93
812.837	2548.36
813.02	2452.65
813.203	2460.59
813.386	2289.51
813.569	2309.27
813.751	2236.42
813.934	2269.75
814.117	2221.89
814.3	2199.61
814.482	2142.07
814.665	2089.95
814.848	2039.19
815.03	1960.92
815.213	2013.61
815.396	1968.86
815.578	1950.84
815.761	1927.01
815.943	1958.4
816.126	1851.25
816.309	1853.39
816.491	1795.26
816.674	1714.08
816.856	1731.71
817.039	1745.08
817.221	1830.91
817.403	1786.16
817.586	1808.63
817.768	1781.31
817.951	1748.96
818.133	1691.8
818.315	1710.21
818.498	1794.1
818.68	1833.24
818.862	1792.36
819.045	1855.71
819.227	1819.48
819.409	1785.57
819.591	1837.3
819.774	1822
819.956	1800.88
820.138	1896.98
820.32	1883.03
820.502	1927.59
820.684	2012.06
820.866	2007.42
821.048	2076.97
821.231	2102.93
821.413	2096.73
821.595	2055.08
821.777	2065.15
821.959	2083.75
822.141	2142.46
822.323	1990.56
822.505	1904.92
822.686	1850.09
822.868	1801.27
823.05	1657.12
823.232	1622.05
823.414	1537.19
823.596	1616.24
823.778	1606.16
823.96	1611.59
824.141	1656.73
824.323	1650.73
824.505	1768.72
824.687	1807.86
824.868	1845.05
825.05	1985.13
825.232	1983.2
825.413	2048.3
825.595	2023.88
825.777	1973.51
825.958	1998.7
826.14	2007.61
826.321	2021.56
826.503	2015.36
826.685	2037.06
826.866	2065.73
827.048	2066.12
827.229	1973.9
827.411	1932.82
827.592	1923.52
827.773	1901.63
827.955	1840.4
828.136	1829.75
828.318	1803.21
828.499	1846.8
828.68	1743.14
828.862	1808.44
829.043	1804.17
829.224	1755.74
829.406	1732.1
829.587	1811.34
829.768	1806.69
829.949	1767.17
830.131	1786.93
830.312	1890.39
830.493	1813.28
830.674	1818.71
830.855	1817.54
831.036	1811.34
831.218	1873.34
831.399	1855.13
831.58	1808.63
831.761	1820.45
831.942	1807.66
832.123	1802.82
832.304	1755.54
832.485	1782.86
832.666	1831.69
832.847	1831.69
833.028	1830.72
833.209	1859.2
833.389	1843.12
833.57	1774.72
833.751	1784.41
833.932	1868.5
834.113	1800.88
834.294	1790.03
834.475	1835.37
834.655	1899.69
834.836	1870.24
835.017	1869.08
835.198	1808.63
835.378	1877.99
835.559	1889.62
835.74	1850.29
835.92	1882.06
836.101	1851.64
836.281	1911.9
836.462	1903.18
836.643	1904.54
836.823	1911.9
837.004	1876.25
837.184	1963.63
837.365	1936.31
837.545	1951.81
837.726	1911.7
837.906	1958.4
838.087	1921.97
838.267	1879.35
838.448	1906.09
838.628	1910.93
838.808	1911.7
838.989	1946.97
839.169	1853.58
839.349	1939.22
839.53	1931.85
839.71	1942.9
839.89	1914.22
840.07	1983.39
840.251	1902.4
840.431	1971.18
840.611	1932.05
840.791	1891.55
840.971	1923.52
841.151	1908.41
841.332	1886.9
841.512	1932.63
841.692	1850.09
841.872	1928.75
842.052	1911.32
842.232	1912.67
842.412	1896.2
842.592	1865.79
842.772	1931.66
842.952	1941.73
843.132	1887.68
843.312	1891.94
843.492	1879.54
843.672	1907.64
843.851	1813.86
844.031	1904.73
844.211	1877.41
844.391	1827.62
844.571	1871.99
844.751	1897.37
844.93	1884.19
845.11	1871.79
845.29	1859.78
845.47	1911.9
845.649	1882.45
845.829	1932.63
846.009	1833.43
846.188	1875.86
846.368	1874.12
846.547	1858.81
846.727	1888.45
846.907	1823.16
847.086	1835.17
847.266	1897.95
847.445	1840.99
847.625	1879.74
847.804	1810.76
847.984	1803.21
848.163	1779.18
848.343	1791.39
848.522	1820.06
848.701	1841.37
848.881	1816.77
849.06	1785.96
849.239	1822.97
849.419	1801.07
849.598	1758.84
849.777	1742.76
849.957	1713.11
850.136	1675.33
850.315	1661.77
850.494	1641.43
850.674	1672.43
850.853	1722.8
851.032	1678.82
851.211	1707.69
851.39	1692.38
851.569	1628.45
851.748	1678.04
851.927	1695.68
852.107	1706.14
852.286	1657.9
852.465	1638.33
852.644	1733.65
852.823	1677.08
853.002	1680.37
853.181	1687.93
853.359	1681.34
853.538	1593.96
853.717	1669.52
853.896	1577.3
854.075	1553.08
854.254	1486.62
854.433	1426.95
854.611	1478.68
854.79	1399.63
854.969	1472.48
855.148	1478.49
855.327	1444.58
855.505	1487.4
855.684	1462.4
855.863	1532.93
856.041	1481.78
856.22	1561.02
856.399	1547.46
856.577	1602.48
856.756	1588.73
856.934	1685.6
857.113	1662.16
857.291	1606.75
857.47	1574.58
857.648	1607.33
857.827	1617.4
858.005	1668.94
858.184	1602.1
858.362	1665.64
858.541	1606.75
858.719	1574.39
858.898	1580.98
859.076	1605
859.254	1647.82
859.433	1580.2
859.611	1561.99
859.789	1544.36
859.967	1569.35
860.146	1630.19
860.324	1529.83
860.502	1552.69
860.68	1520.53
860.859	1511.62
861.037	1507.55
861.215	1553.47
861.393	1547.65
861.571	1560.44
861.749	1502.7
861.927	1537.97
862.105	1538.35
862.283	1521.3
862.461	1505.42
862.639	1485.65
862.817	1497.28
862.995	1524.4
863.173	1498.44
863.351	1512.97
863.529	1514.52
863.707	1559.08
863.885	1528.08
864.063	1425.4
864.241	1479.07
864.418	1527.31
864.596	1486.62
864.774	1413.77
864.952	1462.79
865.129	1524.98
865.307	1447.87
865.485	1396.53
865.663	1475.39
865.84	1371.15
866.018	1413
866.196	1230.1
866.373	1308.38
866.551	1287.45
866.728	1208.4
866.906	1208.4
867.084	1299.08
867.261	1306.63
867.439	1312.06
867.616	1369.02
867.794	1356.81
867.971	1355.26
868.149	1341.12
868.326	1428.11
868.503	1403.31
868.681	1393.43
868.858	1348.87
869.035	1352.94
869.213	1373.47
869.39	1364.17
869.567	1428.89
869.745	1352.55
869.922	1403.12
870.099	1353.32
870.276	1435.86
870.454	1407.57
870.631	1383.16
870.808	1395.17
870.985	1386.65
871.162	1450
871.339	1369.41
871.517	1321.74
871.694	1344.22
871.871	1375.99
872.048	1336.27
872.225	1334.34
872.402	1342.86
872.579	1287.06
872.756	1332.98
872.933	1316.51
873.11	1318.64
873.287	1336.08
873.463	1309.15
873.64	1275.05
873.817	1350.42
873.994	1288.61
874.171	1243.66
874.348	1311.28
874.524	1239.79
874.701	1304.5
874.878	1237.46
875.055	1301.59
875.231	1284.16
875.408	1296.94
875.585	1214.99
875.762	1256.06
875.938	1232.23
876.115	1232.62
876.291	1205.88
876.468	1246.76
876.645	1238.82
876.821	1227.78
876.998	1228.36
877.174	1253.35
877.351	1223.51
877.527	1205.11
877.704	1213.05
877.88	1223.13
878.057	1190.58
878.233	1274.66
878.409	1192.51
878.586	1224.68
878.762	1231.84
878.938	1186.51
879.115	1133.03
879.291	1241.53
879.467	1159.77
879.644	1158.22
879.82	1178.95
879.996	1144.66
880.172	1128.77
880.349	1169.07
880.525	1152.99
880.701	1150.86
880.877	1124.51
881.053	1151.25
881.229	1134
881.405	1194.84
881.581	1100.68
881.757	1140.98
881.933	1164.03
882.109	1171.59
882.285	1171.98
882.461	1099.9
882.637	1141.95
882.813	1099.71
882.989	1149.7
883.165	1168.1
883.341	1143.3
883.517	1157.25
883.693	1151.25
883.869	1174.69
884.044	1120.44
884.22	1150.47
884.396	1160.55
884.572	1158.03
884.747	1165.39
884.923	1155.9
885.099	1145.05
885.275	1175.27
885.45	1139.62
885.626	1144.46
885.801	1108.62
885.977	1099.52
886.153	1084.4
886.328	1131.87
886.504	1078.01
886.679	1127.61
886.855	1095.06
887.03	1149.7
887.206	1152.8
887.381	1173.72
887.557	1122.96
887.732	1151.05
887.908	1175.08
888.083	1154.54
888.258	1115.98
888.434	1097.97
888.609	1111.33
888.784	1165.39
888.96	1117.53
889.135	1116.76
889.31	1098.74
889.485	1128.77
889.661	1115.4
889.836	1158.22
890.011	1156.09
890.186	1107.65
890.361	1124.51
890.537	1170.23
890.712	1147.95
890.887	1124.32
891.062	1146.01
891.237	1151.44
891.412	1108.43
891.587	1112.88
891.762	1159.77
891.937	1143.5
892.112	1067.55
892.287	1128.19
892.462	1068.32
892.637	1049.72
892.812	996.64
892.987	1010
893.161	1026.28
893.336	1034.42
893.511	1012.52
893.686	1025.7
893.861	1008.65
894.035	1033.25
894.21	1021.63
894.385	945.87
894.56	973.97
894.734	904.02
894.909	928.44
895.084	918.17
895.258	892.98
895.433	926.5
895.608	881.55
895.782	840.48
895.957	835.63
896.131	857.91
896.306	784.87
896.48	818.19
896.655	771.5
896.829	721.51
897.004	709.11
897.178	722.68
897.353	739.34
897.527	747.48
897.701	710.66
897.876	709.5
898.05	790.49
898.224	754.26
898.399	768.21
898.573	729.65
898.747	613.98
898.921	651.57
899.096	582.79
899.27	561.29
899.444	580.85
899.618	623.09
899.792	601.78
899.967	654.28
900.141	674.63
900.315	595
900.489	623.67
900.663	632.39
900.837	622.7
901.011	601.97
901.185	691.1
901.359	619.41
901.533	626.77
901.707	628.71
901.881	616.31
902.055	565.74
902.229	620.77
902.403	669.78
902.576	604.69
902.75	638.78
902.924	715.9
903.098	708.15
903.272	699.43
903.446	770.15
903.619	749.8
903.793	812.58
903.967	787.58
904.14	857.91
904.314	800.37
904.488	806.96
904.661	838.15
904.835	809.67
905.009	829.63
905.182	885.04
905.356	849.19
905.529	813.16
905.703	768.98
905.876	773.44
906.05	757.94
906.223	729.07
906.397	663.39
906.57	647.12
906.744	629.48
906.917	646.15
907.09	642.85
907.264	626.77
907.437	595.97
907.61	546.17
907.784	593.84
907.957	643.82
908.13	547.53
908.304	562.45
908.477	526.8
908.65	568.26
908.823	544.43
908.996	645.76
909.17	539.2
909.343	551.02
909.516	540.55
909.689	526.99
909.862	531.25
910.035	556.25
910.208	525.64
910.381	506.26
910.554	590.35
910.727	561.09
910.9	546.56
911.073	532.61
911.246	609.53
911.419	588.99
911.592	562.06
911.765	538.23
911.938	538.62
912.11	557.02
912.283	561.29
912.456	589.77
912.629	557.6
912.802	481.07
912.974	448.52
913.147	453.17
913.32	393.31
913.493	406.87
913.665	453.95
913.838	483.21
914.01	448.72
914.183	458.79
914.356	439.22
914.528	509.17
914.701	565.16
914.873	516.72
915.046	456.27
915.218	440.97
915.391	375.29
915.563	388.85
915.736	429.54
915.908	491.15
916.081	450.27
916.253	451.24
916.425	483.21
916.598	484.95
916.77	453.37
916.942	432.06
917.115	380.13
917.287	447.17
917.459	413.26
917.632	411.71
917.804	364.83
917.976	459.18
918.148	413.46
918.32	445.42
918.493	473.52
918.665	512.85
918.837	473.52
919.009	504.52
919.181	529.9
919.353	507.81
919.525	497.16
919.697	486.5
919.869	514.98
920.041	549.27
920.213	617.28
920.385	565.35
920.557	511.11
920.729	558.19
920.901	535.9
921.073	484.17
921.244	518.08
921.416	538.23
921.588	508.01
921.76	505.68
921.932	550.24
922.103	536.1
922.275	529.51
922.447	531.25
922.619	439.81
922.79	484.56
922.962	511.3
923.134	497.93
923.305	441.16
923.477	440
923.648	420.43
923.82	453.37
923.991	389.43
924.163	404.35
924.335	452.21
924.506	410.74
924.677	454.34
924.849	372.38
925.02	444.07
925.192	464.41
925.363	452.59
925.535	441.16
925.706	399.7
925.877	442.13
926.049	420.04
926.22	432.25
926.391	412.68
926.562	443.1
926.734	386.33
926.905	433.8
927.076	383.04
927.247	414.81
927.419	370.25
927.59	354.17
927.761	349.52
927.932	366.57
928.103	350.49
928.274	308.25
928.445	300.5
928.616	296.63
928.787	289.65
928.958	299.73
929.129	300.89
929.3	290.62
929.471	252.45
929.642	188.9
929.813	147.25
929.984	241.22
930.155	180.77
930.326	242.18
930.496	195.68
930.667	130.97
930.838	181.54
931.009	118.19
931.18	157.13
931.35	147.64
931.521	152.29
931.692	95.71
931.863	79.05
932.033	148.41
932.204	98.04
932.374	126.9
932.545	83.12
932.716	105.98
932.886	123.42
933.057	56.19
933.227	46.69
933.398	105.59
933.568	41.27
933.739	6.78
933.909	32.36
934.08	98.23
934.25	6.97
934.421	14.72
934.591	66.65
934.761	34.68
934.932	-10.85
935.102	32.94
935.272	21.89
935.443	54.64
935.613	47.47
935.783	52.89
935.953	0.97
936.123	129.42
936.294	9.69
936.464	27.9
936.634	34.29
936.804	10.85
936.974	-2.52
937.144	54.06
937.314	47.66
937.484	19.96
937.655	-6.39
937.825	85.06
937.995	12.79
938.165	65.1
938.334	49.6
938.504	75.95
938.674	25.38
938.844	58.32
939.014	102.49
939.184	104.43
939.354	127.87
939.524	128.84
939.694	89.9
939.863	96.49
940.033	156.55
940.203	153.84
940.373	118.19
940.542	120.32
940.712	83.31
940.882	123.42
941.051	130.39
941.221	122.25
941.391	119.54
941.56	68.2
941.73	71.3
941.899	187.93
942.069	65.49
942.238	120.7
942.408	94.55
942.577	106.95
942.747	72.46
942.916	30.81
943.086	74.01
943.255	129.23
943.425	96.87
943.594	68.39
943.763	34.49
943.933	64.13
944.102	12.59
944.271	62
944.441	78.86
944.61	54.25
944.779	52.51
944.948	125.55
945.117	41.27
945.287	48.05
945.456	6.59
945.625	58.12
945.794	76.53
945.963	23.64
946.132	83.89
946.301	48.63
946.47	99.97
946.639	10.07
946.808	53.67
946.977	80.21
947.146	92.22
947.315	41.46
947.484	74.79
947.653	46.89
947.822	63.74
947.991	37.39
948.16	108.3
948.329	92.22
948.498	48.44
948.666	72.46
948.835	84.86
949.004	20.15
949.173	58.71
949.341	65.49
949.51	68.97
949.679	93.97
949.847	83.31
950.016	145.89
950.185	107.92
950.353	48.05
950.522	52.89
950.69	126.9
950.859	72.27
951.028	92.22
951.196	105.59
951.365	45.92
951.533	81.37
951.701	107.72
951.87	106.17
952.038	28.29
952.207	76.34
952.375	118.19
952.543	45.14
952.712	56.77
952.88	56.96
953.048	125.35
953.217	74.21
953.385	77.69
953.553	152.09
953.721	45.34
953.89	64.13
954.058	41.27
954.226	49.79
954.394	84.28
954.562	2.32
954.73	44.95
954.898	63.74
955.067	111.79
955.235	24.61
955.403	117.41
955.571	130.97
955.739	77.69
955.907	41.66
956.075	52.51
956.243	37.2
956.41	87.57
956.578	21.89
956.746	21.12
956.914	61.03
957.082	85.25
957.25	100.17
957.418	44.56
957.585	73.82
957.753	121.87
957.921	45.72
958.089	93.19
958.256	51.54
958.424	90.67
958.592	81.96
958.759	51.54
958.927	96.49
959.095	37.2
959.262	65.49
959.43	69.94
959.597	22.86
959.765	72.46
959.932	34.49
960.1	110.82
960.267	66.07
960.435	74.79
960.602	115.09
960.77	76.72
960.937	55.61
961.104	57.35
961.272	20.92
961.439	67.23
961.606	80.79
961.774	110.24
961.941	55.41
962.108	109.47
962.275	93.58
962.443	125.74
962.61	82.73
962.777	120.9
962.944	105.2
963.111	85.64
963.278	90.48
963.446	84.67
963.613	98.04
963.78	117.6
963.947	110.05
964.114	73.43
964.281	170.3
964.448	108.89
964.615	68.97
964.782	97.45
964.949	90.48
965.116	110.63
965.282	126.71
965.449	74.01
965.616	72.07
965.783	116.05
965.95	84.28
966.117	49.21
966.283	88.93
966.45	118.57
966.617	114.12
966.784	128.26
966.95	123.61
967.117	118.77
967.284	93.58
967.45	86.22
967.617	138.34
967.784	132.91
967.95	192.78
968.117	98.62
968.283	122.06
968.45	200.92
968.616	141.05
968.783	168.95
968.949	139.11
969.116	143.76
969.282	149.57
969.449	117.8
969.615	126.71
969.781	101.72
969.948	118.77
970.114	75.17
970.28	153.84
970.447	126.32
970.613	124.58
970.779	112.18
970.945	146.47
971.112	129.04
971.278	134.85
971.444	109.66
971.61	161.78
971.776	110.82
971.942	157.9
972.108	148.99
972.275	117.41
972.441	147.05
972.607	182.9
972.773	90.09
972.939	117.99
973.105	105.59
973.271	69.94
973.437	103.07
973.602	111.21
973.768	131.55
973.934	84.09
974.1	129.04
974.266	62
974.432	105.01
974.598	100.17
974.763	131.36
974.929	96.87
975.095	162.55
975.261	84.47
975.426	88.93
975.592	80.99
975.758	158.29
975.923	32.36
976.089	99.78
976.255	118.96
976.42	103.46
976.586	111.4
976.751	124.77
976.917	198.59
977.082	130.59
977.248	68.59
977.413	44.37
977.579	83.89
977.744	106.75
977.91	61.22
978.075	104.04
978.24	110.05
978.406	93.19
978.571	72.66
978.736	88.54
978.902	128.45
979.067	63.55
979.232	29.45
979.397	88.74
979.563	144.34
979.728	49.6
979.893	89.9
980.058	69.75
980.223	130
980.388	114.12
980.554	77.11
980.719	101.52
980.884	135.82
981.049	140.47
981.214	69.75
981.379	115.47
981.544	64.71
981.709	98.62
981.874	84.47
982.039	79.05
982.204	118.38
982.368	94.55
982.533	59.09
982.698	126.71
982.863	135.62
983.028	83.31
983.193	101.14
983.357	86.61
983.522	111.79
983.687	69.75
983.852	94.16
984.016	101.14
984.181	114.12
984.346	131.75
984.51	100.94
984.675	128.65
984.839	113.73
985.004	111.99
985.168	110.05
985.333	101.14
985.498	98.23
985.662	124.97
985.827	103.65
985.991	86.99
986.155	103.85
986.32	117.8
986.484	146.28
986.649	99.97
986.813	65.29
986.977	116.64
987.142	134.85
987.306	86.61
987.47	51.15
987.634	91.84
987.799	125.55
987.963	102.49
988.127	127.49
988.291	156.94
988.455	103.46
988.62	113.92
988.784	103.27
988.948	142.6
989.112	65.87
989.276	111.99
989.44	101.14
989.604	74.59
989.768	107.34
989.932	143.37
990.096	46.31
990.26	83.12
990.424	46.11
990.588	75.95
990.752	169.14
990.915	119.93
991.079	108.69
991.243	80.79
991.407	134.46
991.571	84.47
991.734	118.38
991.898	114.5
992.062	167.4
992.226	79.63
992.389	82.54
992.553	43.98
992.717	72.27
992.88	99.59
993.044	111.02
993.207	91.45
993.371	116.44
993.535	130
993.698	80.79
993.862	109.66
994.025	131.94
994.189	85.25
994.352	90.09
994.515	112.76
994.679	100.36
994.842	65.68
995.006	114.7
995.169	66.65
995.332	78.86
995.496	115.47
995.659	30.03
995.822	97.07
995.985	79.05
996.149	115.47
996.312	61.81
996.475	126.13
996.638	79.63
996.801	135.62
996.964	128.65
997.128	87.38
997.291	62
997.454	104.24
997.617	55.99
997.78	115.86
997.943	56.57
998.106	115.86
998.269	64.52
998.432	72.27
998.595	81.57
998.758	37.39
998.92	59.09
999.083	29.26
999.246	68.97
999.409	36.62
999.572	21.89
999.735	47.66
999.897	92.8
1000.06	61.61
1000.223	48.05
1000.386	105.4
1000.548	84.47
1000.711	82.73
1000.874	71.49
1001.036	5.23
1001.199	86.61
1001.361	53.28
1001.524	78.08
1001.687	91.06
1001.849	60.84
1002.012	71.3
1002.174	86.02
1002.337	88.93
1002.499	45.14
1002.661	81.96
1002.824	34.1
1002.986	59.48
1003.149	60.64
1003.311	38.56
1003.473	134.65
1003.636	36.04
1003.798	95.52
1003.96	94.94
1004.123	51.34
1004.285	53.09
1004.447	58.51
1004.609	27.51
1004.771	102.88
1004.933	23.83
1005.096	39.33
1005.258	17.44
1005.42	43.79
1005.582	80.6
1005.744	60.26
1005.906	31.77
1006.068	76.34
1006.23	16.66
1006.392	0.39
1006.554	10.27
1006.716	70.72
1006.878	67.04
1007.04	2.91
1007.202	40.69
1007.363	44.37
1007.525	75.95
1007.687	105.01
1007.849	89.12
1008.011	0.19
1008.172	57.74
1008.334	37.97
1008.496	56.57
1008.658	-1.55
1008.819	27.9
1008.981	20.92
1009.143	36.81
1009.304	27.12
1009.466	84.67
1009.627	88.54
1009.789	138.72
1009.95	56.38
1010.112	19.76
1010.273	75.95
1010.435	28.87
1010.596	26.54
1010.758	12.4
1010.919	38.36
1011.081	22.86
1011.242	54.44
1011.403	47.66
1011.565	50.76
1011.726	61.81
1011.887	12.21
1012.049	35.65
1012.21	75.76
1012.371	108.69
1012.532	-19.18
1012.693	39.33
1012.855	23.83
1013.016	10.07
1013.177	54.64
1013.338	32.74
1013.499	95.9
1013.66	55.02
1013.821	85.06
1013.982	54.83
1014.143	44.56
1014.304	18.02
1014.465	71.3
1014.626	67.42
1014.787	10.07
1014.948	126.52
1015.109	-23.83
1015.27	79.24
1015.431	18.6
1015.592	-10.27
1015.752	73.82
1015.913	60.26
1016.074	39.91
1016.235	25.77
1016.395	25.77
1016.556	40.69
1016.717	43.01
1016.877	78.47
1017.038	28.29
1017.199	50.96
1017.359	30.42
1017.52	43.98
1017.681	24.99
1017.841	4.46
1018.002	0.77
1018.162	7.17
1018.323	66.26
1018.483	37.97
1018.644	24.8
1018.804	-2.32
1018.964	13.56
1019.125	-9.49
1019.285	28.87
1019.446	-3.49
1019.606	13.95
1019.766	-12.59
1019.926	64.91
1020.087	41.27
1020.247	0.77
1020.407	37.39
1020.567	64.52
1020.728	32.55
1020.888	14.14
1021.048	14.72
1021.208	-5.62
1021.368	6.39
1021.528	64.32
1021.688	58.32
1021.848	69.75
1022.008	40.88
1022.168	13.17
1022.328	19.18
1022.488	42.43
1022.648	16.27
1022.808	59.29
1022.968	38.56
1023.128	-7.36
1023.288	3.29
1023.448	38.36
1023.608	46.5
1023.767	53.86
1023.927	-8.33
1024.087	-2.52
1024.247	3.68
1024.406	20.73
1024.566	7.75
1024.726	1.94
1024.885	21.51
1025.045	51.34
1025.205	15.31
1025.364	41.07
1025.524	46.5
1025.683	-24.8
1025.843	15.5
1026.003	1.74
1026.162	89.32
1026.321	49.99
1026.481	29.26
1026.64	27.71
1026.8	34.1
1026.959	47.66
1027.119	42.82
1027.278	9.69
1027.437	6.97
1027.597	10.85
1027.756	38.36
1027.915	55.22
1028.074	48.82
1028.234	-9.3
1028.393	49.41
1028.552	20.54
1028.711	-57.35
1028.87	67.04
1029.03	-14.72
1029.189	22.47
1029.348	-25.77
1029.507	-2.32
1029.666	6.2
1029.825	-18.79
1029.984	1.74
1030.143	26.54
1030.302	13.37
1030.461	-34.87
1030.62	23.44
1030.779	59.48
1030.938	15.69
1031.097	-3.1
1031.255	51.34
1031.414	79.82
1031.573	66.07
1031.732	-39.72
1031.891	6.78
1032.049	64.91
1032.208	46.69
1032.367	-20.54
1032.525	15.69
1032.684	23.83
1032.843	8.52
1033.001	-25.38
1033.16	122.25
1033.319	49.02
1033.477	17.05
1033.636	-3.1
1033.794	-23.83
1033.953	47.66
1034.111	37.78
1034.27	-12.21
1034.428	41.46
1034.587	-20.92
1034.745	47.47
1034.903	16.27
1035.062	31
1035.22	-35.46
1035.378	17.05
1035.537	-35.07
1035.695	26.16
1035.853	19.37
1036.011	33.91
1036.17	37.39
1036.328	-76.53
1036.486	6.78
1036.644	18.41
1036.802	-64.71
1036.96	-21.31
1037.119	9.3
1037.277	2.91
1037.435	-38.56
1037.593	-27.12
1037.751	16.47
1037.909	6.01
1038.067	6.01
