Data from gum_young_FLMT105791__78__17-39-36-042.txt Node

Date: Mon Mar 20 17:39:36 GMT 2023
User: antho
Spectrometer: FLMT10579
Trigger mode: 0
Integration Time (sec): 1.000000E-1
Scans to average: 10
Electric dark correction enabled: true
Nonlinearity correction enabled: false
Boxcar width: 0
XAxis mode: Wavelengths
Number of Pixels in Spectrum: 3648
>>>>>Begin Spectral Data<<<<<
345.248	-140.4
345.464	-140.4
345.681	-140.4
345.898	-147.18
346.114	-146.6
346.331	-33.45
346.548	5.88
346.764	8.01
346.981	7.43
347.197	-27.84
347.414	18.47
347.631	-23.38
347.847	59.35
348.064	-1.1
348.28	18.66
348.497	-35.97
348.713	3.94
348.93	36.3
349.146	14.4
349.363	-11.95
349.579	-7.1
349.796	-19.31
350.012	-6.52
350.229	27.38
350.445	-6.14
350.661	-16.21
350.878	-10.2
351.094	29.32
351.311	4.52
351.527	-1.29
351.743	-4.2
351.96	7.23
352.176	35.13
352.392	25.25
352.609	30.48
352.825	0.84
353.041	2
353.257	-3.23
353.474	-24.15
353.69	5.1
353.906	36.68
354.122	-38.49
354.339	39.4
354.555	4.52
354.771	-16.02
354.987	33.97
355.203	42.11
355.42	-2.45
355.636	-0.52
355.852	-32.87
356.068	9.75
356.284	-29.97
356.5	63.61
356.716	8.78
356.932	-22.6
357.148	24.67
357.364	-4.78
357.58	42.3
357.796	47.92
358.012	28.55
358.228	26.8
358.444	-38.1
358.66	68.84
358.876	-6.33
359.092	-29.38
359.308	1.42
359.524	13.05
359.74	8.01
359.956	-14.08
360.172	25.83
360.388	20.41
360.604	-12.72
360.819	74.46
361.035	-4.39
361.251	39.01
361.467	-16.21
361.683	28.55
361.898	-20.47
362.114	23.51
362.33	24.86
362.546	38.23
362.762	-7.49
362.977	13.82
363.193	-22.6
363.409	23.51
363.624	-22.41
363.84	-15.44
364.056	-11.37
364.271	34.36
364.487	27.58
364.703	2.97
364.918	-45.85
365.134	-18.73
365.35	16.73
365.565	88.41
365.781	29.71
365.996	34.16
366.212	54.9
366.427	15.37
366.643	-15.44
366.858	5.88
367.074	-14.66
367.289	58.58
367.505	93.64
367.72	0.45
367.936	4.13
368.151	46.37
368.367	26.03
368.582	20.99
368.798	11.88
369.013	55.48
369.228	17.7
369.444	18.08
369.659	49.86
369.874	30.68
370.09	57.8
370.305	-33.26
370.52	-10.2
370.736	53.73
370.951	27.19
371.166	71.56
371.381	85.89
371.597	38.43
371.812	-15.05
372.027	-35
372.242	8.59
372.458	68.84
372.673	-7.3
372.888	2.58
373.103	33.58
373.318	86.09
373.533	28.55
373.749	26.61
373.964	-46.43
374.179	44.82
374.394	-1.49
374.609	41.53
374.824	-8.46
375.039	71.36
375.254	-25.12
375.469	46.95
375.684	18.08
375.899	73.11
376.114	28.93
376.329	18.86
376.544	39.98
376.759	47.53
376.974	-24.93
377.189	24.48
377.404	-5.36
377.619	78.34
377.834	-29.19
378.049	1.42
378.264	-17.18
378.478	17.31
378.693	2.97
378.908	36.68
379.123	12.46
379.338	35.91
379.553	16.34
379.767	45.6
379.982	32.81
380.197	39.78
380.412	27.96
380.626	30.68
380.841	87.25
381.056	37.07
381.271	70.2
381.485	-7.49
381.7	0.26
381.915	32.81
382.129	29.13
382.344	29.9
382.559	27.96
382.773	78.34
382.988	-6.14
383.202	16.92
383.417	3.75
383.632	83.96
383.846	46.56
384.061	41.33
384.275	15.56
384.49	21.38
384.704	43.27
384.919	41.53
385.133	15.18
385.348	33
385.562	-7.69
385.777	72.14
385.991	28.93
386.206	26.41
386.42	32.03
386.634	32.23
386.849	49.66
387.063	67.1
387.277	-17.76
387.492	-10.2
387.706	-1.68
387.92	2
388.135	78.73
388.349	14.4
388.563	29.9
388.778	29.32
388.992	53.15
389.206	52.96
389.42	98.29
389.635	29.32
389.849	54.51
390.063	45.4
390.277	41.72
390.491	76.21
390.706	37.65
390.92	56.83
391.134	31.84
391.348	74.46
391.562	-24.15
391.776	28.35
391.99	11.5
392.205	70.2
392.419	20.6
392.633	37.07
392.847	62.84
393.061	8.2
393.275	96.74
393.489	33.39
393.703	52.57
393.917	46.18
394.131	8.01
394.345	98.1
394.559	68.07
394.773	41.91
394.986	40.95
395.2	32.42
395.414	45.21
395.628	3.75
395.842	33.78
396.056	34.75
396.27	0.65
396.484	24.67
396.697	36.49
396.911	84.93
397.125	43.66
397.339	61.48
397.553	58.77
397.766	113.79
397.98	40.95
398.194	61.48
398.408	40.36
398.621	89.58
398.835	63.61
399.049	46.18
399.262	93.06
399.476	74.46
399.69	84.15
399.903	133.94
400.117	58.96
400.331	101.01
400.544	47.73
400.758	130.84
400.971	76.98
401.185	100.81
401.398	24.09
401.612	117.09
401.826	91.71
402.039	90.74
402.253	91.9
402.466	97.91
402.68	57.61
402.893	86.67
403.106	83.76
403.32	64.78
403.533	89.96
403.747	54.12
403.96	98.29
404.174	99.07
404.387	41.72
404.6	74.46
404.814	114.57
405.027	79.89
405.24	60.51
405.454	53.54
405.667	113.02
405.88	-3.62
406.094	89.96
406.307	110.89
406.52	110.11
406.733	68.07
406.947	35.13
407.16	123.09
407.373	124.45
407.586	53.93
407.799	72.53
408.012	98.49
408.226	91.9
408.439	112.44
408.652	68.65
408.865	71.36
409.078	119.22
409.291	104.3
409.504	61.09
409.717	93.84
409.93	85.51
410.143	93.84
410.357	24.48
410.57	54.7
410.783	49.86
410.996	99.65
411.209	113.99
411.421	126
411.634	73.3
411.847	66.33
412.06	103.53
412.273	89.19
412.486	92.68
412.699	171.14
412.912	93.26
413.125	114.57
413.338	98.29
413.55	105.27
413.763	81.05
413.976	119.61
414.189	83.38
414.402	95.78
414.615	129.88
414.827	60.9
415.04	123.87
415.253	98.1
415.466	112.83
415.678	156.81
415.891	104.11
416.104	95.78
416.316	96.74
416.529	93.26
416.742	123.09
416.954	127.74
417.167	100.62
417.38	87.64
417.592	152.35
417.805	99.65
418.017	76.21
418.23	114.18
418.442	95.78
418.655	78.14
418.868	123.68
419.08	168.82
419.293	132.59
419.505	123.09
419.718	122.9
419.93	146.34
420.142	65.36
420.355	128.13
420.567	167.07
420.78	119.99
420.992	108.37
421.205	154.09
421.417	79.11
421.629	118.83
421.842	87.44
422.054	66.33
422.266	149.25
422.479	151.57
422.691	100.43
422.903	156.61
423.115	85.89
423.328	114.57
423.54	120.96
423.752	119.03
423.964	119.41
424.177	136.85
424.389	119.03
424.601	224.81
424.813	134.33
425.025	157.77
425.238	186.06
425.45	126.58
425.662	131.23
425.874	370.9
426.086	127.16
426.298	141.31
426.51	133.94
426.722	135.49
426.934	108.18
427.146	149.25
427.358	108.37
427.57	176.57
427.782	128.71
427.994	120.19
428.206	90.16
428.418	98.88
428.63	136.85
428.842	168.04
429.054	134.33
429.266	156.42
429.478	105.08
429.69	127.36
429.902	93.64
430.114	136.27
430.325	138.01
430.537	116.51
430.749	115.54
430.961	68.84
431.173	96.16
431.384	160.87
431.596	71.36
431.808	113.6
432.02	133.17
432.231	160.87
432.443	171.92
432.655	151.96
432.867	124.64
433.078	178.12
433.29	183.93
433.502	144.02
433.713	174.05
433.925	186.45
434.136	210.47
434.348	119.61
434.56	75.43
434.771	213.57
434.983	113.6
435.194	133.17
435.406	135.3
435.617	176.76
435.829	213.57
436.04	195.94
436.252	202.34
436.463	195.94
436.675	192.26
436.886	196.72
437.098	186.45
437.309	231.01
437.521	156.61
437.732	224.62
437.943	186.45
438.155	164.94
438.366	122.13
438.578	208.15
438.789	172.5
439	193.42
439.211	207.76
439.423	192.84
439.634	199.24
439.845	206.02
440.057	174.63
440.268	215.32
440.479	158.55
440.69	193.42
440.902	186.26
441.113	174.05
441.324	178.7
441.535	193.04
441.746	230.62
441.957	173.86
442.168	187.61
442.38	221.32
442.591	223.46
442.802	162.81
443.013	173.27
443.224	206.79
443.435	180.64
443.646	219.58
443.857	212.22
444.068	201.56
444.279	190.13
444.49	264.72
444.701	212.99
444.912	308.12
445.123	234.5
445.334	227.52
445.545	216.87
445.756	229.66
445.967	180.83
446.178	208.92
446.388	233.14
446.599	254.65
446.81	249.03
447.021	215.71
447.232	240.5
447.443	280.8
447.653	185.09
447.864	252.9
448.075	218.03
448.286	280.22
448.496	239.73
448.707	260.27
448.918	239.73
449.129	315.1
449.339	246.9
449.55	251.16
449.761	250.97
449.971	296.89
450.182	233.34
450.393	244.96
450.603	248.45
450.814	277.51
451.024	264.53
451.235	294.17
451.446	299.6
451.656	309.09
451.867	266.66
452.077	283.9
452.288	316.45
452.498	309.87
452.709	244.77
452.919	276.35
453.13	230.04
453.34	281.97
453.55	223.65
453.761	280.22
453.971	267.82
454.182	290.3
454.392	257.36
454.602	309.48
454.813	262.98
455.023	325.56
455.233	224.23
455.444	280.42
455.654	194.97
455.864	280.42
456.075	252.13
456.285	258.33
456.495	291.65
456.705	280.22
456.916	352.49
457.126	343.38
457.336	292.43
457.546	228.69
457.756	272.28
457.967	323.43
458.177	281.58
458.387	285.65
458.597	271.7
458.807	265.3
459.017	276.54
459.227	262.79
459.437	286.81
459.647	312.97
459.857	331.57
460.068	294.75
460.278	293.59
460.488	320.72
460.698	354.04
460.908	288.36
461.117	296.69
461.327	263.56
461.537	292.04
461.747	303.09
461.957	289.14
462.167	373.61
462.377	323.62
462.587	330.79
462.797	337.18
463.007	317.81
463.216	337.96
463.426	363.73
463.636	360.43
463.846	282.35
464.056	305.02
464.265	366.83
464.475	281.77
464.685	318.97
464.895	330.4
465.104	319.94
465.314	355.2
465.524	302.7
465.733	322.65
465.943	391.43
466.153	392.21
466.362	358.11
466.572	345.9
466.782	336.41
466.991	333.5
467.201	381.75
467.41	294.75
467.62	339.7
467.829	320.91
468.039	342.22
468.249	335.05
468.458	346.87
468.668	366.25
468.877	367.41
469.086	407.71
469.296	406.74
469.505	321.49
469.715	435.22
469.924	360.05
470.134	416.23
470.343	419.91
470.552	365.47
470.762	354.04
470.971	351.52
471.18	373.61
471.39	363.73
471.599	311.22
471.808	401.9
472.018	323.23
472.227	427.28
472.436	434.64
472.645	401.9
472.855	374.19
473.064	448.59
473.273	393.57
473.482	406.93
473.691	457.89
473.901	423.98
474.11	387.17
474.319	495.86
474.528	397.25
474.737	465.45
474.946	419.72
475.155	420.3
475.364	494.51
475.573	405.38
475.783	417.98
475.992	449.36
476.201	478.81
476.41	437.74
476.619	404.22
476.828	448.78
477.037	384.46
477.245	436.96
477.454	506.71
477.663	462.54
477.872	439.48
478.081	527.83
478.29	449.36
478.499	539.07
478.708	507.49
478.917	536.94
479.125	485.01
479.334	480.75
479.543	474.36
479.752	503.81
479.961	509.04
480.169	506.71
480.378	485.01
480.587	611.53
480.796	547.59
481.004	519.11
481.213	546.82
481.422	525.51
481.63	563.87
481.839	545.66
482.048	604.94
482.256	555.73
482.465	556.12
482.674	582.47
482.882	590.02
483.091	611.72
483.299	581.31
483.508	578.01
483.716	592.93
483.925	576.46
484.134	545.27
484.342	576.66
484.551	581.89
484.759	575.49
484.967	604.94
485.176	615.41
485.384	617.34
485.593	637.3
485.801	586.15
486.01	563.68
486.218	564.64
486.426	501.29
486.635	525.31
486.843	532.68
487.051	578.79
487.26	530.74
487.468	597.97
487.676	604.94
487.885	555.54
488.093	608.62
488.301	616.96
488.509	628.19
488.717	663.84
488.926	630.32
489.134	616.37
489.342	615.99
489.55	614.82
489.758	633.62
489.967	641.56
490.175	734.37
490.383	660.74
490.591	752.19
490.799	634.01
491.007	702.01
491.215	692.32
491.423	646.79
491.631	683.41
491.839	659.39
492.047	707.24
492.255	623.93
492.463	607.46
492.671	642.53
492.879	691.16
493.087	684.38
493.295	679.73
493.503	714.99
493.711	708.79
493.919	744.83
494.127	724.49
494.334	769.63
494.542	684.57
494.75	751.8
494.958	728.75
495.166	765.75
495.374	728.75
495.581	770.79
495.789	753.35
495.997	820.97
496.205	732.62
496.412	742.7
496.62	750.06
496.828	773.89
497.035	745.8
497.243	799.66
497.451	770.02
497.658	787.07
497.866	799.66
498.074	857.2
498.281	783.38
498.489	865.53
498.696	805.67
498.904	777.18
499.112	787.84
499.319	877.74
499.527	806.44
499.734	881.61
499.942	792.1
500.149	792.49
500.357	837.63
500.564	796.56
500.771	821.17
500.979	784.35
501.186	787.26
501.394	830.85
501.601	809.73
501.808	838.02
502.016	812.83
502.223	808.38
502.43	824.85
502.638	825.62
502.845	841.7
503.052	893.82
503.26	830.66
503.467	925.6
503.674	887.81
503.881	895.37
504.089	962.6
504.296	894.98
504.503	848.1
504.71	880.65
504.917	860.3
505.125	925.01
505.332	914.75
505.539	962.6
505.746	1003.09
505.953	959.31
506.16	985.08
506.367	1005.03
506.574	1028.86
506.781	1027.7
506.988	929.86
507.195	985.66
507.402	991.08
507.609	1010.84
507.816	1014.33
508.023	981.59
508.23	972.68
508.437	961.63
508.644	1026.15
508.851	1056.76
509.058	1090.28
509.265	1052.5
509.472	1062.19
509.679	1171.46
509.885	1071.68
510.092	1128.25
510.299	1090.86
510.506	1101.91
510.713	1094.54
510.92	1128.64
511.126	1133.1
511.333	1170.49
511.54	1196.84
511.746	1197.03
511.953	1204.4
512.16	1240.24
512.367	1154.99
512.573	1183.09
512.78	1209.05
512.987	1196.84
513.193	1203.04
513.4	1129.03
513.606	1190.25
513.813	1218.93
514.02	1216.99
514.226	1279.18
514.433	1274.15
514.639	1221.45
514.846	1263.49
515.052	1223.97
515.259	1287.9
515.465	1293.52
515.672	1279.96
515.878	1369.66
516.085	1302.24
516.291	1360.36
516.497	1290.81
516.704	1314.64
516.91	1261.75
517.117	1223.19
517.323	1158.29
517.529	1251.09
517.736	1257.1
517.942	1231.52
518.148	1269.3
518.354	1342.93
518.561	1331.3
518.767	1342.35
518.973	1379.93
519.179	1431.08
519.386	1402.41
519.592	1393.88
519.798	1391.94
520.004	1513.62
520.21	1462.08
520.417	1518.07
520.623	1539.97
520.829	1543.46
521.035	1538.03
521.241	1548.3
521.447	1567.48
521.653	1648.08
521.859	1617.08
522.065	1638.39
522.271	1711.24
522.477	1696.71
522.683	1741.66
522.889	1656.22
523.095	1698.45
523.301	1656.22
523.507	1684.89
523.713	1706.59
523.919	1685.86
524.125	1776.15
524.331	1757.16
524.537	1814.12
524.742	1840.47
524.948	1815.48
525.154	1848.61
525.36	1916.81
525.566	1833.69
525.772	1915.45
525.977	1817.99
526.183	1849.77
526.389	1879.41
526.595	1821.87
526.8	1834.66
527.006	1746.11
527.212	1726.35
527.417	1732.75
527.623	1740.69
527.829	1820.51
528.034	1860.23
528.24	1861.01
528.446	1878.64
528.651	1980.55
528.857	2013.1
529.062	2021.43
529.268	1997.79
529.473	2045.65
529.679	2041.19
529.884	2116.75
530.09	2077.62
530.295	2092.15
530.501	2055.14
530.706	2078.58
530.912	2040.42
531.117	2091.57
531.323	2037.32
531.528	2170.23
531.733	2156.86
531.939	2104.35
532.144	2143.1
532.35	2115.2
532.555	2167.51
532.76	2168.48
532.966	2148.53
533.171	2125.86
533.376	2084.4
533.581	2057.27
533.787	2141.36
533.992	2180.69
534.197	2140.78
534.402	2156.28
534.607	2181.27
534.813	2251.02
535.018	2158.6
535.223	2210.33
535.428	2234.75
535.633	2270.59
535.838	2309.92
536.043	2283.76
536.249	2393.23
536.454	2306.24
536.659	2322.51
536.864	2300.23
537.069	2273.3
537.274	2283.57
537.479	2289.96
537.684	2318.83
537.889	2229.13
538.094	2378.51
538.299	2322.9
538.504	2345.96
538.708	2352.16
538.913	2380.83
539.118	2348.67
539.323	2379.28
539.528	2336.85
539.733	2317.48
539.938	2323.29
540.142	2359.32
540.347	2306.63
540.552	2301.78
540.757	2290.93
540.962	2294.81
541.166	2262.45
541.371	2239.2
541.576	2253.15
541.781	2221.18
541.985	2335.11
542.19	2321.16
542.395	2408.34
542.599	2380.44
542.804	2375.79
543.008	2440.12
543.213	2365.91
543.418	2288.61
543.622	2394.97
543.827	2308.95
544.031	2405.24
544.236	2424.23
544.44	2430.43
544.645	2514.32
544.849	2417.06
545.054	2487
545.258	2529.24
545.463	2518
545.667	2420.35
545.872	2502.12
546.076	2466.85
546.281	2512.97
546.485	2433.92
546.689	2513.74
546.894	2527.5
547.098	2462.4
547.302	2441.09
547.507	2431.79
547.711	2479.25
547.915	2525.95
548.119	2415.32
548.324	2460.07
548.528	2508.51
548.732	2470.34
548.936	2493.2
549.141	2550.17
549.345	2520.33
549.549	2510.83
549.753	2496.3
549.957	2629.21
550.161	2589.88
550.366	2536.02
550.57	2498.82
550.774	2530.6
550.978	2551.52
551.182	2578.65
551.386	2495.14
551.59	2535.83
551.794	2521.88
551.998	2562.76
552.202	2566.44
552.406	2498.82
552.61	2585.04
552.814	2546.68
553.018	2555.01
553.222	2522.46
553.426	2542.03
553.63	2593.18
553.833	2544.16
554.037	2510.64
554.241	2548.42
554.445	2537.57
554.649	2577.87
554.853	2527.69
555.056	2593.95
555.26	2582.13
555.464	2566.63
555.668	2571.28
555.871	2586.59
556.075	2596.28
556.279	2518.39
556.483	2500.57
556.686	2508.12
556.89	2518
557.094	2514.52
557.297	2452.32
557.501	2501.92
557.704	2440.5
557.908	2492.62
558.112	2481.19
558.315	2536.41
558.519	2435.66
558.722	2437.02
558.926	2424.81
559.129	2389.36
559.333	2340.92
559.536	2383.16
559.74	2377.54
559.943	2337.04
560.147	2363.78
560.35	2347.89
560.553	2406.41
560.757	2319.99
560.96	2444.96
561.164	2366.49
561.367	2440.31
561.57	2399.24
561.774	2395.36
561.977	2411.83
562.18	2308.18
562.384	2474.02
562.587	2391.29
562.79	2351.77
562.993	2347.7
563.197	2360.49
563.4	2419.39
563.603	2423.84
563.806	2446.9
564.009	2311.08
564.212	2338.21
564.416	2289.58
564.619	2278.73
564.822	2232.03
565.025	2379.47
565.228	2277.18
565.431	2311.08
565.634	2224.09
565.837	2247.92
566.04	2231.06
566.243	2182.05
566.446	2115.4
566.649	2214.79
566.852	2172.16
567.055	2146.98
567.258	2197.16
567.461	2234.94
567.664	2261.87
567.867	2145.62
568.07	2209.95
568.273	2158.99
568.475	2244.82
568.678	2163.25
568.881	2114.04
569.084	2125.08
569.287	2017.17
569.489	2033.83
569.692	2105.9
569.895	2090.4
570.098	1988.88
570.3	2055.72
570.503	1950.71
570.706	1984.04
570.909	1944.32
571.111	1900.92
571.314	1936.76
571.516	1915.45
571.719	1951.49
571.922	1914.09
572.124	1911.19
572.327	1979.19
572.529	1877.48
572.732	1916.22
572.935	1949.36
573.137	1985.59
573.34	1944.32
573.542	1969.51
573.745	1943.93
573.947	1932.31
574.15	1913.12
574.352	1875.34
574.554	1905.96
574.757	1876.7
574.959	1863.53
575.162	1853.06
575.364	1815.09
575.566	1929.79
575.769	1816.44
575.971	1846.09
576.173	1767.81
576.376	1808.11
576.578	1836.59
576.78	1866.24
576.982	1729.84
577.185	1788.93
577.387	1718.02
577.589	1787.38
577.791	1765.88
577.993	1778.47
578.196	1772.08
578.398	1799.01
578.6	1759.29
578.802	1718.02
579.004	1715.31
579.206	1723.83
579.408	1779.44
579.61	1724.8
579.812	1776.53
580.014	1762.2
580.216	1723.64
580.418	1752.12
580.62	1706.01
580.822	1679.08
581.024	1701.17
581.226	1753.28
581.428	1742.05
581.63	1758.71
581.832	1696.52
582.034	1814.7
582.236	1757.74
582.438	1809.08
582.64	1843.38
582.841	1828.26
583.043	1891.43
583.245	1764.33
583.447	1739.33
583.649	1746.89
583.85	1779.05
584.052	1807.34
584.254	1729.65
584.456	1778.28
584.657	1704.85
584.859	1765.3
585.061	1745.92
585.262	1723.06
585.464	1678.3
585.666	1752.12
585.867	1691.87
586.069	1758.51
586.27	1710.85
586.472	1713.57
586.674	1678.3
586.875	1665.13
587.077	1679.27
587.278	1707.56
587.48	1644.2
587.681	1766.46
587.883	1709.69
588.084	1618.44
588.285	1632
588.487	1608.17
588.688	1607.39
588.89	1513.42
589.091	1518.66
589.292	1521.95
589.494	1471.38
589.695	1443.29
589.896	1391.56
590.098	1373.93
590.299	1433.02
590.5	1426.63
590.702	1438.44
590.903	1483.59
591.104	1549.85
591.305	1536.67
591.507	1561.67
591.708	1531.06
591.909	1523.5
592.11	1560.7
592.311	1525.24
592.512	1472.93
592.714	1479.32
592.915	1473.51
593.116	1454.33
593.317	1517.69
593.518	1494.82
593.719	1519.82
593.92	1556.63
594.121	1557.02
594.322	1531.06
594.523	1529.89
594.724	1485.72
594.925	1501.61
595.126	1473.71
595.327	1486.11
595.528	1509.94
595.729	1512.07
595.929	1500.06
596.13	1498.89
596.331	1545.2
596.532	1489.21
596.733	1571.94
596.934	1553.92
597.135	1554.89
597.335	1520.21
597.536	1508.39
597.737	1496.37
597.938	1502.19
598.138	1535.51
598.339	1512.84
598.54	1549.65
598.74	1511.1
598.941	1480.87
599.142	1553.34
599.342	1547.14
599.543	1448.71
599.744	1461.89
599.944	1519.82
600.145	1511.87
600.345	1493.27
600.546	1549.65
600.746	1541.91
600.947	1578.91
601.147	1484.56
601.348	1526.79
601.548	1484.17
601.749	1520.59
601.949	1470.61
602.15	1499.86
602.35	1486.88
602.551	1538.22
602.751	1453.17
602.951	1468.28
603.152	1459.17
603.352	1501.22
603.552	1475.26
603.753	1522.34
603.953	1535.9
604.153	1520.79
604.354	1486.88
604.554	1457.24
604.754	1517.3
604.954	1461.5
605.155	1496.57
605.355	1494.44
605.555	1495.21
605.755	1547.52
605.955	1484.17
606.155	1479.71
606.356	1489.4
606.556	1485.33
606.756	1494.44
606.956	1441.93
607.156	1500.44
607.356	1458.79
607.556	1485.14
607.756	1447.55
607.956	1518.07
608.156	1466.92
608.356	1428.37
608.556	1433.79
608.756	1438.06
608.956	1421.59
609.156	1451.81
609.356	1391.17
609.556	1374.51
609.755	1424.69
609.955	1362.3
610.155	1418.68
610.355	1412.87
610.555	1373.15
610.755	1389.81
610.954	1330.14
611.154	1390.2
611.354	1421.78
611.554	1371.99
611.753	1393.69
611.953	1336.92
612.153	1408.61
612.352	1358.43
612.552	1327.04
612.752	1283.06
612.951	1364.05
613.151	1316.77
613.351	1297.01
613.55	1354.75
613.75	1343.7
613.949	1308.63
614.149	1347.19
614.348	1316.77
614.548	1297.98
614.747	1269.11
614.947	1293.33
615.146	1236.56
615.346	1341.18
615.545	1291.78
615.745	1321.03
615.944	1323.94
616.144	1295.26
616.343	1287.13
616.542	1242.37
616.742	1253.8
616.941	1267.56
617.14	1193.35
617.34	1255.16
617.539	1241.21
617.738	1191.8
617.938	1298.36
618.137	1251.67
618.336	1219.7
618.535	1280.35
618.734	1243.15
618.934	1248.96
619.133	1265.62
619.332	1252.45
619.531	1219.51
619.73	1256.52
619.929	1288.68
620.128	1301.85
620.328	1320.26
620.527	1220.48
620.726	1262.52
620.925	1228.42
621.124	1211.95
621.323	1251.28
621.522	1180.76
621.721	1163.32
621.92	1196.45
622.119	1185.6
622.318	1150.54
622.517	1210.02
622.715	1160.8
622.914	1143.17
623.113	1182.5
623.312	1107.91
623.511	1204.2
623.71	1174.75
623.909	1146.47
624.107	1255.55
624.306	1115.66
624.505	1147.05
624.704	1149.76
624.902	1117.4
625.101	1158.29
625.3	1154.22
625.499	1113.92
625.697	1110.82
625.896	1101.52
626.095	1157.12
626.293	1071.87
626.492	1093.96
626.69	1124.38
626.889	1108.88
627.088	1144.14
627.286	1096.87
627.485	1103.84
627.683	1076.14
627.882	1092.02
628.08	1029.44
628.279	1020.34
628.477	1123.8
628.676	1016.46
628.874	1068
629.073	1031.38
629.271	1011.43
629.469	1074.78
629.668	1050.56
629.866	1059.28
630.065	1054.44
630.263	1063.54
630.461	1047.07
630.66	1076.14
630.858	1113.34
631.056	1091.64
631.254	1105.59
631.453	1019.56
631.651	1103.07
631.849	1039.52
632.047	1040.87
632.245	1058.31
632.444	1067.42
632.642	1076.33
632.84	1117.02
633.038	1074.97
633.236	1044.56
633.434	1057.15
633.632	1072.07
633.83	1081.17
634.028	1102.87
634.227	1062.57
634.425	1109.07
634.623	1054.05
634.821	1088.15
635.019	1057.34
635.216	1076.14
635.414	1079.04
635.612	1091.44
635.81	1068.58
636.008	1136.97
636.206	1035.06
636.404	1084.08
636.602	1054.44
636.8	1051.14
636.997	1082.72
637.195	1076.91
637.393	1049.79
637.591	1148.79
637.789	1091.25
637.986	1063.74
638.184	1046.69
638.382	1095.32
638.58	1077.3
638.777	1125.54
638.975	1068.19
639.173	1071.29
639.37	1093.57
639.568	1046.88
639.765	1084.66
639.963	1028.28
640.161	1074.97
640.358	1061.02
640.556	997.09
640.753	1006.19
640.951	979.07
641.148	1054.82
641.346	1030.02
641.543	991.47
641.741	1012.59
641.938	977.33
642.136	991.47
642.333	943.42
642.531	1042.42
642.728	1011.04
642.925	970.93
643.123	968.41
643.32	1005.81
643.517	949.43
643.715	1001.35
643.912	922.88
644.109	985.08
644.306	931.99
644.504	947.88
644.701	977.91
644.898	953.69
645.095	922.3
645.293	920.36
645.49	927.53
645.687	933.54
645.884	945.36
646.081	867.47
646.278	901.57
646.475	851.97
646.672	874.64
646.87	895.76
647.067	887.43
647.264	867.86
647.461	832.98
647.658	822.72
647.855	900.99
648.052	849.26
648.249	761.3
648.446	826.78
648.642	796.95
648.839	829.3
649.036	773.5
649.233	764.78
649.43	815.55
649.627	751.8
649.824	795.98
650.021	773.7
650.217	779.32
650.414	781.45
650.611	785.9
650.808	835.7
651.004	830.85
651.201	807.41
651.398	852.16
651.595	801.02
651.791	767.88
651.988	810.9
652.185	776.6
652.381	834.53
652.578	733.59
652.775	777.77
652.971	791.52
653.168	782.42
653.364	812.25
653.561	730.69
653.757	796.75
653.954	775.25
654.15	766.53
654.347	834.92
654.543	791.91
654.74	738.63
654.936	739.02
655.133	752.58
655.329	753.35
655.525	742.12
655.722	782.42
655.918	752.77
656.115	733.79
656.311	666.94
656.507	658.22
656.704	633.04
656.9	652.99
657.096	642.72
657.292	636.91
657.489	717.51
657.685	696.2
657.881	685.74
658.077	692.32
658.273	689.42
658.47	771.57
658.666	696.39
658.862	717.9
659.058	712.86
659.254	775.83
659.45	695.23
659.646	707.05
659.842	700.85
660.038	730.69
660.234	708.79
660.43	702.98
660.626	724.49
660.822	728.75
661.018	758.97
661.214	731.07
661.41	687.67
661.606	713.64
661.802	745.99
661.998	726.81
662.194	691.55
662.39	726.42
662.586	730.1
662.781	744.05
662.977	718.48
663.173	717.7
663.369	701.82
663.564	679.15
663.76	727.78
663.956	672.95
664.152	722.35
664.347	637.49
664.543	671.2
664.739	665.01
664.934	635.75
665.13	634.39
665.326	675.08
665.521	697.75
665.717	636.91
665.912	621.8
666.108	597.97
666.304	633.81
666.499	634.59
666.695	575.88
666.89	659.58
667.086	656.87
667.281	632.07
667.477	685.35
667.672	664.04
667.867	627.81
668.063	647.76
668.258	580.14
668.454	629.74
668.649	700.46
668.844	644.08
669.04	670.62
669.235	599.13
669.43	629.94
669.626	579.56
669.821	591.96
670.016	610.37
670.211	611.92
670.407	584.02
670.602	617.54
670.797	574.14
670.992	641.95
671.187	581.69
671.382	628.19
671.578	581.5
671.773	636.33
671.968	567.36
672.163	607.46
672.358	639.24
672.553	560.77
672.748	595.84
672.943	629.16
673.138	583.05
673.333	628.19
673.528	571.62
673.723	609.59
673.918	621.41
674.113	571.23
674.308	673.14
674.503	608.04
674.698	610.76
674.892	627.03
675.087	589.06
675.282	589.06
675.477	595.26
675.672	620.83
675.867	603.2
676.061	578.4
676.256	526.48
676.451	565.23
676.646	595.26
676.84	544.69
677.035	516.01
677.23	556.31
677.424	615.41
677.619	603.01
677.814	629.36
678.008	610.76
678.203	511.94
678.397	539.65
678.592	592.74
678.787	626.64
678.981	582.66
679.176	593.9
679.37	585.37
679.565	541.59
679.759	572.2
679.954	588.47
680.148	646.41
680.342	635.56
680.537	625.09
680.731	607.07
680.926	619.67
681.12	595.84
681.314	560.58
681.509	584.41
681.703	592.93
681.897	633.23
682.092	576.27
682.286	571.04
682.48	622.96
682.674	622.38
682.869	586.73
683.063	628
683.257	662.87
683.451	562.9
683.645	615.41
683.839	622.57
684.034	584.99
684.228	637.3
684.422	578.21
684.616	592.54
684.81	629.36
685.004	578.59
685.198	627.61
685.392	644.47
685.586	584.6
685.78	631.49
685.974	650.67
686.168	629.36
686.362	684.96
686.556	573.17
686.75	543.33
686.944	531.13
687.138	554.96
687.331	483.85
687.525	497.99
687.719	440.26
687.913	494.12
688.107	491.21
688.301	487.34
688.494	553.41
688.688	473.97
688.882	475.13
689.076	482.88
689.269	519.89
689.463	613.86
689.657	538.1
689.85	571.23
690.044	582.66
690.238	625.67
690.431	580.14
690.625	584.6
690.818	627.22
691.012	632.65
691.205	672.95
691.399	597
691.593	689.03
691.786	756.45
691.98	733.4
692.173	769.24
692.366	734.75
692.56	772.34
692.753	829.88
692.947	759.55
693.14	827.75
693.333	831.43
693.527	771.95
693.72	844.22
693.914	824.27
694.107	844.42
694.3	868.83
694.493	848.1
694.687	897.31
694.88	873.67
695.073	970.54
695.266	936.64
695.46	924.43
695.653	1007.36
695.846	997.09
696.039	967.64
696.232	1050.76
696.425	1040.68
696.618	1094.93
696.812	1066.06
697.005	1142.4
697.198	1185.6
697.391	1187.93
697.584	1222.03
697.777	1259.62
697.97	1255.16
698.163	1267.56
698.356	1251.48
698.549	1351.65
698.742	1340.02
698.935	1267.17
699.127	1324.52
699.32	1316.58
699.513	1338.08
699.706	1358.81
699.899	1399.11
700.092	1350.68
700.285	1377.99
700.477	1341.38
700.67	1414.81
700.863	1408.22
701.056	1514.39
701.248	1489.59
701.441	1472.35
701.634	1493.86
701.826	1569.42
702.019	1456.46
702.212	1545.39
702.404	1517.88
702.597	1492.5
702.79	1544.04
702.982	1587.44
703.175	1642.65
703.367	1641.3
703.56	1623.28
703.752	1740.11
703.945	1741.85
704.137	1733.13
704.33	1729.84
704.522	1767.43
704.715	1810.63
704.907	1826.33
705.1	1856.36
705.292	1882.51
705.484	1846.67
705.677	1884.84
705.869	1938.51
706.061	1936.96
706.254	1988.49
706.446	1923.39
706.638	1954.78
706.831	2058.63
707.023	1981.71
707.215	2096.02
707.407	2090.21
707.599	2048.17
707.792	2177.01
707.984	2135.55
708.176	2175.46
708.368	2162.67
708.56	2146.4
708.752	2174.88
708.944	2133.8
709.136	2215.18
709.329	2196
709.521	2349.06
709.713	2287.44
709.905	2315.34
710.097	2336.27
710.289	2315.54
710.481	2307.21
710.672	2359.32
710.864	2405.82
711.056	2454.65
711.248	2435.08
711.44	2426.94
711.632	2462.2
711.824	2516.07
712.016	2518.58
712.207	2535.63
712.399	2515.68
712.591	2613.52
712.783	2566.25
712.975	2594.34
713.166	2552.1
713.358	2552.49
713.55	2616.43
713.741	2658.66
713.933	2648.98
714.125	2627.08
714.316	2615.85
714.508	2668.35
714.7	2672.03
714.891	2674.94
715.083	2705.74
715.274	2648.2
715.466	2662.54
715.657	2733.84
715.849	2609.84
716.04	2691.79
716.232	2598.6
716.423	2635.8
716.615	2543.77
716.806	2473.25
716.998	2451.55
717.189	2339.95
717.381	2243.66
717.572	2219.25
717.763	2202.78
717.955	2183.01
718.146	2158.6
718.337	2076.65
718.528	2066.19
718.72	1979.58
718.911	2036.15
719.102	1991.01
719.293	2011.55
719.485	1995.27
719.676	1976.87
719.867	1949.16
720.058	1977.26
720.249	1975.9
720.44	1971.83
720.632	1999.34
720.823	2136.52
721.014	2247.53
721.205	2285.89
721.396	2370.17
721.587	2451.35
721.778	2504.44
721.969	2587.17
722.16	2638.9
722.351	2660.99
722.542	2787.7
722.733	2795.06
722.924	2753.41
723.115	2765.61
723.305	2694.89
723.496	2729.58
723.687	2596.66
723.878	2588.14
724.069	2601.12
724.26	2584.27
724.45	2532.73
724.641	2513.74
724.832	2561.21
725.023	2490.88
725.213	2527.69
725.404	2475.77
725.595	2474.02
725.785	2458.52
725.976	2547.65
726.167	2511.61
726.357	2528.27
726.548	2639.48
726.739	2562.18
726.929	2644.52
727.12	2664.86
727.31	2699.16
727.501	2587.37
727.691	2643.16
727.882	2615.46
728.072	2645.1
728.263	2698.19
728.453	2757.28
728.644	2756.89
728.834	2724.54
729.024	2705.55
729.215	2656.92
729.405	2700.71
729.596	2769.87
729.786	2805.52
729.976	2806.69
730.167	2833.81
730.357	2794.48
730.547	2824.71
730.737	2863.45
730.928	2882.64
731.118	2961.49
731.308	2885.74
731.498	2893.1
731.688	2997.33
731.879	2965.37
732.069	3006.83
732.259	3095.18
732.449	3124.63
732.639	3222.27
732.829	3229.44
733.019	3310.24
733.209	3361.97
733.399	3353.25
733.589	3438.69
733.779	3486.55
733.969	3482.48
734.159	3592.91
734.349	3586.52
734.539	3635.54
734.729	3643.29
734.919	3668.47
735.109	3735.51
735.299	3670.99
735.488	3671.19
735.678	3686.88
735.868	3697.54
736.058	3689.4
736.248	3672.74
736.437	3623.91
736.627	3639.22
736.817	3763.22
737.007	3658.01
737.196	3757.02
737.386	3717.69
737.576	3664.21
737.765	3781.62
737.955	3773.49
738.144	3873.07
738.334	3845.75
738.524	3758.95
738.713	3870.17
738.903	3783.37
739.092	3868.03
739.282	3887.22
739.471	3887.02
739.661	3881.4
739.85	3922.28
740.04	3929.65
740.229	3932.94
740.419	3936.23
740.608	4017.41
740.797	3938.95
740.987	4043.57
741.176	4002.69
741.365	4000.75
741.555	3947.86
741.744	4066.63
741.933	3992.03
742.123	4049.19
742.312	4063.91
742.501	4052.48
742.69	4093.17
742.88	4002.49
743.069	4156.52
743.258	4057.91
743.447	4124.75
743.636	4160.59
743.825	4092.01
744.014	4157.88
744.204	4191.4
744.393	4094.52
744.582	4258.05
744.771	4238.48
744.96	4139.28
745.149	4158.07
745.338	4153.42
745.527	4186.55
745.716	4194.11
745.905	4122.42
746.094	4231.5
746.283	4206.7
746.471	4199.92
746.66	4218.14
746.849	4246.62
747.038	4230.73
747.227	4174.54
747.416	4214.65
747.604	4167.95
747.793	4155.56
747.982	4163.89
748.171	4233.83
748.359	4215.23
748.548	4226.08
748.737	4162.14
748.926	4130.37
749.114	4088.13
749.303	4192.17
749.491	4150.13
749.68	4125.91
749.869	4209.22
750.057	4183.26
750.246	4131.34
750.434	4119.52
750.623	4159.62
750.811	4108.28
751	4157.69
751.188	4111.77
751.377	4151.29
751.565	4090.46
751.754	4096.85
751.942	4078.25
752.131	4179
752.319	4073.21
752.507	4046.48
752.696	4081.54
752.884	4129.4
753.072	4098.4
753.261	4141.8
753.449	4081.93
753.637	4056.55
753.825	4160.59
754.014	4110.8
754.202	4133.47
754.39	4139.86
754.578	4124.17
754.766	4049.19
754.955	4059.46
755.143	4100.92
755.331	4092.01
755.519	4079.41
755.707	4071.47
755.895	4038.92
756.083	4022.26
756.271	4007.14
756.459	4049.58
756.647	3998.04
756.835	3993.19
757.023	4011.99
757.211	4006.56
757.399	3967.23
757.587	3974.98
757.775	3948.44
757.963	3957.93
758.151	3939.72
758.339	3890.12
758.526	3874.62
758.714	3870.36
758.902	3794.8
759.09	3699.09
759.278	3436.95
759.465	3165.51
759.653	2732.68
759.841	2470.92
760.028	2128.77
760.216	1858.88
760.404	1707.95
760.591	1403.18
760.779	1185.02
760.967	1030.99
761.154	860.11
761.342	846.55
761.529	854.3
761.717	903.31
761.905	900.02
762.092	982.17
762.28	883.75
762.467	881.23
762.655	808.96
762.842	816.71
763.029	842.67
763.217	867.47
763.404	855.26
763.592	879.87
763.779	848.87
763.966	874.06
764.154	903.31
764.341	988.76
764.528	973.26
764.716	1053.66
764.903	1110.82
765.09	1196.07
765.277	1270.27
765.465	1482.23
765.652	1499.86
765.839	1608.94
766.026	1750.18
766.213	1828.07
766.4	1935.99
766.588	2126.25
766.775	2196.58
766.962	2311.66
767.149	2463.37
767.336	2590.66
767.523	2555.59
767.71	2713.49
767.897	2827.03
768.084	2956.26
768.271	2938.82
768.458	3050.23
768.645	3114.16
768.832	3145.16
769.019	3152.14
769.206	3198.25
769.392	3265.67
769.579	3353.83
769.766	3348.6
769.953	3345.5
770.14	3396.84
770.327	3412.15
770.513	3426.1
770.7	3542.15
770.887	3438.11
771.073	3488.29
771.26	3479.96
771.447	3498.56
771.634	3498.36
771.82	3570.05
772.007	3430.36
772.193	3525.3
772.38	3530.53
772.567	3510.18
772.753	3510.38
772.94	3552.23
773.126	3549.71
773.313	3550.48
773.499	3497.78
773.686	3532.46
773.872	3486.16
774.059	3533.82
774.245	3466.4
774.432	3454
774.618	3368.75
774.804	3494.68
774.991	3412.92
775.177	3443.34
775.363	3446.83
775.55	3508.63
775.736	3443.53
775.922	3453.03
776.109	3429.58
776.295	3443.34
776.481	3450.12
776.667	3464.07
776.853	3422.8
777.04	3413.7
777.226	3390.83
777.412	3492.16
777.598	3427.84
777.784	3379.79
777.97	3369.14
778.156	3396.65
778.342	3368.55
778.528	3341.62
778.715	3303.26
778.901	3338.52
779.087	3347.44
779.272	3336.78
779.458	3321.28
779.644	3347.05
779.83	3332.13
780.016	3414.47
780.202	3330
780.388	3319.73
780.574	3225.96
780.76	3285.05
780.946	3294.74
781.131	3305.2
781.317	3282.72
781.503	3228.47
781.689	3218.98
781.874	3336.39
782.06	3220.14
782.246	3275.94
782.432	3230.41
782.617	3266.84
782.803	3287.76
782.989	3202.71
783.174	3163.76
783.36	3153.49
783.545	3184.11
783.731	3153.3
783.916	3116.88
784.102	3193.02
784.288	3140.51
784.473	3140.13
784.659	3100.41
784.844	3162.6
785.029	3108.93
785.215	3103.12
785.4	3065.73
785.586	3131.6
785.771	3026.4
785.956	3106.22
786.142	3031.05
786.327	3058.36
786.512	3061.27
786.698	3050.03
786.883	2951.22
787.068	3004.31
787.254	3030.46
787.439	2983.38
787.624	2955.29
787.809	2955.29
787.994	2942.7
788.18	3009.54
788.365	2938.63
788.55	2943.67
788.735	2918.09
788.92	2933.59
789.105	2862.1
789.29	2937.08
789.475	2859.19
789.66	2855.9
789.845	2846.02
790.03	2811.72
790.215	2881.09
790.4	2902.79
790.585	2864.23
790.77	2834.78
790.955	2766
791.14	2786.73
791.325	2883.41
791.51	2722.02
791.695	2784.99
791.879	2778.21
792.064	2748.76
792.249	2825.09
792.434	2751.08
792.618	2791.57
792.803	2801.07
792.988	2782.47
793.173	2780.72
793.357	2842.92
793.542	2790.22
793.727	2792.54
793.911	2830.13
794.096	2808.62
794.281	2882.44
794.465	2898.14
794.65	2835.36
794.834	2855.9
795.019	2876.24
795.203	2870.43
795.388	2902.01
795.572	2923.71
795.757	2869.85
795.941	2872.95
796.126	2830.52
796.31	2774.52
796.494	2822.38
796.679	2787.7
796.863	2806.11
797.048	2859.58
797.232	2814.63
797.416	2845.63
797.601	2837.49
797.785	2905.89
797.969	2902.98
798.153	2789.25
798.338	2907.24
798.522	2881.47
798.706	2938.63
798.89	2899.3
799.074	2965.56
799.258	2943.08
799.443	2895.62
799.627	2899.69
799.811	2957.03
799.995	2897.94
800.179	2850.86
800.363	2812.31
800.547	2844.66
800.731	2896.2
800.915	2797
801.099	2829.74
801.283	2803.2
801.467	2808.82
801.651	2816.96
801.835	2881.09
802.019	2875.47
802.202	2854.74
802.386	2802.81
802.57	2750.5
802.754	2837.69
802.938	2735.39
803.121	2787.12
803.305	2807.46
803.489	2816.37
803.673	2845.63
803.856	2816.18
804.04	2793.71
804.224	2819.67
804.407	2821.8
804.591	2805.14
804.775	2810.37
804.958	2872.17
805.142	2911.31
805.326	2835.17
805.509	2829.55
805.693	2890.97
805.876	2868.88
806.06	2871.98
806.243	2878.76
806.427	2934.75
806.61	2959.75
806.794	2871.98
806.977	2918.09
807.16	2882.64
807.344	2914.22
807.527	2892.13
807.71	2837.49
807.894	2894.26
808.077	2914.41
808.26	2842.53
808.444	2806.69
808.627	2885.74
808.81	2740.23
808.993	2759.99
809.177	2746.43
809.36	2766.19
809.543	2782.47
809.726	2729.19
809.909	2745.27
810.092	2654.01
810.276	2681.91
810.459	2680.56
810.642	2639.29
810.825	2628.83
811.008	2641.42
811.191	2510.45
811.374	2546.1
811.557	2557.72
811.74	2615.65
811.923	2510.25
812.106	2449.8
812.289	2475.96
812.472	2480.61
812.654	2438.37
812.837	2380.25
813.02	2338.21
813.203	2299.84
813.386	2250.83
813.569	2204.33
813.751	2113.85
813.934	2172.16
814.117	2151.82
814.3	2107.45
814.482	2038.09
814.665	2007.87
814.848	1966.02
815.03	1928.82
815.213	1880.58
815.396	1862.36
815.578	1833.49
815.761	1806.18
815.943	1882.51
816.126	1769.36
816.309	1763.94
816.491	1723.25
816.674	1669
816.856	1683.53
817.039	1679.85
817.221	1736.04
817.403	1701.75
817.586	1727.51
817.768	1737.78
817.951	1677.72
818.133	1644.98
818.315	1642.27
818.498	1717.25
818.68	1761.23
818.862	1750.57
819.045	1781.57
819.227	1746.89
819.409	1758.51
819.591	1756.77
819.774	1749.02
819.956	1674.62
820.138	1824
820.32	1794.75
820.502	1856.74
820.684	1923.01
820.866	1966.99
821.048	1978.81
821.231	2029.18
821.413	2034.99
821.595	1964.08
821.777	1982.1
821.959	1971.44
822.141	2017.17
822.323	1909.25
822.505	1803.66
822.686	1749.8
822.868	1736.43
823.05	1550.24
823.232	1530.86
823.414	1450.07
823.596	1534.74
823.778	1541.52
823.96	1547.33
824.141	1574.07
824.323	1596.35
824.505	1717.63
824.687	1746.5
824.868	1803.46
825.05	1901.31
825.232	1917.19
825.413	2009.22
825.595	1960.21
825.777	1872.83
825.958	1942.38
826.14	1880.38
826.321	1913.32
826.503	1959.04
826.685	1954.78
826.866	1983.07
827.048	1969.51
827.229	1879.99
827.411	1868.76
827.592	1856.36
827.773	1814.31
827.955	1765.68
828.136	1719.76
828.318	1736.04
828.499	1753.86
828.68	1718.8
828.862	1713.57
829.043	1758.32
829.224	1724.41
829.406	1672.3
829.587	1698.65
829.768	1716.67
829.949	1753.09
830.131	1721.9
830.312	1779.44
830.493	1707.56
830.674	1733.91
830.855	1730.03
831.036	1716.08
831.218	1819.16
831.399	1805.6
831.58	1718.02
831.761	1766.26
831.942	1755.22
832.123	1724.41
832.304	1683.53
832.485	1718.22
832.666	1711.63
832.847	1792.81
833.028	1741.46
833.209	1756.19
833.389	1723.64
833.57	1717.25
833.751	1676.95
833.932	1793
834.113	1730.42
834.294	1719.96
834.475	1760.45
834.655	1792.42
834.836	1818.19
835.017	1786.61
835.198	1757.93
835.378	1780.41
835.559	1838.92
835.74	1758.9
835.92	1766.07
836.101	1758.13
836.281	1818.58
836.462	1785.64
836.643	1845.51
836.823	1835.82
837.004	1809.86
837.184	1856.36
837.365	1870.5
837.545	1847.25
837.726	1806.95
837.906	1897.04
838.087	1815.28
838.267	1838.53
838.448	1807.14
838.628	1824.19
838.808	1815.09
838.989	1872.83
839.169	1795.13
839.349	1834.85
839.53	1866.82
839.71	1869.73
839.89	1827.68
840.07	1897.62
840.251	1821.87
840.431	1901.11
840.611	1818.58
840.791	1823.61
840.971	1856.94
841.151	1826.13
841.332	1792.61
841.512	1864.3
841.692	1768.2
841.872	1851.13
842.052	1811.21
842.232	1849.96
842.412	1738.17
842.592	1800.17
842.772	1821.29
842.952	1792.61
843.132	1786.22
843.312	1807.53
843.492	1779.05
843.672	1826.33
843.851	1767.43
844.031	1789.13
844.211	1777.89
844.391	1771.3
844.571	1790.1
844.751	1807.34
844.93	1797.46
845.11	1756.19
845.29	1783.12
845.47	1816.06
845.649	1808.89
845.829	1826.91
846.009	1764.52
846.188	1804.82
846.368	1759.68
846.547	1784.86
846.727	1802.88
846.907	1765.88
847.086	1757.93
847.266	1768.2
847.445	1772.66
847.625	1788.74
847.804	1728.68
847.984	1738.56
848.163	1721.51
848.343	1736.62
848.522	1748.05
848.701	1730.81
848.881	1729.06
849.06	1741.85
849.239	1704.27
849.419	1729.65
849.598	1668.81
849.777	1673.85
849.957	1622.7
850.136	1556.63
850.315	1558.57
850.494	1605.84
850.674	1581.24
850.853	1631.22
851.032	1603.13
851.211	1656.22
851.39	1616.3
851.569	1561.28
851.748	1541.71
851.927	1657.57
852.107	1627.15
852.286	1590.34
852.465	1577.55
852.644	1619.99
852.823	1595.38
853.002	1600.61
853.181	1599.64
853.359	1599.64
853.538	1546.94
853.717	1627.15
853.896	1497.15
854.075	1420.62
854.254	1414.81
854.433	1351.26
854.611	1395.82
854.79	1333.05
854.969	1383.23
855.148	1421.01
855.327	1386.13
855.505	1421.59
855.684	1434.96
855.863	1436.89
856.041	1454.91
856.22	1448.52
856.399	1445.81
856.577	1536.87
856.756	1516.91
856.934	1628.7
857.113	1634.52
857.291	1499.86
857.47	1522.53
857.648	1528.54
857.827	1556.24
858.005	1557.99
858.184	1494.82
858.362	1617.85
858.541	1541.71
858.719	1527.76
858.898	1534.16
859.076	1543.65
859.254	1570
859.433	1542.87
859.611	1507.61
859.789	1459.17
859.967	1568.84
860.146	1556.05
860.324	1487.46
860.502	1484.56
860.68	1474.87
860.859	1477.77
861.037	1471.57
861.215	1493.66
861.393	1479.32
861.571	1495.79
861.749	1436.89
861.927	1455.88
862.105	1482.42
862.283	1457.24
862.461	1428.18
862.639	1434.38
862.817	1451.43
862.995	1454.91
863.173	1444.06
863.351	1457.04
863.529	1433.6
863.707	1441.74
863.885	1440.19
864.063	1380.9
864.241	1403.76
864.418	1495.41
864.596	1411.71
864.774	1367.73
864.952	1420.23
865.129	1421.39
865.307	1373.15
865.485	1328.4
865.663	1425.27
865.84	1348.16
866.018	1340.41
866.196	1217.96
866.373	1224.16
866.551	1218.93
866.728	1152.67
866.906	1209.24
867.084	1209.24
867.261	1282.28
867.439	1274.34
867.616	1294.49
867.794	1270.27
867.971	1330.14
868.149	1301.85
868.326	1343.51
868.503	1341.18
868.681	1311.93
868.858	1320.45
869.035	1258.45
869.213	1321.23
869.39	1275.12
869.567	1342.93
869.745	1303.21
869.922	1341.76
870.099	1323.94
870.276	1323.94
870.454	1344.67
870.631	1338.08
870.808	1303.21
870.985	1326.65
871.162	1360.56
871.339	1313.09
871.517	1268.92
871.694	1246.83
871.871	1265.43
872.048	1301.46
872.225	1285.58
872.402	1307.08
872.579	1231.33
872.756	1320.26
872.933	1249.73
873.11	1264.65
873.287	1282.09
873.463	1248.77
873.64	1226.87
873.817	1258.45
873.994	1235.2
874.171	1231.52
874.348	1290.03
874.524	1167.97
874.701	1199.36
874.878	1160.22
875.055	1248.77
875.231	1222.22
875.408	1237.53
875.585	1131.16
875.762	1206.14
875.938	1201.88
876.115	1151.89
876.291	1191.61
876.468	1174.75
876.645	1153.64
876.821	1159.25
876.998	1176.3
877.174	1176.11
877.351	1198.58
877.527	1139.69
877.704	1179.02
877.88	1210.79
878.057	1155.77
878.233	1207.88
878.409	1139.3
878.586	1173.59
878.762	1167
878.938	1155.19
879.115	1058.51
879.291	1147.44
879.467	1104.81
879.644	1129.61
879.82	1126.32
879.996	1109.85
880.172	1073.81
880.349	1096.48
880.525	1175.72
880.701	1062.96
880.877	1070.13
881.053	1113.92
881.229	1097.06
881.405	1148.6
881.581	1073.04
881.757	1123.8
881.933	1124.57
882.109	1147.05
882.285	1103.65
882.461	1057.34
882.637	1075.36
882.813	1043.78
882.989	1084.08
883.165	1140.46
883.341	1094.93
883.517	1134.26
883.693	1093.19
883.869	1115.85
884.044	1043.39
884.22	1104.23
884.396	1142.2
884.572	1124.77
884.747	1137.55
884.923	1107.52
885.099	1141.43
885.275	1113.72
885.45	1076.14
885.626	1068.97
885.801	1065.87
885.977	1076.33
886.153	1039.13
886.328	1090.86
886.504	1086.02
886.679	1109.07
886.855	1075.17
887.03	1095.71
887.206	1153.44
887.381	1101.71
887.557	1111.98
887.732	1111.98
887.908	1091.25
888.083	1111.01
888.258	1073.62
888.434	1074.39
888.609	1105.78
888.784	1121.09
888.96	1089.12
889.135	1091.25
889.31	1039.52
889.485	1089.89
889.661	1079.62
889.836	1112.56
890.011	1064.32
890.186	1079.24
890.361	1086.02
890.537	1077.3
890.712	1078.07
890.887	1116.63
891.062	1090.09
891.237	1133.49
891.412	1051.53
891.587	1070.52
891.762	1099.19
891.937	1103.65
892.112	1031.77
892.287	1040.49
892.462	1029.64
892.637	1016.46
892.812	993.79
892.987	997.86
893.161	952.91
893.336	985.27
893.511	1001.54
893.686	990.89
893.861	954.66
894.035	987.59
894.21	979.65
894.385	924.63
894.56	944.19
894.734	881.42
894.909	905.83
895.084	913.97
895.258	891.88
895.433	866.5
895.608	848.29
895.782	806.44
895.957	820.58
896.131	814.97
896.306	772.53
896.48	747.15
896.655	761.88
896.829	693.1
897.004	672.56
897.178	697.75
897.353	688.25
897.527	749.67
897.701	708.6
897.876	657.06
898.05	748.12
898.224	741.34
898.399	731.85
898.573	708.02
898.747	587.51
898.921	636.91
899.096	535
899.27	572.01
899.444	584.41
899.618	603.39
899.792	616.57
899.967	617.15
900.141	676.24
900.315	600.29
900.489	585.76
900.663	597
900.837	599.52
901.011	572.39
901.185	649.12
901.359	566.78
901.533	624.12
901.707	586.73
901.881	614.44
902.055	571.62
902.229	598.16
902.403	626.26
902.576	599.32
902.75	588.09
902.924	708.02
903.098	640.01
903.272	721.19
903.446	736.3
903.619	744.64
903.793	762.27
903.967	746.57
904.14	797.33
904.314	770.21
904.488	780.87
904.661	815.93
904.835	762.65
905.009	816.13
905.182	833.18
905.356	794.43
905.529	806.25
905.703	732.24
905.876	746.77
906.05	731.27
906.223	671.59
906.397	647.96
906.57	623.74
906.744	629.94
906.917	610.56
907.09	628.19
907.264	604.75
907.437	581.89
907.61	556.31
907.784	580.53
907.957	581.11
908.13	535.19
908.304	595.26
908.477	541.2
908.65	552.24
908.823	494.31
908.996	582.86
909.17	516.4
909.343	522.79
909.516	556.12
909.689	514.46
909.862	526.28
910.035	514.27
910.208	516.79
910.381	502.64
910.554	571.62
910.727	522.41
910.9	513.49
911.073	525.7
911.246	567.16
911.419	592.16
911.592	559.22
911.765	525.31
911.938	503.42
912.11	525.7
912.283	540.81
912.456	579.95
912.629	570.07
912.802	493.73
912.974	449.17
913.147	434.06
913.32	392.4
913.493	416.81
913.665	419.91
913.838	469.13
914.01	444.33
914.183	473.39
914.356	480.75
914.528	534.42
914.701	527.25
914.873	485.98
915.046	441.03
915.218	405.19
915.391	387.17
915.563	364.12
915.736	421.46
915.908	468.93
916.081	472.61
916.253	419.33
916.425	437.93
916.598	486.37
916.77	432.9
916.942	435.03
917.115	358.11
917.287	420.11
917.459	400.73
917.632	390.47
917.804	339.7
917.976	414.88
918.148	425.73
918.32	401.9
918.493	477.26
918.665	471.26
918.837	463.31
919.009	514.08
919.181	506.71
919.353	487.92
919.525	483.85
919.697	476.1
919.869	491.99
920.041	542.17
920.213	598.55
920.385	527.06
920.557	505.16
920.729	533.64
920.901	495.09
921.073	495.09
921.244	472.42
921.416	525.89
921.588	488.31
921.76	457.31
921.932	550.5
922.103	502.64
922.275	485.01
922.447	491.02
922.619	448.01
922.79	460.99
922.962	416.62
923.134	494.12
923.305	424.18
923.477	415.26
923.648	404.61
923.82	433.28
923.991	380
924.163	364.31
924.335	395.31
924.506	380.2
924.677	420.11
924.849	404.03
925.02	398.99
925.192	421.66
925.363	430.18
925.535	442
925.706	411.58
925.877	435.8
926.049	370.12
926.22	418.56
926.391	411.78
926.562	458.28
926.734	368.77
926.905	433.48
927.076	329.24
927.247	377.87
927.419	350.17
927.59	353.85
927.761	341.25
927.932	318.78
928.103	352.1
928.274	286.04
928.445	279.64
928.616	273.64
928.787	287.2
928.958	327.3
929.129	292.62
929.3	272.67
929.471	221.52
929.642	193.04
929.813	189.55
929.984	255.23
930.155	178.89
930.326	208.15
930.496	158.16
930.667	147.12
930.838	174.24
931.009	132.2
931.18	152.54
931.35	147.7
931.521	160.87
931.692	112.63
931.863	47.34
932.033	100.81
932.204	87.06
932.374	121.74
932.545	47.53
932.716	108.37
932.886	105.66
933.057	33.78
933.227	53.73
933.398	131.23
933.568	20.99
933.739	23.51
933.909	29.51
934.08	90.93
934.25	-1.49
934.421	16.15
934.591	75.24
934.761	20.02
934.932	-14.08
935.102	56.25
935.272	21.57
935.443	37.46
935.613	28.55
935.783	34.75
935.953	18.08
936.123	168.43
936.294	14.4
936.464	30.1
936.634	44.63
936.804	12.46
936.974	4.52
937.144	52.18
937.314	25.83
937.484	19.25
937.655	18.28
937.825	76.01
937.995	5.88
938.165	82.99
938.334	26.03
938.504	47.34
938.674	52.57
938.844	64.19
939.014	124.26
939.184	110.31
939.354	131.43
939.524	112.24
939.694	101.78
939.863	77.76
940.033	154.29
940.203	122.32
940.373	121.35
940.542	136.66
940.712	76.21
940.882	119.41
941.051	124.06
941.221	135.88
941.391	124.45
941.56	86.48
941.73	66.33
941.899	157.97
942.069	79.69
942.238	83.96
942.408	86.48
942.577	80.66
942.747	106.63
942.916	33.97
943.086	55.09
943.255	98.68
943.425	54.12
943.594	59.35
943.763	-11.95
943.933	27.38
944.102	2.78
944.271	50.83
944.441	64.97
944.61	32.81
944.779	72.53
944.948	152.54
945.117	33.58
945.287	79.31
945.456	2.39
945.625	35.33
945.794	44.63
945.963	34.16
946.132	86.86
946.301	33.78
946.47	105.08
946.639	53.15
946.808	45.98
946.977	78.73
947.146	87.06
947.315	50.25
947.484	89.58
947.653	45.98
947.822	52.57
947.991	11.11
948.16	115.73
948.329	97.33
948.498	82.41
948.666	77.37
948.835	76.98
949.004	34.16
949.173	12.85
949.341	57.03
949.51	76.4
949.679	87.83
949.847	89.77
950.016	108.37
950.185	113.41
950.353	39.01
950.522	42.69
950.69	130.07
950.859	72.91
951.028	112.63
951.196	79.31
951.365	56.45
951.533	65.74
951.701	96.94
951.87	84.73
952.038	33
952.207	84.73
952.375	96.74
952.543	36.88
952.712	50.44
952.88	38.81
953.048	122.13
953.217	63.03
953.385	69.04
953.553	98.88
953.721	22.54
953.89	58.38
954.058	28.55
954.226	37.65
954.394	80.86
954.562	14.4
954.73	41.14
954.898	41.72
955.067	87.25
955.235	32.03
955.403	85.7
955.571	129.29
955.739	86.48
955.907	38.43
956.075	44.05
956.243	38.62
956.41	79.5
956.578	14.01
956.746	8.01
956.914	52.38
957.082	83.57
957.25	98.68
957.418	64
957.585	73.3
957.753	134.53
957.921	30.87
958.089	75.43
958.256	72.91
958.424	96.74
958.592	76.21
958.759	59.16
958.927	82.21
959.095	21.76
959.262	52.38
959.43	78.34
959.597	31.26
959.765	61.87
959.932	66.33
960.1	101.78
960.267	82.21
960.435	53.73
960.602	82.41
960.77	86.48
960.937	22.73
961.104	55.67
961.272	12.85
961.439	51.99
961.606	76.4
961.774	79.89
961.941	53.73
962.108	79.69
962.275	68.46
962.443	119.03
962.61	79.89
962.777	132.2
962.944	95.78
963.111	73.11
963.278	103.91
963.446	78.73
963.613	71.56
963.78	102.94
963.947	122.51
964.114	89.19
964.281	145.57
964.448	71.94
964.615	75.43
964.782	74.66
964.949	105.27
965.116	112.44
965.282	110.11
965.449	83.96
965.616	61.29
965.783	129.88
965.95	96.55
966.117	39.59
966.283	79.11
966.45	102.36
966.617	101.39
966.784	118.25
966.95	120.77
967.117	125.03
967.284	82.02
967.45	61.68
967.617	140.14
967.784	135.69
967.95	129.68
968.117	94.61
968.283	133.36
968.45	189.74
968.616	121.16
968.783	139.18
968.949	113.21
969.116	149.83
969.282	101.01
969.449	130.46
969.615	91.13
969.781	68.46
969.948	87.06
970.114	70.01
970.28	144.21
970.447	99.84
970.613	138.79
970.779	131.62
970.945	141.5
971.112	92.29
971.278	100.62
971.444	120.19
971.61	149.25
971.776	90.35
971.942	133.56
972.108	121.54
972.275	78.34
972.441	111.86
972.607	171.72
972.773	87.44
972.939	111.66
973.105	108.18
973.271	74.08
973.437	100.23
973.602	95.97
973.768	117.86
973.934	96.55
974.1	140.92
974.266	35.33
974.432	91.9
974.598	77.56
974.763	106.82
974.929	68.07
975.095	118.44
975.261	79.31
975.426	55.48
975.592	88.41
975.758	168.62
975.923	74.66
976.089	74.66
976.255	107.79
976.42	114.76
976.586	99.26
976.751	110.69
976.917	163.97
977.082	107.4
977.248	55.48
977.413	22.35
977.579	73.3
977.744	103.72
977.91	49.86
978.075	70.39
978.24	114.38
978.406	83.76
978.571	65.94
978.736	63.61
978.902	88.22
979.067	72.14
979.232	41.14
979.397	117.09
979.563	124.84
979.728	77.18
979.893	66.52
980.058	62.84
980.223	100.81
980.388	75.63
980.554	95.97
980.719	68.84
980.884	95
981.049	107.79
981.214	58.77
981.379	93.45
981.544	70.78
981.709	70.2
981.874	79.89
982.039	76.4
982.204	138.79
982.368	108.76
982.533	57.41
982.698	134.72
982.863	138.59
983.028	75.63
983.193	91.71
983.357	99.46
983.522	102.36
983.687	83.96
983.852	75.43
984.016	73.3
984.181	98.88
984.346	76.01
984.51	95.97
984.675	90.74
984.839	114.18
985.004	87.44
985.168	117.86
985.333	120.19
985.498	82.41
985.662	114.38
985.827	119.22
985.991	79.89
986.155	78.92
986.32	103.91
986.484	126.58
986.649	86.28
986.813	40.95
986.977	106.04
987.142	118.44
987.306	42.88
987.47	87.44
987.634	78.53
987.799	99.26
987.963	85.31
988.127	99.26
988.291	150.99
988.455	96.55
988.62	76.98
988.784	98.29
988.948	114.38
989.112	68.07
989.276	103.33
989.44	91.9
989.604	73.69
989.768	72.14
989.932	150.02
990.096	78.34
990.26	56.83
990.424	20.21
990.588	92.09
990.752	134.72
990.915	122.71
991.079	80.47
991.243	61.09
991.407	103.91
991.571	81.44
991.734	100.81
991.898	97.71
992.062	148.28
992.226	81.83
992.389	45.21
992.553	19.25
992.717	70.39
992.88	49.86
993.044	46.37
993.207	88.41
993.371	87.64
993.535	107.21
993.698	91.32
993.862	90.74
994.025	107.21
994.189	74.85
994.352	102.94
994.515	80.66
994.679	103.72
994.842	64.97
995.006	74.08
995.169	71.75
995.332	55.48
995.496	114.18
995.659	43.85
995.822	37.07
995.985	54.31
996.149	122.71
996.312	84.15
996.475	141.31
996.638	38.62
996.801	111.28
996.964	151.96
997.128	67.68
997.291	69.43
997.454	86.67
997.617	26.61
997.78	123.29
997.943	39.59
998.106	106.63
998.269	42.69
998.432	79.31
998.595	61.09
998.758	23.31
998.92	45.4
999.083	34.94
999.246	83.96
999.409	30.68
999.572	17.5
999.735	41.14
999.897	59.35
1000.06	27.19
1000.223	59.16
1000.386	86.67
1000.548	105.85
1000.711	84.34
1000.874	57.61
1001.036	6.26
1001.199	78.53
1001.361	44.82
1001.524	56.64
1001.687	89.96
1001.849	42.11
1002.012	78.34
1002.174	88.41
1002.337	69.23
1002.499	65.16
1002.661	111.28
1002.824	29.9
1002.986	35.13
1003.149	55.67
1003.311	35.71
1003.473	95.19
1003.636	61.09
1003.798	88.8
1003.96	90.35
1004.123	64.58
1004.285	28.55
1004.447	48.7
1004.609	70.78
1004.771	95.58
1004.933	15.37
1005.096	19.63
1005.258	5.1
1005.42	54.51
1005.582	76.98
1005.744	72.33
1005.906	14.98
1006.068	51.02
1006.23	10.33
1006.392	7.81
1006.554	17.89
1006.716	65.16
1006.878	59.16
1007.04	7.62
1007.202	47.92
1007.363	33.58
1007.525	31.84
1007.687	52.96
1007.849	110.11
1008.011	-2.26
1008.172	9.17
1008.334	25.06
1008.496	66.91
1008.658	0.65
1008.819	-5.75
1008.981	4.13
1009.143	25.06
1009.304	53.15
1009.466	68.07
1009.627	82.79
1009.789	111.08
1009.95	33.78
1010.112	19.44
1010.273	55.09
1010.435	4.33
1010.596	43.85
1010.758	19.83
1010.919	47.15
1011.081	15.95
1011.242	41.72
1011.403	64.78
1011.565	30.1
1011.726	42.88
1011.887	7.43
1012.049	54.7
1012.21	66.52
1012.371	92.68
1012.532	-34.62
1012.693	41.72
1012.855	11.11
1013.016	41.72
1013.177	67.29
1013.338	20.99
1013.499	99.26
1013.66	72.14
1013.821	50.05
1013.982	31.26
1014.143	33.97
1014.304	12.66
1014.465	49.66
1014.626	46.37
1014.787	16.34
1014.948	112.05
1015.109	-28.61
1015.27	58.38
1015.431	9.17
1015.592	-1.49
1015.752	68.84
1015.913	43.27
1016.074	47.73
1016.235	39.01
1016.395	27.58
1016.556	9.56
1016.717	16.53
1016.877	71.36
1017.038	17.5
1017.199	52.76
1017.359	30.48
1017.52	51.21
1017.681	11.69
1017.841	20.99
1018.002	3.55
1018.162	29.71
1018.323	88.03
1018.483	16.53
1018.644	22.93
1018.804	-3.42
1018.964	10.53
1019.125	-5.17
1019.285	3.36
1019.446	19.63
1019.606	16.92
1019.766	-7.49
1019.926	39.2
1020.087	46.95
1020.247	-27.25
1020.407	34.75
1020.567	90.35
1020.728	13.24
1020.888	-4.97
1021.048	12.66
1021.208	10.72
1021.368	10.91
1021.528	63.81
1021.688	52.38
1021.848	62.64
1022.008	23.31
1022.168	25.64
1022.328	15.37
1022.488	36.1
1022.648	15.95
1022.808	17.5
1022.968	15.18
1023.128	10.72
1023.288	-7.1
1023.448	13.63
1023.608	43.85
1023.767	52.57
1023.927	7.04
1024.087	-22.6
1024.247	-25.12
1024.406	26.03
1024.566	-2.26
1024.726	-35.58
1024.885	15.76
1025.045	16.15
1025.205	38.81
1025.364	13.63
1025.524	43.46
1025.683	24.28
1025.843	33.97
1026.003	35.52
1026.162	60.71
1026.321	26.8
1026.481	-9.43
1026.64	6.65
1026.8	34.55
1026.959	27.77
1027.119	25.25
1027.278	-9.82
1027.437	25.45
1027.597	-2.65
1027.756	5.1
1027.915	15.37
1028.074	32.23
1028.234	8.01
1028.393	24.09
1028.552	-3.81
1028.711	-70.27
1028.87	20.21
1029.03	-8.85
1029.189	11.69
1029.348	-58.06
1029.507	10.53
1029.666	18.86
1029.825	-22.41
1029.984	-20.28
1030.143	7.43
1030.302	1.42
1030.461	-22.22
1030.62	32.03
1030.779	52.76
1030.938	-5.94
1031.097	-44.69
1031.255	13.63
1031.414	40.56
1031.573	46.37
1031.732	-48.76
1031.891	1.61
1032.049	60.71
1032.208	29.32
1032.367	-4.39
1032.525	-3.62
1032.684	2.78
1032.843	33.97
1033.001	-26.87
1033.16	139.18
1033.319	36.3
1033.477	16.73
1033.636	-8.85
1033.794	-22.8
1033.953	48.31
1034.111	23.7
1034.27	-11.17
1034.428	14.21
1034.587	-27.64
1034.745	21.57
1034.903	9.17
1035.062	29.71
1035.22	-6.33
1035.378	29.13
1035.537	-21.44
1035.695	23.7
1035.853	-22.8
1036.011	30.48
1036.17	9.36
1036.328	-64.07
1036.486	21.18
1036.644	20.8
1036.802	-52.44
1036.96	-9.62
1037.119	0.65
1037.277	2.39
1037.435	-22.8
1037.593	4.91
1037.751	-10.2
1037.909	5.68
1038.067	5.68
