Data from gum_young_FLMT105791__32__17-38-31-045.txt Node

Date: Mon Mar 20 17:38:31 GMT 2023
User: antho
Spectrometer: FLMT10579
Trigger mode: 0
Integration Time (sec): 1.000000E-1
Scans to average: 10
Electric dark correction enabled: true
Nonlinearity correction enabled: false
Boxcar width: 0
XAxis mode: Wavelengths
Number of Pixels in Spectrum: 3648
>>>>>Begin Spectral Data<<<<<
345.248	-163.99
345.464	-163.99
345.681	-163.99
345.898	-173.1
346.114	-156.43
346.331	-7.44
346.548	32.28
346.764	8.06
346.981	-2.41
347.197	-16.36
347.414	-6.28
347.631	-13.06
347.847	56.11
348.064	-7.83
348.28	15.61
348.497	-53.75
348.713	-4.92
348.93	10.19
349.146	28.01
349.363	-8.61
349.579	-2.6
349.796	15.61
350.012	-11.51
350.229	17.55
350.445	9.99
350.661	-3.37
350.878	-15.77
351.094	9.61
351.311	14.26
351.527	26.46
351.743	2.63
351.96	26.85
352.176	16.19
352.392	-10.35
352.609	16.97
352.825	-25.66
353.041	-25.27
353.257	-27.4
353.474	-15.39
353.69	9.61
353.906	-3.96
354.122	-50.26
354.339	52.62
354.555	11.16
354.771	7.86
354.987	31.69
355.203	44.67
355.42	-15.19
355.636	-25.27
355.852	-26.04
356.068	-0.27
356.284	-26.43
356.5	46.81
356.716	-8.02
356.932	14.06
357.148	28.01
357.364	3.21
357.58	43.32
357.796	56.69
358.012	37.31
358.228	-0.27
358.444	-45.42
358.66	41.96
358.876	42.16
359.092	-21.01
359.308	-12.48
359.524	16.19
359.74	-5.89
359.956	-32.82
360.172	16.78
360.388	35.57
360.604	14.45
360.819	74.51
361.035	11.16
361.251	38.67
361.467	-31.86
361.683	45.84
361.898	8.64
362.114	40.61
362.33	8.64
362.546	24.72
362.762	-14.81
362.977	12.13
363.193	-33.21
363.409	64.24
363.624	6.7
363.84	-5.12
364.056	-1.82
364.271	39.83
364.487	28.98
364.703	-5.7
364.918	0.11
365.134	3.79
365.35	-38.44
365.565	95.63
365.781	-8.61
365.996	23.36
366.212	54.75
366.427	41.57
366.643	-12.29
366.858	-14.81
367.074	-27.98
367.289	54.36
367.505	92.53
367.72	-27.98
367.936	3.6
368.151	37.12
368.367	28.21
368.582	-8.8
368.798	4.76
369.013	55.52
369.228	1.08
369.444	18.13
369.659	51.65
369.874	-2.79
370.09	75.67
370.305	-59.17
370.52	-15.19
370.736	36.92
370.951	-8.41
371.166	38.47
371.381	69.67
371.597	21.43
371.812	-30.89
372.027	-19.84
372.242	0.31
372.458	57.66
372.673	-5.12
372.888	19.68
373.103	9.99
373.318	73.93
373.533	38.47
373.749	42.35
373.964	-30.89
374.179	56.69
374.394	0.69
374.609	35.18
374.824	-16.16
375.039	28.21
375.254	-23.33
375.469	68.51
375.684	33.24
375.899	69.86
376.114	22.59
376.329	6.89
376.544	42.16
376.759	44.09
376.974	6.7
377.189	22.98
377.404	15.81
377.619	46.03
377.834	-45.03
378.049	-21.78
378.264	-30.5
378.478	16
378.693	-7.64
378.908	22.39
379.123	-2.99
379.338	38.09
379.553	21.23
379.767	55.72
379.982	28.98
380.197	26.85
380.412	23.56
380.626	34.21
380.841	94.27
381.056	1.86
381.271	64.05
381.485	21.04
381.7	-8.02
381.915	17.94
382.129	6.12
382.344	9.41
382.559	34.21
382.773	33.63
382.988	-32.82
383.202	-1.44
383.417	18.33
383.632	111.32
383.846	47.58
384.061	38.28
384.275	5.73
384.49	20.26
384.704	29.56
384.919	53.59
385.133	8.06
385.348	47.39
385.562	-6.28
385.777	64.63
385.991	24.33
386.206	16.97
386.42	3.21
386.634	34.02
386.849	38.47
387.063	45.64
387.277	9.22
387.492	-7.44
387.706	-7.44
387.92	-20.23
388.135	52.81
388.349	15.03
388.563	30.34
388.778	6.31
388.992	42.74
389.206	55.52
389.42	85.75
389.635	28.79
389.849	42.74
390.063	39.06
390.277	33.83
390.491	65.02
390.706	72.57
390.92	35.57
391.134	32.28
391.348	70.44
391.562	-10.35
391.776	10.96
391.99	-3.57
392.205	69.86
392.419	27.43
392.633	34.79
392.847	61.72
393.061	22.78
393.275	83.42
393.489	20.07
393.703	50.87
393.917	66.57
394.131	-0.47
394.345	36.73
394.559	42.54
394.773	22.2
394.986	40.99
395.2	27.63
395.414	54.36
395.628	2.44
395.842	51.65
396.056	10.58
396.27	-2.6
396.484	34.41
396.697	54.56
396.911	74.32
397.125	37.31
397.339	47.19
397.553	38.67
397.766	98.34
397.98	51.65
398.194	83.04
398.408	50.1
398.621	55.14
398.835	66.96
399.049	75.67
399.262	85.94
399.476	81.49
399.69	61.53
399.903	84.2
400.117	52.62
400.331	62.5
400.544	32.86
400.758	133.99
400.971	73.54
401.185	78.39
401.398	14.45
401.612	80.32
401.826	56.3
402.039	73.16
402.253	45.26
402.466	77.61
402.68	51.65
402.893	55.14
403.106	60.56
403.32	45.26
403.533	78.77
403.747	49.91
403.96	56.3
404.174	95.44
404.387	25.69
404.6	51.65
404.814	99.31
405.027	74.51
405.24	68.7
405.454	60.76
405.667	93.11
405.88	29.18
406.094	73.74
406.307	98.15
406.52	75.48
406.733	33.83
406.947	21.43
407.16	118.49
407.373	130.31
407.586	51.26
407.799	49.52
408.012	107.45
408.226	65.41
408.439	138.45
408.652	25.69
408.865	54.94
409.078	116.75
409.291	68.51
409.504	54.17
409.717	63.47
409.93	93.69
410.143	84.97
410.357	9.22
410.57	25.49
410.783	67.92
410.996	89.04
411.209	79.16
411.421	126.63
411.634	64.24
411.847	36.73
412.06	81.29
412.273	70.44
412.486	89.43
412.699	174.68
412.912	73.35
413.125	94.66
413.338	101.44
413.55	106.09
413.763	46.03
413.976	102.8
414.189	70.83
414.402	84.59
414.615	141.35
414.827	52.42
415.04	102.22
415.253	106.48
415.466	133.99
415.678	145.23
415.891	97.76
416.104	83.42
416.316	78.19
416.529	71.8
416.742	109.19
416.954	128.95
417.167	90.98
417.38	80.52
417.592	153.95
417.805	86.52
418.017	46.03
418.23	133.8
418.442	83.42
418.655	95.82
418.868	101.06
419.08	93.11
419.293	144.26
419.505	140.39
419.718	129.54
419.93	152.98
420.142	81.87
420.355	143.29
420.567	150.85
420.78	107.45
420.992	66.18
421.205	194.44
421.417	75.67
421.629	102.99
421.842	97.37
422.054	62.31
422.266	139.22
422.479	154.72
422.691	102.99
422.903	132.44
423.115	105.32
423.328	93.5
423.54	119.07
423.752	112.29
423.964	68.89
424.177	111.71
424.389	87.88
424.601	213.62
424.813	109.58
425.025	138.06
425.238	143.1
425.45	109.58
425.662	98.34
425.874	371.72
426.086	116.56
426.298	133.6
426.51	121.01
426.722	111.71
426.934	100.09
427.146	131.28
427.358	76.26
427.57	147.75
427.782	113.26
427.994	118.69
428.206	100.86
428.418	62.31
428.63	123.72
428.842	145.62
429.054	108.42
429.266	162.86
429.478	83.42
429.69	147.75
429.902	79.74
430.114	142.13
430.325	118.69
430.537	102.22
430.749	97.96
430.961	77.42
431.173	104.93
431.384	129.92
431.596	53.2
431.808	94.66
432.02	136.9
432.231	135.93
432.443	168.29
432.655	122.56
432.867	90.21
433.078	163.25
433.29	189.02
433.502	161.7
433.713	187.47
433.925	164.6
434.136	169.45
434.348	117.91
434.56	94.27
434.771	209.36
434.983	103.38
435.194	120.04
435.406	139.8
435.617	159.37
435.829	183.2
436.04	170.22
436.252	158.99
436.463	219.43
436.675	189.79
436.886	143.1
437.098	173.52
437.309	241.33
437.521	144.84
437.732	187.47
437.943	163.25
438.155	159.76
438.366	124.11
438.578	204.52
438.789	147.55
439	205.1
439.211	157.82
439.423	182.82
439.634	180.69
439.845	174.49
440.057	180.3
440.268	188.44
440.479	157.24
440.69	179.14
440.902	185.92
441.113	173.71
441.324	159.76
441.535	202.97
441.746	233.38
441.957	153.37
442.168	160.15
442.38	209.94
442.591	213.23
442.802	162.47
443.013	186.89
443.224	210.52
443.435	181.46
443.646	177.78
443.857	196.19
444.068	177
444.279	188.24
444.49	276.2
444.701	217.11
444.912	313.79
445.123	221.37
445.334	227.77
445.545	202.77
445.756	210.91
445.967	182.04
446.178	234.74
446.388	218.08
446.599	237.65
446.81	227.96
447.021	210.52
447.232	248.5
447.443	274.27
447.653	200.06
447.864	250.24
448.075	234.35
448.286	250.82
448.496	251.79
448.707	276.01
448.918	202.58
449.129	313.98
449.339	230.67
449.55	223.89
449.761	230.67
449.971	277.17
450.182	239.2
450.393	267.68
450.603	243.65
450.814	262.83
451.024	275.23
451.235	270.58
451.446	307.01
451.656	324.06
451.867	234.35
452.077	279.11
452.288	306.04
452.498	311.66
452.709	273.1
452.919	266.52
453.13	269.23
453.34	293.45
453.55	235.32
453.761	305.46
453.971	277.37
454.182	297.52
454.392	274.27
454.602	348.66
454.813	290.35
455.023	285.7
455.233	224.08
455.444	305.26
455.654	214.4
455.864	267.1
456.075	270.39
456.285	288.6
456.495	255.47
456.705	297.13
456.916	317.47
457.126	355.06
457.336	304.3
457.546	221.18
457.756	276.01
457.967	307.78
458.177	264
458.387	286.47
458.597	244.23
458.807	262.83
459.017	283.37
459.227	269.23
459.437	292.67
459.647	324.06
459.857	344.6
460.068	277.56
460.278	313.79
460.488	310.3
460.698	356.8
460.908	313.21
461.117	281.63
461.327	279.3
461.537	295.38
461.747	311.46
461.957	311.27
462.167	423.26
462.377	346.73
462.587	295.19
462.797	369.78
463.007	335.88
463.216	343.24
463.426	349.83
463.636	344.79
463.846	277.17
464.056	289.38
464.265	361.84
464.475	295.77
464.685	315.34
464.895	347.7
465.104	340.72
465.314	330.65
465.524	344.6
465.733	294.8
465.943	388.19
466.153	357.19
466.362	385.48
466.572	359.71
466.782	347.5
466.991	328.9
467.201	378.7
467.41	272.72
467.62	349.44
467.829	338.98
468.039	339.17
468.249	353.31
468.458	342.27
468.668	386.64
468.877	358.74
469.086	407.18
469.296	395.55
469.505	336.46
469.715	426.55
469.924	391.87
470.134	430.81
470.343	391.48
470.552	353.51
470.762	365.52
470.971	357.58
471.18	375.21
471.39	374.63
471.599	378.5
471.808	406.79
472.018	362.61
472.227	424.61
472.436	417.44
472.645	390.32
472.855	361.84
473.064	445.34
473.273	393.42
473.482	452.51
473.691	455.42
473.901	427.33
474.11	432.94
474.319	485.06
474.528	427.52
474.737	470.92
474.946	449.22
475.155	421.51
475.364	490.68
475.573	418.22
475.783	460.26
475.992	473.24
476.201	463.75
476.41	439.14
476.619	431.2
476.828	480.02
477.037	444.96
477.245	478.67
477.454	510.25
477.663	470.34
477.872	442.83
478.081	514.12
478.29	420.35
478.499	549.97
478.708	508.51
478.917	532.14
479.125	513.93
479.334	511.41
479.543	485.26
479.752	517.81
479.961	513.35
480.169	527.3
480.378	523.42
480.587	649.75
480.796	540.67
481.004	539.51
481.213	564.69
481.422	542.41
481.63	537.37
481.839	572.44
482.048	587.75
482.256	561.59
482.465	585.62
482.674	594.72
482.882	609.45
483.091	643.74
483.299	574.38
483.508	620.49
483.716	565.27
483.925	598.79
484.134	565.66
484.342	621.07
484.551	625.34
484.759	627.47
484.967	637.15
485.176	638.9
485.384	644.9
485.593	665.44
485.801	615.84
486.01	568.18
486.218	579.42
486.426	520.32
486.635	559.85
486.843	553.46
487.051	569.54
487.26	554.81
487.468	591.04
487.676	618.36
487.885	582.52
488.093	618.55
488.301	661.57
488.509	662.15
488.717	632.89
488.926	626.5
489.134	651.1
489.342	661.95
489.55	655.37
489.758	675.71
489.967	697.02
490.175	743.91
490.383	699.15
490.591	724.53
490.799	683.85
491.007	727.05
491.215	754.18
491.423	704.38
491.631	704.77
491.839	724.92
492.047	748.56
492.255	679.58
492.463	673.97
492.671	710.97
492.879	730.93
493.087	723.57
493.295	750.5
493.503	749.91
493.711	766.19
493.919	816.76
494.127	806.1
494.334	795.64
494.542	725.89
494.75	753.01
494.958	761.93
495.166	822.57
495.374	812.5
495.581	830.71
495.789	804.55
495.997	855.12
496.205	785.56
496.412	809.59
496.62	778.78
496.828	813.66
497.035	849.11
497.243	844.27
497.451	838.26
497.658	852.41
497.866	814.43
498.074	897.74
498.281	874.88
498.489	905.88
498.696	834.97
498.904	817.53
499.112	852.6
499.319	907.43
499.527	829.93
499.734	919.64
499.942	839.43
500.149	878.95
500.357	895.61
500.564	862.48
500.771	870.81
500.979	846.21
501.186	848.92
501.394	900.26
501.601	874.11
501.808	893.09
502.016	867.33
502.223	883.6
502.43	885.34
502.638	915.76
502.845	876.43
503.052	963.62
503.26	939.21
503.467	974.08
503.674	915.76
503.881	954.71
504.089	998.88
504.296	960.52
504.503	885.54
504.71	945.6
504.917	903.94
505.125	971.56
505.332	977.96
505.539	976.6
505.746	1055.45
505.953	1073.67
506.16	1029.88
506.367	1062.43
506.574	1081.8
506.781	1048.29
506.988	1028.33
507.195	1044.99
507.402	1019.22
507.609	1113.97
507.816	1041.31
508.023	1066.3
508.23	1039.37
508.437	1010.12
508.644	1084.52
508.851	1128.5
509.058	1156.01
509.265	1111.06
509.472	1122.1
509.679	1205.8
509.885	1173.45
510.092	1162.21
510.299	1153.68
510.506	1143.03
510.713	1191.27
510.92	1186.04
511.126	1215.49
511.333	1221.11
511.54	1232.15
511.746	1262.38
511.953	1308.88
512.16	1327.09
512.367	1260.63
512.573	1238.93
512.78	1291.24
512.987	1277.29
513.193	1265.48
513.4	1216.65
513.606	1266.44
513.813	1300.93
514.02	1257.92
514.226	1364.87
514.433	1343.36
514.639	1253.66
514.846	1299.38
515.052	1274.97
515.259	1323.6
515.465	1315.27
515.672	1353.82
515.878	1427.45
516.085	1389.86
516.291	1435.59
516.497	1401.29
516.704	1332.13
516.91	1299.77
517.117	1260.24
517.323	1189.72
517.529	1298.41
517.736	1280.01
517.942	1332.71
518.148	1321.66
518.354	1357.51
518.561	1358.28
518.767	1349.17
518.973	1410.59
519.179	1410.79
519.386	1391.8
519.592	1401.29
519.798	1443.92
520.004	1541.37
520.21	1494.29
520.417	1541.37
520.623	1565.2
520.829	1590.58
521.035	1607.83
521.241	1556.1
521.447	1636.11
521.653	1707.99
521.859	1611.31
522.065	1663.24
522.271	1756.43
522.477	1718.07
522.683	1720.01
522.889	1707.99
523.095	1712.64
523.301	1679.71
523.507	1662.66
523.713	1704.31
523.919	1689.01
524.125	1787.04
524.331	1760.11
524.537	1870.74
524.742	1826.18
524.948	1848.46
525.154	1876.75
525.36	1938.75
525.566	1855.82
525.772	1922.09
525.977	1857.76
526.183	1891.09
526.389	1907.36
526.595	1797.12
526.8	1815.72
527.006	1740.35
527.212	1736.48
527.417	1732.79
527.623	1764.57
527.829	1818.82
528.034	1831.22
528.24	1838.77
528.446	1852.14
528.651	1952.12
528.857	1968.39
529.062	2035.43
529.268	2002.1
529.473	2057.13
529.679	2036.01
529.884	2093.36
530.09	2023.03
530.295	2069.53
530.501	2078.44
530.706	2051.7
530.912	2042.02
531.117	2079.02
531.323	2043.76
531.528	2099.36
531.733	2119.71
531.939	2082.7
532.144	2104.98
532.35	2114.28
532.555	2169.89
532.76	2086.38
532.966	2112.15
533.171	2082.31
533.376	2020.9
533.581	2027.29
533.787	2062.55
533.992	2123.78
534.197	2118.55
534.402	2128.23
534.607	2135.79
534.813	2244.09
535.018	2133.66
535.223	2161.36
535.428	2187.71
535.633	2235.96
535.838	2223.17
536.043	2223.75
536.249	2341.94
536.454	2229.37
536.659	2256.11
536.864	2246.61
537.069	2222.97
537.274	2228.01
537.479	2260.76
537.684	2262.5
537.889	2200.11
538.094	2318.3
538.299	2272.57
538.504	2294.47
538.708	2267.73
538.913	2328.18
539.118	2293.89
539.323	2283.04
539.528	2290.01
539.733	2261.34
539.938	2263.86
540.142	2265.6
540.347	2232.08
540.552	2250.49
540.757	2221.62
540.962	2216.78
541.166	2184.81
541.371	2176.09
541.576	2240.22
541.781	2146.06
541.985	2288.27
542.19	2247.77
542.395	2323.72
542.599	2371.58
542.804	2336.9
543.008	2352.59
543.213	2308.42
543.418	2262.31
543.622	2321.98
543.827	2281.68
544.031	2345.23
544.236	2367.51
544.44	2345.62
544.645	2410.91
544.849	2325.08
545.054	2361.12
545.258	2460.7
545.463	2418.85
545.667	2315.39
545.872	2406.07
546.076	2384.75
546.281	2409.75
546.485	2313.07
546.689	2377
546.894	2421.95
547.098	2406.26
547.302	2343.1
547.507	2412.27
547.711	2390.76
547.915	2416.92
548.119	2364.8
548.324	2374.49
548.528	2424.47
548.732	2399.48
548.936	2449.27
549.141	2446.75
549.345	2339.42
549.549	2424.08
549.753	2402.97
549.957	2448.88
550.161	2481.05
550.366	2429.51
550.57	2374.1
550.774	2447.53
550.978	2447.33
551.182	2445.4
551.386	2387.08
551.59	2441.33
551.794	2392.5
551.998	2448.11
552.202	2433.77
552.406	2395.6
552.61	2447.92
552.814	2457.8
553.018	2493.64
553.222	2416.53
553.426	2427.96
553.63	2504.88
553.833	2431.06
554.037	2441.91
554.241	2434.55
554.445	2480.47
554.649	2467.48
554.853	2456.83
555.056	2505.07
555.26	2490.93
555.464	2465.55
555.668	2454.31
555.871	2507.01
556.075	2518.44
556.279	2397.54
556.483	2393.67
556.686	2422.73
556.89	2403.93
557.094	2408.39
557.297	2336.12
557.501	2432.22
557.704	2324.5
557.908	2407.42
558.112	2362.86
558.315	2410.33
558.519	2348.91
558.722	2352.2
558.926	2314.62
559.129	2283.04
559.333	2259.21
559.536	2253.39
559.74	2280.13
559.943	2228.21
560.147	2264.82
560.35	2239.44
560.553	2294.08
560.757	2249.13
560.96	2322.75
561.164	2277.22
561.367	2352.2
561.57	2302.8
561.774	2304.16
561.977	2241.57
562.18	2249.91
562.384	2356.27
562.587	2239.64
562.79	2246.03
562.993	2241.57
563.197	2288.27
563.4	2352.79
563.603	2310.94
563.806	2333.41
564.009	2253.97
564.212	2260.76
564.416	2224.91
564.619	2246.42
564.822	2185
565.025	2226.46
565.228	2211.93
565.431	2241.19
565.634	2140.24
565.837	2156.33
566.04	2150.32
566.243	2104.21
566.446	2056.55
566.649	2141.02
566.852	2088.71
567.055	2140.44
567.258	2112.54
567.461	2178.8
567.664	2196.82
567.867	2108.08
568.07	2114.09
568.273	2136.76
568.475	2159.04
568.678	2079.41
568.881	2043.57
569.084	2055
569.287	1941.46
569.489	2017.6
569.692	2056.35
569.895	2036.98
570.098	1960.45
570.3	1957.35
570.503	1900.77
570.706	1926.54
570.909	1896.51
571.111	1925.77
571.314	1898.64
571.516	1902.32
571.719	1929.84
571.922	1910.07
572.124	1899.22
572.327	1925.96
572.529	1866.87
572.732	1906.39
572.935	1913.95
573.137	1964.71
573.34	1838.77
573.542	1931.77
573.745	1918.79
573.947	1901.74
574.15	1870.55
574.352	1855.82
574.554	1943.01
574.757	1863.19
574.959	1833.35
575.162	1842.65
575.364	1814.56
575.566	1887.21
575.769	1797.12
575.971	1847.11
576.173	1670.99
576.376	1779.49
576.578	1856.79
576.78	1865.32
576.982	1736.48
577.185	1834.12
577.387	1732.41
577.589	1776.78
577.791	1790.34
577.993	1802.54
578.196	1763.99
578.398	1761.28
578.6	1755.66
578.802	1737.64
579.004	1679.13
579.206	1750.23
579.408	1762.63
579.61	1730.47
579.812	1808.94
580.014	1736.67
580.216	1747.71
580.418	1741.32
580.62	1713.03
580.822	1701.21
581.024	1794.79
581.226	1787.62
581.428	1700.24
581.63	1812.81
581.832	1742.87
582.034	1816.49
582.236	1776.19
582.438	1775.81
582.64	1800.61
582.841	1840.13
583.043	1855.63
583.245	1786.66
583.447	1841.29
583.649	1760.31
583.85	1762.44
584.052	1827.92
584.254	1720.2
584.456	1808.36
584.657	1719.43
584.859	1761.28
585.061	1749.46
585.262	1751.39
585.464	1719.23
585.666	1729.5
585.867	1705.09
586.069	1745.39
586.27	1695.79
586.472	1748.68
586.674	1717.88
586.875	1680.48
587.077	1717.29
587.278	1738.99
587.48	1698.31
587.681	1789.37
587.883	1685.13
588.084	1632.82
588.285	1684.16
588.487	1605.89
588.688	1646.58
588.89	1575.67
589.091	1523.93
589.292	1529.36
589.494	1511.15
589.695	1479.18
589.896	1426.48
590.098	1392.77
590.299	1447.79
590.5	1410.59
590.702	1444.89
590.903	1512.89
591.104	1571.98
591.305	1548.93
591.507	1606.47
591.708	1569.08
591.909	1561.91
592.11	1609.57
592.311	1582.83
592.512	1509.99
592.714	1490.42
592.915	1548.93
593.116	1529.94
593.317	1534.4
593.518	1544.28
593.719	1526.84
593.92	1602.4
594.121	1555.52
594.322	1554.35
594.523	1535.75
594.724	1478.6
594.925	1532.85
595.126	1510.57
595.327	1520.45
595.528	1545.83
595.729	1574.89
595.929	1555.52
596.13	1553.97
596.331	1549.32
596.532	1513.86
596.733	1617.9
596.934	1590.97
597.135	1573.73
597.335	1564.43
597.536	1517.15
597.737	1583.8
597.938	1540.98
598.138	1576.25
598.339	1522.97
598.54	1554.55
598.74	1511.15
598.941	1548.73
599.142	1600.47
599.342	1550.87
599.543	1533.23
599.744	1563.46
599.944	1516.38
600.145	1541.76
600.345	1524.9
600.546	1597.56
600.746	1574.7
600.947	1642.31
601.147	1539.05
601.348	1583.03
601.548	1556.68
601.749	1559.2
601.949	1503.59
602.15	1508.05
602.35	1532.65
602.551	1563.65
602.751	1511.54
602.951	1542.53
603.152	1481.7
603.352	1579.15
603.552	1551.64
603.753	1563.65
603.953	1573.53
604.153	1533.43
604.354	1541.37
604.554	1500.3
604.754	1558.23
604.954	1523.35
605.155	1547.96
605.355	1514.25
605.555	1588.65
605.755	1552.8
605.955	1562.68
606.155	1534.4
606.356	1523.93
606.556	1543.89
606.756	1555.9
606.956	1441.01
607.156	1574.31
607.356	1501.65
607.556	1517.15
607.756	1506.3
607.956	1550.87
608.156	1526.84
608.356	1459.42
608.556	1526.26
608.756	1459.42
608.956	1476.27
609.156	1509.21
609.356	1457.09
609.556	1466.2
609.755	1483.05
609.955	1439.27
610.155	1479.57
610.355	1487.12
610.555	1448.76
610.755	1427.26
610.954	1397.81
611.154	1462.13
611.354	1498.36
611.554	1436.94
611.753	1447.6
611.953	1416.41
612.153	1432.29
612.352	1441.79
612.552	1389.47
612.752	1370.49
612.951	1429.19
613.151	1396.84
613.351	1370.29
613.55	1411.95
613.75	1423.57
613.949	1393.74
614.149	1389.67
614.348	1377.85
614.548	1327.28
614.747	1313.33
614.947	1342.39
615.146	1276.71
615.346	1404.01
615.545	1369.52
615.745	1378.04
615.944	1346.46
616.144	1340.84
616.343	1349.76
616.542	1341.43
616.742	1358.86
616.941	1321.08
617.14	1272.64
617.34	1302.48
617.539	1326.31
617.738	1272.64
617.938	1359.44
618.137	1337.94
618.336	1303.64
618.535	1324.57
618.734	1323.99
618.934	1316.82
619.133	1333.68
619.332	1323.02
619.531	1292.41
619.73	1305
619.929	1368.55
620.128	1327.67
620.328	1361.38
620.527	1298.03
620.726	1289.5
620.925	1362.35
621.124	1323.79
621.323	1291.05
621.522	1264.89
621.721	1263.73
621.92	1239.71
622.119	1321.28
622.318	1257.34
622.517	1296.48
622.715	1250.36
622.914	1222.46
623.113	1268.19
623.312	1182.16
623.511	1267.22
623.71	1270.71
623.909	1192.24
624.107	1320.5
624.306	1209.1
624.505	1208.13
624.704	1217.62
624.902	1191.08
625.101	1269.16
625.3	1198.63
625.499	1195.53
625.697	1193.79
625.896	1179.26
626.095	1220.91
626.293	1147.1
626.492	1151.75
626.69	1216.85
626.889	1194.37
627.088	1203.86
627.286	1190.69
627.485	1190.3
627.683	1140.7
627.882	1181.97
628.08	1119.2
628.279	1123.27
628.477	1163.76
628.676	1100.4
628.874	1161.24
629.073	1089.36
629.271	1128.5
629.469	1115.71
629.668	1103.5
629.866	1118.42
630.065	1145.93
630.263	1153.88
630.461	1115.71
630.66	1134.7
630.858	1148.84
631.056	1186.23
631.254	1190.3
631.453	1129.66
631.651	1145.16
631.849	1163.76
632.047	1148.84
632.245	1131.6
632.444	1147.87
632.642	1175.96
632.84	1196.11
633.038	1132.37
633.236	1109.7
633.434	1117.84
633.632	1111.06
633.83	1137.8
634.028	1212.2
634.227	1163.18
634.425	1181.39
634.623	1154.65
634.821	1120.17
635.019	1186.43
635.216	1145.74
635.414	1164.73
635.612	1140.51
635.81	1137.8
636.008	1212.39
636.206	1139.35
636.404	1181.97
636.602	1112.42
636.8	1133.73
636.997	1191.08
637.195	1213.36
637.393	1139.93
637.591	1210.06
637.789	1141.87
637.986	1128.69
638.184	1149.03
638.382	1183.13
638.58	1147.87
638.777	1212.58
638.975	1123.07
639.173	1155.43
639.37	1134.89
639.568	1144.97
639.765	1155.04
639.963	1133.53
640.161	1180.03
640.358	1128.69
640.556	1091.88
640.753	1115.52
640.951	1055.84
641.148	1064.56
641.346	1085.1
641.543	1073.47
641.741	1106.99
641.938	1050.8
642.136	1077.74
642.333	1041.5
642.531	1110.28
642.728	1100.6
642.925	1096.33
643.123	1070.95
643.32	1071.34
643.517	1061.85
643.715	1031.24
643.912	1020
644.109	1051.19
644.306	1056.81
644.504	1016.9
644.701	1031.82
644.898	1038.6
645.095	999.07
645.293	1002.37
645.49	1031.24
645.687	1002.95
645.884	1037.82
646.081	948.31
646.278	984.74
646.475	956.26
646.672	959.36
646.87	998.69
647.067	964.39
647.264	982.02
647.461	913.82
647.658	899.49
647.855	945.02
648.052	905.3
648.249	856.09
648.446	894.84
648.642	900.07
648.839	905.49
649.036	898.91
649.233	865.58
649.43	860.93
649.627	872.17
649.824	884.18
650.021	850.47
650.217	884.38
650.414	852.02
650.611	894.64
650.808	938.62
651.004	901.81
651.201	884.96
651.398	913.24
651.595	868.88
651.791	846.21
651.988	894.84
652.185	858.41
652.381	905.88
652.578	818.31
652.775	862.68
652.971	898.33
653.168	852.99
653.364	898.33
653.561	818.7
653.757	864.81
653.954	891.93
654.15	823.34
654.347	911.69
654.543	908.4
654.74	844.27
654.936	830.32
655.133	846.59
655.329	827.8
655.525	829.93
655.722	859.96
655.918	787.31
656.115	850.47
656.311	734.8
656.507	693.92
656.704	686.56
656.9	702.25
657.096	688.5
657.292	727.44
657.489	765.03
657.685	758.25
657.881	745.26
658.077	779.36
658.273	778.2
658.47	833.42
658.666	802.81
658.862	805.33
659.058	788.86
659.254	847.37
659.45	765.8
659.646	824.7
659.842	790.8
660.038	826.25
660.234	781.69
660.43	813.66
660.626	861.32
660.822	814.05
661.018	832.26
661.214	797
661.41	770.26
661.606	806.1
661.802	816.76
661.998	783.05
662.194	740.81
662.39	803.2
662.586	802.23
662.781	792.15
662.977	791.76
663.173	814.43
663.369	788.86
663.564	809.01
663.76	810.17
663.956	753.01
664.152	801.26
664.347	731.12
664.543	766
664.739	743.52
664.934	682.1
665.13	691.4
665.326	770.26
665.521	730.35
665.717	717.17
665.912	724.34
666.108	672.22
666.304	691.21
666.499	723.57
666.695	647.81
666.89	696.44
667.086	772
667.281	744.1
667.477	773.16
667.672	722.4
667.867	705.74
668.063	717.17
668.258	691.4
668.454	680.36
668.649	764.06
668.844	692.95
669.04	729.57
669.235	720.47
669.43	685.98
669.626	670.67
669.821	674.74
670.016	631.73
670.211	656.53
670.407	662.15
670.602	695.08
670.797	652.07
670.992	717.56
671.187	651.88
671.382	707.1
671.578	663.5
671.773	666.41
671.968	646.65
672.163	660.21
672.358	699.15
672.553	665.63
672.748	632.5
672.943	721.82
673.138	637.74
673.333	660.98
673.528	611.97
673.723	666.41
673.918	620.69
674.113	613.32
674.308	703.22
674.503	665.44
674.698	662.73
674.892	656.14
675.087	696.05
675.282	666.8
675.477	631.73
675.672	644.32
675.867	625.14
676.061	600.34
676.256	597.44
676.451	626.3
676.646	628.63
676.84	602.47
677.035	591.82
677.23	610.03
677.424	643.94
677.619	694.12
677.814	678.23
678.008	662.15
678.203	578.45
678.397	593.37
678.592	636.19
678.787	659.24
678.981	624.75
679.176	637.15
679.37	623.79
679.565	615.45
679.759	611.39
679.954	644.13
680.148	675.9
680.342	671.45
680.537	635.8
680.731	604.41
680.926	632.7
681.12	672.61
681.314	621.07
681.509	609.06
681.703	665.63
681.897	655.17
682.092	644.32
682.286	625.34
682.48	700.32
682.674	683.85
682.869	642.39
683.063	658.47
683.257	709.42
683.451	622.43
683.645	684.04
683.839	645.49
684.034	615.45
684.228	673.97
684.422	627.66
684.616	605.19
684.81	656.14
685.004	639.48
685.198	626.11
685.392	691.21
685.586	634.64
685.78	662.15
685.974	704.38
686.168	693.15
686.362	718.33
686.556	641.61
686.75	618.17
686.944	592.4
687.138	634.64
687.331	558.3
687.525	540.47
687.719	483.71
687.913	559.46
688.107	580.77
688.301	551.32
688.494	581.16
688.688	560.62
688.882	542.99
689.076	538.92
689.269	582.13
689.463	666.02
689.657	580.58
689.85	604.22
690.044	657.5
690.238	642.77
690.431	624.95
690.625	616.81
690.818	681.13
691.012	702.25
691.205	740.03
691.399	704
691.593	764.25
691.786	790.41
691.98	838.26
692.173	831.48
692.366	804.75
692.56	850.28
692.753	895.81
692.947	837.68
693.14	905.3
693.333	905.11
693.527	882.83
693.72	899.1
693.914	905.3
694.107	891.93
694.3	949.67
694.493	902.2
694.687	972.34
694.88	921.38
695.073	1024.84
695.266	988.22
695.46	987.64
695.653	1026.39
695.846	1027.55
696.039	1000.82
696.232	1033.17
696.425	1121.52
696.618	1147.29
696.812	1124.04
697.005	1213.55
697.198	1284.85
697.391	1203.48
697.584	1265.48
697.777	1301.32
697.97	1280.59
698.163	1296.28
698.356	1286.98
698.549	1357.12
698.742	1345.3
698.935	1302.09
699.127	1344.91
699.32	1320.31
699.513	1291.83
699.706	1351.11
699.899	1398.39
700.092	1383.08
700.285	1426.29
700.477	1323.79
700.67	1356.73
700.863	1435.59
701.056	1497
701.248	1494.68
701.441	1485.57
701.634	1454.19
701.826	1560.36
702.019	1443.14
702.212	1555.32
702.404	1479.95
702.597	1509.99
702.79	1533.04
702.982	1506.3
703.175	1582.45
703.367	1621
703.56	1627.2
703.752	1668.66
703.945	1647.93
704.137	1682.61
704.33	1672.93
704.522	1709.93
704.715	1743.06
704.907	1733.57
705.1	1780.84
705.292	1790.92
705.484	1779.68
705.677	1830.06
705.869	1838
706.061	1897.29
706.254	1889.15
706.446	1825.79
706.638	1847.69
706.831	1945.34
707.023	1886.44
707.215	2018.77
707.407	1979.24
707.599	1965.29
707.792	2033.49
707.984	1969.75
708.176	2048.8
708.368	2030
708.56	2063.71
708.752	2043.18
708.944	2013.73
709.136	2094.91
709.329	2099.75
709.521	2186.74
709.713	2141.99
709.905	2159.43
710.097	2180.16
710.289	2121.65
710.481	2195.66
710.672	2201.47
710.864	2199.34
711.056	2209.41
711.248	2245.64
711.44	2241.38
711.632	2237.12
711.824	2317.72
712.016	2313.26
712.207	2318.49
712.399	2321.2
712.591	2377.59
712.783	2331.28
712.975	2372.74
713.166	2301.25
713.358	2364.22
713.55	2406.26
713.741	2374.68
713.933	2400.25
714.125	2356.66
714.316	2412.46
714.508	2453.34
714.7	2440.94
714.891	2424.47
715.083	2452.95
715.274	2429.32
715.466	2458.96
715.657	2490.15
715.849	2378.94
716.04	2433.77
716.232	2361.5
716.423	2420.21
716.615	2314.42
716.806	2259.79
716.998	2191.2
717.189	2097.43
717.381	2055.19
717.572	2005.98
717.763	2022.45
717.955	2025.55
718.146	1928.09
718.337	1892.05
718.528	1882.56
718.72	1786.66
718.911	1831.41
719.102	1832.77
719.293	1833.54
719.485	1799.06
719.676	1778.91
719.867	1757.21
720.058	1754.11
720.249	1765.34
720.44	1798.28
720.632	1858.54
720.823	1913.37
721.014	2051.9
721.205	2042.79
721.396	2135.79
721.587	2249.71
721.778	2300.09
721.969	2338.64
722.16	2386.3
722.351	2381.85
722.542	2511.85
722.733	2486.47
722.924	2409.36
723.115	2463.42
723.305	2382.82
723.496	2426.41
723.687	2275.09
723.878	2318.3
724.069	2261.72
724.26	2325.66
724.45	2241.57
724.641	2230.72
724.832	2243.71
725.023	2235.76
725.213	2218.13
725.404	2208.44
725.595	2234.99
725.785	2210.38
725.976	2272.19
726.167	2256.88
726.357	2260.37
726.548	2359.37
726.739	2283.42
726.929	2379.72
727.12	2369.06
727.31	2403.55
727.501	2323.92
727.691	2336.12
727.882	2372.55
728.072	2411.88
728.263	2362.86
728.453	2467.29
728.644	2439.97
728.834	2412.07
729.024	2353.75
729.215	2391.92
729.405	2412.65
729.596	2489.96
729.786	2505.85
729.976	2510.5
730.167	2525.03
730.357	2495.96
730.547	2526
730.737	2542.27
730.928	2575.79
731.118	2625.97
731.308	2530.26
731.498	2552.73
731.688	2716.64
731.879	2685.26
732.069	2758.88
732.259	2773.22
732.449	2782.13
732.639	2849.75
732.829	2924.15
733.019	2945.65
733.209	2974.33
733.399	3015.4
733.589	3093.87
733.779	3093.09
733.969	3116.15
734.159	3159.74
734.349	3216.32
734.539	3234.14
734.729	3237.82
734.919	3271.34
735.109	3293.62
735.299	3216.51
735.488	3290.52
735.678	3261.65
735.868	3266.11
736.058	3225.04
736.248	3277.35
736.437	3255.26
736.627	3269.98
736.817	3353.88
737.007	3258.17
737.196	3356.01
737.386	3315.13
737.576	3322.88
737.765	3356.2
737.955	3337.22
738.144	3450.94
738.334	3415.68
738.524	3384.3
738.713	3425.18
738.903	3374.8
739.092	3430.02
739.282	3446.49
739.471	3430.02
739.661	3406.58
739.85	3444.94
740.04	3482.33
740.229	3445.91
740.419	3534.45
740.608	3554.41
740.797	3503.26
740.987	3556.15
741.176	3544.91
741.365	3523.79
741.555	3506.36
741.744	3638.49
741.933	3521.28
742.123	3591.22
742.312	3656.51
742.501	3670.07
742.69	3672.4
742.88	3586.37
743.069	3689.84
743.258	3578.82
743.447	3714.05
743.636	3653.02
743.825	3647.21
744.014	3676.47
744.204	3702.43
744.393	3618.92
744.582	3778.38
744.771	3797.75
744.96	3697.39
745.149	3725.29
745.338	3660
745.527	3736.92
745.716	3712.7
745.905	3696.04
746.094	3729.36
746.283	3756.29
746.471	3722.77
746.66	3793.1
746.849	3758.03
747.038	3763.65
747.227	3706.3
747.416	3781.67
747.604	3747.18
747.793	3740.4
747.982	3733.62
748.171	3760.55
748.359	3768.88
748.548	3724.9
748.737	3717.93
748.926	3727.62
749.114	3639.85
749.303	3732.27
749.491	3728.58
749.68	3624.93
749.869	3742.92
750.057	3707.47
750.246	3682.09
750.434	3651.47
750.623	3643.92
750.811	3675.11
751	3692.55
751.188	3686.74
751.377	3647.79
751.565	3687.7
751.754	3606.14
751.942	3608.27
752.131	3716.38
752.319	3600.32
752.507	3589.86
752.696	3689.45
752.884	3653.6
753.072	3628.22
753.261	3646.44
753.449	3680.73
753.637	3613.5
753.825	3673.95
754.014	3669.69
754.202	3641.4
754.39	3674.72
754.578	3688.09
754.766	3573.78
754.955	3562.93
755.143	3678.79
755.331	3652.64
755.519	3598.77
755.707	3599.55
755.895	3610.21
756.083	3552.47
756.271	3571.46
756.459	3564.48
756.647	3585.6
756.835	3556.54
757.023	3508.88
757.211	3538.91
757.399	3511.39
757.587	3496.67
757.775	3483.88
757.963	3466.44
758.151	3448.43
758.339	3455.21
758.526	3457.53
758.714	3481.75
758.902	3353.49
759.09	3248.09
759.278	3016.18
759.465	2768.76
759.653	2386.3
759.841	2194.49
760.028	1860.86
760.216	1587.29
760.404	1516.77
760.591	1234.09
760.779	1024.65
760.967	908.01
761.154	758.05
761.342	769.29
761.529	754.56
761.717	828.58
761.905	804.36
762.092	893.48
762.28	791.76
762.467	784.98
762.655	720.66
762.842	778.01
763.029	740.61
763.217	784.4
763.404	764.64
763.592	797.38
763.779	738.48
763.966	794.09
764.154	825.67
764.341	878.76
764.528	877.59
764.716	968.46
764.903	1044.99
765.09	1094.59
765.277	1127.72
765.465	1312.36
765.652	1350.34
765.839	1464.26
766.026	1604.34
766.213	1631.46
766.4	1760.31
766.588	1930.8
766.775	1965.29
766.962	2127.46
767.149	2156.91
767.336	2324.3
767.523	2286.33
767.71	2434.35
767.897	2528.13
768.084	2642.24
768.271	2668.21
768.458	2732.14
768.645	2771.09
768.832	2778.45
769.019	2829.02
769.206	2842.19
769.392	2949.53
769.579	3047.18
769.766	2972
769.953	2966.38
770.14	3020.24
770.327	3025.28
770.513	3105.69
770.7	3155.48
770.887	3060.93
771.073	3088.44
771.26	3088.44
771.447	3084.18
771.634	3040.2
771.82	3177.37
772.007	3048.73
772.193	3164.39
772.38	3151.61
772.567	3112.08
772.753	3083.02
772.94	3165.17
773.126	3171.56
773.313	3144.24
773.499	3126.03
773.686	3180.47
773.872	3097.94
774.059	3144.24
774.245	3081.08
774.432	3089.99
774.618	2990.41
774.804	3123.51
774.991	3021.6
775.177	3067.13
775.363	3023.93
775.55	3109.56
775.736	3034.19
775.922	3065.97
776.109	3062.09
776.295	3025.67
776.481	3103.17
776.667	3069.07
776.853	3068.88
777.04	3048.73
777.226	3050.47
777.412	3085.93
777.598	3012.69
777.784	3022.76
777.97	3008.62
778.156	3002.23
778.342	3042.72
778.528	2982.27
778.715	2938.29
778.901	2980.72
779.087	3017.53
779.272	2954.18
779.458	2939.45
779.644	2939.06
779.83	2933.64
780.016	2981.11
780.202	2913.68
780.388	2958.44
780.574	2840.64
780.76	2875.52
780.946	2942.36
781.131	2897.41
781.317	2902.64
781.503	2877.84
781.689	2896.05
781.874	2967.93
782.06	2859.05
782.246	2894.89
782.432	2866.8
782.617	2915.43
782.803	2928.21
782.989	2822.82
783.174	2850.72
783.36	2796.85
783.545	2836.57
783.731	2829.21
783.916	2748.03
784.102	2768.76
784.288	2782.32
784.473	2795.69
784.659	2761.01
784.844	2834.63
785.029	2755.59
785.215	2768.37
785.4	2763.53
785.586	2781.94
785.771	2739.31
785.956	2772.64
786.142	2713.74
786.327	2722.46
786.512	2731.76
786.698	2696.69
786.883	2632.56
787.068	2668.4
787.254	2695.72
787.439	2691.07
787.624	2654.45
787.809	2625.39
787.994	2633.33
788.18	2682.93
788.365	2557.77
788.55	2551.96
788.735	2636.43
788.92	2595.36
789.105	2599.81
789.29	2600.78
789.475	2540.91
789.66	2508.56
789.845	2535.3
790.03	2502.16
790.215	2560.87
790.4	2548.66
790.585	2585.86
790.77	2544.6
790.955	2455.86
791.14	2487.05
791.325	2587.03
791.51	2444.23
791.695	2487.25
791.879	2500.61
792.064	2433.38
792.249	2545.95
792.434	2486.66
792.618	2476.4
792.803	2534.52
792.988	2514.37
793.173	2471.55
793.357	2503.13
793.542	2465.74
793.727	2516.5
793.911	2512.82
794.096	2528.32
794.281	2563.58
794.465	2614.15
794.65	2513.6
794.834	2563.97
795.019	2597.88
795.203	2562.42
795.388	2545.18
795.572	2557.38
795.757	2552.93
795.941	2553.9
796.126	2512.43
796.31	2464.58
796.494	2490.35
796.679	2495.38
796.863	2466.52
797.048	2563.78
797.232	2547.5
797.416	2522.12
797.601	2528.13
797.785	2576.37
797.969	2610.08
798.153	2495.58
798.338	2569.2
798.522	2585.48
798.706	2591.87
798.89	2587.22
799.074	2631.01
799.258	2642.24
799.443	2575.4
799.627	2569.59
799.811	2612.6
799.995	2564.55
800.179	2534.91
800.363	2563.97
800.547	2581.79
800.731	2602.72
800.915	2502.36
801.099	2517.66
801.283	2509.53
801.467	2541.69
801.651	2509.33
801.835	2594.78
802.019	2541.5
802.202	2536.07
802.386	2480.47
802.57	2426.22
802.754	2517.28
802.938	2493.25
803.121	2497.51
803.305	2558.93
803.489	2490.93
803.673	2557.19
803.856	2508.36
804.04	2529.1
804.224	2521.54
804.407	2505.65
804.591	2511.85
804.775	2500.03
804.958	2531.03
805.142	2622.68
805.326	2579.28
805.509	2535.88
805.693	2595.16
805.876	2544.6
806.06	2554.09
806.243	2573.66
806.427	2617.83
806.61	2605.24
806.794	2548.28
806.977	2589.54
807.16	2529.48
807.344	2536.65
807.527	2544.98
807.71	2547.7
807.894	2555.25
808.077	2597.49
808.26	2534.91
808.444	2488.8
808.627	2554.09
808.81	2509.91
808.993	2441.72
809.177	2450.43
809.36	2454.89
809.543	2450.24
809.726	2370.22
809.909	2390.18
810.092	2417.5
810.276	2384.37
810.459	2368.67
810.642	2369.06
810.825	2353.75
811.008	2327.21
811.191	2261.53
811.374	2266.37
811.557	2295.44
811.74	2322.95
811.923	2229.56
812.106	2217.74
812.289	2193.53
812.472	2165.04
812.654	2164.85
812.837	2137.53
813.02	2115.06
813.203	2086
813.386	1977.3
813.569	1965.68
813.751	1933.52
813.934	1958.7
814.117	1928.67
814.3	1870.94
814.482	1843.81
814.665	1807.58
814.848	1731.24
815.03	1675.45
815.213	1731.44
815.396	1695.01
815.578	1669.25
815.761	1603.57
815.943	1695.6
816.126	1589.23
816.309	1567.72
816.491	1538.85
816.674	1461.74
816.856	1514.05
817.039	1518.9
817.221	1555.52
817.403	1514.44
817.586	1531.49
817.768	1537.3
817.951	1458.84
818.133	1481.89
818.315	1486.15
818.498	1532.65
818.68	1583.8
818.862	1549.32
819.045	1587.29
819.227	1561.72
819.409	1552.03
819.591	1559.97
819.774	1574.31
819.956	1503.59
820.138	1615.96
820.32	1570.63
820.502	1679.13
820.684	1747.13
820.866	1725.63
821.048	1782.2
821.231	1799.44
821.413	1767.67
821.595	1740.35
821.777	1766.12
821.959	1765.93
822.141	1785.49
822.323	1728.92
822.505	1634.95
822.686	1558.42
822.868	1479.76
823.05	1357.7
823.232	1367.77
823.414	1320.11
823.596	1393.93
823.778	1357.51
823.96	1409.24
824.141	1423.77
824.323	1431.91
824.505	1538.27
824.687	1551.64
824.868	1599.11
825.05	1706.44
825.232	1725.82
825.413	1743.84
825.595	1716.13
825.777	1671.18
825.958	1725.63
826.14	1704.31
826.321	1749.07
826.503	1699.47
826.685	1731.24
826.866	1756.04
827.048	1722.91
827.229	1684.75
827.411	1645.61
827.592	1610.93
827.773	1595.43
827.955	1594.07
828.136	1566.56
828.318	1517.74
828.499	1583.22
828.68	1524.71
828.862	1566.75
829.043	1557.65
829.224	1536.92
829.406	1499.33
829.587	1538.66
829.768	1543.7
829.949	1576.25
830.131	1516.38
830.312	1592.13
830.493	1549.7
830.674	1563.27
830.855	1511.92
831.036	1529.17
831.218	1597.56
831.399	1611.51
831.58	1547.18
831.761	1530.72
831.942	1560.36
832.123	1540.79
832.304	1518.7
832.485	1519.67
832.666	1533.23
832.847	1581.87
833.028	1569.27
833.209	1547.77
833.389	1534.4
833.57	1488.67
833.751	1523.35
833.932	1552.42
834.113	1550.09
834.294	1521.61
834.475	1569.47
834.655	1586.71
834.836	1587.1
835.017	1569.27
835.198	1541.95
835.378	1587.48
835.559	1618.29
835.74	1583.03
835.92	1588.65
836.101	1593.88
836.281	1621.58
836.462	1628.56
836.643	1645.41
836.823	1657.23
837.004	1644.06
837.184	1686.88
837.365	1658.98
837.545	1658.01
837.726	1635.53
837.906	1693.08
838.087	1631.85
838.267	1601.63
838.448	1615.77
838.628	1623.33
838.808	1635.53
838.989	1669.83
839.169	1560.55
839.349	1652.58
839.53	1647.35
839.71	1662.66
839.89	1600.66
840.07	1673.12
840.251	1612.09
840.431	1633.98
840.611	1655.68
840.791	1561.13
840.971	1659.95
841.151	1601.82
841.332	1602.4
841.512	1642.12
841.692	1536.92
841.872	1622.75
842.052	1629.91
842.232	1645.8
842.412	1565.59
842.592	1611.51
842.772	1618.68
842.952	1641.54
843.132	1576.25
843.312	1586.32
843.492	1571.6
843.672	1636.11
843.851	1546.41
844.031	1588.07
844.211	1530.72
844.391	1565.4
844.571	1577.02
844.751	1595.43
844.93	1603.76
845.11	1551.83
845.29	1605.5
845.47	1621.2
845.649	1565.59
845.829	1628.75
846.009	1554.74
846.188	1601.05
846.368	1589.23
846.547	1596.2
846.727	1597.95
846.907	1547.57
847.086	1580.12
847.266	1623.33
847.445	1591.94
847.625	1551.64
847.804	1522
847.984	1557.07
848.163	1494.87
848.343	1531.3
848.522	1565.2
848.701	1550.67
848.881	1544.86
849.06	1538.66
849.239	1509.99
849.419	1537.11
849.598	1468.33
849.777	1467.36
849.957	1480.34
850.136	1434.23
850.315	1378.62
850.494	1388.31
850.674	1431.32
850.853	1467.17
851.032	1439.65
851.211	1502.82
851.39	1488.09
851.569	1357.89
851.748	1398.19
851.927	1449.15
852.107	1416.41
852.286	1408.07
852.465	1391.02
852.644	1447.99
852.823	1419.7
853.002	1427.64
853.181	1423.19
853.359	1441.4
853.538	1393.54
853.717	1451.47
853.896	1312.56
854.075	1263.15
854.254	1253.85
854.433	1181.2
854.611	1235.45
854.79	1176.16
854.969	1259.47
855.148	1267.99
855.327	1230.99
855.505	1282.14
855.684	1275.55
855.863	1312.17
856.041	1270.51
856.22	1283.49
856.399	1289.5
856.577	1382.31
856.756	1347.62
856.934	1463.29
857.113	1427.84
857.291	1355.76
857.47	1358.47
857.648	1365.06
857.827	1376.88
858.005	1405.17
858.184	1339.88
858.362	1414.27
858.541	1368.74
858.719	1378.04
858.898	1325.93
859.076	1301.51
859.254	1357.89
859.433	1328.06
859.611	1370.68
859.789	1291.63
859.967	1383.27
860.146	1391.99
860.324	1309.46
860.502	1329.99
860.68	1284.66
860.859	1279.23
861.037	1306.36
861.215	1315.85
861.393	1328.06
861.571	1311.2
861.749	1293.96
861.927	1331.93
862.105	1299.19
862.283	1289.31
862.461	1270.51
862.639	1231.18
862.817	1298.41
862.995	1275.74
863.173	1266.25
863.351	1293.96
863.529	1300.16
863.707	1341.04
863.885	1274.19
864.063	1217.81
864.241	1259.66
864.418	1315.66
864.596	1251.91
864.774	1218.2
864.952	1256.95
865.129	1279.62
865.307	1206.58
865.485	1202.12
865.663	1255.21
865.84	1191.85
866.018	1186.81
866.196	1065.14
866.373	1115.32
866.551	1085.1
866.728	1047.9
866.906	1066.89
867.084	1110.67
867.261	1119.2
867.439	1129.47
867.616	1159.69
867.794	1147.68
867.971	1164.53
868.149	1162.4
868.326	1213.55
868.503	1176.35
868.681	1167.83
868.858	1154.85
869.035	1129.66
869.213	1204.25
869.39	1160.27
869.567	1241.06
869.745	1144.97
869.922	1157.95
870.099	1175
870.276	1180.81
870.454	1174.61
870.631	1180.03
870.808	1134.12
870.985	1184.88
871.162	1230.21
871.339	1149.03
871.517	1130.05
871.694	1145.55
871.871	1163.37
872.048	1146.52
872.225	1137.99
872.402	1137.02
872.579	1091.1
872.756	1132.37
872.933	1071.54
873.11	1085.68
873.287	1136.05
873.463	1107.18
873.64	1089.17
873.817	1153.88
873.994	1078.51
874.171	1056.42
874.348	1100.02
874.524	1025.62
874.701	1072.7
874.878	1030.46
875.055	1087.03
875.231	1068.44
875.408	1110.28
875.585	1053.32
875.762	1078.7
875.938	1060.3
876.115	1061.07
876.291	1041.89
876.468	1053.9
876.645	1032.01
876.821	1039.18
876.998	1041.89
877.174	1060.69
877.351	1010.89
877.527	1029.1
877.704	1077.15
877.88	1019.42
878.057	1024.26
878.233	1072.89
878.409	1023.49
878.586	1017.09
878.762	1032.01
878.938	1023.49
879.115	974.86
879.291	1039.57
879.467	971.76
879.644	974.66
879.82	1010.89
879.996	943.08
880.172	924.87
880.349	983.96
880.525	1000.43
880.701	955.87
880.877	959.36
881.053	998.1
881.229	972.53
881.405	1031.04
881.581	927
881.757	969.04
881.933	999.07
882.109	995.01
882.285	958
882.461	925.84
882.637	962.26
882.813	937.66
882.989	946.96
883.165	1014.96
883.341	905.69
883.517	1000.62
883.693	967.88
883.869	991.13
884.044	925.06
884.22	1008.37
884.396	1007.02
884.572	990.74
884.747	992.87
884.923	976.02
885.099	982.61
885.275	1003.92
885.45	964.97
885.626	958.19
885.801	942.5
885.977	949.09
886.153	907.24
886.328	959.36
886.504	958
886.679	952.96
886.855	921.19
887.03	982.22
887.206	995.59
887.381	955.29
887.557	975.44
887.732	957.61
887.908	992.68
888.083	980.09
888.258	948.12
888.434	916.15
888.609	945.79
888.784	982.22
888.96	955.87
889.135	962.65
889.31	936.3
889.485	974.08
889.661	924.29
889.836	1000.82
890.011	997.91
890.186	956.84
890.361	939.21
890.537	977.57
890.712	979.31
890.887	966.52
891.062	936.49
891.237	996.94
891.412	920.02
891.587	972.53
891.762	971.17
891.937	976.41
892.112	905.3
892.287	914.99
892.462	862.68
892.637	856.67
892.812	826.64
892.987	878.56
893.161	895.23
893.336	861.71
893.511	845.43
893.686	865
893.861	864.23
894.035	843.88
894.21	868.68
894.385	820.83
894.56	848.53
894.734	795.25
894.909	800.1
895.084	801.06
895.258	785.37
895.433	757.47
895.608	760.76
895.782	728.22
895.957	704.19
896.131	720.66
896.306	657.3
896.48	653.82
896.655	640.84
896.829	596.27
897.004	589.49
897.178	647.23
897.353	631.73
897.527	631.54
897.701	647.23
897.876	591.62
898.05	671.64
898.224	637.74
898.399	652.46
898.573	593.37
898.747	498.82
898.921	577.09
899.096	496.49
899.27	496.69
899.444	474.21
899.618	553.46
899.792	533.69
899.967	537.18
900.141	574.57
900.315	511.8
900.489	541.64
900.663	558.11
900.837	538.92
901.011	482.16
901.185	570.5
901.359	505.79
901.533	544.35
901.707	546.09
901.881	527.49
902.055	489.91
902.229	517.22
902.403	592.4
902.576	537.57
902.75	529.04
902.924	618.75
903.098	611.97
903.272	628.63
903.446	664.08
903.619	679.78
903.793	694.89
903.967	674.74
904.14	718.53
904.314	715.82
904.488	701.09
904.661	738.48
904.835	706.52
905.009	736.16
905.182	746.81
905.356	672.42
905.529	688.88
905.703	648.97
905.876	656.14
906.05	629.4
906.223	615.07
906.397	579.22
906.57	583.29
906.744	538.54
906.917	547.06
907.09	520.71
907.264	544.35
907.437	497.46
907.61	476.92
907.784	487.58
907.957	524.59
908.13	488.94
908.304	523.81
908.477	468.21
908.65	503.66
908.823	454.26
908.996	532.14
909.17	437.79
909.343	479.64
909.516	473.24
909.689	454.84
909.862	429.07
910.035	468.59
910.208	414.34
910.381	407.18
910.554	521.29
910.727	483.12
910.9	441.86
911.073	473.44
911.246	513.74
911.419	520.32
911.592	530.98
911.765	454.06
911.938	427.33
912.11	469.76
912.283	462.39
912.456	506.37
912.629	477.51
912.802	454.84
912.974	389.35
913.147	368.62
913.32	328.13
913.493	373.46
913.665	412.02
913.838	392.45
914.01	387.22
914.183	406.98
914.356	407.18
914.528	447.28
914.701	486.81
914.873	434.11
915.046	387.03
915.218	371.72
915.391	313.98
915.563	336.65
915.736	402.91
915.908	414.54
916.081	378.7
916.253	412.21
916.425	400.2
916.598	424.81
916.77	368.04
916.942	382.76
917.115	330.06
917.287	410.28
917.459	368.81
917.632	330.45
917.804	292.67
917.976	373.08
918.148	356.41
918.32	398.26
918.493	398.65
918.665	459.68
918.837	425.58
919.009	456.39
919.181	478.86
919.353	418.03
919.525	411.24
919.697	436.82
919.869	427.13
920.041	497.07
920.213	527.69
920.385	457.55
920.557	418.8
920.729	430.43
920.901	444.96
921.073	401.75
921.244	408.73
921.416	457.94
921.588	449.22
921.76	410.28
921.932	488.16
922.103	414.34
922.275	454.06
922.447	424.42
922.619	376.76
922.79	434.69
922.962	399.23
923.134	458.91
923.305	389.54
923.477	358.93
923.648	357
923.82	358.16
923.991	339.56
924.163	338.4
924.335	359.9
924.506	314.18
924.677	411.63
924.849	344.4
925.02	387.8
925.192	392.64
925.363	374.82
925.535	374.24
925.706	364.94
925.877	401.75
926.049	356.8
926.22	372.5
926.391	372.69
926.562	378.89
926.734	354.48
926.905	380.44
927.076	310.88
927.247	330.84
927.419	293.64
927.59	285.89
927.761	290.15
927.932	295.97
928.103	277.17
928.274	223.31
928.445	242.49
928.616	266.9
928.787	263.42
928.958	275.43
929.129	273.68
929.3	239
929.471	209.75
929.642	181.07
929.813	114.23
929.984	211.3
930.155	124.69
930.326	167.32
930.496	144.26
930.667	113.07
930.838	164.41
931.009	133.99
931.18	122.76
931.35	121.79
931.521	135.15
931.692	96.41
931.863	48.16
932.033	125.27
932.204	105.71
932.374	110.55
932.545	63.66
932.716	129.34
932.886	102.8
933.057	36.73
933.227	46.22
933.398	118.88
933.568	24.33
933.739	13.87
933.909	10.19
934.08	77.42
934.25	6.51
934.421	23.56
934.591	45.45
934.761	14.45
934.932	-37.28
935.102	15.81
935.272	23.17
935.443	33.24
935.613	17.36
935.783	58.62
935.953	-1.24
936.123	161.89
936.294	11.16
936.464	48.36
936.634	40.61
936.804	2.44
936.974	-1.44
937.144	29.95
937.314	4.18
937.484	39.25
937.655	4.76
937.825	45.26
937.995	-28.76
938.165	55.14
938.334	22.98
938.504	17.16
938.674	40.99
938.844	34.6
939.014	84.97
939.184	91.76
939.354	126.24
939.524	102.8
939.694	59.98
939.863	45.26
940.033	124.89
940.203	111.13
940.373	92.14
940.542	108.22
940.712	76.06
940.882	102.41
941.051	112.1
941.221	103.77
941.391	118.88
941.56	68.51
941.73	67.15
941.899	180.1
942.069	55.91
942.238	91.17
942.408	37.7
942.577	104.54
942.747	46.42
942.916	42.16
943.086	38.86
943.255	87.49
943.425	70.83
943.594	28.21
943.763	-17.52
943.933	36.73
944.102	-18.68
944.271	44.09
944.441	70.25
944.61	48.55
944.779	58.04
944.948	118.3
945.117	26.46
945.287	35.38
945.456	-9.19
945.625	22.78
945.794	84.97
945.963	8.44
946.132	60.17
946.301	45.06
946.47	96.21
946.639	-12.29
946.808	47
946.977	46.81
947.146	107.26
947.315	43.51
947.484	73.54
947.653	31.69
947.822	41.77
947.991	20.46
948.16	107.06
948.329	71.41
948.498	47.19
948.666	23.56
948.835	71.22
949.004	46.22
949.173	14.64
949.341	42.74
949.51	61.53
949.679	80.32
949.847	51.26
950.016	115.39
950.185	113.26
950.353	28.98
950.522	53.39
950.69	62.11
950.859	34.99
951.028	77.03
951.196	61.53
951.365	33.24
951.533	48.94
951.701	69.28
951.87	67.92
952.038	16
952.207	41.77
952.375	124.11
952.543	31.5
952.712	42.74
952.88	30.92
953.048	79.55
953.217	78.39
953.385	23.75
953.553	101.06
953.721	15.81
953.89	34.02
954.058	39.64
954.226	13.87
954.394	77.81
954.562	34.6
954.73	41.77
954.898	34.21
955.067	73.74
955.235	50.49
955.403	73.54
955.571	114.04
955.739	76.64
955.907	41.77
956.075	61.92
956.243	20.84
956.41	57.85
956.578	20.65
956.746	4.57
956.914	27.04
957.082	83.81
957.25	72.19
957.418	47.39
957.585	43.12
957.753	98.15
957.921	30.14
958.089	41.77
958.256	89.82
958.424	74.71
958.592	80.32
958.759	31.69
958.927	96.21
959.095	46.22
959.262	43.71
959.43	49.32
959.597	40.99
959.765	79.16
959.932	33.63
960.1	79.16
960.267	60.95
960.435	65.02
960.602	89.62
960.77	47.97
960.937	47.77
961.104	84.59
961.272	23.56
961.439	25.88
961.606	89.62
961.774	79.94
961.941	26.08
962.108	88.27
962.275	79.16
962.443	68.89
962.61	62.11
962.777	112.29
962.944	96.02
963.111	84.01
963.278	67.92
963.446	75.67
963.613	38.86
963.78	81.49
963.947	81.68
964.114	97.18
964.281	168.48
964.448	81.87
964.615	58.24
964.782	88.66
964.949	101.06
965.116	85.75
965.282	104.93
965.449	56.3
965.616	31.5
965.783	90.79
965.95	70.83
966.117	28.01
966.283	84.2
966.45	70.64
966.617	71.22
966.784	115.59
966.95	112.49
967.117	115.59
967.284	63.66
967.45	46.81
967.617	115.2
967.784	103.57
967.95	142.71
968.117	59.01
968.283	119.46
968.45	141.74
968.616	78.39
968.783	147.94
968.949	111.52
969.116	134.57
969.282	86.72
969.449	96.21
969.615	86.14
969.781	56.49
969.948	76.26
970.114	70.64
970.28	150.07
970.447	100.28
970.613	108.42
970.779	98.15
970.945	112.29
971.112	95.05
971.278	82.46
971.444	83.62
971.61	123.72
971.776	62.31
971.942	110.36
972.108	133.8
972.275	68.89
972.441	93.11
972.607	164.22
972.773	51.07
972.939	106.48
973.105	95.44
973.271	52.23
973.437	66.57
973.602	79.94
973.768	106.87
973.934	72.57
974.1	110.74
974.266	11.35
974.432	84.01
974.598	49.52
974.763	96.21
974.929	66.76
975.095	154.92
975.261	52.62
975.426	74.32
975.592	87.11
975.758	142.9
975.923	40.99
976.089	55.52
976.255	118.69
976.42	92.53
976.586	108.22
976.751	101.64
976.917	141.74
977.082	115.78
977.248	46.03
977.413	25.49
977.579	84.59
977.744	82.65
977.91	25.69
978.075	55.91
978.24	94.47
978.406	90.21
978.571	78
978.736	32.47
978.902	93.5
979.067	41.57
979.232	19.68
979.397	93.31
979.563	92.53
979.728	74.12
979.893	65.6
980.058	73.54
980.223	115.78
980.388	71.99
980.554	84.01
980.719	54.75
980.884	81.87
981.049	108.81
981.214	66.76
981.379	89.62
981.544	47.77
981.709	86.33
981.874	65.6
982.039	86.14
982.204	101.44
982.368	83.62
982.533	48.55
982.698	108.03
982.863	108.81
983.028	69.86
983.193	89.62
983.357	99.7
983.522	84.2
983.687	64.24
983.852	78.39
984.016	73.74
984.181	94.08
984.346	85.75
984.51	86.14
984.675	60.76
984.839	80.13
985.004	60.76
985.168	115.2
985.333	76.45
985.498	84.78
985.662	71.61
985.827	84.39
985.991	71.41
986.155	60.76
986.32	84.01
986.484	133.99
986.649	72.77
986.813	52.81
986.977	97.37
987.142	100.67
987.306	47
987.47	52.62
987.634	63.86
987.799	85.94
987.963	76.26
988.127	84.78
988.291	132.83
988.455	53.59
988.62	74.9
988.784	95.05
988.948	95.05
989.112	81.68
989.276	88.07
989.44	70.64
989.604	55.14
989.768	50.68
989.932	146.39
990.096	56.69
990.26	45.64
990.424	50.1
990.588	68.7
990.752	133.22
990.915	96.41
991.079	72.96
991.243	62.69
991.407	88.85
991.571	54.17
991.734	90.21
991.898	77.03
992.062	127.99
992.226	48.94
992.389	45.45
992.553	31.31
992.717	39.64
992.88	44.09
993.044	70.06
993.207	70.25
993.371	87.3
993.535	85.36
993.698	71.61
993.862	99.51
994.025	108.61
994.189	59.59
994.352	78.97
994.515	89.62
994.679	117.33
994.842	39.44
995.006	91.95
995.169	31.11
995.332	40.22
995.496	81.49
995.659	18.71
995.822	52.81
995.985	45.84
996.149	98.54
996.312	58.43
996.475	95.82
996.638	44.09
996.801	115.01
996.964	145.81
997.128	43.12
997.291	58.24
997.454	59.01
997.617	30.53
997.78	96.02
997.943	59.59
998.106	94.08
998.269	41.38
998.432	57.66
998.595	79.36
998.758	29.56
998.92	28.98
999.083	-7.44
999.246	49.91
999.409	25.3
999.572	-2.79
999.735	47.58
999.897	68.7
1000.06	48.74
1000.223	12.9
1000.386	82.84
1000.548	83.62
1000.711	69.47
1000.874	60.56
1001.036	23.94
1001.199	94.66
1001.361	48.16
1001.524	72.96
1001.687	100.28
1001.849	32.86
1002.012	65.41
1002.174	37.51
1002.337	90.4
1002.499	40.61
1002.661	97.18
1002.824	8.64
1002.986	41.96
1003.149	57.66
1003.311	33.63
1003.473	111.13
1003.636	34.41
1003.798	52.81
1003.96	52.42
1004.123	44.48
1004.285	32.86
1004.447	38.47
1004.609	49.52
1004.771	114.62
1004.933	-17.13
1005.096	45.84
1005.258	-24.3
1005.42	22.59
1005.582	71.41
1005.744	44.48
1005.906	12.51
1006.068	35.57
1006.23	9.61
1006.392	-34.18
1006.554	21.81
1006.716	71.61
1006.878	54.36
1007.04	4.76
1007.202	36.34
1007.363	47.39
1007.525	43.51
1007.687	72.77
1007.849	65.99
1008.011	23.56
1008.172	9.99
1008.334	13.87
1008.496	68.31
1008.658	-10.35
1008.819	9.8
1008.981	3.99
1009.143	5.73
1009.304	24.91
1009.466	34.79
1009.627	81.1
1009.789	96.41
1009.95	57.07
1010.112	23.75
1010.273	49.91
1010.435	12.51
1010.596	23.17
1010.758	2.63
1010.919	28.98
1011.081	-7.83
1011.242	26.66
1011.403	64.24
1011.565	20.26
1011.726	62.31
1011.887	14.06
1012.049	24.14
1012.21	74.12
1012.371	79.94
1012.532	-28.37
1012.693	42.35
1012.855	35.96
1013.016	41.19
1013.177	63.27
1013.338	33.05
1013.499	60.56
1013.66	54.17
1013.821	58.82
1013.982	51.07
1014.143	35.38
1014.304	7.67
1014.465	55.14
1014.626	61.53
1014.787	12.71
1014.948	88.66
1015.109	-43.29
1015.27	38.67
1015.431	-4.54
1015.592	2.63
1015.752	48.55
1015.913	34.02
1016.074	24.14
1016.235	14.64
1016.395	1.28
1016.556	18.33
1016.717	8.44
1016.877	32.66
1017.038	-5.89
1017.199	33.83
1017.359	41.57
1017.52	34.21
1017.681	6.31
1017.841	23.94
1018.002	21.04
1018.162	8.64
1018.323	64.63
1018.483	12.13
1018.644	13.68
1018.804	-26.04
1018.964	8.64
1019.125	19.1
1019.285	31.11
1019.446	2.05
1019.606	-6.47
1019.766	-38.64
1019.926	10.96
1020.087	28.59
1020.247	-6.28
1020.407	53.78
1020.567	64.44
1020.728	41.57
1020.888	-3.57
1021.048	20.26
1021.208	-4.73
1021.368	7.86
1021.528	52.62
1021.688	49.13
1021.848	47.19
1022.008	28.59
1022.168	19.29
1022.328	25.11
1022.488	44.09
1022.648	1.86
1022.808	9.41
1022.968	33.63
1023.128	11.54
1023.288	-2.41
1023.448	39.44
1023.608	33.44
1023.767	27.63
1023.927	-5.31
1024.087	-21.97
1024.247	-33.99
1024.406	5.34
1024.566	-8.99
1024.726	-20.04
1024.885	6.7
1025.045	19.49
1025.205	11.54
1025.364	2.83
1025.524	40.61
1025.683	-5.89
1025.843	42.93
1026.003	8.06
1026.162	73.16
1026.321	40.8
1026.481	31.31
1026.64	3.02
1026.8	43.51
1026.959	34.02
1027.119	16.39
1027.278	4.38
1027.437	-25.46
1027.597	19.68
1027.756	23.17
1027.915	42.35
1028.074	36.15
1028.234	-8.22
1028.393	1.66
1028.552	5.93
1028.711	-47.94
1028.87	24.72
1029.03	-19.26
1029.189	1.86
1029.348	-27.4
1029.507	-37.67
1029.666	2.63
1029.825	-57.24
1029.984	8.83
1030.143	7.67
1030.302	-2.41
1030.461	-41.93
1030.62	17.55
1030.779	42.16
1030.938	-8.8
1031.097	-29.34
1031.255	32.66
1031.414	47.58
1031.573	46.22
1031.732	-15.58
1031.891	-9.38
1032.049	26.66
1032.208	11.74
1032.367	-47.55
1032.525	3.02
1032.684	-8.02
1032.843	20.26
1033.001	-38.25
1033.16	139.42
1033.319	16.97
1033.477	26.66
1033.636	-9.77
1033.794	-39.41
1033.953	27.82
1034.111	23.75
1034.27	-6.67
1034.428	14.06
1034.587	-17.91
1034.745	0.11
1034.903	4.38
1035.062	29.37
1035.22	-35.92
1035.378	11.54
1035.537	-18.1
1035.695	41.96
1035.853	7.86
1036.011	6.12
1036.17	18.13
1036.328	-47.74
1036.486	18.33
1036.644	31.11
1036.802	-61.5
1036.96	-9.19
1037.119	-14.42
1037.277	-8.8
1037.435	2.63
1037.593	-47.94
1037.751	1.66
1037.909	25.3
1038.067	25.3
