Data from gum_young_FLMT105791__113__17-40-41-041.txt Node

Date: Mon Mar 20 17:40:41 GMT 2023
User: antho
Spectrometer: FLMT10579
Trigger mode: 0
Integration Time (sec): 1.000000E-1
Scans to average: 10
Electric dark correction enabled: true
Nonlinearity correction enabled: false
Boxcar width: 0
XAxis mode: Wavelengths
Number of Pixels in Spectrum: 3648
>>>>>Begin Spectral Data<<<<<
345.248	-150.3
345.464	-150.3
345.681	-150.3
345.898	-175.49
346.114	-132.47
346.331	-44.13
346.548	12.25
346.764	12.84
346.981	-18.55
347.197	-16.42
347.414	20.97
347.631	-12.16
347.847	42.09
348.064	5.86
348.28	26.98
348.497	-36.57
348.713	6.83
348.93	13.22
349.146	38.22
349.363	-5.38
349.579	1.79
349.796	12.06
350.012	-3.63
350.229	12.45
350.445	1.4
350.661	-9.25
350.878	-6.73
351.094	21.36
351.311	21.94
351.527	4.31
351.743	-11.58
351.96	32.99
352.176	48.1
352.392	1.79
352.609	25.62
352.825	4.7
353.041	25.24
353.257	7.41
353.474	6.44
353.69	23.1
353.906	24.85
354.122	17.29
354.339	33.95
354.555	20.78
354.771	-9.83
354.987	42.48
355.203	59.53
355.42	13.8
355.636	-11.77
355.852	-1.7
356.068	13.8
356.284	-33.47
356.5	55.46
356.716	22.33
356.932	6.64
357.148	49.84
357.364	-0.73
357.58	35.7
357.796	64.95
358.012	72.51
358.228	54.88
358.444	-17.97
358.66	54.69
358.876	31.44
359.092	-21.26
359.308	36.67
359.524	30.27
359.74	16.32
359.956	0.05
360.172	35.7
360.388	48.1
360.604	5.47
360.819	71.73
361.035	39.96
361.251	57.59
361.467	7.8
361.683	29.3
361.898	17.29
362.114	57.59
362.33	28.34
362.546	22.52
362.762	23.3
362.977	21.94
363.193	-30.18
363.409	39.57
363.624	-16.81
363.84	-5.57
364.056	-1.31
364.271	23.69
364.487	17.49
364.703	-14.48
364.918	-3.05
365.134	17.87
365.35	-5.76
365.565	108.55
365.781	11.67
365.996	61.47
366.212	75.61
366.427	-8.28
366.643	-12.74
366.858	2.57
367.074	-7.9
367.289	29.69
367.505	101.38
367.72	-14.1
367.936	-0.34
368.151	71.35
368.367	41.12
368.582	10.7
368.798	0.24
369.013	30.47
369.228	26.98
369.444	28.34
369.659	74.06
369.874	32.99
370.09	76.58
370.305	-20.49
370.52	18.65
370.736	60.3
370.951	26.01
371.166	92.08
371.381	66.12
371.597	45.97
371.812	4.31
372.027	-12.55
372.242	12.84
372.458	70.57
372.673	6.83
372.888	35.89
373.103	65.73
373.318	122.3
373.533	37.05
373.749	56.04
373.964	-14.29
374.179	61.85
374.394	-2.47
374.609	47.9
374.824	-14.48
375.039	61.66
375.254	2.37
375.469	92.66
375.684	33.37
375.899	74.25
376.114	34.54
376.329	27.37
376.544	64.95
376.759	35.7
376.974	26.2
377.189	10.9
377.404	6.64
377.619	63.4
377.834	-24.17
378.049	6.64
378.264	6.25
378.478	23.69
378.693	2.57
378.908	41.9
379.123	29.5
379.338	71.54
379.553	32.6
379.767	45.97
379.982	71.54
380.197	63.4
380.412	34.54
380.626	52.17
380.841	100.41
381.056	76.58
381.271	110.48
381.485	12.84
381.7	-0.73
381.915	41.7
382.129	16.32
382.344	42.67
382.559	11.48
382.773	33.37
382.988	-3.25
383.202	28.14
383.417	0.24
383.632	119.01
383.846	20.2
384.061	21.36
384.275	-3.44
384.49	42.09
384.704	43.45
384.919	60.69
385.133	22.72
385.348	74.83
385.562	-15.26
385.777	54.49
385.991	23.49
386.206	29.5
386.42	14.58
386.634	75.42
386.849	49.65
387.063	42.29
387.277	15.55
387.492	15.16
387.706	29.69
387.92	17.1
388.135	59.14
388.349	78.52
388.563	53.72
388.778	35.5
388.992	79.1
389.206	67.28
389.42	101.96
389.635	37.83
389.849	63.21
390.063	68.63
390.277	65.53
390.491	109.71
390.706	66.89
390.92	84.72
391.134	64.76
391.348	77.93
391.562	15.16
391.776	51.78
391.99	28.92
392.205	66.31
392.419	37.44
392.633	57.4
392.847	95.18
393.061	22.52
393.275	84.33
393.489	42.29
393.703	57.2
393.917	64.76
394.131	23.49
394.345	56.82
394.559	100.99
394.773	66.31
394.986	68.05
395.2	46.94
395.414	99.44
395.628	20.78
395.842	60.89
396.056	40.93
396.27	13.03
396.484	51.39
396.697	53.33
396.911	85.68
397.125	75.22
397.339	67.67
397.553	68.83
397.766	108.35
397.98	74.64
398.194	88.59
398.408	67.28
398.621	81.23
398.835	88.98
399.049	69.02
399.262	114.94
399.476	99.44
399.69	94.21
399.903	143.62
400.117	69.6
400.331	91.88
400.544	55.07
400.758	173.65
400.971	96.15
401.185	127.73
401.398	57.01
401.612	148.65
401.826	92.85
402.039	89.17
402.253	84.72
402.466	128.5
402.68	89.56
402.893	104.67
403.106	104.67
403.32	77.16
403.533	105.06
403.747	109.52
403.96	81.42
404.174	128.7
404.387	55.46
404.6	125.6
404.814	134.51
405.027	107.77
405.24	90.14
405.454	81.23
405.667	123.66
405.88	46.74
406.094	93.43
406.307	128.89
406.52	96.53
406.733	88.4
406.947	72.51
407.16	147.3
407.373	125.21
407.586	81.23
407.799	64.18
408.012	151.56
408.226	117.85
408.439	147.49
408.652	74.06
408.865	126.37
409.078	135.09
409.291	122.88
409.504	92.27
409.717	150.01
409.93	126.18
410.143	102.54
410.357	74.83
410.57	76
410.783	88.98
410.996	127.73
411.209	107.97
411.421	160.08
411.634	121.14
411.847	97.7
412.06	119.01
412.273	97.89
412.486	114.55
412.699	186.82
412.912	123.08
413.125	153.5
413.338	141.1
413.55	150.01
413.763	121.33
413.976	145.36
414.189	100.41
414.402	112.62
414.615	177.33
414.827	104.09
415.04	192.25
415.253	160.66
415.466	153.88
415.678	190.89
415.891	129.28
416.104	119.59
416.316	131.41
416.529	102.93
416.742	175.58
416.954	179.85
417.167	166.48
417.38	120.56
417.592	188.76
417.805	126.57
418.017	121.33
418.23	151.75
418.442	146.91
418.655	160.08
418.868	144.97
419.08	180.43
419.293	178.88
419.505	145.17
419.718	150.2
419.93	193.41
420.142	126.57
420.355	175.78
420.567	205.03
420.78	173.06
420.992	150.59
421.205	193.8
421.417	133.15
421.629	156.21
421.842	124.43
422.054	110.87
422.266	170.93
422.479	189.15
422.691	157.37
422.903	175
423.115	161.44
423.328	129.08
423.54	175.39
423.752	161.44
423.964	129.67
424.177	141.68
424.389	167.06
424.601	246.3
424.813	191.08
425.025	204.65
425.238	213.17
425.45	169
425.662	133.73
425.874	406.53
426.086	128.31
426.298	170.74
426.51	176.75
426.722	162.99
426.934	152.33
427.146	202.71
427.358	154.27
427.57	220.34
427.782	157.95
427.994	170.55
428.206	149.62
428.418	135.28
428.63	221.89
428.842	205.03
429.054	169.96
429.266	212.4
429.478	161.05
429.69	161.63
429.902	121.53
430.114	192.25
430.325	163.57
430.537	126.37
430.749	158.53
430.961	125.4
431.173	145.36
431.384	181.59
431.596	121.53
431.808	134.9
432.02	192.44
432.231	187.4
432.443	251.73
432.655	181.4
432.867	150.2
433.078	198.25
433.29	269.94
433.502	226.73
433.713	234.29
433.925	212.2
434.136	248.24
434.348	149.04
434.56	137.8
434.771	275.36
434.983	158.92
435.194	190.89
435.406	205.81
435.617	252.5
435.829	246.88
436.04	219.18
436.252	244.94
436.463	256.57
436.675	256.18
436.886	252.69
437.098	249.79
437.309	265.68
437.521	228.67
437.732	237.97
437.943	245.91
438.155	232.35
438.366	183.72
438.578	271.68
438.789	252.11
439	236.03
439.211	188.37
439.423	231.38
439.634	230.03
439.845	263.54
440.057	254.44
440.268	255.6
440.479	225.38
440.69	258.31
440.902	227.7
441.113	232.93
441.324	227.7
441.535	261.22
441.746	255.99
441.957	202.51
442.168	233.32
442.38	258.31
442.591	275.94
442.802	245.91
443.013	264.32
443.224	275.36
443.435	273.62
443.646	260.44
443.857	242.23
444.068	237
444.279	226.54
444.49	325.16
444.701	283.11
444.912	372.04
445.123	300.16
445.334	286.79
445.545	289.12
445.756	269.94
445.967	248.82
446.178	278.08
446.388	302.1
446.599	301.91
446.81	305.39
447.021	287.57
447.232	306.75
447.443	337.36
447.653	276.53
447.864	322.64
448.075	298.61
448.286	305.39
448.496	321.86
448.707	366.81
448.918	281.18
449.129	394.91
449.339	270.91
449.55	339.3
449.761	316.44
449.971	359.06
450.182	298.81
450.393	348.02
450.603	278.27
450.814	350.54
451.024	322.06
451.235	360.03
451.446	374.95
451.656	365.26
451.867	323.03
452.077	343.56
452.288	392.77
452.498	390.26
452.709	325.93
452.919	335.42
453.13	310.43
453.34	364.29
453.55	285.83
453.761	361.39
453.971	338.52
454.182	355.77
454.392	344.34
454.602	423
454.813	378.44
455.023	375.72
455.233	305.59
455.444	371.07
455.654	304.62
455.864	327.87
456.075	334.46
456.285	324.19
456.495	371.85
456.705	353.44
456.916	414.67
457.126	436.17
457.336	370.3
457.546	289.89
457.756	349.18
457.967	415.44
458.177	355.38
458.387	387.74
458.597	329.22
458.807	375.72
459.017	373.59
459.227	362.36
459.437	363.71
459.647	394.13
459.857	384.44
460.068	338.72
460.278	408.66
460.488	369.52
460.698	449.74
460.908	376.5
461.117	336.2
461.327	365.07
461.537	379.99
461.747	383.28
461.957	408.27
462.167	467.37
462.377	449.35
462.587	388.12
462.797	437.14
463.007	417.19
463.216	464.46
463.426	442.37
463.636	429.97
463.846	375.34
464.056	348.79
464.265	418.54
464.475	361.19
464.685	405.95
464.895	413.31
465.104	419.51
465.314	437.72
465.524	400.72
465.733	365.84
465.943	463.3
466.153	480.15
466.362	435.79
466.572	422.22
466.782	426.87
466.991	434.24
467.201	472.79
467.41	363.91
467.62	434.82
467.829	416.22
468.039	431.52
468.249	416.22
468.458	418.54
468.668	448.96
468.877	438.5
469.086	488.1
469.296	459.81
469.505	413.7
469.715	481.51
469.924	485.58
470.134	485.77
470.343	491.97
470.552	453.03
470.762	465.82
470.971	431.52
471.18	459.23
471.39	471.05
471.599	418.93
471.808	514.06
472.018	475.31
472.227	529.17
472.436	525.1
472.645	481.9
472.855	475.12
473.064	542.93
473.273	503.4
473.482	505.92
473.691	558.62
473.901	555.72
474.11	499.92
474.319	606.86
474.528	524.13
474.737	569.67
474.946	556.88
475.155	524.33
475.364	581.87
475.573	546.8
475.783	547.97
475.992	574.12
476.201	596.98
476.41	556.68
476.619	527.43
476.828	556.3
477.037	529.56
477.245	545.25
477.454	569.47
477.663	570.05
477.872	554.36
478.081	640
478.29	565.21
478.499	650.26
478.708	626.05
478.917	658.21
479.125	591.95
479.334	622.36
479.543	565.79
479.752	624.5
479.961	624.88
480.169	685.91
480.378	606.09
480.587	760.31
480.796	665.96
481.004	646.2
481.213	691.14
481.422	659.95
481.63	689.01
481.839	683.59
482.048	743.26
482.256	693.47
482.465	728.34
482.674	725.44
482.882	713.23
483.091	769.42
483.299	717.3
483.508	708.39
483.716	724.08
483.925	741.52
484.134	695.79
484.342	716.91
484.551	779.49
484.759	751.79
484.967	784.53
485.176	765.16
485.384	776.01
485.593	783.76
485.801	768.26
486.01	709.74
486.218	687.27
486.426	627.21
486.635	666.93
486.843	658.21
487.051	693.08
487.26	661.5
487.468	726.6
487.676	724.28
487.885	742.88
488.093	751.59
488.301	797.51
488.509	796.54
488.717	809.33
488.926	782.59
489.134	723.89
489.342	831.81
489.55	739.58
489.758	801
489.967	777.94
490.175	906.01
490.383	828.9
490.591	901.36
490.799	805.65
491.007	867.26
491.215	860.87
491.423	844.79
491.631	859.12
491.839	821.54
492.047	879.85
492.255	838.39
492.463	810.3
492.671	832.19
492.879	905.62
493.087	851.95
493.295	890.51
493.503	874.82
493.711	915.12
493.919	912.21
494.127	914.54
494.334	922.67
494.542	853.31
494.75	904.27
494.958	918.8
495.166	976.73
495.374	979.63
495.581	952.9
495.789	958.52
495.997	960.65
496.205	915.31
496.412	936.43
496.62	951.15
496.828	990.29
497.035	962.2
497.243	983.12
497.451	949.99
497.658	983.32
497.866	999.59
498.074	1026.33
498.281	954.45
498.489	1039.7
498.696	1009.67
498.904	958.52
499.112	984.67
499.319	1055
499.527	1010.63
499.734	1061.59
499.942	1025.94
500.149	1002.11
500.357	1045.12
500.564	997.07
500.771	1052.1
500.979	1001.33
501.186	1032.91
501.394	1024.78
501.601	1029.43
501.808	1029.04
502.016	1040.86
502.223	1022.45
502.43	1040.28
502.638	1054.81
502.845	1036.4
503.052	1094.53
503.26	1055.2
503.467	1115.84
503.674	1058.68
503.881	1124.17
504.089	1144.51
504.296	1109.64
504.503	1052.87
504.71	1121.07
504.917	1073.99
505.125	1121.26
505.332	1115.64
505.539	1143.54
505.746	1210.39
505.953	1198.38
506.16	1201.86
506.367	1246.23
506.574	1254.17
506.781	1286.92
506.988	1191.21
507.195	1198.18
507.402	1214.84
507.609	1243.13
507.816	1199.73
508.023	1218.33
508.23	1227.05
508.437	1211.36
508.644	1254.37
508.851	1283.62
509.058	1302.03
509.265	1323.92
509.472	1335.35
509.679	1412.66
509.885	1310.17
510.092	1322.37
510.299	1338.07
510.506	1361.12
510.713	1340.59
510.92	1319.66
511.126	1411.3
511.333	1430.87
511.54	1413.24
511.746	1462.26
511.953	1462.07
512.16	1481.44
512.367	1482.21
512.573	1401.23
512.78	1470.4
512.987	1472.53
513.193	1471.75
513.4	1376.04
513.606	1464.39
513.813	1498.68
514.02	1454.51
514.226	1547.9
514.433	1547.51
514.639	1464.97
514.846	1513.02
515.052	1483.96
515.259	1535.3
515.465	1546.35
515.672	1541.31
515.878	1649.22
516.085	1610.67
516.291	1669.57
516.497	1573.47
516.704	1581.03
516.91	1528.91
517.117	1480.28
517.323	1425.06
517.529	1484.15
517.736	1495.39
517.942	1517.67
518.148	1546.54
518.354	1619.97
518.561	1610.28
518.767	1611.44
518.973	1652.71
519.179	1656.97
519.386	1672.47
519.592	1672.09
519.798	1676.93
520.004	1813.52
520.21	1761.21
520.417	1814.68
520.623	1876.3
520.829	1894.51
521.035	1905.55
521.241	1877.65
521.447	1926.28
521.653	2020.25
521.859	1922.99
522.065	1972.98
522.271	2061.52
522.477	2018.89
522.683	2042.92
522.889	1994.68
523.095	2018.51
523.301	2021.03
523.507	1968.33
523.713	2016.76
523.919	2007.46
524.125	2094.84
524.331	2081.47
524.537	2210.7
524.742	2186.29
524.948	2227.56
525.154	2203.73
525.36	2298.67
525.566	2225.62
525.772	2294.6
525.977	2193.65
526.183	2280.45
526.389	2242.87
526.595	2193.46
526.8	2200.05
527.006	2139.6
527.212	2055.9
527.417	2044.28
527.623	2068.11
527.829	2155.1
528.034	2181.25
528.24	2213.61
528.446	2268.44
528.651	2352.33
528.857	2359.11
529.062	2363.18
529.268	2402.9
529.473	2418.01
529.679	2432.35
529.884	2467.23
530.09	2462.19
530.295	2500.36
530.501	2490.48
530.706	2474.78
530.912	2439.13
531.117	2442.62
531.323	2541.82
531.528	2592.19
531.733	2580.76
531.939	2548.99
532.144	2590.26
532.35	2564.49
532.555	2561.58
532.76	2529.42
532.966	2528.26
533.171	2510.82
533.376	2489.12
533.581	2469.36
533.787	2524.38
533.992	2567.59
534.197	2601.49
534.402	2567.97
534.607	2589.67
534.813	2640.63
535.018	2566.04
535.223	2621.25
535.428	2655.16
535.633	2734.02
535.838	2715.61
536.043	2737.7
536.249	2845.23
536.454	2725.49
536.659	2791.95
536.864	2719.1
537.069	2711.54
537.274	2707.47
537.479	2698.37
537.684	2703.98
537.889	2702.43
538.094	2819.07
538.299	2751.65
538.504	2821.2
538.708	2826.43
538.913	2820.04
539.118	2819.46
539.323	2831.47
539.528	2728.4
539.733	2760.37
539.938	2792.53
540.142	2799.5
540.347	2760.75
540.552	2726.85
540.757	2702.43
540.962	2685.97
541.166	2696.23
541.371	2652.64
541.576	2734.6
541.781	2637.72
541.985	2764.24
542.19	2765.4
542.395	2846.2
542.599	2869.25
542.804	2786.91
543.008	2855.69
543.213	2793.5
543.418	2755.72
543.622	2819.65
543.827	2769.47
544.031	2882.81
544.236	2867.31
544.44	2869.25
544.645	2950.62
544.849	2869.83
545.054	2902.58
545.258	2926.99
545.463	2946.17
545.667	2873.32
545.872	2925.05
546.076	2903.74
546.281	2922.14
546.485	2888.04
546.689	2926.99
546.894	2941.91
547.098	2911.29
547.302	2896.76
547.507	2901.8
547.711	2913.04
547.915	2946.36
548.119	2869.06
548.324	2846.97
548.528	2932.99
548.732	2877.97
548.936	2979.3
549.141	2959.73
549.345	2968.84
549.549	2951.21
549.753	2967.09
549.957	3052.34
550.161	3000.22
550.366	2953.14
550.57	2957.99
550.774	2953.53
550.978	2990.15
551.182	3005.84
551.386	2955.08
551.59	2931.06
551.794	2947.72
551.998	2968.06
552.202	2935.9
552.406	2931.44
552.61	3022.7
552.814	3006.81
553.018	3015.34
553.222	2956.63
553.426	2923.5
553.63	3022.51
553.833	2982.01
554.037	2926.99
554.241	3003.13
554.445	2958.76
554.649	2963.02
554.853	2956.63
555.056	2988.99
555.26	3023.09
555.464	2979.69
555.668	3030.84
555.871	3038.39
556.075	3012.24
556.279	2926.02
556.483	2932.8
556.686	2929.31
556.89	2940.74
557.094	2954.69
557.297	2870.99
557.501	2925.83
557.704	2838.25
557.908	2898.89
558.112	2870.8
558.315	2950.24
558.519	2873.71
558.722	2841.93
558.926	2872.54
559.129	2732.27
559.333	2745.06
559.536	2785.75
559.74	2754.75
559.943	2757.27
560.147	2734.21
560.35	2746.42
560.553	2762.88
560.757	2738.28
560.96	2841.35
561.164	2759.4
561.367	2849.3
561.57	2777.8
561.774	2787.1
561.977	2739.05
562.18	2737.89
562.384	2827.98
562.587	2757.85
562.79	2693.52
562.993	2762.5
563.197	2789.43
563.4	2802.99
563.603	2778
563.806	2787.68
564.009	2748.55
564.212	2753.58
564.416	2638.3
564.619	2664.85
564.822	2682.48
565.025	2704.57
565.228	2673.57
565.431	2703.98
565.634	2585.41
565.837	2613.5
566.04	2581.54
566.243	2577.86
566.446	2489.51
566.649	2540.07
566.852	2499.97
567.055	2542.21
567.258	2560.42
567.461	2584.64
567.664	2588.71
567.867	2484.47
568.07	2527.29
568.273	2573.59
568.475	2556.93
568.678	2480.4
568.881	2490.28
569.084	2443.98
569.287	2343.42
569.489	2395.54
569.692	2413.95
569.895	2441.07
570.098	2394.57
570.3	2331.99
570.503	2293.24
570.706	2340.71
570.909	2306.8
571.111	2255.27
571.314	2213.42
571.516	2233.18
571.719	2226.4
571.922	2200.44
572.124	2242.09
572.327	2274.64
572.529	2209.15
572.732	2230.85
572.935	2307.19
573.137	2303.32
573.34	2214.19
573.542	2313.2
573.745	2231.82
573.947	2265.92
574.15	2202.76
574.352	2214.19
574.554	2277.16
574.757	2217.1
574.959	2136.89
575.162	2141.73
575.364	2140.96
575.566	2214.58
575.769	2049.7
575.971	2123.13
576.173	2040.01
576.376	2094.65
576.578	2141.34
576.78	2160.52
576.982	2012.5
577.185	2114.99
577.387	2077.02
577.589	2051.83
577.791	2132.82
577.993	2090
578.196	2059.39
578.398	2052.03
578.6	2078.18
578.802	1978.01
579.004	1998.74
579.206	1966.2
579.408	2028.39
579.61	1986.93
579.812	2063.65
580.014	1957.86
580.216	2001.65
580.418	2047.18
580.62	2022.58
580.822	1994.87
581.024	2017.34
581.226	2039.82
581.428	2013.86
581.63	2085.54
581.832	2005.91
582.034	2050.48
582.236	2030.13
582.438	2003.98
582.64	2063.26
582.841	2121
583.043	2119.06
583.245	2075.86
583.447	2099.69
583.649	2081.67
583.85	2073.92
584.052	2078.76
584.254	2046.99
584.456	2045.24
584.657	1995.64
584.859	2026.84
585.061	2047.96
585.262	1991.58
585.464	2007.66
585.666	2028
585.867	1951.86
586.069	1974.33
586.27	1983.83
586.472	1951.28
586.674	1960.77
586.875	1934.81
587.077	1939.07
587.278	1964.06
587.48	1946.43
587.681	2016.38
587.883	1936.36
588.084	1886.18
588.285	1891.41
588.487	1866.61
588.688	1885.4
588.89	1813.91
589.091	1745.9
589.292	1744.16
589.494	1694.95
589.695	1660.27
589.896	1603.31
590.098	1575.02
590.299	1655.62
590.5	1678.29
590.702	1694.95
590.903	1705.22
591.104	1772.84
591.305	1751.72
591.507	1793.18
591.708	1763.73
591.909	1770.9
592.11	1823.79
592.311	1800.54
592.512	1699.02
592.714	1703.67
592.915	1738.35
593.116	1736.8
593.317	1784.46
593.518	1772.25
593.719	1749
593.92	1770.51
594.121	1796.86
594.322	1778.07
594.523	1769.93
594.724	1746.87
594.925	1750.94
595.126	1732.73
595.327	1749.97
595.528	1725.56
595.729	1739.32
595.929	1723.24
596.13	1746.29
596.331	1746.29
596.532	1770.51
596.733	1811.2
596.934	1810.23
597.135	1798.02
597.335	1767.6
597.536	1752.88
597.737	1758.69
597.938	1752.49
598.138	1781.17
598.339	1774.77
598.54	1751.33
598.74	1728.27
598.941	1773.03
599.142	1805.77
599.342	1749.97
599.543	1737.57
599.744	1733.7
599.944	1759.08
600.145	1772.06
600.345	1749.2
600.546	1808.68
600.746	1823.6
600.947	1827.86
601.147	1777.29
601.348	1786.79
601.548	1752.3
601.749	1754.82
601.949	1708.12
602.15	1740.48
602.35	1737.57
602.551	1769.35
602.751	1692.82
602.951	1719.36
603.152	1652.52
603.352	1766.05
603.552	1723.82
603.753	1811.59
603.953	1752.1
604.153	1732.54
604.354	1749.78
604.554	1734.09
604.754	1736.8
604.954	1722.46
605.155	1801.9
605.355	1749.97
605.555	1805.39
605.755	1787.95
605.955	1722.46
606.155	1765.09
606.356	1743
606.556	1730.79
606.756	1709.87
606.956	1690.69
607.156	1770.51
607.356	1705.8
607.556	1717.23
607.756	1715.49
607.956	1738.15
608.156	1721.88
608.356	1691.46
608.556	1707.16
608.756	1678.87
608.956	1706.77
609.156	1647.67
609.356	1652.52
609.556	1649.22
609.755	1716.65
609.955	1653.49
610.155	1670.54
610.355	1627.53
610.555	1603.11
610.755	1631.79
610.954	1605.63
611.154	1613.77
611.354	1664.72
611.554	1595.17
611.753	1621.52
611.953	1583.93
612.153	1634.89
612.352	1616.09
612.552	1570.95
612.752	1525.23
612.951	1582.19
613.151	1607.38
613.351	1542.08
613.55	1568.04
613.75	1599.63
613.949	1530.85
614.149	1551.19
614.348	1544.8
614.548	1480.66
614.747	1482.21
614.947	1462.07
615.146	1439.2
615.346	1581.61
615.545	1553.32
615.745	1501.2
615.944	1541.11
616.144	1505.46
616.343	1490.55
616.542	1468.85
616.742	1459.74
616.941	1485.12
617.14	1390.77
617.34	1477.76
617.539	1462.84
617.738	1437.46
617.938	1527.36
618.137	1479.89
618.336	1420.6
618.535	1477.76
618.734	1451.41
618.934	1478.92
619.133	1478.34
619.332	1477.76
619.531	1406.27
619.73	1457.22
619.929	1484.35
620.128	1470.2
620.328	1463.03
620.527	1430.87
620.726	1451.02
620.925	1456.06
621.124	1450.83
621.323	1455.87
621.522	1394.83
621.721	1399.48
621.92	1356.86
622.119	1414.6
622.318	1378.75
622.517	1402
622.715	1358.8
622.914	1379.53
623.113	1385.92
623.312	1347.17
623.511	1392.12
623.71	1363.64
623.909	1342.91
624.107	1455.28
624.306	1302.42
624.505	1343.1
624.704	1357.44
624.902	1314.82
625.101	1378.17
625.3	1336.52
625.499	1287.89
625.697	1315.79
625.896	1302.03
626.095	1359.96
626.293	1285.95
626.492	1281.88
626.69	1331.67
626.889	1282.07
627.088	1378.37
627.286	1307.84
627.485	1306.49
627.683	1265.99
627.882	1287.11
628.08	1200.7
628.279	1202.06
628.477	1248.17
628.676	1244.68
628.874	1277.04
629.073	1238.29
629.271	1220.27
629.469	1250.3
629.668	1218.72
629.866	1239.84
630.065	1230.34
630.263	1276.46
630.461	1191.21
630.66	1265.22
630.858	1245.46
631.056	1278.01
631.254	1273.74
631.453	1240.81
631.651	1285.56
631.849	1250.49
632.047	1241.58
632.245	1241
632.444	1252.04
632.642	1252.43
632.84	1293.7
633.038	1234.41
633.236	1201.09
633.434	1223.17
633.632	1229.18
633.83	1249.72
634.028	1288.66
634.227	1277.04
634.425	1318.11
634.623	1270.26
634.821	1263.47
635.019	1296.22
635.216	1266.77
635.414	1286.14
635.612	1278.01
635.81	1275.29
636.008	1331.29
636.206	1250.88
636.404	1271.42
636.602	1257.08
636.8	1258.63
636.997	1253.21
637.195	1257.08
637.393	1283.62
637.591	1291.37
637.789	1266.77
637.986	1200.31
638.184	1269.29
638.382	1271.81
638.58	1292.92
638.777	1310.36
638.975	1272
639.173	1264.83
639.37	1271.61
639.568	1270.64
639.765	1263.09
639.963	1228.79
640.161	1248.94
640.358	1258.05
640.556	1176.48
640.753	1189.27
640.951	1144.9
641.148	1229.96
641.346	1179.97
641.543	1190.43
641.741	1234.8
641.938	1169.31
642.136	1186.17
642.333	1154.39
642.531	1225.31
642.728	1216.39
642.925	1169.51
643.123	1142.38
643.32	1140.25
643.517	1158.85
643.715	1178.81
643.912	1147.23
644.109	1172.41
644.306	1182.49
644.504	1100.15
644.701	1144.32
644.898	1174.54
645.095	1109.45
645.293	1112.93
645.49	1158.27
645.687	1109.83
645.884	1150.33
646.081	1026.33
646.278	1059.65
646.475	1086.2
646.672	1080.19
646.87	1079.8
647.067	1080
647.264	1042.02
647.461	1029.23
647.658	1016.64
647.855	1061.98
648.052	1013.35
648.249	925.77
648.446	985.83
648.642	987.58
648.839	980.99
649.036	991.45
649.233	938.37
649.43	947.08
649.627	912.6
649.824	954.83
650.021	934.69
650.217	923.64
650.414	948.44
650.611	973.63
650.808	1000.37
651.004	982.73
651.201	1018.77
651.398	1011.41
651.595	989.9
651.791	963.55
651.988	998.43
652.185	918.6
652.381	944.76
652.578	930.62
652.775	943.4
652.971	980.6
653.168	955.8
653.364	978.28
653.561	903.3
653.757	946.89
653.954	962
654.15	941.47
654.347	971.5
654.543	941.08
654.74	899.62
654.936	929.45
655.133	918.8
655.329	944.57
655.525	927.13
655.722	927.9
655.918	869
656.115	905.43
656.311	813.21
656.507	768.06
656.704	746.94
656.9	781.62
657.096	797.51
657.292	804.29
657.489	873.46
657.685	853.7
657.881	817.08
658.077	835.49
658.273	843.62
658.47	945.73
658.666	877.92
658.862	910.27
659.058	888.19
659.254	907.37
659.45	853.89
659.646	883.15
659.842	919.96
660.038	922.48
660.234	850.21
660.43	881.6
660.626	971.11
660.822	893.42
661.018	908.72
661.214	883.73
661.41	838.97
661.606	882.37
661.802	905.24
661.998	888.57
662.194	842.46
662.39	882.76
662.586	890.51
662.781	906.79
662.977	898.84
663.173	918.8
663.369	859.7
663.564	870.36
663.76	897.68
663.956	850.6
664.152	895.74
664.347	815.72
664.543	835.87
664.739	854.47
664.934	783.37
665.13	765.16
665.326	865.32
665.521	851.18
665.717	813.59
665.912	795.96
666.108	757.41
666.304	810.69
666.499	810.3
666.695	742.49
666.89	772.71
667.086	832.77
667.281	840.72
667.477	888.57
667.672	791.89
667.867	797.71
668.063	832.97
668.258	748.88
668.454	784.53
668.649	837.62
668.844	795.96
669.04	819.02
669.235	769.03
669.43	742.68
669.626	751.01
669.821	774.26
670.016	762.64
670.211	770.77
670.407	740.16
670.602	782.59
670.797	772.71
670.992	816.31
671.187	740.94
671.382	793.25
671.578	727.96
671.773	770
671.968	723.31
672.163	751.4
672.358	783.76
672.553	760.7
672.748	748.69
672.943	820.37
673.138	763.22
673.333	778.91
673.528	720.01
673.723	774.07
673.918	772.91
674.113	725.63
674.308	837.62
674.503	784.72
674.698	770.39
674.892	768.26
675.087	775.81
675.282	770.97
675.477	730.67
675.672	773.1
675.867	747.91
676.061	725.05
676.256	719.43
676.451	737.26
676.646	731.83
676.84	695.41
677.035	692.5
677.23	726.02
677.424	760.12
677.619	797.9
677.814	751.79
678.008	749.85
678.203	708.19
678.397	721.76
678.592	756.83
678.787	816.31
678.981	734.93
679.176	730.09
679.37	770
679.565	732.99
679.759	770
679.954	751.4
680.148	796.54
680.342	784.14
680.537	774.07
680.731	771.36
680.926	772.13
681.12	773.1
681.314	724.86
681.509	786.27
681.703	787.44
681.897	797.12
682.092	762.06
682.286	737.26
682.48	828.32
682.674	801.97
682.869	751.4
683.063	768.84
683.257	831.22
683.451	777.75
683.645	811.66
683.839	789.37
684.034	756.05
684.228	790.92
684.422	765.74
684.616	787.63
684.81	786.47
685.004	789.37
685.198	791.31
685.392	772.91
685.586	776.97
685.78	822.12
685.974	793.64
686.168	808.17
686.362	862.42
686.556	755.86
686.75	713.62
686.944	721.95
687.138	700.44
687.331	630.31
687.525	621.01
687.719	585.17
687.913	621.4
688.107	627.4
688.301	670.41
688.494	667.12
688.688	639.41
688.882	655.11
689.076	640.38
689.269	694.44
689.463	768.26
689.657	714.98
689.85	691.73
690.044	715.56
690.238	723.69
690.431	744.23
690.625	761.86
690.818	765.93
691.012	789.37
691.205	837.23
691.399	822.7
691.593	831.22
691.786	915.12
691.98	918.99
692.173	949.8
692.366	942.63
692.56	914.15
692.753	993.97
692.947	924.22
693.14	994.94
693.333	991.26
693.527	931.97
693.72	994.36
693.914	984.87
694.107	1016.45
694.3	1026.13
694.493	982.15
694.687	1052.29
694.88	1063.91
695.073	1119.52
695.266	1087.55
695.46	1097.63
695.653	1154.2
695.846	1155.94
696.039	1115.26
696.232	1184.43
696.425	1214.84
696.618	1228.79
696.812	1262.31
697.005	1303.19
697.198	1411.11
697.391	1377.01
697.584	1403.94
697.777	1420.6
697.97	1423.12
698.163	1479.7
698.356	1457.03
698.549	1541.5
698.742	1497.71
698.935	1483.96
699.127	1507.6
699.32	1480.86
699.513	1519.41
699.706	1543.83
699.899	1591.68
700.092	1570.76
700.285	1586.64
700.477	1523.29
700.67	1564.36
700.863	1622.1
701.056	1694.56
701.248	1678.29
701.441	1642.83
701.634	1676.74
701.826	1773.22
702.019	1673.44
702.212	1753.07
702.404	1723.04
702.597	1717.04
702.79	1746.29
702.982	1796.28
703.175	1836.97
703.367	1837.74
703.56	1861.77
703.752	1963.68
703.945	1945.08
704.137	1922.41
704.33	1992.35
704.522	1980.34
704.715	2062.88
704.907	2061.33
705.1	2091.16
705.292	2111.12
705.484	2058.03
705.677	2120.61
705.869	2160.72
706.061	2200.63
706.254	2231.24
706.446	2164.98
706.638	2186.49
706.831	2290.72
707.023	2231.44
707.215	2355.63
707.407	2360.08
707.599	2328.89
707.792	2389.34
707.984	2359.11
708.176	2405.23
708.368	2381.4
708.56	2418.01
708.752	2436.23
708.944	2408.52
709.136	2493.96
709.329	2504.43
709.521	2614.67
709.713	2575.53
709.905	2581.54
710.097	2607.5
710.289	2544.34
710.481	2598.78
710.672	2660.97
710.864	2666.59
711.056	2649.54
711.248	2631.33
711.44	2732.08
711.632	2739.25
711.824	2762.69
712.016	2772.96
712.207	2794.85
712.399	2790.4
712.591	2870.8
712.783	2832.63
712.975	2860.15
713.166	2876.42
713.358	2867.12
713.55	2876.42
713.741	2903.93
713.933	2932.41
714.125	2918.27
714.316	2939.39
714.508	2991.7
714.7	2939.39
714.891	2935.32
715.083	2977.36
715.274	2936.87
715.466	2952.17
715.657	3020.96
715.849	2937.84
716.04	2990.34
716.232	2868.86
716.423	2916.14
716.615	2840.19
716.806	2766.57
716.998	2686.74
717.189	2617.96
717.381	2499.97
717.572	2454.44
717.763	2475.36
717.955	2442.81
718.146	2396.12
718.337	2316.1
718.528	2273.67
718.72	2209.93
718.911	2278.32
719.102	2181.84
719.293	2268.44
719.485	2210.12
719.676	2157.04
719.867	2157.81
720.058	2162.46
720.249	2197.72
720.44	2167.5
720.632	2232.02
720.823	2304.67
721.014	2462.58
721.205	2567.2
721.396	2602.27
721.587	2713.28
721.778	2773.15
721.969	2829.15
722.16	2871.19
722.351	2906.06
722.542	3026.38
722.733	3084.31
722.924	2980.07
723.115	2989.37
723.305	2986.08
723.496	2954.69
723.687	2833.41
723.878	2875.26
724.069	2811.9
724.26	2856.27
724.45	2786.91
724.641	2787.3
724.832	2788.65
725.023	2737.31
725.213	2736.34
725.404	2666.4
725.595	2686.16
725.785	2729.95
725.976	2765.79
726.167	2714.25
726.357	2747.19
726.548	2866.73
726.739	2780.32
726.929	2865.57
727.12	2893.08
727.31	2851.04
727.501	2820.43
727.691	2827.79
727.882	2823.53
728.072	2917.88
728.263	2953.72
728.453	2960.12
728.644	2993.06
728.834	2949.85
729.024	2889.01
729.215	2908.97
729.405	2924.66
729.596	3034.32
729.786	2982.59
729.976	3053.31
730.167	3018.05
730.357	3030.84
730.547	3027.74
730.737	3059.9
730.928	3109.89
731.118	3137.01
731.308	3096.13
731.498	3091.67
731.688	3166.85
731.879	3218.77
732.069	3256.55
732.259	3309.06
732.449	3342.58
732.639	3409.42
732.829	3481.3
733.019	3507.26
733.209	3596.58
733.399	3667.3
733.589	3678.15
733.779	3724.26
733.969	3760.29
734.159	3822.68
734.349	3905.99
734.539	3915.1
734.729	3877.71
734.919	3962.95
735.109	3952.49
735.299	3874.61
735.488	3901.15
735.678	3968.38
735.868	3897.47
736.058	3896.89
736.248	3899.99
736.437	3859.11
736.627	3851.55
736.817	3991.44
737.007	3871.7
737.196	3978.84
737.386	3999.77
737.576	3930.79
737.765	4008.29
737.955	3954.62
738.144	4138.49
738.334	4079.2
738.524	4040.45
738.713	4101.48
738.903	4008.68
739.092	4098.19
739.282	4117.37
739.471	4103.23
739.661	4081.33
739.85	4168.33
740.04	4121.83
740.229	4142.36
740.419	4198.36
740.608	4214.83
740.797	4148.18
740.987	4272.56
741.176	4219.67
741.365	4218.89
741.555	4155.73
741.744	4296.39
741.933	4216.76
742.123	4251.06
742.312	4269.46
742.501	4335.72
742.69	4301.43
742.88	4228.19
743.069	4350.06
743.258	4342.7
743.447	4384.94
743.636	4361.69
743.825	4328.17
744.014	4351.03
744.204	4380.67
744.393	4293.68
744.582	4414.97
744.771	4400.82
744.96	4372.92
745.149	4389.78
745.338	4334.37
745.527	4450.62
745.716	4348.7
745.905	4384.55
746.094	4450.23
746.283	4392.69
746.471	4430.85
746.66	4453.52
746.849	4420.2
747.038	4438.22
747.227	4414
747.416	4462.63
747.604	4360.33
747.793	4414
747.982	4397.92
748.171	4405.28
748.359	4376.8
748.548	4472.51
748.737	4404.7
748.926	4402.76
749.114	4256.87
749.303	4349.29
749.491	4363.43
749.68	4302.21
749.869	4403.15
750.057	4315.38
750.246	4302.79
750.434	4324.29
750.623	4276.24
750.811	4308.41
751	4329.14
751.188	4296.2
751.377	4322.55
751.565	4289.81
751.754	4284.57
751.942	4272.95
752.131	4326.42
752.319	4245.05
752.507	4204.36
752.696	4288.64
752.884	4304.14
753.072	4262.1
753.261	4292.52
753.449	4242.34
753.637	4197.97
753.825	4288.06
754.014	4226.45
754.202	4246.99
754.39	4278.57
754.578	4315.38
754.766	4199.71
754.955	4196.81
755.143	4311.12
755.331	4184.79
755.519	4232.07
755.707	4201.46
755.895	4224.13
756.083	4225.29
756.271	4143.33
756.459	4183.05
756.647	4206.3
756.835	4160.77
757.023	4117.76
757.211	4149.34
757.399	4128.41
757.587	4126.67
757.775	4082.11
757.963	4091.41
758.151	4145.46
758.339	4066.61
758.526	4002.67
758.714	4037.16
758.902	3941.25
759.09	3806.02
759.278	3579.33
759.465	3297.05
759.653	2884.17
759.841	2585.8
760.028	2235.31
760.216	1916.4
760.404	1789.5
760.591	1503.91
760.779	1286.14
760.967	1096.66
761.154	893.03
761.342	941.66
761.529	890.7
761.717	948.25
761.905	935.27
762.092	1021.68
762.28	933.33
762.467	933.14
762.655	873.46
762.842	875.59
763.029	879.47
763.217	901.55
763.404	907.37
763.592	883.73
763.779	868.42
763.966	918.8
764.154	971.88
764.341	1042.21
764.528	1045.12
764.716	1113.13
764.903	1168.15
765.09	1238.87
765.277	1336.32
765.465	1455.48
765.652	1549.45
765.839	1627.72
766.026	1731.18
766.213	1876.3
766.4	1999.33
766.588	2188.04
766.775	2223.3
766.962	2371.13
767.149	2488.34
767.336	2676.67
767.523	2641.99
767.71	2819.46
767.897	2953.72
768.084	3022.7
768.271	3104.85
768.458	3205.6
768.645	3235.63
768.832	3222.26
769.019	3282.51
769.206	3282.13
769.392	3406.12
769.579	3524.89
769.766	3459.41
769.953	3490.21
770.14	3522.57
770.327	3524.89
770.513	3512.69
770.7	3676.21
770.887	3525.67
771.073	3589.6
771.26	3576.23
771.447	3591.73
771.634	3560.74
771.82	3679.89
772.007	3577.01
772.193	3627.58
772.38	3672.14
772.567	3599.1
772.753	3634.94
772.94	3650.63
773.126	3648.11
773.313	3698.68
773.499	3644.63
773.686	3701.2
773.872	3584.18
774.059	3655.67
774.245	3602.97
774.432	3606.85
774.618	3540.2
774.804	3612.08
774.991	3558.8
775.177	3622.93
775.363	3552.99
775.55	3597.35
775.736	3502.03
775.922	3589.6
776.109	3561.9
776.295	3517.53
776.481	3598.32
776.667	3565.38
776.853	3519.66
777.04	3540.39
777.226	3524.12
777.412	3598.52
777.598	3481.49
777.784	3510.36
777.97	3503.97
778.156	3500.48
778.342	3459.41
778.528	3504.35
778.715	3426.66
778.901	3452.82
779.087	3466.96
779.272	3447.01
779.458	3433.83
779.644	3459.79
779.83	3442.16
780.016	3475.68
780.202	3410.58
780.388	3399.54
780.574	3331.14
780.76	3353.81
780.946	3405.54
781.131	3395.08
781.317	3323.78
781.503	3314.87
781.689	3337.15
781.874	3457.08
782.06	3363.5
782.246	3390.62
782.432	3358.66
782.617	3364.66
782.803	3430.73
782.989	3269.73
783.174	3273.8
783.36	3235.05
783.545	3288.33
783.731	3265.66
783.916	3198.23
784.102	3273.6
784.288	3239.89
784.473	3277.09
784.659	3228.65
784.844	3250.55
785.029	3218
785.215	3206.18
785.4	3173.05
785.586	3225.16
785.771	3122.29
785.956	3204.24
786.142	3116.47
786.327	3147.67
786.512	3142.24
786.698	3110.08
786.883	3059.9
787.068	3109.89
787.254	3151.73
787.439	3093.8
787.624	3081.02
787.809	3041.49
787.994	3020.18
788.18	3099.62
788.365	2973.87
788.55	2991.7
788.735	3031.81
788.92	2968.45
789.105	2973.1
789.29	3009.33
789.475	2914.78
789.66	2955.66
789.845	2911.1
790.03	2905.29
790.215	2902.19
790.4	2980.07
790.585	2962.44
790.77	2953.34
790.955	2858.4
791.14	2868.09
791.325	2969.61
791.51	2837.86
791.695	2898.7
791.879	2906.45
792.064	2858.98
792.249	2939.58
792.434	2850.26
792.618	2883.98
792.803	2907.42
792.988	2872.16
793.173	2892.69
793.357	2911.68
793.542	2854.91
793.727	2858.6
793.911	2920.01
794.096	2893.28
794.281	2920.59
794.465	2993.06
794.65	2890.56
794.834	2963.22
795.019	2958.57
795.203	2976.97
795.388	2951.98
795.572	3016.31
795.757	2970.19
795.941	2964.38
796.126	2914.2
796.31	2863.83
796.494	2929.12
796.679	2875.84
796.863	2820.62
797.048	2939.39
797.232	2907.61
797.416	2924.86
797.601	2921.18
797.785	2965.16
797.969	2999.45
798.153	2891.92
798.338	2981.43
798.522	2977.36
798.706	2984.92
798.89	2962.44
799.074	3041.49
799.258	3038
799.443	2997.71
799.627	2957.41
799.811	3060.29
799.995	2944.62
800.179	2944.43
800.363	2956.05
800.547	2942.29
800.731	3030.64
800.915	2879.71
801.099	2883.98
801.283	2920.21
801.467	2934.16
801.651	2884.56
801.835	2948.69
802.019	2918.85
802.202	2940.16
802.386	2850.07
802.57	2865.18
802.754	2872.93
802.938	2876.03
803.121	2885.53
803.305	2958.18
803.489	2924.08
803.673	2943.84
803.856	2932.8
804.04	2886.88
804.224	2908
804.407	2898.51
804.591	2907.42
804.775	2918.46
804.958	2900.83
805.142	2979.69
805.326	2932.99
805.509	2959.54
805.693	2994.41
805.876	2973.49
806.06	2934.35
806.243	2985.89
806.427	3004.1
806.61	3019.99
806.794	2945.98
806.977	2982.21
807.16	2923.5
807.344	2945.01
807.527	2937.26
807.71	2933.19
807.894	2951.4
808.077	2956.24
808.26	2899.09
808.444	2892.89
808.627	2968.26
808.81	2912.07
808.993	2826.82
809.177	2844.84
809.36	2882.04
809.543	2834.76
809.726	2760.17
809.909	2759.2
810.092	2773.73
810.276	2729.95
810.459	2752.81
810.642	2728.78
810.825	2729.17
811.008	2711.15
811.191	2590.45
811.374	2634.04
811.557	2618.35
811.74	2719.87
811.923	2582.12
812.106	2529.22
812.289	2519.54
812.472	2509.08
812.654	2514.89
812.837	2499.97
813.02	2409.68
813.203	2408.52
813.386	2273.67
813.569	2270.57
813.751	2157.04
813.934	2192.1
814.117	2205.09
814.3	2155.68
814.482	2072.18
814.665	2045.24
814.848	2009.98
815.03	1960.58
815.213	1923.18
815.396	1962.51
815.578	1909.81
815.761	1823.6
815.943	1945.27
816.126	1811.97
816.309	1794.15
816.491	1728.47
816.674	1653.87
816.856	1705.99
817.039	1711.81
817.221	1776.13
817.403	1749.97
817.586	1782.52
817.768	1744.94
817.951	1674.61
818.133	1700.76
818.315	1735.44
818.498	1731.95
818.68	1844.72
818.862	1757.72
819.045	1818.56
819.227	1813.91
819.409	1785.04
819.591	1834.83
819.774	1784.85
819.956	1729.63
820.138	1848.59
820.32	1827.08
820.502	1858.28
820.684	1973.56
820.866	1994.29
821.048	2035.94
821.231	2069.85
821.413	2033.81
821.595	2024.13
821.777	2052.8
821.959	2001.26
822.141	2096.01
822.323	1945.46
822.505	1865.83
822.686	1797.83
822.868	1688.17
823.05	1616.09
823.232	1559.13
823.414	1558.36
823.596	1569.4
823.778	1548.48
823.96	1596.53
824.141	1601.76
824.323	1657.75
824.505	1719.75
824.687	1785.82
824.868	1857.89
825.05	1946.63
825.232	1945.08
825.413	2030.52
825.595	1992.35
825.777	1942.95
825.958	1970.85
826.14	1941.2
826.321	2034.39
826.503	1977.63
826.685	2026.45
826.866	2012.31
827.048	2012.11
827.229	1914.66
827.411	1944.11
827.592	1873.39
827.773	1846.65
827.955	1806.74
828.136	1825.34
828.318	1780.97
828.499	1798.41
828.68	1773.61
828.862	1792.02
829.043	1807.9
829.224	1749.97
829.406	1744.35
829.587	1777.87
829.768	1768.38
829.949	1803.45
830.131	1773.61
830.312	1814.3
830.493	1766.83
830.674	1830.57
830.855	1752.3
831.036	1752.69
831.218	1824.18
831.399	1834.45
831.58	1789.89
831.761	1791.24
831.942	1808.29
832.123	1798.41
832.304	1734.67
832.485	1757.92
832.666	1766.44
832.847	1839.29
833.028	1780.39
833.209	1775.55
833.389	1775.94
833.57	1723.04
833.751	1709.48
833.932	1798.99
834.113	1766.25
834.294	1778.84
834.475	1790.47
834.655	1783.69
834.836	1841.81
835.017	1804.03
835.198	1773.03
835.378	1836.77
835.559	1889.08
835.74	1828.25
835.92	1833.87
836.101	1790.27
836.281	1861.18
836.462	1892.18
836.643	1866.8
836.823	1868.93
837.004	1892.18
837.184	1931.51
837.365	1897.42
837.545	1914.27
837.726	1835.8
837.906	1923.38
838.087	1920.66
838.267	1913.5
838.448	1847.23
838.628	1861.57
838.808	1869.13
838.989	1947.98
839.169	1867.97
839.349	1881.33
839.53	1919.89
839.71	1912.53
839.89	1884.63
840.07	1915.82
840.251	1892.96
840.431	1919.89
840.611	1879.2
840.791	1861.18
840.971	1866.61
841.151	1890.63
841.332	1883.08
841.512	1900.71
841.692	1777.49
841.872	1884.43
842.052	1878.43
842.232	1862.15
842.412	1808.29
842.592	1868.74
842.772	1883.08
842.952	1871.26
843.132	1841.23
843.312	1838.9
843.492	1814.88
843.672	1901.1
843.851	1788.92
844.031	1849.37
844.211	1836.19
844.391	1789.89
844.571	1843.94
844.751	1848.78
844.93	1814.1
845.11	1843.17
845.29	1823.02
845.47	1828.25
845.649	1848.4
845.829	1871.84
846.009	1800.54
846.188	1871.45
846.368	1819.92
846.547	1830.18
846.727	1873.97
846.907	1786.98
847.086	1848.4
847.266	1841.42
847.445	1788.53
847.625	1786.59
847.804	1761.21
847.984	1798.41
848.163	1786.2
848.343	1733.5
848.522	1799.19
848.701	1803.64
848.881	1765.28
849.06	1760.05
849.239	1781.55
849.419	1770.32
849.598	1724.21
849.777	1696.5
849.957	1677.32
850.136	1663.37
850.315	1608.93
850.494	1627.72
850.674	1648.26
850.853	1681
851.032	1654.65
851.211	1691.85
851.39	1648.45
851.569	1642.06
851.748	1608.54
851.927	1643.61
852.107	1656.97
852.286	1606.79
852.465	1592.26
852.644	1665.11
852.823	1672.47
853.002	1655.04
853.181	1611.64
853.359	1648.84
853.538	1583.16
853.717	1650.58
853.896	1538.4
854.075	1480.28
854.254	1446.18
854.433	1395.8
854.611	1416.34
854.79	1382.63
854.969	1445.98
855.148	1425.06
855.327	1424.48
855.505	1480.47
855.684	1465.16
855.863	1461.87
856.041	1457.22
856.22	1484.35
856.399	1482.8
856.577	1572.11
856.756	1572.69
856.934	1650
857.113	1665.5
857.291	1591.88
857.47	1527.36
857.648	1592.46
857.827	1564.75
858.005	1580.06
858.184	1529.68
858.362	1624.04
858.541	1601.56
858.719	1566.3
858.898	1544.8
859.076	1550.61
859.254	1606.99
859.433	1542.66
859.611	1538.21
859.789	1501.01
859.967	1586.45
860.146	1587.03
860.324	1507.4
860.502	1523.48
860.68	1507.01
860.859	1520
861.037	1509.34
861.215	1519.22
861.393	1509.92
861.571	1532.78
861.749	1488.8
861.927	1543.83
862.105	1511.66
862.283	1471.36
862.461	1476.6
862.639	1444.05
862.817	1469.62
862.995	1492.48
863.173	1467.88
863.351	1469.62
863.529	1510.89
863.707	1503.33
863.885	1503.14
864.063	1426.42
864.241	1405.68
864.418	1493.26
864.596	1442.11
864.774	1414.6
864.952	1412.27
865.129	1473.88
865.307	1424.87
865.485	1374.3
865.663	1417.7
865.84	1342.52
866.018	1353.37
866.196	1285.76
866.373	1276.65
866.551	1239.84
866.728	1222.79
866.906	1247.78
867.084	1259.6
867.261	1301.25
867.439	1309.59
867.616	1331.67
867.794	1286.34
867.971	1323.73
868.149	1312.88
868.326	1370.42
868.503	1352.6
868.681	1345.04
868.858	1346.59
869.035	1320.24
869.213	1364.22
869.39	1336.13
869.567	1386.12
869.745	1324.31
869.922	1293.12
870.099	1360.74
870.276	1362.87
870.454	1330.32
870.631	1363.06
870.808	1332.84
870.985	1356.67
871.162	1386.7
871.339	1340.97
871.517	1289.63
871.694	1288.27
871.871	1330.12
872.048	1309.2
872.225	1313.65
872.402	1316.95
872.579	1272.97
872.756	1308.04
872.933	1256.89
873.11	1291.37
873.287	1328.77
873.463	1263.28
873.64	1232.67
873.817	1276.46
873.994	1281.69
874.171	1243.32
874.348	1289.24
874.524	1185.01
874.701	1239.45
874.878	1199.34
875.055	1268.32
875.231	1220.66
875.408	1279.17
875.585	1194.69
875.762	1253.59
875.938	1221.62
876.115	1197.21
876.291	1194.31
876.468	1240.61
876.645	1144.51
876.821	1181.13
876.998	1216.59
877.174	1227.82
877.351	1175.9
877.527	1197.6
877.704	1187.33
877.88	1194.11
878.057	1187.14
878.233	1202.44
878.409	1185.98
878.586	1186.56
878.762	1162.53
878.938	1181.13
879.115	1118.55
879.291	1190.43
879.467	1112.55
879.644	1142.38
879.82	1160.01
879.996	1121.26
880.172	1087.75
880.349	1131.53
880.525	1172.99
880.701	1097.05
880.877	1096.66
881.053	1151.29
881.229	1116.23
881.405	1186.56
881.581	1088.71
881.757	1111
881.933	1114.09
882.109	1147.03
882.285	1095.88
882.461	1070.11
882.637	1122.62
882.813	1062.75
882.989	1112.35
883.165	1169.89
883.341	1114.87
883.517	1158.85
883.693	1134.05
883.869	1146.06
884.044	1091.23
884.22	1137.93
884.396	1162.34
884.572	1151.29
884.747	1165.63
884.923	1126.11
885.099	1148.78
885.275	1133.86
885.45	1114.29
885.626	1114.68
885.801	1086.58
885.977	1081.74
886.153	1046.67
886.328	1113.51
886.504	1056.36
886.679	1098.4
886.855	1116.03
887.03	1114.48
887.206	1115.84
887.381	1139.28
887.557	1123.2
887.732	1106.54
887.908	1123.98
888.083	1147.81
888.258	1090.46
888.434	1085.81
888.609	1103.83
888.784	1133.66
888.96	1102.66
889.135	1123.39
889.31	1069.34
889.485	1116.42
889.661	1071.47
889.836	1136.96
890.011	1139.09
890.186	1099.18
890.361	1083.68
890.537	1104.21
890.712	1122.81
890.887	1113.71
891.062	1107.51
891.237	1126.49
891.412	1073.6
891.587	1092.78
891.762	1099.18
891.937	1134.05
892.112	1069.73
892.287	1098.79
892.462	1070.5
892.637	987.97
892.812	1032.91
892.987	1040.28
893.161	1004.82
893.336	1020.13
893.511	1005.6
893.686	1044.93
893.861	1023.23
894.035	1001.14
894.21	991.84
894.385	942.43
894.56	975.37
894.734	905.04
894.909	908.92
895.084	905.82
895.258	890.7
895.433	881.21
895.608	896.52
895.782	812.62
895.957	851.57
896.131	840.91
896.306	778.91
896.48	788.6
896.655	747.91
896.829	720.4
897.004	711.29
897.178	713.04
897.353	708.97
897.527	758.57
897.701	749.46
897.876	674.48
898.05	764.57
898.224	729.89
898.399	758.96
898.573	713.81
898.747	604.73
898.921	641.55
899.096	562.3
899.27	578.77
899.444	544.48
899.618	596.21
899.792	636.51
899.967	636.12
900.141	665.76
900.315	615.2
900.489	583.23
900.663	646.78
900.837	595.43
901.011	566.18
901.185	686.88
901.359	606.48
901.533	620.04
901.707	644.45
901.881	634.57
902.055	567.92
902.229	620.81
902.403	695.21
902.576	617.71
902.75	625.08
902.924	718.46
903.098	678.94
903.272	713.23
903.446	776.78
903.619	748.3
903.793	782.59
903.967	800.42
904.14	801.77
904.314	808.17
904.488	771.16
904.661	825.02
904.835	813.79
905.009	853.12
905.182	865.9
905.356	813.4
905.529	800.03
905.703	793.83
905.876	754.31
906.05	753.34
906.223	718.66
906.397	695.79
906.57	636.7
906.744	608.03
906.917	620.81
907.09	639.61
907.264	616.36
907.437	607.64
907.61	566.57
907.784	602.6
907.957	619.65
908.13	539.83
908.304	594.66
908.477	569.28
908.65	563.66
908.823	530.72
908.996	588.85
909.17	535.57
909.343	534.4
909.516	543.32
909.689	514.83
909.862	499.34
910.035	534.79
910.208	501.85
910.381	503.4
910.554	589.62
910.727	538.86
910.9	494.69
911.073	565.21
911.246	594.85
911.419	579.93
911.592	564.43
911.765	493.33
911.938	501.08
912.11	516.38
912.283	534.02
912.456	600.86
912.629	545.25
912.802	517.55
912.974	445.86
913.147	450.9
913.32	397.42
913.493	429.2
913.665	427.26
913.838	459.62
914.01	450.51
914.183	502.43
914.356	483.06
914.528	514.45
914.701	523.36
914.873	518.52
915.046	456.32
915.218	441.79
915.391	386.38
915.563	399.17
915.736	447.02
915.908	485.58
916.081	443.73
916.253	466.79
916.425	485.77
916.598	498.56
916.77	475.5
916.942	447.41
917.115	377.08
917.287	447.22
917.459	435.59
917.632	350.54
917.804	367.78
917.976	444.5
918.148	405.95
918.32	451.09
918.493	459.62
918.665	515.61
918.837	484.03
919.009	532.27
919.181	532.85
919.353	474.15
919.525	495.85
919.697	497.2
919.869	495.27
920.041	561.14
920.213	586.52
920.385	548.16
920.557	521.03
920.729	553.39
920.901	537.7
921.073	506.89
921.244	505.53
921.416	538.08
921.588	471.63
921.76	476.28
921.932	575.87
922.103	523.55
922.275	507.28
922.447	531.69
922.619	442.18
922.79	497.01
922.962	444.31
923.134	482.67
923.305	434.82
923.477	399.56
923.648	416.8
923.82	429.59
923.991	410.6
924.163	402.85
924.335	438.89
924.506	402.85
924.677	464.65
924.849	393.55
925.02	435.4
925.192	469.3
925.363	438.3
925.535	433.46
925.706	402.07
925.877	465.82
926.049	401.88
926.22	449.15
926.391	432.1
926.562	464.46
926.734	426.49
926.905	442.76
927.076	387.35
927.247	390.45
927.419	341.82
927.59	343.95
927.761	362.94
927.932	345.31
928.103	332.91
928.274	306.56
928.445	273.81
928.616	321.67
928.787	304.62
928.958	336.01
929.129	276.53
929.3	276.33
929.471	212.2
929.642	199.22
929.813	147.88
929.984	224.21
930.155	153.11
930.326	232.35
930.496	187.79
930.667	138.58
930.838	181.4
931.009	147.68
931.18	172.68
931.35	142.65
931.521	170.55
931.692	126.76
931.863	61.85
932.033	118.43
932.204	123.08
932.374	115.91
932.545	74.45
932.716	123.47
932.886	122.3
933.057	49.26
933.227	76.97
933.398	153.69
933.568	52.17
933.739	50.04
933.909	27.17
934.08	97.31
934.25	8.19
934.421	30.08
934.591	71.15
934.761	36.67
934.932	10.12
935.102	38.02
935.272	47.32
935.443	42.48
935.613	42.09
935.783	76.58
935.953	-5.57
936.123	158.34
936.294	13.42
936.464	33.37
936.634	29.3
936.804	24.07
936.974	-11.19
937.144	42.29
937.314	33.18
937.484	15.35
937.655	10.32
937.825	71.15
937.995	5.86
938.165	68.44
938.334	36.67
938.504	60.69
938.674	42.87
938.844	52.55
939.014	114.94
939.184	107.58
939.354	163.76
939.524	130.44
939.694	76.38
939.863	59.34
940.033	138
940.203	131.22
940.373	98.47
940.542	106.03
940.712	82.2
940.882	128.89
941.051	109.52
941.221	98.28
941.391	163.38
941.56	82.58
941.73	72.32
941.899	182.95
942.069	97.7
942.238	98.67
942.408	75.22
942.577	105.83
942.747	57.4
942.916	50.42
943.086	52.75
943.255	112.81
943.425	95.18
943.594	90.53
943.763	9.15
943.933	24.65
944.102	5.09
944.271	81.62
944.441	75.42
944.61	52.17
944.779	82.2
944.948	124.24
945.117	58.95
945.287	49.45
945.456	15.55
945.625	15.74
945.794	79.1
945.963	26.01
946.132	98.86
946.301	37.64
946.47	105.25
946.639	-18.16
946.808	56.24
946.977	53.14
947.146	114.55
947.315	81.62
947.484	113.78
947.653	65.15
947.822	44.03
947.991	10.9
948.16	122.88
948.329	126.95
948.498	60.3
948.666	83.36
948.835	90.14
949.004	42.48
949.173	33.57
949.341	70.38
949.51	73.48
949.679	96.53
949.847	79.29
950.016	127.53
950.185	120.75
950.353	66.7
950.522	69.8
950.69	100.22
950.859	62.24
951.028	116.49
951.196	80.84
951.365	47.13
951.533	55.07
951.701	109.9
951.87	94.98
952.038	32.6
952.207	42.09
952.375	124.82
952.543	42.29
952.712	83.36
952.88	40.93
953.048	102.35
953.217	79.87
953.385	86.27
953.553	138.38
953.721	37.83
953.89	68.05
954.058	68.05
954.226	54.3
954.394	72.9
954.562	33.18
954.73	59.92
954.898	58.17
955.067	100.8
955.235	75.03
955.403	117.85
955.571	145.17
955.739	112.42
955.907	12.84
956.075	51.2
956.243	27.56
956.41	88.98
956.578	48.29
956.746	30.66
956.914	50.81
957.082	109.32
957.25	95.76
957.418	60.3
957.585	80.26
957.753	115.72
957.921	22.33
958.089	64.57
958.256	111.26
958.424	64.57
958.592	79.1
958.759	43.25
958.927	95.76
959.095	68.63
959.262	54.1
959.43	80.45
959.597	27.95
959.765	73.09
959.932	51.59
960.1	92.47
960.267	87.43
960.435	71.35
960.602	118.04
960.77	69.22
960.937	34.54
961.104	82.78
961.272	51.2
961.439	49.45
961.606	116.3
961.774	98.28
961.941	78.13
962.108	75.22
962.275	86.65
962.443	121.14
962.61	81.62
962.777	129.08
962.944	102.73
963.111	97.12
963.278	98.08
963.446	83.36
963.613	79.68
963.78	111.45
963.947	91.11
964.114	97.7
964.281	169.77
964.448	115.52
964.615	71.73
964.782	102.73
964.949	127.73
965.116	127.34
965.282	138.58
965.449	94.79
965.616	94.6
965.783	123.27
965.95	98.86
966.117	48.49
966.283	77.74
966.45	109.13
966.617	78.52
966.784	147.3
966.95	134.9
967.117	132.57
967.284	90.72
967.45	73.87
967.617	158.53
967.784	107.58
967.95	175
968.117	100.8
968.283	140.32
968.45	196.9
968.616	128.12
968.783	165.31
968.949	118.04
969.116	184.11
969.282	129.28
969.449	148.27
969.615	107.58
969.781	75.61
969.948	112.23
970.114	74.25
970.28	170.35
970.447	110.29
970.613	170.74
970.779	136.64
970.945	157.76
971.112	125.02
971.278	124.05
971.444	118.43
971.61	158.92
971.776	90.33
971.942	137.8
972.108	141.29
972.275	114.94
972.441	121.92
972.607	175
972.773	123.85
972.939	128.7
973.105	98.86
973.271	77.74
973.437	114.17
973.602	79.1
973.768	128.7
973.934	118.04
974.1	150.01
974.266	50.42
974.432	110.48
974.598	100.99
974.763	128.31
974.929	85.49
975.095	160.28
975.261	85.1
975.426	70.96
975.592	91.11
975.758	152.53
975.923	55.27
976.089	68.25
976.255	126.76
976.42	105.45
976.586	123.08
976.751	121.92
976.917	186.82
977.082	125.79
977.248	70.18
977.413	86.27
977.579	83.75
977.744	108.93
977.91	82.2
978.075	78.13
978.24	143.23
978.406	75.61
978.571	95.95
978.736	69.41
978.902	112.23
979.067	72.7
979.232	29.3
979.397	86.07
979.563	135.48
979.728	61.66
979.893	94.4
980.058	69.22
980.223	136.25
980.388	116.1
980.554	97.7
980.719	84.52
980.884	112.23
981.049	128.5
981.214	93.24
981.379	115.13
981.544	78.9
981.709	80.07
981.874	97.89
982.039	114.36
982.204	132.18
982.368	98.28
982.533	75.8
982.698	130.25
982.863	166.09
983.028	87.82
983.193	107.38
983.357	108.74
983.522	99.05
983.687	96.53
983.852	122.3
984.016	103.9
984.181	95.57
984.346	96.73
984.51	146.52
984.675	73.87
984.839	141.29
985.004	104.87
985.168	129.86
985.333	103.12
985.498	96.34
985.662	132.77
985.827	110.29
985.991	85.3
986.155	106.8
986.32	121.33
986.484	158.15
986.649	112.42
986.813	68.25
986.977	107
987.142	111.26
987.306	78.32
987.47	63.99
987.634	89.37
987.799	95.57
987.963	103.9
988.127	146.91
988.291	154.66
988.455	106.61
988.62	84.33
988.784	111.45
988.948	128.5
989.112	95.76
989.276	122.69
989.44	99.05
989.604	61.08
989.768	77.93
989.932	156.01
990.096	79.1
990.26	75.8
990.424	53.91
990.588	102.73
990.752	143.03
990.915	107.38
991.079	118.62
991.243	104.48
991.407	141.68
991.571	95.37
991.734	88.98
991.898	133.93
992.062	166.67
992.226	73.48
992.389	66.5
992.553	44.03
992.717	68.05
992.88	48.49
993.044	92.27
993.207	90.92
993.371	102.54
993.535	120.95
993.698	82.78
993.862	98.28
994.025	117.27
994.189	76
994.352	97.89
994.515	108.55
994.679	139.55
994.842	80.84
995.006	119.59
995.169	50.81
995.332	61.27
995.496	128.31
995.659	62.82
995.822	85.68
995.985	66.7
996.149	121.14
996.312	70.57
996.475	119.98
996.638	65.34
996.801	121.72
996.964	128.12
997.128	79.87
997.291	104.28
997.454	68.25
997.617	34.34
997.78	99.05
997.943	82.97
998.106	105.64
998.269	77.55
998.432	79.1
998.595	87.82
998.758	15.94
998.92	41.32
999.083	39.77
999.246	76.77
999.409	51.2
999.572	24.85
999.735	83.94
999.897	84.13
1000.06	72.32
1000.223	50.42
1000.386	94.6
1000.548	101.96
1000.711	73.48
1000.874	116.68
1001.036	35.89
1001.199	126.57
1001.361	27.75
1001.524	68.63
1001.687	57.4
1001.849	75.03
1002.012	91.88
1002.174	68.63
1002.337	88.01
1002.499	56.04
1002.661	75.22
1002.824	22.52
1002.986	20.39
1003.149	58.37
1003.311	38.22
1003.473	129.08
1003.636	40.15
1003.798	60.3
1003.96	89.56
1004.123	65.73
1004.285	75.42
1004.447	55.85
1004.609	41.32
1004.771	102.73
1004.933	6.44
1005.096	29.3
1005.258	30.08
1005.42	19.81
1005.582	92.66
1005.744	67.86
1005.906	22.33
1006.068	31.63
1006.23	35.31
1006.392	19.04
1006.554	41.51
1006.716	80.07
1006.878	64.95
1007.04	12.25
1007.202	17.1
1007.363	49.65
1007.525	51.97
1007.687	73.67
1007.849	84.91
1008.011	31.82
1008.172	6.25
1008.334	36.67
1008.496	70.38
1008.658	1.99
1008.819	37.83
1008.981	24.65
1009.143	18.84
1009.304	46.74
1009.466	60.69
1009.627	115.72
1009.789	150.01
1009.95	60.3
1010.112	15.74
1010.273	88.98
1010.435	38.99
1010.596	30.85
1010.758	57.59
1010.919	26.2
1011.081	24.65
1011.242	48.87
1011.403	58.17
1011.565	36.09
1011.726	78.32
1011.887	-0.92
1012.049	8.77
1012.21	65.15
1012.371	91.11
1012.532	-32.89
1012.693	20.39
1012.855	25.62
1013.016	29.89
1013.177	85.68
1013.338	22.72
1013.499	89.95
1013.66	65.92
1013.821	51.78
1013.982	60.11
1014.143	53.52
1014.304	28.72
1014.465	58.56
1014.626	37.25
1014.787	22.72
1014.948	92.08
1015.109	-18.36
1015.27	79.48
1015.431	42.48
1015.592	27.37
1015.752	79.1
1015.913	55.65
1016.074	63.4
1016.235	52.55
1016.395	36.47
1016.556	15.94
1016.717	23.49
1016.877	85.88
1017.038	13.22
1017.199	32.21
1017.359	33.37
1017.52	40.35
1017.681	21.36
1017.841	54.1
1018.002	22.91
1018.162	32.99
1018.323	97.89
1018.483	2.57
1018.644	37.05
1018.804	1.79
1018.964	4.7
1019.125	14.39
1019.285	12.84
1019.446	-3.83
1019.606	15.55
1019.766	-24.94
1019.926	39.77
1020.087	56.43
1020.247	16.71
1020.407	53.72
1020.567	90.33
1020.728	27.37
1020.888	1.02
1021.048	3.54
1021.208	-21.65
1021.368	1.79
1021.528	72.12
1021.688	55.46
1021.848	61.66
1022.008	10.32
1022.168	32.4
1022.328	19.42
1022.488	50.23
1022.648	22.72
1022.808	16.13
1022.968	37.64
1023.128	32.21
1023.288	7.6
1023.448	10.32
1023.608	45.19
1023.767	40.15
1023.927	-4.21
1024.087	-12.55
1024.247	16.52
1024.406	12.84
1024.566	-10.8
1024.726	-9.45
1024.885	50.04
1025.045	64.76
1025.205	24.07
1025.364	14.19
1025.524	26.98
1025.683	24.65
1025.843	46.55
1026.003	38.8
1026.162	65.15
1026.321	68.83
1026.481	6.44
1026.64	14.97
1026.8	22.52
1026.959	35.5
1027.119	26.2
1027.278	45.39
1027.437	6.05
1027.597	20.2
1027.756	37.25
1027.915	42.67
1028.074	26.59
1028.234	-0.34
1028.393	20.2
1028.552	4.31
1028.711	-38.89
1028.87	61.85
1029.03	-4.02
1029.189	-1.31
1029.348	-42.38
1029.507	27.37
1029.666	9.15
1029.825	-10.22
1029.984	7.22
1030.143	32.4
1030.302	-7.51
1030.461	-25.53
1030.62	32.99
1030.779	46.16
1030.938	30.27
1031.097	6.05
1031.255	53.91
1031.414	61.47
1031.573	44.8
1031.732	-44.13
1031.891	23.69
1032.049	57.59
1032.208	21.94
1032.367	4.12
1032.525	-2.47
1032.684	7.8
1032.843	10.51
1033.001	-25.53
1033.16	150.78
1033.319	40.35
1033.477	36.86
1033.636	15.94
1033.794	2.37
1033.953	6.44
1034.111	45.58
1034.27	19.23
1034.428	37.64
1034.587	-4.8
1034.745	34.15
1034.903	29.69
1035.062	13.61
1035.22	-7.31
1035.378	52.17
1035.537	-23.2
1035.695	20
1035.853	16.13
1036.011	37.25
1036.17	23.1
1036.328	-14.48
1036.486	21.17
1036.644	20.59
1036.802	-66.21
1036.96	-6.93
1037.119	-6.93
1037.277	8.96
1037.435	4.12
1037.593	-28.43
1037.751	19.23
1037.909	36.28
1038.067	36.28
