Data from gum_young_FLMT105791__52__17-39-10-043.txt Node

Date: Mon Mar 20 17:39:10 GMT 2023
User: antho
Spectrometer: FLMT10579
Trigger mode: 0
Integration Time (sec): 1.000000E-1
Scans to average: 10
Electric dark correction enabled: true
Nonlinearity correction enabled: false
Boxcar width: 0
XAxis mode: Wavelengths
Number of Pixels in Spectrum: 3648
>>>>>Begin Spectral Data<<<<<
345.248	-131.93
345.464	-131.93
345.681	-131.93
345.898	-163.89
346.114	-128.05
346.331	-22.46
346.548	24.23
346.764	-10.64
346.981	7.96
347.197	-21.3
347.414	7.57
347.631	-2.31
347.847	56.01
348.064	-18.78
348.28	27.33
348.497	-37.76
348.713	-9.86
348.93	-3.28
349.146	32.37
349.363	1.76
349.579	26.56
349.796	3.12
350.012	5.25
350.229	52.91
350.445	27.53
350.661	-18.2
350.878	31.21
351.094	44.58
351.311	18.62
351.527	13.38
351.743	-6.18
351.96	36.05
352.176	32.37
352.392	14.35
352.609	54.27
352.825	17.65
353.041	4.67
353.257	-1.73
353.474	23.07
353.69	26.17
353.906	4.08
354.122	-3.28
354.339	41.28
354.555	-11.22
354.771	10.67
354.987	52.91
355.203	68.8
355.42	5.05
355.636	21.91
355.852	-0.18
356.068	9.51
356.284	-43.96
356.5	63.37
356.716	20.36
356.932	-7.93
357.148	33.15
357.364	17.65
357.58	68.02
357.796	77.71
358.012	15.52
358.228	28.88
358.444	-20.52
358.66	55.62
358.876	25.4
359.092	-5.22
359.308	32.57
359.524	24.23
359.74	0.6
359.956	18.23
360.172	14.35
360.388	53.3
360.604	14.16
360.819	79.84
361.035	14.16
361.251	35.08
361.467	7.18
361.683	76.16
361.898	38.18
362.114	33.92
362.33	30.05
362.546	19.97
362.762	11.64
362.977	13.77
363.193	-13.93
363.409	65.89
363.624	2.53
363.84	-6.18
364.056	3.89
364.271	20.75
364.487	36.63
364.703	2.15
364.918	-17.03
365.134	13
365.35	-1.92
365.565	107.16
365.781	31.21
365.996	28.88
366.212	72.87
366.427	46.71
366.643	24.23
366.858	4.86
367.074	-25.75
367.289	58.72
367.505	108.51
367.72	5.25
367.936	9.32
368.151	52.52
368.367	41.67
368.582	34.31
368.798	17.26
369.013	38.18
369.228	39.15
369.444	30.24
369.659	55.04
369.874	58.72
370.09	74.8
370.305	-29.43
370.52	22.68
370.736	59.69
370.951	27.92
371.166	61.82
371.381	86.62
371.597	47.29
371.812	21.52
372.027	5.63
372.242	41.09
372.458	96.31
372.673	21.72
372.888	9.32
373.103	53.3
373.318	108.9
373.533	52.91
373.749	36.63
373.964	-41.45
374.179	42.64
374.394	-24.78
374.609	62.4
374.824	-14.9
375.039	75.38
375.254	-26.91
375.469	61.05
375.684	30.43
375.899	64.92
376.114	49.62
376.329	25.4
376.544	49.03
376.759	54.07
376.974	11.06
377.189	29.66
377.404	5.05
377.619	45.16
377.834	-17.61
378.049	-23.04
378.264	-21.3
378.478	35.47
378.693	14.16
378.908	37.99
379.123	29.08
379.338	63.37
379.553	21.72
379.767	25.2
379.982	43.03
380.197	50.97
380.412	41.28
380.626	21.13
380.841	128.28
381.056	26.95
381.271	66.08
381.485	-4.25
381.7	6.8
381.915	57.17
382.129	14.35
382.344	45.93
382.559	6.8
382.773	43.42
382.988	-23.62
383.202	36.25
383.417	-7.93
383.632	91.27
383.846	33.73
384.061	22.3
384.275	24.23
384.49	59.88
384.704	51.94
384.919	44.19
385.133	50.39
385.348	61.63
385.562	1.57
385.777	69.96
385.991	27.33
386.206	29.66
386.42	18.42
386.634	83.52
386.849	30.82
387.063	43.61
387.277	4.47
387.492	13.77
387.706	3.12
387.92	7.96
388.135	49.62
388.349	39.93
388.563	36.83
388.778	43.61
388.992	46.32
389.206	42.25
389.42	94.18
389.635	26.37
389.849	67.05
390.063	78.48
390.277	39.73
390.491	88.75
390.706	47.68
390.92	70.54
391.134	40.9
391.348	63.37
391.562	11.45
391.776	28.11
391.99	2.15
392.205	69.18
392.419	32.18
392.633	43.61
392.847	63.18
393.061	4.86
393.275	87.59
393.489	29.47
393.703	63.18
393.917	54.85
394.131	5.05
394.345	55.04
394.559	78.1
394.773	9.32
394.986	58.92
395.2	43.22
395.414	73.64
395.628	-3.47
395.842	63.18
396.056	46.13
396.27	-1.53
396.484	58.33
396.697	33.15
396.911	86.23
397.125	58.92
397.339	75.38
397.553	98.44
397.766	98.05
397.98	90.3
398.194	102.12
398.408	24.43
398.621	60.47
398.835	73.83
399.049	51.75
399.262	104.06
399.476	83.13
399.69	75.77
399.903	149.01
400.117	65.31
400.331	78.48
400.544	23.27
400.758	152.5
400.971	76.16
401.185	107.35
401.398	27.14
401.612	113.55
401.826	100.76
402.039	92.05
402.253	62.79
402.466	103.67
402.68	82.55
402.893	60.85
403.106	65.7
403.32	58.72
403.533	75.77
403.747	95.73
403.96	86.81
404.174	97.86
404.387	54.85
404.6	84.68
404.814	103.67
405.027	64.15
405.24	56.98
405.454	51.36
405.667	120.33
405.88	25.78
406.094	83.71
406.307	109.68
406.52	106.77
406.733	44.58
406.947	48.65
407.16	147.26
407.373	130.6
407.586	70.73
407.799	37.8
408.012	95.73
408.226	80.23
408.439	135.25
408.652	40.7
408.865	88.56
409.078	114.33
409.291	99.6
409.504	46.71
409.717	100.96
409.93	92.24
410.143	109.87
410.357	45.16
410.57	70.15
410.783	75.19
410.996	90.69
411.209	92.82
411.421	142.03
411.634	79.84
411.847	77.13
412.06	97.08
412.273	121.11
412.486	87.59
412.699	166.06
412.912	82.55
413.125	123.63
413.338	78.87
413.55	108.13
413.763	110.26
413.976	106.38
414.189	94.37
414.402	74.42
414.615	148.23
414.827	77.32
415.04	131.96
415.253	145.91
415.466	129.05
415.678	145.33
415.891	109.29
416.104	100.38
416.316	94.37
416.529	94.56
416.742	99.8
416.954	150.36
417.167	94.76
417.38	98.63
417.592	153.85
417.805	87.4
418.017	66.08
418.23	135.45
418.442	77.9
418.655	99.02
418.868	111.23
419.08	132.54
419.293	143.2
419.505	140.48
419.718	141.84
419.93	153.27
420.142	95.73
420.355	156.56
420.567	162.76
420.78	151.72
420.992	105.03
421.205	146.3
421.417	116.26
421.629	125.56
421.842	78.29
422.054	90.11
422.266	127.7
422.479	162.96
422.691	111.03
422.903	113.55
423.115	99.21
423.328	116.46
423.54	119.36
423.752	132.73
423.964	92.82
424.177	150.36
424.389	121.88
424.601	203.64
424.813	104.64
425.025	121.88
425.238	142.23
425.45	108.9
425.662	110.26
425.874	370.07
426.086	140.68
426.298	147.46
426.51	149.2
426.722	144.55
426.934	91.08
427.146	168.58
427.358	97.47
427.57	146.88
427.782	134.86
427.994	132.35
428.206	108.32
428.418	83.33
428.63	144.36
428.842	157.92
429.054	141.65
429.266	140.87
429.478	91.66
429.69	128.47
429.902	72.48
430.114	149.4
430.325	126.92
430.537	112.58
430.749	131.57
430.961	88.56
431.173	123.43
431.384	159.47
431.596	55.43
431.808	134.67
432.02	131.38
432.231	132.35
432.443	181.17
432.655	130.8
432.867	119.75
433.078	185.04
433.29	225.73
433.502	191.24
433.713	228.64
433.925	153.66
434.136	161.8
434.348	129.25
434.56	87.98
434.771	258.28
434.983	118.4
435.194	136.8
435.406	124.21
435.617	185.82
435.829	219.92
436.04	169.93
436.252	182.14
436.463	202.48
436.675	200.74
436.886	176.33
437.098	212.17
437.309	209.65
437.521	163.93
437.732	160.25
437.943	164.9
438.155	166.25
438.366	141.06
438.578	223.02
438.789	174.19
439	213.53
439.211	161.6
439.423	180.01
439.634	226.89
439.845	231.16
440.057	203.64
440.268	208.29
440.479	157.73
440.69	205.19
440.902	192.6
441.113	168.38
441.324	180.98
441.535	211.39
441.746	233.48
441.957	166.06
442.168	191.63
442.38	197.44
442.591	215.08
442.802	182.72
443.013	185.63
443.224	209.07
443.435	187.18
443.646	205.19
443.857	187.95
444.068	207.91
444.279	200.74
444.49	295.29
444.701	217.59
444.912	298.19
445.123	240.65
445.334	238.13
445.545	208.88
445.756	222.83
445.967	184.08
446.178	209.65
446.388	238.91
446.599	254.6
446.81	239.29
447.021	207.13
447.232	244.91
447.443	248.59
447.653	203.84
447.864	270.49
448.075	215.08
448.286	273.59
448.496	252.28
448.707	279.4
448.918	210.81
449.129	321.83
449.339	234.26
449.55	265.06
449.761	222.24
449.971	271.84
450.182	265.06
450.393	267.19
450.603	263.12
450.814	277.27
451.024	270.87
451.235	283.47
451.446	320.47
451.656	307.88
451.867	242.39
452.077	276.88
452.288	316.99
452.498	332.68
452.709	264.29
452.919	274.56
453.13	239.68
453.34	286.57
453.55	241.23
453.761	306.14
453.971	299.55
454.182	312.53
454.392	267.19
454.602	332.29
454.813	296.26
455.023	296.26
455.233	240.65
455.444	287.54
455.654	218.56
455.864	288.31
456.075	258.09
456.285	283.66
456.495	266.03
456.705	311.95
456.916	339.07
457.126	328.81
457.336	283.27
457.546	248.4
457.756	270.29
457.967	348.37
458.177	268.74
458.387	287.92
458.597	279.01
458.807	285.79
459.017	269.71
459.227	257.31
459.437	304.78
459.647	310.21
459.857	306.14
460.068	259.25
460.278	350.31
460.488	293.16
460.698	360.58
460.908	298.19
461.117	251.5
461.327	279.98
461.537	313.69
461.747	294.71
461.957	316.41
462.167	397.78
462.377	372.98
462.587	324.16
462.797	336.36
463.007	334.81
463.216	344.69
463.426	362.52
463.636	356.7
463.846	273.01
464.056	271.84
464.265	347.6
464.475	288.89
464.685	331.32
464.895	347.6
465.104	330.55
465.314	343.34
465.524	304.2
465.733	285.6
465.943	392.35
466.153	383.05
466.362	375.5
466.572	357.48
466.782	353.6
466.991	309.82
467.201	401.27
467.41	287.54
467.62	340.24
467.829	329.19
468.039	332.1
468.249	360.77
468.458	365.23
468.668	341.21
468.877	359.61
469.086	401.27
469.296	384.41
469.505	351.67
469.715	402.62
469.924	391.97
470.134	417.15
470.343	398.55
470.552	384.41
470.762	368.52
470.971	339.66
471.18	400.88
471.39	379.95
471.599	329
471.808	389.25
472.018	351.09
472.227	428.59
472.436	436.53
472.645	369.88
472.855	372.98
473.064	421.42
473.273	399.14
473.482	419.09
473.691	440.4
473.901	427.04
474.11	387.9
474.319	458.81
474.528	389.84
474.737	448.93
474.946	442.53
475.155	433.23
475.364	487.48
475.573	428.39
475.783	427.42
475.992	447.18
476.201	463.07
476.41	439.63
476.619	400.69
476.828	447.38
477.037	420.25
477.245	438.66
477.454	487.87
477.663	452.8
477.872	444.47
478.081	519.84
478.29	459
478.499	504.34
478.708	482.45
478.917	554.52
479.125	473.73
479.334	483.61
479.543	455.9
479.752	467.53
479.961	495.62
480.169	532.82
480.378	492.33
480.587	624.46
480.796	537.86
481.004	530.5
481.213	529.53
481.422	540.57
481.63	500.85
481.839	545.41
482.048	603.73
482.256	528.75
482.465	580.68
482.674	554.13
482.882	531.85
483.091	623.88
483.299	587.85
483.508	577.77
483.716	576.41
483.925	564.4
484.134	558.4
484.342	568.28
484.551	620.98
484.759	603.73
484.967	596.56
485.176	611.87
485.384	590.75
485.593	609.93
485.801	596.95
486.01	577.96
486.218	527.01
486.426	491.17
486.635	529.14
486.843	519.84
487.051	549.29
487.26	536.5
487.468	578.35
487.676	601.41
487.885	552.78
488.093	621.94
488.301	611.87
488.509	632.79
488.717	649.26
488.926	613.61
489.134	605.09
489.342	648.88
489.55	590.36
489.758	631.24
489.967	595.6
490.175	732.38
490.383	642.48
490.591	726.76
490.799	641.13
491.007	684.91
491.215	664.38
491.423	657.59
491.631	678.33
491.839	681.04
492.047	686.46
492.255	661.47
492.463	620.98
492.671	683.94
492.879	712.81
493.087	669.99
493.295	716.88
493.503	706.81
493.711	734.32
493.919	720.17
494.127	727.54
494.334	745.17
494.542	699.06
494.75	749.43
494.958	714.36
495.166	746.33
495.374	743.62
495.581	773.46
495.789	753.11
495.997	809.1
496.205	745.36
496.412	756.21
496.62	764.93
496.828	790.5
497.035	784.11
497.243	756.41
497.451	773.07
497.658	775.78
497.866	792.64
498.074	849.02
498.281	779.46
498.489	853.28
498.696	810.65
498.904	780.62
499.112	766.09
499.319	857.93
499.527	803.29
499.734	831.77
499.942	800.77
500.149	834.68
500.357	838.55
500.564	798.84
500.771	840.88
500.979	780.24
501.186	784.89
501.394	843.98
501.601	803.49
501.808	846.11
502.016	813.95
502.223	812.2
502.43	828.09
502.638	813.17
502.845	811.43
503.052	926.52
503.26	828.29
503.467	904.23
503.674	850.76
503.881	864.71
504.089	952.09
504.296	900.94
504.503	841.65
504.71	873.23
504.917	871.49
505.125	883.7
505.332	898.81
505.539	938.53
505.746	965.07
505.953	965.07
506.16	965.07
506.367	1022.03
506.574	1010.99
506.781	1016.8
506.988	967.59
507.195	977.86
507.402	987.93
507.609	1002.27
507.816	972.43
508.023	975.34
508.23	958.29
508.437	948.41
508.644	1008.66
508.851	1081.9
509.058	1022.23
509.265	1026.88
509.472	1056.52
509.679	1129.95
509.885	1052.26
510.092	1063.11
510.299	1029.01
510.506	1070.08
510.713	1091.59
510.92	1056.52
511.126	1074.93
511.333	1147.77
511.54	1136.92
511.746	1189.62
511.953	1188.46
512.16	1180.71
512.367	1154.94
512.573	1133.44
512.78	1135.37
512.987	1153.01
513.193	1157.27
513.4	1112.71
513.606	1170.64
513.813	1165.02
514.02	1183.04
514.226	1248.33
514.433	1210.16
514.639	1152.23
514.846	1208.61
515.052	1205.71
515.259	1218.69
515.465	1236.7
515.672	1221.01
515.878	1323.12
516.085	1235.35
516.291	1302.19
516.497	1263.83
516.704	1244.84
516.91	1188.46
517.117	1207.64
517.323	1120.07
517.529	1189.43
517.736	1177.22
517.942	1224.5
518.148	1214.42
518.354	1222.37
518.561	1246.2
518.767	1285.72
518.973	1321.37
519.179	1308.2
519.386	1278.36
519.592	1302
519.798	1325.63
520.004	1424.45
520.21	1387.63
520.417	1425.22
520.623	1448.86
520.829	1484.51
521.035	1487.03
521.241	1456.22
521.447	1496.13
521.653	1609.09
521.859	1504.08
522.065	1536.82
522.271	1611.99
522.477	1618.19
522.683	1631.37
522.889	1574.41
523.095	1582.35
523.301	1593.59
523.507	1542.24
523.713	1622.65
523.919	1602.89
524.125	1673.8
524.331	1674.96
524.537	1721.85
524.742	1734.64
524.948	1697.82
525.154	1711.77
525.36	1826.86
525.566	1750.72
525.772	1766.41
525.977	1693.56
526.183	1761.37
526.389	1806.52
526.595	1718.36
526.8	1711.97
527.006	1640.28
527.212	1590.49
527.417	1604.44
527.623	1636.79
527.829	1707.32
528.034	1722.24
528.24	1746.26
528.446	1747.03
528.651	1845.65
528.857	1845.07
529.062	1871.81
529.268	1871.42
529.473	1907.46
529.679	1864.06
529.884	1917.14
530.09	1951.05
530.295	1951.24
530.501	1962.87
530.706	1941.75
530.912	1904.55
531.117	1982.63
531.323	1956.86
531.528	2000.46
531.733	2018.28
531.939	2002.97
532.144	2049.28
532.35	1987.86
532.555	2018.67
532.76	1997.55
532.966	1983.6
533.171	1967.33
533.376	1964.03
533.581	1911.33
533.787	1984.76
533.992	2004.72
534.197	2045.41
534.402	1996.58
534.607	2023.12
534.813	2095
535.018	2027.58
535.223	2047.73
535.428	2049.09
535.633	2102.37
535.838	2139.57
536.043	2156.04
536.249	2204.28
536.454	2101.2
536.659	2165.92
536.864	2116.51
537.069	2096.36
537.274	2167.66
537.479	2143.83
537.684	2102.17
537.889	2107.21
538.094	2231.21
538.299	2132.98
538.504	2167.47
538.708	2159.33
538.913	2221.91
539.118	2170.76
539.323	2175.22
539.528	2123.68
539.733	2159.52
539.938	2198.66
540.142	2174.44
540.347	2110.89
540.552	2127.94
540.757	2115.54
540.962	2104.3
541.166	2083.57
541.371	2064.59
541.576	2152.55
541.781	2112.25
541.985	2160.69
542.19	2163.59
542.395	2224.82
542.599	2242.06
542.804	2221.52
543.008	2290.5
543.213	2173.09
543.418	2181.61
543.622	2215.32
543.827	2182.58
544.031	2246.71
544.236	2263.57
544.44	2210.67
544.645	2320.91
544.849	2274.22
545.054	2278.48
545.258	2326.34
545.463	2317.43
545.667	2240.9
545.872	2306.38
546.076	2252.52
546.281	2324.79
546.485	2243.42
546.689	2305.61
546.894	2295.53
547.098	2303.48
547.302	2245.93
547.507	2273.45
547.711	2294.95
547.915	2347.26
548.119	2269.38
548.324	2287.4
548.528	2363.93
548.732	2287.78
548.936	2341.26
549.141	2335.83
549.345	2297.47
549.549	2347.26
549.753	2342.23
549.957	2369.93
550.161	2382.91
550.366	2343.97
550.57	2343.2
550.774	2344.36
550.978	2345.91
551.182	2370.9
551.386	2331.96
551.59	2325.95
551.794	2308.9
551.998	2358.11
552.202	2335.25
552.406	2330.8
552.61	2404.03
552.814	2332.35
553.018	2441.04
553.222	2309.1
553.426	2338.35
553.63	2417.98
553.833	2320.14
554.037	2284.3
554.241	2345.13
554.445	2340.29
554.649	2346.49
554.853	2309.48
555.056	2367.41
555.26	2385.04
555.464	2360.44
555.668	2353.66
555.871	2391.44
556.075	2382.72
556.279	2313.16
556.483	2301.35
556.686	2336.41
556.89	2313.75
557.094	2309.87
557.297	2273.45
557.501	2331.96
557.704	2243.42
557.908	2353.27
558.112	2273.06
558.315	2362.96
558.519	2289.33
558.722	2249.62
558.926	2245.74
559.129	2225.01
559.333	2206.6
559.536	2162.04
559.74	2182.77
559.943	2150.61
560.147	2182.38
560.35	2168.05
560.553	2241.67
560.757	2139.37
560.96	2242.83
561.164	2190.91
561.367	2251.75
561.57	2204.28
561.774	2219.97
561.977	2176.38
562.18	2157.2
562.384	2264.34
562.587	2187.62
562.79	2161.07
562.993	2175.6
563.197	2171.92
563.4	2209.12
563.603	2212.8
563.806	2191.49
564.009	2154.29
564.212	2175.6
564.416	2093.26
564.619	2135.89
564.822	2053.54
565.025	2179.87
565.228	2074.08
565.431	2115.54
565.634	2021.38
565.837	2069.43
566.04	2066.52
566.243	2029.52
566.446	1921.6
566.649	2061.49
566.852	1942.91
567.055	2036.11
567.258	2030.29
567.461	2084.16
567.664	2044.82
567.867	2005.49
568.07	2031.46
568.273	2050.25
568.475	2070.01
568.678	1980.69
568.881	1954.54
569.084	1965.78
569.287	1876.85
569.489	1915.01
569.692	1965.78
569.895	1952.02
570.098	1883.43
570.3	1881.88
570.503	1842.94
570.706	1838.48
570.909	1837.13
571.111	1785.01
571.314	1762.73
571.516	1815.82
571.719	1807.29
571.922	1795.67
572.124	1784.43
572.327	1801.67
572.529	1778.81
572.732	1797.41
572.935	1800.7
573.137	1897.38
573.34	1756.33
573.542	1817.56
573.745	1828.02
573.947	1780.75
574.15	1769.12
574.352	1726.5
574.554	1823.18
574.757	1730.57
574.959	1727.85
575.162	1741.61
575.364	1705.77
575.566	1778.23
575.769	1695.3
575.971	1740.06
576.173	1639.51
576.376	1673.02
576.578	1721.46
576.78	1767.77
576.982	1635.24
577.185	1685.62
577.387	1615.09
577.589	1654.81
577.791	1676.9
577.993	1686
578.196	1636.21
578.398	1678.06
578.6	1673.41
578.802	1619.55
579.004	1611.61
579.206	1645.71
579.408	1685.62
579.61	1622.84
579.812	1669.92
580.014	1633.11
580.216	1594.56
580.418	1645.32
580.62	1638.92
580.822	1607.73
581.024	1646.29
581.226	1670.7
581.428	1635.24
581.63	1699.95
581.832	1614.51
582.034	1669.73
582.236	1614.32
582.438	1678.06
582.64	1675.74
582.841	1711
583.043	1750.72
583.245	1659.46
583.447	1703.83
583.649	1662.75
583.85	1628.27
584.052	1676.51
584.254	1639.89
584.456	1715.07
584.657	1616.84
584.859	1637.96
585.061	1681.94
585.262	1634.27
585.464	1586.81
585.666	1663.34
585.867	1590.87
586.069	1657.72
586.27	1612.96
586.472	1576.92
586.674	1576.92
586.875	1595.14
587.077	1568.59
587.278	1606.57
587.48	1547.28
587.681	1702.47
587.883	1605.41
588.084	1545.54
588.285	1568.98
588.487	1498.46
588.688	1548.64
588.89	1460.29
589.091	1435.49
589.292	1404.1
589.494	1362.06
589.695	1354.89
589.896	1304.9
590.098	1292.5
590.299	1364.19
590.5	1343.27
590.702	1365.74
590.903	1428.13
591.104	1435.3
591.305	1423.48
591.507	1486.83
591.708	1465.52
591.909	1437.62
592.11	1481.02
592.311	1472.3
592.512	1448.86
592.714	1407.4
592.915	1432.78
593.116	1412.24
593.317	1475.21
593.518	1428.71
593.719	1416.11
593.92	1494.58
594.121	1526.16
594.322	1457.96
594.523	1420.57
594.724	1406.81
594.925	1405.65
595.126	1407.2
595.327	1423.86
595.528	1418.25
595.729	1407.98
595.929	1405.07
596.13	1445.56
596.331	1420.96
596.532	1423.86
596.733	1503.88
596.934	1488.19
597.135	1472.3
597.335	1433.16
597.536	1397.32
597.737	1457.96
597.938	1400.42
598.138	1424.64
598.339	1415.73
598.54	1430.65
598.74	1423.48
598.941	1423.86
599.142	1481.99
599.342	1449.44
599.543	1432.2
599.744	1414.56
599.944	1429.48
600.145	1413.79
600.345	1428.71
600.546	1508.92
600.746	1480.63
600.947	1479.08
601.147	1444.6
601.348	1501.17
601.548	1413.01
601.749	1436.46
601.949	1387.25
602.15	1388.6
602.35	1371.36
602.551	1456.61
602.751	1363.8
602.951	1392.86
603.152	1351.4
603.352	1433.16
603.552	1437.62
603.753	1428.51
603.953	1453.9
604.153	1436.65
604.354	1413.21
604.554	1419.02
604.754	1406.62
604.954	1371.17
605.155	1424.06
605.355	1398.68
605.555	1447.89
605.755	1456.41
605.955	1385.31
606.155	1437.81
606.356	1411.08
606.556	1431.61
606.756	1460.68
606.956	1373.1
607.156	1444.01
607.356	1375.23
607.556	1386.86
607.756	1412.24
607.956	1433.75
608.156	1418.05
608.356	1401.58
608.556	1382.6
608.756	1391.51
608.956	1332.42
609.156	1372.13
609.356	1344.62
609.556	1372.33
609.755	1342.68
609.955	1348.3
610.155	1376.78
610.355	1372.91
610.555	1297.15
610.755	1332.42
610.954	1280.69
611.154	1313.04
611.354	1349.08
611.554	1275.45
611.753	1339.58
611.953	1295.8
612.153	1339.39
612.352	1330.48
612.552	1269.45
612.752	1250.46
612.951	1287.08
613.151	1307.81
613.351	1262.86
613.55	1290.57
613.75	1295.6
613.949	1259.95
614.149	1265.77
614.348	1257.44
614.548	1230.31
614.747	1221.59
614.947	1224.3
615.146	1190.01
615.346	1289.02
615.545	1264.99
615.745	1278.55
615.944	1254.72
616.144	1236.51
616.343	1265.96
616.542	1202.61
616.742	1212.49
616.941	1191.37
617.14	1121.43
617.34	1219.27
617.539	1199.12
617.738	1184.01
617.938	1254.14
618.137	1218.3
618.336	1177.22
618.535	1211.13
618.734	1196.99
618.934	1204.74
619.133	1198.73
619.332	1227.6
619.531	1183.62
619.73	1176.26
619.929	1211.52
620.128	1193.5
620.328	1282.24
620.527	1169.47
620.726	1160.95
620.925	1191.56
621.124	1200.67
621.323	1211.71
621.522	1124.53
621.721	1145.84
621.92	1125.49
622.119	1169.47
622.318	1160.37
622.517	1155.14
622.715	1116.78
622.914	1080.54
623.113	1142.93
623.312	1109.99
623.511	1121.23
623.71	1114.64
623.909	1102.83
624.107	1162.31
624.306	1095.08
624.505	1094.3
624.704	1103.99
624.902	1100.11
625.101	1142.54
625.3	1089.07
625.499	1049.74
625.697	1094.49
625.896	1097.59
626.095	1100.11
626.293	1030.36
626.492	1060.01
626.69	1140.41
626.889	1062.53
627.088	1093.33
627.286	1053.81
627.485	1074.15
627.683	1047.8
627.882	1060.78
628.08	1000.72
628.279	979.6
628.477	1071.63
628.676	1006.73
628.874	1036.76
629.073	955.58
629.271	988.71
629.469	1053.61
629.668	1028.04
629.866	974.76
630.065	1016.22
630.263	1047.22
630.461	1014.28
630.66	1007.5
630.858	1068.92
631.056	1053.81
631.254	1065.43
631.453	1018.93
631.651	1025.33
631.849	1035.21
632.047	1032.69
632.245	1046.44
632.444	1035.4
632.642	1032.11
632.84	1045.67
633.038	1035.4
633.236	981.54
633.434	1008.28
633.632	1012.15
633.83	1002.08
634.028	1089.84
634.227	1030.56
634.425	1116.39
634.623	1046.25
634.821	1058.84
635.019	1037.73
635.216	1058.84
635.414	1066.59
635.612	1045.09
635.81	1025.91
636.008	1090.43
636.206	1051.09
636.404	1064.08
636.602	995.1
636.8	1033.85
636.997	1049.74
637.195	1092.56
637.393	1035.6
637.591	1086.16
637.789	995.49
637.986	1011.18
638.184	1051.09
638.382	1034.63
638.58	1084.23
638.777	1072.79
638.975	1016.8
639.173	1034.43
639.37	1030.17
639.568	1038.11
639.765	1068.92
639.963	1004.21
640.161	1023.2
640.358	1017.96
640.556	989.29
640.753	950.93
640.951	980.96
641.148	1024.55
641.346	968.56
641.543	964.88
641.741	994.71
641.938	967.01
642.136	956.35
642.333	942.6
642.531	1000.91
642.728	1056.91
642.925	976.11
643.123	927.1
643.32	954.22
643.517	936.2
643.715	979.41
643.912	958.48
644.109	945.7
644.306	941.82
644.504	918.77
644.701	926.13
644.898	917.6
645.095	885.44
645.293	945.12
645.49	926.71
645.687	902.49
645.884	937.75
646.081	855.41
646.278	872.46
646.475	879.05
646.672	841.27
646.87	873.82
647.067	850.57
647.264	852.12
647.461	833.9
647.658	779.07
647.855	889.51
648.052	819.76
648.249	774.81
648.446	823.05
648.642	800
648.839	772.29
649.036	815.3
649.233	766.87
649.43	750.4
649.627	763.19
649.824	786.63
650.021	803.87
650.217	784.89
650.414	757.76
650.611	807.55
650.808	788.95
651.004	814.53
651.201	822.67
651.398	870.33
651.595	779.46
651.791	774.42
651.988	828.09
652.185	764.16
652.381	791.28
652.578	743.42
652.775	758.34
652.971	760.86
653.168	777.72
653.364	828.67
653.561	716.49
653.757	760.28
653.954	802.13
654.15	743.42
654.347	824.41
654.543	754.27
654.74	744.78
654.936	723.86
655.133	754.86
655.329	776.56
655.525	757.76
655.722	770.55
655.918	708.36
656.115	761.83
656.311	660.11
656.507	660.31
656.704	623.49
656.9	627.37
657.096	685.69
657.292	678.52
657.489	702.93
657.685	703.71
657.881	654.49
658.077	686.85
658.273	678.13
658.47	771.91
658.666	695.96
658.862	742.07
659.058	692.08
659.254	778.88
659.45	674.64
659.646	741.49
659.842	704.87
660.038	731.99
660.234	688.4
660.43	717.27
660.626	800.39
660.822	752.34
661.018	764.74
661.214	718.43
661.41	685.88
661.606	732.96
661.802	729.47
661.998	710.29
662.194	693.44
662.39	688.98
662.586	729.86
662.781	709.32
662.977	709.52
663.173	712.81
663.369	694.99
663.564	730.25
663.76	722.5
663.956	663.41
664.152	741.49
664.347	641.51
664.543	666.7
664.739	672.51
664.934	627.37
665.13	639.96
665.326	678.91
665.521	683.94
665.717	632.79
665.912	623.3
666.108	582.42
666.304	627.95
666.499	661.66
666.695	597.92
666.89	610.71
667.086	671.74
667.281	659.73
667.477	711.26
667.672	649.65
667.867	613.03
668.063	674.84
668.258	619.23
668.454	643.06
668.649	696.15
668.844	629.31
669.04	661.66
669.235	623.88
669.43	601.99
669.626	564.21
669.821	620.2
670.016	599.47
670.211	616.52
670.407	562.85
670.602	611.09
670.797	608.96
670.992	619.81
671.187	571.57
671.382	662.83
671.578	585.52
671.773	608.38
671.968	564.79
672.163	610.32
672.358	617.1
672.553	583.97
672.748	580.1
672.943	671.35
673.138	584.16
673.333	612.84
673.528	555.3
673.723	617.29
673.918	592.11
674.113	573.51
674.308	675.42
674.503	589.59
674.698	598.11
674.892	612.45
675.087	638.99
675.282	607.8
675.477	571.76
675.672	615.55
675.867	601.02
676.061	546.96
676.256	553.55
676.451	577.19
676.646	595.98
676.84	530.88
677.035	553.55
677.23	539.21
677.424	600.63
677.619	617.68
677.814	618.84
678.008	609.93
678.203	535.15
678.397	573.7
678.592	584.94
678.787	613.03
678.981	594.82
679.176	605.67
679.37	587.07
679.565	569.83
679.759	556.26
679.954	595.21
680.148	634.73
680.342	625.24
680.537	618.65
680.731	583.97
680.926	605.28
681.12	584.75
681.314	562.85
681.509	583.58
681.703	627.56
681.897	597.15
682.092	562.66
682.286	571.76
682.48	649.26
682.674	622.72
682.869	580.48
683.063	604.7
683.257	664.96
683.451	576.22
683.645	598.89
683.839	594.05
684.034	565.37
684.228	641.13
684.422	548.32
684.616	600.83
684.81	605.28
685.004	619.04
685.198	606.44
685.392	643.64
685.586	597.92
685.78	639.96
685.974	642.48
686.168	648.68
686.362	655.46
686.556	587.26
686.75	546.77
686.944	519.45
687.138	567.7
687.331	485.35
687.525	480.32
687.719	449.32
687.913	515.58
688.107	519.45
688.301	489.62
688.494	557.04
688.688	534.95
688.882	478.57
689.076	497.56
689.269	516.16
689.463	596.37
689.657	517.51
689.85	547.93
690.044	578.93
690.238	562.46
690.431	575.64
690.625	577.96
690.818	630.08
691.012	654.69
691.205	659.34
691.399	617.68
691.593	673.09
691.786	697.31
691.98	730.83
692.173	744.59
692.366	739.94
692.56	769.39
692.753	809.69
692.947	703.12
693.14	774.23
693.333	780.04
693.527	758.73
693.72	813.17
693.914	785.85
694.107	779.85
694.3	849.21
694.493	812.01
694.687	868
694.88	823.83
695.073	926.52
695.266	908.5
695.46	870.13
695.653	979.02
695.846	931.94
696.039	915.08
696.232	967.01
696.425	1026.1
696.618	1040.63
696.812	1018.74
697.005	1096.82
697.198	1154.94
697.391	1067.56
697.584	1149.32
697.777	1210.94
697.97	1132.66
698.163	1167.34
698.356	1173.35
698.549	1251.82
698.742	1237.67
698.935	1193.5
699.127	1248.14
699.32	1232.25
699.513	1235.35
699.706	1253.95
699.899	1273.32
700.092	1276.42
700.285	1282.82
700.477	1236.7
700.67	1295.22
700.863	1309.55
701.056	1405.46
701.248	1400.03
701.441	1366.9
701.634	1374.65
701.826	1448.86
702.019	1341.91
702.212	1447.11
702.404	1384.15
702.597	1383.95
702.79	1424.83
702.982	1469.78
703.175	1500.59
703.367	1538.76
703.56	1566.85
703.752	1625.75
703.945	1552.13
704.137	1609.09
704.33	1619.55
704.522	1661.98
704.715	1678.25
704.907	1676.7
705.1	1717.59
705.292	1701.12
705.484	1691.43
705.677	1746.26
705.869	1774.35
706.061	1786.56
706.254	1846.04
706.446	1772.22
706.638	1797.41
706.831	1870.45
707.023	1803.03
707.215	1947.37
707.407	1932.26
707.599	1901.26
707.792	1981.66
707.984	1931.48
708.176	1984.76
708.368	1983.79
708.56	1988.83
708.752	1995.23
708.944	1971.2
709.136	2049.09
709.329	2045.99
709.521	2132.59
709.713	2116.7
709.905	2109.34
710.097	2144.99
710.289	2053.35
710.481	2121.94
710.672	2127.75
710.864	2176.38
711.056	2206.6
711.248	2248.26
711.44	2232.95
711.632	2235.08
711.824	2269.57
712.016	2275.38
712.207	2295.34
712.399	2307.93
712.591	2364.89
712.783	2337.19
712.975	2353.08
713.166	2295.92
713.358	2331.57
713.55	2411.98
713.741	2393.57
713.933	2406.36
714.125	2390.47
714.316	2352.69
714.508	2442.01
714.7	2424.57
714.891	2448.98
715.083	2457.12
715.274	2438.52
715.466	2469.71
715.657	2460.41
715.849	2357.92
716.04	2430.19
716.232	2362.96
716.423	2395.51
716.615	2334.09
716.806	2250
716.998	2212.42
717.189	2138.99
717.381	2067.49
717.572	2049.86
717.763	2009.76
717.955	1989.99
718.146	1958.22
718.337	1911.53
718.528	1874.71
718.72	1835.38
718.911	1850.11
719.102	1803.8
719.293	1870.26
719.485	1821.82
719.676	1792.95
719.867	1773.97
720.058	1785.4
720.249	1768.73
720.44	1816.59
720.632	1873.36
720.823	1907.07
721.014	2069.24
721.205	2048.7
721.396	2160.3
721.587	2237.6
721.778	2296.31
721.969	2349.01
722.16	2414.69
722.351	2405.58
722.542	2531.13
722.733	2547.02
722.924	2462.35
723.115	2500.91
723.305	2512.72
723.496	2484.44
723.687	2348.43
723.878	2368.58
724.069	2341.65
724.26	2368.19
724.45	2233.15
724.641	2292.63
724.832	2301.54
725.023	2298.44
725.213	2275.96
725.404	2253.68
725.595	2270.73
725.785	2281.2
725.976	2358.89
726.167	2319.36
726.357	2305.8
726.548	2434.84
726.739	2334.48
726.929	2404.03
727.12	2426.12
727.31	2460.8
727.501	2347.07
727.691	2401.51
727.882	2392.41
728.072	2444.14
728.263	2456.73
728.453	2514.66
728.644	2538.49
728.834	2462.16
729.024	2431.74
729.215	2418.37
729.405	2470.1
729.596	2573.75
729.786	2543.14
729.976	2570.27
730.167	2564.84
730.357	2501.29
730.547	2553.6
730.737	2606.5
730.928	2614.25
731.118	2666.75
731.308	2576.47
731.498	2660.75
731.688	2742.51
731.879	2761.69
732.069	2774.09
732.259	2818.26
732.449	2884.14
732.639	2944.2
732.829	2944.2
733.019	2964.54
733.209	3062.58
733.399	3071.88
733.589	3167.4
733.779	3173.21
733.969	3185.03
734.159	3225.13
734.349	3275.7
734.539	3310.96
734.729	3272.99
734.919	3379.36
735.109	3376.64
735.299	3348.55
735.488	3342.54
735.678	3375.29
735.868	3320.84
736.058	3353.97
736.248	3324.72
736.437	3277.44
736.627	3314.45
736.817	3399.31
737.007	3337.31
737.196	3421.98
737.386	3398.73
737.576	3393.31
737.765	3474.68
737.955	3406.48
738.144	3513.23
738.334	3534.55
738.524	3416.55
738.713	3499.67
738.903	3484.75
739.092	3500.64
739.282	3489.4
739.471	3539.97
739.661	3511.3
739.85	3602.16
740.04	3558.38
740.229	3603.33
740.419	3608.36
740.608	3598.87
740.797	3585.7
740.987	3690.51
741.176	3672.69
741.365	3629.68
741.555	3571.94
741.744	3690.51
741.933	3634.13
742.123	3692.64
742.312	3675.4
742.501	3694.78
742.69	3748.83
742.88	3699.62
743.069	3790.87
743.258	3698.84
743.447	3805.21
743.636	3764.52
743.825	3756.77
744.014	3778.28
744.204	3800.56
744.393	3719.58
744.582	3841.44
744.771	3842.41
744.96	3754.45
745.149	3823.23
745.338	3749.41
745.527	3863.34
745.716	3817.42
745.905	3790.29
746.094	3862.95
746.283	3828.85
746.471	3770.14
746.66	3832.72
746.849	3815.48
747.038	3859.85
747.227	3798.82
747.416	3842.99
747.604	3770.34
747.793	3780.22
747.982	3840.47
748.171	3860.62
748.359	3824.01
748.548	3860.43
748.737	3815.48
748.926	3843.77
749.114	3698.84
749.303	3838.73
749.491	3763.56
749.68	3723.64
749.869	3846.09
750.057	3789.71
750.246	3752.32
750.434	3799.79
750.623	3753.87
750.811	3779.06
751	3766.46
751.188	3745.54
751.377	3783.9
751.565	3741.47
751.754	3707.76
751.942	3697.29
752.131	3769.17
752.319	3737.59
752.507	3696.52
752.696	3739.34
752.884	3773.44
753.072	3674.43
753.261	3762.78
753.449	3698.46
753.637	3701.94
753.825	3777.51
754.014	3716.28
754.202	3692.45
754.39	3769.76
754.578	3769.17
754.766	3657.19
754.955	3674.43
755.143	3705.04
755.331	3699.43
755.519	3731.2
755.707	3697.1
755.895	3671.53
756.083	3663.78
756.271	3599.06
756.459	3674.82
756.647	3659.71
756.835	3578.72
757.023	3651.38
757.211	3652.35
757.399	3628.13
757.587	3607.59
757.775	3566.32
757.963	3561.28
758.151	3577.95
758.339	3533.19
758.526	3540.75
758.714	3491.73
758.902	3385.75
759.09	3320.26
759.278	3106.95
759.465	2876.19
759.653	2484.24
759.841	2292.05
760.028	1909.4
760.216	1688.91
760.404	1567.62
760.591	1306.65
760.779	1097.4
760.967	922.25
761.154	768.42
761.342	811.62
761.529	801.74
761.717	833.71
761.905	849.6
762.092	888.15
762.28	821.12
762.467	826.15
762.655	759.7
762.842	759.89
763.029	774.62
763.217	779.46
763.404	788.37
763.592	802.32
763.779	756.02
763.966	820.92
764.154	856.19
764.341	910.63
764.528	902.88
764.716	979.21
764.903	1058.26
765.09	1104.38
765.277	1135.18
765.465	1291.92
765.652	1394.41
765.839	1441.5
766.026	1627.3
766.213	1682.71
766.4	1766.99
766.588	1971.98
766.775	1988.25
766.962	2094.23
767.149	2220.94
767.336	2327.11
767.523	2319.56
767.71	2479.59
767.897	2597.78
768.084	2678.18
768.271	2721.97
768.458	2830.86
768.645	2850.43
768.832	2862.05
769.019	2893.24
769.206	2897.89
769.392	3034.1
769.579	3080.79
769.766	3043.79
769.953	3097.26
770.14	3121.28
770.327	3091.25
770.513	3135.82
770.7	3175.92
770.887	3138.33
771.073	3211.96
771.26	3187.93
771.447	3154.22
771.634	3127.1
771.82	3245.67
772.007	3166.62
772.193	3238.31
772.38	3245.28
772.567	3202.66
772.753	3186.38
772.94	3197.23
773.126	3210.6
773.313	3210.02
773.499	3193.94
773.686	3225.71
773.872	3183.67
774.059	3176.5
774.245	3171.27
774.432	3156.93
774.618	3139.5
774.804	3121.48
774.991	3106.95
775.177	3196.85
775.363	3132.72
775.55	3177.28
775.736	3110.63
775.922	3126.52
776.109	3129.23
776.295	3103.65
776.481	3191.61
776.667	3145.11
776.853	3110.24
777.04	3111.79
777.226	3118.18
777.412	3149.38
777.598	3074.01
777.784	3096.29
777.97	3067.62
778.156	3116.44
778.342	3068.58
778.528	3030.8
778.715	2979.07
778.901	2994.96
779.087	3067.23
779.272	3019.95
779.458	2952.53
779.644	3029.06
779.83	3005.04
780.016	3126.52
780.202	3008.33
780.388	2978.49
780.574	2964.15
780.76	2954.47
780.946	3020.73
781.131	2999.8
781.317	2979.85
781.503	2959.12
781.689	2971.71
781.874	3039.52
782.06	2923.86
782.246	2957.76
782.432	2946.52
782.617	2947.11
782.803	2943.04
782.989	2857.98
783.174	2915.33
783.36	2875.23
783.545	2875.23
783.731	2917.85
783.916	2789.59
784.102	2890.14
784.288	2857.79
784.473	2913.2
784.659	2866.12
784.844	2853.33
785.029	2809.16
785.215	2813.81
785.4	2788.81
785.586	2885.88
785.771	2754.71
785.956	2842.09
786.142	2798.69
786.327	2794.43
786.512	2786.68
786.698	2768.08
786.883	2708.02
787.068	2754.33
787.254	2720.81
787.439	2733.21
787.624	2681.87
787.809	2681.87
787.994	2725.46
788.18	2758.98
788.365	2620.83
788.55	2673.15
788.735	2663.07
788.92	2626.84
789.105	2602.82
789.29	2691.36
789.475	2588.48
789.66	2598.75
789.845	2568.72
790.03	2575.69
790.215	2645.25
790.4	2624.52
790.585	2613.86
790.77	2600.3
790.955	2533.65
791.14	2573.37
791.325	2624.32
791.51	2497.22
791.695	2564.26
791.879	2550.89
792.064	2490.25
792.249	2625.48
792.434	2524.16
792.618	2527.45
792.803	2607.47
792.988	2526.48
793.173	2530.74
793.357	2594.1
793.542	2539.46
793.727	2549.73
793.911	2591.19
794.096	2541.79
794.281	2588.29
794.465	2658.42
794.65	2547.79
794.834	2604.56
795.019	2632.65
795.203	2633.43
795.388	2630.52
795.572	2656.48
795.757	2624.52
795.941	2581.5
796.126	2605.34
796.31	2542.95
796.494	2577.44
796.679	2551.86
796.863	2536.94
797.048	2636.33
797.232	2584.6
797.416	2604.37
797.601	2605.53
797.785	2628.2
797.969	2691.17
798.153	2572.01
798.338	2634.98
798.522	2641.57
798.706	2639.24
798.89	2679.73
799.074	2715.96
799.258	2696.4
799.443	2652.61
799.627	2649.7
799.811	2706.86
799.995	2604.37
800.179	2562.71
800.363	2604.75
800.547	2660.17
800.731	2645.25
800.915	2522.61
801.099	2556.12
801.283	2568.33
801.467	2629.75
801.651	2591.97
801.835	2630.33
802.019	2576.66
802.202	2626.07
802.386	2524.54
802.57	2580.54
802.754	2600.88
802.938	2534.62
803.121	2557.67
803.305	2623.35
803.489	2580.15
803.673	2595.65
803.856	2596.42
804.04	2576.85
804.224	2577.24
804.407	2552.83
804.591	2553.41
804.775	2577.05
804.958	2544.89
805.142	2653.19
805.326	2562.52
805.509	2621.42
805.693	2607.08
805.876	2652.22
806.06	2621.22
806.243	2657.26
806.427	2685.16
806.61	2668.5
806.794	2598.36
806.977	2674.31
807.16	2631.3
807.344	2647.18
807.527	2637.3
807.71	2595.26
807.894	2598.94
808.077	2655.9
808.26	2574.14
808.444	2566.78
808.627	2613.28
808.81	2544.3
808.993	2503.62
809.177	2474.17
809.36	2490.44
809.543	2520.28
809.726	2469.71
809.909	2472.62
810.092	2442.01
810.276	2430.38
810.459	2408.1
810.642	2426.31
810.825	2359.66
811.008	2434.45
811.191	2299.6
811.374	2302.31
811.557	2359.47
811.74	2394.54
811.923	2267.25
812.106	2261.24
812.289	2244.77
812.472	2234.12
812.654	2246.52
812.837	2189.94
813.02	2154.68
813.203	2136.85
813.386	2027.97
813.569	2015.57
813.751	1924.7
813.934	1981.47
814.117	1934.58
814.3	1887.5
814.482	1879.75
814.665	1798.38
814.848	1783.65
815.03	1724.56
815.213	1739.67
815.396	1705.57
815.578	1705.38
815.761	1637.37
815.943	1715.45
816.126	1648.42
816.309	1585.26
816.491	1520.16
816.674	1514.15
816.856	1591.07
817.039	1539.73
817.221	1601.72
817.403	1533.53
817.586	1595.91
817.768	1588.36
817.951	1492.84
818.133	1500.2
818.315	1514.15
818.498	1578.67
818.68	1603.86
818.862	1586.61
819.045	1618.97
819.227	1608.12
819.409	1612.77
819.591	1599.21
819.774	1601.34
819.956	1544.96
820.138	1631.56
820.32	1645.71
820.502	1707.51
820.684	1794.5
820.866	1756.33
821.048	1803.42
821.231	1821.82
821.413	1846.43
821.595	1786.95
821.777	1801.48
821.959	1817.17
822.141	1850.5
822.323	1704.6
822.505	1655
822.686	1612.38
822.868	1525
823.05	1419.99
823.232	1435.88
823.414	1359.73
823.596	1428.13
823.778	1410.5
823.96	1408.36
824.141	1420.18
824.323	1468.23
824.505	1533.72
824.687	1593.01
824.868	1596.11
825.05	1687.94
825.232	1764.67
825.413	1820.47
825.595	1813.1
825.777	1747.23
825.958	1766.6
826.14	1753.62
826.321	1771.06
826.503	1738.7
826.685	1764.67
826.866	1787.92
827.048	1804.19
827.229	1720.49
827.411	1697.24
827.592	1663.72
827.773	1658.88
827.955	1609.67
828.136	1618.19
828.318	1578.47
828.499	1608.89
828.68	1544.38
828.862	1592.04
829.043	1583.51
829.224	1574.99
829.406	1554.84
829.587	1539.73
829.768	1565.3
829.949	1585.06
830.131	1609.67
830.312	1658.1
830.493	1597.46
830.674	1617.42
830.855	1564.72
831.036	1599.01
831.218	1635.44
831.399	1658.69
831.58	1622.84
831.761	1605.21
831.942	1608.7
832.123	1615.87
832.304	1550.77
832.485	1552.9
832.666	1620.13
832.847	1584.29
833.028	1591.46
833.209	1569.95
833.389	1551.74
833.57	1525.78
833.751	1542.05
833.932	1607.54
834.113	1605.41
834.294	1574.41
834.475	1657.52
834.655	1654.42
834.836	1633.5
835.017	1638.15
835.198	1604.63
835.378	1632.53
835.559	1660.04
835.74	1593.59
835.92	1632.72
836.101	1597.46
836.281	1625.56
836.462	1662.95
836.643	1701.7
836.823	1659.65
837.004	1698.4
837.184	1722.04
837.365	1697.44
837.545	1682.9
837.726	1662.56
837.906	1762.92
838.087	1649.58
838.267	1637.96
838.448	1637.76
838.628	1655
838.808	1686.78
838.989	1702.86
839.169	1649.97
839.349	1701.12
839.53	1699.18
839.71	1721.27
839.89	1656.17
840.07	1717
840.251	1691.04
840.431	1732.31
840.611	1704.41
840.791	1667.21
840.971	1692.2
841.151	1689.1
841.332	1630.21
841.512	1680.77
841.692	1621.68
841.872	1664.89
842.052	1662.56
842.232	1659.65
842.412	1605.99
842.592	1630.79
842.772	1680
842.952	1689.69
843.132	1627.3
843.312	1614.9
843.492	1631.37
843.672	1667.21
843.851	1589.32
844.031	1647.06
844.211	1609.47
844.391	1585.64
844.571	1613.16
844.751	1629.43
844.93	1641.06
845.11	1620.13
845.29	1637.96
845.47	1675.93
845.649	1619.16
845.829	1681.35
846.009	1604.05
846.188	1658.69
846.368	1620.71
846.547	1632.72
846.727	1653.45
846.907	1583.51
847.086	1611.41
847.266	1653.26
847.445	1642.22
847.625	1575.76
847.804	1575.37
847.984	1607.73
848.163	1556.39
848.343	1561.23
848.522	1608.51
848.701	1625.94
848.881	1509.89
849.06	1583.9
849.239	1602.89
849.419	1598.62
849.598	1505.43
849.777	1535.08
849.957	1475.21
850.136	1435.49
850.315	1457
850.494	1435.88
850.674	1446.92
850.853	1531.59
851.032	1469.59
851.211	1508.14
851.39	1487.22
851.569	1437.81
851.748	1449.83
851.927	1519.58
852.107	1479.28
852.286	1459.71
852.465	1450.6
852.644	1451.96
852.823	1484.12
853.002	1485.28
853.181	1461.65
853.359	1469.98
853.538	1415.15
853.717	1481.21
853.896	1357.02
854.075	1322.15
854.254	1281.46
854.433	1233.02
854.611	1285.72
854.79	1225.27
854.969	1296.77
855.148	1316.14
855.327	1241.94
855.505	1319.24
855.684	1293.47
855.863	1305.87
856.041	1337.07
856.22	1334.16
856.399	1343.65
856.577	1417.47
856.756	1408.36
856.934	1508.14
857.113	1518.41
857.291	1458.16
857.47	1344.43
857.648	1402.36
857.827	1426
858.005	1460.68
858.184	1405.46
858.362	1488.19
858.541	1386.67
858.719	1403.33
858.898	1370.58
859.076	1396.16
859.254	1428.13
859.433	1407.98
859.611	1368.26
859.789	1337.07
859.967	1409.14
860.146	1449.44
860.324	1327.96
860.502	1365.93
860.68	1331.83
860.859	1355.08
861.037	1307.42
861.215	1390.35
861.393	1345.4
861.571	1345.01
861.749	1315.37
861.927	1354.12
862.105	1370.39
862.283	1371.75
862.461	1312.65
862.639	1326.02
862.817	1332.22
862.995	1341.91
863.173	1308
863.351	1318.27
863.529	1342.49
863.707	1366.52
863.885	1314.2
864.063	1285.72
864.241	1277.59
864.418	1363.22
864.596	1289.21
864.774	1273.52
864.952	1262.28
865.129	1334.35
865.307	1254.53
865.485	1270.03
865.663	1292.7
865.84	1235.74
866.018	1228.37
866.196	1109.41
866.373	1151.84
866.551	1104.38
866.728	1033.27
866.906	1101.66
867.084	1140.02
867.261	1176.64
867.439	1183.81
867.616	1204.54
867.794	1181.1
867.971	1195.82
868.149	1222.56
868.326	1243.1
868.503	1234.38
868.681	1192.72
868.858	1222.17
869.035	1185.36
869.213	1213.07
869.39	1166.96
869.567	1258.99
869.745	1165.6
869.922	1196.99
870.099	1172.38
870.276	1205.12
870.454	1223.53
870.631	1218.69
870.808	1186.14
870.985	1234.38
871.162	1240.19
871.339	1232.05
871.517	1140.02
871.694	1169.86
871.871	1175.87
872.048	1162.11
872.225	1169.67
872.402	1178.77
872.579	1153.78
872.756	1178.58
872.933	1117.55
873.11	1134.99
873.287	1181.1
873.463	1153.39
873.64	1133.82
873.817	1152.04
873.994	1178.39
874.171	1080.93
874.348	1140.02
874.524	1077.64
874.701	1104.96
874.878	1069.69
875.055	1137.31
875.231	1121.43
875.408	1133.44
875.585	1031.14
875.762	1122.01
875.938	1072.79
876.115	1055.55
876.291	1077.64
876.468	1095.85
876.645	1058.46
876.821	1072.02
876.998	1053.61
877.174	1095.08
877.351	1081.13
877.527	1041.79
877.704	1078.99
877.88	1064.46
878.057	1042.76
878.233	1094.11
878.409	1026.3
878.586	1056.13
878.762	1052.06
878.938	1068.14
879.115	981.54
879.291	1070.28
879.467	998.4
879.644	1015.25
879.82	1050.13
879.996	1042.57
880.172	962.16
880.349	1031.53
880.525	1067.18
880.701	996.65
880.877	992.2
881.053	1032.3
881.229	1015.25
881.405	1050.13
881.581	964.1
881.757	970.5
881.933	1004.79
882.109	1029.4
882.285	1017.96
882.461	984.25
882.637	1002.08
882.813	977.08
882.989	985.03
883.165	1051.09
883.341	1008.86
883.517	1034.82
883.693	1013.9
883.869	1012.73
884.044	989.1
884.22	1009.63
884.396	1032.3
884.572	1023.58
884.747	1047.41
884.923	1042.96
885.099	1020.87
885.275	1038.11
885.45	977.08
885.626	989.29
885.801	1003.43
885.977	968.36
886.153	935.04
886.328	1015.83
886.504	954.03
886.679	992.78
886.855	975.15
887.03	973.79
887.206	1017.38
887.381	998.2
887.557	1000.33
887.732	1003.43
887.908	1015.06
888.083	1008.08
888.258	986.96
888.434	995.68
888.609	999.36
888.784	1032.69
888.96	999.56
889.135	974.37
889.31	954.61
889.485	990.45
889.661	986.96
889.836	1012.54
890.011	1019.32
890.186	978.25
890.361	977.08
890.537	1017
890.712	1014.67
890.887	988.32
891.062	998.59
891.237	1071.83
891.412	958.68
891.587	1013.12
891.762	1020.29
891.937	1015.83
892.112	959.06
892.287	976.7
892.462	938.92
892.637	879.43
892.812	923.61
892.987	890.48
893.161	879.63
893.336	902.88
893.511	873.43
893.686	937.75
893.861	898.62
894.035	908.3
894.21	871.88
894.385	848.05
894.56	879.82
894.734	825.19
894.909	786.24
895.084	808.33
895.258	797.48
895.433	793.6
895.608	750.79
895.782	724.63
895.957	784.3
896.131	737.81
896.306	684.33
896.48	696.73
896.655	682.2
896.829	633.38
897.004	649.84
897.178	660.31
897.353	616.71
897.527	682.2
897.701	647.33
897.876	635.31
898.05	685.3
898.224	694.02
898.399	676.19
898.573	634.73
898.747	571.18
898.921	572.35
899.096	487.87
899.27	526.81
899.444	515.77
899.618	568.66
899.792	566.73
899.967	599.08
900.141	616.71
900.315	519.84
900.489	556.46
900.663	563.82
900.837	567.11
901.011	545.61
901.185	589.59
901.359	550.26
901.533	568.47
901.707	570.6
901.881	565.18
902.055	525.46
902.229	576.61
902.403	598.7
902.576	544.64
902.75	582.23
902.924	700.41
903.098	606.44
903.272	677.55
903.446	687.04
903.619	684.91
903.793	736.45
903.967	702.74
904.14	742.65
904.314	716.69
904.488	690.92
904.661	737.61
904.835	691.5
905.009	747.11
905.182	797.87
905.356	737.22
905.529	742.26
905.703	688.21
905.876	702.74
906.05	669.22
906.223	647.52
906.397	586.68
906.57	573.51
906.744	533.98
906.917	572.73
907.09	552
907.264	556.85
907.437	509.18
907.61	514.03
907.784	504.92
907.957	558.59
908.13	498.14
908.304	536.7
908.477	489.23
908.65	510.15
908.823	465.59
908.996	528.95
909.17	490.39
909.343	484.38
909.516	488.45
909.689	467.53
909.862	485.16
910.035	479.15
910.208	477.41
910.381	477.22
910.554	548.13
910.727	497.37
910.9	445.63
911.073	476.05
911.246	562.46
911.419	561.69
911.592	518.29
911.765	458.81
911.938	463.27
912.11	502.02
912.283	480.32
912.456	549.29
912.629	506.47
912.802	458.81
912.974	405.14
913.147	403.79
913.32	351.47
913.493	387.7
913.665	411.34
913.838	420.64
914.01	413.09
914.183	440.98
914.356	419.48
914.528	463.07
914.701	496.01
914.873	490
915.046	424.52
915.218	386.35
915.391	331.13
915.563	375.11
915.736	400.1
915.908	425.68
916.081	440.21
916.253	409.4
916.425	432.46
916.598	450.28
916.77	393.13
916.942	404.37
917.115	315.24
917.287	434.2
917.459	386.74
917.632	376.27
917.804	318.54
917.976	385.19
918.148	425.29
918.32	373.37
918.493	438.47
918.665	455.52
918.837	430.91
919.009	496.59
919.181	475.67
919.353	445.63
919.525	446.41
919.697	459.78
919.869	458.23
920.041	497.75
920.213	561.88
920.385	486.13
920.557	441.57
920.729	459.97
920.901	486.71
921.073	447.77
921.244	433.23
921.416	485.55
921.588	461.52
921.76	431.1
921.932	520.03
922.103	440.98
922.275	468.11
922.447	463.27
922.619	388.67
922.79	442.34
922.962	417.54
923.134	462.1
923.305	393.71
923.477	385.38
923.648	375.5
923.82	417.35
923.991	367.36
924.163	345.08
924.335	397.39
924.506	362.52
924.677	418.51
924.849	341.21
925.02	392.35
925.192	393.52
925.363	400.3
925.535	407.66
925.706	348.18
925.877	440.79
926.049	348.37
926.22	381.7
926.391	390.8
926.562	414.64
926.734	367.55
926.905	375.89
927.076	325.51
927.247	342.37
927.419	323.96
927.59	297.03
927.761	317.37
927.932	309.62
928.103	314.66
928.274	287.15
928.445	271.65
928.616	248.21
928.787	271.07
928.958	291.41
929.129	281.34
929.3	260.02
929.471	221.47
929.642	194.54
929.813	146.3
929.984	230.96
930.155	162.96
930.326	193.96
930.496	156.56
930.667	130.21
930.838	160.63
931.009	123.43
931.18	140.87
931.35	161.21
931.521	145.33
931.692	109.1
931.863	84.49
932.033	133.9
932.204	121.11
932.374	110.45
932.545	88.75
932.716	133.12
932.886	120.53
933.057	39.93
933.227	36.83
933.398	123.82
933.568	38.77
933.739	21.72
933.909	28.69
934.08	88.17
934.25	19.58
934.421	55.04
934.591	62.21
934.761	16.29
934.932	25.2
935.102	39.93
935.272	39.15
935.443	47.87
935.613	36.25
935.783	42.25
935.953	20.36
936.123	174.58
936.294	10.87
936.464	37.41
936.634	26.17
936.804	-4.83
936.974	9.32
937.144	51.55
937.314	49.03
937.484	22.68
937.655	39.15
937.825	61.24
937.995	34.89
938.165	91.66
938.334	31.98
938.504	81
938.674	49.03
938.844	48.84
939.014	90.88
939.184	101.15
939.354	137.19
939.524	114.13
939.694	84.68
939.863	88.17
940.033	150.17
940.203	119.95
940.373	118.78
940.542	113.16
940.712	84.1
940.882	129.05
941.051	123.82
941.221	112.78
941.391	134.28
941.56	91.85
941.73	67.83
941.899	178.65
942.069	78.29
942.238	95.92
942.408	44
942.577	118.98
942.747	75.97
942.916	16.29
943.086	64.53
943.255	103.67
943.425	63.57
943.594	47.68
943.763	23.85
943.933	30.82
944.102	-6.77
944.271	59.3
944.441	86.04
944.61	70.15
944.779	71.32
944.948	137
945.117	34.89
945.287	58.14
945.456	21.91
945.625	31.4
945.794	71.12
945.963	50
946.132	56.98
946.301	43.22
946.47	93.79
946.639	4.28
946.808	59.69
946.977	82.94
947.146	89.33
947.315	38.77
947.484	107.55
947.653	54.27
947.822	58.92
947.991	15.9
948.16	147.65
948.329	107.35
948.498	63.37
948.666	61.24
948.835	90.11
949.004	39.73
949.173	28.5
949.341	76.93
949.51	79.84
949.679	111.61
949.847	95.92
950.016	133.12
950.185	109.48
950.353	31.21
950.522	41.09
950.69	120.72
950.859	56.98
951.028	81.97
951.196	71.7
951.365	52.33
951.533	56.01
951.701	83.33
951.87	83.52
952.038	36.25
952.207	57.75
952.375	110.26
952.543	49.23
952.712	56.4
952.88	37.22
953.048	117.62
953.217	76.74
953.385	68.6
953.553	98.63
953.721	52.72
953.89	53.49
954.058	38.18
954.226	32.57
954.394	86.62
954.562	34.5
954.73	63.18
954.898	73.25
955.067	83.52
955.235	43.61
955.403	63.76
955.571	109.29
955.739	87.01
955.907	53.68
956.075	54.46
956.243	70.93
956.41	94.56
956.578	20.94
956.746	33.34
956.914	43.03
957.082	87.4
957.25	96.7
957.418	48.26
957.585	57.95
957.753	124.21
957.921	57.95
958.089	56.59
958.256	99.6
958.424	84.3
958.592	80.23
958.759	61.63
958.927	85.65
959.095	26.37
959.262	63.18
959.43	57.95
959.597	21.91
959.765	82.94
959.932	53.1
960.1	68.99
960.267	53.1
960.435	85.85
960.602	87.78
960.77	37.6
960.937	42.64
961.104	90.3
961.272	21.91
961.439	62.98
961.606	64.15
961.774	96.89
961.941	65.5
962.108	97.86
962.275	54.07
962.443	121.5
962.61	110.45
962.777	137.38
962.944	94.76
963.111	87.98
963.278	84.1
963.446	102.51
963.613	88.36
963.78	97.28
963.947	100.18
964.114	84.49
964.281	152.69
964.448	113.75
964.615	68.6
964.782	87.98
964.949	105.8
965.116	117.43
965.282	134.09
965.449	69.38
965.616	46.52
965.783	136.22
965.95	77.13
966.117	48.07
966.283	80.61
966.45	111.42
966.617	95.53
966.784	133.51
966.95	107.35
967.117	116.85
967.284	71.51
967.45	100.96
967.617	144.36
967.784	101.35
967.95	131.18
968.117	105.61
968.283	138.16
968.45	180.39
968.616	101.93
968.783	108.32
968.949	110.65
969.116	134.67
969.282	114.52
969.449	113.55
969.615	118.01
969.781	74.61
969.948	93.4
970.114	68.6
970.28	150.75
970.447	118.59
970.613	144.94
970.779	93.6
970.945	122.27
971.112	122.46
971.278	112.2
971.444	95.92
971.61	164.51
971.776	98.25
971.942	82.36
972.108	150.95
972.275	129.44
972.441	109.48
972.607	150.17
972.773	76.35
972.939	117.23
973.105	100.76
973.271	61.43
973.437	98.25
973.602	78.1
973.768	107.74
973.934	114.33
974.1	117.23
974.266	20.75
974.432	114.33
974.598	108.9
974.763	88.95
974.929	93.6
975.095	147.85
975.261	67.05
975.426	61.05
975.592	67.25
975.758	160.25
975.923	69.38
976.089	67.63
976.255	117.62
976.42	99.8
976.586	147.07
976.751	103.48
976.917	163.93
977.082	124.21
977.248	44.19
977.413	41.09
977.579	108.51
977.744	92.43
977.91	79.84
978.075	75.77
978.24	98.44
978.406	76.16
978.571	92.24
978.736	69.77
978.902	101.93
979.067	61.82
979.232	51.36
979.397	99.21
979.563	150.36
979.728	65.7
979.893	70.35
980.058	68.99
980.223	134.28
980.388	102.7
980.554	101.93
980.719	73.45
980.884	82.75
981.049	99.02
981.214	76.35
981.379	87.98
981.544	92.43
981.709	102.7
981.874	76.35
982.039	85.26
982.204	122.08
982.368	77.71
982.533	73.25
982.698	115.1
982.863	145.71
983.028	78.48
983.193	109.29
983.357	99.02
983.522	101.15
983.687	87.01
983.852	80.81
984.016	79.07
984.181	73.45
984.346	113.36
984.51	115.1
984.675	72.48
984.839	101.15
985.004	87.59
985.168	131.57
985.333	114.52
985.498	73.45
985.662	89.53
985.827	104.45
985.991	86.43
986.155	94.37
986.32	132.35
986.484	141.45
986.649	102.7
986.813	32.37
986.977	97.28
987.142	108.9
987.306	41.48
987.47	74.61
987.634	93.21
987.799	89.72
987.963	119.17
988.127	103.28
988.291	167.8
988.455	99.6
988.62	77.71
988.784	105.03
988.948	109.68
989.112	75.97
989.276	96.5
989.44	101.73
989.604	75.19
989.768	73.25
989.932	176.91
990.096	54.85
990.26	68.6
990.424	27.33
990.588	85.46
990.752	162.18
990.915	106.58
991.079	82.94
991.243	56.59
991.407	114.33
991.571	104.06
991.734	116.46
991.898	113.55
992.062	149.2
992.226	78.87
992.389	90.5
992.553	17.65
992.717	46.9
992.88	82.36
993.044	105.8
993.207	76.16
993.371	97.47
993.535	93.21
993.698	83.71
993.862	104.06
994.025	100.18
994.189	114.91
994.352	88.75
994.515	125.18
994.679	108.9
994.842	45.35
995.006	115.68
995.169	55.82
995.332	54.27
995.496	89.72
995.659	43.42
995.822	65.7
995.985	72.87
996.149	85.26
996.312	61.24
996.475	132.73
996.638	75.58
996.801	106.58
996.964	139.71
997.128	46.52
997.291	62.79
997.454	97.86
997.617	31.21
997.78	120.91
997.943	57.37
998.106	92.63
998.269	81
998.432	62.6
998.595	83.71
998.758	28.88
998.92	32.37
999.083	7.57
999.246	59.5
999.409	0.02
999.572	15.52
999.735	62.21
999.897	98.05
1000.06	38.38
1000.223	35.86
1000.386	91.27
1000.548	75.38
1000.711	88.56
1000.874	88.17
1001.036	40.12
1001.199	82.94
1001.361	54.85
1001.524	47.29
1001.687	113.55
1001.849	37.02
1002.012	70.15
1002.174	73.45
1002.337	82.94
1002.499	30.05
1002.661	83.33
1002.824	27.33
1002.986	68.6
1003.149	87.59
1003.311	38.96
1003.473	113.75
1003.636	65.7
1003.798	65.31
1003.96	99.21
1004.123	44.19
1004.285	31.6
1004.447	47.87
1004.609	45.16
1004.771	114.71
1004.933	37.02
1005.096	34.89
1005.258	-3.28
1005.42	35.47
1005.582	86.23
1005.744	68.22
1005.906	25.98
1006.068	39.54
1006.23	21.72
1006.392	-1.92
1006.554	20.17
1006.716	73.83
1006.878	64.92
1007.04	3.89
1007.202	33.34
1007.363	76.93
1007.525	78.29
1007.687	44.58
1007.849	86.23
1008.011	30.63
1008.172	37.99
1008.334	46.52
1008.496	66.47
1008.658	35.67
1008.819	10.87
1008.981	9.12
1009.143	4.28
1009.304	40.32
1009.466	73.64
1009.627	110.06
1009.789	118.4
1009.95	41.28
1010.112	26.56
1010.273	37.99
1010.435	35.28
1010.596	44.38
1010.758	43.8
1010.919	42.45
1011.081	31.98
1011.242	33.92
1011.403	77.32
1011.565	56.78
1011.726	54.85
1011.887	5.83
1012.049	45.74
1012.21	80.81
1012.371	110.26
1012.532	-7.54
1012.693	40.9
1012.855	14.55
1013.016	39.54
1013.177	73.45
1013.338	21.33
1013.499	106.58
1013.66	69.77
1013.821	56.98
1013.982	65.12
1014.143	29.27
1014.304	17.26
1014.465	62.4
1014.626	79.65
1014.787	30.63
1014.948	116.07
1015.109	-21.88
1015.27	75.38
1015.431	27.53
1015.592	5.44
1015.752	78.48
1015.913	41.48
1016.074	59.3
1016.235	38.96
1016.395	43.22
1016.556	29.47
1016.717	54.46
1016.877	62.02
1017.038	19.2
1017.199	37.99
1017.359	40.12
1017.52	57.56
1017.681	15.52
1017.841	5.44
1018.002	27.72
1018.162	21.13
1018.323	82.94
1018.483	48.45
1018.644	2.92
1018.804	9.32
1018.964	-2.7
1019.125	20.17
1019.285	30.05
1019.446	14.55
1019.606	13.38
1019.766	-44.35
1019.926	38.77
1020.087	73.06
1020.247	-0.18
1020.407	63.57
1020.567	84.49
1020.728	31.4
1020.888	-1.15
1021.048	26.95
1021.208	25.4
1021.368	23.27
1021.528	57.17
1021.688	95.73
1021.848	40.51
1022.008	43.03
1022.168	11.06
1022.328	20.75
1022.488	52.13
1022.648	32.95
1022.808	36.05
1022.968	55.43
1023.128	8.93
1023.288	11.83
1023.448	15.52
1023.608	56.78
1023.767	30.43
1023.927	6.02
1024.087	3.12
1024.247	-27.5
1024.406	14.93
1024.566	23.27
1024.726	-6.18
1024.885	14.55
1025.045	41.28
1025.205	17.45
1025.364	49.62
1025.524	32.95
1025.683	29.85
1025.843	33.53
1026.003	-0.37
1026.162	75.97
1026.321	44.97
1026.481	33.73
1026.64	3.31
1026.8	34.89
1026.959	40.12
1027.119	28.69
1027.278	43.22
1027.437	-4.25
1027.597	3.12
1027.756	9.32
1027.915	28.11
1028.074	36.63
1028.234	9.12
1028.393	49.81
1028.552	37.6
1028.711	-51.33
1028.87	37.99
1029.03	-11.61
1029.189	25.78
1029.348	-24.01
1029.507	6.41
1029.666	-9.86
1029.825	-4.25
1029.984	-24.98
1030.143	22.1
1030.302	-4.44
1030.461	-13.93
1030.62	41.09
1030.779	40.32
1030.938	25.59
1031.097	-19.55
1031.255	40.7
1031.414	48.07
1031.573	47.29
1031.732	-36.8
1031.891	12.61
1032.049	62.4
1032.208	23.85
1032.367	6.22
1032.525	-2.89
1032.684	22.68
1032.843	1.37
1033.001	-15.1
1033.16	154.05
1033.319	72.67
1033.477	68.02
1033.636	-4.25
1033.794	-34.47
1033.953	36.83
1034.111	37.8
1034.27	34.89
1034.428	38.18
1034.587	15.9
1034.745	18.03
1034.903	13.77
1035.062	22.49
1035.22	-23.81
1035.378	36.83
1035.537	3.31
1035.695	25.59
1035.853	-0.37
1036.011	70.15
1036.17	26.56
1036.328	-45.32
1036.486	16.29
1036.644	25.01
1036.802	-76.51
1036.96	5.83
1037.119	8.54
1037.277	0.02
1037.435	-20.91
1037.593	-3.08
1037.751	-4.05
1037.909	32.18
1038.067	32.18
