Data from gum_young_FLMT105791__67__17-39-25-043.txt Node

Date: Mon Mar 20 17:39:25 GMT 2023
User: antho
Spectrometer: FLMT10579
Trigger mode: 0
Integration Time (sec): 1.000000E-1
Scans to average: 10
Electric dark correction enabled: true
Nonlinearity correction enabled: false
Boxcar width: 0
XAxis mode: Wavelengths
Number of Pixels in Spectrum: 3648
>>>>>Begin Spectral Data<<<<<
345.248	-148.72
345.464	-148.72
345.681	-148.72
345.898	-148.33
346.114	-154.92
346.331	-15.03
346.548	25.46
346.764	20.04
346.981	-16.78
347.197	-59.01
347.414	7.06
347.631	-11.35
347.847	67.5
348.064	14.61
348.28	-6.51
348.497	-35.57
348.713	9.57
348.93	8.41
349.146	7.06
349.363	-22.39
349.579	19.46
349.796	6.47
350.012	-23.36
350.229	15.58
350.445	5.89
350.661	-7.48
350.878	8.02
351.094	16.36
351.311	6.86
351.527	19.26
351.743	-18.71
351.96	32.24
352.176	32.44
352.392	14.03
352.609	15.39
352.825	16.55
353.041	18.49
353.257	20.62
353.474	-4.18
353.69	27.01
353.906	1.24
354.122	-20.26
354.339	18.87
354.555	9.19
354.771	6.86
354.987	36.89
355.203	54.14
355.42	-2.63
355.636	-7.09
355.852	-0.31
356.068	5.12
356.284	-25.11
356.5	30.89
356.716	13.06
356.932	-1.86
357.148	31.27
357.364	16.16
357.58	64.02
357.796	58.01
358.012	32.44
358.228	4.15
358.444	-40.99
358.66	49.29
358.876	23.14
359.092	-6.89
359.308	2.21
359.524	13.64
359.74	7.25
359.956	-19.29
360.172	14.61
360.388	29.72
360.604	-17.94
360.819	88.04
361.035	27.01
361.251	18.87
361.467	-1.66
361.683	32.63
361.898	29.92
362.114	39.99
362.33	40.77
362.546	18.68
362.762	21.78
362.977	38.64
363.193	-11.35
363.409	25.07
363.624	6.28
363.84	11.71
364.056	-13.29
364.271	1.44
364.487	39.02
364.703	-28.01
364.918	-12.13
365.134	-7.28
365.35	3.37
365.565	95.99
365.781	1.24
365.996	15.19
366.212	46.77
366.427	-3.21
366.643	4.15
366.858	12.29
367.074	-15.42
367.289	92.69
367.505	87.65
367.72	-39.25
367.936	3.37
368.151	36.7
368.367	31.27
368.582	31.66
368.798	-1.47
369.013	46
369.228	27.01
369.444	31.86
369.659	70.22
369.874	25.85
370.09	60.14
370.305	-37.51
370.52	10.54
370.736	56.85
370.951	23.72
371.166	57.62
371.381	61.5
371.597	38.06
371.812	-15.23
372.027	9.96
372.242	2.21
372.458	71.57
372.673	-5.54
372.888	18.49
373.103	34.18
373.318	83
373.533	46
373.749	46.58
373.964	-11.93
374.179	60.53
374.394	4.92
374.609	65.57
374.824	-25.11
375.039	45.42
375.254	-9.8
375.469	52.59
375.684	41.93
375.899	64.21
376.114	13.64
376.329	35.73
376.544	31.86
376.759	69.83
376.974	12.29
377.189	1.24
377.404	25.27
377.619	57.04
377.834	-29.18
378.049	-26.08
378.264	-33.63
378.478	29.53
378.693	-18.91
378.908	41.35
379.123	-1.66
379.338	83.78
379.553	15.58
379.767	23.52
379.982	21.2
380.197	41.74
380.412	9.77
380.626	23.72
380.841	82.81
381.056	51.62
381.271	60.72
381.485	2.02
381.7	-6.7
381.915	33.79
382.129	12.09
382.344	37.47
382.559	14.22
382.773	46.39
382.988	-22.78
383.202	25.07
383.417	-17.94
383.632	106.84
383.846	23.14
384.061	17.91
384.275	14.22
384.49	64.4
384.704	42.9
384.919	62.27
385.133	18.1
385.348	28.95
385.562	5.51
385.777	62.85
385.991	25.85
386.206	21.2
386.42	15
386.634	58.01
386.849	46.58
387.063	46.19
387.277	-7.09
387.492	35.15
387.706	10.74
387.92	27.59
388.135	66.34
388.349	26.62
388.563	31.86
388.778	42.9
388.992	65.95
389.206	54.52
389.42	87.85
389.635	47.36
389.849	53.36
390.063	78.35
390.277	30.5
390.491	94.44
390.706	56.27
390.92	66.54
391.134	46.39
391.348	64.79
391.562	-5.15
391.776	39.02
391.99	22.94
392.205	90.17
392.419	24.69
392.633	18.87
392.847	74.67
393.061	20.23
393.275	112.07
393.489	59.17
393.703	32.44
393.917	77
394.131	-10.38
394.345	44.64
394.559	57.04
394.773	38.25
394.986	39.8
395.2	59.37
395.414	75.64
395.628	15.19
395.842	34.57
396.056	34.57
396.27	5.89
396.484	51.62
396.697	57.82
396.911	96.18
397.125	33.02
397.339	95.21
397.553	44.64
397.766	97.15
397.98	74.67
398.194	88.43
398.408	62.27
398.621	64.6
398.835	66.15
399.049	59.17
399.262	86.3
399.476	84.36
399.69	89.79
399.903	117.88
400.117	37.09
400.331	92.11
400.544	45.03
400.758	165.54
400.971	70.99
401.185	114.78
401.398	37.67
401.612	123.3
401.826	94.63
402.039	89.01
402.253	66.34
402.466	73.9
402.68	56.27
402.893	67.89
403.106	73.32
403.32	102.38
403.533	68.86
403.747	103.15
403.96	77.97
404.174	81.84
404.387	65.57
404.6	82.04
404.814	110.13
405.027	77.19
405.24	96.18
405.454	65.76
405.667	103.74
405.88	17.13
406.094	81.84
406.307	122.92
406.52	95.79
406.733	62.66
406.947	52.39
407.16	122.34
407.373	137.84
407.586	57.43
407.799	46.39
408.012	107.42
408.226	92.89
408.439	130.67
408.652	39.22
408.865	97.54
409.078	129.12
409.291	77.77
409.504	62.08
409.717	129.89
409.93	95.6
410.143	70.41
410.357	31.27
410.57	51.62
410.783	70.02
410.996	76.61
411.209	94.63
411.421	131.25
411.634	95.79
411.847	86.3
412.06	93.85
412.273	105.87
412.486	106.25
412.699	178.91
412.912	114.59
413.125	129.31
413.338	105.87
413.55	132.22
413.763	92.3
413.976	117.3
414.189	90.95
414.402	85.33
414.615	137.64
414.827	54.91
415.04	142.87
415.253	137.45
415.466	142.29
415.678	177.94
415.891	116.72
416.104	129.5
416.316	145.2
416.529	73.9
416.742	113.81
416.954	165.54
417.167	140.93
417.38	114.2
417.592	140.55
417.805	79.71
418.017	59.95
418.23	123.89
418.442	97.54
418.655	102.96
418.868	99.86
419.08	148.88
419.293	129.31
419.505	129.89
419.718	132.02
419.93	155.66
420.142	112.26
420.355	164.96
420.567	159.92
420.78	174.45
420.992	116.14
421.205	170
421.417	90.56
421.629	116.91
421.842	78.35
422.054	99.67
422.266	133.96
422.479	141.9
422.691	89.98
422.903	161.28
423.115	135.7
423.328	118.65
423.54	131.83
423.752	137.06
423.964	123.69
424.177	134.74
424.389	106.84
424.601	206.23
424.813	140.55
425.025	160.5
425.238	122.53
425.45	132.8
425.662	119.04
425.874	386.41
426.086	157.21
426.298	172.9
426.51	135.51
426.722	157.98
426.934	126.02
427.146	150.82
427.358	91.14
427.57	171.93
427.782	106.64
427.994	134.15
428.206	114.39
428.418	79.71
428.63	162.05
428.842	165.35
429.054	141.52
429.266	155.85
429.478	117.49
429.69	154.88
429.902	100.44
430.114	155.08
430.325	134.54
430.537	105.09
430.749	127.95
430.961	84.94
431.173	107.61
431.384	165.15
431.596	56.65
431.808	122.72
432.02	139.38
432.231	156.43
432.443	187.24
432.655	138.8
432.867	123.89
433.078	176.58
433.29	204.68
433.502	175.03
433.713	209.91
433.925	166.7
434.136	197.9
434.348	130.47
434.56	101.6
434.771	220.57
434.983	114.2
435.194	116.33
435.406	156.24
435.617	189.18
435.829	214.95
436.04	193.83
436.252	208.55
436.463	204.68
436.675	213.4
436.886	188.98
437.098	168.45
437.309	224.25
437.521	201.97
437.732	214.95
437.943	191.12
438.155	174.45
438.366	154.3
438.578	224.83
438.789	158.95
439	217.08
439.211	189.18
439.423	166.9
439.634	200.03
439.845	187.63
440.057	219.02
440.268	211.46
440.479	190.15
440.69	201.97
440.902	202.74
441.113	168.45
441.324	173.48
441.535	226.96
441.746	278.5
441.957	172.52
442.168	163.8
442.38	219.79
442.591	245.56
442.802	172.13
443.013	185.5
443.224	210.1
443.435	211.27
443.646	213.98
443.857	213.98
444.068	196.73
444.279	182.59
444.49	262.41
444.701	214.56
444.912	305.62
445.123	266.1
445.334	241.88
445.545	205.26
445.756	222.5
445.967	197.9
446.178	207.97
446.388	254.28
446.599	227.35
446.81	276.75
447.021	233.55
447.232	267.65
447.443	281.21
447.653	239.36
447.864	287.8
448.075	232.58
448.286	280.82
448.496	272.49
448.707	265.71
448.918	221.34
449.129	312.79
449.339	238.78
449.55	257.96
449.761	224.63
449.971	311.43
450.182	247.69
450.393	287.41
450.603	233.55
450.814	272.88
451.024	302.71
451.235	322.48
451.446	312.98
451.656	312.21
451.867	238.39
452.077	257.18
452.288	340.3
452.498	335.65
452.709	280.05
452.919	285.28
453.13	246.72
453.34	292.83
453.55	218.05
453.761	292.25
453.971	283.53
454.182	294.77
454.392	254.08
454.602	350.96
454.813	288.96
455.023	305.43
455.233	265.13
455.444	276.36
455.654	225.8
455.864	273.85
456.075	266.87
456.285	269.97
456.495	300.78
456.705	296.51
456.916	329.26
457.126	323.64
457.336	281.4
457.546	237.61
457.756	273.85
457.967	334.1
458.177	275.4
458.387	302.13
458.597	257.76
458.807	279.46
459.017	307.17
459.227	277.14
459.437	292.25
459.647	335.84
459.857	300.97
460.068	280.43
460.278	327.71
460.488	319.96
460.698	366.84
460.908	303.88
461.117	256.41
461.327	271.13
461.537	342.63
461.747	337.98
461.957	326.74
462.167	423.42
462.377	347.47
462.587	291.09
462.797	349.02
463.007	324.03
463.216	363.16
463.426	362.97
463.636	377.89
463.846	271.33
464.056	303.1
464.265	346.5
464.475	301.36
464.685	342.04
464.895	348.83
465.104	313.95
465.314	354.64
465.524	326.93
465.733	321.31
465.943	393.78
466.153	380.6
466.362	363.36
466.572	337.39
466.782	321.51
466.991	354.44
467.201	392.61
467.41	292.25
467.62	362.58
467.829	351.54
468.039	356.96
468.249	345.73
468.458	359.68
468.668	348.24
468.877	374.01
469.086	384.67
469.296	398.23
469.505	333.71
469.715	404.43
469.924	385.44
470.134	390.87
470.343	403.46
470.552	368.2
470.762	382.34
470.971	354.83
471.18	337.78
471.39	393.97
471.599	332.94
471.808	399.39
472.018	356.77
472.227	436.01
472.436	439.11
472.645	379.44
472.855	360.64
473.064	432.91
473.273	383.12
473.482	458.49
473.691	436.21
473.901	443.76
474.11	398.04
474.319	501.11
474.528	402.69
474.737	480.77
474.946	446.28
475.155	445.12
475.364	452.67
475.573	453.26
475.783	449.77
475.992	471.66
476.201	482.71
476.41	435.24
476.619	425.16
476.828	458.1
477.037	428.84
477.245	430.01
477.454	488.52
477.663	439.5
477.872	446.67
478.081	534.24
478.29	433.11
478.499	535.4
478.708	501.89
478.917	528.43
479.125	478.25
479.334	526.1
479.543	510.99
479.752	511.77
479.961	517.58
480.169	521.26
480.378	488.32
480.587	597.98
480.796	557.69
481.004	532.3
481.213	544.12
481.422	531.53
481.63	548.97
481.839	605.15
482.048	594.3
482.256	583.84
482.465	566.21
482.674	611.93
482.882	581.13
483.091	609.22
483.299	563.69
483.508	583.65
483.716	608.25
483.925	561.75
484.134	549.94
484.342	575.7
484.551	628.98
484.759	609.42
484.967	619.88
485.176	622.2
485.384	637.51
485.593	629.57
485.801	635.96
486.01	603.99
486.218	557.3
486.426	509.44
486.635	520.87
486.843	546.45
487.051	547.8
487.26	559.82
487.468	588.68
487.676	605.35
487.885	581.52
488.093	602.83
488.301	622.59
488.509	627.82
488.717	665.02
488.926	619.68
489.134	594.3
489.342	638.48
489.55	618.91
489.758	619.88
489.967	632.28
490.175	740.97
490.383	678
490.591	730.31
490.799	651.27
491.007	736.13
491.215	691.95
491.423	699.51
491.631	692.15
491.839	695.44
492.047	728.57
492.255	652.82
492.463	647.97
492.671	667.15
492.879	717.14
493.087	716.75
493.295	719.08
493.503	731.09
493.711	729.54
493.919	772.55
494.127	743.3
494.334	769.26
494.542	720.05
494.75	748.72
494.958	727.8
495.166	770.81
495.374	789.6
495.581	806.84
495.789	793.67
495.997	842.3
496.205	740.78
496.412	761.51
496.62	797.16
496.828	776.43
497.035	780.3
497.243	800.84
497.451	807.23
497.658	839.59
497.866	776.23
498.074	848.69
498.281	789.79
498.489	849.08
498.696	831.45
498.904	797.74
499.112	779.14
499.319	884.73
499.527	797.93
499.734	867.29
499.942	785.73
500.149	815.76
500.357	800.26
500.564	802.58
500.771	839.59
500.979	826.22
501.186	818.28
501.394	839.01
501.601	843.46
501.808	844.24
502.016	826.03
502.223	827.38
502.43	850.05
502.638	834.74
502.845	817.11
503.052	923.48
503.26	855.86
503.467	943.82
503.674	902.36
503.881	901.59
504.089	946.54
504.296	930.65
504.503	857.8
504.71	911.86
504.917	870.39
505.125	921.74
505.332	943.82
505.539	939.75
505.746	995.36
505.953	994.59
506.16	986.45
506.367	1009.5
506.574	1026.75
506.781	1042.25
506.988	966.49
507.195	982.19
507.402	993.04
507.609	1019.38
507.816	984.51
508.023	984.7
508.23	968.24
508.437	949.44
508.644	1007.95
508.851	1054.07
509.058	1089.72
509.265	1048.06
509.472	1098.82
509.679	1155.59
509.885	1034.5
510.092	1076.93
510.299	1080.8
510.506	1100.56
510.713	1085.65
510.92	1132.15
511.126	1155.2
511.333	1187.36
511.54	1148.23
511.746	1191.63
511.953	1244.33
512.16	1233.67
512.367	1157.53
512.573	1165.47
512.78	1190.08
512.987	1198.79
513.193	1197.44
513.4	1158.11
513.606	1249.36
513.813	1221.27
514.02	1246.46
514.226	1289.27
514.433	1267.19
514.639	1189.11
514.846	1248.98
515.052	1208.87
515.259	1242.58
515.465	1285.21
515.672	1259.05
515.878	1379.75
516.085	1293.73
516.291	1355.15
516.497	1317.56
516.704	1289.08
516.91	1203.25
517.117	1227.86
517.323	1182.52
517.529	1194.92
517.736	1225.53
517.942	1258.86
518.148	1251.11
518.354	1318.53
518.561	1326.86
518.767	1299.74
518.973	1354.57
519.179	1360.19
519.386	1371.42
519.592	1359.99
519.798	1418.7
520.004	1487.48
520.21	1458.03
520.417	1510.92
520.623	1546.57
520.829	1570.6
521.035	1544.83
521.241	1542.31
521.447	1600.43
521.653	1657.59
521.859	1600.82
522.065	1631.63
522.271	1691.11
522.477	1653.13
522.683	1709.71
522.889	1674.44
523.095	1691.3
523.301	1677.74
523.507	1633.76
523.713	1669.41
523.919	1669.02
524.125	1773.26
524.331	1729.08
524.537	1792.82
524.742	1826.73
524.948	1852.3
525.154	1835.84
525.36	1936.58
525.566	1797.47
525.772	1911.2
525.977	1807.74
526.183	1889.12
526.389	1879.04
526.595	1790.11
526.8	1790.89
527.006	1730.63
527.212	1718.04
527.417	1675.61
527.623	1716.49
527.829	1785.46
528.034	1845.72
528.24	1829.25
528.446	1858.31
528.651	1934.45
528.857	1951.5
529.062	2011.76
529.268	1985.6
529.473	2022.41
529.679	2022.8
529.884	2068.33
530.09	2076.47
530.295	2088.09
530.501	2069.88
530.706	2061.74
530.912	2030.55
531.117	2074.14
531.323	2069.49
531.528	2100.3
531.733	2123.94
531.939	2077.24
532.144	2129.56
532.35	2130.53
532.555	2140.6
532.76	2111.93
532.966	2084.41
533.171	2083.64
533.376	2057.87
533.581	2025.9
533.787	2085.96
533.992	2136.73
534.197	2139.63
534.402	2121.81
534.607	2141.18
534.813	2236.5
535.018	2119.68
535.223	2191.75
535.428	2191.17
535.633	2278.55
535.838	2272.74
536.043	2252.97
536.249	2325.24
536.454	2253.75
536.659	2265.18
536.864	2259.17
537.069	2258.2
537.274	2263.63
537.479	2271.57
537.684	2244.45
537.889	2246.97
538.094	2347.13
538.299	2227.4
538.504	2314.39
538.708	2299.28
538.913	2352.75
539.118	2318.27
539.323	2324.66
539.528	2282.62
539.733	2311.29
539.938	2301.41
540.142	2321.56
540.347	2265.37
540.552	2283.39
540.757	2246.58
540.962	2276.22
541.166	2207.83
541.371	2232.24
541.576	2241.93
541.781	2164.62
541.985	2336.67
542.19	2252.78
542.395	2381.62
542.599	2402.55
542.804	2401.38
543.008	2390.15
543.213	2313.62
543.418	2267.89
543.622	2373.87
543.827	2292.69
544.031	2367.28
544.236	2403.71
544.44	2393.63
544.645	2483.34
544.849	2366.32
545.054	2441.49
545.258	2503.49
545.463	2472.3
545.667	2363.8
545.872	2440.13
546.076	2463.19
546.281	2429.09
546.485	2405.07
546.689	2440.52
546.894	2487.41
547.098	2480.05
547.302	2453.11
547.507	2427.35
547.711	2506.98
547.915	2522.48
548.119	2414.17
548.324	2430.45
548.528	2462.41
548.732	2447.5
548.936	2493.8
549.141	2487.99
549.345	2456.21
549.549	2501.16
549.753	2492.45
549.957	2513.18
550.161	2555.8
550.366	2518.21
550.57	2492.64
550.774	2514.34
550.978	2469.39
551.182	2542.24
551.386	2492.25
551.59	2525.58
551.794	2529.45
551.998	2512.98
552.202	2500
552.406	2439.75
552.61	2536.62
552.814	2520.93
553.018	2596.29
553.222	2485.47
553.426	2497.29
553.63	2583.51
553.833	2505.04
554.037	2438.97
554.241	2511.63
554.445	2532.36
554.649	2512.98
554.853	2478.3
555.056	2564.13
555.26	2573.43
555.464	2534.68
555.668	2560.26
555.871	2566.46
556.075	2554.83
556.279	2471.13
556.483	2490.31
556.686	2509.88
556.89	2508.53
557.094	2469.58
557.297	2418.43
557.501	2483.53
557.704	2409.13
557.908	2475.01
558.112	2417.27
558.315	2502.71
558.519	2393.83
558.722	2369.03
558.926	2387.63
559.129	2318.07
559.333	2329.31
559.536	2358.76
559.74	2325.82
559.943	2283
560.147	2312.65
560.35	2289.79
560.553	2359.53
560.757	2271.96
560.96	2399.64
561.164	2370.38
561.367	2438.78
561.57	2382.98
561.774	2392.08
561.977	2360.12
562.18	2264.99
562.384	2371.55
562.587	2335.9
562.79	2316.33
562.993	2256.65
563.197	2345.78
563.4	2372.71
563.603	2383.75
563.806	2399.64
564.009	2311.29
564.212	2308
564.416	2256.27
564.619	2290.95
564.822	2240.57
565.025	2284.17
565.228	2223.91
565.431	2256.65
565.634	2195.24
565.837	2204.34
566.04	2194.85
566.243	2151.06
566.446	2109.6
566.649	2159.78
566.852	2074.73
567.055	2155.52
567.258	2140.79
567.461	2179.93
567.664	2232.24
567.867	2121.03
568.07	2176.64
568.273	2151.84
568.475	2158.23
568.678	2094.68
568.881	2106.11
569.084	2096.62
569.287	2004.59
569.489	2012.34
569.692	2100.3
569.895	2082.67
570.098	2004.78
570.3	2029.58
570.503	1936.97
570.706	1953.44
570.909	1921.86
571.111	1907.91
571.314	1860.83
571.516	1919.15
571.719	1942.98
571.922	1907.52
572.124	1915.47
572.327	1963.13
572.529	1822.27
572.732	1911.78
572.935	1930.58
573.137	1976.88
573.34	1866.25
573.542	1955.77
573.745	1922.63
573.947	1903.84
574.15	1886.21
574.352	1867.61
574.554	1930.77
574.757	1857.54
574.959	1809.68
575.162	1839.32
575.364	1796.89
575.566	1881.75
575.769	1777.52
575.971	1836.42
576.173	1707.19
576.376	1785.07
576.578	1799.41
576.78	1851.14
576.982	1705.44
577.185	1756.79
577.387	1702.34
577.589	1736.44
577.791	1754.85
577.993	1763.57
578.196	1713.58
578.398	1760.08
578.6	1737.02
578.802	1721.33
579.004	1685.88
579.206	1700.41
579.408	1725.01
579.61	1716.68
579.812	1775.77
580.014	1724.82
580.216	1695.95
580.418	1720.17
580.62	1698.28
580.822	1702.93
581.024	1726.17
581.226	1723.85
581.428	1750.2
581.63	1785.27
581.832	1699.24
582.034	1780.62
582.236	1720.94
582.438	1761.24
582.64	1793.02
582.841	1803.29
583.043	1807.55
583.245	1768.99
583.447	1779.65
583.649	1720.36
583.85	1727.34
584.052	1780.42
584.254	1724.24
584.456	1752.52
584.657	1668.83
584.859	1743.61
585.061	1674.64
585.262	1714.36
585.464	1678.9
585.666	1705.44
585.867	1660.49
586.069	1726.56
586.27	1709.51
586.472	1718.81
586.674	1654.29
586.875	1659.72
587.077	1628.33
587.278	1695.18
587.48	1626.59
587.681	1748.07
587.883	1646.16
588.084	1593.46
588.285	1617.68
588.487	1579.9
588.688	1586.48
588.89	1522.93
589.091	1499.3
589.292	1478.76
589.494	1448.92
589.695	1423.54
589.896	1349.34
590.098	1371.23
590.299	1413.27
590.5	1407.07
590.702	1466.17
590.903	1446.79
591.104	1503.75
591.305	1499.49
591.507	1572.34
591.708	1510.73
591.909	1501.04
592.11	1556.65
592.311	1533.98
592.512	1519.64
592.714	1464.62
592.915	1469.07
593.116	1472.56
593.317	1500.27
593.518	1495.42
593.719	1512.47
593.92	1526.81
594.121	1521.58
594.322	1495.03
594.523	1480.12
594.724	1433.62
594.925	1461.32
595.126	1507.82
595.327	1477.02
595.528	1471.98
595.729	1488.06
595.929	1474.88
596.13	1471.01
596.331	1484.57
596.532	1503.37
596.733	1552
596.934	1527.97
597.135	1503.37
597.335	1528.55
597.536	1461.52
597.737	1494.26
597.938	1491.16
598.138	1498.52
598.339	1480.89
598.54	1497.94
598.74	1460.55
598.941	1483.99
599.142	1526.42
599.342	1509.37
599.543	1481.67
599.744	1448.15
599.944	1470.04
600.145	1495.03
600.345	1502.2
600.546	1556.45
600.746	1529.91
600.947	1544.83
601.147	1498.13
601.348	1504.72
601.548	1460.16
601.749	1502.59
601.949	1442.92
602.15	1458.8
602.35	1449.5
602.551	1494.84
602.751	1433.23
602.951	1453.77
603.152	1390.8
603.352	1467.52
603.552	1469.27
603.753	1453.18
603.953	1519.83
604.153	1490.77
604.354	1454.93
604.554	1446.79
604.754	1463.07
604.954	1424.51
605.155	1471.01
605.355	1434.59
605.555	1504.53
605.755	1481.47
605.955	1424.32
606.155	1509.95
606.356	1464.23
606.556	1480.89
606.756	1447.37
606.956	1399.71
607.156	1533.01
607.356	1383.44
607.556	1437.1
607.756	1446.79
607.956	1487.67
608.156	1449.7
608.356	1414.82
608.556	1494.45
608.756	1422.38
608.956	1409.98
609.156	1409.98
609.356	1365.8
609.556	1428.19
609.755	1401.84
609.955	1390.6
610.155	1422.57
610.355	1396.8
610.555	1353.21
610.755	1380.92
610.954	1335.77
611.154	1400.68
611.354	1408.82
611.554	1356.51
611.753	1385.37
611.953	1320.86
612.153	1384.02
612.352	1373.75
612.552	1314.27
612.752	1284.82
612.951	1360.38
613.151	1384.4
613.351	1315.04
613.55	1321.44
613.75	1325.7
613.949	1307.49
614.149	1319.5
614.348	1307.49
614.548	1297.99
614.747	1232.7
614.947	1279.01
615.146	1247.62
615.346	1340.62
615.545	1300.32
615.745	1330.35
615.944	1292.57
616.144	1274.36
616.343	1324.15
616.542	1246.26
616.742	1253.24
616.941	1225.73
617.14	1219.53
617.34	1213.91
617.539	1228.83
617.738	1247.43
617.938	1302.64
618.137	1225.53
618.336	1210.42
618.535	1249.75
618.734	1247.04
618.934	1251.88
619.133	1226.89
619.332	1270.87
619.531	1180.78
619.73	1215.84
619.929	1252.46
620.128	1279.78
620.328	1291.6
620.527	1204.8
620.726	1202.48
620.925	1247.62
621.124	1233.28
621.323	1221.46
621.522	1187.75
621.721	1204.61
621.92	1181.55
622.119	1204.8
622.318	1145.13
622.517	1180.97
622.715	1185.23
622.914	1148.03
623.113	1193.37
623.312	1126.53
623.511	1179.61
623.71	1162.37
623.909	1154.62
624.107	1201.12
624.306	1115.87
624.505	1127.11
624.704	1137.18
624.902	1135.05
625.101	1165.86
625.3	1143
625.499	1099.98
625.697	1108.31
625.896	1087.2
626.095	1138.93
626.293	1102.89
626.492	1143.96
626.69	1151.52
626.889	1100.37
627.088	1163.92
627.286	1098.82
627.485	1067.24
627.683	1091.85
627.882	1095.33
628.08	1024.62
628.279	1012.8
628.477	1129.05
628.676	1014.93
628.874	1037.4
629.073	1034.69
629.271	1032.56
629.469	1083.13
629.668	1021.52
629.866	1072.08
630.065	1015.12
630.263	1094.37
630.461	1027.91
630.66	1106.76
630.858	1055.81
631.056	1102.7
631.254	1121.3
631.453	1027.13
631.651	1091.65
631.849	1070.53
632.047	1078.48
632.245	1038.57
632.444	1051.35
632.642	1084.68
632.84	1116.06
633.038	1024.62
633.236	1047.28
633.434	1024.03
633.632	1034.88
633.83	1042.05
634.028	1083.9
634.227	1087.39
634.425	1125.56
634.623	1037.02
634.821	1088.55
635.019	1041.47
635.216	1050.38
635.414	1109.86
635.612	1075.18
635.81	1061.04
636.008	1122.07
636.206	1036.63
636.404	1062.01
636.602	1022.68
636.8	1059.68
636.997	1081.97
637.195	1093.98
637.393	1018.8
637.591	1117.81
637.789	1050.77
637.986	1020.16
638.184	1049.61
638.382	1098.05
638.58	1060.07
638.777	1119.36
638.975	1055.23
639.173	1061.43
639.37	1059.88
639.568	1046.9
639.765	1048.25
639.963	1044.38
640.161	1055.42
640.358	1043.8
640.556	989.16
640.753	988.39
640.951	970.95
641.148	1035.66
641.346	1003.11
641.543	992.45
641.741	1023.65
641.938	951.96
642.136	993.81
642.333	941.5
642.531	1018.03
642.728	1036.24
642.925	983.54
643.123	951.77
643.32	989.94
643.517	961.26
643.715	965.52
643.912	932.2
644.109	944.4
644.306	942.47
644.504	899.46
644.701	974.82
644.898	975.99
645.095	914.18
645.293	942.47
645.49	939.37
645.687	893.26
645.884	960.49
646.081	840.94
646.278	876.59
646.475	884.15
646.672	877.37
646.87	907.01
647.067	886.47
647.264	862.06
647.461	822.34
647.658	816.73
647.855	895.39
648.052	851.21
648.249	786.31
648.446	812.46
648.642	787.66
648.839	785.34
649.036	797.74
649.233	769.45
649.43	777.78
649.627	770.23
649.824	795.8
650.021	770.81
650.217	790.38
650.414	787.47
650.611	833.58
650.808	842.11
651.004	822.34
651.201	826.03
651.398	863.42
651.595	811.3
651.791	783.4
651.988	828.16
652.185	773.13
652.381	797.35
652.578	766.35
652.775	815.76
652.971	789.79
653.168	779.53
653.364	834.74
653.561	750.27
653.757	827.19
653.954	767.71
654.15	774.29
654.347	855.67
654.543	783.59
654.74	741.94
654.936	742.91
655.133	739.23
655.329	781.27
655.525	735.35
655.722	779.72
655.918	710.55
656.115	762.67
656.311	675.87
656.507	650.88
656.704	616.97
656.9	671.03
657.096	672.77
657.292	642.74
657.489	736.32
657.685	718.88
657.881	674.32
658.077	690.6
658.273	750.66
658.47	776.62
658.666	699.31
658.862	732.45
659.058	698.15
659.254	761.89
659.45	701.64
659.646	757.05
659.842	709
660.038	755.11
660.234	698.15
660.43	719.08
660.626	811.88
660.822	729.35
661.018	766.16
661.214	739.61
661.41	652.43
661.606	732.64
661.802	741.94
661.998	712.68
662.194	669.09
662.39	724.31
662.586	692.92
662.781	729.35
662.977	709
663.173	721.21
663.369	705.9
663.564	714.43
663.76	737.29
663.956	671.61
664.152	734.96
664.347	631.7
664.543	662.7
664.739	676.26
664.934	634.99
665.13	631.12
665.326	686.14
665.521	670.25
665.717	622.59
665.912	616.78
666.108	620.07
666.304	641.97
666.499	641.77
666.695	579.19
666.89	646.42
667.086	680.33
667.281	665.99
667.477	693.31
667.672	636.15
667.867	632.47
668.063	622.59
668.258	583.84
668.454	631.31
668.649	699.7
668.844	638.28
669.04	653.59
669.235	608.25
669.43	616.78
669.626	578.03
669.821	618.52
670.016	597.98
670.211	637.51
670.407	574.15
670.602	619.68
670.797	591.98
670.992	666.38
671.187	579.19
671.382	644.29
671.578	592.17
671.773	623.56
671.968	553.42
672.163	607.87
672.358	612.13
672.553	616.2
672.748	609.61
672.943	664.25
673.138	590.82
673.333	648.94
673.528	589.07
673.723	616.39
673.918	618.13
674.113	572.6
674.308	662.89
674.503	626.47
674.698	598.57
674.892	613.48
675.087	631.5
675.282	618.13
675.477	564.85
675.672	606.51
675.867	587.72
676.061	539.67
676.256	547.03
676.451	594.69
676.646	607.48
676.84	586.36
677.035	543.93
677.23	556.72
677.424	612.13
677.619	598.57
677.814	618.52
678.008	604.57
678.203	519.9
678.397	572.6
678.592	579.77
678.787	651.27
678.981	580.55
679.176	602.05
679.37	570.09
679.565	546.25
679.759	581.52
679.954	587.72
680.148	623.37
680.342	615.81
680.537	612.9
680.731	566.6
680.926	618.52
681.12	611.74
681.314	592.95
681.509	593.33
681.703	605.15
681.897	615.42
682.092	573.77
682.286	576.48
682.48	676.26
682.674	613.68
682.869	572.41
683.063	612.71
683.257	637.7
683.451	557.88
683.645	623.75
683.839	565.24
684.034	581.71
684.228	649.33
684.422	582.87
684.616	585.78
684.81	624.72
685.004	638.09
685.198	575.12
685.392	670.06
685.586	603.8
685.78	610
685.974	665.41
686.168	635.57
686.362	652.82
686.556	569.31
686.75	575.12
686.944	534.82
687.138	557.49
687.331	483.67
687.525	488.32
687.719	453.26
687.913	474.57
688.107	490.65
688.301	491.62
688.494	535.6
688.688	487.74
688.882	494.33
689.076	489.29
689.269	517.19
689.463	574.54
689.657	547.22
689.85	525.72
690.044	575.9
690.238	562.72
690.431	558.07
690.625	559.43
690.818	627.05
691.012	630.53
691.205	660.18
691.399	620.65
691.593	662.31
691.786	752.21
691.98	733.61
692.173	793.48
692.366	766.93
692.56	771.19
692.753	839.2
692.947	755.11
693.14	856.06
693.333	816.73
693.527	801.81
693.72	805.68
693.914	838.81
694.107	824.67
694.3	880.27
694.493	859.93
694.687	893.06
694.88	891.51
695.073	954.09
695.266	926.19
695.46	926.19
695.653	988.77
695.846	964.94
696.039	965.52
696.232	987.22
696.425	1037.98
696.618	1063.37
696.812	1052.9
697.005	1135.83
697.198	1184.07
697.391	1130.79
697.584	1187.75
697.777	1238.71
697.97	1233.09
698.163	1233.48
698.356	1225.34
698.549	1309.62
698.742	1274.36
698.935	1236.38
699.127	1279.59
699.32	1304.39
699.513	1285.21
699.706	1312.72
699.899	1349.53
700.092	1330.74
700.285	1358.06
700.477	1333.84
700.67	1365.8
700.863	1385.95
701.056	1448.73
701.248	1450.28
701.441	1466.94
701.634	1455.51
701.826	1539.98
702.019	1439.62
702.212	1503.56
702.404	1467.13
702.597	1450.28
702.79	1514.22
702.982	1548.31
703.175	1610.31
703.367	1634.73
703.56	1679.29
703.752	1737.99
703.945	1678.13
704.137	1694.01
704.33	1731.21
704.522	1742.26
704.715	1754.46
704.907	1779.26
705.1	1858.12
705.292	1830.41
705.484	1819.37
705.677	1863.54
705.869	1886.98
706.061	1911.01
706.254	1976.88
706.446	1925.54
706.638	1937.94
706.831	2019.51
707.023	1984.25
707.215	2062.13
707.407	2060.39
707.599	2089.45
707.792	2133.24
707.984	2114.44
708.176	2134.79
708.368	2078.21
708.56	2133.04
708.752	2118.71
708.944	2155.71
709.136	2190.2
709.329	2177.8
709.521	2283.59
709.713	2262.47
709.905	2244.45
710.097	2340.55
710.289	2222.17
710.481	2286.49
710.672	2312.07
710.864	2327.57
711.056	2377.36
711.248	2369.8
711.44	2385.3
711.632	2386.85
711.824	2414.36
712.016	2482.18
712.207	2499.23
712.399	2479.66
712.591	2530.81
712.783	2506.78
712.975	2503.88
713.166	2509.88
713.358	2579.83
713.55	2572.85
713.741	2578.08
713.933	2589.9
714.125	2571.49
714.316	2531.58
714.508	2648.22
714.7	2647.25
714.891	2628.65
715.083	2671.08
715.274	2606.17
715.466	2643.96
715.657	2675.73
715.849	2598.42
716.04	2640.08
716.232	2564.52
716.423	2626.52
716.615	2539.14
716.806	2486.44
716.998	2357.4
717.189	2285.72
717.381	2240.96
717.572	2183.81
717.763	2220.04
717.955	2165.01
718.146	2139.44
718.337	2060.2
718.528	2031.71
718.72	1960.22
718.911	2020.28
719.102	1961.38
719.293	2016.99
719.485	1968.94
719.676	1955.96
719.867	1938.72
720.058	1884.08
720.249	1936.39
720.44	1958.09
720.632	2005.56
720.823	2090.81
721.014	2227.21
721.205	2253.55
721.396	2333.18
721.587	2412.43
721.778	2491.67
721.969	2531.39
722.16	2628.84
722.351	2642.6
722.542	2746.06
722.733	2777.64
722.924	2679.02
723.115	2701.69
723.305	2677.86
723.496	2690.65
723.687	2535.65
723.878	2532.36
724.069	2533.13
724.26	2559.48
724.45	2462.03
724.641	2499.81
724.832	2501.94
725.023	2474.43
725.213	2474.81
725.404	2456.8
725.595	2431.8
725.785	2469.97
725.976	2479.08
726.167	2509.3
726.357	2488.38
726.548	2608.11
726.739	2529.26
726.929	2610.63
727.12	2648.99
727.31	2642.21
727.501	2567.43
727.691	2582.73
727.882	2596.1
728.072	2668.95
728.263	2639.5
728.453	2742.57
728.644	2717.77
728.834	2726.49
729.024	2668.56
729.215	2632.72
729.405	2703.05
729.596	2763.88
729.786	2766.79
729.976	2810.38
730.167	2811.93
730.357	2790.43
730.547	2782.1
730.737	2805.93
730.928	2841.77
731.118	2867.35
731.308	2844.48
731.498	2811.16
731.688	2959.18
731.879	2931.86
732.069	3018.66
732.259	3069.81
732.449	3099.07
732.639	3164.75
732.829	3207.76
733.019	3223.45
733.209	3318.58
733.399	3326.14
733.589	3390.85
733.779	3425.92
733.969	3443.74
734.159	3539.46
734.349	3551.08
734.539	3604.94
734.729	3609.2
734.919	3632.65
735.109	3695.03
735.299	3599.52
735.488	3628
735.678	3678.57
735.868	3668.1
736.058	3648.92
736.248	3631.87
736.437	3566
736.627	3597
736.817	3726.23
737.007	3682.05
737.196	3706.47
737.386	3708.79
737.576	3686.9
737.765	3742.89
737.955	3696
738.144	3839.18
738.334	3817.87
738.524	3742.89
738.713	3819.23
738.903	3760.33
739.092	3818.26
739.282	3825.23
739.471	3786.68
739.661	3795.98
739.85	3863.21
740.04	3881.61
740.229	3941.29
740.419	3933.73
740.608	3942.26
740.797	3924.62
740.987	3975.58
741.176	4011.62
741.365	3937.99
741.555	3909.12
741.744	3969.38
741.933	3923.46
742.123	3966.09
742.312	4030.8
742.501	3979.84
742.69	4042.81
742.88	3971.71
743.069	4079.82
743.258	4039.52
743.447	4108.49
743.636	4071.1
743.825	4067.8
744.014	4114.5
744.204	4180.76
744.393	4012.97
744.582	4138.52
744.771	4138.33
744.96	4129.61
745.149	4121.86
745.338	4070.71
745.527	4176.3
745.716	4117.02
745.905	4123.02
746.094	4173.98
746.283	4170.3
746.471	4097.25
746.66	4215.05
746.849	4155.96
747.038	4203.43
747.227	4146.27
747.416	4184.05
747.604	4109.85
747.793	4109.27
747.982	4193.16
748.171	4209.24
748.359	4178.82
748.548	4151.12
748.737	4157.51
748.926	4147.63
749.114	4044.36
749.303	4151.7
749.491	4130.19
749.68	4074.39
749.869	4137.55
750.057	4129.22
750.246	4074.58
750.434	4081.75
750.623	4075.55
750.811	4076.52
751	4101.71
751.188	4074.58
751.377	4092.22
751.565	4085.63
751.754	4043
751.942	4025.18
752.131	4155.77
752.319	4046.1
752.507	3998.83
752.696	4075.94
752.884	4085.24
753.072	4014.33
753.261	4064.32
753.449	4050.56
753.637	3999.41
753.825	4104.62
754.014	4006.97
754.202	4028.28
754.39	4072.45
754.578	4064.51
754.766	4009.29
754.955	3970.74
755.143	4098.42
755.331	4022.08
755.519	4040.68
755.707	4031.38
755.895	4014.33
756.083	4021.11
756.271	3922.69
756.459	3987.79
756.647	4005.22
756.835	3977.71
757.023	3940.51
757.211	3921.91
757.399	3943.61
757.587	3911.64
757.775	3891.49
757.963	3865.34
758.151	3905.83
758.339	3826.78
758.526	3835.11
758.714	3890.33
758.902	3710.34
759.09	3590.02
759.278	3412.55
759.465	3138.79
759.653	2686
759.841	2431.22
760.028	2102.63
760.216	1815.69
760.404	1674.64
760.591	1384.4
760.779	1169.54
760.967	1009.12
761.154	802.19
761.342	834.36
761.529	839.01
761.717	900.42
761.905	857.41
762.092	984.7
762.28	861.87
762.467	880.47
762.655	804.52
762.842	816.53
763.029	882.21
763.217	822.54
763.404	811.49
763.592	845.98
763.779	832.81
763.966	879.5
764.154	894.42
764.341	968.04
764.528	981.8
764.716	1041.47
764.903	1130.21
765.09	1200.73
765.277	1258.47
765.465	1424.9
765.652	1517.12
765.839	1565.75
766.026	1766.47
766.213	1800.38
766.4	1915.27
766.588	2095.84
766.775	2139.83
766.962	2327.37
767.149	2385.3
767.336	2538.75
767.523	2514.53
767.71	2642.6
767.897	2806.51
768.084	2935.93
768.271	2965.58
768.458	3035.71
768.645	3105.46
768.832	3095.19
769.019	3126.19
769.206	3146.92
769.392	3248.83
769.579	3315.68
769.766	3308.7
769.953	3305.8
770.14	3349
770.327	3393.37
770.513	3416.62
770.7	3504.58
770.887	3373.99
771.073	3503.22
771.26	3461.96
771.447	3425.73
771.634	3432.51
771.82	3539.46
772.007	3441.42
772.193	3467.19
772.38	3462.15
772.567	3468.74
772.753	3461.37
772.94	3524.92
773.126	3489.27
773.313	3512.72
773.499	3446.65
773.686	3462.73
773.872	3438.9
774.059	3474.74
774.245	3414.29
774.432	3414.49
774.618	3343.77
774.804	3418.75
774.991	3341.45
775.177	3440.84
775.363	3422.82
775.55	3460.6
775.736	3383.1
775.922	3433.67
776.109	3385.04
776.295	3395.5
776.481	3455.56
776.667	3422.24
776.853	3407.71
777.04	3363.15
777.226	3413.91
777.412	3426.11
777.598	3304.25
777.784	3352.1
777.97	3330.79
778.156	3346.68
778.342	3321.68
778.528	3314.32
778.715	3308.9
778.901	3309.48
779.087	3301.34
779.272	3317.23
779.458	3298.24
779.644	3316.06
779.83	3246.51
780.016	3333.7
780.202	3277.12
780.388	3272.86
780.574	3197.49
780.76	3250
780.946	3285.45
781.131	3220.74
781.317	3175.4
781.503	3204.85
781.689	3182.19
781.874	3323.04
782.06	3155.84
782.246	3163
782.432	3176.95
782.617	3214.15
782.803	3264.14
782.989	3110.3
783.174	3174.24
783.36	3100.62
783.545	3114.37
783.731	3114.76
783.916	3065.36
784.102	3162.62
784.288	3080.08
784.473	3095
784.659	3055.28
784.844	3122.51
785.029	3067.29
785.215	3049.27
785.4	3017.69
785.586	3092.29
785.771	3001.03
785.956	3055.86
786.142	3010.72
786.327	3033.97
786.512	2998.13
786.698	3000.64
786.883	2931.86
787.068	2952.01
787.254	2998.9
787.439	2918.3
787.624	2932.83
787.809	2890.98
787.994	2929.15
788.18	2975.07
788.365	2878.58
788.55	2859.21
788.735	2878.39
788.92	2876.26
789.105	2822.4
789.29	2840.22
789.475	2781.32
789.66	2823.56
789.845	2770.08
790.03	2799.15
790.215	2847.2
790.4	2820.65
790.585	2844.68
790.77	2822.59
790.955	2742.19
791.14	2776.87
791.325	2813.87
791.51	2691.23
791.695	2750.32
791.879	2782.48
792.064	2701.69
792.249	2805.54
792.434	2735.4
792.618	2777.45
792.803	2772.41
792.988	2746.64
793.173	2764.85
793.357	2810.77
793.542	2720.29
793.727	2745.09
793.911	2800.12
794.096	2803.99
794.281	2834.22
794.465	2858.05
794.65	2782.1
794.834	2842.16
795.019	2836.73
795.203	2839.64
795.388	2834.02
795.572	2855.72
795.757	2833.25
795.941	2790.04
796.126	2794.69
796.31	2759.62
796.494	2771.25
796.679	2721.65
796.863	2765.82
797.048	2836.54
797.232	2789.46
797.416	2797.02
797.601	2722.23
797.785	2847.78
797.969	2890.6
798.153	2801.67
798.338	2847
798.522	2839.83
798.706	2874.71
798.89	2883.62
799.074	2962.09
799.258	2881.3
799.443	2849.71
799.627	2875.68
799.811	2866.18
799.995	2823.95
800.179	2808.45
800.363	2806.32
800.547	2860.76
800.731	2850.3
800.915	2787.33
801.099	2815.03
801.283	2802.05
801.467	2793.72
801.651	2814.07
801.835	2832.86
802.019	2836.35
802.202	2823.37
802.386	2735.79
802.57	2753.23
802.754	2813.87
802.938	2739.09
803.121	2767.37
803.305	2806.7
803.489	2762.33
803.673	2784.62
803.856	2805.93
804.04	2782.1
804.224	2841
804.407	2780.93
804.591	2723.39
804.775	2759.82
804.958	2816.39
805.142	2933.8
805.326	2796.43
805.509	2815.03
805.693	2846.42
805.876	2837.51
806.06	2845.84
806.243	2870.25
806.427	2901.83
806.61	2898.73
806.794	2833.63
806.977	2875.1
807.16	2879.36
807.344	2868.12
807.527	2818.33
807.71	2837.9
807.894	2852.43
808.077	2860.56
808.26	2796.82
808.444	2790.23
808.627	2829.37
808.81	2754.59
808.993	2750.71
809.177	2695.1
809.36	2730.17
809.543	2765.43
809.726	2656.16
809.909	2695.49
810.092	2684.06
810.276	2661.97
810.459	2630.78
810.642	2657.71
810.825	2611.6
811.008	2626.52
811.191	2507.17
811.374	2545.53
811.557	2512.79
811.74	2568.01
811.923	2467.45
812.106	2451.37
812.289	2411.85
812.472	2464.35
812.654	2401.58
812.837	2394.8
813.02	2349.07
813.203	2313.62
813.386	2182.45
813.569	2170.82
813.751	2091.58
813.934	2140.02
814.117	2103.01
814.3	2062.71
814.482	2040.63
814.665	2004.2
814.848	1918.95
815.03	1903.84
815.213	1900.93
815.396	1840.1
815.578	1823.82
815.761	1785.27
815.943	1864.51
816.126	1736.25
816.309	1726.37
816.491	1692.66
816.674	1593.65
816.856	1671.34
817.039	1656.43
817.221	1750.01
817.403	1689.17
817.586	1660.49
817.768	1696.14
817.951	1626.2
818.133	1635.31
818.315	1671.54
818.498	1687.43
818.68	1737.22
818.862	1730.24
819.045	1760.47
819.227	1733.15
819.409	1681.23
819.591	1776.94
819.774	1716.87
819.956	1712.03
820.138	1788.76
820.32	1802.7
820.502	1855.6
820.684	1895.32
820.866	1889.5
821.048	1989.28
821.231	2007.11
821.413	1970.1
821.595	1986.18
821.777	1967.78
821.959	1947.05
822.141	1979.4
822.323	1854.82
822.505	1810.45
822.686	1755.82
822.868	1660.3
823.05	1549.48
823.232	1507.24
823.414	1467.72
823.596	1530.1
823.778	1492.71
823.96	1556.06
824.141	1557.23
824.323	1570.4
824.505	1689.36
824.687	1718.62
824.868	1796.89
825.05	1875.55
825.232	1891.63
825.413	1988.7
825.595	1916.63
825.777	1857.54
825.958	1930.77
826.14	1869.94
826.321	1919.15
826.503	1920.31
826.685	1919.73
826.866	1963.13
827.048	1946.66
827.229	1861.8
827.411	1849.59
827.592	1775.97
827.773	1773.45
827.955	1739.54
828.136	1737.99
828.318	1717.26
828.499	1735.67
828.68	1673.48
828.862	1703.31
829.043	1735.86
829.224	1693.24
829.406	1682.97
829.587	1678.71
829.768	1648.48
829.949	1710.68
830.131	1721.14
830.312	1743.03
830.493	1695.37
830.674	1744
830.855	1685.49
831.036	1756.21
831.218	1778.1
831.399	1802.7
831.58	1716.1
831.761	1738.77
831.942	1750.39
832.123	1703.12
832.304	1688.39
832.485	1636.86
832.666	1721.52
832.847	1745.74
833.028	1738.96
833.209	1729.86
833.389	1722.69
833.57	1640.93
833.751	1694.79
833.932	1721.14
834.113	1716.49
834.294	1698.08
834.475	1735.86
834.655	1793.02
834.836	1780.04
835.017	1780.23
835.198	1733.34
835.378	1752.52
835.559	1830.41
835.74	1742.84
835.92	1744.97
836.101	1748.65
836.281	1786.04
836.462	1760.47
836.643	1785.85
836.823	1820.53
837.004	1816.07
837.184	1816.85
837.365	1825.37
837.545	1839.52
837.726	1821.89
837.906	1860.44
838.087	1828.28
838.267	1788.17
838.448	1767.44
838.628	1780.04
838.808	1835.84
838.989	1852.5
839.169	1767.83
839.349	1829.44
839.53	1827.31
839.71	1838.55
839.89	1802.9
840.07	1885.63
840.251	1795.15
840.431	1866.64
840.611	1832.54
840.791	1826.73
840.971	1788.95
841.151	1817.04
841.332	1790.89
841.512	1818.79
841.692	1762.79
841.872	1800.57
842.052	1784.11
842.232	1790.69
842.412	1722.88
842.592	1804.06
842.772	1783.72
842.952	1782.75
843.132	1787.79
843.312	1750.2
843.492	1734.89
843.672	1818.4
843.851	1740.9
844.031	1768.41
844.211	1744.58
844.391	1729.66
844.571	1736.83
844.751	1801.74
844.93	1776.94
845.11	1725.98
845.29	1763.76
845.47	1794.18
845.649	1778.68
845.829	1790.69
846.009	1719.97
846.188	1804.25
846.368	1773.45
846.547	1713.77
846.727	1781.78
846.907	1730.82
847.086	1748.46
847.266	1783.91
847.445	1729.66
847.625	1739.54
847.804	1738.38
847.984	1738.57
848.163	1721.52
848.343	1673.67
848.522	1703.31
848.701	1713.39
848.881	1678.32
849.06	1726.37
849.239	1690.72
849.419	1710.68
849.598	1634.92
849.777	1614.19
849.957	1578.15
850.136	1539.6
850.315	1533.2
850.494	1555.1
850.674	1572.92
850.853	1621.75
851.032	1584.74
851.211	1633.18
851.39	1592.68
851.569	1541.92
851.748	1552.58
851.927	1631.43
852.107	1558.78
852.286	1559.75
852.465	1556.26
852.644	1626.78
852.823	1598.5
853.002	1580.48
853.181	1625.04
853.359	1598.69
853.538	1531.46
853.717	1564.98
853.896	1445.44
854.075	1429.16
854.254	1393.51
854.433	1313.88
854.611	1388.09
854.79	1345.66
854.969	1385.18
855.148	1402.23
855.327	1375.69
855.505	1427.03
855.684	1415.99
855.863	1472.56
856.041	1446.79
856.22	1482.44
856.399	1445.82
856.577	1527
856.756	1509.37
856.934	1586.29
857.113	1636.28
857.291	1516.54
857.47	1492.13
857.648	1514.41
857.827	1554.9
858.005	1573.31
858.184	1521.58
858.362	1597.91
858.541	1497.75
858.719	1511.12
858.898	1486.12
859.076	1481.67
859.254	1546.38
859.433	1496.97
859.611	1461.13
859.789	1474.5
859.967	1497.75
860.146	1575.44
860.324	1420.25
860.502	1479.53
860.68	1403
860.859	1432.07
861.037	1464.03
861.215	1487.09
861.393	1446.99
861.571	1477.79
861.749	1447.37
861.927	1456.48
862.105	1448.34
862.283	1424.9
862.461	1429.16
862.639	1380.34
862.817	1412.69
862.995	1450.67
863.173	1415.21
863.351	1443.11
863.529	1434.97
863.707	1478.95
863.885	1429.16
864.063	1392.74
864.241	1375.69
864.418	1430.32
864.596	1425.29
864.774	1381.3
864.952	1390.8
865.129	1417.92
865.307	1385.57
865.485	1360.77
865.663	1373.55
865.84	1313.11
866.018	1315.24
866.196	1204.8
866.373	1239.09
866.551	1193.37
866.728	1170.9
866.906	1187.94
867.084	1248.59
867.261	1263.51
867.439	1230.96
867.616	1289.47
867.794	1270.68
867.971	1278.04
868.149	1278.23
868.326	1321.05
868.503	1321.05
868.681	1312.72
868.858	1317.56
869.035	1265.25
869.213	1294.31
869.39	1274.74
869.567	1357.28
869.745	1253.24
869.922	1316.21
870.099	1306.52
870.276	1319.5
870.454	1292.57
870.631	1320.47
870.808	1300.12
870.985	1312.33
871.162	1331.12
871.339	1286.56
871.517	1240.64
871.694	1232.89
871.871	1275.91
872.048	1279.2
872.225	1272.23
872.402	1273.78
872.579	1236.19
872.756	1266.41
872.933	1238.9
873.11	1251.11
873.287	1272.81
873.463	1220.49
873.64	1231.15
873.817	1279.2
873.994	1212.55
874.171	1219.53
874.348	1253.24
874.524	1175.74
874.701	1207.13
874.878	1168.38
875.055	1201.12
875.231	1225.34
875.408	1232.31
875.585	1164.7
875.762	1159.66
875.938	1196.47
876.115	1173.61
876.291	1181.36
876.468	1168.38
876.645	1145.51
876.821	1118.78
876.998	1182.52
877.174	1160.05
877.351	1125.17
877.527	1139.51
877.704	1150.36
877.88	1171.28
878.057	1152.1
878.233	1175.74
878.409	1121.1
878.586	1147.45
878.762	1173.41
878.938	1137.18
879.115	1034.3
879.291	1109.86
879.467	1074.22
879.644	1123.23
879.82	1144.93
879.996	1089.72
880.172	1074.99
880.349	1101.15
880.525	1137.18
880.701	1055.42
880.877	1065.5
881.053	1106.57
881.229	1078.28
881.405	1126.14
881.581	1088.55
881.757	1074.6
881.933	1081.77
882.109	1120.52
882.285	1096.11
882.461	1043.22
882.637	1095.14
882.813	1050
882.989	1091.65
883.165	1125.36
883.341	1021.32
883.517	1106.96
883.693	1121.3
883.869	1106.38
884.044	1054.65
884.22	1079.25
884.396	1136.41
884.572	1126.33
884.747	1097.85
884.923	1130.79
885.099	1111.8
885.275	1145.71
885.45	1047.67
885.626	1024.03
885.801	1050.77
885.977	1058.91
886.153	1020.55
886.328	1068.98
886.504	1040.31
886.679	1078.09
886.855	1045.93
887.03	1090.88
887.206	1088.17
887.381	1077.12
887.557	1092.23
887.732	1053.87
887.908	1091.65
888.083	1108.9
888.258	1078.67
888.434	1044.38
888.609	1057.55
888.784	1122.46
888.96	1076.35
889.135	1069.37
889.31	1068.21
889.485	1077.9
889.661	1065.69
889.836	1080.8
890.011	1075.77
890.186	1065.69
890.361	1027.72
890.537	1067.43
890.712	1072.86
890.887	1056.97
891.062	1100.56
891.237	1125.95
891.412	1015.12
891.587	1049.22
891.762	1111.61
891.937	1147.84
892.112	1018.42
892.287	1029.65
892.462	998.07
892.637	968.04
892.812	974.05
892.987	958.55
893.161	953.7
893.336	963.39
893.511	973.66
893.686	1002.34
893.861	961.65
894.035	947.5
894.21	988.58
894.385	892.67
894.56	936.46
894.734	884.15
894.909	844.62
895.084	850.24
895.258	857.22
895.433	855.86
895.608	831.64
895.782	788.44
895.957	816.34
896.131	776.04
896.306	739.61
896.48	742.13
896.655	756.66
896.829	687.11
897.004	662.31
897.178	681.88
897.353	668.9
897.527	718.3
897.701	700.86
897.876	663.66
898.05	729.93
898.224	731.67
898.399	738.45
898.573	654.37
898.747	606.12
898.921	634.6
899.096	541.22
899.27	553.04
899.444	552.26
899.618	617.17
899.792	606.9
899.967	609.42
900.141	627.05
900.315	565.24
900.489	587.52
900.663	616
900.837	603.8
901.011	543.74
901.185	631.31
901.359	604.38
901.533	618.52
901.707	620.27
901.881	589.85
902.055	559.82
902.229	601.08
902.403	633.63
902.576	600.31
902.75	619.68
902.924	730.12
903.098	666.57
903.272	717.14
903.446	707.26
903.619	735.93
903.793	759.38
903.967	775.26
904.14	774.88
904.314	780.3
904.488	748.14
904.661	777.98
904.835	744.46
905.009	809.75
905.182	823.7
905.356	778.17
905.529	768.29
905.703	752.4
905.876	735.35
906.05	709
906.223	692.92
906.397	641.97
906.57	615.42
906.744	603.8
906.917	599.53
907.09	599.73
907.264	613.48
907.437	562.34
907.61	556.52
907.784	547.03
907.957	578.42
908.13	515.06
908.304	609.61
908.477	520.1
908.65	545.09
908.823	488.32
908.996	582.87
909.17	504.6
909.343	501.89
909.516	517
909.689	507.12
909.862	515.45
910.035	526.88
910.208	484.06
910.381	488.13
910.554	563.11
910.727	502.85
910.9	484.64
911.073	530.17
911.246	542.19
911.419	596.24
911.592	553.62
911.765	518.74
911.938	502.66
912.11	519.9
912.283	514.09
912.456	567.95
912.629	513.9
912.802	484.84
912.974	436.21
913.147	396.49
913.32	393.78
913.493	428.07
913.665	463.14
913.838	446.67
914.01	445.51
914.183	476.89
914.356	485.42
914.528	492.39
914.701	501.89
914.873	486
915.046	464.11
915.218	420.9
915.391	355.22
915.563	378.86
915.736	431.17
915.908	450.35
916.081	427.1
916.253	455.58
916.425	463.72
916.598	472.63
916.77	451.51
916.942	406.95
917.115	360.06
917.287	417.8
917.459	386.41
917.632	375.37
917.804	373.63
917.976	426.52
918.148	423.61
918.32	435.24
918.493	453.26
918.665	490.45
918.837	460.04
919.009	541.02
919.181	499.75
919.353	465.85
919.525	472.63
919.697	480.38
919.869	505.57
920.041	541.02
920.213	598.95
920.385	527.65
920.557	495.88
920.729	507.5
920.901	512.15
921.073	482.9
921.244	475.15
921.416	502.08
921.588	510.41
921.76	473.41
921.932	566.02
922.103	473.6
922.275	471.27
922.447	507.12
922.619	440.27
922.79	470.31
922.962	458.49
923.134	485.61
923.305	417.61
923.477	383.31
923.648	414.12
923.82	445.12
923.991	383.31
924.163	378.66
924.335	380.02
924.506	409.66
924.677	442.21
924.849	383.51
925.02	412.18
925.192	442.21
925.363	410.44
925.535	435.04
925.706	385.64
925.877	430.59
926.049	402.49
926.22	414.31
926.391	417.41
926.562	446.28
926.734	416.44
926.905	415.09
927.076	364.33
927.247	368.98
927.419	333.13
927.59	340.69
927.761	334.49
927.932	294.77
928.103	347.28
928.274	267.06
928.445	269.39
928.616	287.6
928.787	263
928.958	335.65
929.129	289.73
929.3	265.13
929.471	246.53
929.642	200.42
929.813	150.43
929.984	243.43
930.155	158.57
930.326	218.24
930.496	183.17
930.667	126.02
930.838	187.43
931.009	147.91
931.18	134.74
931.35	157.4
931.521	168.64
931.692	91.92
931.863	84.17
932.033	76.8
932.204	124.27
932.374	114
932.545	63.44
932.716	100.05
932.886	114.2
933.057	48.71
933.227	57.82
933.398	116.52
933.568	41.54
933.739	2.79
933.909	27.98
934.08	84.94
934.25	-12.9
934.421	23.72
934.591	66.15
934.761	41.54
934.932	5.7
935.102	31.66
935.272	-0.89
935.443	51.04
935.613	33.02
935.783	36.89
935.953	24.69
936.123	150.43
936.294	13.45
936.464	25.85
936.634	46.77
936.804	-11.93
936.974	14.03
937.144	36.51
937.314	27.79
937.484	18.68
937.655	-19.88
937.825	53.94
937.995	21.59
938.165	65.18
938.334	45.22
938.504	64.6
938.674	25.07
938.844	67.12
939.014	111.87
939.184	104.7
939.354	132.41
939.524	106.45
939.694	80.68
939.863	102.77
940.033	112.26
940.203	118.65
940.373	126.21
940.542	119.62
940.712	78.55
940.882	109.55
941.051	130.47
941.221	127.57
941.391	152.95
941.56	74.29
941.73	80.49
941.899	168.83
942.069	70.02
942.238	84.17
942.408	66.92
942.577	103.35
942.747	57.43
942.916	33.99
943.086	71.19
943.255	127.95
943.425	73.32
943.594	57.24
943.763	23.33
943.933	15.58
944.102	-4.38
944.271	39.61
944.441	104.12
944.61	52.39
944.779	59.37
944.948	118.46
945.117	52
945.287	50.84
945.456	21.59
945.625	38.44
945.794	85.72
945.963	58.4
946.132	85.72
946.301	29.14
946.47	64.79
946.639	0.86
946.808	56.27
946.977	83.78
947.146	72.35
947.315	46.97
947.484	70.22
947.653	72.93
947.822	70.22
947.991	52.78
948.16	137.06
948.329	91.34
948.498	65.95
948.666	78.35
948.835	102.38
949.004	32.24
949.173	8.61
949.341	77.19
949.51	55.49
949.679	96.18
949.847	79.9
950.016	128.73
950.185	123.89
950.353	62.08
950.522	75.64
950.69	108.19
950.859	75.84
951.028	105.09
951.196	76.42
951.365	52.59
951.533	43.48
951.701	105.87
951.87	93.66
952.038	10.35
952.207	50.84
952.375	74.29
952.543	45.22
952.712	62.08
952.88	72.54
953.048	99.67
953.217	66.73
953.385	89.59
953.553	79.13
953.721	46.19
953.89	73.9
954.058	26.04
954.226	29.14
954.394	50.65
954.562	11.9
954.73	72.15
954.898	35.34
955.067	87.27
955.235	30.69
955.403	110.52
955.571	108.97
955.739	72.74
955.907	38.83
956.075	24.49
956.243	50.84
956.41	84.55
956.578	39.8
956.746	26.62
956.914	57.43
957.082	91.53
957.25	76.8
957.418	63.63
957.585	61.5
957.753	133.38
957.921	52.39
958.089	77.58
958.256	78.55
958.424	84.94
958.592	73.9
958.759	35.92
958.927	69.83
959.095	41.54
959.262	77.58
959.43	66.92
959.597	48.13
959.765	79.52
959.932	20.42
960.1	107.8
960.267	73.51
960.435	99.09
960.602	114.78
960.77	32.44
960.937	31.66
961.104	82.23
961.272	31.66
961.439	39.61
961.606	62.08
961.774	119.24
961.941	59.17
962.108	85.33
962.275	88.24
962.443	119.04
962.61	81.84
962.777	138.61
962.944	108
963.111	90.17
963.278	84.17
963.446	85.72
963.613	73.7
963.78	69.44
963.947	108.39
964.114	79.13
964.281	133.38
964.448	106.64
964.615	67.12
964.782	83.78
964.949	115.94
965.116	82.81
965.282	122.92
965.449	78.35
965.616	57.62
965.783	110.9
965.95	126.02
966.117	47.94
966.283	81.84
966.45	110.9
966.617	109.16
966.784	114.59
966.95	102.19
967.117	130.47
967.284	102.57
967.45	101.22
967.617	123.89
967.784	110.13
967.95	141.9
968.117	94.82
968.283	139.19
968.45	194.22
968.616	121.75
968.783	139
968.949	115.55
969.116	138.03
969.282	101.6
969.449	121.37
969.615	113.62
969.781	66.73
969.948	116.33
970.114	72.54
970.28	175.23
970.447	104.9
970.613	156.43
970.779	84.55
970.945	125.63
971.112	138.61
971.278	102.77
971.444	126.6
971.61	157.4
971.776	89.59
971.942	110.9
972.108	137.25
972.275	75.45
972.441	141.32
972.607	174.84
972.773	81.84
972.939	121.95
973.105	103.54
973.271	70.6
973.437	107.42
973.602	85.33
973.768	125.63
973.934	89.98
974.1	122.72
974.266	43.67
974.432	90.75
974.598	83.2
974.763	131.05
974.929	76.03
975.095	154.5
975.261	64.99
975.426	81.07
975.592	97.15
975.758	138.03
975.923	44.06
976.089	50.65
976.255	121.75
976.42	117.69
976.586	100.05
976.751	127.95
976.917	177.17
977.082	109.94
977.248	43.09
977.413	59.75
977.579	94.24
977.744	107.22
977.91	66.92
978.075	80.68
978.24	117.88
978.406	90.56
978.571	64.79
978.736	79.9
978.902	108.39
979.067	65.18
979.232	22.56
979.397	117.69
979.563	144.42
979.728	71.77
979.893	85.72
980.058	83.78
980.223	130.86
980.388	88.04
980.554	120.79
980.719	82.04
980.884	107.03
981.049	123.69
981.214	86.3
981.379	116.14
981.544	81.26
981.709	79.13
981.874	88.62
982.039	103.54
982.204	98.5
982.368	92.69
982.533	51.62
982.698	124.85
982.863	136.09
983.028	91.53
983.193	89.4
983.357	90.75
983.522	105.29
983.687	92.89
983.852	83.59
984.016	101.22
984.181	102.96
984.346	114
984.51	97.34
984.675	90.56
984.839	103.15
985.004	95.99
985.168	141.32
985.333	113.04
985.498	82.62
985.662	108.77
985.827	103.54
985.991	78.16
986.155	67.89
986.32	128.73
986.484	127.95
986.649	108.58
986.813	37.47
986.977	87.65
987.142	108
987.306	69.44
987.47	55.3
987.634	100.64
987.799	93.85
987.963	90.17
988.127	95.02
988.291	166.32
988.455	106.25
988.62	87.07
988.784	91.14
988.948	81.26
989.112	89.4
989.276	88.04
989.44	62.66
989.604	81.65
989.768	76.61
989.932	170.19
990.096	55.69
990.26	72.93
990.424	31.66
990.588	86.88
990.752	144.03
990.915	97.54
991.079	98.31
991.243	46.58
991.407	88.04
991.571	102.38
991.734	104.9
991.898	95.79
992.062	178.52
992.226	58.4
992.389	61.69
992.553	31.27
992.717	45.81
992.88	69.05
993.044	89.98
993.207	79.13
993.371	108
993.535	75.84
993.698	103.93
993.862	102.96
994.025	115.75
994.189	66.54
994.352	83.97
994.515	69.05
994.679	124.66
994.842	51.42
995.006	70.41
995.169	55.3
995.332	54.14
995.496	115.55
995.659	45.22
995.822	107.8
995.985	76.8
996.149	110.52
996.312	68.47
996.475	135.7
996.638	67.7
996.801	100.83
996.964	112.26
997.128	56.85
997.291	61.3
997.454	69.44
997.617	29.92
997.78	113.81
997.943	54.33
998.106	105.29
998.269	63.63
998.432	68.28
998.595	71.57
998.758	13.26
998.92	48.91
999.083	45.22
999.246	70.22
999.409	33.99
999.572	23.72
999.735	77.77
999.897	64.99
1000.06	43.09
1000.223	66.54
1000.386	101.41
1000.548	89.4
1000.711	89.59
1000.874	71.77
1001.036	27.4
1001.199	90.56
1001.361	66.92
1001.524	61.3
1001.687	95.6
1001.849	40.57
1002.012	65.18
1002.174	72.54
1002.337	93.08
1002.499	56.65
1002.661	94.24
1002.824	22.94
1002.986	33.99
1003.149	68.47
1003.311	8.41
1003.473	119.82
1003.636	36.89
1003.798	88.04
1003.96	85.72
1004.123	61.89
1004.285	39.8
1004.447	78.16
1004.609	47.36
1004.771	113.42
1004.933	24.69
1005.096	32.82
1005.258	7.06
1005.42	54.33
1005.582	71.38
1005.744	73.12
1005.906	27.79
1006.068	48.52
1006.23	10.54
1006.392	14.03
1006.554	11.12
1006.716	95.21
1006.878	77.77
1007.04	2.6
1007.202	26.62
1007.363	63.44
1007.525	34.57
1007.687	75.06
1007.849	107.61
1008.011	10.74
1008.172	6.86
1008.334	42.71
1008.496	71.38
1008.658	4.15
1008.819	23.91
1008.981	-11.35
1009.143	25.46
1009.304	54.91
1009.466	60.72
1009.627	100.05
1009.789	117.3
1009.95	45.22
1010.112	15.39
1010.273	67.7
1010.435	8.02
1010.596	31.08
1010.758	34.18
1010.919	60.14
1011.081	18.49
1011.242	40.77
1011.403	51.62
1011.565	31.66
1011.726	46.58
1011.887	30.5
1012.049	13.84
1012.21	58.98
1012.371	99.47
1012.532	-32.28
1012.693	26.82
1012.855	16.74
1013.016	66.34
1013.177	46.39
1013.338	7.06
1013.499	92.69
1013.66	51.81
1013.821	46.19
1013.982	64.02
1014.143	44.45
1014.304	14.61
1014.465	31.27
1014.626	59.56
1014.787	41.16
1014.948	110.9
1015.109	-21.62
1015.27	71.38
1015.431	26.62
1015.592	20.23
1015.752	78.35
1015.913	38.83
1016.074	53.94
1016.235	27.98
1016.395	25.85
1016.556	44.45
1016.717	28.17
1016.877	77.58
1017.038	20.23
1017.199	18.68
1017.359	41.93
1017.52	57.43
1017.681	17.91
1017.841	25.07
1018.002	-3.99
1018.162	17.52
1018.323	61.89
1018.483	37.47
1018.644	2.6
1018.804	-16.19
1018.964	4.54
1019.125	32.24
1019.285	46.58
1019.446	6.09
1019.606	1.63
1019.766	-21.62
1019.926	28.95
1020.087	30.11
1020.247	-37.7
1020.407	54.14
1020.567	37.09
1020.728	11.9
1020.888	-12.71
1021.048	41.16
1021.208	-15.03
1021.368	-21.04
1021.528	55.69
1021.688	56.65
1021.848	45.03
1022.008	24.11
1022.168	21.97
1022.328	38.25
1022.488	39.22
1022.648	-1.66
1022.808	15.97
1022.968	37.67
1023.128	12.09
1023.288	12.87
1023.448	21.78
1023.608	28.95
1023.767	39.8
1023.927	-0.31
1024.087	-15.81
1024.247	-2.24
1024.406	14.22
1024.566	4.15
1024.726	8.41
1024.885	30.5
1025.045	46.77
1025.205	4.73
1025.364	11.9
1025.524	24.3
1025.683	8.41
1025.843	25.85
1026.003	19.46
1026.162	49.68
1026.321	73.51
1026.481	31.86
1026.64	0.66
1026.8	34.57
1026.959	3.57
1027.119	15.77
1027.278	-12.13
1027.437	15.19
1027.597	29.72
1027.756	30.5
1027.915	43.67
1028.074	37.09
1028.234	-9.8
1028.393	44.26
1028.552	14.42
1028.711	-53.59
1028.87	53.94
1029.03	-21.62
1029.189	17.71
1029.348	-46.03
1029.507	1.44
1029.666	-7.48
1029.825	-12.32
1029.984	-8.83
1030.143	-20.26
1030.302	7.64
1030.461	-28.21
1030.62	12.09
1030.779	44.84
1030.938	-5.73
1031.097	-8.06
1031.255	47.74
1031.414	53.75
1031.573	62.85
1031.732	-22.39
1031.891	11.51
1032.049	44.45
1032.208	22.56
1032.367	0.47
1032.525	-22.78
1032.684	18.68
1032.843	22.56
1033.001	-62.89
1033.16	157.79
1033.319	48.91
1033.477	39.8
1033.636	-14.26
1033.794	-22.98
1033.953	13.26
1034.111	46
1034.27	-8.83
1034.428	22.56
1034.587	-4.57
1034.745	10.35
1034.903	-3.99
1035.062	39.61
1035.22	-32.86
1035.378	55.1
1035.537	-11.74
1035.695	31.86
1035.853	0.27
1036.011	71.57
1036.17	32.63
1036.328	-35.96
1036.486	28.56
1036.644	24.49
1036.802	-86.33
1036.96	-18.91
1037.119	-7.28
1037.277	-14.45
1037.435	-19.88
1037.593	-12.51
1037.751	-0.11
1037.909	21.78
1038.067	21.78
