Data from gum_young_FLMT105791__51__17-39-09-043.txt Node

Date: Mon Mar 20 17:39:09 GMT 2023
User: antho
Spectrometer: FLMT10579
Trigger mode: 0
Integration Time (sec): 1.000000E-1
Scans to average: 10
Electric dark correction enabled: true
Nonlinearity correction enabled: false
Boxcar width: 0
XAxis mode: Wavelengths
Number of Pixels in Spectrum: 3648
>>>>>Begin Spectral Data<<<<<
345.248	-138.51
345.464	-138.51
345.681	-138.51
345.898	-182.88
346.114	-144.71
346.331	-8.31
346.548	18.81
346.764	-18
346.981	0.21
347.197	-28.46
347.414	6.02
347.631	-9.48
347.847	52.52
348.064	6.99
348.28	37.6
348.497	-31.95
348.713	-25.95
348.93	26.17
349.146	40.51
349.363	8.93
349.579	36.25
349.796	-0.18
350.012	-11.8
350.229	55.23
350.445	37.02
350.661	-9.67
350.878	21.72
351.094	-10.45
351.311	24.23
351.527	23.65
351.743	6.22
351.96	59.3
352.176	38.38
352.392	9.7
352.609	46.52
352.825	26.95
353.041	21.91
353.257	6.22
353.474	17.45
353.69	-2.5
353.906	14.35
354.122	-18.97
354.339	50.78
354.555	16.68
354.771	18.03
354.987	64.73
355.203	55.43
355.42	2.15
355.636	7.96
355.852	-0.18
356.068	21.52
356.284	-17.81
356.5	58.92
356.716	22.68
356.932	10.87
357.148	42.64
357.364	-1.15
357.58	61.43
357.796	72.28
358.012	39.54
358.228	35.86
358.444	-51.91
358.66	56.98
358.876	48.45
359.092	-14.9
359.308	7.77
359.524	35.08
359.74	-4.25
359.956	-3.47
360.172	15.9
360.388	42.06
360.604	-3.28
360.819	85.26
361.035	-5.99
361.251	25.01
361.467	1.95
361.683	16.29
361.898	41.48
362.114	35.86
362.33	30.05
362.546	71.9
362.762	19.78
362.977	31.02
363.193	-2.89
363.409	61.24
363.624	9.51
363.84	1.76
364.056	-2.31
364.271	25.01
364.487	29.27
364.703	-0.76
364.918	-17.23
365.134	-20.33
365.35	28.11
365.565	118.98
365.781	22.49
365.996	15.52
366.212	63.57
366.427	-10.64
366.643	5.63
366.858	17.26
367.074	-9.09
367.289	81.2
367.505	87.01
367.72	1.76
367.936	-2.31
368.151	40.7
368.367	31.6
368.582	26.37
368.798	6.99
369.013	69.77
369.228	31.02
369.444	36.83
369.659	64.73
369.874	34.89
370.09	68.02
370.305	-33.89
370.52	9.12
370.736	35.86
370.951	12.42
371.166	66.08
371.381	87.78
371.597	31.6
371.812	-33.31
372.027	-14.71
372.242	20.17
372.458	90.3
372.673	11.45
372.888	4.08
373.103	28.3
373.318	77.13
373.533	44.19
373.749	25.4
373.964	-9.28
374.179	32.95
374.394	13.19
374.609	63.18
374.824	-5.99
375.039	57.17
375.254	16.1
375.469	72.87
375.684	40.12
375.899	60.47
376.114	41.87
376.329	20.75
376.544	40.12
376.759	64.53
376.974	19.2
377.189	28.69
377.404	33.53
377.619	35.08
377.834	-18.58
378.049	-25.75
378.264	1.76
378.478	9.12
378.693	-3.47
378.908	46.13
379.123	-4.83
379.338	67.83
379.553	35.86
379.767	19.97
379.982	46.71
380.197	60.66
380.412	19
380.626	43.22
380.841	96.89
381.056	29.08
381.271	71.9
381.485	29.27
381.7	-8.9
381.915	31.6
382.129	34.5
382.344	24.04
382.559	32.57
382.773	49.23
382.988	-4.63
383.202	48.26
383.417	2.53
383.632	100.57
383.846	26.75
384.061	42.64
384.275	2.53
384.49	40.7
384.704	54.07
384.919	47.68
385.133	19.58
385.348	23.65
385.562	23.46
385.777	65.5
385.991	32.18
386.206	-19.55
386.42	12.03
386.634	69.38
386.849	9.12
387.063	55.04
387.277	0.98
387.492	36.05
387.706	6.6
387.92	9.12
388.135	37.41
388.349	34.31
388.563	20.75
388.778	23.46
388.992	55.43
389.206	43.03
389.42	93.21
389.635	18.03
389.849	56.78
390.063	78.1
390.277	24.62
390.491	78.48
390.706	50.78
390.92	70.54
391.134	45.35
391.348	71.7
391.562	-43
391.776	28.69
391.99	4.08
392.205	50.2
392.419	14.74
392.633	17.45
392.847	65.7
393.061	4.08
393.275	98.05
393.489	20.94
393.703	28.11
393.917	51.36
394.131	3.89
394.345	52.91
394.559	64.15
394.773	24.43
394.986	44.97
395.2	34.89
395.414	60.27
395.628	21.91
395.842	53.3
396.056	9.7
396.27	5.44
396.484	56.2
396.697	28.11
396.911	68.8
397.125	58.14
397.339	66.47
397.553	39.93
397.766	94.37
397.98	54.27
398.194	69.96
398.408	51.94
398.621	68.8
398.835	55.82
399.049	66.28
399.262	86.43
399.476	96.11
399.69	59.88
399.903	123.82
400.117	43.61
400.331	71.9
400.544	48.65
400.758	133.51
400.971	49.42
401.185	79.26
401.398	21.91
401.612	146.68
401.826	83.71
402.039	80.61
402.253	36.25
402.466	63.37
402.68	44.77
402.893	62.6
403.106	90.11
403.32	78.87
403.533	57.56
403.747	62.4
403.96	54.46
404.174	99.21
404.387	30.05
404.6	58.33
404.814	97.08
405.027	69.77
405.24	63.18
405.454	56.2
405.667	101.93
405.88	14.35
406.094	72.09
406.307	96.5
406.52	111.81
406.733	51.36
406.947	23.27
407.16	104.45
407.373	90.88
407.586	25.2
407.799	39.15
408.012	71.32
408.226	81.78
408.439	125.76
408.652	41.48
408.865	92.05
409.078	104.83
409.291	101.93
409.504	37.02
409.717	95.15
409.93	68.02
410.143	85.07
410.357	41.87
410.57	32.18
410.783	59.3
410.996	82.55
411.209	81.97
411.421	104.83
411.634	91.85
411.847	67.44
412.06	82.16
412.273	77.13
412.486	61.05
412.699	166.45
412.912	53.49
413.125	116.46
413.338	98.44
413.55	93.6
413.763	89.14
413.976	75.97
414.189	73.64
414.402	47.68
414.615	120.33
414.827	61.24
415.04	115.3
415.253	128.08
415.466	104.83
415.678	134.09
415.891	83.52
416.104	95.92
416.316	62.4
416.529	65.7
416.742	109.48
416.954	135.64
417.167	75.77
417.38	83.52
417.592	123.63
417.805	58.92
418.017	43.61
418.23	131.57
418.442	78.87
418.655	68.22
418.868	92.82
419.08	123.24
419.293	127.7
419.505	97.66
419.718	95.53
419.93	123.63
420.142	90.11
420.355	155.6
420.567	129.83
420.78	113.55
420.992	78.68
421.205	146.49
421.417	70.15
421.629	79.07
421.842	73.64
422.054	63.57
422.266	127.89
422.479	137.38
422.691	66.28
422.903	162.96
423.115	85.07
423.328	80.42
423.54	105.41
423.752	102.12
423.964	76.93
424.177	116.07
424.389	92.05
424.601	195.89
424.813	108.71
425.025	136.8
425.238	139.51
425.45	101.73
425.662	96.7
425.874	344.11
426.086	119.36
426.298	142.61
426.51	137.96
426.722	121.69
426.934	121.3
427.146	114.13
427.358	89.14
427.57	147.85
427.782	116.26
427.994	107.55
428.206	93.98
428.418	95.34
428.63	110.45
428.842	149.4
429.054	125.56
429.266	142.61
429.478	96.89
429.69	90.5
429.902	58.72
430.114	123.63
430.325	141.65
430.537	104.25
430.749	89.72
430.961	61.43
431.173	105.8
431.384	110.06
431.596	52.33
431.808	93.21
432.02	95.73
432.231	149.78
432.443	161.41
432.655	109.87
432.867	88.75
433.078	137.19
433.29	166.83
433.502	189.11
433.713	172.06
433.925	144.55
434.136	178.84
434.348	107.93
434.56	93.6
434.771	222.05
434.983	103.86
435.194	101.35
435.406	114.91
435.617	155.79
435.829	189.89
436.04	163.35
436.252	150.17
436.463	184.66
436.675	149.2
436.886	143.2
437.098	149.2
437.309	193.57
437.521	165.28
437.732	167.22
437.943	140.29
438.155	129.44
438.366	117.81
438.578	205.97
438.789	142.03
439	174.19
439.211	155.98
439.423	168.38
439.634	173.03
439.845	179.43
440.057	173.42
440.268	169.74
440.479	144.75
440.69	168.58
440.902	135.45
441.113	144.36
441.324	148.23
441.535	182.53
441.746	214.88
441.957	130.41
442.168	161.99
442.38	191.63
442.591	169.93
442.802	149.01
443.013	179.62
443.224	178.84
443.435	135.45
443.646	193.57
443.857	171.29
444.068	161.6
444.279	151.14
444.49	228.06
444.701	183.3
444.912	276.88
445.123	210.23
445.334	177.68
445.545	198.99
445.756	175.94
445.967	176.52
446.178	193.18
446.388	226.31
446.599	232.13
446.81	228.64
447.021	178.26
447.232	230.19
447.443	254.41
447.653	172.45
447.864	212.75
448.075	200.74
448.286	218.18
448.496	219.92
448.707	229.22
448.918	186.59
449.129	269.13
449.339	177.1
449.55	229.61
449.761	218.95
449.971	249.37
450.182	204.61
450.393	221.86
450.603	201.9
450.814	236
451.024	236
451.235	269.13
451.446	268.74
451.656	253.44
451.867	187.18
452.077	247.43
452.288	287.15
452.498	290.64
452.709	204.03
452.919	258.09
453.13	218.37
453.34	277.27
453.55	155.6
453.761	249.18
453.971	233.87
454.182	251.11
454.392	246.66
454.602	296.26
454.813	221.08
455.023	282.31
455.233	192.79
455.444	271.26
455.654	167.61
455.864	230.38
456.075	247.04
456.285	240.26
456.495	235.81
456.705	261.19
456.916	267
457.126	286.76
457.336	255.76
457.546	200.35
457.756	249.37
457.967	281.34
458.177	227.28
458.387	265.64
458.597	217.01
458.807	239.68
459.017	238.52
459.227	229.03
459.437	230.38
459.647	283.66
459.857	286.76
460.068	234.26
460.278	304.97
460.488	267.77
460.698	319.89
460.908	256.73
461.117	206.16
461.327	234.64
461.537	279.01
461.747	261.77
461.957	283.27
462.167	361.55
462.377	281.14
462.587	297.61
462.797	284.63
463.007	286.76
463.216	298.39
463.426	311.17
463.636	326.67
463.846	224.76
464.056	251.11
464.265	326.87
464.475	250.34
464.685	279.79
464.895	311.95
465.104	298.39
465.314	308.07
465.524	255.18
465.733	278.62
465.943	325.9
466.153	317.96
466.362	316.41
466.572	323.38
466.782	281.34
466.991	306.52
467.201	318.92
467.41	255.18
467.62	331.52
467.829	277.85
468.039	292.77
468.249	291.02
468.458	301.87
468.668	337.91
468.877	334.23
469.086	370.07
469.296	331.71
469.505	314.47
469.715	382.09
469.924	347.6
470.134	371.43
470.343	354.57
470.552	303.81
470.762	326.29
470.971	300.52
471.18	339.66
471.39	341.21
471.599	288.89
471.808	324.16
472.018	305.56
472.227	347.4
472.436	356.51
472.645	362.32
472.855	291.22
473.064	382.86
473.273	348.95
473.482	384.22
473.691	383.64
473.901	368.14
474.11	324.35
474.319	434.4
474.528	369.3
474.737	408.05
474.946	373.17
475.155	372.4
475.364	412.89
475.573	367.94
475.783	393.13
475.992	398.55
476.201	413.86
476.41	379.76
476.619	370.85
476.828	357.29
477.037	376.85
477.245	379.57
477.454	432.46
477.663	415.8
477.872	373.75
478.081	454.93
478.29	369.3
478.499	470.24
478.708	433.43
478.917	476.25
479.125	413.86
479.334	414.64
479.543	419.29
479.752	412.7
479.961	415.6
480.169	474.89
480.378	438.85
480.587	531.66
480.796	473.73
481.004	439.24
481.213	458.62
481.422	477.8
481.63	445.05
481.839	500.08
482.048	529.33
482.256	477.6
482.465	501.82
482.674	499.5
482.882	497.56
483.091	532.05
483.299	477.99
483.508	505.7
483.716	509.38
483.925	494.27
484.134	490.2
484.342	470.82
484.551	524.88
484.759	552
484.967	519.84
485.176	524.88
485.384	575.06
485.593	564.98
485.801	543.09
486.01	524.49
486.218	493.68
486.426	444.08
486.635	466.95
486.843	469.27
487.051	487.68
487.26	497.95
487.468	514.8
487.676	536.31
487.885	513.25
488.093	528.56
488.301	558.98
488.509	550.65
488.717	577.38
488.926	534.95
489.134	525.85
489.342	554.33
489.55	531.08
489.758	557.23
489.967	565.95
490.175	631.83
490.383	595.21
490.591	623.69
490.799	548.32
491.007	612.06
491.215	562.85
491.423	583.97
491.631	604.7
491.839	609.16
492.047	618.26
492.255	553.94
492.463	539.21
492.671	588.43
492.879	644.61
493.087	593.85
493.295	608.77
493.503	635.51
493.711	623.88
493.919	652.36
494.127	661.08
494.334	664.57
494.542	616.13
494.75	641.32
494.958	635.12
495.166	687.43
495.374	688.4
495.581	678.71
495.789	675.03
495.997	698.67
496.205	662.24
496.412	643.45
496.62	682.2
496.828	681.62
497.035	691.89
497.243	719.98
497.451	706.81
497.658	683.56
497.866	673.68
498.074	734.9
498.281	679.1
498.489	740.32
498.696	712.23
498.904	667.28
499.112	668.25
499.319	771.13
499.527	720.76
499.734	793.6
499.942	676
500.149	693.05
500.357	710.29
500.564	669.03
500.771	725.21
500.979	691.89
501.186	697.31
501.394	748.27
501.601	709.91
501.808	753.89
502.016	716.49
502.223	739.94
502.43	746.52
502.638	737.22
502.845	715.91
503.052	824.99
503.26	729.86
503.467	844.56
503.674	772.29
503.881	790.89
504.089	843.98
504.296	804.65
504.503	756.21
504.71	799.22
504.917	748.27
505.125	823.44
505.332	806
505.539	831.77
505.746	872.65
505.953	884.08
506.16	846.11
506.367	915.67
506.574	932.33
506.781	915.47
506.988	840.88
507.195	869.75
507.402	881.57
507.609	922.06
507.816	859.48
508.023	866.45
508.23	902.1
508.437	868.2
508.644	913.53
508.851	923.61
509.058	954.22
509.265	950.35
509.472	950.73
509.679	1037.15
509.885	958.1
510.092	961.2
510.299	988.9
510.506	967.78
510.713	983.09
510.92	972.24
511.126	984.06
511.333	1069.5
511.54	1048.19
511.746	1091.01
511.953	1074.34
512.16	1124.72
512.367	1054.97
512.573	1045.86
512.78	1054.58
512.987	1084.81
513.193	1072.79
513.4	1015.45
513.606	1092.75
513.813	1089.65
514.02	1074.93
514.226	1116.39
514.433	1131.5
514.639	1071.83
514.846	1123.94
515.052	1094.69
515.259	1115.03
515.465	1112.13
515.672	1147.39
515.878	1200.47
516.085	1194.66
516.291	1209
516.497	1159.21
516.704	1137.51
516.91	1114.06
517.117	1064.27
517.323	1023.39
517.529	1120.65
517.736	1105.73
517.942	1116.78
518.148	1116.58
518.354	1150.68
518.561	1158.82
518.767	1156.3
518.973	1207.84
519.179	1232.25
519.386	1194.86
519.592	1215.2
519.798	1210.74
520.004	1340.17
520.21	1303.93
520.417	1347.14
520.623	1350.05
520.829	1352.76
521.035	1372.72
521.241	1399.45
521.447	1408.17
521.653	1514.73
521.859	1393.64
522.065	1427.55
522.271	1557.36
522.477	1483.34
522.683	1505.63
522.889	1480.24
523.095	1467.65
523.301	1473.08
523.507	1442.46
523.713	1505.24
523.919	1394.03
524.125	1563.17
524.331	1527.33
524.537	1605.02
524.742	1577.89
524.948	1601.92
525.154	1621.49
525.36	1698.4
525.566	1611.61
525.772	1662.56
525.977	1608.12
526.183	1616.45
526.389	1665.08
526.595	1570.14
526.8	1582.54
527.006	1546.7
527.212	1467.26
527.417	1472.88
527.623	1511.44
527.829	1621.29
528.034	1598.62
528.24	1621.29
528.446	1627.49
528.651	1713.71
528.857	1723.2
529.062	1794.31
529.268	1729.4
529.473	1790.05
529.679	1785.78
529.884	1834.41
530.09	1777.45
530.295	1822.4
530.501	1839.84
530.706	1800.51
530.912	1792.76
531.117	1837.13
531.323	1823.37
531.528	1903.2
531.733	1884.98
531.939	1822.4
532.144	1888.66
532.35	1899.32
532.555	1914.05
532.76	1855.53
532.966	1865.8
533.171	1844.1
533.376	1792.18
533.581	1805.55
533.787	1853.6
533.992	1874.52
534.197	1885.95
534.402	1875.88
534.607	1905.13
534.813	2002.39
535.018	1884.4
535.223	1933.81
535.428	1955.12
535.633	2020.41
535.838	2016.54
536.043	1983.6
536.249	2046.96
536.454	1993.87
536.659	1995.03
536.864	1961.51
537.069	2005.88
537.274	2004.72
537.479	1974.11
537.684	1983.41
537.889	1945.43
538.094	2080.28
538.299	2020.61
538.504	2041.14
538.708	2031.07
538.913	2065.56
539.118	2020.02
539.323	2071.37
539.528	2017.31
539.733	1964.61
539.938	2052.57
540.142	2014.21
540.347	2022.54
540.552	1964.03
540.757	1977.59
540.962	1995.03
541.166	1935.74
541.371	1938.46
541.576	1968.88
541.781	1928.58
541.985	2038.43
542.19	2004.52
542.395	2083.19
542.599	2090.94
542.804	2112.64
543.008	2133.95
543.213	2032.04
543.418	2052.96
543.622	2082.61
543.827	2032.04
544.031	2118.64
544.236	2148.29
544.44	2117.48
544.645	2141.31
544.849	2064.78
545.054	2136.08
545.258	2207.77
545.463	2171.54
545.667	2115.35
545.872	2167.66
546.076	2138.79
546.281	2113.6
546.485	2096.36
546.689	2142.47
546.894	2152.94
547.098	2136.85
547.302	2141.31
547.507	2175.41
547.711	2161.07
547.915	2192.07
548.119	2093.45
548.324	2142.86
548.528	2201.18
548.732	2178.32
548.936	2147.7
549.141	2236.05
549.345	2144.22
549.549	2165.34
549.753	2202.73
549.957	2265.5
550.161	2262.79
550.366	2177.54
550.57	2136.47
550.774	2167.85
550.978	2170.37
551.182	2204.67
551.386	2213.58
551.59	2178.7
551.794	2182
551.998	2247.48
552.202	2219.39
552.406	2136.66
552.61	2222.1
552.814	2250.2
553.018	2260.08
553.222	2158.75
553.426	2172.12
553.63	2282.75
553.833	2173.09
554.037	2130.27
554.241	2216.87
554.445	2188.97
554.649	2184.9
554.853	2179.67
555.056	2266.47
555.26	2235.86
555.464	2217.07
555.668	2237.41
555.871	2238.96
556.075	2288.36
556.279	2168.63
556.483	2168.24
556.686	2156.42
556.89	2170.37
557.094	2179.87
557.297	2133.37
557.501	2198.08
557.704	2096.55
557.908	2185.68
558.112	2117.87
558.315	2166.89
558.519	2138.21
558.722	2121.55
558.926	2096.75
559.129	2000.65
559.333	2031.26
559.536	2050.25
559.74	2011.31
559.943	2014.79
560.147	2007.62
560.35	2023.12
560.553	2014.21
560.757	2016.34
560.96	2100.43
561.164	2086.87
561.367	2163.98
561.57	2055.67
561.774	2037.66
561.977	2070.21
562.18	2025.06
562.384	2102.56
562.587	2060.71
562.79	2023.32
562.993	2025.26
563.197	2050.44
563.4	2066.91
563.603	2096.75
563.806	2129.69
564.009	2004.91
564.212	2030.68
564.416	1988.06
564.619	2005.3
564.822	1956.67
565.025	2029.91
565.228	1988.06
565.431	1979.53
565.634	1907.85
565.837	1930.51
566.04	1898.55
566.243	1926.25
566.446	1828.99
566.649	1947.95
566.852	1840.42
567.055	1886.92
567.258	1921.79
567.461	1965.58
567.664	1934.19
567.867	1862.51
568.07	1898.93
568.273	1886.15
568.475	1902.61
568.678	1832.67
568.881	1872.2
569.084	1820.08
569.287	1763.12
569.489	1782.49
569.692	1828.02
569.895	1790.63
570.098	1758.47
570.3	1779.2
570.503	1730.18
570.706	1761.37
570.909	1722.43
571.111	1660.24
571.314	1673.8
571.516	1698.6
571.719	1698.99
571.922	1680.58
572.124	1681.74
572.327	1704.6
572.529	1655.39
572.732	1650.36
572.935	1729.6
573.137	1761.57
573.34	1687.94
573.542	1740.25
573.745	1707.12
573.947	1672.64
574.15	1666.82
574.352	1674.38
574.554	1670.89
574.757	1600.37
574.959	1616.64
575.162	1618
575.364	1579.64
575.566	1694.72
575.769	1589.91
575.971	1620.71
576.173	1532.94
576.376	1549.03
576.578	1595.14
576.78	1670.31
576.982	1514.73
577.185	1537.21
577.387	1547.48
577.589	1548.06
577.791	1557.74
577.993	1573.82
578.196	1530.81
578.398	1540.11
578.6	1576.54
578.802	1496.33
579.004	1489.74
579.206	1519.96
579.408	1537.98
579.61	1490.9
579.812	1543.99
580.014	1456.03
580.216	1510.66
580.418	1515.89
580.62	1523.84
580.822	1487.41
581.024	1524.81
581.226	1553.68
581.428	1520.74
581.63	1597.07
581.832	1484.89
582.034	1560.07
582.236	1520.16
582.438	1537.21
582.64	1587.77
582.841	1596.3
583.043	1646.48
583.245	1568.59
583.447	1602.31
583.649	1544.18
583.85	1537.79
584.052	1568.59
584.254	1556.19
584.456	1552.51
584.657	1458.93
584.859	1513.76
585.061	1513.96
585.262	1477.92
585.464	1470.56
585.666	1534.49
585.867	1446.15
586.069	1551.35
586.27	1512.21
586.472	1482.38
586.674	1458.35
586.875	1475.6
587.077	1442.46
587.278	1471.53
587.48	1486.06
587.681	1549.8
587.883	1502.14
588.084	1420.96
588.285	1431.23
588.487	1395.38
588.688	1407.4
588.89	1351.98
589.091	1339.58
589.292	1336.29
589.494	1308
589.695	1288.44
589.896	1198.73
590.098	1210.16
590.299	1241.94
590.5	1232.44
590.702	1266.15
590.903	1311.88
591.104	1376.78
591.305	1330.87
591.507	1355.08
591.708	1356.25
591.909	1314.01
592.11	1405.85
592.311	1344.23
592.512	1331.45
592.714	1283.79
592.915	1299.48
593.116	1294.25
593.317	1333.97
593.518	1334.55
593.719	1345.59
593.92	1372.33
594.121	1340.75
594.322	1331.83
594.523	1335.52
594.724	1293.47
594.925	1296.96
595.126	1325.44
595.327	1314.98
595.528	1317.69
595.729	1307.03
595.929	1330.87
596.13	1315.56
596.331	1314.2
596.532	1351.6
596.733	1397.71
596.934	1329.51
597.135	1339.58
597.335	1330.09
597.536	1309.75
597.737	1353.34
597.938	1292.89
598.138	1329.7
598.339	1320.6
598.54	1349.66
598.74	1317.3
598.941	1305.48
599.142	1367.1
599.342	1334.55
599.543	1259.76
599.744	1345.2
599.944	1311.88
600.145	1324.67
600.345	1346.95
600.546	1367.29
600.746	1370.39
600.947	1419.6
601.147	1324.86
601.348	1370
601.548	1253.95
601.749	1326.6
601.949	1240
602.15	1293.28
602.35	1281.46
602.551	1363.8
602.751	1264.22
602.951	1310.33
603.152	1265.19
603.352	1311.68
603.552	1316.72
603.753	1339.39
603.953	1334.16
604.153	1304.9
604.354	1332.42
604.554	1279.33
604.754	1277.78
604.954	1307.81
605.155	1312.85
605.355	1303.74
605.555	1353.73
605.755	1348.5
605.955	1312.27
606.155	1322.73
606.356	1313.04
606.556	1324.67
606.756	1320.4
606.956	1276.23
607.156	1343.85
607.356	1320.02
607.556	1288.63
607.756	1299.87
607.956	1329.32
608.156	1284.37
608.356	1244.26
608.556	1299.48
608.756	1297.35
608.956	1244.45
609.156	1310.52
609.356	1238.64
609.556	1235.15
609.755	1284.17
609.955	1215.01
610.155	1256.66
610.355	1255.89
610.555	1222.95
610.755	1226.24
610.954	1179.55
611.154	1250.46
611.354	1255.89
611.554	1233.99
611.753	1233.41
611.953	1168.31
612.153	1261.12
612.352	1227.21
612.552	1196.21
612.752	1159.21
612.951	1219.85
613.151	1185.94
613.351	1153.39
613.55	1182.46
613.75	1204.93
613.949	1164.44
614.149	1168.31
614.348	1168.31
614.548	1135.57
614.747	1102.44
614.947	1120.84
615.146	1116.19
615.346	1188.07
615.545	1146.61
615.745	1167.34
615.944	1150.68
616.144	1121.81
616.343	1143.51
616.542	1110.19
616.742	1136.15
616.941	1117.16
617.14	1054.39
617.34	1086.55
617.539	1108.44
617.738	1079.96
617.938	1153.01
618.137	1136.92
618.336	1076.28
618.535	1147.58
618.734	1080.16
618.934	1108.06
619.133	1118.71
619.332	1102.24
619.531	1085.39
619.73	1104.76
619.929	1137.89
620.128	1112.51
620.328	1158.04
620.527	1064.85
620.726	1098.76
620.925	1111.54
621.124	1109.8
621.323	1133.44
621.522	1054.39
621.721	1046.25
621.92	1054.19
622.119	1095.08
622.318	1029.01
622.517	1076.28
622.715	1031.33
622.914	993.16
623.113	1054.58
623.312	998.98
623.511	1051.48
623.71	1057.1
623.909	999.95
624.107	1061.36
624.306	977.66
624.505	997.04
624.704	1003.05
624.902	981.73
625.101	1077.44
625.3	1048.58
625.499	984.25
625.697	989.87
625.896	975.15
626.095	1026.88
626.293	952.67
626.492	973.4
626.69	1027.85
626.889	975.34
627.088	1052.64
627.286	973.98
627.485	974.56
627.683	961.2
627.882	963.91
628.08	914.31
628.279	932.91
628.477	968.56
628.676	912.57
628.874	955.38
629.073	910.05
629.271	910.43
629.469	961.58
629.668	934.85
629.866	924.77
630.065	925.35
630.263	941.05
630.461	905.2
630.66	931.55
630.858	936.78
631.056	976.7
631.254	1022.42
631.453	891.06
631.651	950.15
631.849	938.53
632.047	945.89
632.245	915.28
632.444	942.98
632.642	954.41
632.84	996.65
633.038	925.55
633.236	924.58
633.434	945.89
633.632	921.28
633.83	908.69
634.028	987.74
634.227	939.3
634.425	996.07
634.623	926.9
634.821	967.01
635.019	948.22
635.216	908.69
635.414	972.43
635.612	949.57
635.81	944.34
636.008	1011.18
636.206	927.87
636.404	954.22
636.602	902.49
636.8	922.45
636.997	968.75
637.195	970.69
637.393	963.33
637.591	993.55
637.789	914.89
637.986	936.2
638.184	963.71
638.382	971.46
638.58	980.57
638.777	991.03
638.975	938.14
639.173	938.72
639.37	955
639.568	948.99
639.765	954.41
639.963	918.57
640.161	951.7
640.358	923.03
640.556	890.09
640.753	877.11
640.951	857.74
641.148	893.58
641.346	879.43
641.543	883.89
641.741	896.1
641.938	835.45
642.136	878.08
642.333	845.14
642.531	896.29
642.728	922.64
642.925	882.15
643.123	877.5
643.32	893.97
643.517	854.83
643.715	862.58
643.912	855.99
644.109	869.36
644.306	854.05
644.504	814.53
644.701	851.34
644.898	853.09
645.095	821.7
645.293	835.26
645.49	861.03
645.687	838.55
645.884	841.46
646.081	746.91
646.278	785.66
646.475	785.08
646.672	781.4
646.87	814.53
647.067	770.74
647.264	772.1
647.461	714.36
647.658	717.66
647.855	786.44
648.052	750.4
648.249	676.58
648.446	743.42
648.642	745.17
648.839	731.61
649.036	736.06
649.233	687.24
649.43	692.27
649.627	669.8
649.824	696.15
650.021	685.69
650.217	681.62
650.414	688.01
650.611	733.74
650.808	743.42
651.004	727.73
651.201	737.22
651.398	776.17
651.595	730.06
651.791	691.89
651.988	728.89
652.185	709.91
652.381	718.04
652.578	655.27
652.775	716.49
652.971	698.86
653.168	716.49
653.364	715.33
653.561	647.71
653.757	708.16
653.954	727.73
654.15	667.28
654.347	705.26
654.543	701.19
654.74	658.37
654.936	665.73
655.133	669.03
655.329	694.99
655.525	649.07
655.722	682.98
655.918	640.93
656.115	658.37
656.311	599.86
656.507	587.85
656.704	540.38
656.9	577
657.096	575.83
657.292	575.25
657.489	635.89
657.685	605.67
657.881	621.17
658.077	624.46
658.273	632.02
658.47	673.68
658.666	610.9
658.862	660.89
659.058	626.21
659.254	668.83
659.45	638.61
659.646	652.75
659.842	608.38
660.038	688.59
660.234	624.46
660.43	641.32
660.626	710.1
660.822	673.09
661.018	710.1
661.214	626.98
661.41	607.22
661.606	673.48
661.802	650.23
661.998	627.76
662.194	600.05
662.39	629.11
662.586	627.76
662.781	625.24
662.977	622.33
663.173	646.94
663.369	638.8
663.564	658.95
663.76	649.65
663.956	589.2
664.152	665.73
664.347	570.02
664.543	592.5
664.739	589.78
664.934	573.31
665.13	538.05
665.326	621.36
665.521	616.71
665.717	556.46
665.912	560.14
666.108	531.27
666.304	566.53
666.499	577.96
666.695	530.3
666.89	548.32
667.086	599.86
667.281	580.29
667.477	608.96
667.672	556.07
667.867	546.19
668.063	570.8
668.258	545.61
668.454	554.71
668.649	602.76
668.844	548.51
669.04	572.35
669.235	540.76
669.43	536.11
669.626	503.57
669.821	531.66
670.016	515.97
670.211	570.02
670.407	526.04
670.602	538.25
670.797	524.3
670.992	593.85
671.187	513.45
671.382	562.08
671.578	518.1
671.773	547.35
671.968	497.17
672.163	518.87
672.358	559.75
672.553	503.37
672.748	499.5
672.943	565.18
673.138	509.77
673.333	546.96
673.528	496.78
673.723	548.32
673.918	510.54
674.113	503.57
674.308	594.43
674.503	531.85
674.698	536.5
674.892	530.69
675.087	535.15
675.282	525.46
675.477	480.12
675.672	569.44
675.867	511.32
676.061	506.67
676.256	493.88
676.451	511.9
676.646	531.27
676.84	473.15
677.035	454.16
677.23	492.13
677.424	504.34
677.619	540.38
677.814	553.55
678.008	546.19
678.203	470.82
678.397	492.33
678.592	526.23
678.787	554.13
678.981	521.2
679.176	487.68
679.37	521.78
679.565	491.55
679.759	474.5
679.954	515.58
680.148	539.99
680.342	587.65
680.537	527.01
680.731	510.54
680.926	524.49
681.12	536.89
681.314	488.65
681.509	489.42
681.703	528.36
681.897	550.45
682.092	507.83
682.286	480.12
682.48	598.89
682.674	536.31
682.869	514.03
683.063	526.62
683.257	593.85
683.451	511.32
683.645	553.16
683.839	520.61
684.034	518.1
684.228	555.68
684.422	509.18
684.616	501.05
684.81	554.71
685.004	535.15
685.198	553.75
685.392	569.44
685.586	515.58
685.78	549.68
685.974	541.73
686.168	565.56
686.362	601.6
686.556	514.42
686.75	494.46
686.944	474.5
687.138	492.33
687.331	396.62
687.525	445.44
687.719	379.76
687.913	439.63
688.107	463.46
688.301	425.29
688.494	477.6
688.688	424.9
688.882	427.42
689.076	442.73
689.269	467.33
689.463	564.21
689.657	493.3
689.85	479.54
690.044	529.91
690.238	524.88
690.431	525.46
690.625	532.05
690.818	553.55
691.012	564.79
691.205	582.42
691.399	555.3
691.593	578.74
691.786	651.78
691.98	660.5
692.173	690.53
692.366	668.64
692.56	695.76
692.753	760.28
692.947	654.3
693.14	739.55
693.333	746.72
693.527	709.71
693.72	784.3
693.914	756.21
694.107	730.25
694.3	762.41
694.493	742.26
694.687	824.02
694.88	723.27
695.073	848.63
695.266	853.86
695.46	850.18
695.653	875.95
695.846	866.45
696.039	819.95
696.232	836.42
696.425	905.78
696.618	941.05
696.812	923.42
697.005	998.2
697.198	1076.48
697.391	1019.51
697.584	1054
697.777	1119.49
697.97	1055.36
698.163	1084.42
698.356	1077.64
698.549	1190.59
698.742	1128.79
698.935	1129.95
699.127	1188.07
699.32	1098.37
699.513	1161.34
699.706	1173.16
699.899	1197.96
700.092	1162.69
700.285	1181.49
700.477	1157.07
700.67	1222.37
700.863	1241.74
701.056	1320.4
701.248	1292.12
701.441	1274.68
701.634	1287.66
701.826	1367.48
702.019	1259.76
702.212	1359.54
702.404	1311.1
702.597	1325.25
702.79	1333.38
702.982	1398.68
703.175	1422.12
703.367	1416.11
703.56	1460.68
703.752	1533.72
703.945	1463.39
704.137	1497.68
704.33	1546.7
704.522	1559.49
704.715	1585.06
704.907	1594.56
705.1	1624.2
705.292	1666.05
705.484	1628.66
705.677	1684.07
705.869	1673.8
706.061	1667.6
706.254	1710.22
706.446	1719.14
706.638	1686.97
706.831	1756.14
707.023	1706.74
707.215	1817.75
707.407	1825.12
707.599	1764.86
707.792	1868.51
707.984	1834.03
708.176	1894.09
708.368	1856.7
708.56	1927.61
708.752	1880.14
708.944	1876.46
709.136	1927.99
709.329	1914.63
709.521	2007.62
709.713	2025.45
709.905	1983.79
710.097	2059.16
710.289	1966.36
710.481	2015.96
710.672	2037.46
710.864	2082.41
711.056	2110.12
711.248	2111.86
711.44	2100.82
711.632	2100.62
711.824	2143.25
712.016	2187.42
712.207	2164.17
712.399	2188.39
712.591	2274.8
712.783	2187.23
712.975	2253.68
713.166	2212.61
713.358	2224.62
713.55	2283.52
713.741	2313.16
713.933	2282.55
714.125	2294.56
714.316	2261.05
714.508	2318.98
714.7	2331.96
714.891	2333.12
715.083	2341.06
715.274	2298.25
715.466	2338.16
715.657	2397.25
715.849	2260.47
716.04	2291.66
716.232	2255.82
716.423	2284.68
716.615	2195.37
716.806	2126.39
716.998	2107.79
717.189	2034.17
717.381	1934.58
717.572	1914.82
717.763	1913.08
717.955	1898.16
718.146	1908.23
718.337	1841.97
718.528	1807.87
718.72	1713.13
718.911	1775.71
719.102	1723.98
719.293	1768.54
719.485	1779.39
719.676	1729.4
719.867	1670.89
720.058	1742
720.249	1713.13
720.44	1753.82
720.632	1788.11
720.823	1843.13
721.014	1956.09
721.205	1994.26
721.396	2038.62
721.587	2137.44
721.778	2172.7
721.969	2229.08
722.16	2286.62
722.351	2329.63
722.542	2420.11
722.733	2443.56
722.924	2382.14
723.115	2412.56
723.305	2420.89
723.496	2374.58
723.687	2226.75
723.878	2257.95
724.069	2274.61
724.26	2264.73
724.45	2181.22
724.641	2176.57
724.832	2203.31
725.023	2212.42
725.213	2168.82
725.404	2165.72
725.595	2164.75
725.785	2143.25
725.976	2224.43
726.167	2201.57
726.357	2198.66
726.548	2300.96
726.739	2225.4
726.929	2333.9
727.12	2326.34
727.31	2339.13
727.501	2251.55
727.691	2284.88
727.882	2296.5
728.072	2331.38
728.263	2381.94
728.453	2380.39
728.644	2447.82
728.834	2423.02
729.024	2360.44
729.215	2379.43
729.405	2413.72
729.596	2490.06
729.786	2467.19
729.976	2479.59
730.167	2479.01
730.357	2510.21
730.547	2451.31
730.737	2530.94
730.928	2527.84
731.118	2583.05
731.308	2497.22
731.498	2543.72
731.688	2651.06
731.879	2613.28
732.069	2736.89
732.259	2732.24
732.449	2729.72
732.639	2808.77
732.829	2828.53
733.019	2863.99
733.209	2974.62
733.399	2947.49
733.589	3018.21
733.779	3059.09
733.969	3024.6
734.159	3117.8
734.349	3161.39
734.539	3178.25
734.729	3186.77
734.919	3217
735.109	3242.38
735.299	3198.78
735.488	3195.3
735.678	3224.36
735.868	3212.15
736.058	3227.26
736.248	3216.03
736.437	3161.39
736.627	3205.56
736.817	3305.15
737.007	3228.81
737.196	3314.84
737.386	3290.23
737.576	3297.21
737.765	3304.96
737.955	3287.52
738.144	3392.14
738.334	3357.27
738.524	3306.89
738.713	3362.5
738.903	3346.42
739.092	3415.59
739.282	3370.25
739.471	3394.86
739.661	3422.75
739.85	3416.75
740.04	3480.3
740.229	3486.11
740.419	3493.08
740.608	3502.97
740.797	3483.2
740.987	3507.23
741.176	3527.38
741.365	3490.18
741.555	3478.36
741.744	3588.41
741.933	3545.4
742.123	3589.76
742.312	3578.91
742.501	3553.73
742.69	3603.33
742.88	3550.05
743.069	3659.51
743.258	3598.48
743.447	3638.59
743.636	3620.38
743.825	3596.55
744.014	3638.98
744.204	3674.43
744.393	3617.86
744.582	3674.24
744.771	3713.96
744.96	3637.23
745.149	3664.36
745.338	3642.46
745.527	3737.4
745.716	3681.41
745.905	3645.76
746.094	3692.26
746.283	3721.32
746.471	3685.67
746.66	3731.78
746.849	3706.01
747.038	3729.84
747.227	3712.6
747.416	3737.21
747.604	3669.39
747.793	3699.04
747.982	3695.16
748.171	3702.14
748.359	3705.04
748.548	3712.21
748.737	3740.11
748.926	3666.49
749.114	3606.43
749.303	3684.12
749.491	3646.53
749.68	3614.76
749.869	3660.68
750.057	3634.91
750.246	3659.71
750.434	3644.4
750.623	3635.49
750.811	3587.44
751	3682.18
751.188	3609.53
751.377	3648.08
751.565	3629.87
751.754	3605.65
751.942	3579.3
752.131	3673.27
752.319	3582.6
752.507	3605.07
752.696	3630.84
752.884	3639.75
753.072	3618.25
753.261	3655.25
753.449	3615.53
753.637	3577.56
753.825	3683.34
754.014	3596.55
754.202	3601
754.39	3626.19
754.578	3630.45
754.766	3557.41
754.955	3555.08
755.143	3649.25
755.331	3592.86
755.519	3593.45
755.707	3531.25
755.895	3528.15
756.083	3510.52
756.271	3482.04
756.459	3537.65
756.647	3517.88
756.835	3511.3
757.023	3496.18
757.211	3501.03
757.399	3505.29
757.587	3470.61
757.775	3490.18
757.963	3483.01
758.151	3463.44
758.339	3421.4
758.526	3411.32
758.714	3383.42
758.902	3311.74
759.09	3209.05
759.278	3016.08
759.465	2770.41
759.653	2426.89
759.841	2161.27
760.028	1892.54
760.216	1624.78
760.404	1516.67
760.591	1280.88
760.779	1010.99
760.967	891.06
761.154	749.82
761.342	751.17
761.529	792.64
761.717	801.74
761.905	777.72
762.092	875.17
762.28	806.97
762.467	806.2
762.655	685.49
762.842	749.24
763.029	777.33
763.217	793.22
763.404	762.99
763.592	775.39
763.779	729.09
763.966	782.75
764.154	838.75
764.341	878.47
764.528	875.17
764.716	972.05
764.903	1019.13
765.09	1114.64
765.277	1120.84
765.465	1293.28
765.652	1308.97
765.839	1413.98
766.026	1556
766.213	1598.43
766.4	1710.22
766.588	1912.88
766.775	1941.94
766.962	2060.32
767.149	2125.23
767.336	2277.71
767.523	2303.86
767.71	2384.27
767.897	2502.65
768.084	2584.99
768.271	2644.86
768.458	2694.46
768.645	2769.25
768.832	2735.34
769.019	2796.18
769.206	2829.5
769.392	2890.72
769.579	2961.44
769.766	2910.68
769.953	2940.13
770.14	2988.37
770.327	2997.29
770.513	3065.29
770.7	3120.9
770.887	3041.65
771.073	3095.13
771.26	3076.72
771.447	3057.93
771.634	3038.17
771.82	3127.68
772.007	3048.24
772.193	3114.5
772.38	3126.9
772.567	3088.35
772.753	3095.9
772.94	3138.53
773.126	3085.05
773.313	3129.62
773.499	3086.41
773.686	3114.5
773.872	3067.62
774.059	3093.19
774.245	3087.77
774.432	3071.49
774.618	3010.07
774.804	3078.66
774.991	3034.29
775.177	3086.02
775.363	3040.3
775.55	3118.57
775.736	2989.54
775.922	2986.24
776.109	3066.26
776.295	3040.3
776.481	3063.16
776.667	3067.23
776.853	3012.79
777.04	3033.71
777.226	3026.54
777.412	3059.28
777.598	2942.07
777.784	2999.22
777.97	2944.59
778.156	3024.99
778.342	2961.64
778.528	2980.24
778.715	2943.23
778.901	2960.67
779.087	2969.77
779.272	2946.14
779.458	2917.46
779.644	2901.38
779.83	2908.55
780.016	3003.29
780.202	2925.99
780.388	2907
780.574	2833.57
780.76	2900.61
780.946	2907
781.131	2933.74
781.317	2863.99
781.503	2886.46
781.689	2851.39
781.874	2966.09
782.06	2862.83
782.246	2887.24
782.432	2860.89
782.617	2886.85
782.803	2881.04
782.989	2814.97
783.174	2798.11
783.36	2796.37
783.545	2785.91
783.731	2785.91
783.916	2706.66
784.102	2800.63
784.288	2693.68
784.473	2765.56
784.659	2730.3
784.844	2764.98
785.029	2708.21
785.215	2700.27
785.4	2675.86
785.586	2811.29
785.771	2696.78
785.956	2751.42
786.142	2719.84
786.327	2722.36
786.512	2680.51
786.698	2633.04
786.883	2632.27
787.068	2636.33
787.254	2653.19
787.439	2633.23
787.624	2595.45
787.809	2595.65
787.994	2562.32
788.18	2691.94
788.365	2569.49
788.55	2607.47
788.735	2589.84
788.92	2556.7
789.105	2571.04
789.29	2584.02
789.475	2513.69
789.66	2535
789.845	2454.02
790.03	2464.09
790.215	2533.07
790.4	2532.68
790.585	2544.69
790.77	2502.46
790.955	2428.25
791.14	2441.23
791.325	2519.89
791.51	2361.99
791.695	2472.81
791.879	2489.09
792.064	2414.88
792.249	2519.51
792.434	2467.39
792.618	2459.64
792.803	2505.36
792.988	2467.58
793.173	2479.98
793.357	2502.46
793.542	2403.64
793.727	2473.01
793.911	2460.8
794.096	2494.71
794.281	2488.89
794.465	2548.18
794.65	2486.96
794.834	2518.73
795.019	2505.36
795.203	2542.37
795.388	2528.03
795.572	2551.67
795.757	2525.51
795.941	2529.77
796.126	2496.06
796.31	2441.81
796.494	2485.79
796.679	2463.51
796.863	2459.25
797.048	2534.04
797.232	2509.62
797.416	2508.07
797.601	2517.18
797.785	2589.25
797.969	2576.66
798.153	2502.46
798.338	2523.77
798.522	2597.2
798.706	2572.59
798.89	2567.17
799.074	2636.33
799.258	2611.73
799.443	2572.2
799.627	2568.14
799.811	2595.65
799.995	2550.7
800.179	2504.59
800.363	2536.94
800.547	2561.55
800.731	2550.89
800.915	2485.41
801.099	2488.7
801.283	2509.43
801.467	2514.86
801.651	2511.95
801.835	2578.99
802.019	2528.42
802.202	2521.06
802.386	2486.96
802.57	2460.99
802.754	2460.99
802.938	2517.18
803.121	2464.09
803.305	2533.07
803.489	2482.31
803.673	2503.23
803.856	2517.76
804.04	2462.35
804.224	2498.58
804.407	2467
804.591	2496.26
804.775	2479.01
804.958	2498.19
805.142	2565.23
805.326	2511.76
805.509	2527.64
805.693	2552.05
805.876	2549.54
806.06	2552.05
806.243	2565.04
806.427	2571.62
806.61	2600.88
806.794	2510.98
806.977	2564.07
807.16	2550.12
807.344	2592.74
807.527	2553.6
807.71	2495.48
807.894	2577.44
808.077	2575.89
808.26	2490.83
808.444	2479.59
808.627	2556.51
808.81	2466.61
808.993	2422.83
809.177	2452.86
809.36	2467
809.543	2461.77
809.726	2358.31
809.909	2387.18
810.092	2386.21
810.276	2364.31
810.459	2351.72
810.642	2360.24
810.825	2317.81
811.008	2346.1
811.191	2234.7
811.374	2233.15
811.557	2221.52
811.74	2297.08
811.923	2227.92
812.106	2204.67
812.289	2128.52
812.472	2160.88
812.654	2151.77
812.837	2112.83
813.02	2045.41
813.203	2086.48
813.386	1951.05
813.569	1935.36
813.751	1870.06
813.934	1931.29
814.117	1915.01
814.3	1836.16
814.482	1796.63
814.665	1782.1
814.848	1753.82
815.03	1692.01
815.213	1672.83
815.396	1647.06
815.578	1639.7
815.761	1625.94
815.943	1677.29
816.126	1566.85
816.309	1522.87
816.491	1490.71
816.674	1431.61
816.856	1499.04
817.039	1501.56
817.221	1570.34
817.403	1495.16
817.586	1506.59
817.768	1521.13
817.951	1448.86
818.133	1444.01
818.315	1458.74
818.498	1522.29
818.68	1577.51
818.862	1510.28
819.045	1572.86
819.227	1540.69
819.409	1525.78
819.591	1506.98
819.774	1536.82
819.956	1519.77
820.138	1610.06
820.32	1584.48
820.502	1677.67
820.684	1720.88
820.866	1731.92
821.048	1754.2
821.231	1760.4
821.413	1763.12
821.595	1730.95
821.777	1761.18
821.959	1750.91
822.141	1823.37
822.323	1668.95
822.505	1585.06
822.686	1530.43
822.868	1450.41
823.05	1390.54
823.232	1352.76
823.414	1305.87
823.596	1365.55
823.778	1358.18
823.96	1385.5
824.141	1369.03
824.323	1398.87
824.505	1464.16
824.687	1544.57
824.868	1602.89
825.05	1668.37
825.232	1715.84
825.413	1750.91
825.595	1729.4
825.777	1664.3
825.958	1680
826.14	1698.6
826.321	1732.12
826.503	1696.47
826.685	1777.84
826.866	1719.33
827.048	1748.78
827.229	1696.66
827.411	1647.26
827.592	1569.95
827.773	1595.33
827.955	1548.25
828.136	1525.19
828.318	1512.02
828.499	1547.67
828.68	1482.96
828.862	1533.91
829.043	1536.04
829.224	1525.58
829.406	1522.48
829.587	1486.64
829.768	1516.67
829.949	1512.79
830.131	1490.13
830.312	1558.52
830.493	1520.35
830.674	1550.19
830.855	1555.42
831.036	1543.02
831.218	1616.06
831.399	1586.81
831.58	1540.5
831.761	1575.76
831.942	1548.64
832.123	1545.15
832.304	1490.71
832.485	1525.39
832.666	1506.59
832.847	1583.12
833.028	1526.36
833.209	1552.71
833.389	1521.9
833.57	1490.51
833.751	1505.43
833.932	1570.14
834.113	1536.43
834.294	1513.18
834.475	1561.43
834.655	1566.66
834.836	1599.98
835.017	1615.67
835.198	1532.56
835.378	1601.92
835.559	1607.15
835.74	1606.96
835.92	1569.95
836.101	1536.82
836.281	1612.96
836.462	1599.98
836.643	1602.5
836.823	1614.12
837.004	1635.44
837.184	1660.43
837.365	1636.41
837.545	1648.61
837.726	1598.04
837.906	1667.99
838.087	1626.52
838.267	1607.73
838.448	1567.24
838.628	1621.29
838.808	1639.51
838.989	1665.08
839.169	1588.36
839.349	1665.85
839.53	1642.22
839.71	1632.14
839.89	1596.69
840.07	1667.6
840.251	1598.62
840.431	1642.02
840.611	1627.69
840.791	1601.92
840.971	1619.16
841.151	1594.36
841.332	1582.35
841.512	1641.83
841.692	1575.96
841.872	1645.51
842.052	1605.41
842.232	1608.89
842.412	1562.39
842.592	1617.22
842.772	1651.91
842.952	1640.47
843.132	1576.34
843.312	1567.82
843.492	1547.67
843.672	1610.06
843.851	1542.05
844.031	1565.69
844.211	1558.71
844.391	1530.62
844.571	1577.51
844.751	1606.37
844.93	1570.92
845.11	1564.33
845.29	1573.44
845.47	1606.76
845.649	1614.51
845.829	1615.48
846.009	1546.89
846.188	1602.69
846.368	1576.54
846.547	1625.75
846.727	1607.73
846.907	1530.43
847.086	1589.71
847.266	1591.46
847.445	1564.91
847.625	1537.21
847.804	1530.81
847.984	1521.51
848.163	1529.65
848.343	1548.64
848.522	1547.09
848.701	1515.51
848.881	1519.38
849.06	1527.52
849.239	1527.52
849.419	1537.79
849.598	1471.14
849.777	1442.08
849.957	1433.94
850.136	1383.57
850.315	1389.77
850.494	1402.94
850.674	1424.06
850.853	1461.26
851.032	1409.72
851.211	1468.62
851.39	1403.91
851.569	1361.48
851.748	1380.47
851.927	1431.42
852.107	1457.58
852.286	1371.75
852.465	1395.77
852.644	1443.24
852.823	1437.43
853.002	1424.64
853.181	1404.3
853.359	1450.99
853.538	1345.59
853.717	1423.48
853.896	1344.23
854.075	1291.54
854.254	1243.49
854.433	1175.29
854.611	1228.95
854.79	1166.96
854.969	1248.33
855.148	1260.15
855.327	1231.86
855.505	1244.84
855.684	1266.93
855.863	1293.09
856.041	1285.34
856.22	1339.78
856.399	1298.9
856.577	1370.2
856.756	1354.12
856.934	1490.9
857.113	1458.74
857.291	1367.87
857.47	1347.33
857.648	1367.29
857.827	1366.13
858.005	1404.49
858.184	1324.67
858.362	1438.78
858.541	1344.04
858.719	1356.05
858.898	1308.39
859.076	1342.1
859.254	1401.39
859.433	1316.33
859.611	1324.67
859.789	1293.47
859.967	1359.15
860.146	1369.03
860.324	1296.96
860.502	1300.84
860.68	1274.1
860.859	1270.03
861.037	1292.89
861.215	1332.42
861.393	1297.93
861.571	1313.23
861.749	1313.04
861.927	1292.12
862.105	1300.06
862.283	1293.67
862.461	1264.41
862.639	1276.42
862.817	1270.03
862.995	1286.11
863.173	1289.21
863.351	1299.48
863.529	1283.4
863.707	1320.4
863.885	1297.93
864.063	1241.74
864.241	1249.3
864.418	1299.48
864.596	1271.77
864.774	1215.01
864.952	1249.1
865.129	1257.24
865.307	1223.34
865.485	1180.13
865.663	1207.06
865.84	1147.39
866.018	1218.69
866.196	1095.85
866.373	1118.52
866.551	1046.25
866.728	1010.21
866.906	1082.68
867.084	1112.9
867.261	1131.11
867.439	1108.25
867.616	1149.13
867.794	1139.64
867.971	1166.57
868.149	1161.53
868.326	1209.77
868.503	1183.62
868.681	1162.31
868.858	1141.57
869.035	1167.34
869.213	1168.89
869.39	1143.51
869.567	1204.16
869.745	1157.85
869.922	1164.63
870.099	1172.19
870.276	1166.18
870.454	1173.74
870.631	1195.44
870.808	1143.71
870.985	1164.05
871.162	1198.92
871.339	1160.56
871.517	1127.04
871.694	1100.5
871.871	1124.33
872.048	1126.08
872.225	1129.56
872.402	1129.56
872.579	1099.73
872.756	1110.58
872.933	1107.86
873.11	1114.06
873.287	1131.11
873.463	1088.88
873.64	1079.38
873.817	1141.77
873.994	1099.14
874.171	1062.72
874.348	1093.33
874.524	1060.59
874.701	1076.09
874.878	1027.26
875.055	1081.9
875.231	1034.82
875.408	1090.23
875.585	1023.78
875.762	1091.01
875.938	1054.97
876.115	1036.95
876.291	1053.42
876.468	1056.33
876.645	1010.6
876.821	1047.03
876.998	1036.56
877.174	1052.84
877.351	1029.98
877.527	1005.76
877.704	1055.74
877.88	1026.3
878.057	998.2
878.233	1064.08
878.409	1039.86
878.586	1031.72
878.762	1046.44
878.938	1003.63
879.115	953.45
879.291	1030.56
879.467	931.94
879.644	986.58
879.82	1002.46
879.996	981.93
880.172	950.54
880.349	996.46
880.525	995.49
880.701	987.16
880.877	950.54
881.053	983.86
881.229	966.81
881.405	993.75
881.581	960.81
881.757	952.28
881.933	955
882.109	1003.05
882.285	985.8
882.461	913.15
882.637	990.26
882.813	940.27
882.989	974.56
883.165	998.98
883.341	913.73
883.517	979.02
883.693	991.42
883.869	1019.13
884.044	933.88
884.22	1013.9
884.396	998.59
884.572	989.1
884.747	969.33
884.923	992
885.099	981.73
885.275	989.48
885.45	936.78
885.626	958.87
885.801	926.13
885.977	940.85
886.153	918.18
886.328	945.12
886.504	942.4
886.679	975.53
886.855	922.06
887.03	951.12
887.206	983.28
887.381	958.48
887.557	997.62
887.732	969.91
887.908	993.36
888.083	1015.25
888.258	952.09
888.434	945.7
888.609	957.51
888.784	1005.95
888.96	956.35
889.135	940.47
889.31	942.98
889.485	970.69
889.661	922.06
889.836	989.48
890.011	983.09
890.186	964.49
890.361	926.13
890.537	983.86
890.712	971.27
890.887	954.22
891.062	957.13
891.237	980.76
891.412	928.07
891.587	945.7
891.762	961.39
891.937	968.56
892.112	904.82
892.287	945.5
892.462	902.88
892.637	888.54
892.812	860.45
892.987	868.78
893.161	874.4
893.336	882.73
893.511	815.5
893.686	864.9
893.861	839.33
894.035	846.5
894.21	864.32
894.385	817.24
894.56	816.27
894.734	772.87
894.909	749.82
895.084	793.41
895.258	758.15
895.433	761.25
895.608	745.56
895.782	714.36
895.957	700.41
896.131	716.49
896.306	670.19
896.48	652.94
896.655	660.89
896.829	602.57
897.004	603.15
897.178	605.48
897.353	604.7
897.527	652.75
897.701	590.56
897.876	559.56
898.05	656.63
898.224	629.31
898.399	648.68
898.573	618.84
898.747	535.15
898.921	576.61
899.096	498.33
899.27	498.14
899.444	507.44
899.618	519.26
899.792	540.18
899.967	520.42
900.141	596.37
900.315	515.58
900.489	522.16
900.663	556.26
900.837	521.78
901.011	503.37
901.185	568.66
901.359	523.52
901.533	535.34
901.707	542.31
901.881	531.27
902.055	520.81
902.229	536.31
902.403	576.03
902.576	541.73
902.75	547.55
902.924	627.76
903.098	581.06
903.272	647.71
903.446	694.41
903.619	666.7
903.793	683.75
903.967	657.98
904.14	689.95
904.314	703.51
904.488	687.63
904.661	690.53
904.835	689.18
905.009	698.67
905.182	733.74
905.356	706.22
905.529	698.67
905.703	661.47
905.876	655.85
906.05	653.14
906.223	641.51
906.397	549.87
906.57	542.9
906.744	562.46
906.917	537.28
907.09	527.59
907.264	534.76
907.437	516.55
907.61	463.46
907.784	484.77
907.957	507.25
908.13	495.23
908.304	497.75
908.477	470.63
908.65	473.53
908.823	456.68
908.996	508.22
909.17	454.55
909.343	452.61
909.516	463.27
909.689	497.17
909.862	437.69
910.035	482.64
910.208	414.44
910.381	443.89
910.554	540.96
910.727	465.2
910.9	468.3
911.073	428.78
911.246	532.24
911.419	511.32
911.592	471.21
911.765	437.88
911.938	447.18
912.11	474.89
912.283	466.37
912.456	499.5
912.629	488.26
912.802	460.36
912.974	397.59
913.147	389.64
913.32	341.79
913.493	366.97
913.665	403.59
913.838	382.09
914.01	366.78
914.183	418.12
914.356	412.5
914.528	432.85
914.701	466.56
914.873	444.28
915.046	411.15
915.218	376.66
915.391	312.92
915.563	342.75
915.736	394.29
915.908	423.35
916.081	426.07
916.253	403.79
916.425	401.27
916.598	385.77
916.77	416.57
916.942	381.12
917.115	299.55
917.287	374.72
917.459	347.6
917.632	342.56
917.804	271.46
917.976	401.27
918.148	364.07
918.32	394.29
918.493	389.45
918.665	442.53
918.837	397.59
919.009	457.65
919.181	439.43
919.353	420.25
919.525	410.18
919.697	424.71
919.869	425.87
920.041	476.83
920.213	545.22
920.385	480.9
920.557	413.47
920.729	456.48
920.901	457.84
921.073	423.55
921.244	418.7
921.416	480.12
921.588	439.63
921.76	430.72
921.932	496.59
922.103	425.49
922.275	425.29
922.447	440.4
922.619	383.83
922.79	421.61
922.962	397.2
923.134	433.43
923.305	387.7
923.477	352.64
923.648	372.59
923.82	392.55
923.991	352.64
924.163	322.41
924.335	371.04
924.506	346.44
924.677	400.49
924.849	345.27
925.02	360.97
925.192	388.87
925.363	363.29
925.535	386.35
925.706	334.23
925.877	405.14
926.049	356.9
926.22	394.1
926.391	357.87
926.562	384.99
926.734	325.71
926.905	404.95
927.076	309.82
927.247	352.64
927.419	276.3
927.59	327.64
927.761	283.66
927.932	289.67
928.103	311.76
928.274	271.26
928.445	246.27
928.616	257.51
928.787	243.94
928.958	271.26
929.129	268.74
929.3	204.03
929.471	184.08
929.642	180.98
929.813	120.91
929.984	191.24
930.155	144.55
930.326	184.66
930.496	146.3
930.667	108.71
930.838	155.4
931.009	129.63
931.18	151.14
931.35	148.81
931.521	143
931.692	65.7
931.863	50.39
932.033	97.28
932.204	106.58
932.374	93.01
932.545	71.12
932.716	105.61
932.886	99.99
933.057	27.53
933.227	44.19
933.398	121.11
933.568	64.53
933.739	11.45
933.909	42.64
934.08	85.85
934.25	2.73
934.421	27.72
934.591	26.56
934.761	39.15
934.932	-4.44
935.102	55.82
935.272	15.32
935.443	38.57
935.613	42.64
935.783	32.18
935.953	10.28
936.123	155.4
936.294	3.7
936.464	19.2
936.634	39.15
936.804	-23.81
936.974	16.87
937.144	37.41
937.314	41.67
937.484	7.57
937.655	9.12
937.825	82.16
937.995	10.67
938.165	43.61
938.334	5.44
938.504	49.62
938.674	17.45
938.844	50.2
939.014	90.88
939.184	89.53
939.354	123.24
939.524	110.65
939.694	84.88
939.863	57.75
940.033	150.56
940.203	128.28
940.373	98.44
940.542	127.11
940.712	80.61
940.882	98.63
941.051	134.09
941.221	99.99
941.391	117.04
941.56	61.43
941.73	74.03
941.899	179.04
942.069	88.75
942.238	114.91
942.408	66.86
942.577	94.37
942.747	65.7
942.916	51.94
943.086	38.18
943.255	112
943.425	106.58
943.594	65.12
943.763	-3.08
943.933	40.7
944.102	1.95
944.271	44
944.441	56.98
944.61	34.31
944.779	88.75
944.948	153.85
945.117	18.03
945.287	64.92
945.456	5.83
945.625	45.74
945.794	76.16
945.963	25.78
946.132	89.72
946.301	52.13
946.47	44.58
946.639	25.78
946.808	16.68
946.977	76.93
947.146	87.59
947.315	51.36
947.484	97.28
947.653	60.47
947.822	29.08
947.991	33.15
948.16	124.79
948.329	87.78
948.498	52.52
948.666	64.73
948.835	64.73
949.004	18.03
949.173	32.18
949.341	61.82
949.51	53.1
949.679	113.75
949.847	73.83
950.016	98.05
950.185	106
950.353	39.93
950.522	21.52
950.69	100.18
950.859	53.68
951.028	112.2
951.196	64.92
951.365	40.7
951.533	64.53
951.701	83.13
951.87	60.47
952.038	23.46
952.207	48.84
952.375	124.01
952.543	31.6
952.712	50
952.88	60.85
953.048	102.51
953.217	68.8
953.385	47.87
953.553	81.78
953.721	6.22
953.89	79.45
954.058	29.27
954.226	38.96
954.394	68.99
954.562	4.86
954.73	54.65
954.898	52.33
955.067	85.07
955.235	43.42
955.403	98.44
955.571	117.81
955.739	48.07
955.907	45.16
956.075	62.79
956.243	53.49
956.41	71.7
956.578	33.73
956.746	1.18
956.914	55.62
957.082	84.3
957.25	82.75
957.418	31.98
957.585	78.48
957.753	97.86
957.921	48.26
958.089	63.57
958.256	88.75
958.424	71.9
958.592	95.73
958.759	44.58
958.927	74.8
959.095	32.95
959.262	66.47
959.43	61.24
959.597	28.11
959.765	64.73
959.932	51.55
960.1	90.88
960.267	72.87
960.435	68.99
960.602	74.22
960.77	46.71
960.937	15.71
961.104	50
961.272	1.95
961.439	64.34
961.606	74.8
961.774	55.23
961.941	70.35
962.108	70.93
962.275	71.7
962.443	121.3
962.61	80.81
962.777	113.16
962.944	75.38
963.111	102.7
963.278	75.77
963.446	77.32
963.613	73.64
963.78	89.91
963.947	91.08
964.114	82.94
964.281	143
964.448	111.03
964.615	60.66
964.782	105.22
964.949	111.42
965.116	92.43
965.282	149.2
965.449	84.3
965.616	52.52
965.783	87.2
965.95	89.72
966.117	16.1
966.283	81.58
966.45	70.93
966.617	98.25
966.784	101.73
966.95	129.63
967.117	96.5
967.284	51.94
967.45	76.93
967.617	126.15
967.784	103.86
967.95	149.2
968.117	66.86
968.283	129.63
968.45	167.99
968.616	128.66
968.783	129.05
968.949	109.1
969.116	133.31
969.282	92.24
969.449	111.23
969.615	100.38
969.781	79.84
969.948	92.05
970.114	71.9
970.28	124.79
970.447	120.91
970.613	156.76
970.779	118.4
970.945	148.62
971.112	86.43
971.278	85.85
971.444	109.29
971.61	107.16
971.776	104.64
971.942	104.06
972.108	107.55
972.275	104.06
972.441	115.3
972.607	149.59
972.773	95.34
972.939	99.99
973.105	108.32
973.271	68.99
973.437	90.3
973.602	65.7
973.768	88.95
973.934	104.64
974.1	111.81
974.266	42.64
974.432	102.9
974.598	100.18
974.763	98.25
974.929	89.14
975.095	149.01
975.261	80.81
975.426	52.52
975.592	68.41
975.758	158.5
975.923	33.15
976.089	77.52
976.255	103.67
976.42	80.03
976.586	90.11
976.751	109.48
976.917	145.33
977.082	98.44
977.248	43.42
977.413	47.1
977.579	74.03
977.744	70.54
977.91	31.98
978.075	64.92
978.24	99.99
978.406	68.41
978.571	78.1
978.736	64.73
978.902	113.55
979.067	60.27
979.232	58.14
979.397	121.5
979.563	108.51
979.728	50.2
979.893	74.22
980.058	58.14
980.223	87.01
980.388	79.07
980.554	71.9
980.719	54.07
980.884	78.1
981.049	117.23
981.214	74.42
981.379	117.81
981.544	53.1
981.709	76.16
981.874	88.75
982.039	66.67
982.204	72.09
982.368	92.63
982.533	73.06
982.698	119.75
982.863	121.3
983.028	51.36
983.193	119.56
983.357	99.02
983.522	96.5
983.687	78.29
983.852	94.56
984.016	74.61
984.181	112.2
984.346	96.89
984.51	102.51
984.675	74.42
984.839	100.57
985.004	119.95
985.168	112.58
985.333	98.63
985.498	87.2
985.662	99.99
985.827	107.16
985.991	92.63
986.155	73.83
986.32	129.05
986.484	139.51
986.649	92.24
986.813	29.66
986.977	87.01
987.142	116.07
987.306	59.11
987.47	72.67
987.634	63.37
987.799	99.41
987.963	99.6
988.127	98.44
988.291	134.67
988.455	78.48
988.62	101.15
988.784	105.61
988.948	87.2
989.112	61.05
989.276	108.71
989.44	81.78
989.604	56.2
989.768	53.68
989.932	120.33
990.096	39.54
990.26	55.23
990.424	38.96
990.588	72.28
990.752	138.93
990.915	101.54
991.079	56.98
991.243	66.67
991.407	102.31
991.571	76.55
991.734	91.66
991.898	81.78
992.062	144.36
992.226	78.68
992.389	39.15
992.553	17.65
992.717	69.96
992.88	46.52
993.044	65.5
993.207	53.68
993.371	112.39
993.535	115.3
993.698	79.07
993.862	101.15
994.025	98.05
994.189	77.32
994.352	76.35
994.515	70.73
994.679	111.03
994.842	62.21
995.006	84.49
995.169	53.3
995.332	43.61
995.496	87.59
995.659	48.84
995.822	64.92
995.985	79.07
996.149	127.11
996.312	79.65
996.475	126.34
996.638	56.78
996.801	110.06
996.964	99.6
997.128	55.62
997.291	52.52
997.454	58.53
997.617	40.12
997.78	105.22
997.943	62.02
998.106	111.42
998.269	51.94
998.432	47.48
998.595	62.21
998.758	24.04
998.92	43.8
999.083	43.03
999.246	35.08
999.409	20.94
999.572	3.12
999.735	43.8
999.897	86.43
1000.06	32.95
1000.223	57.95
1000.386	75.77
1000.548	101.93
1000.711	91.85
1000.874	66.47
1001.036	33.73
1001.199	79.45
1001.361	46.13
1001.524	76.74
1001.687	98.05
1001.849	49.03
1002.012	68.41
1002.174	38.77
1002.337	99.21
1002.499	59.11
1002.661	82.75
1002.824	12.22
1002.986	35.28
1003.149	67.44
1003.311	45.16
1003.473	136.41
1003.636	24.04
1003.798	79.26
1003.96	69.18
1004.123	41.87
1004.285	41.28
1004.447	55.43
1004.609	36.05
1004.771	88.36
1004.933	27.33
1005.096	20.94
1005.258	0.4
1005.42	41.67
1005.582	109.1
1005.744	62.79
1005.906	3.7
1006.068	56.59
1006.23	17.26
1006.392	-2.12
1006.554	4.47
1006.716	63.37
1006.878	60.47
1007.04	3.89
1007.202	33.73
1007.363	52.72
1007.525	92.05
1007.687	50.78
1007.849	65.5
1008.011	8.73
1008.172	22.49
1008.334	29.27
1008.496	54.07
1008.658	-3.47
1008.819	18.23
1008.981	20.94
1009.143	29.27
1009.304	45.74
1009.466	60.08
1009.627	58.33
1009.789	139.32
1009.95	55.82
1010.112	13.38
1010.273	31.4
1010.435	26.17
1010.596	19.58
1010.758	35.86
1010.919	39.54
1011.081	16.1
1011.242	14.74
1011.403	71.32
1011.565	30.24
1011.726	55.04
1011.887	11.45
1012.049	11.25
1012.21	70.15
1012.371	89.72
1012.532	-6.77
1012.693	56.78
1012.855	8.54
1013.016	37.22
1013.177	42.64
1013.338	46.32
1013.499	100.76
1013.66	50
1013.821	61.43
1013.982	36.63
1014.143	29.47
1014.304	35.86
1014.465	34.31
1014.626	55.82
1014.787	13
1014.948	87.2
1015.109	-17.61
1015.27	72.87
1015.431	17.65
1015.592	-0.37
1015.752	80.23
1015.913	58.14
1016.074	46.32
1016.235	14.55
1016.395	19.58
1016.556	29.27
1016.717	37.02
1016.877	79.65
1017.038	19.39
1017.199	34.12
1017.359	36.05
1017.52	49.03
1017.681	8.15
1017.841	31.4
1018.002	38.38
1018.162	21.72
1018.323	47.68
1018.483	16.48
1018.644	34.31
1018.804	-9.09
1018.964	26.17
1019.125	8.35
1019.285	31.79
1019.446	13
1019.606	8.73
1019.766	2.92
1019.926	37.41
1020.087	26.75
1020.247	10.87
1020.407	22.1
1020.567	54.07
1020.728	-0.57
1020.888	2.53
1021.048	6.8
1021.208	-8.12
1021.368	12.8
1021.528	79.26
1021.688	49.62
1021.848	64.73
1022.008	34.31
1022.168	26.56
1022.328	18.03
1022.488	42.64
1022.648	7.38
1022.808	30.05
1022.968	49.23
1023.128	12.8
1023.288	8.73
1023.448	36.83
1023.608	24.23
1023.767	17.65
1023.927	15.32
1024.087	7.18
1024.247	-17.61
1024.406	16.48
1024.566	-8.51
1024.726	12.22
1024.885	21.52
1025.045	27.92
1025.205	-0.76
1025.364	0.4
1025.524	46.9
1025.683	11.06
1025.843	37.02
1026.003	7.96
1026.162	57.56
1026.321	60.85
1026.481	2.73
1026.64	34.5
1026.8	45.74
1026.959	20.17
1027.119	30.43
1027.278	2.34
1027.437	4.47
1027.597	36.44
1027.756	33.73
1027.915	34.5
1028.074	47.48
1028.234	-11.61
1028.393	1.95
1028.552	34.12
1028.711	-34.28
1028.87	62.21
1029.03	2.34
1029.189	18.03
1029.348	-6.77
1029.507	6.02
1029.666	-8.9
1029.825	-7.54
1029.984	-33.89
1030.143	15.71
1030.302	-8.9
1030.461	0.02
1030.62	21.91
1030.779	30.24
1030.938	0.98
1031.097	-5.99
1031.255	36.83
1031.414	54.07
1031.573	49.81
1031.732	-36.8
1031.891	31.02
1032.049	53.3
1032.208	62.21
1032.367	-12.58
1032.525	13.58
1032.684	3.5
1032.843	19
1033.001	-37.76
1033.16	149.4
1033.319	44.97
1033.477	39.93
1033.636	1.37
1033.794	-36.21
1033.953	49.03
1034.111	46.9
1034.27	-17.81
1034.428	13
1034.587	6.22
1034.745	20.17
1034.903	13.97
1035.062	48.45
1035.22	-19.36
1035.378	56.78
1035.537	7.38
1035.695	30.43
1035.853	-1.73
1036.011	25.78
1036.17	14.16
1036.328	-52.88
1036.486	23.07
1036.644	23.85
1036.802	-69.35
1036.96	-5.99
1037.119	14.74
1037.277	-0.18
1037.435	-5.22
1037.593	-18
1037.751	-2.12
1037.909	58.92
1038.067	58.92
