Data from gum_young_FLMT105791__103__17-40-31-041.txt Node

Date: Mon Mar 20 17:40:31 GMT 2023
User: antho
Spectrometer: FLMT10579
Trigger mode: 0
Integration Time (sec): 1.000000E-1
Scans to average: 10
Electric dark correction enabled: true
Nonlinearity correction enabled: false
Boxcar width: 0
XAxis mode: Wavelengths
Number of Pixels in Spectrum: 3648
>>>>>Begin Spectral Data<<<<<
345.248	-145.28
345.464	-145.28
345.681	-145.28
345.898	-165.82
346.114	-162.91
346.331	-25.93
346.548	36.07
346.764	-11.01
346.981	-4.04
347.197	2.94
347.414	-13.92
347.631	-27.29
347.847	67.26
348.064	1.58
348.28	22.89
348.497	-44.72
348.713	-3.84
348.93	9.91
349.146	1.78
349.363	0.23
349.579	18.63
349.796	4.1
350.012	7.78
350.229	44.01
350.445	-4.23
350.661	-28.45
350.878	-6.94
351.094	4.29
351.311	-4.23
351.527	36.84
351.743	-26.9
351.96	47.11
352.176	13.79
352.392	24.83
352.609	31.42
352.825	-14.31
353.041	2.16
353.257	-3.46
353.474	10.49
353.69	13.79
353.906	-2.68
354.122	-24.96
354.339	75.4
354.555	15.14
354.771	-1.71
354.987	47.5
355.203	60.68
355.42	26.19
355.636	-11.79
355.852	-11.21
356.068	19.21
356.284	-21.28
356.5	39.36
356.716	4.88
356.932	9.53
357.148	17.66
357.364	2.55
357.58	14.56
357.796	44.79
358.012	60.48
358.228	7.39
358.444	-16.63
358.66	59.32
358.876	31.61
359.092	-8.49
359.308	13.59
359.524	12.82
359.74	-2.68
359.956	-7.52
360.172	-4.23
360.388	32.19
360.604	-17.21
360.819	75.21
361.035	36.65
361.251	30.84
361.467	0.81
361.683	29.68
361.898	18.24
362.114	37.62
362.33	0.03
362.546	23.67
362.762	4.1
362.977	30.45
363.193	-30
363.409	34.13
363.624	-21.09
363.84	-1.52
364.056	-12.76
364.271	20.38
364.487	12.43
364.703	9.53
364.918	-6.94
365.134	7.78
365.35	-20.12
365.565	88.77
365.781	10.3
365.996	31.42
366.212	53.12
366.427	13.98
366.643	8.36
366.858	4.29
367.074	-5.2
367.289	60.09
367.505	130.42
367.72	-7.91
367.936	-5.59
368.151	56.41
368.367	3.13
368.582	32.39
368.798	2.36
369.013	52.73
369.228	33.74
369.444	38.98
369.659	60.68
369.874	29.87
370.09	37.04
370.305	-44.14
370.52	6.81
370.736	53.51
370.951	7.01
371.166	52.93
371.381	66.49
371.597	53.12
371.812	9.91
372.027	-30.39
372.242	-14.5
372.458	58.93
372.673	-3.65
372.888	8.56
373.103	31.61
373.318	69.78
373.533	52.15
373.749	24.44
373.964	-41.24
374.179	69.59
374.394	-19.15
374.609	56.61
374.824	-12.37
375.039	63
375.254	-5.97
375.469	53.31
375.684	37.62
375.899	44.21
376.114	-0.94
376.329	32.97
376.544	65.13
376.759	50.02
376.974	2.55
377.189	19.99
377.404	-6.94
377.619	47.11
377.834	-23.02
378.049	-23.8
378.264	-30.39
378.478	31.23
378.693	-8.3
378.908	38.78
379.123	32.39
379.338	68.43
379.553	42.46
379.767	29.09
379.982	52.15
380.197	58.35
380.412	32.78
380.626	55.64
380.841	96.91
381.056	60.48
381.271	74.82
381.485	9.91
381.7	-7.91
381.915	33.55
382.129	-4.62
382.344	41.49
382.559	16.31
382.773	53.7
382.988	-1.52
383.202	34.52
383.417	1.19
383.632	119.19
383.846	17.08
384.061	32.97
384.275	25.03
384.49	44.4
384.704	39.17
384.919	58.93
385.133	37.04
385.348	35.29
385.562	-18.37
385.777	73.07
385.991	28.13
386.206	36.65
386.42	43.24
386.634	68.43
386.849	63.39
387.063	34.71
387.277	36.65
387.492	20.76
387.706	6.23
387.92	30.26
388.135	66.88
388.349	69.98
388.563	38.39
388.778	29.09
388.992	58.93
389.206	51.38
389.42	94.58
389.635	19.6
389.849	79.08
390.063	80.24
390.277	45.18
390.491	86.06
390.706	45.56
390.92	84.89
391.134	37.23
391.348	79.47
391.562	0.42
391.776	20.57
391.99	10.49
392.205	70.56
392.419	9.53
392.633	38.2
392.847	67.07
393.061	25.8
393.275	112.41
393.489	42.08
393.703	76.56
393.917	59.51
394.131	4.68
394.345	74.62
394.559	58.74
394.773	31.42
394.986	53.89
395.2	50.02
395.414	80.44
395.628	40.14
395.842	60.87
396.056	48.28
396.27	1.19
396.484	75.98
396.697	56.99
396.911	81.41
397.125	56.03
397.339	66.88
397.553	71.72
397.766	123.26
397.98	81.6
398.194	66.88
398.408	53.89
398.621	88.57
398.835	56.41
399.049	67.84
399.262	88.38
399.476	87.61
399.69	92.84
399.903	144.76
400.117	77.34
400.331	95.16
400.544	49.63
400.758	158.91
400.971	78.11
401.185	113.96
401.398	62.23
401.612	105.82
401.826	110.66
402.039	122.67
402.253	91.09
402.466	122.67
402.68	81.02
402.893	121.9
403.106	105.43
403.32	89.16
403.533	99.23
403.747	82.96
403.96	107.17
404.174	114.15
404.387	63
404.6	116.09
404.814	104.07
405.027	101.56
405.24	107.95
405.454	94
405.667	129.84
405.88	53.89
406.094	111.44
406.307	121.12
406.52	107.56
406.733	70.17
406.947	60.48
407.16	163.17
407.373	169.95
407.586	77.72
407.799	76.56
408.012	120.93
408.226	96.71
408.439	148.06
408.652	61.45
408.865	121.9
409.078	148.64
409.291	93.81
409.504	99.23
409.717	108.34
409.93	112.02
410.143	102.33
410.357	66.68
410.57	60.29
410.783	98.46
410.996	115.31
411.209	113.76
411.421	155.61
411.634	127.32
411.847	81.6
412.06	118.41
412.273	100.59
412.486	118.02
412.699	189.71
412.912	111.63
413.125	144.37
413.338	123.45
413.55	139.92
413.763	121.51
413.976	159.49
414.189	97.87
414.402	98.46
414.615	186.42
414.827	101.94
415.04	157.94
415.253	116.09
415.466	156.97
415.678	200.17
415.891	139.92
416.104	132.36
416.316	125.58
416.529	111.24
416.742	127.13
416.954	179.05
417.167	153.09
417.38	131.39
417.592	169.56
417.805	134.49
418.017	95.74
418.23	138.37
418.442	123.64
418.655	117.44
418.868	140.89
419.08	172.27
419.293	172.66
419.505	143.99
419.718	175.76
419.93	157.94
420.142	145.73
420.355	162.78
420.567	183.12
420.78	139.72
420.992	166.07
421.205	181.38
421.417	114.54
421.629	150.77
421.842	128.29
422.054	139.14
422.266	169.17
422.479	217.42
422.691	118.22
422.903	161.81
423.115	130.62
423.328	176.34
423.54	151.74
423.752	132.75
423.964	119.96
424.177	144.57
424.389	131.78
424.601	242.6
424.813	199.79
425.025	193.97
425.238	164.33
425.45	152.12
425.662	139.72
425.874	410.2
426.086	168.59
426.298	183.51
426.51	203.08
426.722	188.55
426.934	123.84
427.146	177.89
427.358	138.37
427.57	205.4
427.782	161.62
427.994	153.09
428.206	167.43
428.418	123.84
428.63	172.27
428.842	176.92
429.054	187.39
429.266	206.37
429.478	142.44
429.69	162.97
429.902	138.76
430.114	177.89
430.325	186.42
430.537	162.2
430.749	144.76
430.961	92.64
431.173	141.27
431.384	163.36
431.596	93.81
431.808	158.91
432.02	190.87
432.231	199.79
432.443	244.15
432.655	210.83
432.867	161.62
433.078	190.1
433.29	279.61
433.502	257.52
433.713	228.65
433.925	214.7
434.136	237.18
434.348	180.99
434.56	124.22
434.771	278.45
434.983	167.24
435.194	207.54
435.406	209.09
435.617	250.35
435.829	268.18
436.04	230.98
436.252	237.57
436.463	242.41
436.675	218.58
436.886	222.65
437.098	260.04
437.309	318.36
437.521	226.91
437.732	241.25
437.943	201.72
438.155	250.93
438.366	194.75
438.578	252.1
438.789	235.05
439	248.8
439.211	211.8
439.423	240.47
439.634	249.38
439.845	234.85
440.057	234.08
440.268	262.17
440.479	235.05
440.69	246.29
440.902	229.04
441.113	240.86
441.324	215.09
441.535	273.41
441.746	312.55
441.957	245.51
442.168	231.37
442.38	280.77
442.591	309.64
442.802	265.47
443.013	266.24
443.224	267.02
443.435	265.47
443.646	265.27
443.857	282.52
444.068	280.19
444.279	257.91
444.49	332.31
444.701	252.1
444.912	341.03
445.123	324.17
445.334	281.55
445.545	275.73
445.756	290.27
445.967	247.83
446.178	290.85
446.388	309.25
446.599	282.32
446.81	308.67
447.021	273.6
447.232	338.51
447.443	320.49
447.653	267.21
447.864	323.2
448.075	301.89
448.286	353.62
448.496	334.05
448.707	346.45
448.918	306.15
449.129	405.16
449.339	315.26
449.55	358.27
449.761	280.58
449.971	369.31
450.182	317.58
450.393	344.71
450.603	303.44
450.814	370.86
451.024	334.83
451.235	357.3
451.446	380.16
451.656	400.31
451.867	322.43
452.077	352.85
452.288	403.61
452.498	381.52
452.709	340.64
452.919	344.51
453.13	322.43
453.34	376.68
453.55	317.2
453.761	338.12
453.971	353.62
454.182	351.68
454.392	366.02
454.602	394.31
454.813	378.61
455.023	403.22
455.233	311.58
455.444	357.5
455.654	291.23
455.864	334.44
456.075	325.53
456.285	342.19
456.495	365.44
456.705	364.08
456.916	386.17
457.126	423.76
457.336	374.55
457.546	321.07
457.756	359.82
457.967	410.39
458.177	379.58
458.387	369.9
458.597	336.96
458.807	359.63
459.017	340.64
459.227	350.71
459.437	376.1
459.647	418.91
459.857	398.96
460.068	359.82
460.278	421.24
460.488	432.86
460.698	457.86
460.908	376.1
461.117	350.33
461.327	359.05
461.537	386.17
461.747	430.34
461.957	394.89
462.167	501.84
462.377	419.3
462.587	421.82
462.797	445.65
463.007	406.51
463.216	442.74
463.426	463.67
463.636	447.01
463.846	350.13
464.056	372.22
464.265	430.15
464.475	386.95
464.685	426.66
464.895	467.74
465.104	433.83
465.314	459.99
465.524	424.92
465.733	408.45
465.943	475.49
466.153	464.64
466.362	484.21
466.572	453.59
466.782	413.3
466.991	435.77
467.201	486.14
467.41	366.21
467.62	450.69
467.829	458.05
468.039	452.04
468.249	422.98
468.458	465.03
468.668	485.95
468.877	471.03
469.086	515.01
469.296	476.07
469.505	448.75
469.715	528.57
469.924	485.95
470.134	502.03
470.343	513.27
470.552	463.09
470.762	445.84
470.971	420.27
471.18	505.13
471.39	453.59
471.599	478.2
471.808	514.62
472.018	455.53
472.227	516.37
472.436	510.17
472.645	497.77
472.855	476.46
473.064	549.89
473.273	535.36
473.482	557.64
473.691	565.77
473.901	548.53
474.11	541.94
474.319	610.72
474.528	545.04
474.737	578.76
474.946	548.53
475.155	564.61
475.364	589.02
475.573	587.47
475.783	584.57
475.992	577.79
476.201	598.9
476.41	560.54
476.619	547.95
476.828	565.19
477.037	545.43
477.245	567.71
477.454	589.41
477.663	574.49
477.872	573.91
478.081	658.97
478.29	561.9
478.499	693.65
478.708	642.69
478.917	666.52
479.125	656.45
479.334	629.32
479.543	616.34
479.752	637.65
479.961	654.7
480.169	698.88
480.378	625.25
480.587	774.63
480.796	700.43
481.004	695.58
481.213	701.01
481.422	687.83
481.63	687.45
481.839	726.58
482.048	750.42
482.256	728.91
482.465	749.45
482.674	768.24
482.882	762.04
483.091	769.6
483.299	705.27
483.508	726.2
483.716	740.92
483.925	771.73
484.134	714.38
484.342	735.3
484.551	731.04
484.759	739.76
484.967	769.21
485.176	778.31
485.384	776.18
485.593	795.75
485.801	766.88
486.01	727.17
486.218	732.78
486.426	656.45
486.635	658.19
486.843	687.06
487.051	706.82
487.26	716.12
487.468	722.13
487.676	748.28
487.885	751.19
488.093	769.02
488.301	817.26
488.509	831.4
488.717	863.18
488.926	791.88
489.134	811.83
489.342	798.85
489.55	778.7
489.758	831.6
489.967	837.8
490.175	918.2
490.383	844.58
490.591	919.36
490.799	834.5
491.007	911.42
491.215	896.31
491.423	885.84
491.631	876.93
491.839	884.49
492.047	916.65
492.255	826.17
492.463	826.75
492.671	871.12
492.879	915.68
493.087	885.84
493.295	918.01
493.503	929.05
493.711	968.96
493.919	961.79
494.127	955.59
494.334	965.67
494.542	912.39
494.75	964.89
494.958	929.83
495.166	1008.49
495.374	995.12
495.581	1014.3
495.789	990.27
495.997	1030.19
496.205	1001.32
496.412	975.16
496.62	1010.81
496.828	1006.74
497.035	1016.82
497.243	1029.41
497.451	1035.42
497.658	1015.46
497.866	1027.28
498.074	1101.49
498.281	1042.2
498.489	1122.22
498.696	1019.72
498.904	1008.49
499.112	1010.04
499.319	1105.55
499.527	1023.6
499.734	1093.15
499.942	1028.44
500.149	1043.94
500.357	1054.02
500.564	1048.79
500.771	1070.1
500.979	1018.37
501.186	1032.32
501.394	1067.97
501.601	1072.04
501.808	1064.87
502.016	1066.03
502.223	1079.01
502.43	1081.34
502.638	1050.72
502.845	1039.29
503.052	1133.84
503.26	1081.92
503.467	1183.83
503.674	1126.67
503.881	1130.93
504.089	1192.35
504.296	1160.38
504.503	1085.79
504.71	1105.75
504.917	1145.85
505.125	1163.1
505.332	1167.75
505.539	1182.28
505.746	1269.66
505.953	1229.75
506.16	1230.52
506.367	1274.89
506.574	1279.93
506.781	1321.78
506.988	1235.56
507.195	1290.2
507.402	1267.72
507.609	1309.96
507.816	1244.08
508.023	1233.43
508.23	1259.2
508.437	1228.97
508.644	1285.74
508.851	1344.64
509.058	1349.09
509.265	1344.44
509.472	1390.94
509.679	1462.24
509.885	1357.43
510.092	1381.06
510.299	1374.48
510.506	1379.51
510.713	1394.82
510.92	1434.34
511.126	1454.11
511.333	1485.1
511.54	1461.86
511.746	1485.1
511.953	1502.15
512.16	1539.16
512.367	1483.75
512.573	1492.47
512.78	1517.07
512.987	1486.46
513.193	1518.62
513.4	1429.69
513.606	1507.77
513.813	1564.54
514.02	1487.43
514.226	1589.15
514.433	1599.42
514.639	1562.6
514.846	1573.84
515.052	1515.14
515.259	1587.79
515.465	1617.63
515.672	1624.6
515.878	1716.63
516.085	1667.42
516.291	1722.06
516.497	1642.62
516.704	1649.79
516.91	1592.44
517.117	1546.91
517.323	1475.22
517.529	1546.91
517.736	1556.4
517.942	1563.77
518.148	1570.55
518.354	1651.34
518.561	1591.86
518.767	1639.91
518.973	1711.98
519.179	1710.05
519.386	1723.03
519.592	1709.46
519.798	1738.72
520.004	1864.66
520.21	1819.13
520.417	1884.61
520.623	1932.27
520.829	1919.1
521.035	1943.32
521.241	1959.79
521.447	1961.34
521.653	2075.07
521.859	2003.18
522.065	2014.03
522.271	2129.12
522.477	2093.86
522.683	2121.95
522.889	2085.53
523.095	2069.83
523.301	2065.77
523.507	2032.63
523.713	2131.64
523.919	2088.43
524.125	2215.92
524.331	2185.89
524.537	2286.44
524.742	2270.36
524.948	2284.89
525.154	2312.02
525.36	2405.21
525.566	2281.79
525.772	2351.74
525.977	2307.95
526.183	2363.36
526.389	2366.46
526.595	2323.06
526.8	2277.92
527.006	2197.13
527.212	2125.25
527.417	2186.08
527.623	2163.8
527.829	2254.86
528.034	2324.81
528.24	2290.71
528.446	2333.72
528.651	2450.55
528.857	2448.61
529.062	2496.66
529.268	2526.3
529.473	2503.05
529.679	2542
529.884	2619.88
530.09	2574.16
530.295	2558.08
530.501	2616.39
530.706	2593.73
530.912	2571.45
531.117	2632.67
531.323	2619.3
531.528	2654.76
531.733	2690.99
531.939	2664.83
532.144	2665.99
532.35	2661.15
532.555	2664.44
532.76	2623.18
532.966	2620.85
533.171	2603.41
533.376	2582.49
533.581	2539.09
533.787	2621.24
533.992	2692.15
534.197	2664.83
534.402	2716.56
534.607	2708.81
534.813	2732.45
535.018	2674.13
535.223	2785.54
535.428	2739.81
535.633	2812.85
535.838	2825.64
536.043	2836.1
536.249	2918.45
536.454	2818.86
536.659	2870.2
536.864	2863.23
537.069	2815.95
537.274	2856.06
537.479	2807.82
537.684	2816.92
537.889	2775.66
538.094	2920.19
538.299	2844.63
538.504	2925.62
538.708	2902.95
538.913	2900.04
539.118	2932.59
539.323	2892.1
539.528	2840.56
539.733	2848.89
539.938	2862.45
540.142	2826.8
540.347	2818.47
540.552	2820.02
540.757	2780.11
540.962	2799.49
541.166	2764.81
541.371	2764.61
541.576	2767.32
541.781	2728.57
541.985	2877.57
542.19	2817.7
542.395	2963.01
542.599	2969.79
542.804	2894.03
543.008	2994.98
543.213	2894.03
543.418	2833
543.622	2967.85
543.827	2882.22
544.031	2927.36
544.236	3025.59
544.44	2951
544.645	3019.2
544.849	2954.48
545.054	3010.28
545.258	3045.54
545.463	3041.09
545.667	2972.7
545.872	3050
546.076	3025.59
546.281	3014.93
546.485	3010.67
546.689	3022.1
546.894	3039.15
547.098	3034.11
547.302	2983.74
547.507	3010.67
547.711	3004.86
547.915	3073.06
548.119	2970.18
548.324	2987.03
548.528	3062.21
548.732	3034.89
548.936	3056.78
549.141	3071.31
549.345	3015.71
549.549	3059.3
549.753	3083.33
549.957	3158.69
550.161	3088.36
550.366	3070.34
550.57	3053.1
550.774	3083.71
550.978	3092.82
551.182	3136.02
551.386	3035.86
551.59	3046.32
551.794	3058.53
551.998	3125.76
552.202	3089.33
552.406	3045.93
552.61	3127.31
552.814	3103.86
553.018	3120.91
553.222	3029.85
553.426	3056.98
553.63	3143.19
553.833	3086.23
554.037	2992.46
554.241	3068.6
554.445	3139.12
554.649	3084.1
554.853	3060.27
555.056	3089.33
555.26	3130.99
555.464	3104.25
555.668	3124.4
555.871	3131.57
556.075	3118.59
556.279	3063.18
556.483	3056.59
556.686	3039.93
556.89	3036.63
557.094	3031.01
557.297	2936.66
557.501	3030.82
557.704	2907.98
557.908	3023.26
558.112	2952.55
558.315	3040.9
558.519	2987.03
558.722	2965.33
558.926	2945.57
559.129	2809.56
559.333	2823.12
559.536	2839.79
559.74	2817.5
559.943	2799.87
560.147	2838.62
560.35	2856.45
560.553	2824.87
560.757	2794.64
560.96	2894.42
561.164	2855.09
561.367	2924.65
561.57	2909.34
561.774	2865.36
561.977	2839.59
562.18	2816.54
562.384	2880.86
562.587	2797.74
562.79	2827.58
562.993	2781.27
563.197	2794.64
563.4	2905.85
563.603	2874.47
563.806	2895
564.009	2753.57
564.212	2801.04
564.416	2717.14
564.619	2756.67
564.822	2729.74
565.025	2813.82
565.228	2738.26
565.431	2746.98
565.634	2662.51
565.837	2669.29
566.04	2675.49
566.243	2665.41
566.446	2539.86
566.649	2650.69
566.852	2565.25
567.055	2622.21
567.258	2630.54
567.461	2699.71
567.664	2702.03
567.867	2569.51
568.07	2607.29
568.273	2644.68
568.475	2670.26
568.678	2581.33
568.881	2564.86
569.084	2522.62
569.287	2433.88
569.489	2467.02
569.692	2526.3
569.895	2515.84
570.098	2411.22
570.3	2412.19
570.503	2375.95
570.706	2373.24
570.909	2369.56
571.111	2318.41
571.314	2309.69
571.516	2347.67
571.719	2328.87
571.922	2326.55
572.124	2293.22
572.327	2316.28
572.529	2288.77
572.732	2314.54
572.935	2344.76
573.137	2380.02
573.34	2295.55
573.542	2360.65
573.745	2343.79
573.947	2332.94
574.15	2275.98
574.352	2258.93
574.554	2352.51
574.757	2259.32
574.959	2196.35
575.162	2265.32
575.364	2202.16
575.566	2281.79
575.769	2151.79
575.971	2220.18
576.173	2080.88
576.376	2173.68
576.578	2162.83
576.78	2207.78
576.982	2100.06
577.185	2145.59
577.387	2152.37
577.589	2118.66
577.791	2137.45
577.993	2141.71
578.196	2079.52
578.398	2138.42
578.6	2116.33
578.802	2064.6
579.004	2059.37
579.206	2059.18
579.408	2083.01
579.61	2070.8
579.812	2118.66
580.014	2067.12
580.216	2068.48
580.418	2048.52
580.62	2087.66
580.822	2027.6
581.024	2071.19
581.226	2113.62
581.428	2105.29
581.63	2181.82
581.832	2099.86
582.034	2134.35
582.236	2114.2
582.438	2118.27
582.64	2167.29
582.841	2192.67
583.043	2203.52
583.245	2103.16
583.447	2150.63
583.649	2125.25
583.85	2129.51
584.052	2169.81
584.254	2068.67
584.456	2137.84
584.657	2068.87
584.859	2105.29
585.061	2068.09
585.262	2103.55
585.464	1996.21
585.666	2098.31
585.867	2047.36
586.069	2087.66
586.27	2048.91
586.472	2039.03
586.674	2014.42
586.875	2009.38
587.077	2023.92
587.278	2019.85
587.48	2031.28
587.681	2124.08
587.883	2038.83
588.084	1945.25
588.285	1966.18
588.487	1995.43
588.688	1953.39
588.89	1874.92
589.091	1819.51
589.292	1796.26
589.494	1757.71
589.695	1743.56
589.896	1689.7
590.098	1679.05
590.299	1722.83
590.5	1690.67
590.702	1733.88
590.903	1766.43
591.104	1832.49
591.305	1810.41
591.507	1855.36
591.708	1827.46
591.909	1858.65
592.11	1873.76
592.311	1852.64
592.512	1801.88
592.714	1810.99
592.915	1793.36
593.116	1778.24
593.317	1840.44
593.518	1832.88
593.719	1811.38
593.92	1854.77
594.121	1875.51
594.322	1863.88
594.523	1803.43
594.724	1789.29
594.925	1787.74
595.126	1808.28
595.327	1774.18
595.528	1841.41
595.729	1793.55
595.929	1751.31
596.13	1803.82
596.331	1824.55
596.532	1835.4
596.733	1912.32
596.934	1852.45
597.135	1824.74
597.335	1841.02
597.536	1809.63
597.737	1805.37
597.938	1776.31
598.138	1832.3
598.339	1752.28
598.54	1843.73
598.74	1815.64
598.941	1823.39
599.142	1853.61
599.342	1840.05
599.543	1755.58
599.744	1814.28
599.944	1788.51
600.145	1814.28
600.345	1834.04
600.546	1893.72
600.746	1837.92
600.947	1903.41
601.147	1829.78
601.348	1872.02
601.548	1786.19
601.749	1841.41
601.949	1799.36
602.15	1784.83
602.35	1813.51
602.551	1838.11
602.751	1764.68
602.951	1771.27
603.152	1734.07
603.352	1783.48
603.552	1798.2
603.753	1819.71
603.953	1856.13
604.153	1788.9
604.354	1775.53
604.554	1819.9
604.754	1791.42
604.954	1757.13
605.155	1799.94
605.355	1806.14
605.555	1822.42
605.755	1860.01
605.955	1776.89
606.155	1819.71
606.356	1780.76
606.556	1777.28
606.756	1789.09
606.956	1741.82
607.156	1782.51
607.356	1750.73
607.556	1763.71
607.756	1772.63
607.956	1804.01
608.156	1762.36
608.356	1698.61
608.556	1782.51
608.756	1736.01
608.956	1729.23
609.156	1676.53
609.356	1728.06
609.556	1678.08
609.755	1732.13
609.955	1677.69
610.155	1682.92
610.355	1691.64
610.555	1678.66
610.755	1679.24
610.954	1644.95
611.154	1666.65
611.354	1700.55
611.554	1678.85
611.753	1684.47
611.953	1628.09
612.153	1700.94
612.352	1668
612.552	1618.02
612.752	1598.06
612.951	1612.59
613.151	1613.17
613.351	1601.16
613.55	1595.15
613.75	1673.04
613.949	1558.15
614.149	1561.44
614.348	1607.36
614.548	1539.35
614.747	1555.63
614.947	1573.07
615.146	1494.4
615.346	1625.38
615.545	1587.21
615.745	1556.99
615.944	1549.43
616.144	1548.46
616.343	1553.11
616.542	1540.32
616.742	1514.55
616.941	1517.07
617.14	1467.67
617.34	1513.2
617.539	1518.82
617.738	1482.59
617.938	1576.36
618.137	1509.13
618.336	1481.81
618.535	1529.09
618.734	1513
618.934	1517.65
619.133	1515.91
619.332	1537.03
619.531	1488.01
619.73	1503.12
619.929	1531.22
620.128	1542.84
620.328	1552.34
620.527	1487.62
620.726	1498.86
620.925	1502.93
621.124	1507.58
621.323	1513.2
621.522	1484.33
621.721	1472.32
621.92	1449.46
622.119	1497.12
622.318	1455.07
622.517	1435.31
622.715	1458.17
622.914	1420.97
623.113	1439.57
623.312	1376.61
623.511	1435.31
623.71	1433.76
623.909	1386.29
624.107	1474.06
624.306	1364.4
624.505	1378.16
624.704	1365.18
624.902	1381.64
625.101	1412.26
625.3	1403.73
625.499	1371.96
625.697	1346.58
625.896	1367.11
626.095	1386.49
626.293	1316.16
626.492	1328.75
626.69	1382.81
626.889	1366.14
627.088	1351.03
627.286	1350.45
627.485	1313.25
627.683	1313.44
627.882	1310.93
628.08	1240.4
628.279	1265.2
628.477	1345.03
628.676	1258.61
628.874	1330.3
629.073	1273.73
629.271	1232.07
629.469	1313.64
629.668	1302.21
629.866	1255.13
630.065	1268.88
630.263	1294.07
630.461	1240.98
630.66	1291.36
630.858	1300.08
631.056	1306.47
631.254	1330.69
631.453	1271.21
631.651	1314.99
631.849	1268.11
632.047	1317.51
632.245	1284.58
632.444	1305.89
632.642	1354.13
632.84	1363.63
633.038	1282.25
633.236	1272.56
633.434	1280.7
633.632	1269.27
633.83	1243.89
634.028	1334.37
634.227	1283.61
634.425	1362.27
634.623	1326.43
634.821	1328.56
635.019	1346.58
635.216	1308.41
635.414	1340.76
635.612	1314.99
635.81	1288.65
636.008	1349.29
636.206	1284.77
636.404	1336.69
636.602	1250.28
636.8	1304.14
636.997	1323.52
637.195	1322.94
637.393	1317.9
637.591	1351.42
637.789	1338.05
637.986	1292.52
638.184	1308.6
638.382	1336.69
638.58	1330.3
638.777	1362.27
638.975	1293.3
639.173	1272.56
639.37	1299.88
639.568	1306.08
639.765	1296.78
639.963	1264.23
640.161	1307.83
640.358	1314.03
640.556	1226.06
640.753	1260.55
640.951	1236.72
641.148	1275.66
641.346	1258.23
641.543	1249.9
641.741	1239.43
641.938	1223.74
642.136	1223.35
642.333	1195.65
642.531	1272.37
642.728	1270.05
642.925	1216.96
643.123	1196.42
643.32	1259
643.517	1197
643.715	1207.08
643.912	1200.88
644.109	1215.8
644.306	1209.01
644.504	1191.77
644.701	1196.42
644.898	1211.15
645.095	1160.19
645.293	1205.33
645.49	1202.82
645.687	1196.62
645.884	1178.79
646.081	1114.27
646.278	1095.09
646.475	1101.49
646.672	1100.52
646.87	1128.61
647.067	1062.35
647.264	1122.6
647.461	1064.48
647.658	1038.71
647.855	1114.27
648.052	1056.15
648.249	976.13
648.446	1031.74
648.642	1049.37
648.839	1012.75
649.036	1000.16
649.233	1005.77
649.43	1021.66
649.627	949.39
649.824	996.09
650.021	1021.47
650.217	987.56
650.414	997.64
650.611	1005.19
650.808	1008.87
651.004	1028.64
651.201	1054.21
651.398	1038.13
651.595	1037.35
651.791	974.39
651.988	1020.31
652.185	1009.65
652.381	1042.97
652.578	974.39
652.775	988.92
652.971	992.99
653.168	1043.36
653.364	1032.9
653.561	953.07
653.757	1002.48
653.954	1004.42
654.15	1003.26
654.347	1044.52
654.543	1017.01
654.74	961.02
654.936	943.19
655.133	957.14
655.329	952.88
655.525	938.35
655.722	980.2
655.918	914.33
656.115	924.98
656.311	857.56
656.507	837.6
656.704	778.9
656.9	820.16
657.096	823.65
657.292	830.05
657.489	854.85
657.685	898.44
657.881	876.16
658.077	893.4
658.273	903.09
658.47	966.64
658.666	910.06
658.862	927.89
659.058	918.78
659.254	924.79
659.45	901.15
659.646	943.19
659.842	920.14
660.038	972.06
660.234	889.14
660.43	907.74
660.626	954.62
660.822	942.03
661.018	955.98
661.214	909.29
661.41	874.22
661.606	959.08
661.802	939.9
661.998	881.97
662.194	880.03
662.39	911.23
662.586	926.14
662.781	950.75
662.977	924.59
663.173	941.64
663.369	881.39
663.564	918.39
663.76	943.58
663.956	883.91
664.152	928.86
664.347	814.16
664.543	888.75
664.739	897.47
664.934	845.55
665.13	822.49
665.326	910.45
665.521	912.19
665.717	858.72
665.912	836.63
666.108	766.88
666.304	816.1
666.499	831.98
666.695	777.35
666.89	806.41
667.086	867.44
667.281	852.33
667.477	909.87
667.672	871.89
667.867	829.66
668.063	834.31
668.258	800.01
668.454	840.12
668.649	884.29
668.844	843.41
669.04	867.63
669.235	833.53
669.43	816.48
669.626	771.73
669.821	828.5
670.016	795.75
670.211	836.44
670.407	781.22
670.602	825.01
670.797	803.7
670.992	876.16
671.187	814.55
671.382	838.38
671.578	789.94
671.773	799.43
671.968	772.11
672.163	781.8
672.358	814.55
672.553	795.75
672.748	799.43
672.943	854.46
673.138	806.02
673.333	843.61
673.528	778.12
673.723	812.8
673.918	789.16
674.113	768.82
674.308	849.23
674.503	840.12
674.698	834.31
674.892	803.11
675.087	817.45
675.282	787.42
675.477	797.11
675.672	847.68
675.867	794.2
676.061	782
676.256	741.31
676.451	776.57
676.646	782.77
676.84	773.08
677.035	753.52
677.23	754.48
677.424	815.13
677.619	839.73
677.814	813.77
678.008	829.08
678.203	758.55
678.397	798.66
678.592	785.48
678.787	851.16
678.981	792.07
679.176	821.91
679.37	811.25
679.565	781.61
679.759	794.59
679.954	828.88
680.148	859.69
680.342	855.62
680.537	823.26
680.731	819.78
680.926	796.33
681.12	838.96
681.314	785.29
681.509	821.13
681.703	845.35
681.897	847.29
682.092	830.82
682.286	805.25
682.48	893.79
682.674	854.46
682.869	813.96
683.063	826.17
683.257	897.47
683.451	809.12
683.645	850.58
683.839	853.68
684.034	840.7
684.228	907.35
684.422	836.05
684.616	814.74
684.81	874.8
685.004	858.72
685.198	862.98
685.392	873.64
685.586	840.51
685.78	879.64
685.974	896.89
686.168	872.28
686.362	951.33
686.556	825.2
686.75	785.87
686.944	789.36
687.138	775.21
687.331	698.88
687.525	718.06
687.719	628.35
687.913	699.46
688.107	725.81
688.301	676.4
688.494	746.15
688.688	715.15
688.882	695.58
689.076	679.31
689.269	708.57
689.463	829.08
689.657	767.66
689.85	782.38
690.044	780.83
690.238	813.77
690.431	788.58
690.625	839.35
690.818	845.16
691.012	837.8
691.205	861.82
691.399	876.93
691.593	905.03
691.786	931.57
691.98	943.19
692.173	1010.04
692.366	982.72
692.56	1027.28
692.753	1048.79
692.947	993.37
693.14	1071.26
693.333	1063.12
693.527	1006.36
693.72	1105.75
693.914	1053.63
694.107	1077.85
694.3	1073.97
694.493	1071.45
694.687	1165.23
694.88	1089.67
695.073	1153.6
695.266	1191.58
695.46	1175.69
695.653	1248.54
695.846	1201.46
696.039	1225.68
696.232	1215.99
696.425	1289.23
696.618	1325.65
696.812	1324.88
697.005	1396.17
697.198	1457.21
697.391	1406.83
697.584	1453.14
697.777	1529.67
697.97	1459.34
698.163	1545.17
698.356	1490.92
698.549	1581.4
698.742	1546.14
698.935	1543.23
699.127	1598.64
699.32	1532.19
699.513	1594.18
699.706	1620.53
699.899	1622.08
700.092	1605.62
700.285	1664.71
700.477	1580.23
700.67	1641.65
700.863	1655.41
701.056	1788.71
701.248	1748.79
701.441	1766.04
701.634	1723.8
701.826	1900.69
702.019	1726.32
702.212	1827.26
702.404	1781.15
702.597	1813.12
702.79	1846.83
702.982	1893.14
703.175	1923.17
703.367	1937.31
703.56	1918.52
703.752	2052.4
703.945	2001.25
704.137	2040.58
704.33	2049.3
704.522	2071.58
704.715	2128.54
704.907	2117.69
705.1	2173.49
705.292	2173.1
705.484	2151.6
705.677	2211.27
705.869	2222.51
706.061	2242.46
706.254	2317.83
706.446	2255.64
706.638	2276.76
706.831	2344.76
707.023	2341.47
707.215	2450.55
707.407	2405.21
707.599	2417.03
707.792	2475.54
707.984	2472.05
708.176	2491.62
708.368	2474.18
708.56	2514.87
708.752	2518.55
708.944	2536.18
709.136	2593.34
709.329	2553.62
709.521	2670.26
709.713	2633.25
709.905	2700.29
710.097	2706.1
710.289	2651.85
710.481	2698.16
710.672	2775.07
710.864	2751.82
711.056	2802.59
711.248	2783.6
711.44	2822.35
711.632	2864.78
711.824	2825.64
712.016	2857.61
712.207	2866.14
712.399	2843.66
712.591	2913.02
712.783	2918.83
712.975	2968.82
713.166	2912.05
713.358	2949.06
713.55	3031.98
713.741	3017.45
713.933	3024.81
714.125	3004.86
714.316	2996.33
714.508	3062.01
714.7	3047.09
714.891	3037.99
715.083	3103.86
715.274	3038.18
715.466	3070.93
715.657	3060.85
715.849	3046.32
716.04	3055.23
716.232	2946.54
716.423	3009.9
716.615	2918.83
716.806	2865.55
716.998	2776.04
717.189	2668.71
717.381	2590.24
717.572	2573.77
717.763	2528.82
717.955	2552.46
718.146	2428.65
718.337	2376.92
718.528	2385.64
718.72	2273.85
718.911	2290.51
719.102	2284.12
719.293	2328.87
719.485	2294.39
719.676	2256.03
719.867	2225.41
720.058	2239.36
720.249	2228.71
720.44	2266.1
720.632	2331.97
720.823	2378.86
721.014	2536.57
721.205	2589.08
721.396	2687.11
721.587	2804.52
721.778	2895
721.969	2878.73
722.16	2974.25
722.351	3041.67
722.542	3145.32
722.733	3140.09
722.924	3069.18
723.115	3113.55
723.305	3052.71
723.496	3046.13
723.687	2909.73
723.878	2924.26
724.069	2941.12
724.26	2923.68
724.45	2821.96
724.641	2835.72
724.832	2871.37
725.023	2858.77
725.213	2834.17
725.404	2777.79
725.595	2775.85
725.785	2783.21
725.976	2883.18
726.167	2841.72
726.357	2827.58
726.548	2952.16
726.739	2853.54
726.929	2938.4
727.12	2986.06
727.31	2980.25
727.501	2947.51
727.691	2935.11
727.882	2971.73
728.072	2989.36
728.263	3017.06
728.453	3051.55
728.644	3027.14
728.834	3005.05
729.024	2964.36
729.215	2988
729.405	3041.86
729.596	3105.99
729.786	3098.44
729.976	3111.03
730.167	3141.84
730.357	3113.55
730.547	3096.31
730.737	3127.11
730.928	3204.42
731.118	3215.85
731.308	3162.57
731.498	3193.37
731.688	3271.07
731.879	3308.27
732.069	3367.36
732.259	3406.11
732.449	3467.91
732.639	3585.13
732.829	3530.69
733.019	3563.82
733.209	3672.32
733.399	3697.12
733.589	3768.42
733.779	3858.51
733.969	3833.13
734.159	3910.82
734.349	3916.63
734.539	3997.81
734.729	3980.76
734.919	4022.61
735.109	4060.01
735.299	3975.92
735.488	4010.41
735.678	4005.37
735.868	4029.39
736.058	4024.94
736.248	4012.92
736.437	3982.51
736.627	3966.81
736.817	4072.21
737.007	4008.47
737.196	4082.09
737.386	4048.96
737.576	4072.41
737.765	4147
737.955	4065.82
738.144	4235.35
738.334	4202.99
738.524	4096.24
738.713	4138.86
738.903	4175.48
739.092	4208.42
739.282	4195.63
739.471	4211.9
739.661	4162.3
739.85	4238.06
740.04	4243.48
740.229	4265.38
740.419	4303.74
740.608	4324.08
740.797	4309.75
740.987	4335.71
741.176	4344.23
741.365	4291.34
741.555	4254.33
741.744	4360.89
741.933	4297.54
742.123	4312.65
742.312	4413.79
742.501	4390.93
742.69	4426.96
742.88	4326.8
743.069	4411.27
743.258	4432.39
743.447	4517.64
743.636	4468.62
743.825	4413.98
744.014	4445.95
744.204	4483.15
744.393	4390.34
744.582	4522.29
744.771	4518.99
744.96	4509.11
745.149	4497.87
745.338	4502.33
745.527	4535.85
745.716	4453.89
745.905	4475.59
746.094	4546.12
746.283	4582.74
746.471	4461.45
746.66	4544.57
746.849	4543.02
747.038	4534.69
747.227	4478.89
747.416	4535.65
747.604	4468.42
747.793	4494.19
747.982	4480.44
748.171	4529.45
748.359	4492.84
748.548	4528.68
748.737	4489.16
748.926	4485.09
749.114	4347.53
749.303	4467.07
749.491	4405.84
749.68	4395.38
749.869	4517.64
750.057	4468.62
750.246	4397.51
750.434	4425.41
750.623	4401
750.811	4397.71
751	4435.88
751.188	4364.77
751.377	4388.21
751.565	4387.63
751.754	4409.72
751.942	4320.79
752.131	4425.8
752.319	4352.56
752.507	4302.58
752.696	4357.99
752.884	4377.56
753.072	4354.69
753.261	4384.34
753.449	4385.31
753.637	4289.01
753.825	4413.4
754.014	4354.11
754.202	4380.66
754.39	4410.69
754.578	4349.27
754.766	4316.53
754.955	4279.71
755.143	4419.41
755.331	4318.08
755.519	4300.64
755.707	4247.55
755.895	4236.12
756.083	4293.08
756.271	4223.92
756.459	4252.2
756.647	4317.11
756.835	4269.06
757.023	4196.4
757.211	4216.17
757.399	4215.2
757.587	4226.05
757.775	4140.99
757.963	4158.24
758.151	4167.34
758.339	4144.48
758.526	4119.1
758.714	4114.64
758.902	3993.74
759.09	3879.63
759.278	3647.52
759.465	3342.56
759.653	2918.64
759.841	2619.3
760.028	2275.59
760.216	1986.91
760.404	1844.51
760.591	1521.14
760.779	1287.29
760.967	1106.14
761.154	911.42
761.342	924.4
761.529	931.96
761.717	977.49
761.905	996.28
762.092	1024.96
762.28	991.82
762.467	936.61
762.655	873.44
762.842	924.21
763.029	933.12
763.217	927.69
763.404	923.24
763.592	934.48
763.779	889.72
763.966	938.74
764.154	970.12
764.341	1048.79
764.528	1084.05
764.716	1108.27
764.903	1184.41
765.09	1290.2
765.277	1333.98
765.465	1506.8
765.652	1599.03
765.839	1710.63
766.026	1841.99
766.213	1922.78
766.4	2016.17
766.588	2282.76
766.775	2324.22
766.962	2468.18
767.149	2546.26
767.336	2672.97
767.523	2719.27
767.71	2864.59
767.897	3012.03
768.084	3055.81
768.271	3130.21
768.458	3190.08
768.645	3273.97
768.832	3292.38
769.019	3328.22
769.206	3368.13
769.392	3434.59
769.579	3568.86
769.766	3529.33
769.953	3523.52
770.14	3568.86
770.327	3600.05
770.513	3629.5
770.7	3703.9
770.887	3620.39
771.073	3651.97
771.26	3671.93
771.447	3654.11
771.634	3630.86
771.82	3766.28
772.007	3672.7
772.193	3703.9
772.38	3676
772.567	3692.27
772.753	3672.32
772.94	3746.91
773.126	3707.39
773.313	3716.1
773.499	3711.07
773.686	3711.07
773.872	3641.32
774.059	3727.15
774.245	3657.98
774.432	3642.67
774.618	3622.91
774.804	3699.64
774.991	3620.97
775.177	3668.05
775.363	3626.4
775.55	3658.75
775.736	3573.7
775.922	3619.42
776.109	3643.26
776.295	3643.06
776.481	3622.72
776.667	3614.77
776.853	3589.97
777.04	3538.24
777.226	3548.71
777.412	3633.18
777.598	3574.09
777.784	3551.23
777.97	3526.23
778.156	3547.35
778.342	3561.49
778.528	3497.36
778.715	3490.19
778.901	3467.14
779.087	3566.14
779.272	3501.24
779.458	3471.21
779.644	3513.64
779.83	3469.46
780.016	3560.72
780.202	3465.01
780.388	3460.75
780.574	3387.32
780.76	3406.69
780.946	3447.18
781.131	3445.25
781.317	3409.4
781.503	3405.14
781.689	3419.09
781.874	3502.79
782.06	3405.72
782.246	3435.95
782.432	3415.99
782.617	3369.49
782.803	3471.79
782.989	3358.25
783.174	3327.64
783.36	3312.92
783.545	3352.44
783.731	3351.67
783.916	3243.36
784.102	3329.77
784.288	3294.32
784.473	3320.67
784.659	3297.42
784.844	3311.37
785.029	3263.51
785.215	3239.68
785.4	3189.5
785.586	3291.6
785.771	3196.67
785.956	3231.35
786.142	3185.82
786.327	3153.66
786.512	3187.56
786.698	3194.73
786.883	3061.82
787.068	3165.86
787.254	3184.85
787.439	3103.09
787.624	3119.75
787.809	3025.59
787.994	3051.74
788.18	3124.98
788.365	3049.61
788.55	3035.47
788.735	3043.99
788.92	3035.28
789.105	3030.43
789.29	3041.09
789.475	2944.02
789.66	2959.52
789.845	2953.9
790.03	2962.04
790.215	2985.68
790.4	3012.03
790.585	2992.26
790.77	2939.57
790.955	2860.13
791.14	2911.67
791.325	2990.91
791.51	2845.21
791.695	2917.48
791.879	2879.12
792.064	2884.35
792.249	2980.83
792.434	2881.83
792.618	2871.75
792.803	2960.1
792.988	2910.12
793.173	2937.24
793.357	2947.51
793.542	2883.96
793.727	2907.4
793.911	2996.91
794.096	2942.86
794.281	2964.17
794.465	3053.1
794.65	2961.65
794.834	3007.38
795.019	3013.58
795.203	3032.56
795.388	3002.15
795.572	3020.75
795.757	3017.84
795.941	2991.68
796.126	2977.93
796.31	2922.71
796.494	2966.69
796.679	2917.28
796.863	2864.2
797.048	3022.88
797.232	2936.08
797.416	2974.63
797.601	3020.75
797.785	3027.91
797.969	3047.48
798.153	2974.44
798.338	2996.72
798.522	3010.09
798.706	3023.85
798.89	3027.72
799.074	3145.71
799.258	3113.94
799.443	2994.4
799.627	3047.87
799.811	3069.38
799.995	3003.5
800.179	3003.31
800.363	2975.41
800.547	3020.75
800.731	3026.17
800.915	2922.52
801.099	2931.43
801.283	2956.03
801.467	2972.5
801.651	2964.95
801.835	3012.03
802.019	3010.48
802.202	2984.71
802.386	2933.95
802.57	2905.27
802.754	2961.85
802.938	2963.59
803.121	2929.88
803.305	3004.08
803.489	2918.25
803.673	3011.45
803.856	2975.6
804.04	2941.7
804.224	2979.48
804.407	2918.06
804.591	2933.56
804.775	2927.94
804.958	2959.91
805.142	3028.88
805.326	2944.99
805.509	2990.71
805.693	3036.63
805.876	3027.72
806.06	2996.53
806.243	3046.51
806.427	3032.76
806.61	3074.99
806.794	3009.7
806.977	3040.51
807.16	3025.4
807.344	3022.88
807.527	3052.71
807.71	2989.36
807.894	2982.77
808.077	3015.71
808.26	2977.73
808.444	2956.42
808.627	3022.1
808.81	2921.35
808.993	2884.93
809.177	2868.65
809.36	2898.49
809.543	2896.36
809.726	2775.66
809.909	2794.45
810.092	2781.08
810.276	2801.81
810.459	2785.34
810.642	2776.24
810.825	2727.99
811.008	2746.59
811.191	2676.07
811.374	2649.33
811.557	2661.15
811.74	2675.29
811.923	2614.65
812.106	2570.48
812.289	2549.36
812.472	2552.07
812.654	2544.51
812.837	2500.34
813.02	2453.84
813.203	2432.72
813.386	2303.3
813.569	2301.94
813.751	2263
813.934	2263.58
814.117	2232.97
814.3	2150.05
814.482	2153.53
814.665	2048.52
814.848	2067.9
815.03	1971.99
815.213	1985.36
815.396	1982.84
815.578	1917.94
815.761	1897.98
815.943	1966.37
816.126	1842.96
816.309	1810.41
816.491	1752.09
816.674	1726.32
816.856	1742.01
817.039	1716.05
817.221	1842.76
817.403	1754.8
817.586	1787.54
817.768	1793.36
817.951	1739.3
818.133	1701.52
818.315	1733.49
818.498	1756.93
818.68	1847.61
818.862	1806.53
819.045	1829.97
819.227	1848.38
819.409	1840.44
819.591	1840.05
819.774	1795.88
819.956	1770.3
820.138	1870.27
820.32	1844.12
820.502	1902.63
820.684	2016.17
820.866	1986.52
821.048	2080.49
821.231	2089.21
821.413	2059.18
821.595	2063.25
821.777	2092.31
821.959	2044.45
822.141	2102.96
822.323	1984.59
822.505	1876.47
822.686	1844.51
822.868	1745.89
823.05	1634.68
823.232	1578.68
823.414	1546.72
823.596	1595.35
823.778	1595.15
823.96	1629.83
824.141	1625.18
824.323	1651.73
824.505	1750.54
824.687	1820.67
824.868	1892.75
825.05	1931.69
825.232	2000.86
825.413	2077.58
825.595	2042.71
825.777	1970.44
825.958	1978.19
826.14	1995.82
826.321	2041.35
826.503	2022.56
826.685	2040.19
826.866	2028.95
827.048	2061.12
827.229	1980.9
827.411	1921.62
827.592	1852.06
827.773	1877.25
827.955	1823.77
828.136	1816.61
828.318	1803.04
828.499	1813.7
828.68	1772.24
828.862	1783.67
829.043	1805.56
829.224	1790.64
829.406	1756.16
829.587	1745.11
829.768	1778.44
829.949	1795.1
830.131	1767.78
830.312	1875.89
830.493	1790.06
830.674	1819.9
830.855	1793.36
831.036	1769.91
831.218	1863.49
831.399	1865.43
831.58	1818.74
831.761	1850.12
831.942	1832.3
832.123	1822.61
832.304	1776.5
832.485	1777.47
832.666	1807.89
832.847	1835.98
833.028	1804.59
833.209	1806.73
833.389	1794.91
833.57	1726.71
833.751	1721.48
833.932	1818.74
834.113	1793.55
834.294	1794.33
834.475	1804.21
834.655	1856.71
834.836	1847.99
835.017	1846.44
835.198	1794.71
835.378	1841.02
835.559	1893.33
835.74	1846.64
835.92	1835.01
836.101	1817.38
836.281	1918.9
836.462	1851.29
836.643	1910.77
836.823	1905.54
837.004	1897.21
837.184	1948.35
837.365	1905.73
837.545	1921.23
837.726	1897.59
837.906	1967.15
838.087	1893.91
838.267	1918.13
838.448	1875.31
838.628	1904.18
838.808	1872.6
838.989	1908.05
839.169	1853.03
839.349	1952.23
839.53	1966.95
839.71	1930.92
839.89	1908.25
840.07	1960.75
840.251	1877.64
840.431	1957.27
840.611	1884.42
840.791	1855.55
840.971	1934.21
841.151	1896.04
841.332	1871.82
841.512	1942.93
841.692	1830.56
841.872	1919.1
842.052	1871.05
842.232	1915.03
842.412	1832.11
842.592	1850.51
842.772	1928.01
842.952	1910.96
843.132	1847.22
843.312	1867.95
843.492	1856.52
843.672	1901.47
843.851	1806.34
844.031	1828.23
844.211	1857.87
844.391	1854.39
844.571	1858.07
844.751	1857.68
844.93	1859.42
845.11	1795.68
845.29	1833.66
845.47	1867.95
845.649	1842.96
845.829	1892.94
846.009	1833.07
846.188	1846.06
846.368	1864.85
846.547	1810.41
846.727	1897.79
846.907	1835.79
847.086	1836.95
847.266	1877.06
847.445	1840.44
847.625	1800.72
847.804	1813.51
847.984	1804.21
848.163	1800.14
848.343	1800.33
848.522	1816.99
848.701	1828.04
848.881	1757.71
849.06	1792.97
849.239	1780.96
849.419	1776.69
849.598	1691.06
849.777	1705.4
849.957	1702.68
850.136	1616.66
850.315	1623.05
850.494	1599.03
850.674	1657.93
850.853	1692.22
851.032	1652.11
851.211	1728.45
851.39	1695.32
851.569	1632.35
851.748	1615.5
851.927	1703.65
852.107	1662.96
852.286	1629.83
852.465	1625.57
852.644	1688.73
852.823	1658.9
853.002	1687.57
853.181	1633.13
853.359	1708.5
853.538	1608.13
853.717	1699.2
853.896	1541.87
854.075	1515.91
854.254	1489.37
854.433	1413.42
854.611	1450.62
854.79	1385.13
854.969	1456.24
855.148	1478.32
855.327	1391.52
855.505	1469.8
855.684	1487.43
855.863	1511.45
856.041	1485.3
856.22	1532.57
856.399	1538.19
856.577	1599.42
856.756	1572.48
856.934	1696.87
857.113	1691.25
857.291	1601.93
857.47	1597.28
857.648	1616.85
857.827	1603.48
858.005	1615.11
858.184	1565.32
858.362	1634.29
858.541	1586.63
858.719	1613.17
858.898	1571.9
859.076	1563.38
859.254	1616.47
859.433	1556.21
859.611	1528.12
859.789	1537.8
859.967	1572.87
860.146	1598.64
860.324	1505.84
860.502	1558.34
860.68	1511.26
860.859	1504.09
861.037	1517.07
861.215	1547.3
861.393	1540.71
861.571	1518.62
861.749	1518.24
861.927	1561.63
862.105	1509.32
862.283	1495.18
862.461	1478.13
862.639	1436.67
862.817	1474.84
862.995	1536.84
863.173	1475.8
863.351	1485.1
863.529	1522.5
863.707	1520.17
863.885	1495.76
864.063	1438.41
864.241	1459.53
864.418	1551.37
864.596	1472.32
864.774	1429.31
864.952	1446.74
865.129	1507
865.307	1408.38
865.485	1392.69
865.663	1456.62
865.84	1383.77
866.018	1387.26
866.196	1268.11
866.373	1282.06
866.551	1247.96
866.728	1205.72
866.906	1234.01
867.084	1270.63
867.261	1328.17
867.439	1309.76
867.616	1351.03
867.794	1360.33
867.971	1360.53
868.149	1335.53
868.326	1392.88
868.503	1399.86
868.681	1341.15
868.858	1338.05
869.035	1306.08
869.213	1348.51
869.39	1352.58
869.567	1402.37
869.745	1344.44
869.922	1369.05
870.099	1376.22
870.276	1378.93
870.454	1375.06
870.631	1333.79
870.808	1350.45
870.985	1375.83
871.162	1410.9
871.339	1351.42
871.517	1320.03
871.694	1312.86
871.871	1304.34
872.048	1321.39
872.225	1311.31
872.402	1334.37
872.579	1287.87
872.756	1333.98
872.933	1283.8
873.11	1290.39
873.287	1328.56
873.463	1258.03
873.64	1281.67
873.817	1289.42
873.994	1273.92
874.171	1277.6
874.348	1280.9
874.524	1239.82
874.701	1254.55
874.878	1186.15
875.055	1268.3
875.231	1264.23
875.408	1286.13
875.585	1197
875.762	1243.31
875.938	1234.01
876.115	1240.01
876.291	1192.93
876.468	1206.11
876.645	1187.9
876.821	1201.85
876.998	1203.78
877.174	1203.2
877.351	1215.41
877.527	1203.78
877.704	1214.83
877.88	1216.38
878.057	1185.57
878.233	1255.51
878.409	1195.45
878.586	1208.05
878.762	1211.92
878.938	1175.5
879.115	1158.64
879.291	1184.22
879.467	1113.3
879.644	1142.75
879.82	1204.56
879.996	1148.57
880.172	1106.33
880.349	1167.55
880.525	1143.33
880.701	1133.45
880.877	1131.52
881.053	1153.41
881.229	1115.63
881.405	1196.62
881.581	1123.38
881.757	1113.89
881.933	1152.83
882.109	1126.48
882.285	1133.07
882.461	1069.13
882.637	1113.89
882.813	1111.56
882.989	1115.44
883.165	1190.22
883.341	1115.82
883.517	1153.6
883.693	1169.68
883.869	1148.18
884.044	1090.83
884.22	1151.08
884.396	1169.68
884.572	1145.47
884.747	1152.05
884.923	1155.54
885.099	1149.73
885.275	1166
885.45	1121.25
885.626	1113.5
885.801	1089.28
885.977	1127.64
886.153	1066.61
886.328	1109.04
886.504	1063.12
886.679	1134.42
886.855	1098
887.03	1129.97
887.206	1161.74
887.381	1126.28
887.557	1125.7
887.732	1102.26
887.908	1141.98
888.083	1165.23
888.258	1127.06
888.434	1097.03
888.609	1114.27
888.784	1143.72
888.96	1113.3
889.135	1090.44
889.31	1089.86
889.485	1122.41
889.661	1100.13
889.836	1155.35
890.011	1127.25
890.186	1102.84
890.361	1106.91
890.537	1126.87
890.712	1142.17
890.887	1120.47
891.062	1097.61
891.237	1176.47
891.412	1090.44
891.587	1118.15
891.762	1139.07
891.937	1156.32
892.112	1057.5
892.287	1081.14
892.462	1043.75
892.637	1054.79
892.812	999.38
892.987	1031.74
893.161	993.96
893.336	1000.35
893.511	1014.88
893.686	1014.11
893.861	1020.89
894.035	994.34
894.21	1024.96
894.385	936.99
894.56	954.62
894.734	921.11
894.909	932.54
895.084	875.96
895.258	875.58
895.433	895.14
895.608	887.98
895.782	834.31
895.957	832.18
896.131	838.76
896.306	794.59
896.48	758.36
896.655	784.71
896.829	694.81
897.004	689
897.178	728.72
897.353	705.08
897.527	733.17
897.701	728.52
897.876	666.91
898.05	754.87
898.224	754.29
898.399	741.5
898.573	705.66
898.747	634.17
898.921	640.95
899.096	554.73
899.27	580.31
899.444	571.2
899.618	621.38
899.792	646.95
899.967	628.55
900.141	679.89
900.315	597.74
900.489	620.99
900.663	630.68
900.837	612.27
901.011	602.78
901.185	671.75
901.359	620.02
901.533	619.83
901.707	629.52
901.881	628.94
902.055	587.67
902.229	621.38
902.403	665.75
902.576	621.19
902.75	646.18
902.924	706.24
903.098	711.47
903.272	735.11
903.446	751
903.619	732.78
903.793	794.4
903.967	771.92
904.14	840.9
904.314	824.43
904.488	790.91
904.661	793.04
904.835	787.81
905.009	848.26
905.182	885.46
905.356	840.9
905.529	825.4
905.703	780.45
905.876	771.15
906.05	731.23
906.223	718.45
906.397	683.38
906.57	683.19
906.744	625.64
906.917	585.15
907.09	636.49
907.264	619.83
907.437	582.05
907.61	561.51
907.784	570.04
907.957	587.09
908.13	565.19
908.304	575.46
908.477	539.62
908.65	556.67
908.823	528.19
908.996	586.51
909.17	537.49
909.343	552.21
909.516	556.86
909.689	502.61
909.862	523.54
910.035	542.14
910.208	510.56
910.381	502.61
910.554	605.1
910.727	557.44
910.9	517.92
911.073	535.94
911.246	569.65
911.419	574.11
911.592	578.37
911.765	535.55
911.938	538.46
912.11	544.85
912.283	550.86
912.456	583.6
912.629	535.94
912.802	503.78
912.974	465.99
913.147	462.7
913.32	386.95
913.493	418.91
913.665	449.53
913.838	472.39
914.01	451.27
914.183	508.04
914.356	448.17
914.528	510.36
914.701	530.71
914.873	512.88
915.046	454.76
915.218	422.79
915.391	355.56
915.563	399.54
915.736	424.34
915.908	462.51
916.081	471.81
916.253	454.37
916.425	476.65
916.598	495.06
916.77	457.47
916.942	431.7
917.115	391.6
917.287	446.23
917.459	401.48
917.632	353.23
917.804	361.76
917.976	437.51
918.148	428.02
918.32	463.67
918.493	449.72
918.665	499.9
918.837	497.77
919.009	538.46
919.181	529.74
919.353	499.32
919.525	487.11
919.697	488.66
919.869	498.16
920.041	551.63
920.213	632.62
920.385	542.52
920.557	506.1
920.729	528.19
920.901	531.29
921.073	527.02
921.244	489.83
921.416	545.62
921.588	490.99
921.76	449.91
921.932	570.42
922.103	497.58
922.275	492.73
922.447	525.28
922.619	419.3
922.79	489.83
922.962	478.98
923.134	508.04
923.305	452.43
923.477	430.93
923.648	433.64
923.82	459.79
923.991	386.95
924.163	389.27
924.335	441.97
924.506	404.77
924.677	467.35
924.849	400.7
925.02	447.2
925.192	453.4
925.363	410
925.535	439.84
925.706	417.36
925.877	463.09
926.049	418.33
926.22	440.42
926.391	440.61
926.562	460.57
926.734	409.81
926.905	424.34
927.076	384.23
927.247	389.08
927.419	373.19
927.59	355.36
927.761	357.11
927.932	340.45
928.103	318.17
928.274	284.07
928.445	298.6
928.616	297.82
928.787	274.96
928.958	317.78
929.129	323.98
929.3	292.59
929.471	244.15
929.642	182.15
929.813	150.19
929.984	238.92
930.155	151.16
930.326	213.93
930.496	166.65
930.667	139.92
930.838	186.8
931.009	157.55
931.18	156.97
931.35	134.3
931.521	155.22
931.692	105.62
931.863	60.87
932.033	113.37
932.204	102.33
932.374	104.46
932.545	57.58
932.716	122.67
932.886	110.66
933.057	34.71
933.227	45.76
933.398	155.81
933.568	21.93
933.739	4.49
933.909	46.14
934.08	88.96
934.25	-13.72
934.421	17.08
934.591	79.08
934.761	17.66
934.932	-14.31
935.102	33.94
935.272	34.13
935.443	34.33
935.613	27.74
935.783	59.71
935.953	-5.59
936.123	166.07
936.294	-0.74
936.464	16.11
936.634	37.62
936.804	-15.47
936.974	2.16
937.144	59.9
937.314	36.46
937.484	16.11
937.655	-3.46
937.825	61.26
937.995	31.42
938.165	69.01
938.334	46.34
938.504	80.63
938.674	27.16
938.844	57.58
939.014	108.34
939.184	124.61
939.354	136.43
939.524	113.96
939.694	84.89
939.863	97.68
940.033	133.33
940.203	128.68
940.373	114.15
940.542	102.72
940.712	94.19
940.882	101.36
941.051	101.94
941.221	99.23
941.391	104.07
941.56	83.73
941.73	59.9
941.899	161.23
942.069	77.34
942.238	77.92
942.408	77.92
942.577	105.04
942.747	82.76
942.916	24.64
943.086	46.73
943.255	94
943.425	74.24
943.594	53.51
943.763	-2.29
943.933	35.29
944.102	-9.07
944.271	62.42
944.441	72.49
944.61	50.79
944.779	65.13
944.948	138.37
945.117	51.18
945.287	41.88
945.456	14.56
945.625	35.49
945.794	69.2
945.963	15.34
946.132	50.02
946.301	14.18
946.47	58.74
946.639	8.36
946.808	28.51
946.977	77.53
947.146	97.68
947.315	47.89
947.484	93.22
947.653	57.96
947.822	66.88
947.991	32.19
948.16	127.91
948.329	99.04
948.498	73.27
948.666	55.83
948.835	85.28
949.004	20.18
949.173	19.21
949.341	64.94
949.51	69.2
949.679	62.03
949.847	56.03
950.016	102.72
950.185	93.42
950.353	73.07
950.522	77.53
950.69	115.31
950.859	31.61
951.028	94.97
951.196	85.47
951.365	25.8
951.533	52.73
951.701	87.41
951.87	97.87
952.038	11.27
952.207	50.41
952.375	118.22
952.543	22.31
952.712	66.68
952.88	33.55
953.048	109.11
953.217	57.58
953.385	58.35
953.553	118.99
953.721	24.25
953.89	54.67
954.058	13.59
954.226	38.39
954.394	84.7
954.562	7.39
954.73	66.68
954.898	55.83
955.067	94.97
955.235	48.08
955.403	97.29
955.571	130.23
955.739	88.77
955.907	58.35
956.075	47.5
956.243	58.35
956.41	79.08
956.578	53.31
956.746	20.96
956.914	71.91
957.082	104.27
957.25	94.77
957.418	40.33
957.585	66.88
957.753	111.24
957.921	57.19
958.089	69.98
958.256	84.89
958.424	56.61
958.592	94.39
958.759	32.19
958.927	73.27
959.095	40.72
959.262	55.44
959.43	93.03
959.597	44.01
959.765	83.54
959.932	44.4
960.1	91.29
960.267	66.68
960.435	62.61
960.602	90.51
960.77	94
960.937	25.8
961.104	83.92
961.272	29.29
961.439	53.7
961.606	87.8
961.774	90.32
961.941	54.67
962.108	71.91
962.275	64.36
962.443	90.71
962.61	109.31
962.777	118.02
962.944	100.78
963.111	94.97
963.278	87.8
963.446	91.67
963.613	78.89
963.78	118.22
963.947	120.35
964.114	86.44
964.281	162
964.448	126.55
964.615	60.48
964.782	71.72
964.949	112.02
965.116	106.21
965.282	127.91
965.449	72.3
965.616	85.47
965.783	114.73
965.95	109.69
966.117	42.66
966.283	88.19
966.45	123.06
966.617	93.03
966.784	141.86
966.95	117.83
967.117	121.9
967.284	74.24
967.45	96.32
967.617	125.19
967.784	109.89
967.95	137.59
968.117	91.87
968.283	134.88
968.45	180.6
968.616	124.22
968.783	148.44
968.949	107.37
969.116	145.54
969.282	101.36
969.449	115.51
969.615	106.4
969.781	69.98
969.948	98.65
970.114	92.45
970.28	165.88
970.447	109.89
970.613	190.49
970.779	121.12
970.945	142.82
971.112	109.11
971.278	100.59
971.444	111.63
971.61	149.41
971.776	95.74
971.942	110.66
972.108	146.89
972.275	105.24
972.441	114.34
972.607	168.2
972.773	93.42
972.939	139.34
973.105	120.54
973.271	94.58
973.437	94.58
973.602	74.62
973.768	120.93
973.934	93.22
974.1	117.06
974.266	37.62
974.432	112.6
974.598	74.82
974.763	118.22
974.929	87.22
975.095	157.55
975.261	81.41
975.426	67.65
975.592	109.11
975.758	179.64
975.923	50.21
976.089	90.9
976.255	120.16
976.42	121.9
976.586	102.52
976.751	122.87
976.917	179.83
977.082	126.55
977.248	68.04
977.413	44.59
977.579	108.72
977.744	81.6
977.91	54.28
978.075	73.66
978.24	109.31
978.406	100.78
978.571	77.72
978.736	56.03
978.902	116.67
979.067	76.56
979.232	20.18
979.397	102.91
979.563	127.13
979.728	50.79
979.893	104.07
980.058	72.88
980.223	117.06
980.388	106.59
980.554	92.45
980.719	78.69
980.884	102.91
981.049	125.97
981.214	89.93
981.379	91.09
981.544	86.83
981.709	79.66
981.874	94.39
982.039	91.87
982.204	134.69
982.368	74.62
982.533	67.07
982.698	122.48
982.863	125.39
983.028	76.56
983.193	131.97
983.357	97.68
983.522	104.66
983.687	66.29
983.852	76.37
984.016	99.42
984.181	78.11
984.346	123.26
984.51	86.64
984.675	111.44
984.839	108.92
985.004	80.82
985.168	116.67
985.333	86.64
985.498	79.27
985.662	105.82
985.827	117.44
985.991	113.18
986.155	75.59
986.32	105.62
986.484	154.26
986.649	127.32
986.813	49.83
986.977	90.12
987.142	119.19
987.306	50.6
987.47	68.23
987.634	73.07
987.799	110.66
987.963	115.51
988.127	104.66
988.291	156.19
988.455	120.93
988.62	99.23
988.784	114.15
988.948	135.46
989.112	56.61
989.276	110.86
989.44	83.54
989.604	61.45
989.768	67.46
989.932	146.31
990.096	61.26
990.26	61.84
990.424	53.89
990.588	69.2
990.752	148.44
990.915	125.97
991.079	68.81
991.243	58.54
991.407	113.18
991.571	108.14
991.734	119.19
991.898	101.36
992.062	160.07
992.226	88.77
992.389	57.19
992.553	64.55
992.717	50.41
992.88	59.13
993.044	111.63
993.207	81.21
993.371	108.14
993.535	113.96
993.698	96.32
993.862	99.42
994.025	76.95
994.189	104.07
994.352	104.46
994.515	86.83
994.679	97.29
994.842	80.24
995.006	98.07
995.169	35.88
995.332	56.03
995.496	102.52
995.659	31.03
995.822	59.9
995.985	82.96
996.149	135.07
996.312	92.26
996.475	123.64
996.638	57.19
996.801	127.71
996.964	129.26
997.128	55.83
997.291	63.19
997.454	85.47
997.617	34.71
997.78	96.91
997.943	33.36
998.106	106.01
998.269	63.78
998.432	77.34
998.595	70.17
998.758	32.78
998.92	37.81
999.083	20.76
999.246	73.07
999.409	-7.72
999.572	25.8
999.735	46.73
999.897	85.47
1000.06	49.63
1000.223	29.87
1000.386	92.06
1000.548	82.37
1000.711	67.65
1000.874	94
1001.036	0.03
1001.199	92.06
1001.361	64.36
1001.524	75.4
1001.687	89.54
1001.849	30.84
1002.012	71.14
1002.174	56.8
1002.337	66.68
1002.499	36.07
1002.661	121.12
1002.824	19.79
1002.986	42.85
1003.149	57.77
1003.311	7.39
1003.473	121.9
1003.636	55.64
1003.798	57.96
1003.96	82.57
1004.123	57.58
1004.285	25.8
1004.447	62.42
1004.609	55.25
1004.771	115.89
1004.933	32.78
1005.096	13.79
1005.258	4.88
1005.42	37.43
1005.582	81.02
1005.744	62.61
1005.906	2.94
1006.068	53.7
1006.23	24.44
1006.392	10.88
1006.554	33.94
1006.716	94.39
1006.878	97.29
1007.04	9.72
1007.202	43.63
1007.363	41.3
1007.525	38.98
1007.687	56.22
1007.849	79.08
1008.011	-6.94
1008.172	8.94
1008.334	24.25
1008.496	62.61
1008.658	9.72
1008.819	21.54
1008.981	40.72
1009.143	32.39
1009.304	40.72
1009.466	59.32
1009.627	75.4
1009.789	125.39
1009.95	52.15
1010.112	25.99
1010.273	39.36
1010.435	31.81
1010.596	31.61
1010.758	38.78
1010.919	60.68
1011.081	-7.14
1011.242	30.45
1011.403	55.25
1011.565	52.93
1011.726	39.56
1011.887	21.93
1012.049	14.95
1012.21	62.81
1012.371	91.48
1012.532	-12.56
1012.693	46.34
1012.855	20.38
1013.016	30.64
1013.177	77.14
1013.338	50.21
1013.499	73.85
1013.66	53.31
1013.821	77.92
1013.982	11.85
1014.143	19.6
1014.304	11.85
1014.465	58.35
1014.626	75.21
1014.787	14.95
1014.948	127.13
1015.109	-19.34
1015.27	45.56
1015.431	3.13
1015.592	13.59
1015.752	74.43
1015.913	26.58
1016.074	34.52
1016.235	18.44
1016.395	25.8
1016.556	35.1
1016.717	52.15
1016.877	74.04
1017.038	-2.49
1017.199	55.25
1017.359	16.89
1017.52	37.62
1017.681	12.82
1017.841	40.14
1018.002	27.16
1018.162	36.26
1018.323	78.31
1018.483	7.59
1018.644	25.99
1018.804	-11.59
1018.964	-10.43
1019.125	24.06
1019.285	33.55
1019.446	-7.14
1019.606	11.66
1019.766	-2.87
1019.926	35.68
1020.087	36.65
1020.247	-10.04
1020.407	32.78
1020.567	58.54
1020.728	21.34
1020.888	-16.82
1021.048	-5.2
1021.208	-5.59
1021.368	2.74
1021.528	50.79
1021.688	44.79
1021.848	50.6
1022.008	12.63
1022.168	-4.04
1022.328	42.27
1022.488	40.91
1022.648	-22.44
1022.808	2.55
1022.968	59.13
1023.128	-11.59
1023.288	26.77
1023.448	31.23
1023.608	13.79
1023.767	49.83
1023.927	9.91
1024.087	-14.11
1024.247	-6.17
1024.406	3.52
1024.566	-13.34
1024.726	-9.07
1024.885	-9.85
1025.045	42.46
1025.205	-3.46
1025.364	17.66
1025.524	25.8
1025.683	-6.17
1025.843	12.63
1026.003	27.54
1026.162	42.85
1026.321	31.23
1026.481	22.51
1026.64	17.08
1026.8	26.19
1026.959	33.74
1027.119	12.24
1027.278	17.66
1027.437	15.92
1027.597	20.18
1027.756	55.64
1027.915	23.86
1028.074	30.26
1028.234	22.31
1028.393	22.7
1028.552	-3.07
1028.711	-41.24
1028.87	39.94
1029.03	-27.48
1029.189	8.56
1029.348	-34.45
1029.507	-21.09
1029.666	10.3
1029.825	-39.49
1029.984	-0.74
1030.143	6.81
1030.302	19.02
1030.461	-47.24
1030.62	11.46
1030.779	50.41
1030.938	8.56
1031.097	-4.42
1031.255	5.84
1031.414	69.2
1031.573	28.71
1031.732	-38.72
1031.891	-6.94
1032.049	59.32
1032.208	23.67
1032.367	-17.21
1032.525	-4.23
1032.684	0.61
1032.843	7.39
1033.001	-46.27
1033.16	139.34
1033.319	46.14
1033.477	33.94
1033.636	-4.62
1033.794	-20.12
1033.953	32.19
1034.111	27.93
1034.27	-0.36
1034.428	22.89
1034.587	-20.89
1034.745	-8.49
1034.903	2.16
1035.062	26.96
1035.22	-30.19
1035.378	30.06
1035.537	-30.58
1035.695	35.68
1035.853	7.59
1036.011	63.97
1036.17	10.69
1036.328	-36.97
1036.486	9.91
1036.644	2.74
1036.802	-64.29
1036.96	-26.32
1037.119	-1.71
1037.277	5.46
1037.435	-14.11
1037.593	-27.87
1037.751	-0.74
1037.909	53.12
1038.067	53.12
