Data from gum_young_FLMT105791__148__17-41-16-039.txt Node

Date: Mon Mar 20 17:41:16 GMT 2023
User: antho
Spectrometer: FLMT10579
Trigger mode: 0
Integration Time (sec): 1.000000E-1
Scans to average: 10
Electric dark correction enabled: true
Nonlinearity correction enabled: false
Boxcar width: 0
XAxis mode: Wavelengths
Number of Pixels in Spectrum: 3648
>>>>>Begin Spectral Data<<<<<
345.248	-142.73
345.464	-142.73
345.681	-142.73
345.898	-146.02
346.114	-149.9
346.331	-39.27
346.548	39.78
346.764	1.23
346.981	-5.55
347.197	-17.37
347.414	16.34
347.631	-27.84
347.847	44.63
348.064	13.43
348.28	14.21
348.497	-34.42
348.713	-5.17
348.93	33
349.146	34.36
349.363	-20.47
349.579	-2.26
349.796	2.58
350.012	-37.91
350.229	41.14
350.445	-0.9
350.661	-13.11
350.878	15.18
351.094	27.77
351.311	33.39
351.527	11.11
351.743	13.82
351.96	30.29
352.176	-1.29
352.392	29.51
352.609	68.07
352.825	-19.31
353.041	1.23
353.257	-5.17
353.474	24.28
353.69	-5.75
353.906	11.69
354.122	-13.89
354.339	71.94
354.555	26.22
354.771	-32.68
354.987	71.56
355.203	51.8
355.42	9.17
355.636	-16.02
355.852	10.72
356.068	5.68
356.284	-12.72
356.5	70.01
356.716	9.95
356.932	7.23
357.148	21.76
357.364	17.11
357.58	47.73
357.796	68.07
358.012	21.57
358.228	24.09
358.444	-39.65
358.66	61.68
358.876	10.53
359.092	-9.24
359.308	45.4
359.524	39.2
359.74	-17.95
359.956	8.78
360.172	20.41
360.388	42.88
360.604	32.81
360.819	76.21
361.035	22.54
361.251	33.97
361.467	-5.55
361.683	52.38
361.898	22.15
362.114	22.93
362.33	20.99
362.546	56.25
362.762	10.91
362.977	-8.65
363.193	-8.27
363.409	64.39
363.624	-12.92
363.84	0.45
364.056	30.1
364.271	45.98
364.487	16.34
364.703	2.39
364.918	-2.65
365.134	11.88
365.35	1.42
365.565	100.23
365.781	26.8
365.996	5.68
366.212	73.11
366.427	29.71
366.643	2.39
366.858	35.33
367.074	-24.54
367.289	49.47
367.505	110.31
367.72	-6.91
367.936	7.43
368.151	64.19
368.367	35.13
368.582	11.3
368.798	2.78
369.013	62.64
369.228	29.71
369.444	28.35
369.659	69.43
369.874	28.74
370.09	78.73
370.305	-18.15
370.52	-4.97
370.736	52.18
370.951	-0.9
371.166	82.99
371.381	77.56
371.597	59.35
371.812	-9.04
372.027	0.45
372.242	23.7
372.458	79.11
372.673	0.45
372.888	13.43
373.103	26.41
373.318	98.68
373.533	46.56
373.749	32.81
373.964	-24.35
374.179	80.86
374.394	8.98
374.609	51.6
374.824	-26.48
375.039	57.61
375.254	25.45
375.469	70.98
375.684	45.4
375.899	68.07
376.114	53.15
376.329	41.14
376.544	61.29
376.759	44.43
376.974	16.53
377.189	36.1
377.404	4.91
377.619	50.44
377.834	-16.4
378.049	7.81
378.264	-13.11
378.478	36.88
378.693	0.45
378.908	50.44
379.123	28.35
379.338	54.12
379.553	42.5
379.767	45.79
379.982	34.55
380.197	27.58
380.412	20.21
380.626	46.76
380.841	112.63
381.056	54.51
381.271	74.08
381.485	15.18
381.7	1.61
381.915	33.97
382.129	21.96
382.344	52.76
382.559	34.94
382.773	66.71
382.988	-23.38
383.202	38.43
383.417	1.42
383.632	115.34
383.846	35.52
384.061	50.44
384.275	10.14
384.49	45.21
384.704	25.25
384.919	30.68
385.133	28.93
385.348	50.44
385.562	7.43
385.777	71.75
385.991	14.4
386.206	20.99
386.42	39.2
386.634	36.88
386.849	53.54
387.063	66.52
387.277	-4.2
387.492	11.69
387.706	14.01
387.92	3.36
388.135	49.66
388.349	54.12
388.563	57.03
388.778	36.49
388.992	79.89
389.206	63.42
389.42	94.81
389.635	49.47
389.849	48.7
390.063	111.47
390.277	69.23
390.491	80.66
390.706	56.45
390.92	70.39
391.134	54.9
391.348	65.74
391.562	10.33
391.776	53.54
391.99	18.47
392.205	43.27
392.419	30.29
392.633	51.6
392.847	75.43
393.061	42.3
393.275	98.49
393.489	32.42
393.703	60.9
393.917	56.64
394.131	17.5
394.345	64.78
394.559	93.64
394.773	27.77
394.986	62.64
395.2	49.66
395.414	47.15
395.628	31.65
395.842	64.78
396.056	31.65
396.27	25.83
396.484	87.64
396.697	73.88
396.911	112.63
397.125	79.69
397.339	81.05
397.553	65.74
397.766	111.47
397.98	98.68
398.194	76.59
398.408	42.5
398.621	108.76
398.835	104.3
399.049	80.08
399.262	122.9
399.476	102.75
399.69	101.2
399.903	136.85
400.117	71.17
400.331	104.49
400.544	72.72
400.758	195.56
400.971	115.34
401.185	123.09
401.398	50.63
401.612	132.78
401.826	114.38
402.039	112.44
402.253	104.11
402.466	102.56
402.68	103.14
402.893	100.23
403.106	102.56
403.32	82.79
403.533	117.86
403.747	94.03
403.96	112.05
404.174	110.69
404.387	65.16
404.6	105.27
404.814	124.84
405.027	89.19
405.24	88.41
405.454	84.34
405.667	137.43
405.88	42.88
406.094	109.53
406.307	159.13
406.52	132.2
406.733	101.2
406.947	45.98
407.16	167.46
407.373	171.92
407.586	69.23
407.799	102.56
408.012	119.03
408.226	112.05
408.439	145.96
408.652	62.45
408.865	130.65
409.078	159.32
409.291	125.23
409.504	76.4
409.717	111.47
409.93	129.88
410.143	100.81
410.357	94.61
410.57	74.85
410.783	107.59
410.996	135.49
411.209	111.28
411.421	163.59
411.634	131.23
411.847	117.28
412.06	129.88
412.273	130.46
412.486	141.11
412.699	206.6
412.912	145.38
413.125	156.03
413.338	145.18
413.55	176.96
413.763	139.95
413.976	144.41
414.189	137.43
414.402	147.31
414.615	193.23
414.827	121.16
415.04	162.81
415.253	139.76
415.466	180.64
415.678	206.99
415.891	168.43
416.104	170.17
416.316	149.06
416.529	138.79
416.742	166.11
416.954	173.08
417.167	146.92
417.38	155.64
417.592	171.72
417.805	133.36
418.017	105.85
418.23	172.11
418.442	138.01
418.655	114.57
418.868	178.51
419.08	190.13
419.293	195.17
419.505	161.07
419.718	178.89
419.93	187.42
420.142	145.76
420.355	180.83
420.567	200.98
420.78	189.36
420.992	150.41
421.205	238.76
421.417	142.66
421.629	159.52
421.842	152.16
422.054	156.81
422.266	177.54
422.479	194.78
422.691	176.37
422.903	235.85
423.115	166.11
423.328	170.17
423.54	180.25
423.752	157
423.964	145.18
424.177	173.86
424.389	193.23
424.601	253.29
424.813	198.46
425.025	199.04
425.238	198.66
425.45	168.24
425.662	158.16
425.874	428.63
426.086	179.86
426.298	193.42
426.51	212.41
426.722	197.3
426.934	163.97
427.146	187.42
427.358	141.5
427.57	218.61
427.782	179.67
427.994	202.92
428.206	143.44
428.418	148.09
428.63	220.94
428.842	218.61
429.054	201.56
429.266	209.89
429.478	177.54
429.69	167.27
429.902	129.68
430.114	210.28
430.325	195.36
430.537	175.21
430.749	145.96
430.961	116.12
431.173	149.83
431.384	177.73
431.596	107.59
431.808	162.81
432.02	207.57
432.231	194.78
432.443	233.53
432.655	223.26
432.867	165.33
433.078	230.62
433.29	275.96
433.502	222.68
433.713	223.07
433.925	206.6
434.136	267.63
434.348	200.79
434.56	176.96
434.771	289.52
434.983	157.77
435.194	211.25
435.406	203.69
435.617	254.26
435.829	303.09
436.04	248.25
436.252	250.58
436.463	290.3
436.675	273.05
436.886	250.19
437.098	258.52
437.309	288.75
437.521	243.99
437.732	254.65
437.943	254.84
438.155	264.14
438.366	234.5
438.578	278.48
438.789	238.57
439	277.12
439.211	241.86
439.423	259.69
439.634	256
439.845	289.52
440.057	267.82
440.268	290.49
440.479	220.74
440.69	278.87
440.902	240.7
441.113	249.8
441.324	256
441.535	321.88
441.746	337.38
441.957	253.87
442.168	299.79
442.38	312.97
442.591	300.37
442.802	259.49
443.013	278.48
443.224	299.4
443.435	262.98
443.646	281.19
443.857	282.55
444.068	275.19
444.279	261.62
444.49	359.08
444.701	296.69
444.912	372.64
445.123	320.91
445.334	310.06
445.545	315.49
445.756	291.27
445.967	274.6
446.178	303.47
446.388	364.12
446.599	361.98
446.81	345.13
447.021	278.48
447.232	347.45
447.443	347.07
447.653	285.84
447.864	351.52
448.075	339.32
448.286	351.33
448.496	325.95
448.707	364.7
448.918	299.6
449.129	370.9
449.339	315.1
449.55	355.01
449.761	330.21
449.971	373.22
450.182	322.07
450.393	396.08
450.603	337.18
450.814	421.46
451.024	395.12
451.235	417.78
451.446	417.78
451.656	431.93
451.867	348.03
452.077	376.52
452.288	436.19
452.498	415.07
452.709	380.78
452.919	407.13
453.13	338.93
453.34	391.43
453.55	347.65
453.761	402.48
453.971	380
454.182	400.54
454.392	411
454.602	440.06
454.813	418.75
455.023	428.44
455.233	355.59
455.444	388.72
455.654	339.51
455.864	367.99
456.075	385.62
456.285	383.1
456.495	393.95
456.705	415.46
456.916	447.81
457.126	452.46
457.336	420.69
457.546	365.67
457.756	376.71
457.967	413.13
458.177	405
458.387	415.26
458.597	361.6
458.807	380.97
459.017	385.43
459.227	418.75
459.437	380.78
459.647	443.16
459.857	407.9
460.068	382.91
460.278	456.15
460.488	452.46
460.698	456.73
460.908	426.7
461.117	401.32
461.327	423.01
461.537	441.23
461.747	448.59
461.957	439.48
462.167	506.71
462.377	464.28
462.587	456.53
462.797	477.85
463.007	445.68
463.216	467.19
463.426	509.43
463.636	509.43
463.846	396.86
464.056	425.92
464.265	467.58
464.475	423.79
464.685	436
464.895	488.7
465.104	485.4
465.314	469.32
465.524	454.4
465.733	429.99
465.943	531.51
466.153	493.35
466.362	502.84
466.572	458.08
466.782	465.64
466.991	487.92
467.201	522.21
467.41	409.26
467.62	493.54
467.829	469.32
468.039	489.08
468.249	478.62
468.458	509.62
468.668	504.58
468.877	516.79
469.086	550.69
469.296	548.56
469.505	502.64
469.715	549.34
469.924	540.04
470.134	560.77
470.343	547.79
470.552	495.67
470.762	504.58
470.971	467.96
471.18	521.24
471.39	521.63
471.599	462.35
471.808	543.33
472.018	494.9
472.227	555.34
472.436	596.42
472.645	505.55
472.855	512.33
473.064	604.75
473.273	553.6
473.482	574.72
473.691	582.28
473.901	550.69
474.11	578.59
474.319	645.63
474.528	579.18
474.737	638.07
474.946	598.16
475.155	590.22
475.364	642.72
475.573	582.66
475.783	604.36
475.992	649.31
476.201	645.63
476.41	618.7
476.619	582.66
476.828	612.11
477.037	619.09
477.245	644.47
477.454	653.19
477.663	621.22
477.872	653.57
478.081	708.6
478.29	617.54
478.499	723.9
478.708	670.62
478.917	697.94
479.125	664.23
479.334	692.9
479.543	688.25
479.752	723.13
479.961	728.75
480.169	740.37
480.378	709.95
480.587	836.08
480.796	773.12
481.004	723.71
481.213	751.61
481.422	787.07
481.63	785.71
481.839	773.12
482.048	836.86
482.256	793.65
482.465	795.59
482.674	798.5
482.882	806.05
483.091	843.64
483.299	793.07
483.508	797.92
483.716	816.32
483.925	821.55
484.134	780.28
484.342	785.32
484.551	849.06
484.759	826.98
484.967	853.13
485.176	878.32
485.384	861.85
485.593	854.88
485.801	843.83
486.01	831.82
486.218	798.88
486.426	741.73
486.635	736.3
486.843	734.75
487.051	762.85
487.26	785.71
487.468	793.07
487.676	833.76
487.885	822.91
488.093	860.11
488.301	883.94
488.509	849.06
488.717	913.78
488.926	896.53
489.134	876
489.342	889.75
489.55	854.3
489.758	917.26
489.967	931.41
490.175	983.91
490.383	926.76
490.591	1027.7
490.799	935.09
491.007	1009.1
491.215	1004.45
491.423	947.49
491.631	955.63
491.839	965.31
492.047	980.81
492.255	930.63
492.463	912.81
492.671	943.81
492.879	985.85
493.087	984.3
493.295	987.01
493.503	1005.61
493.711	1033.9
493.919	1019.76
494.127	1013.17
494.334	1041.65
494.542	980.04
494.75	1023.05
494.958	1039.71
495.166	1106.75
495.374	1075.56
495.581	1095.51
495.789	1066.64
495.997	1161.97
496.205	1048.82
496.412	1096.09
496.62	1061.22
496.828	1101.71
497.035	1090.47
497.243	1150.15
497.451	1086.99
497.658	1134.26
497.866	1131.55
498.074	1163.13
498.281	1074.39
498.489	1164.87
498.696	1112.95
498.904	1122.05
499.112	1096.29
499.319	1185.8
499.527	1116.24
499.734	1166.23
499.942	1103.26
500.149	1130.58
500.357	1160.22
500.564	1129.8
500.771	1165.26
500.979	1144.14
501.186	1103.84
501.394	1117.99
501.601	1104.04
501.808	1133.1
502.016	1144.92
502.223	1138.72
502.43	1154.22
502.638	1162.16
502.845	1144.72
503.052	1249.93
503.26	1185.02
503.467	1268.92
503.674	1209.24
503.881	1254.97
504.089	1296.43
504.296	1240.82
504.503	1170.1
504.71	1236.75
504.917	1159.45
505.125	1237.33
505.332	1266.01
505.539	1259.42
505.746	1323.16
505.953	1307.28
506.16	1317.55
506.367	1369.08
506.574	1373.73
506.781	1404.73
506.988	1321.81
507.195	1344.67
507.402	1329.95
507.609	1413.84
507.816	1330.91
508.023	1333.43
508.23	1357.65
508.437	1302.82
508.644	1382.06
508.851	1443.48
509.058	1410.74
509.265	1427.01
509.472	1481.65
509.679	1557.4
509.885	1481.84
510.092	1483.59
510.299	1465.57
510.506	1477.19
510.713	1479.32
510.92	1490.37
511.126	1555.08
511.333	1568.84
511.54	1571.55
511.746	1607.2
511.953	1627.35
512.16	1661.64
512.367	1616.3
512.573	1611.46
512.78	1628.51
512.987	1614.37
513.193	1602.74
513.4	1569.03
513.606	1624.44
513.813	1657.96
514.02	1650.02
514.226	1675.98
514.433	1705.43
514.639	1636.26
514.846	1669.97
515.052	1655.25
515.259	1719.18
515.465	1702.52
515.672	1735.85
515.878	1840.86
516.085	1771.69
516.291	1821.68
516.497	1733.52
516.704	1762.78
516.91	1725.96
517.117	1654.47
517.323	1585.69
517.529	1623.47
517.736	1623.67
517.942	1667.07
518.148	1729.65
518.354	1765.1
518.561	1800.56
518.767	1780.8
518.973	1845.31
519.179	1850.35
519.386	1826.33
519.592	1813.54
519.798	1908.67
520.004	1993.53
520.21	1964.08
520.417	2040.8
520.623	2037.9
520.829	2061.15
521.035	2057.08
521.241	2056.3
521.447	2106.29
521.653	2214.79
521.859	2112.49
522.065	2142.91
522.271	2240.56
522.477	2181.85
522.683	2270.98
522.889	2220.99
523.095	2181.27
523.301	2221.38
523.507	2179.91
523.713	2235.91
523.919	2209.56
524.125	2284.15
524.331	2295.97
524.537	2400.98
524.742	2407.57
524.948	2436.82
525.154	2451.74
525.36	2521.1
525.566	2454.26
525.772	2476.15
525.977	2376.18
526.183	2428.3
526.389	2459.69
526.595	2356.03
526.8	2335.88
527.006	2294.61
527.212	2251.41
527.417	2245.59
527.623	2243.66
527.829	2329.49
528.034	2424.04
528.24	2427.91
528.446	2414.93
528.651	2548.03
528.857	2534.47
529.062	2609.65
529.268	2617.98
529.473	2639.29
529.679	2632.9
529.884	2722.79
530.09	2701.09
530.295	2668.55
530.501	2707.68
530.706	2689.47
530.912	2700.13
531.117	2733.26
531.323	2703.61
531.528	2817.73
531.733	2787.51
531.939	2778.21
532.144	2797
532.35	2739.65
532.555	2764.84
532.76	2735.78
532.966	2705.94
533.171	2686.76
533.376	2648.01
533.581	2643.16
533.787	2690.05
533.992	2762.51
534.197	2768.13
534.402	2810.56
534.607	2793.12
534.813	2859.58
535.018	2807.66
535.223	2811.14
535.428	2845.05
535.633	2924.29
535.838	2939.6
536.043	2976.41
536.249	3069.99
536.454	2953.55
536.659	2964.4
536.864	2921
537.069	2943.08
537.274	2923.52
537.479	2914.6
537.684	2930.3
537.889	2887.29
538.094	3010.7
538.299	2943.08
538.504	2977.57
538.708	2975.63
538.913	3027.37
539.118	3023.88
539.323	3035.89
539.528	2950.83
539.733	2962.07
539.938	2972.92
540.142	2946.77
540.347	2974.47
540.552	2956.45
540.757	2908.02
540.962	2932.82
541.166	2845.63
541.371	2876.82
541.576	2894.84
541.781	2828.39
541.985	2968.27
542.19	2932.82
542.395	3037.63
542.599	3036.28
542.804	2987.07
543.008	3075.41
543.213	3051.58
543.418	2993.46
543.622	3055.85
543.827	2956.65
544.031	3067.08
544.236	3081.81
544.44	3125.21
544.645	3149.23
544.849	3080.06
545.054	3125.21
545.258	3169.96
545.463	3173.26
545.667	3082.78
545.872	3149.62
546.076	3120.75
546.281	3142.64
546.485	3110.29
546.689	3143.23
546.894	3130.44
547.098	3172.48
547.302	3099.05
547.507	3161.24
547.711	3115.91
547.915	3203.09
548.119	3074.45
548.324	3111.84
548.528	3204.06
548.732	3131.6
548.936	3172.68
549.141	3224.99
549.345	3178.68
549.549	3199.41
549.753	3194.96
549.957	3239.13
550.161	3261.99
550.366	3191.86
550.57	3179.84
550.774	3153.11
550.978	3201.93
551.182	3235.45
551.386	3139.93
551.59	3213.56
551.794	3159.11
551.998	3258.89
552.202	3180.43
552.406	3208.13
552.61	3264.12
552.814	3261.99
553.018	3241.46
553.222	3125.59
553.426	3211.42
553.63	3308.69
553.833	3228.28
554.037	3162.6
554.241	3238.36
554.445	3245.91
554.649	3225.57
554.853	3166.86
555.056	3264.51
555.26	3289.7
555.464	3217.24
555.668	3215.11
555.871	3267.22
556.075	3232.35
556.279	3199.8
556.483	3172.68
556.686	3169.77
556.89	3170.54
557.094	3182.17
557.297	3104.67
557.501	3169.58
557.704	3064.76
557.908	3139.16
558.112	3133.73
558.315	3218.4
558.519	3123.08
558.722	3065.53
558.926	3097.7
559.129	2956.26
559.333	2969.05
559.536	3009.15
559.74	2939.21
559.943	2950.25
560.147	2953.16
560.35	2972.73
560.553	2999.85
560.757	2938.44
560.96	3003.34
561.164	2982.22
561.367	3039.18
561.57	3022.13
561.774	3001.79
561.977	2991.91
562.18	2933.2
562.384	3009.93
562.587	2986.1
562.79	2935.34
562.993	2910.92
563.197	2950.64
563.4	3036.08
563.603	2989.58
563.806	3051.39
564.009	2977.18
564.212	2985.9
564.416	2868.3
564.619	2915.19
564.822	2836.91
565.025	2937.85
565.228	2893.29
565.431	2903.75
565.634	2802.42
565.837	2799.52
566.04	2812.11
566.243	2747.01
566.446	2686.37
566.649	2802.81
566.852	2702.26
567.055	2730.93
567.258	2774.91
567.461	2806.69
567.664	2783.05
567.867	2684.04
568.07	2744.49
568.273	2761.16
568.475	2787.51
568.678	2658.66
568.881	2703.61
569.084	2639.1
569.287	2588.92
569.489	2604.03
569.692	2681.91
569.895	2612.94
570.098	2588.92
570.3	2565.86
570.503	2483.13
570.706	2513.55
570.909	2484.87
571.111	2424.42
571.314	2405.24
571.516	2423.26
571.719	2447.29
571.922	2409.51
572.124	2445.54
572.327	2459.49
572.529	2392.07
572.732	2416.48
572.935	2413.19
573.137	2509.48
573.34	2425.78
573.542	2499.21
573.745	2436.82
573.947	2463.17
574.15	2397.88
574.352	2371.34
574.554	2413.57
574.757	2333.56
574.959	2329.1
575.162	2330.07
575.364	2305.46
575.566	2415.32
575.769	2246.76
575.971	2284.93
576.173	2195.8
576.376	2274.46
576.578	2321.93
576.78	2359.91
576.982	2193.48
577.185	2248.11
577.387	2235.13
577.589	2228.35
577.791	2257.41
577.993	2278.73
578.196	2243.66
578.398	2214.98
578.6	2242.11
578.802	2191.93
579.004	2155.5
579.206	2157.05
579.408	2197.74
579.61	2208.01
579.812	2241.33
580.014	2193.28
580.216	2203.94
580.418	2186.11
580.62	2222.73
580.822	2198.32
581.024	2208.4
581.226	2258.77
581.428	2230.68
581.63	2310.69
581.832	2251.6
582.034	2303.91
582.236	2243.46
582.438	2295.19
582.64	2344.02
582.841	2321.93
583.043	2371.92
583.245	2282.79
583.447	2304.49
583.649	2267.29
583.85	2305.08
584.052	2299.46
584.254	2192.51
584.456	2274.66
584.657	2206.07
584.859	2308.76
585.061	2226.03
585.262	2171.2
585.464	2132.83
585.666	2216.73
585.867	2136.32
586.069	2204.71
586.27	2170.03
586.472	2157.05
586.674	2130.9
586.875	2173.52
587.077	2127.41
587.278	2176.23
587.48	2128.77
587.681	2249.66
587.883	2145.04
588.084	2072.97
588.285	2083.23
588.487	2048.17
588.688	2047
588.89	1940.25
589.091	1927.27
589.292	1891.62
589.494	1873.6
589.695	1828.84
589.896	1764.91
590.098	1794.36
590.299	1819.93
590.5	1793.78
590.702	1841.83
590.903	1887.94
591.104	1964.66
591.305	1927.27
591.507	1966.21
591.708	1948.58
591.909	1936.37
592.11	1957.69
592.311	1968.15
592.512	1901.31
592.714	1883.29
592.915	1898.21
593.116	1909.83
593.317	1930.76
593.518	1924.56
593.719	1907.12
593.92	1967.18
594.121	1986.17
594.322	1935.02
594.523	1942.19
594.724	1889.68
594.925	1904.6
595.126	1920.87
595.327	1941.02
595.528	1936.57
595.729	1918.55
595.929	1956.72
596.13	1939.47
596.331	1960.4
596.532	1912.16
596.733	2002.64
596.934	1973.57
597.135	1933.08
597.335	1932.11
597.536	1899.37
597.737	1935.6
597.938	1861.39
598.138	1924.94
598.339	1913.71
598.54	1925.33
598.74	1926.11
598.941	1909.64
599.142	1972.22
599.342	1933.66
599.543	1867.59
599.744	1903.44
599.944	1908.86
600.145	1898.59
600.345	1902.66
600.546	1994.89
600.746	1979.19
600.947	2001.67
601.147	1927.27
601.348	1985.39
601.548	1923.01
601.749	1919.91
601.949	1891.81
602.15	1910.02
602.35	1913.9
602.551	1956.33
602.751	1903.44
602.951	1918.74
603.152	1835.43
603.352	1922.04
603.552	1912.16
603.753	1960.01
603.953	1935.6
604.153	1926.69
604.354	1904.41
604.554	1940.06
604.754	1965.63
604.954	1895.88
605.155	1952.46
605.355	1926.3
605.555	1965.05
605.755	1980.74
605.955	1929.98
606.155	1928.43
606.356	1916.22
606.556	1939.86
606.756	1921.26
606.956	1857.71
607.156	1941.22
607.356	1873.21
607.556	1910.61
607.756	1899.37
607.956	1895.49
608.156	1890.65
608.356	1833.88
608.556	1949.55
608.756	1879.03
608.956	1833.3
609.156	1849.19
609.356	1807.14
609.556	1789.32
609.755	1868.56
609.955	1788.35
610.155	1783.12
610.355	1824.39
610.555	1785.25
610.755	1810.05
610.954	1720.93
611.154	1801.14
611.354	1828.84
611.554	1775.56
611.753	1793.97
611.953	1737.59
612.153	1798.23
612.352	1777.89
612.552	1735.26
612.752	1694
612.951	1777.11
613.151	1751.35
613.351	1715.5
613.55	1768.78
613.75	1773.24
613.949	1696.9
614.149	1747.86
614.348	1743.4
614.548	1676.95
614.747	1668.03
614.947	1711.82
615.146	1658.15
615.346	1710.66
615.545	1701.36
615.745	1730.23
615.944	1699.81
616.144	1694.97
616.343	1656.22
616.542	1629.09
616.742	1610.1
616.941	1638.58
617.14	1574.65
617.34	1626.19
617.539	1609.33
617.738	1571.74
617.938	1668.62
618.137	1629.09
618.336	1603.32
618.535	1617.27
618.734	1625.02
618.934	1614.37
619.133	1625.8
619.332	1669
619.531	1580.27
619.73	1621.92
619.929	1667.65
620.128	1602.55
620.328	1634.71
620.527	1624.44
620.726	1564.57
620.925	1635.68
621.124	1592.86
621.323	1651.57
621.522	1560.5
621.721	1584.53
621.92	1552.37
622.119	1605.84
622.318	1535.71
622.517	1549.07
622.715	1533.77
622.914	1505.48
623.113	1553.14
623.312	1460.14
623.511	1539.39
623.71	1496.57
623.909	1508.39
624.107	1552.95
624.306	1472.54
624.505	1480.68
624.704	1466.15
624.902	1469.06
625.101	1528.54
625.3	1460.14
625.499	1443.09
625.697	1425.66
625.896	1416.55
626.095	1466.73
626.293	1390.2
626.492	1479.32
626.69	1490.56
626.889	1424.88
627.088	1460.72
627.286	1414.23
627.485	1423.72
627.683	1410.35
627.882	1410.54
628.08	1327.43
628.279	1357.46
628.477	1409.19
628.676	1333.24
628.874	1393.88
629.073	1358.81
629.271	1362.3
629.469	1414.03
629.668	1371.79
629.866	1361.53
630.065	1345.83
630.263	1365.21
630.461	1340.99
630.66	1379.54
630.858	1370.05
631.056	1405.89
631.254	1415.58
631.453	1363.46
631.651	1384.39
631.849	1403.38
632.047	1401.05
632.245	1364.82
632.444	1366.37
632.642	1402.02
632.84	1450.46
633.038	1385.55
633.236	1354.55
633.434	1387.1
633.632	1361.91
633.83	1349.51
634.028	1380.71
634.227	1394.85
634.425	1434.76
634.623	1421.59
634.821	1404.15
635.019	1410.74
635.216	1391.94
635.414	1413.64
635.612	1437.09
635.81	1407.64
636.008	1470.99
636.206	1385.74
636.404	1435.93
636.602	1383.81
636.8	1403.18
636.997	1428.76
637.195	1421.59
637.393	1413.64
637.591	1471.77
637.789	1437.28
637.986	1384
638.184	1439.03
638.382	1473.32
638.58	1415.78
638.777	1444.06
638.975	1383.42
639.173	1396.79
639.37	1406.09
639.568	1378.38
639.765	1402.02
639.963	1337.89
640.161	1417.91
640.358	1375.86
640.556	1331.11
640.753	1338.66
640.951	1285.96
641.148	1351.45
641.346	1302.43
641.543	1309.41
641.741	1361.14
641.938	1263.88
642.136	1281.12
642.333	1275.31
642.531	1324.91
642.728	1333.24
642.925	1277.44
643.123	1246.44
643.32	1271.63
643.517	1308.44
643.715	1265.43
643.912	1277.83
644.109	1293.52
644.306	1273.95
644.504	1238.3
644.701	1278.02
644.898	1300.5
645.095	1243.15
645.293	1262.33
645.49	1278.41
645.687	1261.75
645.884	1279.18
646.081	1179.4
646.278	1191.22
646.475	1217.38
646.672	1195.48
646.87	1186.19
647.067	1165.65
647.264	1188.51
647.461	1136.59
647.658	1125.54
647.855	1198.78
648.052	1118.57
648.249	1046.88
648.446	1133.1
648.642	1114.69
648.839	1068.58
649.036	1092.61
649.233	1052.5
649.43	1049.01
649.627	1059.47
649.824	1096.48
650.021	1066.26
650.217	1102.49
650.414	1081.95
650.611	1107.33
650.808	1113.72
651.004	1099
651.201	1130.58
651.398	1152.86
651.595	1086.79
651.791	1073.23
651.988	1097.06
652.185	1053.66
652.381	1098.22
652.578	1051.14
652.775	1085.44
652.971	1111.2
653.168	1096.87
653.364	1113.72
653.561	1062.96
653.757	1069.94
653.954	1095.9
654.15	1036.22
654.347	1174.95
654.543	1064.32
654.74	1037.77
654.936	1051.53
655.133	1074.01
655.329	1095.71
655.525	1038.74
655.722	1084.47
655.918	1005.23
656.115	1030.61
656.311	899.25
656.507	901.76
656.704	870.38
656.9	886.65
657.096	924.05
657.292	899.83
657.489	965.51
657.685	961.63
657.881	933.15
658.077	961.05
658.273	970.93
658.47	1047.27
658.666	975.19
658.862	1028.47
659.058	1010.07
659.254	1034.29
659.45	987.98
659.646	1033.51
659.842	998.83
660.038	1035.26
660.234	1007.16
660.43	1019.76
660.626	1053.08
660.822	1036.03
661.018	1036.61
661.214	1007.55
661.41	972.29
661.606	1020.92
661.802	1042.81
661.998	1012.39
662.194	977.91
662.39	1002.51
662.586	995.34
662.781	1061.02
662.977	991.66
663.173	1028.09
663.369	977.13
663.564	960.66
663.76	1011.04
663.956	964.93
664.152	1000.96
664.347	898.08
664.543	974.81
664.739	962.41
664.934	914.75
665.13	878.51
665.326	986.63
665.521	962.21
665.717	904.48
665.912	907.96
666.108	889.95
666.304	934.7
666.499	911.26
666.695	857.78
666.89	932.57
667.086	972.29
667.281	936.44
667.477	968.03
667.672	922.3
667.867	901.96
668.063	949.62
668.258	895.56
668.454	879.1
668.649	968.8
668.844	905.64
669.04	933.15
669.235	910.48
669.43	900.6
669.626	864.95
669.821	902.54
670.016	859.33
670.211	873.28
670.407	847.9
670.602	890.72
670.797	855.65
670.992	908.55
671.187	863.01
671.382	900.21
671.578	857.01
671.773	898.28
671.968	820.97
672.163	866.31
672.358	878.51
672.553	859.33
672.748	853.52
672.943	908.35
673.138	839.18
673.333	861.46
673.528	851.39
673.723	891.5
673.918	843.06
674.113	838.22
674.308	906.03
674.503	857.2
674.698	892.66
674.892	848.87
675.087	868.83
675.282	843.64
675.477	816.9
675.672	870.96
675.867	843.06
676.061	801.21
676.256	787.07
676.451	839.96
676.646	844.22
676.84	801.6
677.035	802.76
677.23	801.6
677.424	871.35
677.619	854.88
677.814	868.25
678.008	879.87
678.203	810.32
678.397	806.25
678.592	835.12
678.787	888.98
678.981	841.32
679.176	856.04
679.37	864.76
679.565	814.97
679.759	826.98
679.954	860.69
680.148	890.53
680.342	901.38
680.537	861.46
680.731	850.03
680.926	885.3
681.12	871.93
681.314	833.37
681.509	863.98
681.703	827.17
681.897	850.23
682.092	857.01
682.286	852.75
682.48	934.12
682.674	860.5
682.869	857.2
683.063	888.78
683.257	917.26
683.451	874.06
683.645	894.79
683.839	841.9
684.034	858.56
684.228	890.14
684.422	838.02
684.616	851.58
684.81	890.72
685.004	849.84
685.198	845.19
685.392	896.92
685.586	869.41
685.78	890.33
685.974	914.55
686.168	906.8
686.362	922.11
686.556	837.63
686.75	808.77
686.944	778.73
687.138	791.72
687.331	677.99
687.525	680.5
687.719	630.52
687.913	690.97
688.107	726.23
688.301	695.04
688.494	743.86
688.688	686.9
688.882	668.3
689.076	663.07
689.269	733.98
689.463	816.52
689.657	732.24
689.85	730.88
690.044	731.65
690.238	782.03
690.431	798.3
690.625	820.2
690.818	851.39
691.012	862.05
691.205	879.87
691.399	831.63
691.593	912.23
691.786	982.36
691.98	972.87
692.173	1014.53
692.366	1003.09
692.56	1006.39
692.753	1060.64
692.947	962.6
693.14	1088.34
693.333	1069.94
693.527	1024.6
693.72	1067.22
693.914	1074.97
694.107	1051.53
694.3	1087.96
694.493	1105.59
694.687	1127.48
694.88	1098.61
695.073	1203.82
695.266	1189.29
695.46	1209.24
695.653	1250.32
695.846	1249.35
696.039	1174.56
696.232	1231.13
696.425	1323.16
696.618	1369.86
696.812	1360.95
697.005	1428.95
697.198	1514.39
697.391	1435.34
697.584	1504.9
697.777	1557.99
697.97	1550.82
698.163	1583.17
698.356	1539.97
698.549	1631.42
698.742	1661.83
698.935	1588.6
699.127	1608.94
699.32	1588.4
699.513	1620.95
699.706	1626.38
699.899	1650.98
700.092	1679.27
700.285	1655.83
700.477	1638
700.67	1693.03
700.863	1707.95
701.056	1794.36
701.248	1814.12
701.441	1813.34
701.634	1746.7
701.826	1859.07
702.019	1796.88
702.212	1864.11
702.404	1825.36
702.597	1855.39
702.79	1904.02
702.982	1924.56
703.175	1955.75
703.367	2026.08
703.56	2036.35
703.752	2088.27
703.945	2067.54
704.137	2101.83
704.33	2138.65
704.522	2166.74
704.715	2169.26
704.907	2206.85
705.1	2252.96
705.292	2211.11
705.484	2252.57
705.677	2320.58
705.869	2321.74
706.061	2348.09
706.254	2413.38
706.446	2313.99
706.638	2370.95
706.831	2432.56
707.023	2408.54
707.215	2513.55
707.407	2518.2
707.599	2499.6
707.792	2575.35
707.984	2573.61
708.176	2573.61
708.368	2548.81
708.56	2598.41
708.752	2598.8
708.944	2639.1
709.136	2667.38
709.329	2641.23
709.521	2767.36
709.713	2737.91
709.905	2746.24
710.097	2851.25
710.289	2754.38
710.481	2814.82
710.672	2810.37
710.864	2799.13
711.056	2893.49
711.248	2878.95
711.44	2892.13
711.632	2885.54
711.824	2964.2
712.016	2960.91
712.207	3002.57
712.399	2954.9
712.591	3089.95
712.783	3044.41
712.975	3040.93
713.166	3033.18
713.358	3030.85
713.55	3100.02
713.741	3120.36
713.933	3088.59
714.125	3088.2
714.316	3076.77
714.508	3158.14
714.7	3200.58
714.891	3153.49
715.083	3152.72
715.274	3154.08
715.466	3196.31
715.657	3213.36
715.849	3104.67
716.04	3181.98
716.232	3085.68
716.423	3114.55
716.615	2984.74
716.806	2931.27
716.998	2852.61
717.189	2719.69
717.381	2675.33
717.572	2599.57
717.763	2598.99
717.955	2568.18
718.146	2534.86
718.337	2456.78
718.528	2388.97
718.72	2320.38
718.911	2374.44
719.102	2305.08
719.293	2362.42
719.485	2293.84
719.676	2315.34
719.867	2270.39
720.058	2281.24
720.249	2262.45
720.44	2284.34
720.632	2330.84
720.823	2441.86
721.014	2560.63
721.205	2640.26
721.396	2720.47
721.587	2885.35
721.778	2912.28
721.969	2964.78
722.16	3068.63
722.351	3101.38
722.542	3149.04
722.733	3182.56
722.924	3115.52
723.115	3144.58
723.305	3115.13
723.496	3123.66
723.687	2948.32
723.878	2980.67
724.069	2922.55
724.26	2975.63
724.45	2879.15
724.641	2846.41
724.832	2898.72
725.023	2851.44
725.213	2868.88
725.404	2825.67
725.595	2804.17
725.785	2800.68
725.976	2891.35
726.167	2860.94
726.357	2887.48
726.548	3027.37
726.739	2881.47
726.929	2988.23
727.12	3010.9
727.31	2995.78
727.501	2937.85
727.691	2989
727.882	2966.33
728.072	2980.87
728.263	3007.99
728.453	3094.98
728.644	3112.23
728.834	3106.22
729.024	3038.41
729.215	2991.91
729.405	3061.85
729.596	3112.03
729.786	3162.21
729.976	3159.5
730.167	3153.49
730.357	3150.01
730.547	3176.55
730.737	3197.09
730.928	3233.9
731.118	3265.29
731.308	3184.11
731.498	3207.16
731.688	3302.87
731.879	3378.63
732.069	3396.26
732.259	3446.63
732.449	3511.73
732.639	3608.61
732.829	3641.16
733.019	3682.81
733.209	3742.29
733.399	3721.95
733.589	3858.35
733.779	3866.68
733.969	3899.42
734.159	3983.7
734.349	4035.24
734.539	4078.44
734.729	4092.97
734.919	4129.98
735.109	4150.13
735.299	4050.35
735.488	4136.18
735.678	4104.21
735.868	4083.67
736.058	4100.34
736.248	4091.81
736.437	4041.83
736.627	4045.89
736.817	4173.57
737.007	4131.72
737.196	4212.9
737.386	4192.95
737.576	4091.23
737.765	4228.6
737.955	4141.02
738.144	4315.01
738.334	4282.27
738.524	4187.14
738.713	4244.87
738.903	4185.97
739.092	4287.3
739.282	4297.18
739.471	4241
739.661	4213.49
739.85	4333.8
740.04	4281.68
740.229	4346.59
740.419	4384.37
740.608	4403.36
740.797	4376.43
740.987	4407.23
741.176	4428.16
741.365	4357.25
741.555	4367.71
741.744	4427.96
741.933	4374.49
742.123	4430.48
742.312	4408.59
742.501	4490.35
742.69	4499.07
742.88	4370.03
743.069	4530.26
743.258	4512.83
743.447	4551.77
743.636	4534.33
743.825	4484.54
744.014	4545.37
744.204	4567.27
744.393	4516.7
744.582	4563.97
744.771	4606.4
744.96	4552.93
745.149	4599.82
745.338	4526.97
745.527	4601.95
745.716	4541.69
745.905	4544.6
746.094	4588.39
746.283	4589.36
746.471	4601.37
746.66	4598.27
746.849	4588.19
747.038	4641.47
747.227	4550.99
747.416	4593.81
747.604	4561.07
747.793	4541.5
747.982	4540.14
748.171	4612.8
748.359	4590.52
748.548	4563.39
748.737	4526.19
748.926	4566.49
749.114	4498.1
749.303	4559.32
749.491	4574.63
749.68	4476.79
749.869	4608.34
750.057	4488.41
750.246	4523.87
750.434	4540.92
750.623	4492.29
750.811	4481.83
751	4516.51
751.188	4484.54
751.377	4510.69
751.565	4480.66
751.754	4437.65
751.942	4419.44
752.131	4494.61
752.319	4412.08
752.507	4448.5
752.696	4460.32
752.884	4493.06
753.072	4398.71
753.261	4422.54
753.449	4467.88
753.637	4404.91
753.825	4465.74
754.014	4427.19
754.202	4442.69
754.39	4442.3
754.578	4439.78
754.766	4396.77
754.955	4371.39
755.143	4441.72
755.331	4396.38
755.519	4439.98
755.707	4381.08
755.895	4350.66
756.083	4392.31
756.271	4304.93
756.459	4351.43
756.647	4356.47
756.835	4319.47
757.023	4357.63
757.211	4293.5
757.399	4375.65
757.587	4316.95
757.775	4245.26
757.963	4267.93
758.151	4280.13
758.339	4188.88
758.526	4209.8
758.714	4251.27
758.902	4099.76
759.09	3943.79
759.278	3712.07
759.465	3441.98
759.653	2968.47
759.841	2678.04
760.028	2311.28
760.216	2000.5
760.404	1844.54
760.591	1558.76
760.779	1283.06
760.967	1115.27
761.154	934.89
761.342	933.15
761.529	936.44
761.717	967.44
761.905	955.63
762.092	1019.76
762.28	993.79
762.467	969.96
762.655	890.72
762.842	913
763.029	936.44
763.217	922.3
763.404	942.06
763.592	933.54
763.779	888.4
763.966	936.25
764.154	987.98
764.341	1054.63
764.528	1043.39
764.716	1135.62
764.903	1192.77
765.09	1280.54
765.277	1361.14
765.465	1525.82
765.652	1592.28
765.839	1715.7
766.026	1858.68
766.213	1945.09
766.4	2083.43
766.588	2305.85
766.775	2318.64
766.962	2479.64
767.149	2603.64
767.336	2776.85
767.523	2761.54
767.71	2889.61
767.897	3062.43
768.084	3168.03
768.271	3162.41
768.458	3269.16
768.645	3335.23
768.832	3349.76
769.019	3446.83
769.206	3490.81
769.392	3560.94
769.579	3613.84
769.766	3620.43
769.953	3664.79
770.14	3684.56
770.327	3675.45
770.513	3724.86
770.7	3803.9
770.887	3721.76
771.073	3751.4
771.26	3795.96
771.447	3764.57
771.634	3742.1
771.82	3876.75
772.007	3722.53
772.193	3800.42
772.38	3832.58
772.567	3778.14
772.753	3781.24
772.94	3881.98
773.126	3817.27
773.313	3825.8
773.499	3810.88
773.686	3850.4
773.872	3752.56
774.059	3803.9
774.245	3739.39
774.432	3769.03
774.618	3720.98
774.804	3763.22
774.991	3749.85
775.177	3744.04
775.363	3798.29
775.55	3801.77
775.736	3699.28
775.922	3718.46
776.109	3707.22
776.295	3742.49
776.481	3781.82
776.667	3778.91
776.853	3687.46
777.04	3684.36
777.226	3715.56
777.412	3746.55
777.598	3683.2
777.784	3689.01
777.97	3667.51
778.156	3678.74
778.342	3640.96
778.528	3650.26
778.715	3588.84
778.901	3578.96
779.087	3647.94
779.272	3607.64
779.458	3587.49
779.644	3612.87
779.83	3547.58
780.016	3636.12
780.202	3567.53
780.388	3587.88
780.574	3459.23
780.76	3512.12
780.946	3561.33
781.131	3558.43
781.317	3563.46
781.503	3486.74
781.689	3517.55
781.874	3611.9
782.06	3478.41
782.246	3547.58
782.432	3462.91
782.617	3492.94
782.803	3546.22
782.989	3460.97
783.174	3456.71
783.36	3437.92
783.545	3414.08
783.731	3429.39
783.916	3330
784.102	3410.02
784.288	3383.86
784.473	3432.3
784.659	3368.55
784.844	3385.41
785.029	3389.48
785.215	3340.46
785.4	3335.62
785.586	3383.67
785.771	3320.12
785.956	3350.15
786.142	3298.03
786.327	3346.47
786.512	3296.48
786.698	3290.67
786.883	3255.79
787.068	3238.94
787.254	3253.47
787.439	3249.59
787.624	3243.2
787.809	3173.26
787.994	3247.27
788.18	3240.29
788.365	3151.56
788.55	3133.93
788.735	3199.41
788.92	3137.8
789.105	3127.92
789.29	3150.01
789.475	3066.7
789.66	3108.35
789.845	3032.6
790.03	3035.7
790.215	3024.27
790.4	3080.84
790.585	3101.18
790.77	3041.7
790.955	3008.38
791.14	3020.97
791.325	3100.99
791.51	2984.35
791.695	2990.17
791.879	3032.4
792.064	2944.83
792.249	3062.82
792.434	2991.72
792.618	3026.4
792.803	3025.23
792.988	3001.6
793.173	3032.6
793.357	3045.77
793.542	2977.96
793.727	3038.02
793.911	3065.34
794.096	2998.3
794.281	3059.53
794.465	3118.62
794.65	3047.9
794.834	3109.13
795.019	3128.11
795.203	3113
795.388	3129.28
795.572	3164.54
795.757	3103.12
795.941	3115.33
796.126	3056.43
796.31	3008.96
796.494	3063.01
796.679	3020.58
796.863	2980.09
797.048	3070.18
797.232	3030.46
797.416	3069.21
797.601	3074.25
797.785	3116.88
797.969	3090.33
798.153	3051.97
798.338	3126.76
798.522	3134.51
798.706	3119.2
798.89	3136.25
799.074	3199.22
799.258	3192.05
799.443	3128.11
799.627	3097.89
799.811	3158.53
799.995	3075.41
800.179	3063.4
800.363	3059.53
800.547	3078.9
800.731	3133.73
800.915	3008.57
801.099	3067.08
801.283	3049.65
801.467	3065.73
801.651	3048.48
801.835	3086.26
802.019	3090.33
802.202	3099.63
802.386	3045
802.57	3003.34
802.754	3043.83
802.938	3029.11
803.121	3055.26
803.305	3070.38
803.489	3067.28
803.673	3069.8
803.856	3055.07
804.04	3054.88
804.224	3036.66
804.407	3026.4
804.591	2992.49
804.775	3055.46
804.958	3022.13
805.142	3113.97
805.326	3014.19
805.509	3060.88
805.693	3087.43
805.876	3106.22
806.06	3147.29
806.243	3142.06
806.427	3153.88
806.61	3155.43
806.794	3071.93
806.977	3137.8
807.16	3079.29
807.344	3141.09
807.527	3119.39
807.71	3132.18
807.894	3103.9
808.077	3126.56
808.26	3062.43
808.444	3053.71
808.627	3121.91
808.81	3024.85
808.993	2967.69
809.177	2976.41
809.36	2988.03
809.543	2971.95
809.726	2903.17
809.909	2883.41
810.092	2889.42
810.276	2907.63
810.459	2874.3
810.642	2877.4
810.825	2806.88
811.008	2832.65
811.191	2757.86
811.374	2737.33
811.557	2704.78
811.74	2798.55
811.923	2676.3
812.106	2650.91
812.289	2646.46
812.472	2665.25
812.654	2660.02
812.837	2599.57
813.02	2569.35
813.203	2490.88
813.386	2360.87
813.569	2360.87
813.751	2279.89
813.934	2324.06
814.117	2258.58
814.3	2216.92
814.482	2187.47
814.665	2161.7
814.848	2060.95
815.03	2036.35
815.213	2044.49
815.396	2003.41
815.578	1983.07
815.761	1954.78
815.943	2014.26
816.126	1921.46
816.309	1871.28
816.491	1814.31
816.674	1766.65
816.856	1825.74
817.039	1773.63
817.221	1856.55
817.403	1841.24
817.586	1807.14
817.768	1847.25
817.951	1765.3
818.133	1716.08
818.315	1763.55
818.498	1826.71
818.68	1862.56
818.862	1899.56
819.045	1920.29
819.227	1875.93
819.409	1884.45
819.591	1849.96
819.774	1840.66
819.956	1811.79
820.138	1881.16
820.32	1916.22
820.502	2018.33
820.684	2081.3
820.866	2072.38
821.048	2157.05
821.231	2166.74
821.413	2158.99
821.595	2101.06
821.777	2152.02
821.959	2134.19
822.141	2210.14
822.323	2028.79
822.505	1975.12
822.686	1895.88
822.868	1793.58
823.05	1691.48
823.232	1625.22
823.414	1564.19
823.596	1650.79
823.778	1618.05
823.96	1661.64
824.141	1668.62
824.323	1737.78
824.505	1770.33
824.687	1841.83
824.868	1897.82
825.05	2002.83
825.232	2063.47
825.413	2144.46
825.595	2093.7
825.777	1993.53
825.958	2061.34
826.14	2072.77
826.321	2086.53
826.503	2041.39
826.685	2083.43
826.866	2083.82
827.048	2119.08
827.229	2018.14
827.411	2025.3
827.592	1947.42
827.773	1901.89
827.955	1853.06
828.136	1894.72
828.318	1840.08
828.499	1898.01
828.68	1823.81
828.862	1863.33
829.043	1897.43
829.224	1827.68
829.406	1815.09
829.587	1817.03
829.768	1839.5
829.949	1869.73
830.131	1855.19
830.312	1936.18
830.493	1834.85
830.674	1885.61
830.855	1822.64
831.036	1861.98
831.218	1906.15
831.399	1931.53
831.58	1872.63
831.761	1852.48
831.942	1861.2
832.123	1862.56
832.304	1819.35
832.485	1842.02
832.666	1853.64
832.847	1848.22
833.028	1866.24
833.209	1839.31
833.389	1836.01
833.57	1779.83
833.751	1824
833.932	1895.11
834.113	1831.75
834.294	1832.91
834.475	1879.99
834.655	1934.82
834.836	1918.74
835.017	1895.11
835.198	1884.26
835.378	1881.93
835.559	1979.77
835.74	1895.3
835.92	1901.5
836.101	1891.23
836.281	1964.27
836.462	1958.85
836.643	1994.3
836.823	1984.04
837.004	1970.47
837.184	1984.23
837.365	2001.86
837.545	1995.08
837.726	1917
837.906	2011.94
838.087	1987.72
838.267	1969.51
838.448	1931.14
838.628	2007.09
838.808	1997.99
838.989	2022.2
839.169	1946.84
839.349	2009.03
839.53	1999.54
839.71	1980.94
839.89	2003.8
840.07	2007.29
840.251	1948.58
840.431	2033.05
840.611	1942.77
840.791	1966.41
840.971	1984.62
841.151	1942.77
841.332	1938.51
841.512	2001.09
841.692	1900.34
841.872	1962.92
842.052	1912.16
842.232	1972.41
842.412	1930.95
842.592	1918.36
842.772	1989.46
842.952	1969.51
843.132	1934.05
843.312	1899.17
843.492	1922.42
843.672	1955.17
843.851	1872.44
844.031	1889.68
844.211	1899.17
844.391	1850.35
844.571	1920.1
844.751	1937.73
844.93	1943.93
845.11	1910.61
845.29	1959.04
845.47	1960.01
845.649	1857.71
845.829	1958.27
846.009	1917.77
846.188	1941.99
846.368	1927.46
846.547	1918.36
846.727	1938.51
846.907	1873.99
847.086	1908.09
847.266	1948.58
847.445	1907.7
847.625	1888.71
847.804	1886.58
847.984	1889.49
848.163	1848.03
848.343	1860.23
848.522	1868.18
848.701	1880.19
848.881	1849.58
849.06	1858.49
849.239	1881.93
849.419	1869.73
849.598	1795.71
849.777	1775.76
849.957	1712.98
850.136	1672.1
850.315	1706.98
850.494	1701.17
850.674	1693.61
850.853	1760.65
851.032	1729.84
851.211	1772.27
851.39	1719.18
851.569	1680.43
851.748	1675.78
851.927	1729.26
852.107	1714.92
852.286	1694.77
852.465	1690.51
852.644	1745.92
852.823	1738.75
853.002	1717.63
853.181	1715.89
853.359	1739.72
853.538	1683.92
853.717	1720.35
853.896	1636.45
854.075	1561.86
854.254	1526.41
854.433	1453.94
854.611	1492.31
854.79	1445.81
854.969	1511.49
855.148	1523.89
855.327	1498.7
855.505	1522.92
855.684	1518.46
855.863	1564.57
856.041	1539
856.22	1588.99
856.399	1554.89
856.577	1657.18
856.756	1669.78
856.934	1762.58
857.113	1727.9
857.291	1631.42
857.47	1656.02
857.648	1640.33
857.827	1651.57
858.005	1689.73
858.184	1623.67
858.362	1728.48
858.541	1677.14
858.719	1633.55
858.898	1660.87
859.076	1598.09
859.254	1685.67
859.433	1645.37
859.611	1633.93
859.789	1607.97
859.967	1670.94
860.146	1663
860.324	1596.74
860.502	1622.31
860.68	1505.48
860.859	1558.37
861.037	1550.04
861.215	1600.61
861.393	1594.02
861.571	1614.95
861.749	1552.17
861.927	1601.77
862.105	1622.31
862.283	1548.88
862.461	1545.39
862.639	1534.93
862.817	1551.98
862.995	1575.81
863.173	1536.09
863.351	1540.55
863.529	1586.85
863.707	1569.42
863.885	1570.39
864.063	1477.77
864.241	1523.89
864.418	1524.47
864.596	1522.14
864.774	1489.4
864.952	1489.21
865.129	1548.1
865.307	1499.09
865.485	1432.24
865.663	1509.16
865.84	1387.88
866.018	1433.6
866.196	1302.43
866.373	1341.18
866.551	1312.9
866.728	1251.48
866.906	1310.57
867.084	1337.5
867.261	1343.12
867.439	1356.68
867.616	1390.98
867.794	1348.35
867.971	1391.17
868.149	1420.62
868.326	1440.77
868.503	1439.61
868.681	1414.23
868.858	1390.59
869.035	1384.78
869.213	1408.03
869.39	1401.83
869.567	1436.51
869.745	1375.09
869.922	1384.58
870.099	1424.11
870.276	1419.84
870.454	1414.03
870.631	1432.24
870.808	1404.54
870.985	1447.36
871.162	1475.26
871.339	1415.39
871.517	1341.76
871.694	1348.16
871.871	1369.28
872.048	1349.32
872.225	1329.95
872.402	1404.54
872.579	1340.02
872.756	1369.08
872.933	1356.68
873.11	1315.03
873.287	1351.84
873.463	1324.13
873.64	1327.04
873.817	1351.65
873.994	1323.55
874.171	1295.46
874.348	1351.06
874.524	1297.2
874.701	1328.78
874.878	1260.78
875.055	1333.24
875.231	1308.44
875.408	1307.47
875.585	1222.42
875.762	1282.86
875.938	1258.65
876.115	1266.98
876.291	1254.58
876.468	1265.04
876.645	1244.5
876.821	1260.97
876.998	1216.02
877.174	1262.13
877.351	1256.13
877.527	1246.83
877.704	1275.31
877.88	1264.07
878.057	1219.51
878.233	1291.97
878.409	1246.83
878.586	1255.35
878.762	1237.92
878.938	1236.37
879.115	1148.6
879.291	1217.18
879.467	1184.05
879.644	1211.57
879.82	1229.39
879.996	1188.32
880.172	1154.99
880.349	1192
880.525	1220.09
880.701	1155.57
880.877	1168.36
881.053	1185.02
881.229	1157.9
881.405	1210.6
881.581	1145.3
881.757	1172.24
881.933	1161
882.109	1218.93
882.285	1156.74
882.461	1108.69
882.637	1164.49
882.813	1178.24
882.989	1188.12
883.165	1212.53
883.341	1159.64
883.517	1179.99
883.693	1204.78
883.869	1214.28
884.044	1132.52
884.22	1199.75
884.396	1217.77
884.572	1159.45
884.747	1224.35
884.923	1171.07
885.099	1208.47
885.275	1210.4
885.45	1171.85
885.626	1165.84
885.801	1146.08
885.977	1148.79
886.153	1110.82
886.328	1195.68
886.504	1130
886.679	1142.79
886.855	1123.22
887.03	1163.52
887.206	1187.15
887.381	1177.47
887.557	1187.93
887.732	1177.08
887.908	1194.32
888.083	1158.87
888.258	1129.42
888.434	1190.06
888.609	1145.5
888.784	1208.27
888.96	1140.07
889.135	1159.25
889.31	1110.04
889.485	1160.8
889.661	1135.62
889.836	1206.33
890.011	1188.7
890.186	1137.17
890.361	1124.96
890.537	1158.67
890.712	1156.15
890.887	1136.97
891.062	1157.9
891.237	1196.07
891.412	1123.6
891.587	1169.72
891.762	1155.96
891.937	1208.08
892.112	1093.38
892.287	1103.46
892.462	1086.21
892.637	1052.5
892.812	1022.47
892.987	1042.42
893.161	1058.7
893.336	1028.09
893.511	1068.19
893.686	1056.37
893.861	1028.67
894.035	1047.66
894.21	1037.97
894.385	987.01
894.56	1018.98
894.734	966.67
894.909	925.21
895.084	956.98
895.258	922.69
895.433	935.09
895.608	913.78
895.782	869.8
895.957	872.51
896.131	884.33
896.306	784.74
896.48	803.73
896.655	779.51
896.829	729.14
897.004	759.36
897.178	736.69
897.353	721.58
897.527	760.13
897.701	787.45
897.876	698.91
898.05	788.23
898.224	801.79
898.399	805.08
898.573	755.1
898.747	612.31
898.921	676.82
899.096	578.98
899.27	572.01
899.444	599.13
899.618	643.31
899.792	682.44
899.967	662.87
900.141	716.93
900.315	641.37
900.489	624.71
900.663	623.93
900.837	627.42
901.011	601.84
901.185	681.28
901.359	664.81
901.533	658.61
901.707	677.79
901.881	659.58
902.055	607.85
902.229	633.42
902.403	709.95
902.576	653.19
902.75	653.57
902.924	751.8
903.098	695.81
903.272	799.47
903.446	815.55
903.619	815.55
903.793	852.55
903.967	809.73
904.14	877.55
904.314	838.6
904.488	836.47
904.661	867.08
904.835	863.21
905.009	865.15
905.182	896.34
905.356	869.6
905.529	863.98
905.703	813.03
905.876	789.58
906.05	782.42
906.223	760.91
906.397	709.76
906.57	690
906.744	636.91
906.917	650.47
907.09	631.29
907.264	634.39
907.437	632.65
907.61	584.21
907.784	619.09
907.957	602.81
908.13	598.55
908.304	633.81
908.477	569.88
908.65	600.29
908.823	530.35
908.996	604.56
909.17	554.18
909.343	561.35
909.516	566
909.689	552.63
909.862	534.42
910.035	565.81
910.208	560.96
910.381	535.97
910.554	608.62
910.727	573.36
910.9	533.64
911.073	562.32
911.246	609.79
911.419	620.06
911.592	601.07
911.765	552.05
911.938	540.43
912.11	579.56
912.283	563.29
912.456	594.09
912.629	583.44
912.802	527.83
912.974	487.34
913.147	448.59
913.32	414.3
913.493	437.35
913.665	465.83
913.838	481.72
914.01	472.81
914.183	505.94
914.356	494.9
914.528	525.31
914.701	561.35
914.873	518.14
915.046	458.66
915.218	444.71
915.391	380.39
915.563	422.24
915.736	460.02
915.908	459.25
916.081	481.91
916.253	466.22
916.425	499.35
916.598	489.47
916.77	487.53
916.942	439.68
917.115	394.34
917.287	436.19
917.459	416.62
917.632	378.84
917.804	347.26
917.976	437.93
918.148	455.95
918.32	472.42
918.493	485.01
918.665	534.61
918.837	480.75
919.009	557.09
919.181	546.04
919.353	514.08
919.525	526.28
919.697	535.58
919.869	521.83
920.041	555.54
920.213	638.27
920.385	584.79
920.557	535
920.729	574.91
920.901	537.13
921.073	527.06
921.244	517.76
921.416	546.24
921.588	537.13
921.76	496.25
921.932	576.08
922.103	514.08
922.275	554.96
922.447	540.04
922.619	474.75
922.79	512.53
922.962	480.17
923.134	513.3
923.305	474.75
923.477	452.85
923.648	468.35
923.82	456.53
923.991	425.34
924.163	398.02
924.335	427.28
924.506	444.91
924.677	460.99
924.849	439.48
925.02	460.02
925.192	484.43
925.363	459.05
925.535	428.25
925.706	404.8
925.877	465.45
926.049	440.65
926.22	439.68
926.391	461.96
926.562	452.66
926.734	411.97
926.905	460.41
927.076	406.16
927.247	395.7
927.419	382.72
927.59	360.63
927.761	359.47
927.932	382.91
928.103	334.47
928.274	327.88
928.445	309.67
928.616	297.66
928.787	327.3
928.958	334.47
929.129	295.34
929.3	307.15
929.471	255.81
929.642	207.37
929.813	186.64
929.984	243.6
930.155	193.62
930.326	239.73
930.496	195.75
930.667	148.67
930.838	164.17
931.009	142.08
931.18	163.97
931.35	140.34
931.521	146.92
931.692	90.35
931.863	51.99
932.033	96.55
932.204	123.09
932.374	118.83
932.545	60.13
932.716	136.66
932.886	138.98
933.057	36.68
933.227	45.98
933.398	142.86
933.568	21.57
933.739	27.96
933.909	32.61
934.08	95.58
934.25	-15.05
934.421	22.35
934.591	94.42
934.761	17.5
934.932	-14.66
935.102	66.71
935.272	42.3
935.443	68.07
935.613	23.9
935.783	65.74
935.953	27.58
936.123	175.21
936.294	2.58
936.464	23.51
936.634	47.15
936.804	21.38
936.974	5.3
937.144	67.68
937.314	77.37
937.484	40.36
937.655	9.75
937.825	91.32
937.995	23.51
938.165	81.83
938.334	49.86
938.504	54.9
938.674	28.74
938.844	91.13
939.014	96.74
939.184	115.54
939.354	140.34
939.524	137.24
939.694	116.7
939.863	81.05
940.033	148.67
940.203	106.24
940.373	136.08
940.542	117.86
940.712	95.19
940.882	131.23
941.051	129.1
941.221	96.55
941.391	150.8
941.56	68.07
941.73	74.46
941.899	182.77
942.069	70.01
942.238	111.86
942.408	72.72
942.577	138.4
942.747	79.69
942.916	18.86
943.086	76.21
943.255	116.7
943.425	78.53
943.594	68.84
943.763	17.5
943.933	44.05
944.102	-0.13
944.271	74.46
944.441	91.9
944.61	28.74
944.779	93.26
944.948	156.22
945.117	26.8
945.287	60.51
945.456	3.75
945.625	43.46
945.794	82.02
945.963	53.54
946.132	86.67
946.301	53.93
946.47	84.34
946.639	11.11
946.808	73.69
946.977	91.13
947.146	113.79
947.315	48.31
947.484	96.74
947.653	65.36
947.822	19.25
947.991	45.21
948.16	114.38
948.329	120.58
948.498	69.04
948.666	68.46
948.835	96.36
949.004	53.93
949.173	36.88
949.341	53.73
949.51	69.43
949.679	100.81
949.847	79.11
950.016	117.86
950.185	135.3
950.353	39.4
950.522	85.89
950.69	125.61
950.859	64.58
951.028	126.78
951.196	78.73
951.365	56.06
951.533	65.36
951.701	115.34
951.87	92.68
952.038	29.9
952.207	31.06
952.375	119.41
952.543	49.28
952.712	48.7
952.88	47.34
953.048	137.43
953.217	79.31
953.385	77.76
953.553	106.63
953.721	19.63
953.89	85.12
954.058	23.31
954.226	52.76
954.394	80.47
954.562	32.81
954.73	43.08
954.898	85.12
955.067	104.49
955.235	50.83
955.403	99.65
955.571	129.49
955.739	90.35
955.907	39.2
956.075	59.54
956.243	49.08
956.41	81.05
956.578	1.03
956.746	16.73
956.914	51.41
957.082	98.88
957.25	84.15
957.418	37.85
957.585	86.28
957.753	127.74
957.921	74.85
958.089	52.57
958.256	60.51
958.424	110.69
958.592	88.99
958.759	48.7
958.927	95.97
959.095	62.84
959.262	64.78
959.43	76.98
959.597	43.27
959.765	65.94
959.932	53.54
960.1	100.62
960.267	82.02
960.435	103.53
960.602	104.69
960.77	67.1
960.937	42.88
961.104	100.62
961.272	31.84
961.439	66.33
961.606	109.73
961.774	107.21
961.941	65.55
962.108	65.94
962.275	61.09
962.443	104.3
962.61	87.83
962.777	152.35
962.944	84.93
963.111	107.21
963.278	106.24
963.446	93.26
963.613	76.4
963.78	89.77
963.947	124.84
964.114	93.26
964.281	172.11
964.448	112.44
964.615	93.84
964.782	101.98
964.949	137.43
965.116	107.4
965.282	150.02
965.449	77.95
965.616	35.52
965.783	112.63
965.95	95.19
966.117	64.19
966.283	81.83
966.45	109.34
966.617	100.62
966.784	146.34
966.95	101.39
967.117	130.26
967.284	77.56
967.45	52.76
967.617	158.16
967.784	112.44
967.95	174.82
968.117	108.37
968.283	128.71
968.45	189.36
968.616	120.19
968.783	152.54
968.949	145.57
969.116	179.09
969.282	120.19
969.449	142.66
969.615	123.29
969.781	87.83
969.948	109.73
970.114	96.94
970.28	169.59
970.447	124.45
970.613	194.59
970.779	143.44
970.945	158.16
971.112	137.63
971.278	130.07
971.444	139.37
971.61	157.97
971.776	109.34
971.942	141.31
972.108	147.31
972.275	136.85
972.441	139.18
972.607	178.89
972.773	96.74
972.939	142.28
973.105	135.69
973.271	62.26
973.437	126
973.602	118.06
973.768	114.57
973.934	130.46
974.1	141.69
974.266	43.27
974.432	130.26
974.598	80.08
974.763	147.89
974.929	126.39
975.095	168.62
975.261	77.18
975.426	93.45
975.592	90.93
975.758	177.54
975.923	63.03
976.089	77.56
976.255	132.98
976.42	119.03
976.586	83.18
976.751	128.33
976.917	203.31
977.082	136.66
977.248	90.35
977.413	51.8
977.579	117.86
977.744	118.83
977.91	73.88
978.075	88.8
978.24	88.99
978.406	78.92
978.571	94.81
978.736	73.69
978.902	94.23
979.067	77.37
979.232	44.24
979.397	116.89
979.563	125.61
979.728	74.08
979.893	121.93
980.058	55.86
980.223	126
980.388	143.24
980.554	100.04
980.719	89.77
980.884	112.63
981.049	136.66
981.214	56.25
981.379	120.58
981.544	85.51
981.709	111.47
981.874	121.16
982.039	77.76
982.204	131.43
982.368	114.38
982.533	82.99
982.698	142.86
982.863	142.86
983.028	75.24
983.193	95
983.357	136.66
983.522	101.01
983.687	92.09
983.852	95.19
984.016	96.74
984.181	127.74
984.346	96.55
984.51	115.73
984.675	110.5
984.839	102.36
985.004	136.08
985.168	132.78
985.333	122.51
985.498	99.65
985.662	142.08
985.827	97.33
985.991	101.59
986.155	113.21
986.32	120.58
986.484	155.84
986.649	103.33
986.813	72.53
986.977	117.28
987.142	122.9
987.306	63.23
987.47	82.79
987.634	98.68
987.799	105.66
987.963	107.01
988.127	126.97
988.291	148.09
988.455	113.79
988.62	77.95
988.784	133.36
988.948	107.21
989.112	89.77
989.276	109.53
989.44	87.44
989.604	63.42
989.768	72.53
989.932	169.59
990.096	73.88
990.26	83.38
990.424	86.28
990.588	87.64
990.752	182.57
990.915	132.78
991.079	88.22
991.243	67.88
991.407	122.13
991.571	101.98
991.734	113.02
991.898	112.44
992.062	161.65
992.226	120.19
992.389	50.63
992.553	51.41
992.717	84.15
992.88	95.39
993.044	82.79
993.207	104.88
993.371	120.96
993.535	123.48
993.698	91.32
993.862	105.27
994.025	131.62
994.189	115.54
994.352	87.44
994.515	105.27
994.679	134.14
994.842	90.93
995.006	95.39
995.169	81.05
995.332	57.03
995.496	107.21
995.659	41.33
995.822	67.88
995.985	84.54
996.149	109.34
996.312	85.89
996.475	132.59
996.638	75.04
996.801	139.56
996.964	130.07
997.128	82.79
997.291	82.02
997.454	103.53
997.617	35.52
997.78	106.24
997.943	57.22
998.106	102.94
998.269	67.29
998.432	113.02
998.595	97.33
998.758	44.43
998.92	25.25
999.083	25.64
999.246	84.93
999.409	45.98
999.572	55.09
999.735	53.54
999.897	80.66
1000.06	51.8
1000.223	42.3
1000.386	89.58
1000.548	91.51
1000.711	107.98
1000.874	110.11
1001.036	62.45
1001.199	122.32
1001.361	39.98
1001.524	84.54
1001.687	95.97
1001.849	10.14
1002.012	90.16
1002.174	89.96
1002.337	72.72
1002.499	70.98
1002.661	106.82
1002.824	31.06
1002.986	12.46
1003.149	82.41
1003.311	38.62
1003.473	126.78
1003.636	39.2
1003.798	75.43
1003.96	88.99
1004.123	64.78
1004.285	77.18
1004.447	62.64
1004.609	74.27
1004.771	115.34
1004.933	23.51
1005.096	28.16
1005.258	8.78
1005.42	42.11
1005.582	96.94
1005.744	61.68
1005.906	31.45
1006.068	74.08
1006.23	33
1006.392	13.63
1006.554	24.28
1006.716	93.64
1006.878	90.74
1007.04	5.3
1007.202	48.11
1007.363	74.27
1007.525	66.33
1007.687	57.22
1007.849	84.93
1008.011	10.72
1008.172	5.88
1008.334	37.65
1008.496	57.61
1008.658	11.11
1008.819	23.9
1008.981	28.93
1009.143	50.05
1009.304	46.18
1009.466	62.84
1009.627	97.13
1009.789	139.37
1009.95	66.52
1010.112	23.7
1010.273	69.81
1010.435	23.9
1010.596	7.23
1010.758	31.84
1010.919	31.06
1011.081	0.06
1011.242	43.08
1011.403	88.41
1011.565	55.09
1011.726	62.06
1011.887	8.01
1012.049	28.55
1012.21	58.19
1012.371	119.41
1012.532	-25.7
1012.693	40.36
1012.855	1.61
1013.016	60.9
1013.177	77.18
1013.338	49.28
1013.499	103.53
1013.66	57.8
1013.821	74.46
1013.982	58.38
1014.143	55.86
1014.304	25.45
1014.465	39.59
1014.626	72.53
1014.787	64.97
1014.948	99.46
1015.109	-3.62
1015.27	73.11
1015.431	40.36
1015.592	26.8
1015.752	84.73
1015.913	59.74
1016.074	56.83
1016.235	30.1
1016.395	32.81
1016.556	31.84
1016.717	47.53
1016.877	80.86
1017.038	20.8
1017.199	35.13
1017.359	44.43
1017.52	52.76
1017.681	28.16
1017.841	39.59
1018.002	44.63
1018.162	19.25
1018.323	81.24
1018.483	23.31
1018.644	14.79
1018.804	13.05
1018.964	15.56
1019.125	8.59
1019.285	14.21
1019.446	35.13
1019.606	21.38
1019.766	-37.33
1019.926	52.76
1020.087	38.04
1020.247	33.97
1020.407	44.82
1020.567	69.81
1020.728	32.81
1020.888	-11.37
1021.048	26.03
1021.208	26.61
1021.368	27.19
1021.528	70.01
1021.688	86.28
1021.848	52.76
1022.008	50.63
1022.168	23.7
1022.328	55.28
1022.488	52.57
1022.648	13.82
1022.808	21.96
1022.968	26.41
1023.128	13.43
1023.288	18.47
1023.448	32.23
1023.608	56.83
1023.767	48.31
1023.927	16.73
1024.087	6.07
1024.247	-20.28
1024.406	1.81
1024.566	-10.59
1024.726	-8.65
1024.885	10.14
1025.045	38.81
1025.205	20.8
1025.364	30.48
1025.524	18.08
1025.683	-3.81
1025.843	67.88
1026.003	39.4
1026.162	50.44
1026.321	53.73
1026.481	-10.4
1026.64	5.68
1026.8	28.93
1026.959	21.57
1027.119	-2.45
1027.278	14.21
1027.437	18.08
1027.597	11.5
1027.756	28.16
1027.915	34.55
1028.074	33.97
1028.234	-2.07
1028.393	39.59
1028.552	28.35
1028.711	-26.87
1028.87	39.2
1029.03	-14.66
1029.189	17.5
1029.348	-47.98
1029.507	8.78
1029.666	-23.38
1029.825	-11.95
1029.984	20.21
1030.143	32.61
1030.302	14.98
1030.461	-27.06
1030.62	7.62
1030.779	39.78
1030.938	2.97
1031.097	-22.6
1031.255	23.9
1031.414	62.84
1031.573	53.73
1031.732	-31.9
1031.891	-9.04
1032.049	58.96
1032.208	30.1
1032.367	-9.04
1032.525	0.26
1032.684	5.88
1032.843	-1.29
1033.001	-18.15
1033.16	146.54
1033.319	53.35
1033.477	40.36
1033.636	-5.75
1033.794	-10.01
1033.953	28.93
1034.111	65.16
1034.27	-16.79
1034.428	11.3
1034.587	-18.73
1034.745	55.67
1034.903	6.26
1035.062	24.28
1035.22	-32.68
1035.378	53.93
1035.537	-19.31
1035.695	38.62
1035.853	23.51
1036.011	62.84
1036.17	38.04
1036.328	-38.88
1036.486	-2.65
1036.644	8.01
1036.802	-50.5
1036.96	-9.82
1037.119	3.75
1037.277	17.5
1037.435	-41.01
1037.593	-14.47
1037.751	33.78
1037.909	41.53
1038.067	41.53
