Data from gum_young_FLMT105791__96__17-39-54-042.txt Node

Date: Mon Mar 20 17:39:54 GMT 2023
User: antho
Spectrometer: FLMT10579
Trigger mode: 0
Integration Time (sec): 1.000000E-1
Scans to average: 10
Electric dark correction enabled: true
Nonlinearity correction enabled: false
Boxcar width: 0
XAxis mode: Wavelengths
Number of Pixels in Spectrum: 3648
>>>>>Begin Spectral Data<<<<<
345.248	-142.53
345.464	-142.53
345.681	-142.53
345.898	-168.11
346.114	-140.98
346.331	-39.07
346.548	42.3
346.764	-2.26
346.981	-4.59
347.197	-2.26
347.414	-3.23
347.631	-20.09
347.847	66.13
348.064	-1.68
348.28	29.32
348.497	-48.95
348.713	-15.63
348.93	17.5
349.146	21.96
349.363	0.45
349.579	8.98
349.796	2.97
350.012	-11.95
350.229	46.95
350.445	4.52
350.661	-1.87
350.878	7.04
351.094	13.05
351.311	37.85
351.527	-0.9
351.743	17.31
351.96	40.95
352.176	37.65
352.392	21.57
352.609	15.18
352.825	-4.78
353.041	2
353.257	28.93
353.474	30.1
353.69	7.43
353.906	13.05
354.122	-27.84
354.339	58
354.555	0.65
354.771	-9.04
354.987	67.68
355.203	38.23
355.42	-27.25
355.636	-2.07
355.852	-7.1
356.068	15.18
356.284	-14.27
356.5	43.66
356.716	29.32
356.932	-11.56
357.148	27.77
357.364	12.46
357.58	38.04
357.796	62.45
358.012	60.51
358.228	23.12
358.444	-51.67
358.66	48.7
358.876	38.81
359.092	10.53
359.308	8.78
359.524	20.21
359.74	1.42
359.956	6.46
360.172	1.42
360.388	35.91
360.604	-19.12
360.819	87.25
361.035	14.4
361.251	49.08
361.467	-18.92
361.683	63.42
361.898	20.41
362.114	30.29
362.33	16.92
362.546	50.83
362.762	-0.13
362.977	0.84
363.193	-37.52
363.409	29.51
363.624	-34.42
363.84	-0.32
364.056	3.36
364.271	35.13
364.487	24.86
364.703	22.73
364.918	-4.59
365.134	-1.68
365.35	1.03
365.565	89.96
365.781	-2.65
365.996	39.4
366.212	53.73
366.427	17.11
366.643	4.13
366.858	18.08
367.074	-0.13
367.289	53.54
367.505	88.41
367.72	-42.56
367.936	-9.82
368.151	48.11
368.367	23.51
368.582	21.96
368.798	-4.2
369.013	60.13
369.228	11.11
369.444	25.83
369.659	38.43
369.874	5.1
370.09	60.71
370.305	-27.64
370.52	0.06
370.736	80.86
370.951	-7.69
371.166	43.66
371.381	77.37
371.597	27.77
371.812	-28.61
372.027	11.3
372.242	18.28
372.458	70.98
372.673	-2.65
372.888	11.11
373.103	20.21
373.318	78.53
373.533	22.35
373.749	30.29
373.964	-22.99
374.179	59.35
374.394	-6.72
374.609	37.65
374.824	4.13
375.039	65.55
375.254	28.93
375.469	76.98
375.684	3.55
375.899	75.24
376.114	14.98
376.329	19.44
376.544	62.45
376.759	35.71
376.974	-2.65
377.189	19.25
377.404	6.85
377.619	43.08
377.834	-21.05
378.049	-25.51
378.264	-4.39
378.478	25.06
378.693	2.58
378.908	43.85
379.123	-13.89
379.338	69.43
379.553	50.83
379.767	14.01
379.982	45.01
380.197	41.72
380.412	21.96
380.626	54.31
380.841	106.43
381.056	33.97
381.271	80.47
381.485	-12.72
381.7	-1.29
381.915	30.68
382.129	-2.26
382.344	12.66
382.559	14.98
382.773	65.55
382.988	-42.95
383.202	41.72
383.417	3.55
383.632	91.13
383.846	22.15
384.061	41.14
384.275	52.57
384.49	22.35
384.704	52.18
384.919	14.01
385.133	-3.42
385.348	50.63
385.562	-28.8
385.777	68.46
385.991	27.58
386.206	-8.46
386.42	35.13
386.634	54.31
386.849	42.11
387.063	37.07
387.277	8.59
387.492	7.23
387.706	-20.86
387.92	-20.28
388.135	50.63
388.349	51.02
388.563	32.61
388.778	38.23
388.992	53.15
389.206	34.94
389.42	75.63
389.635	16.73
389.849	32.23
390.063	52.57
390.277	36.1
390.491	79.89
390.706	41.91
390.92	48.11
391.134	45.21
391.348	74.66
391.562	-16.21
391.776	36.3
391.99	-16.02
392.205	67.68
392.419	-11.17
392.633	46.18
392.847	65.36
393.061	-5.36
393.275	89.58
393.489	47.53
393.703	44.63
393.917	68.07
394.131	7.43
394.345	55.67
394.559	62.64
394.773	14.79
394.986	42.88
395.2	43.66
395.414	83.38
395.628	9.95
395.842	44.24
396.056	5.49
396.27	-19.5
396.484	57.22
396.697	22.73
396.911	79.11
397.125	54.7
397.339	60.51
397.553	42.88
397.766	78.14
397.98	59.54
398.194	51.02
398.408	38.23
398.621	65.16
398.835	74.08
399.049	62.84
399.262	99.07
399.476	65.74
399.69	98.29
399.903	109.14
400.117	14.98
400.331	30.1
400.544	24.86
400.758	145.96
400.971	51.8
401.185	68.65
401.398	7.43
401.612	82.99
401.826	92.68
402.039	80.28
402.253	29.9
402.466	56.25
402.68	47.34
402.893	69.23
403.106	72.33
403.32	48.89
403.533	83.38
403.747	63.23
403.96	61.29
404.174	93.45
404.387	21.76
404.6	59.93
404.814	58.77
405.027	53.73
405.24	43.46
405.454	43.66
405.667	95.19
405.88	2.2
406.094	80.28
406.307	82.99
406.52	52.96
406.733	36.3
406.947	-19.5
407.16	135.88
407.373	111.86
407.586	47.73
407.799	34.55
408.012	95.97
408.226	79.11
408.439	93.06
408.652	9.56
408.865	86.67
409.078	109.14
409.291	82.6
409.504	52.76
409.717	89.19
409.93	32.61
410.143	56.45
410.357	22.73
410.57	31.45
410.783	47.73
410.996	71.36
411.209	63.03
411.421	81.05
411.634	63.61
411.847	59.54
412.06	51.8
412.273	40.36
412.486	62.45
412.699	134.72
412.912	74.27
413.125	101.39
413.338	88.99
413.55	85.7
413.763	66.33
413.976	97.71
414.189	38.81
414.402	56.64
414.615	102.56
414.827	69.81
415.04	98.1
415.253	99.07
415.466	82.99
415.678	129.49
415.891	71.36
416.104	85.51
416.316	59.16
416.529	83.57
416.742	80.28
416.954	104.11
417.167	100.04
417.38	61.48
417.592	122.9
417.805	57.8
418.017	29.71
418.23	103.14
418.442	80.66
418.655	51.6
418.868	87.83
419.08	105.27
419.293	114.76
419.505	74.27
419.718	69.23
419.93	134.72
420.142	78.92
420.355	110.69
420.567	105.85
420.78	98.1
420.992	69.43
421.205	161.26
421.417	66.33
421.629	86.67
421.842	67.88
422.054	37.65
422.266	84.54
422.479	95.19
422.691	82.41
422.903	107.59
423.115	73.49
423.328	95.78
423.54	89.96
423.752	98.88
423.964	56.45
424.177	101.39
424.389	90.16
424.601	184.51
424.813	114.96
425.025	131.23
425.238	109.73
425.45	96.94
425.662	73.69
425.874	355.59
426.086	87.44
426.298	121.74
426.51	111.47
426.722	109.14
426.934	73.69
427.146	105.85
427.358	53.93
427.57	142.28
427.782	98.29
427.994	91.9
428.206	83.76
428.418	72.14
428.63	132.98
428.842	132.2
429.054	112.83
429.266	127.16
429.478	78.53
429.69	94.03
429.902	46.76
430.114	100.43
430.325	107.4
430.537	58.96
430.749	95
430.961	54.51
431.173	73.11
431.384	109.53
431.596	47.92
431.808	72.53
432.02	137.24
432.231	108.76
432.443	138.01
432.655	97.13
432.867	93.64
433.078	130.26
433.29	149.44
433.502	153.32
433.713	132.01
433.925	104.49
434.136	142.28
434.348	84.93
434.56	58.96
434.771	201.95
434.983	61.29
435.194	66.33
435.406	83.96
435.617	158.94
435.829	176.37
436.04	122.51
436.252	160.29
436.463	151.96
436.675	156.61
436.886	129.68
437.098	133.17
437.309	173.66
437.521	125.81
437.732	164.17
437.943	140.92
438.155	126.97
438.366	85.7
438.578	155.26
438.789	144.21
439	186.06
439.211	94.23
439.423	124.26
439.634	147.89
439.845	152.16
440.057	133.75
440.268	160.68
440.479	94.42
440.69	134.91
440.902	103.53
441.113	140.14
441.324	124.64
441.535	116.12
441.746	158.94
441.957	103.33
442.168	115.34
442.38	151.77
442.591	162.42
442.802	121.16
443.013	107.4
443.224	163.39
443.435	122.13
443.646	139.76
443.857	129.49
444.068	115.93
444.279	150.02
444.49	221.32
444.701	147.31
444.912	256
445.123	214.16
445.334	167.66
445.545	143.83
445.756	133.56
445.967	142.28
446.178	180.25
446.388	174.44
446.599	184.71
446.81	179.28
447.021	148.09
447.232	187.22
447.443	208.73
447.653	138.4
447.864	169.01
448.075	168.62
448.286	194.2
448.496	182.96
448.707	205.63
448.918	158.55
449.129	259.88
449.339	138.98
449.55	182.57
449.761	157.77
449.971	228.3
450.182	152.35
450.393	193.62
450.603	164.36
450.814	194.01
451.024	202.72
451.235	202.34
451.446	225.97
451.656	231.21
451.867	163.97
452.077	175.79
452.288	273.44
452.498	234.69
452.709	200.01
452.919	205.24
453.13	181.99
453.34	229.07
453.55	156.42
453.761	207.37
453.971	223.07
454.182	204.86
454.392	197.3
454.602	246.9
454.813	192.84
455.023	210.09
455.233	146.34
455.444	211.25
455.654	163.2
455.864	180.83
456.075	190.32
456.285	175.99
456.495	187.42
456.705	217.45
456.916	236.24
457.126	253.1
457.336	201.95
457.546	156.03
457.756	210.67
457.967	238.95
458.177	203.69
458.387	220.94
458.597	207.37
458.807	181.99
459.017	191.29
459.227	202.34
459.437	220.74
459.647	259.88
459.857	225.2
460.068	178.31
460.278	258.33
460.488	217.64
460.698	263.75
460.908	197.11
461.117	177.73
461.327	171.92
461.537	252.32
461.747	226.36
461.957	191.68
462.167	302.12
462.377	237.21
462.587	200.01
462.797	217.64
463.007	205.82
463.216	222.49
463.426	260.27
463.636	237.99
463.846	184.32
464.056	193.23
464.265	242.83
464.475	214.54
464.685	219.77
464.895	246.7
465.104	219
465.314	244.19
465.524	215.71
465.733	213.38
465.943	298.63
466.153	304.64
466.362	246.51
466.572	254.84
466.782	233.72
466.991	256.78
467.201	250.77
467.41	195.17
467.62	249.8
467.829	212.61
468.039	250.19
468.249	225.39
468.458	230.24
468.668	226.56
468.877	264.34
469.086	285.45
469.296	276.74
469.505	238.95
469.715	313.94
469.924	265.3
470.134	288.17
470.343	275.57
470.552	249.22
470.762	272.47
470.971	213.19
471.18	252.52
471.39	229.27
471.599	255.81
471.808	299.6
472.018	228.3
472.227	269.95
472.436	316.26
472.645	259.88
472.855	230.82
473.064	303.86
473.273	303.67
473.482	296.11
473.691	311.22
473.901	325.17
474.11	298.05
474.319	350.75
474.528	287.2
474.737	336.22
474.946	284.68
475.155	291.46
475.364	322.85
475.573	308.7
475.783	301.92
475.992	309.67
476.201	342.03
476.41	293.01
476.619	291.46
476.828	310.84
477.037	268.79
477.245	322.46
477.454	352.88
477.663	309.87
477.872	282.74
478.081	372.45
478.29	299.02
478.499	396.47
478.708	332.73
478.917	363.73
479.125	349.39
479.334	333.31
479.543	319.36
479.752	336.6
479.961	367.41
480.169	383.49
480.378	344.74
480.587	453.24
480.796	367.6
481.004	346.29
481.213	404.03
481.422	346.87
481.63	380.2
481.839	386.2
482.048	421.27
482.256	362.95
482.465	384.46
482.674	405
482.882	400.15
483.091	478.62
483.299	379.81
483.508	425.34
483.716	401.12
483.925	420.11
484.134	398.41
484.342	374.97
484.551	434.25
484.759	437.93
484.967	415.26
485.176	443.36
485.384	428.83
485.593	426.11
485.801	420.3
486.01	408.87
486.218	391.82
486.426	335.05
486.635	356.37
486.843	388.33
487.051	407.32
487.26	356.75
487.468	400.15
487.676	415.26
487.885	400.54
488.093	401.32
488.301	456.34
488.509	438.9
488.717	433.28
488.926	447.62
489.134	396.47
489.342	431.54
489.55	448.98
489.758	454.6
489.967	429.41
490.175	536.55
490.383	461.57
490.591	518.53
490.799	406.55
491.007	519.89
491.215	484.43
491.423	457.89
491.631	490.25
491.839	491.99
492.047	500.32
492.255	453.82
492.463	405.58
492.671	452.85
492.879	519.5
493.087	467.96
493.295	520.08
493.503	512.33
493.711	532.09
493.919	533.64
494.127	540.62
494.334	544.3
494.542	462.73
494.75	503.23
494.958	533.84
495.166	525.7
495.374	539.07
495.581	507.68
495.789	549.34
495.997	605.72
496.205	500.71
496.412	529.38
496.62	530.16
496.828	560.19
497.035	551.28
497.243	559.61
497.451	538.68
497.658	567.16
497.866	555.34
498.074	601.07
498.281	543.72
498.489	604.75
498.696	612.11
498.904	539.46
499.112	561.35
499.319	643.69
499.527	571.04
499.734	614.63
499.942	559.22
500.149	550.31
500.357	572.98
500.564	556.7
500.771	579.56
500.979	555.34
501.186	576.08
501.394	581.31
501.601	578.59
501.808	651.25
502.016	565.42
502.223	599.32
502.43	604.36
502.638	585.76
502.845	572.39
503.052	654.93
503.26	594.87
503.467	677.21
503.674	623.74
503.881	637.88
504.089	708.4
504.296	640.21
504.503	590.41
504.71	659.97
504.917	625.87
505.125	636.33
505.332	637.88
505.539	690.97
505.746	720.22
505.953	682.05
506.16	677.99
506.367	726.81
506.574	737.27
506.781	726.62
506.988	685.35
507.195	718.87
507.402	720.42
507.609	721.58
507.816	701.04
508.023	696.39
508.23	683.22
508.437	665.59
508.644	747.54
508.851	794.43
509.058	763.43
509.265	759.36
509.472	792.3
509.679	844.42
509.885	783
510.092	769.05
510.299	785.52
510.506	796.56
510.713	771.95
510.92	794.23
511.126	854.49
511.333	861.08
511.54	840.35
511.746	881.23
511.953	890.72
512.16	883.94
512.367	850.03
512.573	856.23
512.78	883.36
512.987	864.18
513.193	873.28
513.4	832.6
513.606	854.49
513.813	846.35
514.02	860.69
514.226	935.67
514.433	954.66
514.639	870.18
514.846	910.1
515.052	890.72
515.259	940.51
515.465	948.26
515.672	923.85
515.878	1018.98
516.085	935.67
516.291	1013.56
516.497	922.3
516.704	965.7
516.91	890.53
517.117	880.65
517.323	866.5
517.529	919.2
517.736	884.91
517.942	925.6
518.148	920.56
518.354	968.41
518.561	959.89
518.767	980.43
518.973	1006
519.179	1056.37
519.386	990.31
519.592	1010.84
519.798	1024.6
520.004	1111.4
520.21	1068
520.417	1112.17
520.623	1142.4
520.829	1147.44
521.035	1120.31
521.241	1147.44
521.447	1166.81
521.653	1253.22
521.859	1180.95
522.065	1215.83
522.271	1304.18
522.477	1264.46
522.683	1254
522.889	1251.67
523.095	1248.18
523.301	1227.65
523.507	1226.68
523.713	1254.58
523.919	1243.53
524.125	1323.75
524.331	1311.54
524.537	1376.06
524.742	1358.62
524.948	1372.76
525.154	1349.51
525.36	1446.78
525.566	1376.64
525.772	1440.58
525.977	1362.3
526.183	1388.26
526.389	1436.51
526.595	1394.27
526.8	1348.16
527.006	1296.62
527.212	1305.53
527.417	1265.23
527.623	1270.85
527.829	1340.21
528.034	1380.32
528.24	1388.84
528.446	1346.41
528.651	1465.18
528.857	1468.47
529.062	1512.26
529.268	1507.61
529.473	1485.91
529.679	1515.56
529.884	1584.92
530.09	1537.84
530.295	1572.32
530.501	1547.91
530.706	1547.52
530.912	1527.57
531.117	1583.75
531.323	1611.65
531.528	1621.15
531.733	1597.51
531.939	1588.6
532.144	1648.47
532.35	1596.54
532.555	1666.1
532.76	1605.45
532.966	1587.82
533.171	1557.21
533.376	1571.74
533.581	1553.34
533.787	1604.29
533.992	1626.19
534.197	1643.82
534.402	1625.22
534.607	1609.14
534.813	1712.79
535.018	1620.18
535.223	1656.41
535.428	1684.5
535.633	1732.16
535.838	1701.17
536.043	1694.19
536.249	1806.56
536.454	1712.79
536.659	1737.59
536.864	1719.76
537.069	1719.96
537.274	1750.96
537.479	1716.28
537.684	1725.38
537.889	1690.51
538.094	1793.97
538.299	1716.28
538.504	1755.8
538.708	1779.05
538.913	1801.33
539.118	1782.73
539.323	1756.38
539.528	1726.16
539.733	1725
539.938	1786.22
540.142	1759.1
540.347	1756.58
540.552	1730.81
540.757	1732.36
540.962	1699.42
541.166	1697.87
541.371	1647.88
541.576	1687.99
541.781	1645.37
541.985	1753.28
542.19	1746.7
542.395	1795.52
542.599	1822.45
542.804	1792.23
543.008	1816.25
543.213	1782.93
543.418	1746.5
543.622	1827.1
543.827	1725.96
544.031	1833.88
544.236	1852.09
544.44	1800.95
544.645	1908.28
544.849	1840.66
545.054	1836.21
545.258	1910.61
545.463	1898.01
545.667	1824.19
545.872	1833.49
546.076	1853.84
546.281	1865.46
546.485	1838.14
546.689	1897.62
546.894	1899.95
547.098	1856.55
547.302	1824.78
547.507	1866.24
547.711	1874.18
547.915	1902.86
548.119	1812.57
548.324	1837.76
548.528	1903.05
548.732	1891.04
548.936	1874.76
549.141	1893.94
549.345	1862.75
549.549	1881.93
549.753	1881.54
549.957	1986.94
550.161	1948.19
550.366	1924.94
550.57	1872.24
550.774	1899.17
550.978	1898.98
551.182	1936.57
551.386	1894.72
551.59	1916.22
551.794	1881.16
551.998	1900.14
552.202	1936.76
552.406	1874.76
552.61	1899.17
552.814	1946.64
553.018	1977.45
553.222	1902.66
553.426	1884.06
553.63	1962.34
553.833	1918.36
554.037	1832.91
554.241	1946.26
554.445	1922.81
554.649	1888.13
554.853	1893.94
555.056	1927.27
555.26	1954.97
555.464	1898.98
555.668	1929.59
555.871	1945.67
556.075	1974.74
556.279	1888.52
556.483	1845.89
556.686	1906.73
556.89	1898.01
557.094	1898.01
557.297	1857.71
557.501	1912.93
557.704	1813.73
557.908	1908.09
558.112	1824.97
558.315	1917
558.519	1825.74
558.722	1836.4
558.926	1816.64
559.129	1758.51
559.333	1770.72
559.536	1766.65
559.74	1720.93
559.943	1751.35
560.147	1749.8
560.35	1764.52
560.553	1788.74
560.757	1746.31
560.96	1830.2
561.164	1785.64
561.367	1850.74
561.57	1818.96
561.774	1761.61
561.977	1762.39
562.18	1770.53
562.384	1871.08
562.587	1754.83
562.79	1760.84
562.993	1722.09
563.197	1798.43
563.4	1801.33
563.603	1786.03
563.806	1846.48
564.009	1735.85
564.212	1762.2
564.416	1697.87
564.619	1730.23
564.822	1677.92
565.025	1736.81
565.228	1711.43
565.431	1703.1
565.634	1621.15
565.837	1653.5
566.04	1638.58
566.243	1669.2
566.446	1572.71
566.649	1699.81
566.852	1605.07
567.055	1622.89
567.258	1673.07
567.461	1687.6
567.664	1712.02
567.867	1589.57
568.07	1633.16
568.273	1607.97
568.475	1697.87
568.678	1583.37
568.881	1590.73
569.084	1561.28
569.287	1520.98
569.489	1517.49
569.692	1557.4
569.895	1580.07
570.098	1485.33
570.3	1496.57
570.503	1473.32
570.706	1446
570.909	1433.41
571.111	1411.51
571.314	1431.08
571.516	1433.02
571.719	1450.26
571.922	1435.15
572.124	1405.31
572.327	1489.21
572.529	1385.36
572.732	1414.81
572.935	1440.38
573.137	1502.77
573.34	1439.22
573.542	1457.43
573.745	1483.2
573.947	1459.56
574.15	1404.54
574.352	1401.24
574.554	1482.81
574.757	1363.08
574.959	1357.46
575.162	1345.45
575.364	1361.53
575.566	1420.23
575.769	1342.35
575.971	1382.06
576.173	1283.25
576.376	1347
576.578	1365.21
576.78	1373.34
576.982	1273.37
577.185	1310.96
577.387	1267.37
577.589	1316.58
577.791	1345.64
577.993	1353.39
578.196	1309.41
578.398	1314.06
578.6	1317.55
578.802	1222.22
579.004	1261.55
579.206	1285.96
579.408	1298.75
579.61	1241.21
579.812	1313.86
580.014	1260.78
580.216	1240.63
580.418	1329.75
580.62	1273.37
580.822	1240.24
581.024	1294.3
581.226	1320.26
581.428	1277.83
581.63	1366.18
581.832	1226.48
582.034	1331.5
582.236	1307.47
582.438	1288.29
582.64	1325.3
582.841	1345.06
583.043	1381.09
583.245	1329.36
583.447	1342.73
583.649	1306.31
583.85	1308.63
584.052	1340.02
584.254	1274.73
584.456	1328.2
584.657	1244.31
584.859	1291.39
585.061	1274.15
585.262	1259.62
585.464	1246.63
585.666	1263.88
585.867	1249.93
586.069	1282.67
586.27	1255.35
586.472	1259.42
586.674	1202.85
586.875	1243.53
587.077	1199.94
587.278	1228.23
587.48	1213.7
587.681	1347
587.883	1271.24
588.084	1167
588.285	1194.32
588.487	1192.97
588.688	1190.45
588.89	1140.85
589.091	1109.27
589.292	1107.33
589.494	1067.22
589.695	1050.17
589.896	1012.98
590.098	1005.61
590.299	1070.13
590.5	1051.14
590.702	1055.02
590.903	1105.2
591.104	1130.19
591.305	1121.09
591.507	1163.71
591.708	1115.27
591.909	1095.32
592.11	1154.02
592.311	1117.79
592.512	1120.31
592.714	1067.81
592.915	1073.62
593.116	1119.92
593.317	1079.43
593.518	1114.3
593.719	1147.44
593.92	1132.13
594.121	1153.64
594.322	1114.11
594.523	1098.42
594.724	1044.36
594.925	1108.69
595.126	1094.35
595.327	1109.07
595.528	1100.36
595.729	1093.19
595.929	1086.41
596.13	1105.97
596.331	1095.9
596.532	1087.57
596.733	1179.21
596.934	1114.5
597.135	1141.62
597.335	1144.92
597.536	1048.43
597.737	1139.49
597.938	1094.16
598.138	1125.15
598.339	1090.28
598.54	1098.61
598.74	1068.19
598.941	1091.83
599.142	1122.83
599.342	1137.17
599.543	1072.65
599.744	1097.64
599.944	1081.56
600.145	1105.01
600.345	1083.5
600.546	1169.91
600.746	1125.93
600.947	1154.6
601.147	1088.73
601.348	1145.69
601.548	1058.7
601.749	1086.21
601.949	1045.52
602.15	1070.32
602.35	1079.04
602.551	1125.93
602.751	1041.07
602.951	1067.22
603.152	976.36
603.352	1097.64
603.552	1097.06
603.753	1103.07
603.953	1097.84
604.153	1090.67
604.354	1086.6
604.554	1080.01
604.754	1100.16
604.954	1049.59
605.155	1130.19
605.355	1086.6
605.555	1128.84
605.755	1159.64
605.955	1111.01
606.155	1119.54
606.356	1066.45
606.556	1096.48
606.756	1055.99
606.956	1017.63
607.156	1119.92
607.356	1052.89
607.556	1091.06
607.756	1079.04
607.956	1083.69
608.156	1040.68
608.356	1023.44
608.556	1100.94
608.756	1050.95
608.956	1015.49
609.156	1054.05
609.356	1000.19
609.556	1011.43
609.755	1049.98
609.955	1030.02
610.155	1025.18
610.355	1048.43
610.555	999.22
610.755	1030.41
610.954	966.48
611.154	995.34
611.354	1062.77
611.554	985.46
611.753	982.56
611.953	970.74
612.153	1021.11
612.352	1014.91
612.552	941.48
612.752	945.16
612.951	956.4
613.151	987.4
613.351	967.64
613.55	964.73
613.75	974.03
613.949	970.35
614.149	949.81
614.348	963.57
614.548	923.46
614.747	908.55
614.947	938.58
615.146	869.21
615.346	943.23
615.545	962.79
615.745	974.23
615.944	956.98
616.144	951.17
616.343	947.1
616.542	915.91
616.742	897.11
616.941	936.25
617.14	867.47
617.34	890.72
617.539	886.26
617.738	883.36
617.938	963.38
618.137	890.91
618.336	882.97
618.535	918.43
618.734	899.63
618.934	894.21
619.133	911.45
619.332	934.7
619.531	857.01
619.73	885.49
619.929	929.66
620.128	886.46
620.328	937.8
620.527	853.13
620.726	870.18
620.925	913.97
621.124	868.83
621.323	929.86
621.522	875.22
621.721	819.23
621.92	825.62
622.119	919.01
622.318	831.63
622.517	870.96
622.715	844.22
622.914	802.76
623.113	848.29
623.312	801.21
623.511	882.2
623.71	830.47
623.909	817.48
624.107	889.17
624.306	806.25
624.505	824.46
624.704	799.66
624.902	844.03
625.101	832.21
625.3	836.67
625.499	828.53
625.697	814.38
625.896	789.58
626.095	858.56
626.293	781.45
626.492	796.17
626.69	824.07
626.889	779.9
627.088	845
627.286	770.02
627.485	784.74
627.683	749.29
627.882	784.93
628.08	745.02
628.279	766.72
628.477	827.17
628.676	730.1
628.874	814.38
629.073	755.87
629.271	747.93
629.469	788.03
629.668	737.85
629.866	758.2
630.065	733.01
630.263	768.08
630.461	718.09
630.66	780.28
630.858	780.67
631.056	797.72
631.254	790.36
631.453	744.64
631.651	808.77
631.849	775.44
632.047	796.95
632.245	783.58
632.444	772.73
632.642	769.05
632.84	814
633.038	745.6
633.236	740.37
633.434	738.82
633.632	736.5
633.83	737.27
634.028	776.99
634.227	783.97
634.425	825.23
634.623	788.42
634.821	759.94
635.019	776.8
635.216	728.17
635.414	814.58
635.612	783.38
635.81	757.42
636.008	827.37
636.206	763.82
636.404	793.85
636.602	759.36
636.8	750.45
636.997	805.47
637.195	766.53
637.393	754.71
637.591	828.72
637.789	790.75
637.986	753.35
638.184	787.65
638.382	826.2
638.58	789
638.777	814
638.975	752.19
639.173	776.02
639.37	771.76
639.568	758.78
639.765	758.58
639.963	719.06
640.161	785.52
640.358	802.37
640.556	720.8
640.753	712.47
640.951	714.22
641.148	732.82
641.346	704.72
641.543	724.68
641.741	710.54
641.938	681.47
642.136	730.49
642.333	679.73
642.531	774.47
642.728	749.87
642.925	713.64
643.123	684.96
643.32	697.36
643.517	676.63
643.715	711.31
643.912	698.52
644.109	689.61
644.306	700.85
644.504	634.97
644.701	670.62
644.898	687.48
645.095	634.39
645.293	661.52
645.49	688.06
645.687	661.32
645.884	689.22
646.081	608.82
646.278	626.84
646.475	602.42
646.672	640.21
646.87	651.25
647.067	633.81
647.264	649.51
647.461	607.85
647.658	568.91
647.855	625.87
648.052	586.15
648.249	516.79
648.446	568.52
648.642	576.85
648.839	551.28
649.036	557.86
649.233	553.79
649.43	529.38
649.627	523.96
649.824	541.39
650.021	577.43
650.217	554.18
650.414	531.32
650.611	579.56
650.808	538.88
651.004	587.7
651.201	555.15
651.398	612.89
651.595	579.95
651.791	548.56
651.988	589.83
652.185	533.84
652.381	571.04
652.578	503.03
652.775	541.98
652.971	555.15
653.168	562.13
653.364	558.44
653.561	522.02
653.757	529.77
653.954	549.14
654.15	540.81
654.347	598.94
654.543	553.99
654.74	512.53
654.936	504.19
655.133	557.67
655.329	537.13
655.525	515.63
655.722	549.34
655.918	509.43
656.115	528.8
656.311	461.18
656.507	443.16
656.704	424.18
656.9	485.01
657.096	453.24
657.292	450.14
657.489	499.16
657.685	514.27
657.881	465.06
658.077	477.85
658.273	490.05
658.47	547.59
658.666	503.81
658.862	527.06
659.058	484.24
659.254	540.23
659.45	472.03
659.646	518.53
659.842	494.12
660.038	549.14
660.234	455.37
660.43	503.61
660.626	558.44
660.822	544.69
661.018	520.66
661.214	516.59
661.41	464.09
661.606	515.24
661.802	537.91
661.998	487.53
662.194	460.41
662.39	497.41
662.586	514.66
662.781	521.05
662.977	509.43
663.173	473.58
663.369	492.96
663.564	501.68
663.76	512.14
663.956	468.16
664.152	504.39
664.347	432.31
664.543	469.13
664.739	461.96
664.934	414.88
665.13	400.35
665.326	469.13
665.521	469.13
665.717	442.78
665.912	428.05
666.108	396.28
666.304	428.25
666.499	434.06
666.695	380.2
666.89	430.76
667.086	456.92
667.281	458.28
667.477	507.49
667.672	456.53
667.867	457.5
668.063	424.76
668.258	417.2
668.454	429.99
668.649	492.38
668.844	442.97
669.04	455.37
669.235	408.68
669.43	431.35
669.626	401.51
669.821	400.15
670.016	405
670.211	405.19
670.407	397.44
670.602	426.31
670.797	425.53
670.992	438.71
671.187	414.3
671.382	473.78
671.578	423.98
671.773	441.23
671.968	390.85
672.163	412.94
672.358	427.86
672.553	404.61
672.748	398.6
672.943	484.82
673.138	410.03
673.333	450.33
673.528	400.93
673.723	439.29
673.918	410.23
674.113	374.97
674.308	479.2
674.503	428.63
674.698	431.15
674.892	417.2
675.087	441.81
675.282	455.37
675.477	386.59
675.672	418.17
675.867	389.69
676.061	358.5
676.256	375.35
676.451	394.92
676.646	375.16
676.84	389.88
677.035	366.44
677.23	339.7
677.424	431.15
677.619	425.15
677.814	451.5
678.008	454.6
678.203	365.47
678.397	374.19
678.592	412.55
678.787	442.97
678.981	394.73
679.176	421.85
679.37	394.34
679.565	374
679.759	393.57
679.954	428.05
680.148	436.77
680.342	468.55
680.537	422.05
680.731	408.87
680.926	432.31
681.12	461.96
681.314	402.67
681.509	403.45
681.703	422.43
681.897	413.52
682.092	420.11
682.286	401.51
682.48	456.34
682.674	442.58
682.869	423.21
683.063	382.72
683.257	481.14
683.451	415.65
683.645	422.82
683.839	435.61
684.034	423.01
684.228	457.11
684.422	385.82
684.616	402.67
684.81	437.93
685.004	440.06
685.198	413.13
685.392	436.96
685.586	415.65
685.78	428.63
685.974	453.63
686.168	426.5
686.362	515.63
686.556	410.23
686.75	391.05
686.944	390.47
687.138	445.88
687.331	330.79
687.525	349.97
687.719	313.94
687.913	343.77
688.107	357.33
688.301	338.54
688.494	379.03
688.688	341.45
688.882	354.62
689.076	343.38
689.269	400.93
689.463	463.31
689.657	385.23
689.85	407.52
690.044	420.69
690.238	396.67
690.431	417.59
690.625	407.71
690.818	448.2
691.012	478.62
691.205	482.3
691.399	445.1
691.593	497.22
691.786	573.94
691.98	520.47
692.173	569.68
692.366	567.94
692.56	580.53
692.753	617.15
692.947	536.94
693.14	620.06
693.333	624.51
693.527	571.23
693.72	589.83
693.914	577.24
694.107	612.5
694.3	633.04
694.493	615.02
694.687	668.3
694.88	624.71
695.073	712.09
695.266	712.67
695.46	681.28
695.653	731.85
695.846	734.95
696.039	673.53
696.232	740.18
696.425	783.77
696.618	801.4
696.812	780.67
697.005	856.04
697.198	934.51
697.391	838.41
697.584	892.66
697.777	957.56
697.97	922.5
698.163	947.68
698.356	950.98
698.549	1021.11
698.742	988.95
698.935	921.72
699.127	988.56
699.32	960.28
699.513	966.48
699.706	985.66
699.899	1010.46
700.092	1010.65
700.285	1028.67
700.477	993.6
700.67	1047.66
700.863	1067.42
701.056	1174.56
701.248	1138.91
701.441	1115.66
701.634	1117.02
701.826	1190.06
702.019	1132.32
702.212	1167
702.404	1126.32
702.597	1147.63
702.79	1171.07
702.982	1171.46
703.175	1251.67
703.367	1247.99
703.56	1272.02
703.752	1351.26
703.945	1307.47
704.137	1348.55
704.33	1318.9
704.522	1378.96
704.715	1399.69
704.907	1408.99
705.1	1434.76
705.292	1446.78
705.484	1426.04
705.677	1468.28
705.869	1466.34
706.061	1508
706.254	1530.47
706.446	1526.21
706.638	1486.88
706.831	1593.05
707.023	1556.63
707.215	1646.53
707.407	1590.34
707.599	1624.44
707.792	1665.13
707.984	1650.21
708.176	1681.79
708.368	1638.78
708.56	1692.25
708.752	1705.82
708.944	1702.52
709.136	1724.8
709.329	1713.76
709.521	1827.49
709.713	1777.7
709.905	1806.95
710.097	1839.89
710.289	1801.53
710.481	1870.5
710.672	1834.08
710.864	1836.79
711.056	1903.05
711.248	1888.33
711.44	1898.59
711.632	1894.33
711.824	1937.73
712.016	1995.85
712.207	1967.76
712.399	1988.88
712.591	2010.97
712.783	2015.04
712.975	2002.05
713.166	2008.84
713.358	2002.83
713.55	2065.02
713.741	2071.61
713.933	2065.02
714.125	2100.67
714.316	2041.97
714.508	2125.47
714.7	2112.1
714.891	2094.67
715.083	2161.7
715.274	2106.68
715.466	2160.15
715.657	2159.57
715.849	2056.11
716.04	2147.17
716.232	2064.05
716.423	2109.97
716.615	1999.34
716.806	1972.61
716.998	1953.62
717.189	1846.67
717.381	1813.54
717.572	1763.94
717.763	1791.84
717.955	1766.85
718.146	1748.05
718.337	1683.15
718.528	1663.97
718.72	1560.31
718.911	1627.93
719.102	1592.86
719.293	1608.94
719.485	1585.89
719.676	1566.9
719.867	1539.58
720.058	1547.33
720.249	1556.63
720.44	1609.72
720.632	1652.53
720.823	1710.85
721.014	1815.28
721.205	1817.8
721.396	1913.71
721.587	2007.67
721.778	2014.26
721.969	2063.86
722.16	2129.35
722.351	2140.39
722.542	2256.83
722.733	2286.28
722.924	2190.18
723.115	2201.42
723.305	2195.22
723.496	2221.57
723.687	2096.41
723.878	2091.18
724.069	2074.13
724.26	2078.97
724.45	2021.62
724.641	2023.75
724.832	2059.21
725.023	2022.2
725.213	2006.12
725.404	2011.16
725.595	2022.79
725.785	1999.54
725.976	2053.98
726.167	2056.5
726.357	2060.18
726.548	2125.86
726.739	2070.25
726.929	2140.39
727.12	2141.75
727.31	2201.61
727.501	2153.18
727.691	2154.34
727.882	2160.15
728.072	2192.9
728.263	2197.93
728.453	2260.51
728.644	2266.13
728.834	2248.5
729.024	2208.98
729.215	2197.55
729.405	2219.63
729.596	2291.9
729.786	2296.36
729.976	2337.62
730.167	2332.78
730.357	2294.61
730.547	2313.02
730.737	2317.28
730.928	2373.86
731.118	2406.21
731.308	2337.62
731.498	2362.42
731.688	2451.16
731.879	2488.55
732.069	2493.79
732.259	2532.34
732.449	2584.65
732.639	2686.37
732.829	2661.57
733.019	2731.13
733.209	2792.54
733.399	2817.34
733.589	2865.97
733.779	2913.83
733.969	2838.27
734.159	2950.83
734.349	2986.87
734.539	3024.85
734.729	3019.03
734.919	3044.8
735.109	3064.37
735.299	3025.62
735.488	3028.33
735.678	3063.6
735.868	3037.44
736.058	3059.72
736.248	3025.43
736.437	2986.87
736.627	3005.67
736.817	3108.35
737.007	3081.81
737.196	3117.26
737.386	3134.7
737.576	3132.38
737.765	3153.3
737.955	3108.74
738.144	3242.42
738.334	3170.74
738.524	3139.93
738.713	3168.22
738.903	3186.63
739.092	3168.61
739.282	3209.49
739.471	3231.19
739.661	3187.98
739.85	3285.82
740.04	3268.58
740.229	3287.37
740.419	3295.7
740.608	3287.57
740.797	3281.76
740.987	3371.07
741.176	3364.1
741.365	3330.77
741.555	3276.91
741.744	3363.52
741.933	3319.54
742.123	3368.36
742.312	3366.81
742.501	3385.8
742.69	3437.92
742.88	3369.33
743.069	3459.81
743.258	3425.71
743.447	3482.48
743.636	3481.9
743.825	3463.3
744.014	3457.1
744.204	3508.05
744.393	3433.65
744.582	3519.29
744.771	3536.92
744.96	3482.86
745.149	3490.23
745.338	3501.08
745.527	3494.49
745.716	3481.12
745.905	3489.06
746.094	3560.94
746.283	3502.05
746.471	3498.75
746.66	3569.08
746.849	3590.2
747.038	3613.06
747.227	3512.9
747.416	3564.63
747.604	3480.73
747.793	3492.75
747.982	3555.91
748.171	3584
748.359	3576.25
748.548	3563.08
748.737	3561.53
748.926	3513.86
749.114	3475.7
749.303	3528.4
749.491	3490.23
749.68	3407.11
749.869	3537.11
750.057	3493.91
750.246	3439.85
750.434	3503.6
750.623	3474.15
750.811	3476.47
751	3506.11
751.188	3469.5
751.377	3542.35
751.565	3496.62
751.754	3440.24
751.942	3450.51
752.131	3442.95
752.319	3428.62
752.507	3451.87
752.696	3461.94
752.884	3495.85
753.072	3405.95
753.261	3468.14
753.449	3460.39
753.637	3428.42
753.825	3502.43
754.014	3441.79
754.202	3446.44
754.39	3496.43
754.578	3467.75
754.766	3421.45
754.955	3393.35
755.143	3503.01
755.331	3450.12
755.519	3424.55
755.707	3400.72
755.895	3391.03
756.083	3404.4
756.271	3334.45
756.459	3378.82
756.647	3393.35
756.835	3340.46
757.023	3376.69
757.211	3366.23
757.399	3335.81
757.587	3373.2
757.775	3332.32
757.963	3320.5
758.151	3348.21
758.339	3308.49
758.526	3252.69
758.714	3280.79
758.902	3184.11
759.09	3114.16
759.278	2894.84
759.465	2675.52
759.653	2296.74
759.841	2129.93
760.028	1811.6
760.216	1559.92
760.404	1456.46
760.591	1214.47
760.779	1011.81
760.967	885.1
761.154	731.27
761.342	714.41
761.529	678.37
761.717	773.7
761.905	747.54
762.092	823.88
762.28	728.55
762.467	778.15
762.655	674.89
762.842	708.99
763.029	715.19
763.217	709.57
763.404	721
763.592	741.73
763.779	678.95
763.966	752.77
764.154	780.09
764.341	824.65
764.528	853.91
764.716	917.07
764.903	965.31
765.09	1033.51
765.277	1056.18
765.465	1216.8
765.652	1290.42
765.839	1364.05
766.026	1495.02
766.213	1531.83
766.4	1614.37
766.588	1834.66
766.775	1842.21
766.962	1929.4
767.149	2012.71
767.336	2193.28
767.523	2156.66
767.71	2284.73
767.897	2374.82
768.084	2436.05
768.271	2526.72
768.458	2548.03
768.645	2677.85
768.832	2614.88
769.019	2656.15
769.206	2726.09
769.392	2772.78
769.579	2879.34
769.766	2855.32
769.953	2852.02
770.14	2882.83
770.327	2906.47
770.513	2925.84
770.7	3033.37
770.887	2918.48
771.073	2978.54
771.26	2974.86
771.447	2929.33
771.634	2904.34
771.82	3017.68
772.007	2945.41
772.193	3016.13
772.38	3010.51
772.567	2941.73
772.753	2979.7
772.94	2989.97
773.126	3020.39
773.313	3012.83
773.499	3001.6
773.686	3020.39
773.872	2978.35
774.059	2977.18
774.245	2971.95
774.432	2935.92
774.618	2880.31
774.804	2950.83
774.991	2889.8
775.177	2963.43
775.363	2944.83
775.55	2939.02
775.736	2854.35
775.922	2872.56
776.109	2919.45
776.295	2900.85
776.481	2931.85
776.667	2939.99
776.853	2907.63
777.04	2899.1
777.226	2899.88
777.412	2958.58
777.598	2913.05
777.784	2893.68
777.97	2837.88
778.156	2880.89
778.342	2875.08
778.528	2861.32
778.715	2764.26
778.901	2817.15
779.087	2848.34
779.272	2798.94
779.458	2786.54
779.644	2828.58
779.83	2821.8
780.016	2840.01
780.202	2799.71
780.388	2781.31
780.574	2704.97
780.76	2765.81
780.946	2790.41
781.131	2777.24
781.317	2762.13
781.503	2717.95
781.689	2770.07
781.874	2873.53
782.06	2704
782.246	2734.42
782.432	2721.24
782.617	2748.95
782.803	2778.21
782.989	2673
783.174	2723.38
783.36	2663.7
783.545	2711.17
783.731	2730.54
783.916	2589.11
784.102	2714.27
784.288	2622.63
784.473	2666.8
784.659	2629.21
784.844	2673
785.029	2669.13
785.215	2610.61
785.4	2602.48
785.586	2673.2
785.771	2597.44
785.956	2633.86
786.142	2609.65
786.327	2618.56
786.512	2562.76
786.698	2605.77
786.883	2498.44
787.068	2542.42
787.254	2559.66
787.439	2578.45
787.624	2540.09
787.809	2496.3
787.994	2472.28
788.18	2584.46
788.365	2473.44
788.55	2467.24
788.735	2492.43
788.92	2456.2
789.105	2444.19
789.29	2496.11
789.475	2394.59
789.66	2451.35
789.845	2398.85
790.03	2398.85
790.215	2412.8
790.4	2412.22
790.585	2418.8
790.77	2378.7
790.955	2332.59
791.14	2386.64
791.325	2439.15
791.51	2296.74
791.695	2368.24
791.879	2371.14
792.064	2291.13
792.249	2413.77
792.434	2360.1
792.618	2377.92
792.803	2370.76
792.988	2358.36
793.173	2387.42
793.357	2415.32
793.542	2328.71
793.727	2364.56
793.911	2417.45
794.096	2376.76
794.281	2447.48
794.465	2438.18
794.65	2407.96
794.834	2446.51
795.019	2457.94
795.203	2475.19
795.388	2467.44
795.572	2471.89
795.757	2427.72
795.941	2413.38
796.126	2414.54
796.31	2337.04
796.494	2345.57
796.679	2380.64
796.863	2389.94
797.048	2442.83
797.232	2388.97
797.416	2417.06
797.601	2400.59
797.785	2468.99
797.969	2462.98
798.153	2351.96
798.338	2443.02
798.522	2438.95
798.706	2461.04
798.89	2448.64
799.074	2553.46
799.258	2464.92
799.443	2456.59
799.627	2434.5
799.811	2452.9
799.995	2437.02
800.179	2396.14
800.363	2405.82
800.547	2439.54
800.731	2458.33
800.915	2384.71
801.099	2375.21
801.283	2400.98
801.467	2403.11
801.651	2392.26
801.835	2440.5
802.019	2432.37
802.202	2426.17
802.386	2318.64
802.57	2355.06
802.754	2368.82
802.938	2338.59
803.121	2374.24
803.305	2413.96
803.489	2390.13
803.673	2405.82
803.856	2389.94
804.04	2388.58
804.224	2389.16
804.407	2366.49
804.591	2416.09
804.775	2369.59
804.958	2381.22
805.142	2501.15
805.326	2431.01
805.509	2385.09
805.693	2458.52
805.876	2465.11
806.06	2442.44
806.243	2443.99
806.427	2489.72
806.61	2486.62
806.794	2438.37
806.977	2463.37
807.16	2427.33
807.344	2414.93
807.527	2393.42
807.71	2412.61
807.894	2438.76
808.077	2449.61
808.26	2401.17
808.444	2358.36
808.627	2452.32
808.81	2365.72
808.993	2321.74
809.177	2291.32
809.36	2335.49
809.543	2363.97
809.726	2280.28
809.909	2282.21
810.092	2281.05
810.276	2248.69
810.459	2274.66
810.642	2231.45
810.825	2216.15
811.008	2248.5
811.191	2133.42
811.374	2169.65
811.557	2176.62
811.74	2239.2
811.923	2109.2
812.106	2074.13
812.289	2067.74
812.472	2084.4
812.654	2055.92
812.837	2042.16
813.02	1991.79
813.203	1930.17
813.386	1860.23
813.569	1873.02
813.751	1831.36
813.934	1859.65
814.117	1794.75
814.3	1761.61
814.482	1743.79
814.665	1705.62
814.848	1671.91
815.03	1615.14
815.213	1644.01
815.396	1591.7
815.578	1580.27
815.761	1569.22
815.943	1623.09
816.126	1516.33
816.309	1474.09
816.491	1417.71
816.674	1365.4
816.856	1412.68
817.039	1418.1
817.221	1500.06
817.403	1457.43
817.586	1446.97
817.768	1471.19
817.951	1408.99
818.133	1391.75
818.315	1392.53
818.498	1427.01
818.68	1531.25
818.862	1528.73
819.045	1500.25
819.227	1505.29
819.409	1443.29
819.591	1487.07
819.774	1481.26
819.956	1454.53
820.138	1532.41
820.32	1496.96
820.502	1569.22
820.684	1619.79
820.866	1610.88
821.048	1687.8
821.231	1698.07
821.413	1672.1
821.595	1639.17
821.777	1700.39
821.959	1700.58
822.141	1738.36
822.323	1615.34
822.505	1582.59
822.686	1468.86
822.868	1441.93
823.05	1318.51
823.232	1273.57
823.414	1250.12
823.596	1303.79
823.778	1261.94
823.96	1340.21
824.141	1330.91
824.323	1356.3
824.505	1411.51
824.687	1448.52
824.868	1527.37
825.05	1620.37
825.232	1670.36
825.413	1698.26
825.595	1660.87
825.777	1587.82
825.958	1641.1
826.14	1626.96
826.321	1634.9
826.503	1633.35
826.685	1642.27
826.866	1674.43
827.048	1661.64
827.229	1637.42
827.411	1594.02
827.592	1501.8
827.773	1550.62
827.955	1457.43
828.136	1475.06
828.318	1421.01
828.499	1505.67
828.68	1419.84
828.862	1455.88
829.043	1459.56
829.224	1440.38
829.406	1437.48
829.587	1439.61
829.768	1428.95
829.949	1460.53
830.131	1462.47
830.312	1517.49
830.493	1466.54
830.674	1479.13
830.855	1446.78
831.036	1465.76
831.218	1510.52
831.399	1560.89
831.58	1461.69
831.761	1461.5
831.942	1470.22
832.123	1455.69
832.304	1414.81
832.485	1453.17
832.666	1467.51
832.847	1498.31
833.028	1485.91
833.209	1477.39
833.389	1444.26
833.57	1419.07
833.751	1432.63
833.932	1505.09
834.113	1452.98
834.294	1484.17
834.475	1508.19
834.655	1502.96
834.836	1525.63
835.017	1535.51
835.198	1467.7
835.378	1536.87
835.559	1528.73
835.74	1498.12
835.92	1502.19
836.101	1484.56
836.281	1525.24
836.462	1526.21
836.643	1529.12
836.823	1556.24
837.004	1554.69
837.184	1609.33
837.365	1553.92
837.545	1572.9
837.726	1544.62
837.906	1573.87
838.087	1574.07
838.267	1559.54
838.448	1501.02
838.628	1536.67
838.808	1531.64
838.989	1580.65
839.169	1505.29
839.349	1566.51
839.53	1600.03
839.71	1610.49
839.89	1517.11
840.07	1581.62
840.251	1557.99
840.431	1615.34
840.611	1547.14
840.791	1504.51
840.971	1551.59
841.151	1549.46
841.332	1519.24
841.512	1566.9
841.692	1470.8
841.872	1582.98
842.052	1539
842.232	1579.1
842.412	1483.2
842.592	1524.08
842.772	1556.82
842.952	1577.94
843.132	1529.7
843.312	1508.77
843.492	1497.92
843.672	1556.24
843.851	1461.69
844.031	1507.42
844.211	1519.43
844.391	1500.06
844.571	1506.06
844.751	1569.22
844.93	1536.09
845.11	1498.7
845.29	1514.59
845.47	1535.32
845.649	1509.16
845.829	1513.23
846.009	1484.75
846.188	1520.21
846.368	1491.92
846.547	1496.96
846.727	1561.67
846.907	1453.94
847.086	1512.46
847.266	1523.11
847.445	1497.73
847.625	1509.74
847.804	1459.37
847.984	1503.16
848.163	1467.31
848.343	1467.31
848.522	1493.08
848.701	1491.53
848.881	1439.8
849.06	1449.49
849.239	1490.17
849.419	1459.95
849.598	1389.43
849.777	1382.26
849.957	1415.97
850.136	1337.7
850.315	1309.6
850.494	1303.98
850.674	1341.38
850.853	1417.71
851.032	1344.86
851.211	1405.12
851.39	1384.78
851.569	1312.7
851.748	1334.98
851.927	1373.93
852.107	1356.68
852.286	1324.52
852.465	1317.35
852.644	1397.76
852.823	1392.53
853.002	1384.97
853.181	1352.03
853.359	1390.98
853.538	1291.78
853.717	1374.89
853.896	1261.75
854.075	1214.47
854.254	1228.81
854.433	1153.05
854.611	1192
854.79	1110.82
854.969	1158.29
855.148	1186.57
855.327	1172.82
855.505	1219.7
855.684	1206.92
855.863	1235.2
856.041	1212.53
856.22	1268.14
856.399	1202.65
856.577	1316.96
856.756	1297.4
856.934	1412.09
857.113	1381.68
857.291	1300.69
857.47	1281.51
857.648	1305.73
857.827	1301.66
858.005	1329.17
858.184	1247.22
858.362	1368.31
858.541	1287.51
858.719	1262.52
858.898	1301.66
859.076	1273.57
859.254	1306.11
859.433	1270.66
859.611	1265.62
859.789	1241.02
859.967	1348.55
860.146	1325.49
860.324	1252.64
860.502	1241.6
860.68	1216.41
860.859	1246.63
861.037	1231.33
861.215	1246.63
861.393	1260.78
861.571	1278.6
861.749	1210.6
861.927	1278.6
862.105	1242.57
862.283	1251.87
862.461	1207.11
862.639	1213.7
862.817	1179.02
862.995	1234.43
863.173	1195.48
863.351	1229
863.529	1241.6
863.707	1253.8
863.885	1224.35
864.063	1141.62
864.241	1197.62
864.418	1254.97
864.596	1205.95
864.774	1168.75
864.952	1196.65
865.129	1198
865.307	1158.29
865.485	1137.17
865.663	1170.88
865.84	1117.79
866.018	1133.68
866.196	1043.2
866.373	1045.91
866.551	1002.51
866.728	969.77
866.906	1011.81
867.084	1048.43
867.261	1075.94
867.439	1101.32
867.616	1101.32
867.794	1087.18
867.971	1074.39
868.149	1095.32
868.326	1125.54
868.503	1110.82
868.681	1116.05
868.858	1089.7
869.035	1066.45
869.213	1140.65
869.39	1069.94
869.567	1150.34
869.745	1086.99
869.922	1106.17
870.099	1118.76
870.276	1146.27
870.454	1136.2
870.631	1114.89
870.808	1106.56
870.985	1135.04
871.162	1147.24
871.339	1095.71
871.517	1078.07
871.694	1070.52
871.871	1076.52
872.048	1074.2
872.225	1067.03
872.402	1115.47
872.579	1045.52
872.756	1122.64
872.933	1048.62
873.11	1081.56
873.287	1094.54
873.463	1047.85
873.64	1049.01
873.817	1070.71
873.994	1065.29
874.171	1020.92
874.348	1059.09
874.524	1010.46
874.701	1042.81
874.878	1012.01
875.055	1058.7
875.231	1019.76
875.408	1051.14
875.585	989.14
875.762	999.03
875.938	1011.23
876.115	986.43
876.291	1009.1
876.468	1006.97
876.645	960.28
876.821	1023.82
876.998	976.36
877.174	1023.44
877.351	1003.09
877.527	986.82
877.704	1008.33
877.88	997.28
878.057	981.98
878.233	1034.09
878.409	985.85
878.586	990.89
878.762	942.45
878.938	1004.84
879.115	910.29
879.291	985.66
879.467	937.8
879.644	939.74
879.82	983.33
879.996	963.57
880.172	914.36
880.349	939.93
880.525	996.7
880.701	901.57
880.877	889.95
881.053	932.57
881.229	923.85
881.405	977.13
881.581	910.1
881.757	943.42
881.933	942.45
882.109	947.88
882.285	923.08
882.461	885.3
882.637	938.19
882.813	902.35
882.989	939.93
883.165	967.64
883.341	912.03
883.517	929.08
883.693	959.31
883.869	971.13
884.044	888.98
884.22	918.62
884.396	951.75
884.572	950.39
884.747	952.33
884.923	938.19
885.099	938.19
885.275	951.56
885.45	922.5
885.626	930.05
885.801	880.84
885.977	907.96
886.153	852.55
886.328	905.25
886.504	903.51
886.679	916.49
886.855	896.53
887.03	926.76
887.206	925.6
887.381	942.64
887.557	923.46
887.732	934.7
887.908	939.35
888.083	953.88
888.258	901.18
888.434	897.11
888.609	899.25
888.784	931.8
888.96	916.88
889.135	883.36
889.31	874.64
889.485	896.53
889.661	904.09
889.836	923.46
890.011	911.65
890.186	920.56
890.361	890.14
890.537	896.53
890.712	917.26
890.887	917.07
891.062	912.23
891.237	931.41
891.412	859.14
891.587	938.19
891.762	898.28
891.937	933.15
892.112	894.01
892.287	888.78
892.462	855.07
892.637	844.61
892.812	850.03
892.987	832.6
893.161	811.87
893.336	804.12
893.511	809.15
893.686	824.07
893.861	826.4
894.035	805.28
894.21	800.05
894.385	767.11
894.56	790.17
894.734	728.55
894.909	759.94
895.084	754.52
895.258	731.27
895.433	769.05
895.608	709.95
895.782	676.82
895.957	696.2
896.131	687.48
896.306	649.12
896.48	623.93
896.655	594.29
896.829	563.68
897.004	617.73
897.178	599.91
897.353	612.69
897.527	623.54
897.701	613.86
897.876	536.16
898.05	646.6
898.224	626.06
898.399	667.14
898.573	589.44
898.747	478.62
898.921	515.63
899.096	463.7
899.27	487.15
899.444	476.1
899.618	503.42
899.792	549.73
899.967	531.51
900.141	562.32
900.315	518.92
900.489	509.23
900.663	505.36
900.837	511.36
901.011	448.4
901.185	539.46
901.359	489.66
901.533	524.54
901.707	519.69
901.881	539.46
902.055	452.27
902.229	481.53
902.403	542.56
902.576	532.09
902.75	508.26
902.924	591.77
903.098	562.13
903.272	611.34
903.446	647.96
903.619	608.82
903.793	665.59
903.967	626.45
904.14	699.88
904.314	668.11
904.488	654.35
904.661	651.44
904.835	640.4
905.009	711.31
905.182	743.47
905.356	690.58
905.529	668.3
905.703	628.97
905.876	642.14
906.05	624.32
906.223	578.01
906.397	541.59
906.57	543.91
906.744	505.55
906.917	509.23
907.09	498.19
907.264	489.66
907.437	480.56
907.61	457.11
907.784	474.75
907.957	491.6
908.13	449.17
908.304	491.6
908.477	443.16
908.65	439.1
908.823	435.8
908.996	501.87
909.17	446.46
909.343	487.73
909.516	451.11
909.689	446.26
909.862	425.53
910.035	448.78
910.208	403.45
910.381	418.17
910.554	497.8
910.727	428.63
910.9	421.46
911.073	426.5
911.246	514.08
911.419	504
911.592	487.15
911.765	420.88
911.938	423.98
912.11	459.25
912.283	460.21
912.456	492.76
912.629	462.15
912.802	449.17
912.974	384.65
913.147	367.99
913.32	319.55
913.493	365.86
913.665	370.51
913.838	371.09
914.01	356.56
914.183	396.28
914.356	363.15
914.528	425.73
914.701	467.38
914.873	426.5
915.046	380.58
915.218	364.89
915.391	291.46
915.563	327.88
915.736	347.65
915.908	389.3
916.081	342.22
916.253	355.01
916.425	408.1
916.598	402.67
916.77	402.48
916.942	370.7
917.115	301.92
917.287	370.9
917.459	355.01
917.632	301.34
917.804	277.32
917.976	334.08
918.148	383.3
918.32	335.25
918.493	394.92
918.665	407.71
918.837	386.4
919.009	450.33
919.181	442.58
919.353	406.74
919.525	401.12
919.697	395.7
919.869	425.34
920.041	462.93
920.213	484.05
920.385	465.64
920.557	408.1
920.729	437.93
920.901	433.86
921.073	409.65
921.244	402.28
921.416	461.96
921.588	426.31
921.76	401.32
921.932	468.55
922.103	415.07
922.275	421.08
922.447	406.74
922.619	366.83
922.79	416.04
922.962	398.99
923.134	435.22
923.305	356.75
923.477	338.54
923.648	370.32
923.82	351.52
923.991	337.38
924.163	285.07
924.335	357.72
924.506	334.67
924.677	380.78
924.849	348.62
925.02	355.98
925.192	384.85
925.363	361.4
925.535	364.7
925.706	358.3
925.877	373.8
926.049	356.37
926.22	360.43
926.391	357.33
926.562	381.17
926.734	331.57
926.905	360.05
927.076	290.1
927.247	330.4
927.419	295.34
927.59	260.07
927.761	294.75
927.932	271.89
928.103	278.09
928.274	230.82
928.445	211.83
928.616	250
928.787	238.95
928.958	269.76
929.129	244.77
929.3	231.01
929.471	181.8
929.642	149.06
929.813	134.53
929.984	234.5
930.155	144.6
930.326	171.14
930.496	158.55
930.667	131.62
930.838	154.48
931.009	128.52
931.18	126.19
931.35	136.85
931.521	111.86
931.692	90.74
931.863	54.31
932.033	109.92
932.204	95.97
932.374	105.85
932.545	65.36
932.716	108.95
932.886	114.38
933.057	-2.65
933.227	55.28
933.398	141.31
933.568	25.45
933.739	22.73
933.909	39.2
934.08	86.48
934.25	-2.84
934.421	6.26
934.591	23.51
934.761	12.46
934.932	16.92
935.102	36.88
935.272	41.33
935.443	34.94
935.613	23.12
935.783	47.15
935.953	4.33
936.123	153.32
936.294	0.26
936.464	18.66
936.634	31.65
936.804	14.79
936.974	-16.99
937.144	41.53
937.314	20.99
937.484	52.18
937.655	7.04
937.825	80.28
937.995	3.36
938.165	69.62
938.334	33.78
938.504	25.64
938.674	21.38
938.844	44.63
939.014	104.3
939.184	83.38
939.354	114.76
939.524	116.12
939.694	57.22
939.863	31.65
940.033	160.29
940.203	121.54
940.373	79.31
940.542	108.95
940.712	59.93
940.882	116.7
941.051	120.38
941.221	91.9
941.391	126.19
941.56	72.72
941.73	29.32
941.899	136.08
942.069	53.35
942.238	85.31
942.408	74.46
942.577	115.34
942.747	62.26
942.916	28.55
943.086	41.72
943.255	110.89
943.425	60.51
943.594	47.34
943.763	13.05
943.933	26.61
944.102	20.02
944.271	45.4
944.441	49.86
944.61	22.54
944.779	43.08
944.948	124.84
945.117	31.84
945.287	31.65
945.456	-0.32
945.625	44.63
945.794	73.88
945.963	31.45
946.132	61.48
946.301	52.57
946.47	49.66
946.639	-5.36
946.808	27
946.977	52.38
947.146	113.99
947.315	41.91
947.484	49.66
947.653	42.3
947.822	51.21
947.991	20.99
948.16	109.92
948.329	93.84
948.498	51.8
948.666	67.88
948.835	66.13
949.004	20.99
949.173	17.31
949.341	81.24
949.51	79.31
949.679	107.21
949.847	84.54
950.016	127.36
950.185	104.49
950.353	64.39
950.522	61.87
950.69	85.12
950.859	14.21
951.028	90.74
951.196	61.48
951.365	56.45
951.533	52.18
951.701	80.08
951.87	65.94
952.038	30.48
952.207	56.25
952.375	118.25
952.543	58.96
952.712	44.24
952.88	19.83
953.048	111.08
953.217	72.14
953.385	40.95
953.553	78.73
953.721	14.98
953.89	44.05
954.058	37.07
954.226	-2.07
954.394	69.62
954.562	13.63
954.73	58.96
954.898	15.37
955.067	83.96
955.235	48.89
955.403	80.86
955.571	111.66
955.739	69.23
955.907	23.31
956.075	45.21
956.243	34.55
956.41	83.96
956.578	26.22
956.746	52.38
956.914	36.68
957.082	57.41
957.25	72.53
957.418	45.79
957.585	69.62
957.753	75.24
957.921	24.28
958.089	57.61
958.256	60.9
958.424	68.26
958.592	66.91
958.759	40.36
958.927	65.36
959.095	29.32
959.262	55.86
959.43	64
959.597	24.48
959.765	41.53
959.932	45.01
960.1	73.69
960.267	70.01
960.435	51.02
960.602	86.28
960.77	44.63
960.937	-11.37
961.104	72.14
961.272	12.85
961.439	39.78
961.606	70.2
961.774	87.44
961.941	25.06
962.108	71.36
962.275	64.58
962.443	109.14
962.61	72.91
962.777	142.08
962.944	98.29
963.111	88.8
963.278	100.81
963.446	89.77
963.613	70.39
963.78	85.12
963.947	78.34
964.114	67.49
964.281	133.75
964.448	88.41
964.615	44.43
964.782	60.51
964.949	85.12
965.116	91.71
965.282	94.03
965.449	68.65
965.616	57.22
965.783	109.14
965.95	82.79
966.117	42.5
966.283	57.22
966.45	75.43
966.617	104.49
966.784	82.79
966.95	105.85
967.117	106.04
967.284	83.76
967.45	51.6
967.617	88.41
967.784	122.13
967.95	162.42
968.117	74.27
968.283	122.13
968.45	163.39
968.616	89.58
968.783	125.81
968.949	103.91
969.116	141.5
969.282	92.48
969.449	116.89
969.615	74.85
969.781	50.25
969.948	78.14
970.114	71.94
970.28	132.39
970.447	81.24
970.613	130.26
970.779	84.73
970.945	108.18
971.112	122.32
971.278	96.94
971.444	85.12
971.61	127.36
971.776	88.41
971.942	104.11
972.108	126
972.275	89.19
972.441	87.64
972.607	150.8
972.773	75.43
972.939	133.94
973.105	78.34
973.271	51.8
973.437	81.24
973.602	81.24
973.768	105.85
973.934	81.24
974.1	130.46
974.266	14.79
974.432	96.36
974.598	71.75
974.763	101.2
974.929	83.38
975.095	146.92
975.261	78.14
975.426	55.67
975.592	70.39
975.758	129.49
975.923	40.95
976.089	35.33
976.255	128.13
976.42	88.8
976.586	116.7
976.751	101.39
976.917	151.77
977.082	78.14
977.248	56.64
977.413	33.78
977.579	68.07
977.744	93.26
977.91	52.96
978.075	48.31
978.24	81.83
978.406	83.57
978.571	58.96
978.736	68.84
978.902	87.25
979.067	54.31
979.232	24.48
979.397	69.04
979.563	145.57
979.728	60.51
979.893	79.11
980.058	51.99
980.223	110.31
980.388	91.32
980.554	89.96
980.719	77.18
980.884	69.43
981.049	105.46
981.214	73.49
981.379	96.55
981.544	54.7
981.709	80.47
981.874	52.76
982.039	61.48
982.204	93.45
982.368	70.2
982.533	50.05
982.698	105.66
982.863	107.4
983.028	61.09
983.193	94.23
983.357	85.89
983.522	111.08
983.687	67.88
983.852	53.54
984.016	62.06
984.181	102.56
984.346	109.73
984.51	122.9
984.675	78.14
984.839	96.55
985.004	101.78
985.168	111.08
985.333	111.86
985.498	75.04
985.662	82.6
985.827	93.45
985.991	61.48
986.155	69.43
986.32	130.26
986.484	139.37
986.649	111.66
986.813	42.3
986.977	77.18
987.142	88.22
987.306	44.05
987.47	68.65
987.634	79.11
987.799	88.8
987.963	95.97
988.127	103.33
988.291	136.27
988.455	87.44
988.62	75.63
988.784	105.27
988.948	112.05
989.112	69.62
989.276	89.58
989.44	65.94
989.604	40.95
989.768	65.36
989.932	137.43
990.096	50.25
990.26	54.9
990.424	30.1
990.588	41.14
990.752	141.5
990.915	82.6
991.079	49.86
991.243	59.74
991.407	108.95
991.571	66.71
991.734	88.8
991.898	67.49
992.062	150.61
992.226	83.76
992.389	66.13
992.553	33.39
992.717	33.39
992.88	81.44
993.044	68.84
993.207	66.52
993.371	96.94
993.535	103.14
993.698	70.78
993.862	89.77
994.025	82.02
994.189	73.3
994.352	78.73
994.515	60.51
994.679	91.9
994.842	64.58
995.006	87.83
995.169	41.53
995.332	33.97
995.496	108.76
995.659	24.09
995.822	51.02
995.985	62.84
996.149	84.54
996.312	58
996.475	111.28
996.638	28.35
996.801	115.54
996.964	142.86
997.128	68.65
997.291	89.38
997.454	64
997.617	23.7
997.78	65.94
997.943	39.59
998.106	79.5
998.269	64.97
998.432	66.33
998.595	76.4
998.758	9.17
998.92	38.23
999.083	0.26
999.246	68.46
999.409	8.78
999.572	-5.75
999.735	32.81
999.897	88.22
1000.06	36.3
1000.223	73.49
1000.386	85.31
1000.548	76.4
1000.711	73.88
1000.874	66.33
1001.036	49.66
1001.199	102.56
1001.361	27.58
1001.524	33.2
1001.687	83.57
1001.849	43.08
1002.012	60.71
1002.174	44.82
1002.337	73.88
1002.499	45.4
1002.661	85.7
1002.824	17.31
1002.986	35.52
1003.149	62.06
1003.311	39.4
1003.473	95.97
1003.636	23.31
1003.798	77.37
1003.96	77.95
1004.123	27.96
1004.285	35.13
1004.447	55.28
1004.609	30.1
1004.771	107.21
1004.933	10.72
1005.096	14.79
1005.258	12.27
1005.42	8.4
1005.582	64.58
1005.744	45.21
1005.906	13.24
1006.068	50.44
1006.23	11.3
1006.392	2.2
1006.554	-3.04
1006.716	60.32
1006.878	50.25
1007.04	28.93
1007.202	20.8
1007.363	40.95
1007.525	59.74
1007.687	48.7
1007.849	68.07
1008.011	6.65
1008.172	8.98
1008.334	41.33
1008.496	59.54
1008.658	-1.1
1008.819	7.23
1008.981	20.02
1009.143	12.46
1009.304	30.48
1009.466	76.4
1009.627	83.38
1009.789	103.91
1009.95	44.63
1010.112	23.51
1010.273	52.38
1010.435	21.57
1010.596	11.69
1010.758	8.78
1010.919	45.98
1011.081	-6.14
1011.242	23.12
1011.403	28.55
1011.565	25.83
1011.726	50.44
1011.887	6.46
1012.049	26.03
1012.21	61.87
1012.371	60.71
1012.532	-17.95
1012.693	28.16
1012.855	12.66
1013.016	-1.87
1013.177	87.06
1013.338	20.21
1013.499	110.69
1013.66	61.68
1013.821	73.11
1013.982	57.41
1014.143	42.69
1014.304	24.86
1014.465	57.61
1014.626	78.92
1014.787	31.65
1014.948	98.68
1015.109	-50.31
1015.27	63.23
1015.431	18.47
1015.592	-2.65
1015.752	66.71
1015.913	51.8
1016.074	30.29
1016.235	29.71
1016.395	30.87
1016.556	35.33
1016.717	28.55
1016.877	80.66
1017.038	-3.04
1017.199	38.04
1017.359	42.69
1017.52	43.08
1017.681	-7.1
1017.841	15.56
1018.002	14.4
1018.162	8.98
1018.323	84.93
1018.483	26.61
1018.644	33
1018.804	11.3
1018.964	3.75
1019.125	3.36
1019.285	27.77
1019.446	-21.44
1019.606	-13.3
1019.766	-23.96
1019.926	42.88
1020.087	34.75
1020.247	-38.88
1020.407	26.41
1020.567	24.67
1020.728	22.15
1020.888	-13.69
1021.048	-6.33
1021.208	7.81
1021.368	-15.63
1021.528	66.13
1021.688	37.65
1021.848	54.9
1022.008	44.24
1022.168	18.86
1022.328	25.06
1022.488	24.67
1022.648	-6.91
1022.808	14.79
1022.968	9.56
1023.128	-8.65
1023.288	-12.34
1023.448	19.25
1023.608	55.67
1023.767	33.78
1023.927	21.38
1024.087	0.65
1024.247	-9.62
1024.406	11.3
1024.566	-34.23
1024.726	-2.45
1024.885	4.13
1025.045	42.88
1025.205	23.9
1025.364	20.41
1025.524	45.4
1025.683	19.44
1025.843	-5.55
1026.003	4.71
1026.162	59.35
1026.321	46.56
1026.481	16.92
1026.64	-4.2
1026.8	25.45
1026.959	33.2
1027.119	22.35
1027.278	-5.94
1027.437	-1.49
1027.597	32.81
1027.756	51.02
1027.915	34.36
1028.074	44.05
1028.234	-6.52
1028.393	28.35
1028.552	-1.29
1028.711	-29.58
1028.87	48.7
1029.03	-3.81
1029.189	-6.52
1029.348	-23.38
1029.507	8.78
1029.666	-2.45
1029.825	-1.87
1029.984	8.2
1030.143	25.83
1030.302	15.18
1030.461	-42.75
1030.62	22.54
1030.779	35.13
1030.938	15.56
1031.097	-5.94
1031.255	45.98
1031.414	43.08
1031.573	54.12
1031.732	-51.86
1031.891	15.95
1032.049	31.65
1032.208	28.35
1032.367	-23.57
1032.525	5.88
1032.684	19.05
1032.843	7.62
1033.001	-14.66
1033.16	138.01
1033.319	37.65
1033.477	20.99
1033.636	-6.33
1033.794	-40.04
1033.953	48.11
1034.111	41.14
1034.27	-3.81
1034.428	25.64
1034.587	15.18
1034.745	6.46
1034.903	4.52
1035.062	30.87
1035.22	-25.51
1035.378	34.36
1035.537	-18.34
1035.695	27.77
1035.853	9.17
1036.011	51.99
1036.17	9.17
1036.328	-65.42
1036.486	26.61
1036.644	11.88
1036.802	-57.67
1036.96	-15.24
1037.119	-20.86
1037.277	-15.44
1037.435	-6.72
1037.593	-5.36
1037.751	27.96
1037.909	29.71
1038.067	29.71
