Data from gum_young_FLMT105791__140__17-41-08-040.txt Node

Date: Mon Mar 20 17:41:08 GMT 2023
User: antho
Spectrometer: FLMT10579
Trigger mode: 0
Integration Time (sec): 1.000000E-1
Scans to average: 10
Electric dark correction enabled: true
Nonlinearity correction enabled: false
Boxcar width: 0
XAxis mode: Wavelengths
Number of Pixels in Spectrum: 3648
>>>>>Begin Spectral Data<<<<<
345.248	-154.93
345.464	-154.93
345.681	-154.93
345.898	-164.04
346.114	-132.26
346.331	-61.16
346.548	17.89
346.764	-2.26
346.981	-0.52
347.197	21.38
347.414	17.89
347.631	-8.07
347.847	62.06
348.064	-19.12
348.28	38.23
348.497	-58.64
348.713	-7.69
348.93	2.2
349.146	15.18
349.363	1.42
349.579	21.38
349.796	20.6
350.012	-1.49
350.229	30.29
350.445	5.3
350.661	-27.45
350.878	-17.95
351.094	15.95
351.311	1.81
351.527	11.11
351.743	-9.43
351.96	47.73
352.176	42.3
352.392	32.81
352.609	17.89
352.825	-1.68
353.041	21.57
353.257	-8.27
353.474	29.71
353.69	5.49
353.906	9.95
354.122	-23.77
354.339	67.29
354.555	6.65
354.771	2.97
354.987	51.6
355.203	65.74
355.42	-2.65
355.636	0.65
355.852	-20.28
356.068	4.91
356.284	-37.52
356.5	48.31
356.716	16.53
356.932	6.85
357.148	20.6
357.364	13.24
357.58	52.96
357.796	72.91
358.012	37.85
358.228	22.15
358.444	-58.64
358.66	50.83
358.876	20.6
359.092	-14.08
359.308	18.08
359.524	23.31
359.74	0.65
359.956	10.33
360.172	9.95
360.388	62.26
360.604	-13.89
360.819	82.41
361.035	34.36
361.251	9.75
361.467	-7.3
361.683	35.91
361.898	22.35
362.114	36.3
362.33	31.45
362.546	22.54
362.762	0.65
362.977	9.56
363.193	-8.65
363.409	39.4
363.624	-2.26
363.84	10.14
364.056	5.68
364.271	17.11
364.487	31.84
364.703	4.33
364.918	-28.03
365.134	8.2
365.35	-1.68
365.565	107.79
365.781	49.28
365.996	35.71
366.212	73.49
366.427	30.29
366.643	11.88
366.858	7.23
367.074	4.13
367.289	68.07
367.505	111.28
367.72	-20.28
367.936	4.13
368.151	57.03
368.367	45.98
368.582	28.93
368.798	15.56
369.013	53.93
369.228	20.6
369.444	-0.52
369.659	63.03
369.874	52.76
370.09	64.58
370.305	-56.32
370.52	-6.52
370.736	52.57
370.951	27
371.166	72.14
371.381	86.28
371.597	73.69
371.812	-8.27
372.027	-4.59
372.242	7.23
372.458	98.49
372.673	-11.17
372.888	4.71
373.103	8.2
373.318	124.45
373.533	61.29
373.749	20.02
373.964	-25.7
374.179	67.29
374.394	-3.23
374.609	65.94
374.824	-6.14
375.039	61.68
375.254	-3.42
375.469	69.04
375.684	28.35
375.899	72.53
376.114	39.2
376.329	22.35
376.544	66.52
376.759	59.93
376.974	18.47
377.189	27
377.404	19.44
377.619	70.78
377.834	-15.05
378.049	16.34
378.264	-7.69
378.478	34.75
378.693	1.81
378.908	27.77
379.123	16.34
379.338	62.26
379.553	24.28
379.767	27
379.982	21.76
380.197	65.55
380.412	32.61
380.626	52.76
380.841	84.15
381.056	74.66
381.271	58.77
381.485	6.46
381.7	-29
381.915	40.75
382.129	28.93
382.344	38.43
382.559	15.37
382.773	62.84
382.988	-20.28
383.202	41.72
383.417	-0.13
383.632	89.38
383.846	16.15
384.061	50.05
384.275	-8.46
384.49	42.5
384.704	78.14
384.919	45.21
385.133	16.53
385.348	24.48
385.562	-4.2
385.777	68.07
385.991	45.6
386.206	8.78
386.42	13.43
386.634	78.14
386.849	50.05
387.063	55.86
387.277	13.05
387.492	17.7
387.706	25.45
387.92	0.06
388.135	91.71
388.349	50.05
388.563	25.64
388.778	52.96
388.992	61.09
389.206	57.03
389.42	95.19
389.635	48.31
389.849	65.94
390.063	73.88
390.277	63.03
390.491	108.95
390.706	66.13
390.92	73.11
391.134	58.96
391.348	86.09
391.562	-17.95
391.776	36.3
391.99	46.56
392.205	75.43
392.419	6.46
392.633	41.72
392.847	115.15
393.061	35.91
393.275	108.18
393.489	43.85
393.703	57.22
393.917	84.54
394.131	24.48
394.345	60.51
394.559	60.9
394.773	37.26
394.986	72.53
395.2	43.85
395.414	57.03
395.628	41.14
395.842	54.31
396.056	47.15
396.27	35.33
396.484	60.71
396.697	54.31
396.911	110.5
397.125	77.56
397.339	44.82
397.553	51.8
397.766	108.95
397.98	88.22
398.194	67.49
398.408	40.36
398.621	84.93
398.835	79.11
399.049	86.67
399.262	105.85
399.476	107.4
399.69	93.45
399.903	124.84
400.117	72.91
400.331	112.83
400.544	62.06
400.758	193.23
400.971	77.95
401.185	91.32
401.398	56.83
401.612	118.64
401.826	105.66
402.039	112.24
402.253	92.09
402.466	123.29
402.68	97.71
402.893	132.39
403.106	121.35
403.32	90.16
403.533	122.13
403.747	95.97
403.96	101.59
404.174	118.25
404.387	60.32
404.6	107.79
404.814	150.41
405.027	75.63
405.24	105.85
405.454	73.11
405.667	127.16
405.88	64.58
406.094	110.5
406.307	147.31
406.52	117.09
406.733	87.64
406.947	78.14
407.16	176.57
407.373	121.54
407.586	88.41
407.799	72.91
408.012	120.38
408.226	87.06
408.439	141.31
408.652	46.76
408.865	127.16
409.078	132.59
409.291	138.01
409.504	73.69
409.717	134.72
409.93	155.06
410.143	142.08
410.357	55.86
410.57	54.9
410.783	80.47
410.996	105.85
411.209	126.19
411.421	154.67
411.634	136.66
411.847	84.73
412.06	113.79
412.273	137.43
412.486	115.34
412.699	196.91
412.912	131.23
413.125	168.04
413.338	124.06
413.55	161.07
413.763	128.52
413.976	163.01
414.189	109.34
414.402	120.77
414.615	180.64
414.827	90.54
415.04	167.27
415.253	154.48
415.466	182.96
415.678	204.66
415.891	144.6
416.104	127.74
416.316	144.79
416.529	132.2
416.742	158.36
416.954	179.09
417.167	122.51
417.38	137.43
417.592	149.25
417.805	132.98
418.017	87.25
418.23	158.55
418.442	113.6
418.655	133.17
418.868	159.52
419.08	188.39
419.293	197.49
419.505	153.32
419.718	135.3
419.93	195.56
420.142	149.83
420.355	171.14
420.567	194.39
420.78	164.56
420.992	154.09
421.205	191.87
421.417	113.6
421.629	146.34
421.842	124.06
422.054	104.69
422.266	181.02
422.479	220.94
422.691	135.49
422.903	219.39
423.115	127.16
423.328	172.31
423.54	180.06
423.752	147.7
423.964	166.69
424.177	199.24
424.389	158.94
424.601	264.34
424.813	196.14
425.025	201.76
425.238	219.39
425.45	166.69
425.662	152.74
425.874	431.54
426.086	150.99
426.298	202.34
426.51	203.11
426.722	163.59
426.934	163.39
427.146	189.94
427.358	143.63
427.57	204.66
427.782	140.34
427.994	170.56
428.206	157.97
428.418	144.99
428.63	184.71
428.842	229.66
429.054	140.73
429.266	209.7
429.478	150.02
429.69	183.54
429.902	141.11
430.114	154.67
430.325	184.71
430.537	152.93
430.749	170.76
430.961	118.25
431.173	142.86
431.384	164.94
431.596	82.79
431.808	167.07
432.02	184.32
432.231	238.95
432.443	219.39
432.655	206.02
432.867	156.03
433.078	200.01
433.29	240.12
433.502	230.24
433.713	215.9
433.925	188.58
434.136	258.33
434.348	164.17
434.56	143.05
434.771	307.35
434.983	177.92
435.194	172.31
435.406	217.64
435.617	258.33
435.829	285.26
436.04	240.7
436.252	218.81
436.463	264.53
436.675	269.37
436.886	226.75
437.098	224.81
437.309	310.84
437.521	255.04
437.732	248.06
437.943	246.51
438.155	214.54
438.366	152.35
438.578	276.74
438.789	239.73
439	245.54
439.211	214.93
439.423	275.77
439.634	239.34
439.845	254.84
440.057	233.92
440.268	251.74
440.479	237.79
440.69	251.35
440.902	232.95
441.113	237.4
441.324	243.02
441.535	269.95
441.746	289.33
441.957	243.8
442.168	248.84
442.38	308.51
442.591	285.26
442.802	265.69
443.013	257.36
443.224	278.67
443.435	256.2
443.646	269.95
443.857	252.13
444.068	258.14
444.279	267.82
444.49	343
444.701	284.49
444.912	368.18
445.123	308.9
445.334	297.66
445.545	305.6
445.756	301.92
445.967	264.14
446.178	286.62
446.388	310.84
446.599	298.44
446.81	312.97
447.021	268.02
447.232	312
447.443	351.33
447.653	269.37
447.864	337.57
448.075	318.78
448.286	351.33
448.496	340.87
448.707	374.77
448.918	288.55
449.129	396.67
449.339	308.12
449.55	349.97
449.761	317.81
449.971	368.57
450.182	297.85
450.393	355.78
450.603	308.7
450.814	375.16
451.024	356.95
451.235	377.68
451.446	373.61
451.656	379.23
451.867	319.75
452.077	313.55
452.288	392.79
452.498	368.18
452.709	334.08
452.919	353.65
453.13	334.28
453.34	362.57
453.55	321.68
453.761	347.65
453.971	345.71
454.182	402.09
454.392	364.89
454.602	427.47
454.813	374.19
455.023	370.51
455.233	319.17
455.444	364.5
455.654	290.69
455.864	339.51
456.075	356.56
456.285	347.84
456.495	333.12
456.705	363.92
456.916	409.26
457.126	424.37
457.336	363.53
457.546	330.6
457.756	337.77
457.967	406.74
458.177	360.63
458.387	362.95
458.597	369.93
458.807	357.92
459.017	364.12
459.227	361.98
459.437	368.18
459.647	380.78
459.857	449.36
460.068	366.63
460.278	430.18
460.488	431.15
460.698	435.8
460.908	366.44
461.117	342.03
461.327	367.02
461.537	383.1
461.747	392.4
461.957	413.91
462.167	520.47
462.377	437.35
462.587	417.98
462.797	454.4
463.007	404.22
463.216	453.43
463.426	460.41
463.636	441.42
463.846	384.27
464.056	411.39
464.265	450.72
464.475	416.43
464.685	414.68
464.895	420.69
465.104	398.8
465.314	447.81
465.524	392.02
465.733	376.32
465.943	490.83
466.153	481.33
466.362	484.05
466.572	449.56
466.782	431.54
466.991	416.62
467.201	477.65
467.41	373.03
467.62	450.53
467.829	427.66
468.039	442.39
468.249	461.57
468.458	430.76
468.668	471.06
468.877	456.15
469.086	445.3
469.296	497.41
469.505	427.28
469.715	515.63
469.924	484.63
470.134	492.96
470.343	511.56
470.552	432.9
470.762	438.9
470.971	433.67
471.18	478.81
471.39	468.74
471.599	455.37
471.808	511.36
472.018	461.57
472.227	528.03
472.436	521.63
472.645	538.29
472.855	448.98
473.064	533.26
473.273	510.39
473.482	540.62
473.691	540.81
473.901	565.03
474.11	494.31
474.319	597.39
474.528	513.49
474.737	580.34
474.946	559.03
475.155	557.86
475.364	560.58
475.573	550.31
475.783	555.54
475.992	589.83
476.201	602.23
476.41	561.93
476.619	566.78
476.828	579.95
477.037	536.94
477.245	532.09
477.454	624.32
477.663	559.61
477.872	587.51
478.081	653.57
478.29	568.33
478.499	667.72
478.708	654.35
478.917	671.98
479.125	623.16
479.334	644.47
479.543	659.58
479.752	660.55
479.961	636.72
480.169	657.06
480.378	651.06
480.587	791.13
480.796	671.59
481.004	668.3
481.213	688.06
481.422	664.04
481.63	692.71
481.839	705.89
482.048	775.63
482.256	723.71
482.465	718.87
482.674	752
482.882	781.06
483.091	793.65
483.299	723.9
483.508	738.05
483.716	745.22
483.925	758.58
484.134	709.95
484.342	741.54
484.551	791.33
484.759	758.58
484.967	786.1
485.176	761.3
485.384	801.6
485.593	806.25
485.801	780.87
486.01	729.52
486.218	710.34
486.426	665.39
486.635	687.87
486.843	680.89
487.051	690.39
487.26	697.55
487.468	743.67
487.676	757.23
487.885	754.32
488.093	786.29
488.301	790.94
488.509	806.63
488.717	832.21
488.926	832.6
489.134	822.91
489.342	809.73
489.55	790.17
489.758	838.8
489.967	810.7
490.175	941.29
490.383	870.18
490.591	946.71
490.799	844.61
491.007	928.89
491.215	886.46
491.423	889.36
491.631	873.67
491.839	910.68
492.047	961.83
492.255	868.63
492.463	839.18
492.671	870.38
492.879	915.71
493.087	892.85
493.295	924.05
493.503	934.51
493.711	947.49
493.919	979.65
494.127	962.41
494.334	966.09
494.542	915.52
494.75	961.05
494.958	930.83
495.166	1017.63
495.374	969.77
495.581	963.96
495.789	984.11
495.997	1046.88
496.205	965.12
496.412	974.42
496.62	992.44
496.828	1001.74
497.035	1013.56
497.243	1061.8
497.451	1025.18
497.658	1000.38
497.866	1034.48
498.074	1080.98
498.281	1009.1
498.489	1084.08
498.696	1027.7
498.904	1034.67
499.112	1021.69
499.319	1107.33
499.527	1074.59
499.734	1085.63
499.942	1035.64
500.149	1044.56
500.357	1053.47
500.564	1015.3
500.771	1065.29
500.979	1002.9
501.186	1033.71
501.394	1036.42
501.601	1057.15
501.808	1056.37
502.016	1036.42
502.223	1035.84
502.43	1067.03
502.638	1074.97
502.845	1053.08
503.052	1169.14
503.26	1105.39
503.467	1196.26
503.674	1100.55
503.881	1146.47
504.089	1179.21
504.296	1169.52
504.503	1112.56
504.71	1115.47
504.917	1078.46
505.125	1165.84
505.332	1169.72
505.539	1156.93
505.746	1258.45
505.953	1213.12
506.16	1228.81
506.367	1248.77
506.574	1298.17
506.781	1262.91
506.988	1225.52
507.195	1292.55
507.402	1249.54
507.609	1267.37
507.816	1233.27
508.023	1277.83
508.23	1241.21
508.437	1248.96
508.644	1260.97
508.851	1324.91
509.058	1343.7
509.265	1287.9
509.472	1358.23
509.679	1440.96
509.885	1331.5
510.092	1363.08
510.299	1376.06
510.506	1359.4
510.713	1385.94
510.92	1375.67
511.126	1422.36
511.333	1481.07
511.54	1448.91
511.746	1507.61
511.953	1485.91
512.16	1543.46
512.367	1455.11
512.573	1494.63
512.78	1480.87
512.987	1484.36
513.193	1516.14
513.4	1412.09
513.606	1509.55
513.813	1539.39
514.02	1508.19
514.226	1579.49
514.433	1607.59
514.639	1504.9
514.846	1527.37
515.052	1555.47
515.259	1553.53
515.465	1597.7
515.672	1621.15
515.878	1685.86
516.085	1593.44
516.291	1662.03
516.497	1595.19
516.704	1600.8
516.91	1568.84
517.117	1528.92
517.323	1460.72
517.529	1519.24
517.736	1524.27
517.942	1539.77
518.148	1548.88
518.354	1596.93
518.561	1647.3
518.767	1610.69
518.973	1667.84
519.179	1721.51
519.386	1670.75
519.592	1680.82
519.798	1741.66
520.004	1828.46
520.21	1789.71
520.417	1877.28
520.623	1904.21
520.829	1929.98
521.035	1925.14
521.241	1935.6
521.447	1947.81
521.653	2051.07
521.859	1947.03
522.065	2034.02
522.271	2119.66
522.477	2068.9
522.683	2055.53
522.889	2034.6
523.095	2064.44
523.301	2017.17
523.507	2027.05
523.713	2102.42
523.919	2072.38
524.125	2147.75
524.331	2162.28
524.537	2269.23
524.742	2209.95
524.948	2233.97
525.154	2245.79
525.36	2349.83
525.566	2275.24
525.772	2342.08
525.977	2269.23
526.183	2281.24
526.389	2321.35
526.595	2224.86
526.8	2255.28
527.006	2131.48
527.212	2115.59
527.417	2109.39
527.623	2109.39
527.829	2225.06
528.034	2217.5
528.24	2235.52
528.446	2259.35
528.651	2393.42
528.857	2367.85
529.062	2437.4
529.268	2415.9
529.473	2464.14
529.679	2503.47
529.884	2564.5
530.09	2570.51
530.295	2500.37
530.501	2493.98
530.706	2515.87
530.912	2522.85
531.117	2537.96
531.323	2524.59
531.528	2584.65
531.733	2602.48
531.939	2598.8
532.144	2592.02
532.35	2590.27
532.555	2618.36
532.76	2575.93
532.966	2525.17
533.171	2462.98
533.376	2484.87
533.581	2441.09
533.787	2555.98
533.992	2572.45
534.197	2606.55
534.402	2613.13
534.607	2632.51
534.813	2699.35
535.018	2646.65
535.223	2685.79
535.428	2674.16
535.633	2778.59
535.838	2779.37
536.043	2768.91
536.249	2841.76
536.454	2767.74
536.659	2783.44
536.864	2765.81
537.069	2774.72
537.274	2716.98
537.479	2742.75
537.684	2740.04
537.889	2742.36
538.094	2832.65
538.299	2744.69
538.504	2842.72
538.708	2820.64
538.913	2858.8
539.118	2836.14
539.323	2842.14
539.528	2801.84
539.733	2779.37
539.938	2803.59
540.142	2813.86
540.347	2762.71
540.552	2787.12
540.757	2740.04
540.962	2777.24
541.166	2666.61
541.371	2732.68
541.576	2728.41
541.781	2692.57
541.985	2809.21
542.19	2763.48
542.395	2892.9
542.599	2937.27
542.804	2818.7
543.008	2871.01
543.213	2833.04
543.418	2772.01
543.622	2874.89
543.827	2826.26
544.031	2883.41
544.236	2883.6
544.44	2925.45
544.645	2963.23
544.849	2931.46
545.054	2965.75
545.258	3009.15
545.463	2999.47
545.667	2925.26
545.872	2927.97
546.076	2935.34
546.281	2958.2
546.485	2901.82
546.689	2947.93
546.894	2957.81
547.098	2949.87
547.302	2944.44
547.507	2946.77
547.711	2990.36
547.915	3000.24
548.119	2940.37
548.324	2890.58
548.528	2987.84
548.732	2933.2
548.936	2997.72
549.141	2993.07
549.345	2947.15
549.549	2965.95
549.753	3003.73
549.957	3087.81
550.161	3086.26
550.366	3010.7
550.57	2965.75
550.774	3038.02
550.978	3014.19
551.182	3025.82
551.386	2968.27
551.59	2977.57
551.794	2984.93
551.998	3035.11
552.202	3045.58
552.406	2981.45
552.61	3072.31
552.814	3036.28
553.018	3062.82
553.222	3013.42
553.426	3021.17
553.63	3091.69
553.833	2991.91
554.037	2984.55
554.241	3026.59
554.445	3071.35
554.649	3026.98
554.853	3004.7
555.056	3077.16
555.26	3078.9
555.464	3032.21
555.668	3055.85
555.871	3070.18
556.075	3068.05
556.279	2974.67
556.483	3047.9
556.686	3034.73
556.89	3000.82
557.094	3027.95
557.297	2938.05
557.501	3020.58
557.704	2897.36
557.908	2982.61
558.112	2908.02
558.315	2982.03
558.519	2902.2
558.722	2867.91
558.926	2885.35
559.129	2805.72
559.333	2841.76
559.536	2791.57
559.74	2804.36
559.943	2732.68
560.147	2748.56
560.35	2818.12
560.553	2791.38
560.757	2744.11
560.96	2857.64
561.164	2807.85
561.367	2851.06
561.57	2809.21
561.774	2818.89
561.977	2806.3
562.18	2758.64
562.384	2864.81
562.587	2765.81
562.79	2783.63
562.993	2770.46
563.197	2814.63
563.4	2866.55
563.603	2828
563.806	2831.29
564.009	2750.5
564.212	2773.56
564.416	2715.04
564.619	2769.49
564.822	2641.03
565.025	2765.42
565.228	2723.57
565.431	2712.14
565.634	2635.22
565.837	2652.46
566.04	2616.81
566.243	2607.71
566.446	2530.6
566.649	2614.3
566.852	2543.77
567.055	2608.87
567.258	2596.08
567.461	2657.7
567.664	2631.54
567.867	2539.32
568.07	2556.95
568.273	2573.42
568.475	2639.1
568.678	2523.62
568.881	2505.22
569.084	2496.3
569.287	2385.48
569.489	2426.55
569.692	2486.04
569.895	2501.15
570.098	2410.28
570.3	2348.86
570.503	2330.46
570.706	2353.71
570.909	2331.04
571.111	2262.84
571.314	2277.37
571.516	2262.64
571.719	2258.38
571.922	2255.67
572.124	2271.36
572.327	2300.81
572.529	2247.14
572.732	2275.04
572.935	2298.49
573.137	2371.92
573.34	2253.34
573.542	2271.36
573.745	2277.95
573.947	2266.52
574.15	2229.51
574.352	2231.45
574.554	2292.48
574.757	2214.98
574.959	2212.85
575.162	2192.51
575.364	2161.12
575.566	2236.88
575.769	2106.1
575.971	2166.35
576.173	2034.99
576.376	2127.02
576.578	2167.51
576.78	2213.24
576.982	2101.83
577.185	2127.22
577.387	2099.9
577.589	2089.05
577.791	2115.78
577.993	2127.41
578.196	2052.43
578.398	2099.51
578.6	2099.51
578.802	2036.74
579.004	2025.5
579.206	2028.4
579.408	2050.69
579.61	2022.01
579.812	2071.22
580.014	2025.11
580.216	2032.09
580.418	2072.19
580.62	2064.64
580.822	2009.22
581.024	2067.35
581.226	2090.21
581.428	2054.17
581.63	2140.2
581.832	2058.24
582.034	2125.86
582.236	2093.89
582.438	2100.28
582.64	2144.27
582.841	2125.08
583.043	2161.51
583.245	2112.49
583.447	2104.55
583.649	2098.93
583.85	2109.58
584.052	2113.85
584.254	2049.72
584.456	2094.08
584.657	2049.91
584.859	2098.93
585.061	2059.6
585.262	2062.31
585.464	1984.62
585.666	2050.3
585.867	1999.15
586.069	2071.61
586.27	2035.38
586.472	1999.15
586.674	1982.29
586.875	1996.24
587.077	1997.4
587.278	1999.34
587.48	1988.69
587.681	2059.21
587.883	2006.51
588.084	1921.84
588.285	1943.54
588.487	1890.26
588.688	1913.51
588.89	1827.88
589.091	1824.78
589.292	1790.68
589.494	1727.9
589.695	1672.88
589.896	1620.57
590.098	1649.63
590.299	1686.05
590.5	1659.12
590.702	1689.73
590.903	1746.89
591.104	1809.47
591.305	1797.65
591.507	1843.96
591.708	1796.1
591.909	1768.01
592.11	1853.64
592.311	1795.91
592.512	1763.36
592.714	1705.62
592.915	1730.23
593.116	1746.7
593.317	1804.82
593.518	1829.81
593.719	1789.13
593.92	1786.03
594.121	1857.33
594.322	1775.18
594.523	1765.88
594.724	1763.55
594.925	1754.45
595.126	1757.16
595.327	1768.2
595.528	1770.14
595.729	1791.65
595.929	1753.67
596.13	1777.31
596.331	1788.55
596.532	1827.49
596.733	1834.66
596.934	1846.09
597.135	1833.69
597.335	1850.54
597.536	1770.53
597.737	1782.93
597.938	1781.76
598.138	1825.36
598.339	1805.6
598.54	1786.41
598.74	1763.94
598.941	1825.55
599.142	1836.79
599.342	1799.01
599.543	1780.41
599.744	1811.99
599.944	1778.47
600.145	1785.25
600.345	1786.22
600.546	1865.27
600.746	1829.81
600.947	1923.39
601.147	1801.91
601.348	1838.53
601.548	1760.84
601.749	1795.71
601.949	1757.35
602.15	1736.81
602.35	1774.6
602.551	1804.43
602.751	1757.55
602.951	1737.2
603.152	1740.11
603.352	1807.92
603.552	1760.84
603.753	1789.32
603.953	1801.72
604.153	1784.09
604.354	1748.05
604.554	1755.22
604.754	1793.2
604.954	1745.73
605.155	1795.33
605.355	1758.13
605.555	1812.18
605.755	1825.36
605.955	1752.12
606.155	1803.85
606.356	1778.47
606.556	1777.89
606.756	1767.23
606.956	1692.83
607.156	1789.71
607.356	1723.06
607.556	1774.79
607.756	1763.55
607.956	1750.38
608.156	1736.04
608.356	1694.19
608.556	1748.83
608.756	1729.65
608.956	1694.58
609.156	1690.51
609.356	1696.52
609.556	1676.56
609.755	1711.43
609.955	1679.27
610.155	1681.21
610.355	1694.77
610.555	1636.26
610.755	1678.3
610.954	1580.85
611.154	1651.76
611.354	1658.93
611.554	1647.11
611.753	1648.08
611.953	1600.61
612.153	1669.58
612.352	1634.71
612.552	1570.58
612.752	1563.6
612.951	1598.87
613.151	1607.59
613.351	1578.72
613.55	1602.55
613.75	1631.61
613.949	1595.57
614.149	1575.23
614.348	1583.95
614.548	1523.31
614.747	1474.09
614.947	1498.12
615.146	1471.96
615.346	1600.42
615.545	1557.79
615.745	1548.49
615.944	1558.18
616.144	1537.84
616.343	1554.5
616.542	1496.96
616.742	1469.64
616.941	1496.37
617.14	1454.14
617.34	1504.9
617.539	1505.29
617.738	1453.94
617.938	1553.72
618.137	1486.49
618.336	1452.2
618.535	1549.46
618.734	1467.51
618.934	1508.39
619.133	1468.28
619.332	1539.39
619.531	1434.76
619.73	1484.94
619.929	1522.14
620.128	1516.91
620.328	1527.18
620.527	1464.21
620.726	1482.04
620.925	1489.21
621.124	1467.51
621.323	1476.42
621.522	1427.4
621.721	1422.17
621.92	1421.78
622.119	1476.22
622.318	1426.04
622.517	1436.7
622.715	1411.51
622.914	1363.27
623.113	1432.63
623.312	1347.77
623.511	1392.53
623.71	1404.15
623.909	1370.63
624.107	1464.41
624.306	1341.76
624.505	1373.34
624.704	1381.87
624.902	1377.8
625.101	1429.53
625.3	1386.52
625.499	1356.49
625.697	1380.51
625.896	1346.8
626.095	1355.13
626.293	1268.72
626.492	1323.36
626.69	1369.47
626.889	1340.6
627.088	1372.18
627.286	1357.85
627.485	1314.64
627.683	1340.99
627.882	1335.56
628.08	1283.64
628.279	1276.86
628.477	1353.78
628.676	1242.76
628.874	1306.7
629.073	1255.16
629.271	1264.07
629.469	1318.71
629.668	1256.71
629.866	1249.73
630.065	1244.89
630.263	1290.61
630.461	1218.15
630.66	1297.98
630.858	1311.15
631.056	1338.08
631.254	1328.2
631.453	1291.58
631.651	1313.67
631.849	1290.42
632.047	1279.77
632.245	1326.26
632.444	1310.57
632.642	1288.29
632.84	1326.85
633.038	1266.59
633.236	1263.3
633.434	1287.9
633.632	1276.08
633.83	1287.71
634.028	1303.98
634.227	1305.15
634.425	1359.98
634.623	1301.08
634.821	1329.75
635.019	1340.02
635.216	1290.03
635.414	1314.64
635.612	1309.8
635.81	1309.6
636.008	1337.7
636.206	1289.84
636.404	1315.03
636.602	1279.77
636.8	1296.23
636.997	1314.45
637.195	1323.16
637.393	1299.91
637.591	1371.6
637.789	1337.11
637.986	1297.59
638.184	1272.6
638.382	1342.15
638.58	1313.67
638.777	1341.38
638.975	1276.28
639.173	1336.34
639.37	1281.32
639.568	1295.26
639.765	1329.56
639.963	1276.47
640.161	1284.03
640.358	1328.59
640.556	1211.57
640.753	1198.2
640.951	1203.43
641.148	1283.25
641.346	1256.13
641.543	1214.86
641.741	1251.87
641.938	1212.73
642.136	1227.26
642.333	1155.57
642.531	1274.73
642.728	1239.66
642.925	1210.4
643.123	1211.57
643.32	1216.8
643.517	1196.07
643.715	1186.57
643.912	1198.58
644.109	1191.03
644.306	1179.79
644.504	1157.12
644.701	1202.65
644.898	1184.05
645.095	1158.48
645.293	1176.89
645.49	1192.39
645.687	1160.8
645.884	1177.47
646.081	1094.35
646.278	1090.47
646.475	1144.72
646.672	1080.98
646.87	1114.5
647.067	1097.45
647.264	1118.95
647.461	1090.09
647.658	1043.59
647.855	1078.46
648.052	1027.51
648.249	980.43
648.446	1046.3
648.642	1032.93
648.839	1004.84
649.036	1021.5
649.233	987.4
649.43	975.58
649.627	933.73
649.824	1000.77
650.021	964.15
650.217	985.27
650.414	987.4
650.611	1039.52
650.808	1034.48
651.004	1011.23
651.201	1050.56
651.398	1083.5
651.595	1023.44
651.791	954.46
651.988	1006.39
652.185	993.02
652.381	1016.27
652.578	940.9
652.775	1015.3
652.971	997.86
653.168	1021.5
653.364	1024.6
653.561	947.29
653.757	964.73
653.954	1004.64
654.15	972.48
654.347	1036.81
654.543	981.59
654.74	946.91
654.936	951.17
655.133	989.34
655.329	934.51
655.525	919.4
655.722	981.78
655.918	917.46
656.115	940.51
656.311	867.28
656.507	841.9
656.704	764.01
656.9	827.75
657.096	830.66
657.292	836.86
657.489	880.84
657.685	874.64
657.881	843.83
658.077	893.43
658.273	866.7
658.47	943.61
658.666	913.78
658.862	917.85
659.058	901.76
659.254	942.84
659.45	901.76
659.646	904.48
659.842	897.11
660.038	946.91
660.234	867.28
660.43	891.5
660.626	931.41
660.822	937.03
661.018	930.63
661.214	918.43
661.41	871.15
661.606	927.34
661.802	931.21
661.998	920.95
662.194	866.5
662.39	925.21
662.586	886.46
662.781	893.82
662.977	916.68
663.173	910.29
663.369	867.66
663.564	898.28
663.76	886.07
663.956	877.74
664.152	876.19
664.347	796.17
664.543	870.38
664.739	869.8
664.934	805.28
665.13	794.43
665.326	880.84
665.521	858.17
665.717	809.93
665.912	837.25
666.108	792.88
666.304	827.17
666.499	838.22
666.695	771.76
666.89	818.07
667.086	872.12
667.281	825.82
667.477	863.98
667.672	805.47
667.867	831.43
668.063	845.38
668.258	807.99
668.454	811.09
668.649	866.89
668.844	817.68
669.04	819.03
669.235	825.62
669.43	810.7
669.626	768.66
669.821	805.47
670.016	789.39
670.211	834.15
670.407	788.03
670.602	804.7
670.797	812.45
670.992	827.17
671.187	801.6
671.382	844.61
671.578	796.56
671.773	823.68
671.968	772.73
672.163	804.7
672.358	851
672.553	774.86
672.748	792.68
672.943	849.26
673.138	813.03
673.333	843.83
673.528	763.23
673.723	823.88
673.918	762.27
674.113	761.88
674.308	866.89
674.503	821.17
674.698	821.94
674.892	763.62
675.087	807.22
675.282	837.05
675.477	786.68
675.672	788.62
675.867	785.9
676.061	779.7
676.256	734.17
676.451	780.87
676.646	772.53
676.84	746.19
677.035	743.28
677.23	776.02
677.424	795.78
677.619	802.57
677.814	802.18
678.008	781.25
678.203	736.11
678.397	738.82
678.592	774.67
678.787	815.35
678.981	748.7
679.176	781.83
679.37	792.49
679.565	730.49
679.759	764.4
679.954	781.25
680.148	848.29
680.342	822.33
680.537	788.81
680.731	772.73
680.926	802.76
681.12	812.25
681.314	767.69
681.509	770.4
681.703	772.34
681.897	768.47
682.092	774.47
682.286	770.6
682.48	814.38
682.674	817.1
682.869	770.4
683.063	790.36
683.257	835.31
683.451	775.25
683.645	825.43
683.839	790.55
684.034	804.12
684.228	802.57
684.422	756.45
684.616	727.59
684.81	822.91
685.004	786.29
685.198	800.43
685.392	822.13
685.586	793.65
685.78	816.32
685.974	825.04
686.168	817.68
686.362	894.6
686.556	771.76
686.75	712.47
686.944	713.05
687.138	748.51
687.331	647.18
687.525	642.92
687.719	583.05
687.913	648.15
688.107	647.37
688.301	631.87
688.494	672.75
688.688	638.66
688.882	627.22
689.076	664.81
689.269	698.72
689.463	747.54
689.657	685.15
689.85	696.78
690.044	704.92
690.238	708.6
690.431	740.95
690.625	728.55
690.818	794.23
691.012	800.05
691.205	814.77
691.399	824.65
691.593	855.46
691.786	920.75
691.98	900.99
692.173	929.86
692.366	934.12
692.56	958.34
692.753	984.11
692.947	943.42
693.14	999.03
693.333	1034.87
693.527	949.43
693.72	1011.23
693.914	989.92
694.107	999.03
694.3	1016.08
694.493	1015.88
694.687	1058.7
694.88	1038.16
695.073	1116.82
695.266	1117.4
695.46	1104.23
695.653	1166.23
695.846	1189.29
696.039	1132.9
696.232	1171.07
696.425	1266.01
696.618	1288.29
696.812	1290.03
697.005	1335.37
697.198	1434.57
697.391	1364.43
697.584	1420.23
697.777	1456.46
697.97	1468.09
698.163	1455.88
698.356	1464.41
698.549	1563.02
698.742	1506.64
698.935	1481.46
699.127	1510.91
699.32	1511.1
699.513	1525.44
699.706	1549.46
699.899	1613.79
700.092	1526.99
700.285	1594.22
700.477	1523.11
700.67	1591.5
700.863	1624.44
701.056	1730.23
701.248	1724.03
701.441	1716.47
701.634	1682.18
701.826	1791.84
702.019	1706.4
702.212	1769.95
702.404	1743.01
702.597	1743.21
702.79	1768.2
702.982	1820.13
703.175	1863.91
703.367	1890.46
703.56	1882.71
703.752	2025.3
703.945	1972.22
704.137	1970.09
704.33	2004.96
704.522	2041.19
704.715	2079.36
704.907	2089.63
705.1	2122.76
705.292	2131.87
705.484	2101.06
705.677	2177.2
705.869	2197.93
706.061	2236.3
706.254	2268.46
706.446	2236.49
706.638	2264.19
706.831	2313.41
707.023	2327.16
707.215	2393.23
707.407	2392.65
707.599	2373.27
707.792	2440.31
707.984	2406.6
708.176	2435.08
708.368	2451.55
708.56	2486.42
708.752	2469.95
708.944	2461.82
709.136	2511.22
709.329	2533.31
709.521	2654.6
709.713	2594.15
709.905	2631.35
710.097	2705.36
710.289	2612.16
710.481	2637.55
710.672	2692.18
710.864	2729.96
711.056	2773.75
711.248	2767.94
711.44	2751.28
711.632	2780.92
711.824	2832.65
712.016	2856.87
712.207	2870.24
712.399	2833.23
712.591	2921
712.783	2893.87
712.975	2974.08
713.166	2890.97
713.358	2919.45
713.55	2981.64
713.741	2962.27
713.933	3005.47
714.125	2960.13
714.316	2987.26
714.508	3062.63
714.7	3051.2
714.891	2991.13
715.083	3041.51
715.274	3051.39
715.466	3073.86
715.657	3113.58
715.849	2985.13
716.04	3041.9
716.232	2951.8
716.423	3004.5
716.615	2906.47
716.806	2806.49
716.998	2767.16
717.189	2641.03
717.381	2564.7
717.572	2511.03
717.763	2524.4
717.955	2457.17
718.146	2422.29
718.337	2379.09
718.528	2334.52
718.72	2242.69
718.911	2285.12
719.102	2245.98
719.293	2260.51
719.485	2209.75
719.676	2225.64
719.867	2185.92
720.058	2197.55
720.249	2198.13
720.44	2218.66
720.632	2280.86
720.823	2338.01
721.014	2481.19
721.205	2548.42
721.396	2633.09
721.587	2734.61
721.778	2832.65
721.969	2864.04
722.16	2935.53
722.351	2982.22
722.542	3152.72
722.733	3100.99
722.924	3030.46
723.115	3076.19
723.305	3021.55
723.496	3029.5
723.687	2885.15
723.878	2909.95
724.069	2883.99
724.26	2919.25
724.45	2803.97
724.641	2810.37
724.832	2850.47
725.023	2785.76
725.213	2820.44
725.404	2720.47
725.595	2781.31
725.785	2736.94
725.976	2824.32
726.167	2739.26
726.357	2840.59
726.548	2934.56
726.739	2795.06
726.929	2910.15
727.12	2970.79
727.31	2951.03
727.501	2877.6
727.691	2904.14
727.882	2887.29
728.072	2930.69
728.263	2931.27
728.453	3023.3
728.644	3007.99
728.834	2972.92
729.024	2941.34
729.215	2921.39
729.405	2988.42
729.596	3033.18
729.786	3088.2
729.976	3108.74
730.167	3129.08
730.357	3042.09
730.547	3063.4
730.737	3116.49
730.928	3141.87
731.118	3209.1
731.308	3114.94
731.498	3176.94
731.688	3244.94
731.879	3242.62
732.069	3296.67
732.259	3332.13
732.449	3359.25
732.639	3506.5
732.829	3537.31
733.019	3557.46
733.209	3650.46
733.399	3654.33
733.589	3726.99
733.779	3783.95
733.969	3787.63
734.159	3906.59
734.349	3949.21
734.539	3966.46
734.729	3985.83
734.919	3982.93
735.109	4006.18
735.299	3927.32
735.488	3981.18
735.678	4008.11
735.868	4009.66
736.058	3993.78
736.248	3983.9
736.437	3993.97
736.627	3950.57
736.817	4055.78
737.007	4005.4
737.196	4068.95
737.386	4092.59
737.576	4019.93
737.765	4083.29
737.955	4050.74
738.144	4190.82
738.334	4111.57
738.524	4066.24
738.713	4191.79
738.903	4172.41
739.092	4156.72
739.282	4164.27
739.471	4139.67
739.661	4162.72
739.85	4231.89
740.04	4200.31
740.229	4239.06
740.419	4328.18
740.608	4273.55
740.797	4268.9
740.987	4360.73
741.176	4312.68
741.365	4246.04
741.555	4231.5
741.744	4355.7
741.933	4276.07
742.123	4316.37
742.312	4350.85
742.501	4418.66
742.69	4368.68
742.88	4290.6
743.069	4451.99
743.258	4350.27
743.447	4440.75
743.636	4449.08
743.825	4430.48
744.014	4447.92
744.204	4453.73
744.393	4432.23
744.582	4501.78
744.771	4506.24
744.96	4481.83
745.149	4477.95
745.338	4456.25
745.527	4522.12
745.716	4500.62
745.905	4493.45
746.094	4516.51
746.283	4561.65
746.471	4494.81
746.66	4542.27
746.849	4558.94
747.038	4544.79
747.227	4467.49
747.416	4562.62
747.604	4488.61
747.793	4474.27
747.982	4481.05
748.171	4516.51
748.359	4501.98
748.548	4467.29
748.737	4481.83
748.926	4492.48
749.114	4408.59
749.303	4499.07
749.491	4485.7
749.68	4421.76
749.869	4487.06
750.057	4420.21
750.246	4458.77
750.434	4438.62
750.623	4419.63
750.811	4381.27
751	4479.5
751.188	4383.4
751.377	4419.83
751.565	4353.76
751.754	4398.9
751.942	4389.02
752.131	4430.09
752.319	4365.19
752.507	4334.77
752.696	4403.36
752.884	4418.86
753.072	4385.15
753.261	4401.03
753.449	4338.26
753.637	4338.65
753.825	4436.1
754.014	4331.87
754.202	4353.56
754.39	4422.35
754.578	4402.78
754.766	4308.03
754.955	4335.74
755.143	4386.7
755.331	4289.82
755.519	4360.73
755.707	4338.65
755.895	4283.43
756.083	4291.76
756.271	4233.83
756.459	4277.62
756.647	4307.45
756.835	4227.24
757.023	4266.96
757.211	4222.2
757.399	4217.55
757.587	4201.28
757.775	4143.93
757.963	4188.69
758.151	4175.12
758.339	4115.84
758.526	4140.25
758.714	4149.74
758.902	3974.4
759.09	3909.69
759.278	3670.99
759.465	3372.43
759.653	2966.92
759.841	2645.1
760.028	2262.45
760.216	1964.66
760.404	1841.63
760.591	1498.51
760.779	1276.67
760.967	1109.46
761.154	908.55
761.342	926.18
761.529	897.5
761.717	966.28
761.905	967.25
762.092	1019.76
762.28	933.34
762.467	986.43
762.655	869.99
762.842	901.96
763.029	909.9
763.217	880.84
763.404	913.2
763.592	928.31
763.779	873.09
763.966	951.17
764.154	972.87
764.341	1032.54
764.528	1045.72
764.716	1107.72
764.903	1199.55
765.09	1255.74
765.277	1324.33
765.465	1481.26
765.652	1606.23
765.839	1655.05
766.026	1838.34
766.213	1916.42
766.4	2016.2
766.588	2249.66
766.775	2310.11
766.962	2392.84
767.149	2527.5
767.336	2718.34
767.523	2681.91
767.71	2871.59
767.897	3017.48
768.084	3080.26
768.271	3137.22
768.458	3252.11
768.645	3306.55
768.832	3308.49
769.019	3382.89
769.206	3410.79
769.392	3463.88
769.579	3576.25
769.766	3540.02
769.953	3548.55
770.14	3619.07
770.327	3620.23
770.513	3646.39
770.7	3736.87
770.887	3633.6
771.073	3676.61
771.26	3687.07
771.447	3639.22
771.634	3685.91
771.82	3777.75
772.007	3678.55
772.193	3723.89
772.38	3736.09
772.567	3652.01
772.753	3687.46
772.94	3752.56
773.126	3760.12
773.313	3735.51
773.499	3770.39
773.686	3774.26
773.872	3723.31
774.059	3707.03
774.245	3657.82
774.432	3743.65
774.618	3593.49
774.804	3680.87
774.991	3635.34
775.177	3671.96
775.363	3649.29
775.55	3707.42
775.736	3628.18
775.922	3665.76
776.109	3652.39
776.295	3669.25
776.481	3683.39
776.667	3689.59
776.853	3653.36
777.04	3605.12
777.226	3643.29
777.412	3678.55
777.598	3568.89
777.784	3590.39
777.97	3570.24
778.156	3615.97
778.342	3576.06
778.528	3548.16
778.715	3515.41
778.901	3544.28
779.087	3579.93
779.272	3558.62
779.458	3510.18
779.644	3565.01
779.83	3480.93
780.016	3590.39
780.202	3498.36
780.388	3478.21
780.574	3438.5
780.76	3426.68
780.946	3497.59
781.131	3460
781.317	3440.43
781.503	3437.53
781.689	3428.81
781.874	3559.78
782.06	3415.63
782.246	3413.31
782.432	3399.55
782.617	3382.89
782.803	3460.97
782.989	3399.17
783.174	3390.64
783.36	3352.86
783.545	3336
783.731	3341.62
783.916	3300.16
784.102	3342.2
784.288	3297.64
784.473	3317.79
784.659	3325.15
784.844	3354.22
785.029	3254.24
785.215	3307.14
785.4	3227.31
785.586	3361.58
785.771	3226.54
785.956	3315.47
786.142	3201.74
786.327	3245.33
786.512	3183.91
786.698	3211.81
786.883	3140.71
787.068	3177.91
787.254	3168.61
787.439	3119.78
787.624	3098.86
787.809	3128.89
787.994	3104.67
788.18	3160.08
788.365	3083.16
788.55	3054.88
788.735	3116.3
788.92	3030.27
789.105	3069.8
789.29	3083.55
789.475	2983.97
789.66	2992.3
789.845	2952.38
790.03	2921.97
790.215	3015.35
790.4	2988.23
790.585	3024.65
790.77	2984.16
790.955	2927.97
791.14	2982.03
791.325	3014.58
791.51	2869.07
791.695	2949.67
791.879	2942.89
792.064	2932.62
792.249	3018.26
792.434	2930.69
792.618	2956.07
792.803	2995.4
792.988	2919.64
793.173	2973.89
793.357	3031.24
793.542	2926.23
793.727	2991.52
793.911	2982.42
794.096	2994.23
794.281	2983.19
794.465	3048.68
794.65	2949.67
794.834	3032.01
795.019	3045.96
795.203	3060.5
795.388	3056.81
795.572	3071.35
795.757	3007.6
795.941	3004.31
796.126	2984.93
796.31	2934.56
796.494	3009.54
796.679	2937.47
796.863	2969.43
797.048	3014.97
797.232	2983
797.416	3019.62
797.601	2983
797.785	3097.11
797.969	3077.93
798.153	2987.84
798.338	3098.28
798.522	3066.31
798.706	3056.62
798.89	3067.86
799.074	3137.61
799.258	3080.65
799.443	3087.62
799.627	3041.7
799.811	3116.88
799.995	3063.79
800.179	3006.25
800.363	2983.19
800.547	3054.88
800.731	3082.39
800.915	2931.46
801.099	2961.68
801.283	2966.53
801.467	3002.57
801.651	2999.08
801.835	3072.7
802.019	2970.4
802.202	2994.82
802.386	2984.16
802.57	2907.44
802.754	2957.23
802.938	2892.9
803.121	2913.25
803.305	3019.03
803.489	2977.96
803.673	3031.24
803.856	2958.78
804.04	2922.74
804.224	2991.72
804.407	2995.01
804.591	2942.31
804.775	2967.69
804.958	2978.93
805.142	3092.85
805.326	2981.06
805.509	3030.08
805.693	3035.5
805.876	3072.9
806.06	3045
806.243	3051.58
806.427	3039.38
806.61	3111.84
806.794	3001.98
806.977	3089.75
807.16	3060.5
807.344	3042.86
807.527	3030.85
807.71	3039.38
807.894	3065.73
808.077	3042.48
808.26	3005.08
808.444	3020
808.627	3021.55
808.81	2970.21
808.993	2908.4
809.177	2876.24
809.36	2939.02
809.543	2920.22
809.726	2844.27
809.909	2819.86
810.092	2827.42
810.276	2823.54
810.459	2844.47
810.642	2811.92
810.825	2758.25
811.008	2776.85
811.191	2644.91
811.374	2719.31
811.557	2704.39
811.74	2736.36
811.923	2626.89
812.106	2628.83
812.289	2584.07
812.472	2605.58
812.654	2614.49
812.837	2535.83
813.02	2485.45
813.203	2438.18
813.386	2362.04
813.569	2279.89
813.751	2221.38
813.934	2260.51
814.117	2239.2
814.3	2173.33
814.482	2155.5
814.665	2082.85
814.848	2024.92
815.03	1969.12
815.213	1961.95
815.396	1974.16
815.578	1966.21
815.761	1932.89
815.943	1978.81
816.126	1850.74
816.309	1837.56
816.491	1782.93
816.674	1703.1
816.856	1768.78
817.039	1743.01
817.221	1862.75
817.403	1791.26
817.586	1790.1
817.768	1791.65
817.951	1761.61
818.133	1746.11
818.315	1761.23
818.498	1801.53
818.68	1845.89
818.862	1820.9
819.045	1846.86
819.227	1844.54
819.409	1822.84
819.591	1884.26
819.774	1849.19
819.956	1824.39
820.138	1875.15
820.32	1857.71
820.502	1934.63
820.684	2025.11
820.866	2046.62
821.048	2059.99
821.231	2117.72
821.413	2076.26
821.595	2082.65
821.777	2088.08
821.959	2063.28
822.141	2143.49
822.323	2007.87
822.505	1927.46
822.686	1842.02
822.868	1778.28
823.05	1618.63
823.232	1585.5
823.414	1561.67
823.596	1597.9
823.778	1636.45
823.96	1629.48
824.141	1616.89
824.323	1678.3
824.505	1787.77
824.687	1826.33
824.868	1898.98
825.05	1966.02
825.232	2030.92
825.413	2088.85
825.595	2036.54
825.777	1998.57
825.958	1980.74
826.14	2007.29
826.321	2031.31
826.503	2048.55
826.685	2054.95
826.866	2090.4
827.048	2078.97
827.229	1998.37
827.411	1963.89
827.592	1915.64
827.773	1900.92
827.955	1834.85
828.136	1847.64
828.318	1799.59
828.499	1881.54
828.68	1780.41
828.862	1809.86
829.043	1877.86
829.224	1775.56
829.406	1768.59
829.587	1784.48
829.768	1819.93
829.949	1821.29
830.131	1813.73
830.312	1878.44
830.493	1836.01
830.674	1846.09
830.855	1832.33
831.036	1823.42
831.218	1888.71
831.399	1891.62
831.58	1834.66
831.761	1845.12
831.942	1833.3
832.123	1823.42
832.304	1790.1
832.485	1828.07
832.666	1834.66
832.847	1832.33
833.028	1849.77
833.209	1836.59
833.389	1815.28
833.57	1780.99
833.751	1791.26
833.932	1834.46
834.113	1814.89
834.294	1839.5
834.475	1836.01
834.655	1880.38
834.836	1903.44
835.017	1917.97
835.198	1838.73
835.378	1864.69
835.559	1903.05
835.74	1870.69
835.92	1902.08
836.101	1846.09
836.281	1925.91
836.462	1877.67
836.643	1937.15
836.823	1966.6
837.004	1925.14
837.184	1934.44
837.365	1928.62
837.545	1984.62
837.726	1906.15
837.906	1972.99
838.087	1933.08
838.267	1950.52
838.448	1872.44
838.628	1907.7
838.808	1902.66
838.989	1976.48
839.169	1880.38
839.349	1954.2
839.53	1980.74
839.71	1977.64
839.89	1924.94
840.07	2001.09
840.251	1898.59
840.431	1970.47
840.611	1944.51
840.791	1935.6
840.971	1916.03
841.151	1890.26
841.332	1875.54
841.512	1972.22
841.692	1864.3
841.872	1924.94
842.052	1936.37
842.232	1959.43
842.412	1854.81
842.592	1889.29
842.772	1927.27
842.952	1923.78
843.132	1860.23
843.312	1834.85
843.492	1864.69
843.672	1923.2
843.851	1867.59
844.031	1884.26
844.211	1856.16
844.391	1871.86
844.571	1862.36
844.751	1865.27
844.93	1878.83
845.11	1846.48
845.29	1860.04
845.47	1884.84
845.649	1860.43
845.829	1909.44
846.009	1901.31
846.188	1896.66
846.368	1888.71
846.547	1882.32
846.727	1872.44
846.907	1823.23
847.086	1892.98
847.266	1892.39
847.445	1880.77
847.625	1805.21
847.804	1805.21
847.984	1830.01
848.163	1810.44
848.343	1842.21
848.522	1848.99
848.701	1865.27
848.881	1810.83
849.06	1817.41
849.239	1824.58
849.419	1822.64
849.598	1734.1
849.777	1740.11
849.957	1715.31
850.136	1673.07
850.315	1657.18
850.494	1649.63
850.674	1657.57
850.853	1728.29
851.032	1676.17
851.211	1712.21
851.39	1693.61
851.569	1642.07
851.748	1667.45
851.927	1676.75
852.107	1694.77
852.286	1652.15
852.465	1640.33
852.644	1712.21
852.823	1712.4
853.002	1680.82
853.181	1676.37
853.359	1712.6
853.538	1617.85
853.717	1694.58
853.896	1577.17
854.075	1520.79
854.254	1449.29
854.433	1437.48
854.611	1464.02
854.79	1401.83
854.969	1466.15
855.148	1463.63
855.327	1453.75
855.505	1512.46
855.684	1486.3
855.863	1485.52
856.041	1526.41
856.22	1570.77
856.399	1534.93
856.577	1641.1
856.756	1613.4
856.934	1692.45
857.113	1721.12
857.291	1628.12
857.47	1587.05
857.648	1650.79
857.827	1601
858.005	1703.3
858.184	1563.99
858.362	1663.38
858.541	1585.11
858.719	1614.95
858.898	1581.43
859.076	1593.44
859.254	1652.73
859.433	1562.25
859.611	1560.7
859.789	1534.54
859.967	1602.35
860.146	1629.09
860.324	1527.37
860.502	1571.74
860.68	1517.88
860.859	1535.12
861.037	1548.69
861.215	1569.42
861.393	1544.23
861.571	1570
861.749	1540.36
861.927	1542.29
862.105	1537.64
862.283	1512.07
862.461	1527.96
862.639	1488.24
862.817	1519.62
862.995	1520.79
863.173	1500.64
863.351	1517.3
863.529	1523.11
863.707	1561.67
863.885	1545.97
864.063	1451.43
864.241	1475.45
864.418	1535.32
864.596	1463.24
864.774	1484.94
864.952	1471.57
865.129	1483.01
865.307	1458.01
865.485	1441.16
865.663	1489.21
865.84	1410.93
866.018	1364.63
866.196	1251.67
866.373	1280.35
866.551	1250.7
866.728	1235.59
866.906	1249.93
867.084	1265.62
867.261	1336.15
867.439	1339.25
867.616	1357.65
867.794	1325.3
867.971	1355.52
868.149	1358.81
868.326	1416.94
868.503	1401.83
868.681	1377.41
868.858	1356.49
869.035	1355.52
869.213	1425.85
869.39	1349.9
869.567	1426.04
869.745	1370.83
869.922	1397.18
870.099	1389.23
870.276	1434.57
870.454	1386.13
870.631	1377.03
870.808	1392.53
870.985	1371.21
871.162	1434.38
871.339	1384
871.517	1310.76
871.694	1297.4
871.871	1358.62
872.048	1367.53
872.225	1328.2
872.402	1345.25
872.579	1303.6
872.756	1325.68
872.933	1342.15
873.11	1361.72
873.287	1347.77
873.463	1339.25
873.64	1339.25
873.817	1329.17
873.994	1283.45
874.171	1286.35
874.348	1318.9
874.524	1268.14
874.701	1292.55
874.878	1228.62
875.055	1304.76
875.231	1270.27
875.408	1271.82
875.585	1222.42
875.762	1274.34
875.938	1264.27
876.115	1227.45
876.291	1260.39
876.468	1243.15
876.645	1213.12
876.821	1220.28
876.998	1238.5
877.174	1242.37
877.351	1213.12
877.527	1189.29
877.704	1236.56
877.88	1228.81
878.057	1198
878.233	1248.77
878.409	1230.94
878.586	1212.15
878.762	1200.13
878.938	1210.79
879.115	1125.15
879.291	1206.14
879.467	1164.29
879.644	1131.35
879.82	1199.55
879.996	1162.16
880.172	1126.51
880.349	1172.82
880.525	1202.46
880.701	1148.02
880.877	1093.57
881.053	1194.52
881.229	1160.42
881.405	1185.41
881.581	1157.9
881.757	1151.89
881.933	1175.53
882.109	1186.38
882.285	1159.64
882.461	1115.08
882.637	1139.49
882.813	1115.66
882.989	1132.9
883.165	1198.39
883.341	1130
883.517	1179.6
883.693	1156.74
883.869	1175.14
884.044	1117.4
884.22	1137.75
884.396	1164.1
884.572	1165.07
884.747	1198.39
884.923	1182.89
885.099	1174.17
885.275	1210.98
885.45	1111.98
885.626	1119.92
885.801	1121.28
885.977	1117.4
886.153	1073.04
886.328	1133.49
886.504	1131.16
886.679	1124.77
886.855	1109.85
887.03	1135.04
887.206	1135.81
887.381	1149.57
887.557	1171.65
887.732	1161.19
887.908	1152.28
888.083	1135.42
888.258	1110.82
888.434	1139.69
888.609	1121.67
888.784	1171.65
888.96	1132.52
889.135	1134.07
889.31	1106.36
889.485	1104.81
889.661	1143.75
889.836	1171.46
890.011	1158.29
890.186	1126.7
890.361	1118.18
890.537	1146.47
890.712	1116.44
890.887	1148.21
891.062	1112.37
891.237	1186.38
891.412	1086.79
891.587	1105.01
891.762	1148.6
891.937	1151.89
892.112	1099.39
892.287	1087.18
892.462	1062.77
892.637	1065.67
892.812	1034.09
892.987	1058.31
893.161	983.33
893.336	1020.53
893.511	1033.9
893.686	1026.54
893.861	1043.2
894.035	1006
894.21	1043.01
894.385	949.23
894.56	977.52
894.734	912.03
894.909	913.78
895.084	927.53
895.258	919.78
895.433	900.99
895.608	858.17
895.782	839.77
895.957	855.07
896.131	848.48
896.306	795.59
896.48	781.25
896.655	804.5
896.829	720.61
897.004	726.04
897.178	764.98
897.353	692.9
897.527	747.35
897.701	757.42
897.876	688.64
898.05	773.31
898.224	741.92
898.399	779.12
898.573	739.02
898.747	625.29
898.921	656.09
899.096	565.42
899.27	584.41
899.444	580.53
899.618	631.1
899.792	657.84
899.967	666.94
900.141	681.28
900.315	634.97
900.489	623.74
900.663	625.67
900.837	626.06
901.011	552.24
901.185	655.12
901.359	608.04
901.533	637.3
901.707	618.51
901.881	644.86
902.055	587.89
902.229	664.81
902.403	692.71
902.576	630.13
902.75	620.25
902.924	736.69
903.098	716.74
903.272	771.18
903.446	766.72
903.619	755.49
903.793	805.28
903.967	769.43
904.14	840.93
904.314	810.12
904.488	798.11
904.661	840.93
904.835	808.18
905.009	872.7
905.182	827.56
905.356	840.73
905.529	822.13
905.703	778.15
905.876	758.58
906.05	763.62
906.223	738.82
906.397	663.46
906.57	643.69
906.744	673.72
906.917	633.81
907.09	635.36
907.264	613.66
907.437	574.72
907.61	569.29
907.784	594.48
907.957	623.35
908.13	564.84
908.304	606.49
908.477	544.11
908.65	589.06
908.823	520.28
908.996	631.1
909.17	547.98
909.343	551.66
909.516	574.53
909.689	537.13
909.862	517.37
910.035	533.06
910.208	490.83
910.381	514.46
910.554	623.54
910.727	552.83
910.9	523.38
911.073	532.87
911.246	587.31
911.419	590.8
911.592	577.24
911.765	557.48
911.938	508.65
912.11	549.53
912.283	549.73
912.456	583.05
912.629	581.11
912.802	535
912.974	475.91
913.147	449.95
913.32	399.18
913.493	421.27
913.665	460.99
913.838	463.12
914.01	446.65
914.183	494.7
914.356	498.58
914.528	511.17
914.701	541.39
914.873	520.08
915.046	450.33
915.218	461.57
915.391	354.82
915.563	406.93
915.736	418.56
915.908	493.15
916.081	464.67
916.253	479.01
916.425	472.61
916.598	502.64
916.77	474.94
916.942	425.73
917.115	387.37
917.287	448.78
917.459	422.63
917.632	424.76
917.804	358.3
917.976	425.53
918.148	430.76
918.32	442.78
918.493	484.24
918.665	533.45
918.837	462.73
919.009	538.68
919.181	515.24
919.353	528.22
919.525	525.12
919.697	509.62
919.869	497.99
920.041	548.76
920.213	635.56
920.385	530.54
920.557	519.89
920.729	553.79
920.901	557.48
921.073	522.99
921.244	508.46
921.416	531.13
921.588	520.28
921.76	497.03
921.932	568.33
922.103	518.53
922.275	522.6
922.447	535.97
922.619	451.69
922.79	530.74
922.962	480.95
923.134	491.41
923.305	461.18
923.477	437.35
923.648	438.71
923.82	437.93
923.991	372.06
924.163	411.97
924.335	423.01
924.506	406.93
924.677	483.46
924.849	403.83
925.02	436
925.192	467.38
925.363	450.33
925.535	436.58
925.706	413.91
925.877	484.63
926.049	425.15
926.22	436.58
926.391	446.26
926.562	453.05
926.734	411.97
926.905	444.71
927.076	398.22
927.247	419.91
927.419	358.11
927.59	344.16
927.761	357.53
927.932	323.62
928.103	345.52
928.274	297.27
928.445	292.43
928.616	286.23
928.787	287.97
928.958	326.53
929.129	302.31
929.3	292.04
929.471	250
929.642	210.28
929.813	171.92
929.984	253.29
930.155	173.66
930.326	222.87
930.496	173.08
930.667	136.85
930.838	174.63
931.009	121.93
931.18	155.64
931.35	149.44
931.521	150.02
931.692	110.89
931.863	78.14
932.033	106.04
932.204	135.49
932.374	109.34
932.545	67.1
932.716	160.87
932.886	89.38
933.057	56.45
933.227	39.01
933.398	138.98
933.568	62.84
933.739	8.4
933.909	44.05
934.08	84.34
934.25	-0.32
934.421	44.63
934.591	87.06
934.761	28.74
934.932	24.67
935.102	24.09
935.272	23.12
935.443	48.31
935.613	26.41
935.783	35.91
935.953	19.63
936.123	166.11
936.294	17.7
936.464	14.21
936.634	63.42
936.804	9.17
936.974	-1.68
937.144	50.05
937.314	42.5
937.484	19.44
937.655	-1.49
937.825	66.13
937.995	14.98
938.165	71.56
938.334	37.26
938.504	81.44
938.674	50.63
938.844	56.83
939.014	112.63
939.184	77.18
939.354	132.98
939.524	130.65
939.694	95
939.863	78.53
940.033	154.29
940.203	133.36
940.373	94.61
940.542	136.46
940.712	64.78
940.882	154.48
941.051	142.28
941.221	123.48
941.391	126.78
941.56	88.03
941.73	85.51
941.899	168.43
942.069	95.58
942.238	95.19
942.408	86.09
942.577	116.12
942.747	94.81
942.916	27
943.086	58
943.255	117.28
943.425	89.19
943.594	51.8
943.763	2.78
943.933	49.66
944.102	-0.9
944.271	74.85
944.441	75.63
944.61	54.12
944.779	67.88
944.948	162.62
945.117	37.46
945.287	65.55
945.456	6.65
945.625	36.68
945.794	73.88
945.963	30.29
946.132	93.64
946.301	71.75
946.47	88.03
946.639	22.35
946.808	39.59
946.977	90.35
947.146	87.06
947.315	43.46
947.484	88.99
947.653	60.13
947.822	38.43
947.991	57.41
948.16	134.14
948.329	88.41
948.498	67.49
948.666	56.06
948.835	90.35
949.004	55.86
949.173	8.4
949.341	55.09
949.51	96.36
949.679	117.09
949.847	92.29
950.016	129.29
950.185	94.61
950.353	72.14
950.522	71.75
950.69	100.43
950.859	62.45
951.028	105.46
951.196	78.92
951.365	35.13
951.533	47.73
951.701	82.79
951.87	92.68
952.038	11.69
952.207	48.89
952.375	138.59
952.543	48.89
952.712	67.1
952.88	39.98
953.048	91.51
953.217	71.56
953.385	61.09
953.553	122.51
953.721	50.83
953.89	55.09
954.058	20.99
954.226	19.25
954.394	69.04
954.562	28.35
954.73	57.41
954.898	54.9
955.067	80.08
955.235	40.75
955.403	94.61
955.571	119.99
955.739	70.2
955.907	30.87
956.075	51.8
956.243	68.26
956.41	98.88
956.578	18.47
956.746	45.4
956.914	47.53
957.082	80.86
957.25	106.24
957.418	36.68
957.585	68.84
957.753	126.39
957.921	66.52
958.089	82.6
958.256	94.23
958.424	78.92
958.592	82.41
958.759	44.43
958.927	91.9
959.095	34.75
959.262	55.86
959.43	84.93
959.597	48.7
959.765	71.75
959.932	43.85
960.1	93.64
960.267	84.93
960.435	53.15
960.602	101.39
960.77	68.65
960.937	43.08
961.104	81.44
961.272	36.1
961.439	57.03
961.606	77.56
961.774	101.39
961.941	72.14
962.108	94.23
962.275	59.54
962.443	94.81
962.61	97.13
962.777	145.76
962.944	100.62
963.111	108.18
963.278	100.04
963.446	91.51
963.613	81.83
963.78	95.78
963.947	105.85
964.114	92.29
964.281	171.34
964.448	111.66
964.615	92.68
964.782	113.41
964.949	104.3
965.116	107.79
965.282	131.81
965.449	94.42
965.616	55.86
965.783	91.9
965.95	83.76
966.117	46.37
966.283	90.16
966.45	102.94
966.617	113.21
966.784	149.06
966.95	111.66
967.117	141.69
967.284	72.53
967.45	89.96
967.617	162.04
967.784	113.21
967.95	163.59
968.117	136.85
968.283	142.66
968.45	212.99
968.616	122.9
968.783	164.36
968.949	135.49
969.116	150.99
969.282	129.1
969.449	133.36
969.615	106.82
969.781	79.69
969.948	101.39
970.114	108.37
970.28	192.84
970.447	112.44
970.613	156.81
970.779	132.01
970.945	145.57
971.112	127.16
971.278	104.49
971.444	134.14
971.61	166.3
971.776	103.53
971.942	157.39
972.108	123.48
972.275	112.44
972.441	126.78
972.607	170.95
972.773	92.87
972.939	121.35
973.105	100.23
973.271	78.73
973.437	109.53
973.602	92.09
973.768	124.06
973.934	72.53
974.1	103.72
974.266	56.64
974.432	112.83
974.598	90.93
974.763	118.44
974.929	84.15
975.095	169.21
975.261	83.76
975.426	76.98
975.592	85.31
975.758	127.36
975.923	74.85
976.089	81.83
976.255	133.94
976.42	109.53
976.586	105.85
976.751	106.43
976.917	176.96
977.082	103.33
977.248	68.65
977.413	74.08
977.579	80.47
977.744	88.03
977.91	78.73
978.075	108.56
978.24	122.13
978.406	97.52
978.571	100.43
978.736	53.93
978.902	133.56
979.067	86.67
979.232	60.32
979.397	92.09
979.563	135.49
979.728	75.63
979.893	115.54
980.058	78.14
980.223	112.83
980.388	97.71
980.554	84.93
980.719	76.98
980.884	99.07
981.049	137.04
981.214	85.7
981.379	106.24
981.544	99.65
981.709	81.24
981.874	69.43
982.039	107.21
982.204	117.48
982.368	98.49
982.533	83.76
982.698	141.31
982.863	134.72
983.028	85.7
983.193	119.8
983.357	113.79
983.522	93.26
983.687	96.94
983.852	89.96
984.016	111.66
984.181	106.43
984.346	119.22
984.51	119.99
984.675	88.99
984.839	120.77
985.004	148.67
985.168	143.24
985.333	103.72
985.498	119.03
985.662	115.34
985.827	114.18
985.991	94.61
986.155	87.44
986.32	119.99
986.484	157.97
986.649	117.48
986.813	66.13
986.977	87.64
987.142	116.89
987.306	53.15
987.47	95.97
987.634	84.73
987.799	97.13
987.963	115.73
988.127	122.71
988.291	165.14
988.455	110.5
988.62	103.91
988.784	101.98
988.948	115.93
989.112	83.57
989.276	97.71
989.44	110.11
989.604	92.68
989.768	116.7
989.932	153.51
990.096	61.87
990.26	63.03
990.424	62.84
990.588	90.54
990.752	141.31
990.915	106.04
991.079	51.8
991.243	97.33
991.407	118.44
991.571	91.13
991.734	108.95
991.898	101.39
992.062	164.17
992.226	92.09
992.389	54.31
992.553	29.9
992.717	77.37
992.88	79.89
993.044	96.16
993.207	82.02
993.371	117.09
993.535	126
993.698	86.67
993.862	122.71
994.025	118.64
994.189	79.11
994.352	110.5
994.515	83.96
994.679	110.89
994.842	85.89
995.006	111.66
995.169	69.23
995.332	57.03
995.496	107.79
995.659	56.06
995.822	72.33
995.985	82.02
996.149	130.84
996.312	84.15
996.475	159.71
996.638	83.76
996.801	120.19
996.964	148.09
997.128	83.76
997.291	71.75
997.454	96.74
997.617	49.28
997.78	104.11
997.943	49.47
998.106	107.59
998.269	68.26
998.432	62.64
998.595	71.17
998.758	22.73
998.92	54.12
999.083	31.06
999.246	72.91
999.409	40.56
999.572	10.33
999.735	42.69
999.897	59.54
1000.06	47.53
1000.223	78.14
1000.386	97.33
1000.548	84.54
1000.711	79.11
1000.874	66.33
1001.036	24.67
1001.199	115.15
1001.361	46.76
1001.524	58.58
1001.687	97.52
1001.849	61.48
1002.012	79.89
1002.174	67.49
1002.337	86.67
1002.499	71.75
1002.661	99.84
1002.824	42.88
1002.986	34.94
1003.149	61.48
1003.311	68.65
1003.473	109.73
1003.636	33
1003.798	81.63
1003.96	91.71
1004.123	49.47
1004.285	37.46
1004.447	54.7
1004.609	78.53
1004.771	113.21
1004.933	42.11
1005.096	19.25
1005.258	38.62
1005.42	58.58
1005.582	100.43
1005.744	65.74
1005.906	12.46
1006.068	67.1
1006.23	35.91
1006.392	3.16
1006.554	13.63
1006.716	76.01
1006.878	81.24
1007.04	38.43
1007.202	50.25
1007.363	57.61
1007.525	56.06
1007.687	76.59
1007.849	95.39
1008.011	27.77
1008.172	31.06
1008.334	18.86
1008.496	80.86
1008.658	2.39
1008.819	25.83
1008.981	17.31
1009.143	29.71
1009.304	22.93
1009.466	57.03
1009.627	93.06
1009.789	139.56
1009.95	44.63
1010.112	45.79
1010.273	66.52
1010.435	48.31
1010.596	38.81
1010.758	41.72
1010.919	55.09
1011.081	-4.78
1011.242	63.61
1011.403	67.29
1011.565	47.73
1011.726	59.16
1011.887	6.85
1012.049	53.15
1012.21	77.95
1012.371	96.55
1012.532	-10.79
1012.693	67.68
1012.855	14.6
1013.016	44.05
1013.177	52.18
1013.338	44.63
1013.499	99.65
1013.66	65.94
1013.821	63.03
1013.982	28.93
1014.143	41.14
1014.304	7.04
1014.465	42.5
1014.626	41.72
1014.787	30.87
1014.948	118.83
1015.109	-21.05
1015.27	63.03
1015.431	27.58
1015.592	9.36
1015.752	90.93
1015.913	51.41
1016.074	76.01
1016.235	49.47
1016.395	65.74
1016.556	31.26
1016.717	36.1
1016.877	78.92
1017.038	28.55
1017.199	41.33
1017.359	30.48
1017.52	50.63
1017.681	17.11
1017.841	22.73
1018.002	12.08
1018.162	33.2
1018.323	80.08
1018.483	29.13
1018.644	1.61
1018.804	6.65
1018.964	-14.85
1019.125	32.42
1019.285	24.09
1019.446	-9.43
1019.606	-8.85
1019.766	-14.66
1019.926	51.6
1020.087	52.96
1020.247	-16.79
1020.407	15.56
1020.567	54.7
1020.728	29.71
1020.888	-16.6
1021.048	4.33
1021.208	-12.92
1021.368	17.89
1021.528	54.12
1021.688	64.19
1021.848	66.71
1022.008	55.09
1022.168	30.87
1022.328	27
1022.488	49.08
1022.648	12.27
1022.808	26.41
1022.968	55.86
1023.128	-0.13
1023.288	8.59
1023.448	23.51
1023.608	31.65
1023.767	57.61
1023.927	19.44
1024.087	-5.55
1024.247	-24.35
1024.406	20.99
1024.566	-23.96
1024.726	0.84
1024.885	-13.89
1025.045	61.87
1025.205	19.83
1025.364	14.01
1025.524	23.51
1025.683	29.9
1025.843	28.55
1026.003	-1.68
1026.162	97.71
1026.321	57.61
1026.481	39.78
1026.64	0.45
1026.8	25.25
1026.959	35.91
1027.119	36.1
1027.278	13.43
1027.437	13.43
1027.597	27.58
1027.756	34.75
1027.915	33
1028.074	29.32
1028.234	20.6
1028.393	20.21
1028.552	-5.94
1028.711	-59.22
1028.87	29.13
1029.03	-10.79
1029.189	12.46
1029.348	-28.42
1029.507	-10.4
1029.666	-7.69
1029.825	-26.29
1029.984	-15.44
1030.143	27.19
1030.302	-18.34
1030.461	-22.41
1030.62	14.01
1030.779	67.68
1030.938	17.89
1031.097	-30.93
1031.255	52.76
1031.414	48.7
1031.573	70.39
1031.732	-48.18
1031.891	10.91
1032.049	51.21
1032.208	25.64
1032.367	-22.8
1032.525	-15.63
1032.684	5.88
1032.843	34.75
1033.001	-18.15
1033.16	128.33
1033.319	47.15
1033.477	40.36
1033.636	8.2
1033.794	-19.5
1033.953	37.65
1034.111	38.43
1034.27	-22.41
1034.428	26.03
1034.587	-12.72
1034.745	28.55
1034.903	18.86
1035.062	21.18
1035.22	-35.78
1035.378	50.63
1035.537	-29.58
1035.695	37.07
1035.853	-7.69
1036.011	43.66
1036.17	21.38
1036.328	-66
1036.486	30.87
1036.644	24.09
1036.802	-45.66
1036.96	7.04
1037.119	25.25
1037.277	8.2
1037.435	-29.38
1037.593	-17.76
1037.751	20.02
1037.909	55.48
1038.067	55.48
