Data from gum_young_FLMT105791__138__17-41-06-040.txt Node

Date: Mon Mar 20 17:41:06 GMT 2023
User: antho
Spectrometer: FLMT10579
Trigger mode: 0
Integration Time (sec): 1.000000E-1
Scans to average: 10
Electric dark correction enabled: true
Nonlinearity correction enabled: false
Boxcar width: 0
XAxis mode: Wavelengths
Number of Pixels in Spectrum: 3648
>>>>>Begin Spectral Data<<<<<
345.248	-162.34
345.464	-162.34
345.681	-162.34
345.898	-142
346.114	-151.3
346.331	-31.76
346.548	48.45
346.764	-17.81
346.981	-7.93
347.197	0.79
347.414	17.84
347.631	-22.07
347.847	56.78
348.064	-7.93
348.28	33.34
348.497	-43
348.713	-26.72
348.93	24.23
349.146	14.35
349.363	2.15
349.579	18.62
349.796	3.31
350.012	-6.96
350.229	8.93
350.445	3.31
350.661	-10.25
350.878	6.41
351.094	-7.35
351.311	42.06
351.527	-1.73
351.743	-5.6
351.96	38.38
352.176	38.77
352.392	23.07
352.609	37.8
352.825	12.61
353.041	12.8
353.257	-11.03
353.474	4.08
353.69	9.9
353.906	-11.22
354.122	-21.1
354.339	54.07
354.555	35.08
354.771	13.77
354.987	82.55
355.203	78.29
355.42	-9.48
355.636	-3.67
355.852	1.76
356.068	23.65
356.284	-22.07
356.5	65.31
356.716	21.13
356.932	18.42
357.148	56.59
357.364	18.42
357.58	59.5
357.796	32.76
358.012	36.44
358.228	17.45
358.444	-57.91
358.66	37.8
358.876	22.88
359.092	-5.8
359.308	36.25
359.524	22.49
359.74	19.2
359.956	-17.23
360.172	-10.83
360.388	51.36
360.604	7.57
360.819	86.62
361.035	35.47
361.251	49.23
361.467	-22.26
361.683	45.55
361.898	20.36
362.114	50
362.33	21.33
362.546	46.32
362.762	17.26
362.977	25.01
363.193	-32.92
363.409	29.27
363.624	-4.25
363.84	-23.04
364.056	-6.96
364.271	33.73
364.487	27.72
364.703	7.77
364.918	-28.27
365.134	15.13
365.35	16.29
365.565	92.05
365.781	11.64
365.996	37.8
366.212	60.08
366.427	40.7
366.643	5.25
366.858	-5.22
367.074	-34.66
367.289	65.5
367.505	116.46
367.72	-32.73
367.936	10.67
368.151	66.28
368.367	13.38
368.582	26.56
368.798	11.45
369.013	41.09
369.228	44.58
369.444	1.95
369.659	65.5
369.874	26.56
370.09	70.15
370.305	-21.1
370.52	10.48
370.736	75.38
370.951	8.73
371.166	76.35
371.381	75.19
371.597	42.06
371.812	1.37
372.027	5.25
372.242	35.67
372.458	79.07
372.673	12.61
372.888	10.28
373.103	42.25
373.318	106.19
373.533	8.35
373.749	42.45
373.964	-19.16
374.179	86.62
374.394	-17.42
374.609	77.71
374.824	-22.07
375.039	59.88
375.254	-1.73
375.469	65.7
375.684	38.38
375.899	34.12
376.114	44.38
376.329	44.97
376.544	57.95
376.759	47.1
376.974	17.26
377.189	17.65
377.404	23.65
377.619	62.21
377.834	-22.07
378.049	-14.9
378.264	8.54
378.478	38.18
378.693	0.21
378.908	75.97
379.123	13
379.338	63.18
379.553	60.27
379.767	40.12
379.982	51.55
380.197	47.1
380.412	11.06
380.626	66.86
380.841	87.98
381.056	74.03
381.271	80.42
381.485	16.68
381.7	-12.19
381.915	44.19
382.129	16.1
382.344	46.13
382.559	59.11
382.773	52.13
382.988	-11.03
383.202	45.16
383.417	-3.47
383.632	104.25
383.846	7.38
384.061	44.38
384.275	9.51
384.49	25.59
384.704	51.17
384.919	28.69
385.133	13.19
385.348	65.31
385.562	-7.15
385.777	86.23
385.991	35.67
386.206	24.04
386.42	-5.22
386.634	84.68
386.849	50.58
387.063	37.8
387.277	19.58
387.492	28.3
387.706	28.5
387.92	-12
388.135	60.66
388.349	47.1
388.563	44.38
388.778	46.32
388.992	52.91
389.206	82.16
389.42	117.23
389.635	34.7
389.849	62.02
390.063	57.95
390.277	42.06
390.491	115.68
390.706	67.63
390.92	71.51
391.134	48.45
391.348	70.35
391.562	-0.18
391.776	51.94
391.99	31.4
392.205	71.51
392.419	31.02
392.633	46.71
392.847	73.83
393.061	5.83
393.275	100.57
393.489	59.3
393.703	38.77
393.917	89.72
394.131	36.83
394.345	61.24
394.559	56.59
394.773	31.4
394.986	60.85
395.2	84.3
395.414	77.9
395.628	28.3
395.842	50.58
396.056	38.77
396.27	22.88
396.484	84.1
396.697	71.12
396.911	101.54
397.125	50
397.339	82.75
397.553	65.89
397.766	95.73
397.98	78.29
398.194	96.7
398.408	53.1
398.621	80.23
398.835	73.64
399.049	82.94
399.262	95.15
399.476	108.9
399.69	91.46
399.903	154.82
400.117	68.22
400.331	108.51
400.544	67.44
400.758	170.9
400.971	91.85
401.185	118.4
401.398	81.97
401.612	132.15
401.826	102.31
402.039	123.63
402.253	80.61
402.466	109.29
402.68	99.8
402.893	110.65
403.106	101.15
403.32	80.23
403.533	114.52
403.747	95.34
403.96	104.83
404.174	119.75
404.387	83.33
404.6	100.76
404.814	114.71
405.027	105.41
405.24	95.53
405.454	89.14
405.667	121.69
405.88	39.73
406.094	121.88
406.307	129.44
406.52	108.32
406.733	52.91
406.947	74.8
407.16	172.45
407.373	145.13
407.586	83.52
407.799	75.97
408.012	147.07
408.226	130.99
408.439	162.38
408.652	87.01
408.865	148.62
409.078	160.83
409.291	131.18
409.504	62.79
409.717	140.29
409.93	109.1
410.143	106.19
410.357	86.43
410.57	63.95
410.783	95.53
410.996	108.13
411.209	125.95
411.421	191.05
411.634	138.74
411.847	101.73
412.06	115.49
412.273	93.98
412.486	127.5
412.699	209.65
412.912	143.58
413.125	141.45
413.338	124.01
413.55	158.7
413.763	147.65
413.976	145.71
414.189	105.22
414.402	111.23
414.615	183.69
414.827	108.9
415.04	156.56
415.253	162.96
415.466	157.53
415.678	196.48
415.891	148.04
416.104	135.45
416.316	130.21
416.529	127.7
416.742	155.79
416.954	146.3
417.167	147.46
417.38	140.29
417.592	171.68
417.805	123.24
418.017	110.45
418.23	173.23
418.442	129.44
418.655	142.61
418.868	149.59
419.08	163.54
419.293	179.81
419.505	161.02
419.718	184.08
419.93	191.24
420.142	155.6
420.355	203.84
420.567	189.31
420.78	196.48
420.992	156.18
421.205	208.29
421.417	120.33
421.629	139.71
421.842	149.2
422.054	125.56
422.266	175.36
422.479	173.81
422.691	145.71
422.903	194.93
423.115	144.55
423.328	127.89
423.54	160.83
423.752	146.1
423.964	165.09
424.177	173.03
424.389	161.6
424.601	259.44
424.813	159.28
425.025	194.54
425.238	217.79
425.45	167.99
425.662	170.51
425.874	431.3
426.086	159.08
426.298	210.62
426.51	169.93
426.722	181.56
426.934	133.7
427.146	190.86
427.358	150.75
427.57	199.38
427.782	181.17
427.994	182.53
428.206	162.38
428.418	137.58
428.63	215.85
428.842	216.82
429.054	196.48
429.266	200.54
429.478	159.47
429.69	165.86
429.902	148.23
430.114	241.23
430.325	175.16
430.537	144.55
430.749	166.64
430.961	99.8
431.173	142.03
431.384	184.08
431.596	72.67
431.808	129.05
432.02	192.41
432.231	213.72
432.443	246.46
432.655	192.6
432.867	168.77
433.078	234.64
433.29	271.65
433.502	233.48
433.713	236
433.925	209.46
434.136	242.59
434.348	169.74
434.56	131.76
434.771	297.22
434.983	143.78
435.194	211.78
435.406	198.61
435.617	248.59
435.829	273.78
436.04	254.21
436.252	256.15
436.463	290.83
436.675	247.43
436.886	250.73
437.098	253.05
437.309	286.57
437.521	243.75
437.732	276.88
437.943	243.75
438.155	236
438.366	174.19
438.578	282.69
438.789	264.09
439	272.42
439.211	216.82
439.423	274.36
439.634	245.69
439.845	239.29
440.057	248.21
440.268	307.11
440.479	248.01
440.69	267.97
440.902	248.98
441.113	243.75
441.324	227.67
441.535	281.72
441.746	321.83
441.957	244.91
442.168	260.02
442.38	285.79
442.591	319.89
442.802	234.06
443.013	269.71
443.224	300.52
443.435	248.59
443.646	253.63
443.857	303.04
444.068	285.02
444.279	263.12
444.49	366.2
444.701	277.66
444.912	362.13
445.123	320.67
445.334	311.56
445.545	302.65
445.756	290.64
445.967	269.71
446.178	325.32
446.388	322.61
446.599	309.43
446.81	325.51
447.021	281.34
447.232	299.36
447.443	356.9
447.653	300.13
447.864	356.12
448.075	310.21
448.286	333.84
448.496	332.68
448.707	350.31
448.918	305.17
449.129	396.42
449.339	296.06
449.55	342.37
449.761	297.81
449.971	352.83
450.182	340.82
450.393	374.92
450.603	310.01
450.814	386.54
451.024	350.5
451.235	363.29
451.446	419.09
451.656	394.68
451.867	329.77
452.077	358.84
452.288	417.15
452.498	423.74
452.709	347.79
452.919	358.06
453.13	340.04
453.34	363.29
453.55	303.81
453.761	371.82
453.971	363.1
454.182	384.41
454.392	389.25
454.602	415.22
454.813	394.1
455.023	391.39
455.233	321.06
455.444	376.27
455.654	287.54
455.864	362.52
456.075	362.71
456.285	353.8
456.495	358.64
456.705	376.85
456.916	399.52
457.126	421.03
457.336	375.3
457.546	335.01
457.756	353.8
457.967	418.12
458.177	390.61
458.387	390.61
458.597	350.89
458.807	384.02
459.017	378.6
459.227	383.83
459.437	366.59
459.647	413.28
459.857	419.67
460.068	368.91
460.278	413.47
460.488	403.79
460.698	439.43
460.908	415.02
461.117	360.39
461.327	393.13
461.537	394.49
461.747	464.62
461.957	409.6
462.167	508.6
462.377	437.3
462.587	428.39
462.797	457.45
463.007	420.84
463.216	448.54
463.426	449.9
463.636	449.12
463.846	385.57
464.056	389.45
464.265	482.64
464.475	393.13
464.685	436.33
464.895	447.77
465.104	437.5
465.314	441.76
465.524	430.52
465.733	402.62
465.943	493.49
466.153	490.2
466.362	469.27
466.572	432.65
466.782	443.89
466.991	436.92
467.201	481.87
467.41	383.64
467.62	441.95
467.829	435.95
468.039	495.04
468.249	448.35
468.458	449.7
468.668	469.27
468.877	495.04
469.086	486.52
469.296	518.1
469.505	444.86
469.715	559.75
469.924	469.66
470.134	517.9
470.343	501.43
470.552	479.15
470.762	481.28
470.971	470.05
471.18	478.57
471.39	491.94
471.599	462.49
471.808	523.91
472.018	480.32
472.227	539.41
472.436	545.41
472.645	515.58
472.855	503.95
473.064	561.3
473.273	546.96
473.482	566.34
473.691	573.51
473.901	566.15
474.11	526.04
474.319	613.81
474.528	543.28
474.737	606.25
474.946	591.53
475.155	587.65
475.364	607.8
475.573	557.62
475.783	579.13
475.992	599.66
476.201	630.28
476.41	565.76
476.619	533.21
476.828	592.69
477.037	558.2
477.245	600.25
477.454	620.59
477.663	567.31
477.872	587.07
478.081	675.81
478.29	593.46
478.499	692.66
478.708	652.17
478.917	694.41
479.125	612.26
479.334	661.86
479.543	631.44
479.752	659.73
479.961	663.41
480.169	706.61
480.378	622.33
480.587	766.48
480.796	699.64
481.004	691.5
481.213	700.41
481.422	695.96
481.63	684.14
481.839	727.34
482.048	739.74
482.256	708.94
482.465	743.62
482.674	741.87
482.882	756.99
483.091	812.79
483.299	745.56
483.508	766.67
483.716	736.45
483.925	766.87
484.134	748.07
484.342	747.3
484.551	789.34
484.759	792.83
484.967	803.1
485.176	820.73
485.384	804.45
485.593	839.91
485.801	803.1
486.01	760.86
486.218	713.01
486.426	685.69
486.635	691.69
486.843	704.48
487.051	730.83
487.26	719.79
487.468	758.34
487.676	789.92
487.885	762.02
488.093	802.52
488.301	837.39
488.509	801.74
488.717	862.58
488.926	838.55
489.134	806.78
489.342	826.35
489.55	802.9
489.758	826.93
489.967	823.05
490.175	923.03
490.383	893.38
490.591	948.41
490.799	858.9
491.007	949.38
491.215	927.48
491.423	874.59
491.631	909.27
491.839	869.75
492.047	931.94
492.255	834.49
492.463	867.62
492.671	853.67
492.879	924
493.087	895.32
493.295	933.1
493.503	952.87
493.711	932.33
493.919	954.22
494.127	975.34
494.334	994.33
494.542	909.66
494.75	989.68
494.958	959.65
495.166	1022.81
495.374	1015.83
495.581	1037.92
495.789	1017.58
495.997	1053.81
496.205	984.83
496.412	1005.56
496.62	1004.01
496.828	1041.21
497.035	1030.56
497.243	1082.29
497.451	1040.05
497.658	1056.91
497.866	1030.75
498.074	1096.43
498.281	1023.58
498.489	1094.88
498.696	1054.39
498.904	1042.38
499.112	1058.26
499.319	1121.04
499.527	1055.74
499.734	1117.94
499.942	1005.76
500.149	1040.44
500.357	1084.81
500.564	1057.49
500.771	1085.39
500.979	1033.08
501.186	1049.54
501.394	1101.86
501.601	1085.97
501.808	1097.79
502.016	1069.89
502.223	1067.18
502.43	1091.98
502.638	1112.32
502.845	1084.61
503.052	1178.97
503.26	1118.13
503.467	1191.37
503.674	1190.21
503.881	1161.72
504.089	1184.78
504.296	1167.92
504.503	1108.06
504.71	1152.62
504.917	1112.71
505.125	1183.62
505.332	1141.96
505.539	1206.09
505.746	1285.53
505.953	1283.2
506.16	1276.23
506.367	1325.83
506.574	1336.68
506.781	1323.12
506.988	1290.76
507.195	1294.44
507.402	1245.81
507.609	1355.28
507.816	1277.97
508.023	1274.29
508.23	1252.01
508.437	1243.29
508.644	1317.5
508.851	1344.04
509.058	1373.88
509.265	1361.28
509.472	1387.05
509.679	1483.34
509.885	1409.14
510.092	1412.05
510.299	1417.47
510.506	1364.58
510.713	1408.56
510.92	1419.41
511.126	1431.03
511.333	1458.16
511.54	1505.24
511.746	1520.54
511.953	1524.61
512.16	1541.66
512.367	1510.28
512.573	1496.33
512.78	1545.54
512.987	1504.46
513.193	1529.65
513.4	1423.48
513.606	1538.37
513.813	1568.98
514.02	1562.39
514.226	1591.65
514.433	1640.86
514.639	1542.44
514.846	1584.48
515.052	1567.04
515.259	1596.49
515.465	1622.84
515.672	1628.46
515.878	1713.13
516.085	1671.09
516.291	1735.22
516.497	1685.04
516.704	1647.64
516.91	1582.35
517.117	1551.93
517.323	1501.94
517.529	1532.56
517.736	1559.29
517.942	1547.28
518.148	1592.42
518.354	1664.5
518.561	1659.46
518.767	1654.42
518.973	1705.96
519.179	1736.96
519.386	1729.6
519.592	1728.82
519.798	1766.02
520.004	1848.75
520.21	1861.73
520.417	1921.6
520.623	1880.33
520.829	1948.92
521.035	1933.03
521.241	1953.57
521.447	1999.29
521.653	2110.12
521.859	2001.43
522.065	2072.92
522.271	2133.56
522.477	2065.75
522.683	2119.42
522.889	2078.73
523.095	2058.19
523.301	2082.02
523.507	2076.99
523.713	2116.9
523.919	2108.37
524.125	2191.68
524.331	2202.53
524.537	2305.41
524.742	2267.25
524.948	2270.15
525.154	2328.66
525.36	2418.37
525.566	2301.54
525.772	2350.95
525.977	2309.1
526.183	2348.23
526.389	2379.04
526.595	2300.18
526.8	2282.55
527.006	2166.11
527.212	2163.79
527.417	2138.4
527.623	2151.58
527.829	2236.05
528.034	2277.51
528.24	2318.2
528.446	2300.18
528.651	2400.16
528.857	2423.79
529.062	2463.9
529.268	2438.52
529.473	2521.25
529.679	2520.67
529.884	2583.44
530.09	2576.47
530.295	2561.94
530.501	2559.03
530.706	2564.65
530.912	2547.99
531.117	2606.69
531.323	2608.05
531.528	2668.5
531.733	2677.22
531.939	2643.5
532.144	2644.08
532.35	2624.71
532.555	2716.74
532.76	2605.53
532.966	2613.09
533.171	2567.75
533.376	2545.66
533.581	2535.2
533.787	2598.55
533.992	2626.65
534.197	2654.16
534.402	2666.37
534.607	2657.65
534.813	2753.75
535.018	2669.85
535.223	2709.18
535.428	2715.96
535.633	2800.05
535.838	2775.64
536.043	2808.19
536.249	2927.15
536.454	2829.69
536.659	2902.74
536.864	2782.03
537.069	2810.9
537.274	2816.91
537.479	2786.49
537.684	2807.22
537.889	2738.63
538.094	2931.8
538.299	2814.19
538.504	2862.44
538.708	2829.89
538.913	2874.06
539.118	2877.94
539.323	2863.6
539.528	2822.14
539.733	2798.11
539.938	2815.36
540.142	2836.86
540.347	2816.52
540.552	2788.04
540.757	2783.78
540.962	2790.17
541.166	2750.06
541.371	2710.73
541.576	2772.35
541.781	2687.87
541.985	2878.91
542.19	2826.98
542.395	2886.46
542.599	2967.45
542.804	2887.24
543.008	2956.79
543.213	2882.2
543.418	2831.63
543.622	2913.97
543.827	2814.78
544.031	2903.51
544.236	2927.15
544.44	2928.12
544.645	3006.59
544.849	2939.74
545.054	2989.73
545.258	3071.3
545.463	3007.36
545.667	2943.42
545.872	3008.33
546.076	2997.67
546.281	2981.59
546.485	2981.01
546.689	3046.11
546.894	2997.48
547.098	3028.09
547.302	2979.27
547.507	3020.34
547.711	3019.76
547.915	3047.85
548.119	2950.59
548.324	2968.61
548.528	3019.18
548.732	2995.74
548.936	3063.35
549.141	3029.06
549.345	3003.68
549.549	3047.66
549.753	3069.36
549.957	3109.08
550.161	3153.25
550.366	3083.5
550.57	3039.52
550.774	3080.79
550.978	3064.13
551.182	3095.32
551.386	3023.64
551.59	3074.59
551.794	3063.74
551.998	3055.02
552.202	3070.72
552.406	3032.55
552.61	3108.11
552.814	3129.81
553.018	3119.73
553.222	3082.34
553.426	3021.5
553.63	3142.01
553.833	3059.09
554.037	3020.73
554.241	3049.21
554.445	3080.6
554.649	3115.67
554.853	3044.75
555.056	3125.35
555.26	3162.75
555.464	3103.85
555.668	3074.01
555.871	3123.8
556.075	3092.61
556.279	3016.47
556.483	3011.24
556.686	3040.69
556.89	3077.69
557.094	3022.86
557.297	2953.31
557.501	3016.27
557.704	2942.07
557.908	3012.59
558.112	2971.52
558.315	3010.07
558.519	2960.47
558.722	2896.73
558.926	2907.19
559.129	2840.35
559.333	2861.86
559.536	2849.07
559.74	2822.72
559.943	2814.58
560.147	2843.64
560.35	2847.52
560.553	2843.84
560.757	2783.97
560.96	2925.02
561.164	2847.71
561.367	2934.12
561.57	2886.85
561.774	2859.92
561.977	2844.03
562.18	2820.01
562.384	2912.04
562.587	2833.96
562.79	2872.71
562.993	2825.82
563.197	2817.88
563.4	2875.42
563.603	2886.46
563.806	2881.04
564.009	2802.76
564.212	2777.77
564.416	2732.24
564.619	2763.24
564.822	2705.11
565.025	2783.58
565.228	2765.95
565.431	2738.83
565.634	2652.03
565.837	2673.92
566.04	2637.5
566.243	2646.02
566.446	2541.79
566.649	2646.8
566.852	2599.91
567.055	2614.83
567.258	2630.72
567.461	2693.3
567.664	2690.58
567.867	2571.04
568.07	2630.91
568.273	2625.68
568.475	2673.92
568.678	2581.7
568.881	2546.24
569.084	2487.73
569.287	2425.54
569.489	2471.26
569.692	2504.39
569.895	2498.19
570.098	2448.79
570.3	2455.37
570.503	2347.26
570.706	2400.74
570.909	2371.09
571.111	2357.53
571.314	2318.78
571.516	2343.39
571.719	2317.43
571.922	2343.97
572.124	2333.31
572.327	2322.27
572.529	2292.43
572.732	2342.61
572.935	2333.31
573.137	2425.34
573.34	2333.51
573.542	2391.05
573.745	2361.41
573.947	2379.43
574.15	2304.06
574.352	2279.45
574.554	2337.77
574.757	2240.7
574.959	2237.22
575.162	2228.5
575.364	2198.47
575.566	2308.51
575.769	2175.22
575.971	2208.93
576.173	2104.3
576.376	2185.87
576.578	2192.07
576.78	2241.09
576.982	2116.9
577.185	2145.96
577.387	2091.52
577.589	2150.22
577.791	2170.95
577.993	2149.45
578.196	2101.79
578.398	2136.08
578.6	2154.68
578.802	2088.81
579.004	2044.24
579.206	2097.33
579.408	2107.21
579.61	2062.65
579.812	2139.76
580.014	2066.91
580.216	2095
580.418	2138.6
580.62	2104.11
580.822	2055.48
581.024	2098.1
581.226	2143.64
581.428	2117.67
581.63	2228.11
581.832	2105.66
582.034	2175.41
582.236	2111.67
582.438	2163.98
582.64	2189.36
582.841	2195.95
583.043	2239.15
583.245	2166.69
583.447	2148.67
583.649	2140.92
583.85	2175.6
584.052	2189.17
584.254	2108.57
584.456	2180.45
584.657	2086.48
584.859	2120
585.061	2109.15
585.262	2112.25
585.464	2061.29
585.666	2122.32
585.867	2074.86
586.069	2150.8
586.27	2087.84
586.472	2063.81
586.674	2050.83
586.875	2053.93
587.077	2087.06
587.278	2037.66
587.48	2054.9
587.681	2123.68
587.883	2035.14
588.084	1958.61
588.285	1999.88
588.487	1939.62
588.688	1965.97
588.89	1894.67
589.091	1817.37
589.292	1819.5
589.494	1764.67
589.695	1752.07
589.896	1658.3
590.098	1677.87
590.299	1771.45
590.5	1755.37
590.702	1782.49
590.903	1786.95
591.104	1861.54
591.305	1840.81
591.507	1867.74
591.708	1842.55
591.909	1844.68
592.11	1897.38
592.311	1891.96
592.512	1826.08
592.714	1827.63
592.915	1858.25
593.116	1820.08
593.317	1850.11
593.518	1848.56
593.719	1849.53
593.92	1852.82
594.121	1902.42
594.322	1858.83
594.523	1844.1
594.724	1817.75
594.925	1822.21
595.126	1786.75
595.327	1817.37
595.528	1808.07
595.729	1814.46
595.929	1789.27
596.13	1818.92
596.331	1861.15
596.532	1802.45
596.733	1880.33
596.934	1856.89
597.135	1856.89
597.335	1859.99
597.536	1827.25
597.737	1861.54
597.938	1821.63
598.138	1848.36
598.339	1810.39
598.54	1829.76
598.74	1788.3
598.941	1847.78
599.142	1893.51
599.342	1858.25
599.543	1797.22
599.744	1813.1
599.944	1851.27
600.145	1847.4
600.345	1822.6
600.546	1901.45
600.746	1857.08
600.947	1910.75
601.147	1836.16
601.348	1862.31
601.548	1799.35
601.749	1793.92
601.949	1795.47
602.15	1766.22
602.35	1758.47
602.551	1830.73
602.751	1786.37
602.951	1803.8
603.152	1786.37
603.352	1842.75
603.552	1792.37
603.753	1864.83
603.953	1831.51
604.153	1827.25
604.354	1761.57
604.554	1810.58
604.754	1800.51
604.954	1793.92
605.155	1837.9
605.355	1810.2
605.555	1831.9
605.755	1823.37
605.955	1780.36
606.155	1808.07
606.356	1797.41
606.556	1804.38
606.756	1788.11
606.956	1754.2
607.156	1808.07
607.356	1749.55
607.556	1807.87
607.756	1759.43
607.956	1781.13
608.156	1786.56
608.356	1719.72
608.556	1762.73
608.756	1729.6
608.956	1737.93
609.156	1727.08
609.356	1722.62
609.556	1656.75
609.755	1737.93
609.955	1691.04
610.155	1687.36
610.355	1719.33
610.555	1647.84
610.755	1669.34
610.954	1613.93
611.154	1678.06
611.354	1736.96
611.554	1636.6
611.753	1652.87
611.953	1602.5
612.153	1698.6
612.352	1657.91
612.552	1601.92
612.752	1605.21
612.951	1603.66
613.151	1626.33
613.351	1626.33
613.55	1596.49
613.75	1660.43
613.949	1608.7
614.149	1629.43
614.348	1627.69
614.548	1563.56
614.747	1529.46
614.947	1562.59
615.146	1502.14
615.346	1601.14
615.545	1589.52
615.745	1585.84
615.944	1573.05
616.144	1546.89
616.343	1586.42
616.542	1506.21
616.742	1534.11
616.941	1542.83
617.14	1477.15
617.34	1526.74
617.539	1553.09
617.738	1543.21
617.938	1588.55
618.137	1526.36
618.336	1491.29
618.535	1523.26
618.734	1554.45
618.934	1545.15
619.133	1536.82
619.332	1531.01
619.531	1476.18
619.73	1522.48
619.929	1547.09
620.128	1546.89
620.328	1552.9
620.527	1514.34
620.726	1504.08
620.925	1544.76
621.124	1492.26
621.323	1543.6
621.522	1446.53
621.721	1474.43
621.92	1475.4
622.119	1494.39
622.318	1440.53
622.517	1468.62
622.715	1459.32
622.914	1407.98
623.113	1436.26
623.312	1398.87
623.511	1462.42
623.71	1426.58
623.909	1381.05
624.107	1472.11
624.306	1371.94
624.505	1397.9
624.704	1423.86
624.902	1375.04
625.101	1453.7
625.3	1415.15
625.499	1375.62
625.697	1407.4
625.896	1342.1
626.095	1383.76
626.293	1328.73
626.492	1371.17
626.69	1398.29
626.889	1371.55
627.088	1383.57
627.286	1371.75
627.485	1356.05
627.683	1296.57
627.882	1345.2
628.08	1272.55
628.279	1279.14
628.477	1331.83
628.676	1274.49
628.874	1312.27
629.073	1254.53
629.271	1267.12
629.469	1304.32
629.668	1293.67
629.866	1289.4
630.065	1261.89
630.263	1292.5
630.461	1240.39
630.66	1310.13
630.858	1311.3
631.056	1335.52
631.254	1342.1
631.453	1302
631.651	1347.14
631.849	1336.87
632.047	1320.4
632.245	1320.4
632.444	1318.85
632.642	1329.9
632.84	1326.99
633.038	1317.5
633.236	1277.78
633.434	1303.35
633.632	1298.12
633.83	1285.53
634.028	1307.03
634.227	1315.75
634.425	1380.47
634.623	1327.57
634.821	1311.1
635.019	1319.63
635.216	1295.99
635.414	1344.43
635.612	1318.08
635.81	1322.15
636.008	1354.7
636.206	1337.84
636.404	1337.84
636.602	1271.77
636.8	1317.3
636.997	1355.28
637.195	1342.68
637.393	1337.84
637.591	1371.17
637.789	1339.58
637.986	1315.95
638.184	1346.95
638.382	1380.08
638.58	1325.44
638.777	1362.83
638.975	1311.68
639.173	1317.5
639.37	1332.61
639.568	1278.17
639.765	1331.45
639.963	1293.47
640.161	1344.43
640.358	1325.44
640.556	1227.21
640.753	1282.04
640.951	1249.3
641.148	1277.59
641.346	1264.41
641.543	1267.9
641.741	1302.77
641.938	1214.42
642.136	1229.54
642.333	1194.86
642.531	1264.22
642.728	1259.57
642.925	1232.83
643.123	1214.04
643.32	1257.24
643.517	1215.01
643.715	1226.05
643.912	1171.61
644.109	1206.67
644.306	1193.11
644.504	1176.45
644.701	1182.07
644.898	1196.6
645.095	1139.64
645.293	1181.68
645.49	1200.09
645.687	1169.67
645.884	1205.9
646.081	1102.83
646.278	1139.64
646.475	1123.36
646.672	1111.93
646.87	1120.84
647.067	1089.84
647.264	1107.86
647.461	1082.48
647.658	1065.63
647.855	1083.84
648.052	1070.28
648.249	974.95
648.446	1053.42
648.642	1051.29
648.839	1011.18
649.036	1050.32
649.233	967.59
649.43	979.99
649.627	966.04
649.824	1033.08
650.021	998.4
650.217	1004.98
650.414	1014.09
650.611	1024.75
650.808	1041.99
651.004	1034.05
651.201	1064.66
651.398	1073.96
651.595	1005.37
651.791	987.74
651.988	1058.46
652.185	1004.4
652.381	1006.53
652.578	944.73
652.775	1011.18
652.971	985.03
653.168	983.67
653.364	1054
653.561	961.78
653.757	1013.12
653.954	1011.57
654.15	1011.38
654.347	1057.68
654.543	1029.78
654.74	948.22
654.936	942.02
655.133	994.91
655.329	1003.05
655.525	994.71
655.722	978.25
655.918	934.27
656.115	931.75
656.311	863.35
656.507	835.26
656.704	774.42
656.9	833.71
657.096	854.25
657.292	857.74
657.489	879.82
657.685	939.11
657.881	869.94
658.077	922.64
658.273	935.23
658.47	1023.39
658.666	946.67
658.862	952.87
659.058	926.13
659.254	953.06
659.45	925.35
659.646	955.77
659.842	912.57
660.038	978.44
660.234	893
660.43	907.33
660.626	993.75
660.822	976.31
661.018	959.06
661.214	932.13
661.41	873.43
661.606	970.69
661.802	1005.18
661.998	923.42
662.194	904.62
662.39	948.02
662.586	965.26
662.781	912.57
662.977	919.93
663.173	979.02
663.369	919.15
663.564	921.67
663.76	951.32
663.956	906.56
664.152	963.52
664.347	844.37
664.543	886.99
664.739	904.62
664.934	872.46
665.13	854.44
665.326	925.93
665.521	908.3
665.717	854.64
665.912	844.37
666.108	806.97
666.304	846.69
666.499	846.5
666.695	789.54
666.89	828.48
667.086	889.9
667.281	879.43
667.477	899.2
667.672	859.87
667.867	855.02
668.063	862.77
668.258	844.95
668.454	866.45
668.649	900.55
668.844	866.26
669.04	859.48
669.235	827.51
669.43	837
669.626	791.67
669.821	809.3
670.016	809.69
670.211	805.81
670.407	784.11
670.602	855.8
670.797	835.26
670.992	857.93
671.187	783.92
671.382	840.88
671.578	784.69
671.773	820.92
671.968	776.75
672.163	820.73
672.358	825.77
672.553	792.25
672.748	807.75
672.943	867.42
673.138	803.29
673.333	846.69
673.528	778.3
673.723	832.94
673.918	801.35
674.113	761.83
674.308	865.1
674.503	789.54
674.698	799.42
674.892	797.09
675.087	836.23
675.282	793.8
675.477	772.49
675.672	822.47
675.867	797.48
676.061	739.94
676.256	744.59
676.451	750.59
676.646	784.5
676.84	740.13
677.035	759.31
677.23	750.01
677.424	797.29
677.619	787.6
677.814	815.69
678.008	813.95
678.203	767.64
678.397	766.67
678.592	780.04
678.787	836.42
678.981	799.8
679.176	766.67
679.37	753.11
679.565	746.14
679.759	772.87
679.954	804.26
680.148	859.67
680.342	817.24
680.537	800.58
680.731	783.92
680.926	813.75
681.12	793.41
681.314	759.31
681.509	790.5
681.703	802.32
681.897	854.44
682.092	814.72
682.286	799.42
682.48	883.31
682.674	839.91
682.869	789.92
683.063	821.31
683.257	883.31
683.451	797.29
683.645	800.97
683.839	814.34
684.034	846.69
684.228	862.58
684.422	769.58
684.616	786.05
684.81	843.79
685.004	794.96
685.198	837.39
685.392	840.69
685.586	824.8
685.78	843.59
685.974	849.79
686.168	885.63
686.362	925.93
686.556	827.9
686.75	756.6
686.944	753.31
687.138	736.45
687.331	661.47
687.525	647.52
687.719	614.58
687.913	656.24
688.107	658.76
688.301	674.84
688.494	704.87
688.688	635.31
688.882	656.24
689.076	650.81
689.269	687.24
689.463	803.1
689.657	740.52
689.85	725.79
690.044	728.12
690.238	721.72
690.431	762.22
690.625	767.84
690.818	817.44
691.012	829.64
691.205	870.91
691.399	836.62
691.593	864.32
691.786	912.95
691.98	962.36
692.173	960.81
692.366	970.69
692.56	985.61
692.753	1008.47
692.947	958.48
693.14	1018.74
693.333	1029.4
693.527	980.38
693.72	1033.85
693.914	1038.7
694.107	1023.58
694.3	1051.48
694.493	1044.89
694.687	1109.41
694.88	1088.68
695.073	1174.12
695.266	1159.01
695.46	1159.79
695.653	1184.01
695.846	1210.36
696.039	1180.91
696.232	1217.72
696.425	1289.6
696.618	1325.63
696.812	1317.11
697.005	1425.22
697.198	1494.39
697.391	1404.88
697.584	1432.97
697.777	1494
697.97	1495.74
698.163	1493.81
698.356	1497.49
698.549	1579.25
698.742	1544.96
698.935	1517.64
699.127	1534.88
699.32	1514.93
699.513	1547.67
699.706	1563.75
699.899	1617.61
700.092	1598.24
700.285	1638.92
700.477	1579.06
700.67	1664.89
700.863	1670.31
701.056	1785.78
701.248	1751.88
701.441	1737.35
701.634	1739.29
701.826	1808.45
702.019	1710.42
702.212	1815.62
702.404	1782.49
702.597	1762.73
702.79	1802.83
702.982	1871.23
703.175	1889.05
703.367	1945.43
703.56	1945.82
703.752	2053.93
703.945	1995.42
704.137	2010.72
704.33	2101.2
704.522	2082.8
704.715	2076.41
704.907	2114.57
705.1	2189.36
705.292	2155.45
705.484	2153.52
705.677	2203.31
705.869	2208.35
706.061	2252.13
706.254	2286.04
706.446	2292.43
706.638	2283.13
706.831	2335.06
707.023	2306.77
707.215	2418.37
707.407	2436.97
707.599	2408.29
707.792	2516.6
707.984	2470.49
708.176	2507.49
708.368	2494.12
708.56	2522.99
708.752	2542.17
708.944	2533.65
709.136	2577.44
709.329	2563.68
709.521	2691.94
709.713	2639.82
709.905	2657.45
710.097	2727.01
710.289	2687.48
710.481	2696.4
710.672	2715.19
710.864	2750.45
711.056	2794.04
711.248	2795.4
711.44	2821.36
711.632	2833.38
711.824	2879.87
712.016	2856.82
712.207	2940.52
712.399	2903.9
712.591	2945.36
712.783	2925.02
712.975	2957.96
713.166	2904.29
713.358	2945.17
713.55	3032.35
713.741	3005.23
713.933	3037.2
714.125	3032.16
714.316	3020.73
714.508	3054.25
714.7	3092.8
714.891	3034.68
715.083	3084.28
715.274	3067.03
715.466	3117.41
715.657	3136.01
715.849	3034.68
716.04	3051.15
716.232	2986.24
716.423	3023.05
716.615	2893.05
716.806	2852.94
716.998	2799.66
717.189	2700.27
717.381	2587.7
717.572	2538.88
717.763	2568.72
717.955	2497.61
718.146	2458.86
718.337	2388.34
718.528	2366.06
718.72	2262.98
718.911	2319.75
719.102	2271.9
719.293	2282.55
719.485	2254.27
719.676	2217.07
719.867	2208.54
720.058	2223.65
720.249	2213
720.44	2239.15
720.632	2333.9
720.823	2365.67
721.014	2500.52
721.205	2570.85
721.396	2660.75
721.587	2794.82
721.778	2857.79
721.969	2909.13
722.16	2985.08
722.351	3016.08
722.542	3187.74
722.733	3107.53
722.924	3071.1
723.115	3110.43
723.305	3033.71
723.496	3057.93
723.687	2911.26
723.878	2943.23
724.069	2905.45
724.26	2896.54
724.45	2815.74
724.641	2809.35
724.832	2821.56
725.023	2806.25
725.213	2838.99
725.404	2784.75
725.595	2754.91
725.785	2769.25
725.976	2799.47
726.167	2842.68
726.357	2810.51
726.548	2965.32
726.739	2853.14
726.929	2992.25
727.12	2976.36
727.31	2989.73
727.501	2903.32
727.691	2934.51
727.882	2944.2
728.072	2953.69
728.263	2973.84
728.453	3077.5
728.644	3052.7
728.834	3005.04
729.024	3009.49
729.215	2984.3
729.405	3010.65
729.596	3119.35
729.786	3112.18
729.976	3117.02
730.167	3153.06
730.357	3115.67
730.547	3115.67
730.737	3129.42
730.928	3131.36
731.118	3211.18
731.308	3146.28
731.498	3209.44
731.688	3260.2
731.879	3284.42
732.069	3329.95
732.259	3387.11
732.449	3469.06
732.639	3566.13
732.829	3563.61
733.019	3598.87
733.209	3711.24
733.399	3719.77
733.589	3813.54
733.779	3816.26
733.969	3855.2
734.159	3960.79
734.349	3983.07
734.539	4008.26
734.729	4000.7
734.919	4041.97
735.109	4087.11
735.299	4035.96
735.488	4064.25
735.678	4025.89
735.868	4067.74
736.058	4056.89
736.248	4025.7
736.437	3945.29
736.627	4014.26
736.817	4128.19
737.007	4088.28
737.196	4153.57
737.386	4118.89
737.576	4048.56
737.765	4130.71
737.955	4112.49
738.144	4233.97
738.334	4198.52
738.524	4092.54
738.713	4181.86
738.903	4189.22
739.092	4202.01
739.282	4178.56
739.471	4255.87
739.661	4241.72
739.85	4290.35
740.04	4249.28
740.229	4300.43
740.419	4379.67
740.608	4419
740.797	4364.75
740.987	4377.35
741.176	4377.15
741.365	4366.11
741.555	4271.76
741.744	4389.36
741.933	4342.67
742.123	4319.22
742.312	4396.33
742.501	4419
742.69	4437.8
742.88	4383.16
743.069	4499.21
743.258	4445.16
743.447	4501.35
743.636	4527.11
743.825	4394.78
744.014	4427.33
744.204	4531.38
744.393	4485.85
744.582	4562.18
744.771	4574
744.96	4533.31
745.149	4546.49
745.338	4532.54
745.527	4556.37
745.716	4494.76
745.905	4506.77
746.094	4547.07
746.283	4569.54
746.471	4539.13
746.66	4569.74
746.849	4611.98
747.038	4589.5
747.227	4520.53
747.416	4554.24
747.604	4513.16
747.793	4553.85
747.982	4477.51
748.171	4565.48
748.359	4537.19
748.548	4538.74
748.737	4522.08
748.926	4543.39
749.114	4399.82
749.303	4511.03
749.491	4490.3
749.68	4430.05
749.869	4527.7
750.057	4507.16
750.246	4463.18
750.434	4448.07
750.623	4409.51
750.811	4421.52
751	4480.42
751.188	4426.75
751.377	4446.13
751.565	4417.07
751.754	4415.52
751.942	4373.67
752.131	4424.82
752.319	4396.92
752.507	4404.67
752.696	4424.82
752.884	4425.2
753.072	4387.23
753.261	4396.72
753.449	4401.76
753.637	4375.6
753.825	4479.06
754.014	4341.12
754.202	4399.43
754.39	4496.7
754.578	4442.45
754.766	4341.89
754.955	4290.55
755.143	4414.16
755.331	4342.09
755.519	4341.31
755.707	4357.59
755.895	4326
756.083	4338.4
756.271	4305.08
756.459	4308.95
756.647	4296.17
756.835	4295
757.023	4295
757.211	4260.13
757.399	4318.84
757.587	4254.12
757.775	4177.59
757.963	4232.42
758.151	4275.05
758.339	4220.02
758.526	4182.83
758.714	4194.45
758.902	4042.94
759.09	3936.57
759.278	3735.85
759.465	3419.46
759.653	3008.91
759.841	2666.37
760.028	2289.53
760.216	2005.49
760.404	1850.11
760.591	1487.22
760.779	1286.89
760.967	1072.6
761.154	905.2
761.342	949.38
761.529	921.28
761.717	982.9
761.905	964.88
762.092	1035.01
762.28	956.74
762.467	935.62
762.655	888.93
762.842	899
763.029	914.5
763.217	924.38
763.404	898.42
763.592	905.59
763.779	870.72
763.966	930.39
764.154	975.34
764.341	1008.47
764.528	1027.46
764.716	1112.71
764.903	1194.47
765.09	1256.47
765.277	1357.8
765.465	1531.39
765.652	1610.25
765.839	1691.62
766.026	1853.79
766.213	1908.62
766.4	2064.01
766.588	2274.03
766.775	2300.18
766.962	2460.61
767.149	2530.55
767.336	2732.43
767.523	2718.48
767.71	2873.68
767.897	3038.17
768.084	3130
768.271	3152.67
768.458	3226.88
768.645	3345.06
768.832	3374.51
769.019	3367.34
769.206	3438.25
769.392	3502.38
769.579	3596.16
769.766	3556.05
769.953	3568.65
770.14	3715.7
770.327	3659.9
770.513	3692.84
770.7	3790.68
770.887	3693.03
771.073	3740.31
771.26	3714.15
771.447	3722.87
771.634	3653.12
771.82	3787.97
772.007	3684.7
772.193	3775.37
772.38	3766.85
772.567	3754.84
772.753	3723.06
772.94	3725.97
773.126	3750.38
773.313	3786.42
773.499	3774.99
773.686	3788.74
773.872	3756.39
774.059	3803.66
774.245	3728.29
774.432	3721.13
774.618	3636.85
774.804	3700.01
774.991	3638.78
775.177	3734.88
775.363	3684.51
775.55	3676.18
775.736	3635.49
775.922	3658.55
776.109	3668.62
776.295	3650.41
776.481	3710.47
776.667	3697.1
776.853	3635.1
777.04	3607.01
777.226	3651.18
777.412	3707.76
777.598	3603.52
777.784	3570.78
777.97	3576.78
778.156	3607.59
778.342	3619.6
778.528	3550.24
778.715	3561.28
778.901	3564.97
779.087	3544.23
779.272	3547.92
779.458	3551.79
779.644	3547.33
779.83	3488.05
780.016	3603.71
780.202	3533.38
780.388	3541.52
780.574	3435.93
780.76	3523.7
780.946	3517.88
781.131	3500.25
781.317	3502.77
781.503	3453.17
781.689	3425.08
781.874	3576.78
782.06	3424.3
782.246	3500.45
782.432	3444.84
782.617	3474.87
782.803	3507.03
782.989	3408.03
783.174	3388.07
783.36	3325.3
783.545	3405.32
783.731	3442.52
783.916	3260.2
784.102	3361.92
784.288	3326.66
784.473	3344.87
784.659	3328.21
784.844	3368.89
785.029	3314.26
785.215	3249.93
785.4	3245.67
785.586	3320.84
785.771	3232.11
785.956	3306.89
786.142	3236.18
786.327	3266.01
786.512	3243.15
786.698	3245.86
786.883	3201.88
787.068	3210.41
787.254	3219.71
787.439	3186.77
787.624	3139.5
787.809	3147.05
787.994	3185.22
788.18	3208.86
788.365	3113.92
788.55	3067.23
788.735	3132.52
788.92	3051.92
789.105	3073.23
789.29	3116.25
789.475	3013.56
789.66	3043.4
789.845	3007.75
790.03	3039.91
790.215	3008.33
790.4	3019.18
790.585	3052.5
790.77	3025.96
790.955	2929.28
791.14	3008.33
791.325	3033.52
791.51	2960.47
791.695	2973.65
791.879	2964.54
792.064	2905.45
792.249	3034.49
792.434	2949.82
792.618	2976.94
792.803	3017.44
792.988	2941.49
793.173	2990.12
793.357	2991.09
793.542	2929.47
793.727	2986.44
793.911	2995.74
794.096	2993.41
794.281	3043.59
794.465	3101.33
794.65	2958.34
794.834	3055.6
795.019	3099.97
795.203	3057.73
795.388	3075.75
795.572	3117.22
795.757	3031.58
795.941	3032.16
796.126	3027.12
796.31	2968.22
796.494	3031
796.679	2941.29
796.863	2939.55
797.048	3038.94
797.232	2983.34
797.416	3016.27
797.601	3024.41
797.785	3094.35
797.969	3067.03
798.153	2996.12
798.338	3090.87
798.522	3127.29
798.706	3064.52
798.89	3067.42
799.074	3141.63
799.258	3110.63
799.443	3077.5
799.627	3146.66
799.811	3113.34
799.995	3035.45
800.179	3039.72
800.363	3033.52
800.547	3068.58
800.731	3093.97
800.915	3010.07
801.099	2999.03
801.283	2988.95
801.467	3034.49
801.651	3009.1
801.835	3034.29
802.019	3058.9
802.202	3039.91
802.386	2979.85
802.57	2941.29
802.754	3009.49
802.938	2963.38
803.121	2998.06
803.305	3037.59
803.489	2996.12
803.673	3061.22
803.856	3024.41
804.04	3015.69
804.224	3048.05
804.407	3017.82
804.591	2953.69
804.775	3028.29
804.958	3038.94
805.142	3105.2
805.326	3023.64
805.509	3037.59
805.693	3070.13
805.876	3082.53
806.06	3038.36
806.243	3083.89
806.427	3114.89
806.61	3129.62
806.794	3022.67
806.977	3092.03
807.16	3045.14
807.344	3079.63
807.527	3054.83
807.71	3018.6
807.894	3040.69
808.077	3073.04
808.26	2999.61
808.444	3011.62
808.627	3060.83
808.81	2994.57
808.993	2902.54
809.177	2905.45
809.36	2970.55
809.543	2942.84
809.726	2844.42
809.909	2829.5
810.092	2851.98
810.276	2839.77
810.459	2867.67
810.642	2809.54
810.825	2745.41
811.008	2800.44
811.191	2726.43
811.374	2709.76
811.557	2702.79
811.74	2747.93
811.923	2642.15
812.106	2644.67
812.289	2614.05
812.472	2593.9
812.654	2591.77
812.837	2567.55
813.02	2479.4
813.203	2468.74
813.386	2368.77
813.569	2331.57
813.751	2284.49
813.934	2338.93
814.117	2264.34
814.3	2205.25
814.482	2184.13
814.665	2110.89
814.848	2093.84
815.03	2017.89
815.213	2019.83
815.396	2006.85
815.578	1952.6
815.761	1939.23
815.943	1960.54
816.126	1877.43
816.309	1838.1
816.491	1780.36
816.674	1738.9
816.856	1760.4
817.039	1794.31
817.221	1859.8
817.403	1784.04
817.586	1801.28
817.768	1810.58
817.951	1738.7
818.133	1735.41
818.315	1762.15
818.498	1789.66
818.68	1889.83
818.862	1808.65
819.045	1864.64
819.227	1869.68
819.409	1806.71
819.591	1872.97
819.774	1834.41
819.956	1776.48
820.138	1900.29
820.32	1917.73
820.502	2009.95
820.684	2084.93
820.866	2065.56
821.048	2095.59
821.231	2144.8
821.413	2125.42
821.595	2091.71
821.777	2089.39
821.959	2136.66
822.141	2178.9
822.323	2033.2
822.505	1932.26
822.686	1855.53
822.868	1773.19
823.05	1670.31
823.232	1621.68
823.414	1537.98
823.596	1631.56
823.778	1589.13
823.96	1617.03
824.141	1661.79
824.323	1681.74
824.505	1768.35
824.687	1832.28
824.868	1901.26
825.05	2002.97
825.232	2038.43
825.413	2101.2
825.595	2033.59
825.777	2014.6
825.958	2028.55
826.14	2018.09
826.321	2068.46
826.503	2052.77
826.685	2058.19
826.866	2068.85
827.048	2068.85
827.229	1997.74
827.411	1969.26
827.592	1896.41
827.773	1934.78
827.955	1858.44
828.136	1873.16
828.318	1828.99
828.499	1881.5
828.68	1799.93
828.862	1840.81
829.043	1852.05
829.224	1843.71
829.406	1784.43
829.587	1785.59
829.768	1845.46
829.949	1854.76
830.131	1839.45
830.312	1883.24
830.493	1869.48
830.674	1874.13
830.855	1856.89
831.036	1835
831.218	1888.28
831.399	1897.96
831.58	1868.51
831.761	1871.03
831.942	1877.81
832.123	1832.86
832.304	1818.53
832.485	1815.23
832.666	1838.29
832.847	1878.01
833.028	1846.81
833.209	1881.69
833.389	1808.65
833.57	1750.13
833.751	1817.95
833.932	1841.97
834.113	1853.4
834.294	1832.28
834.475	1877.43
834.655	1927.22
834.836	1901.45
835.017	1890.99
835.198	1871.03
835.378	1911.53
835.559	1927.99
835.74	1872.58
835.92	1902.61
836.101	1872.39
836.281	1900.87
836.462	1914.05
836.643	1925.09
836.823	1938.84
837.004	1962.09
837.184	1975.85
837.365	1954.93
837.545	1973.72
837.726	1903.58
837.906	1990.96
838.087	1965.97
838.267	1915.79
838.448	1896.61
838.628	1934.97
838.808	1931.87
838.989	1956.09
839.169	1910.36
839.349	1972.36
839.53	1965.58
839.71	1974.69
839.89	1913.46
840.07	1973.33
840.251	1922.38
840.431	2000.84
840.611	1937.1
840.791	1932.06
840.971	1954.54
841.151	1895.25
841.332	1899.32
841.512	1977.4
841.692	1891.57
841.872	1960.35
842.052	1937.88
842.232	1929.16
842.412	1876.46
842.592	1899.13
842.772	1950.86
842.952	1949.69
843.132	1899.71
843.312	1913.27
843.492	1879.17
843.672	1921.21
843.851	1849.91
844.031	1863.86
844.211	1865.03
844.391	1879.56
844.571	1899.32
844.751	1895.25
844.93	1892.73
845.11	1879.75
845.29	1906.68
845.47	1902.61
845.649	1880.72
845.829	1901.65
846.009	1869.68
846.188	1892.15
846.368	1881.5
846.547	1896.41
846.727	1937.88
846.907	1836.74
847.086	1902.42
847.266	1872.39
847.445	1876.65
847.625	1835.38
847.804	1838.1
847.984	1852.43
848.163	1857.66
848.343	1816.78
848.522	1835.38
848.701	1866.58
848.881	1775.9
849.06	1819.11
849.239	1833.83
849.419	1817.17
849.598	1773
849.777	1753.04
849.957	1719.72
850.136	1682.71
850.315	1682.9
850.494	1686.39
850.674	1708.87
850.853	1739.67
851.032	1721.85
851.211	1772.42
851.39	1718.55
851.569	1684.07
851.748	1638.54
851.927	1734.64
852.107	1711.77
852.286	1694.53
852.465	1708.48
852.644	1723.98
852.823	1704.8
853.002	1715.07
853.181	1678.06
853.359	1729.6
853.538	1646.48
853.717	1744.32
853.896	1581.96
854.075	1566.66
854.254	1510.86
854.433	1426.38
854.611	1459.9
854.79	1421.93
854.969	1499.43
855.148	1520.93
855.327	1455.25
855.505	1532.75
855.684	1514.93
855.863	1549.8
856.041	1530.04
856.22	1585.45
856.399	1558.33
856.577	1674.96
856.756	1648.61
856.934	1770.09
857.113	1739.67
857.291	1658.88
857.47	1591.07
857.648	1634.86
857.827	1662.37
858.005	1685.23
858.184	1650.55
858.362	1715.26
858.541	1644.35
858.719	1633.5
858.898	1583.9
859.076	1598.62
859.254	1644.16
859.433	1608.51
859.611	1576.54
859.789	1605.41
859.967	1664.3
860.146	1653.07
860.324	1549.22
860.502	1587.19
860.68	1548.83
860.859	1526.55
861.037	1579.06
861.215	1563.36
861.393	1584.87
861.571	1541.66
861.749	1563.17
861.927	1562.78
862.105	1545.15
862.283	1529.65
862.461	1519.19
862.639	1505.04
862.817	1493.81
862.995	1518.22
863.173	1522.29
863.351	1522.29
863.529	1556.19
863.707	1560.84
863.885	1563.94
864.063	1478.89
864.241	1463.97
864.418	1570.92
864.596	1467.07
864.774	1474.63
864.952	1477.92
865.129	1522.29
865.307	1441.3
865.485	1412.24
865.663	1493.61
865.84	1413.6
866.018	1435.3
866.196	1299.48
866.373	1301.42
866.551	1288.63
866.728	1234.77
866.906	1317.3
867.084	1312.27
867.261	1330.09
867.439	1362.45
867.616	1385.5
867.794	1378.53
867.971	1388.99
868.149	1374.46
868.326	1466.3
868.503	1438.2
868.681	1404.49
868.858	1384.53
869.035	1363.42
869.213	1415.92
869.39	1350.24
869.567	1474.05
869.745	1357.6
869.922	1390.93
870.099	1398.1
870.276	1435.1
870.454	1441.69
870.631	1410.88
870.808	1388.02
870.985	1398.87
871.162	1431.81
871.339	1370.78
871.517	1325.63
871.694	1327.96
871.871	1397.9
872.048	1368.07
872.225	1330.48
872.402	1352.76
872.579	1342.1
872.756	1386.08
872.933	1306.26
873.11	1339.39
873.287	1361.87
873.463	1317.3
873.64	1330.48
873.817	1360.51
873.994	1319.82
874.171	1295.8
874.348	1307.03
874.524	1268.67
874.701	1277
874.878	1237.87
875.055	1313.23
875.231	1268.87
875.408	1310.13
875.585	1254.72
875.762	1282.24
875.938	1274.68
876.115	1298.7
876.291	1265.38
876.468	1264.02
876.645	1226.24
876.821	1221.01
876.998	1226.82
877.174	1247.17
877.351	1225.08
877.527	1205.9
877.704	1250.65
877.88	1229.34
878.057	1202.22
878.233	1286.11
878.409	1203.57
878.586	1231.67
878.762	1232.05
878.938	1184.2
879.115	1139.64
879.291	1210.36
879.467	1181.1
879.644	1201.83
879.82	1225.85
879.996	1157.27
880.172	1122.01
880.349	1188.66
880.525	1197.37
880.701	1123.56
880.877	1128.79
881.053	1151.26
881.229	1147.97
881.405	1223.72
881.581	1115.61
881.757	1169.09
881.933	1178.58
882.109	1208.03
882.285	1168.51
882.461	1107.86
882.637	1151.46
882.813	1133.44
882.989	1132.86
883.165	1184.97
883.341	1121.81
883.517	1209.19
883.693	1154.36
883.869	1174.32
884.044	1129.17
884.22	1180.32
884.396	1192.92
884.572	1190.4
884.747	1182.84
884.923	1154.75
885.099	1183.04
885.275	1205.9
885.45	1145.45
885.626	1144.87
885.801	1159.59
885.977	1134.79
886.153	1075.12
886.328	1133.24
886.504	1111.35
886.679	1140.22
886.855	1148.36
887.03	1155.72
887.206	1179.55
887.381	1157.46
887.557	1141.57
887.732	1150.68
887.908	1185.17
888.083	1214.04
888.258	1124.91
888.434	1151.65
888.609	1151.46
888.784	1208.81
888.96	1155.14
889.135	1138.67
889.31	1138.86
889.485	1154.94
889.661	1151.84
889.836	1159.59
890.011	1167.92
890.186	1126.46
890.361	1102.24
890.537	1132.27
890.712	1143.51
890.887	1161.92
891.062	1135.96
891.237	1192.53
891.412	1114.64
891.587	1140.22
891.762	1159.21
891.937	1184.59
892.112	1111.54
892.287	1109.61
892.462	1070.86
892.637	1053.03
892.812	1039.28
892.987	1026.49
893.161	1015.45
893.336	1031.72
893.511	1012.54
893.686	1037.92
893.861	1023.58
894.035	1054.58
894.21	1049.74
894.385	992
894.56	1021.84
894.734	935.43
894.909	935.23
895.084	952.67
895.258	901.72
895.433	951.7
895.608	873.04
895.782	879.43
895.957	847.08
896.131	867.62
896.306	786.44
896.48	809.88
896.655	779.85
896.829	731.41
897.004	737.42
897.178	733.35
897.353	744.01
897.527	775.01
897.701	785.85
897.876	710.49
898.05	808.91
898.224	758.92
898.399	784.5
898.573	726.96
898.747	604.7
898.921	659.34
899.096	588.62
899.27	580.68
899.444	605.09
899.618	608.19
899.792	633.96
899.967	674.64
900.141	708.36
900.315	620.78
900.489	629.89
900.663	613.81
900.837	628.53
901.011	606.83
901.185	677.55
901.359	618.07
901.533	644.61
901.707	659.34
901.881	642.29
902.055	582.61
902.229	618.46
902.403	713.97
902.576	644.81
902.75	648.68
902.924	750.98
903.098	723.86
903.272	768.42
903.446	801.55
903.619	775.59
903.793	840.3
903.967	792.64
904.14	834.29
904.314	852.31
904.488	830.42
904.661	846.3
904.835	818.6
905.009	854.25
905.182	865.29
905.356	828.29
905.529	828.09
905.703	816.27
905.876	804.45
906.05	742.65
906.223	730.44
906.397	693.82
906.57	652.94
906.744	645.78
906.917	670.38
907.09	637.06
907.264	634.54
907.437	579.51
907.61	576.41
907.784	599.86
907.957	589.98
908.13	585.91
908.304	583.78
908.477	546
908.65	561.5
908.823	505.12
908.996	613.03
909.17	561.5
909.343	580.68
909.516	558.2
909.689	578.74
909.862	529.91
910.035	550.84
910.208	524.88
910.381	530.3
910.554	622.53
910.727	544.64
910.9	537.08
911.073	524.3
911.246	586.49
911.419	613.61
911.592	604.31
911.765	565.37
911.938	563.63
912.11	568.28
912.283	571.38
912.456	593.27
912.629	585.91
912.802	538.63
912.974	481.28
913.147	445.63
913.32	410.18
913.493	431.88
913.665	449.12
913.838	448.73
914.01	494.46
914.183	475.08
914.356	477.41
914.528	532.43
914.701	538.44
914.873	508.99
915.046	480.12
915.218	436.92
915.391	360.97
915.563	417.15
915.736	464.23
915.908	466.56
916.081	475.28
916.253	434.2
916.425	467.92
916.598	477.22
916.77	494.46
916.942	454.55
917.115	395.84
917.287	443.5
917.459	420.06
917.632	393.52
917.804	378.79
917.976	438.66
918.148	489.42
918.32	436.33
918.493	492.33
918.665	533.4
918.837	505.7
919.009	535.53
919.181	574.67
919.353	519.06
919.525	535.73
919.697	502.4
919.869	516.55
920.041	567.11
920.213	631.05
920.385	562.27
920.557	547.74
920.729	558.2
920.901	517.32
921.073	529.14
921.244	497.95
921.416	547.16
921.588	514.22
921.76	494.85
921.932	567.5
922.103	485.35
922.275	529.91
922.447	527.98
922.619	454.16
922.79	499.3
922.962	486.52
923.134	526.04
923.305	472.57
923.477	464.82
923.648	447.38
923.82	449.12
923.991	408.82
924.163	416.19
924.335	450.28
924.506	392.16
924.677	474.31
924.849	415.02
925.02	469.08
925.192	471.98
925.363	455.52
925.535	422.39
925.706	419.48
925.877	469.08
926.049	421.8
926.22	441.76
926.391	440.79
926.562	471.98
926.734	423.94
926.905	446.99
927.076	407.66
927.247	399.14
927.419	357.29
927.59	363.29
927.761	379.95
927.932	342.75
928.103	354.19
928.274	304.59
928.445	300.71
928.616	307.69
928.787	319.89
928.958	331.71
929.129	309.82
929.3	280.76
929.471	244.33
929.642	219.73
929.813	156.76
929.984	261.38
930.155	169.74
930.326	195.89
930.496	192.6
930.667	160.44
930.838	196.48
931.009	135.25
931.18	176.13
931.35	142.42
931.521	136.61
931.692	101.73
931.863	60.27
932.033	133.12
932.204	116.46
932.374	119.36
932.545	69.18
932.716	151.14
932.886	123.82
933.057	80.23
933.227	34.7
933.398	133.51
933.568	52.72
933.739	46.13
933.909	25.59
934.08	77.52
934.25	4.86
934.421	29.08
934.591	56.4
934.761	29.08
934.932	-25.36
935.102	63.37
935.272	34.31
935.443	60.47
935.613	37.22
935.783	65.5
935.953	22.49
936.123	181.94
936.294	32.57
936.464	57.95
936.634	41.67
936.804	25.78
936.974	16.1
937.144	27.92
937.314	37.22
937.484	19.2
937.655	13
937.825	80.23
937.995	25.01
938.165	73.25
938.334	42.45
938.504	57.95
938.674	53.3
938.844	65.5
939.014	98.25
939.184	126.53
939.354	149.4
939.524	133.51
939.694	79.07
939.863	85.46
940.033	157.73
940.203	128.08
940.373	118.59
940.542	127.7
940.712	103.09
940.882	120.33
941.051	157.15
941.221	144.55
941.391	145.91
941.56	82.55
941.73	68.22
941.899	210.23
942.069	71.9
942.238	102.7
942.408	75.38
942.577	93.98
942.747	89.53
942.916	12.8
943.086	62.21
943.255	106.96
943.425	100.18
943.594	57.75
943.763	23.46
943.933	22.3
944.102	2.15
944.271	74.61
944.441	81.97
944.61	38.57
944.779	66.67
944.948	150.75
945.117	27.53
945.287	65.31
945.456	13.19
945.625	23.27
945.794	83.52
945.963	49.23
946.132	90.3
946.301	59.3
946.47	92.24
946.639	33.53
946.808	40.32
946.977	72.09
947.146	123.82
947.315	52.91
947.484	103.28
947.653	56.59
947.822	54.07
947.991	34.5
948.16	122.08
948.329	86.04
948.498	86.62
948.666	68.41
948.835	104.06
949.004	35.47
949.173	35.67
949.341	79.84
949.51	67.44
949.679	109.29
949.847	95.34
950.016	111.03
950.185	120.53
950.353	54.46
950.522	63.95
950.69	101.54
950.859	48.45
951.028	78.1
951.196	62.98
951.365	58.33
951.533	54.65
951.701	105.61
951.87	76.35
952.038	64.92
952.207	90.11
952.375	132.73
952.543	67.25
952.712	71.7
952.88	40.9
953.048	129.25
953.217	108.32
953.385	56.2
953.553	115.1
953.721	45.55
953.89	69.38
954.058	19.2
954.226	32.37
954.394	79.45
954.562	1.76
954.73	74.22
954.898	85.07
955.067	87.4
955.235	47.1
955.403	106.96
955.571	123.05
955.739	61.82
955.907	54.65
956.075	26.17
956.243	41.87
956.41	81.97
956.578	35.28
956.746	36.05
956.914	47.1
957.082	94.76
957.25	103.28
957.418	65.89
957.585	98.05
957.753	93.6
957.921	61.24
958.089	78.29
958.256	89.91
958.424	94.95
958.592	104.06
958.759	49.23
958.927	78.29
959.095	25.78
959.262	69.38
959.43	87.2
959.597	30.63
959.765	67.05
959.932	43.61
960.1	110.65
960.267	84.3
960.435	75.19
960.602	89.53
960.77	56.78
960.937	43.61
961.104	78.1
961.272	51.36
961.439	61.63
961.606	90.3
961.774	105.03
961.941	59.5
962.108	75.19
962.275	71.51
962.443	85.65
962.61	104.25
962.777	179.81
962.944	115.88
963.111	101.93
963.278	107.93
963.446	72.09
963.613	80.81
963.78	93.21
963.947	108.71
964.114	115.68
964.281	165.67
964.448	112
964.615	86.62
964.782	103.67
964.949	115.88
965.116	98.25
965.282	135.45
965.449	77.32
965.616	57.56
965.783	118.59
965.95	109.87
966.117	56.4
966.283	101.93
966.45	113.75
966.617	113.55
966.784	137.19
966.95	131.96
967.117	130.99
967.284	93.6
967.45	83.33
967.617	175.36
967.784	142.61
967.95	163.54
968.117	102.12
968.283	145.71
968.45	213.14
968.616	123.24
968.783	165.09
968.949	149.59
969.116	159.47
969.282	108.9
969.449	141.65
969.615	138.35
969.781	84.88
969.948	123.24
970.114	85.26
970.28	176.91
970.447	115.1
970.613	181.75
970.779	136.41
970.945	170.32
971.112	121.88
971.278	115.68
971.444	110.65
971.61	141.84
971.776	105.41
971.942	138.35
972.108	148.81
972.275	113.75
972.441	125.56
972.607	188.34
972.773	100.96
972.939	113.55
973.105	120.33
973.271	66.08
973.437	117.81
973.602	84.68
973.768	125.18
973.934	97.08
974.1	133.31
974.266	71.32
974.432	96.7
974.598	87.78
974.763	138.93
974.929	98.25
975.095	153.46
975.261	93.98
975.426	64.92
975.592	105.61
975.758	144.94
975.923	71.9
976.089	87.59
976.255	127.89
976.42	125.56
976.586	128.66
976.751	110.26
976.917	176.71
977.082	145.33
977.248	114.71
977.413	46.32
977.579	106
977.744	138.16
977.91	59.69
978.075	72.87
978.24	119.56
978.406	96.7
978.571	86.81
978.736	76.55
978.902	128.66
979.067	77.13
979.232	70.73
979.397	116.07
979.563	162.76
979.728	81.97
979.893	96.89
980.058	99.02
980.223	148.43
980.388	110.65
980.554	101.93
980.719	103.86
980.884	117.23
981.049	142.42
981.214	85.07
981.379	119.56
981.544	95.53
981.709	119.95
981.874	75.58
982.039	100.18
982.204	117.43
982.368	120.14
982.533	80.81
982.698	151.14
982.863	137.19
983.028	99.41
983.193	109.68
983.357	116.65
983.522	96.31
983.687	77.71
983.852	107.93
984.016	88.56
984.181	115.68
984.346	118.2
984.51	92.24
984.675	115.3
984.839	139.32
985.004	101.54
985.168	134.48
985.333	109.68
985.498	99.41
985.662	121.69
985.827	105.61
985.991	95.34
986.155	100.76
986.32	142.61
986.484	152.3
986.649	114.33
986.813	46.9
986.977	99.21
987.142	126.34
987.306	52.52
987.47	72.67
987.634	113.55
987.799	120.14
987.963	124.21
988.127	133.12
988.291	161.21
988.455	97.47
988.62	93.4
988.784	123.82
988.948	113.75
989.112	80.42
989.276	104.25
989.44	98.25
989.604	68.41
989.768	74.8
989.932	162.96
990.096	48.84
990.26	54.27
990.424	81
990.588	117.04
990.752	185.63
990.915	143.2
991.079	95.53
991.243	90.69
991.407	112.2
991.571	70.93
991.734	103.28
991.898	122.85
992.062	168.96
992.226	109.48
992.389	84.3
992.553	56.98
992.717	75.38
992.88	85.07
993.044	106.19
993.207	112
993.371	112.39
993.535	114.71
993.698	90.5
993.862	113.55
994.025	124.6
994.189	116.65
994.352	85.26
994.515	104.45
994.679	88.17
994.842	74.42
995.006	108.9
995.169	72.28
995.332	65.31
995.496	114.52
995.659	54.27
995.822	92.24
995.985	80.03
996.149	112.39
996.312	81
996.475	143.78
996.638	90.69
996.801	124.98
996.964	147.46
997.128	89.91
997.291	75
997.454	93.01
997.617	41.67
997.78	121.88
997.943	60.08
998.106	110.45
998.269	75.77
998.432	78.29
998.595	74.61
998.758	27.92
998.92	49.03
999.083	31.6
999.246	76.55
999.409	50.2
999.572	18.23
999.735	61.24
999.897	87.2
1000.06	56.78
1000.223	37.6
1000.386	88.95
1000.548	89.33
1000.711	89.53
1000.874	93.79
1001.036	32.37
1001.199	107.55
1001.361	57.37
1001.524	44.97
1001.687	87.01
1001.849	42.64
1002.012	77.52
1002.174	88.56
1002.337	89.72
1002.499	64.53
1002.661	79.45
1002.824	59.88
1002.986	69.77
1003.149	94.76
1003.311	56.01
1003.473	110.65
1003.636	59.11
1003.798	56.98
1003.96	88.17
1004.123	67.83
1004.285	38.77
1004.447	60.27
1004.609	61.24
1004.771	103.28
1004.933	43.42
1005.096	52.13
1005.258	31.4
1005.42	39.15
1005.582	88.75
1005.744	64.73
1005.906	19.2
1006.068	69.57
1006.23	29.66
1006.392	23.65
1006.554	54.46
1006.716	121.5
1006.878	74.42
1007.04	41.67
1007.202	62.4
1007.363	68.41
1007.525	65.5
1007.687	86.62
1007.849	122.85
1008.011	-1.53
1008.172	29.08
1008.334	44.38
1008.496	80.42
1008.658	6.41
1008.819	3.31
1008.981	45.74
1009.143	29.66
1009.304	40.7
1009.466	42.06
1009.627	111.03
1009.789	123.43
1009.95	69.96
1010.112	36.83
1010.273	52.72
1010.435	25.2
1010.596	50
1010.758	35.86
1010.919	47.1
1011.081	-0.57
1011.242	44
1011.403	50.97
1011.565	57.37
1011.726	57.17
1011.887	-0.18
1012.049	40.9
1012.21	85.07
1012.371	73.64
1012.532	-33.5
1012.693	56.98
1012.855	35.08
1013.016	50.97
1013.177	83.33
1013.338	52.52
1013.499	112.39
1013.66	65.31
1013.821	46.71
1013.982	70.73
1014.143	63.18
1014.304	26.56
1014.465	68.8
1014.626	57.95
1014.787	42.64
1014.948	125.56
1015.109	-31.18
1015.27	87.59
1015.431	34.12
1015.592	23.85
1015.752	81
1015.913	64.15
1016.074	50.39
1016.235	26.95
1016.395	49.81
1016.556	26.75
1016.717	10.48
1016.877	78.29
1017.038	21.13
1017.199	64.53
1017.359	52.33
1017.52	38.18
1017.681	14.16
1017.841	36.83
1018.002	28.69
1018.162	16.48
1018.323	78.1
1018.483	32.37
1018.644	27.14
1018.804	19.78
1018.964	16.29
1019.125	38.77
1019.285	39.93
1019.446	-3.28
1019.606	32.76
1019.766	-14.51
1019.926	69.38
1020.087	32.57
1020.247	-2.89
1020.407	73.45
1020.567	66.08
1020.728	27.33
1020.888	-5.8
1021.048	48.84
1021.208	6.22
1021.368	12.42
1021.528	78.1
1021.688	57.75
1021.848	44.38
1022.008	66.47
1022.168	17.65
1022.328	30.05
1022.488	75.38
1022.648	-0.37
1022.808	38.77
1022.968	37.41
1023.128	1.76
1023.288	24.23
1023.448	16.87
1023.608	11.45
1023.767	33.34
1023.927	26.95
1024.087	-6.38
1024.247	-22.85
1024.406	9.9
1024.566	-20.71
1024.726	-5.22
1024.885	20.17
1025.045	65.31
1025.205	36.05
1025.364	17.26
1025.524	39.93
1025.683	24.23
1025.843	33.73
1026.003	3.12
1026.162	89.33
1026.321	65.31
1026.481	11.64
1026.64	6.02
1026.8	56.78
1026.959	47.68
1027.119	24.04
1027.278	11.06
1027.437	6.99
1027.597	31.02
1027.756	39.93
1027.915	40.7
1028.074	55.82
1028.234	-2.5
1028.393	-16.45
1028.552	23.65
1028.711	-52.88
1028.87	50.97
1029.03	-4.05
1029.189	26.95
1029.348	-32.73
1029.507	13.58
1029.666	20.94
1029.825	-28.85
1029.984	10.48
1030.143	14.74
1030.302	8.54
1030.461	-17.03
1030.62	15.32
1030.779	40.32
1030.938	-1.92
1031.097	-1.15
1031.255	27.33
1031.414	42.64
1031.573	84.1
1031.732	-26.53
1031.891	4.86
1032.049	68.22
1032.208	20.55
1032.367	7.38
1032.525	18.03
1032.684	21.72
1032.843	56.2
1033.001	-42.8
1033.16	166.83
1033.319	76.74
1033.477	32.95
1033.636	-12.77
1033.794	-30.4
1033.953	27.14
1034.111	35.08
1034.27	-1.92
1034.428	70.54
1034.587	-39.31
1034.745	34.31
1034.903	6.22
1035.062	33.34
1035.22	-23.62
1035.378	23.07
1035.537	-7.73
1035.695	52.13
1035.853	24.23
1036.011	41.28
1036.17	40.7
1036.328	-34.08
1036.486	17.45
1036.644	37.02
1036.802	-48.03
1036.96	-10.25
1037.119	6.02
1037.277	-3.67
1037.435	-20.52
1037.593	-5.22
1037.751	23.07
1037.909	48.07
1038.067	48.07
