Data from gum_young_FLMT105791__110__17-40-38-041.txt Node

Date: Mon Mar 20 17:40:38 GMT 2023
User: antho
Spectrometer: FLMT10579
Trigger mode: 0
Integration Time (sec): 1.000000E-1
Scans to average: 10
Electric dark correction enabled: true
Nonlinearity correction enabled: false
Boxcar width: 0
XAxis mode: Wavelengths
Number of Pixels in Spectrum: 3648
>>>>>Begin Spectral Data<<<<<
345.248	-160.08
345.464	-160.08
345.681	-160.08
345.898	-156.98
346.114	-140.52
346.331	-35.7
346.548	27.85
346.764	15.26
346.981	-15.55
347.197	-17.29
347.414	26.69
347.631	-32.79
347.847	45.29
348.064	18.75
348.28	16.61
348.497	-43.25
348.713	-5.86
348.93	13.9
349.146	18.94
349.363	-23.88
349.579	13.51
349.796	-6.83
350.012	4.99
350.229	20.68
350.445	8.48
350.661	-4.12
350.878	-11.09
351.094	49.36
351.311	14.1
351.527	17.2
351.743	-8.38
351.96	43.74
352.176	55.75
352.392	29.4
352.609	22.81
352.825	-12.45
353.041	16.23
353.257	-1.21
353.474	22.81
353.69	10.22
353.906	17
354.122	-12.84
354.339	61.76
354.555	-6.64
354.771	9.25
354.987	63.11
355.203	38.7
355.42	-16.32
355.636	20.3
355.852	-12.84
356.068	18.75
356.284	-19.23
356.5	60.21
356.716	13.9
356.932	7.31
357.148	31.34
357.364	7.9
357.58	35.02
357.796	44.71
358.012	35.02
358.228	33.47
358.444	-43.84
358.66	66.79
358.876	20.68
359.092	-9.93
359.308	11.38
359.524	34.63
359.74	9.25
359.956	5.96
360.172	28.04
360.388	55.36
360.604	-6.83
360.819	75.9
361.035	4.02
361.251	44.9
361.467	-11.29
361.683	80.94
361.898	2.28
362.114	51.49
362.33	6.15
362.546	60.79
362.762	11.38
362.977	18.75
363.193	-28.34
363.409	56.33
363.624	-1.79
363.84	-5.09
364.056	4.41
364.271	26.49
364.487	10.03
364.703	-6.05
364.918	-27.37
365.134	5.18
365.35	12.93
365.565	98.38
365.781	20.88
365.996	23.59
366.212	81.91
366.427	17.39
366.643	5.57
366.858	-12.64
367.074	-3.73
367.289	53.62
367.505	128.99
367.72	-21.36
367.936	3.63
368.151	66.79
368.367	21.85
368.582	38.12
368.798	16.03
369.013	67.96
369.228	17.58
369.444	5.57
369.659	79.97
369.874	47.23
370.09	60.59
370.305	-32.6
370.52	-1.21
370.736	73.96
370.951	42.96
371.166	56.72
371.381	58.46
371.597	36.96
371.812	0.34
372.027	15.65
372.242	1.11
372.458	79.39
372.673	13.32
372.888	22.04
373.103	56.53
373.318	86.56
373.533	34.63
373.749	14.48
373.964	-14.97
374.179	83.07
374.394	-8.38
374.609	78.23
374.824	-10.32
375.039	85.2
375.254	1.31
375.469	73.19
375.684	36.57
375.899	77.84
376.114	23.39
376.329	39.48
376.544	34.83
376.759	74.74
376.974	30.18
377.189	18.75
377.404	18.36
377.619	30.76
377.834	-17.68
378.049	10.22
378.264	7.7
378.478	41.8
378.693	6.73
378.908	43.16
379.123	29.59
379.338	40.64
379.553	39.67
379.767	29.4
379.982	44.13
380.197	58.08
380.412	39.86
380.626	39.48
380.841	113.49
381.056	55.75
381.271	98.57
381.485	31.34
381.7	9.06
381.915	67.38
382.129	20.1
382.344	34.83
382.559	49.36
382.773	54.39
382.988	-14
383.202	35.99
383.417	7.12
383.632	108.06
383.846	11.96
384.061	35.99
384.275	19.91
384.49	48
384.704	50.52
384.919	41.8
385.133	34.63
385.348	74.16
385.562	-9.54
385.777	81.91
385.991	21.26
386.206	27.27
386.42	20.49
386.634	74.35
386.849	74.93
387.063	46.06
387.277	22.43
387.492	28.63
387.706	12.16
387.92	8.48
388.135	70.67
388.349	62.14
388.563	74.16
388.778	46.45
388.992	71.64
389.206	68.73
389.42	111.94
389.635	41.8
389.849	64.28
390.063	61.76
390.277	63.89
390.491	90.43
390.706	47.23
390.92	92.37
391.134	55.75
391.348	66.02
391.562	23.78
391.776	33.47
391.99	26.49
392.205	79
392.419	-15.16
392.633	31.14
392.847	92.95
393.061	5.96
393.275	124.34
393.489	49.16
393.703	54.2
393.917	81.52
394.131	24.17
394.345	61.76
394.559	86.75
394.773	48.78
394.986	55.17
395.2	40.25
395.414	84.81
395.628	41.41
395.842	37.15
396.056	40.25
396.27	1.7
396.484	58.46
396.697	85.39
396.911	96.83
397.125	68.54
397.339	62.53
397.553	66.41
397.766	96.44
397.98	92.95
398.194	67.96
398.408	56.14
398.621	73.58
398.835	87.14
399.049	103.41
399.262	102.25
399.476	99.15
399.69	101.28
399.903	144.29
400.117	69.12
400.331	80.16
400.544	41.61
400.758	177.62
400.971	100.7
401.185	108.26
401.398	52.65
401.612	113.87
401.826	99.34
402.039	87.72
402.253	56.14
402.466	107.48
402.68	91.01
402.893	99.73
403.106	97.79
403.32	86.17
403.533	118.91
403.747	99.34
403.96	113.68
404.174	88.88
404.387	60.01
404.6	116.97
404.814	126.66
405.027	93.34
405.24	92.37
405.454	101.67
405.667	117.56
405.88	79.19
406.094	104.19
406.307	159.41
406.52	102.83
406.733	56.53
406.947	55.17
407.16	172.58
407.373	139.06
407.586	86.75
407.799	110.97
408.012	120.85
408.226	119.69
408.439	120.27
408.652	84.23
408.865	128.21
409.078	149.91
409.291	123.95
409.504	82.49
409.717	137.71
409.93	143.71
410.143	110
410.357	64.28
410.57	82.68
410.783	97.6
410.996	132.28
411.209	120.27
411.421	161.34
411.634	131.89
411.847	103.61
412.06	116.78
412.273	130.15
412.486	124.92
412.699	219.08
412.912	117.56
413.125	123.37
413.338	138.67
413.55	158.63
413.763	147.2
413.976	134.41
414.189	108.26
414.402	143.71
414.615	178.01
414.827	91.21
415.04	164.25
415.253	153.4
415.466	182.27
415.678	194.47
415.891	116.39
416.104	139.84
416.316	143.52
416.529	124.53
416.742	169.87
416.954	187.5
417.167	124.14
417.38	146.23
417.592	168.12
417.805	132.28
418.017	101.09
418.23	136.16
418.442	117.75
418.655	131.51
418.868	149.33
419.08	176.84
419.293	178.59
419.505	157.47
419.718	153.21
419.93	192.92
420.142	140.03
420.355	178.39
420.567	206.1
420.78	174.71
420.992	127.44
421.205	210.55
421.417	135.19
421.629	134.8
421.842	145.84
422.054	121.82
422.266	185.76
422.479	187.31
422.691	135.96
422.903	206.49
423.115	165.02
423.328	156.11
423.54	164.44
423.752	176.65
423.964	141.77
424.177	155.14
424.389	172.19
424.601	260.15
424.813	196.22
425.025	196.22
425.238	212.1
425.45	158.44
425.662	161.92
425.874	411.47
426.086	186.53
426.298	191.18
426.51	178.39
426.722	157.66
426.934	157.27
427.146	192.34
427.358	147.2
427.57	206.49
427.782	173.55
427.994	163.67
428.206	164.25
428.418	141.19
428.63	176.07
428.842	203.97
429.054	185.56
429.266	218.89
429.478	164.83
429.69	171.42
429.902	145.07
430.114	185.17
430.325	188.66
430.537	146.81
430.749	129.76
430.961	114.65
431.173	154.56
431.384	190.99
431.596	109.23
431.808	168.71
432.02	192.73
432.231	174.13
432.443	241.36
432.655	210.36
432.867	182.27
433.078	188.66
433.29	276.43
433.502	224.7
433.713	239.04
433.925	216.95
434.136	255.12
434.348	175.1
434.56	133.25
434.771	278.17
434.983	152.62
435.194	194.86
435.406	192.34
435.617	242.72
435.829	268.68
436.04	269.45
436.252	221.02
436.463	296.77
436.675	259.19
436.886	248.72
437.098	245.62
437.309	297.16
437.521	257.05
437.732	227.6
437.943	251.82
438.155	221.6
438.366	190.41
438.578	266.94
438.789	220.82
439	243.49
439.211	233.42
439.423	241.36
439.634	251.24
439.845	264.03
440.057	252.99
440.268	288.63
440.479	217.34
440.69	252.79
440.902	204.74
441.113	254.15
441.324	217.72
441.535	262.67
441.746	316.73
441.957	238.45
442.168	247.56
442.38	277.79
442.591	301.23
442.802	242.91
443.013	252.79
443.224	259.38
443.435	274.1
443.646	268.29
443.857	267.71
444.068	283.79
444.279	243.49
444.49	322.93
444.701	295.42
444.912	366.91
445.123	339.01
445.334	279.34
445.545	297.16
445.756	300.45
445.967	265.77
446.178	294.06
446.388	331.65
446.599	296
446.81	314.02
447.021	284.37
447.232	314.4
447.443	357.03
447.653	269.26
447.864	346.95
448.075	303.36
448.286	334.55
448.496	300.26
448.707	350.83
448.918	284.18
449.129	363.81
449.339	297.74
449.55	334.36
449.761	318.86
449.971	356.45
450.182	311.69
450.393	368.46
450.603	277.98
450.814	364.39
451.024	355.67
451.235	362.45
451.446	390.55
451.656	400.04
451.867	328.93
452.077	376.79
452.288	397.33
452.498	422.13
452.709	361.87
452.919	363.42
453.13	340.56
453.34	349.86
453.55	307.43
453.761	395.39
453.971	363.23
454.182	360.32
454.392	367.49
454.602	415.73
454.813	388.61
455.023	393.45
455.233	319.63
455.444	343.08
455.654	312.85
455.864	343.47
456.075	361.87
456.285	340.95
456.495	373.5
456.705	394.03
456.916	419.03
457.126	406.43
457.336	383.96
457.546	319.25
457.756	342.5
457.967	418.25
458.177	370.78
458.387	397.91
458.597	352.57
458.807	364.2
459.017	369.04
459.227	389.38
459.437	350.44
459.647	410.5
459.857	380.28
460.068	351.02
460.278	439.95
460.488	409.15
460.698	452.16
460.908	398.3
461.117	332.03
461.327	374.08
461.537	390.16
461.747	419.03
461.957	410.11
462.167	494.01
462.377	436.85
462.587	398.3
462.797	457
463.007	436.85
463.216	448.28
463.426	463.2
463.636	456.81
463.846	413.6
464.056	373.5
464.265	445.76
464.475	385.9
464.685	445.18
464.895	455.84
465.104	425.03
465.314	449.25
465.524	396.75
465.733	401.98
465.943	501.37
466.153	486.06
466.362	468.04
466.572	453.51
466.782	415.15
466.991	451.19
467.201	499.43
467.41	401.01
467.62	473.66
467.829	446.54
468.039	466.3
468.249	444.02
468.458	445.57
468.668	478.12
468.877	487.81
469.086	528.88
469.296	494.98
469.505	486.06
469.715	531.79
469.924	503.69
470.134	527.72
470.343	520.36
470.552	463.39
470.762	493.62
470.971	458.36
471.18	461.84
471.39	488.78
471.599	465.72
471.808	504.08
472.018	466.11
472.227	558.14
472.436	533.14
472.645	523.84
472.855	504.08
473.064	577.32
473.273	517.64
473.482	543.41
473.691	552.71
473.901	549.81
474.11	554.07
474.319	657.14
474.528	525.01
474.737	638.15
474.946	610.64
475.155	568.99
475.364	603.86
475.573	589.14
475.783	589.52
475.992	599.41
476.201	609.67
476.41	572.09
476.619	557.56
476.828	610.64
477.037	566.66
477.245	575.57
477.454	610.64
477.663	576.74
477.872	597.66
478.081	673.42
478.29	600.96
478.499	684.46
478.708	649.39
478.917	715.27
479.125	636.41
479.334	631.76
479.543	636.8
479.752	686.2
479.961	660.24
480.169	726.12
480.378	658.5
480.587	788.89
480.796	676.32
481.004	656.17
481.213	711.97
481.422	722.63
481.63	730.96
481.839	744.33
482.048	737.55
482.256	748.4
482.465	741.42
482.674	742.2
482.882	738.52
483.091	794.9
483.299	742.2
483.508	753.43
483.716	751.5
483.925	760.22
484.134	724.57
484.342	745.1
484.551	797.42
484.759	785.79
484.967	789.67
485.176	802.65
485.384	782.3
485.593	825.9
485.801	791.6
486.01	744.33
486.218	708.49
486.426	658.3
486.635	692.4
486.843	692.21
487.051	710.62
487.26	735.61
487.468	742.39
487.676	776.68
487.885	780.17
488.093	782.3
488.301	796.06
488.509	792.77
488.717	827.64
488.926	853.6
489.134	799.93
489.342	812.72
489.55	790.25
489.758	838.1
489.967	839.07
490.175	884.21
490.383	831.9
490.591	959.58
490.799	869.68
491.007	923.54
491.215	874.33
491.423	896.03
491.631	862.71
491.839	896.61
492.047	915.99
492.255	866.78
492.463	831.32
492.671	856.12
492.879	939.43
493.087	903.98
493.295	913.47
493.503	927.23
493.711	966.36
493.919	952.03
494.127	998.14
494.334	978.38
494.542	909.59
494.75	977.6
494.958	949.89
495.166	992.13
495.374	1017.12
495.581	994.26
495.789	998.33
495.997	1065.76
496.205	989.42
496.412	970.24
496.62	1008.99
496.828	1039.6
497.035	1007.05
497.243	1049.67
497.451	1008.6
497.658	1060.14
497.866	1049.09
498.074	1068.27
498.281	1006.47
498.489	1117.87
498.696	1030.88
498.904	1016.93
499.112	1026.81
499.319	1111.87
499.527	1056.65
499.734	1124.65
499.942	1037.47
500.149	1053.55
500.357	1089
500.564	1052.77
500.771	1070.21
500.979	1052.39
501.186	1056.26
501.394	1082.61
501.601	1039.41
501.808	1090.17
502.016	1071.95
502.223	1076.6
502.43	1092.3
502.638	1094.82
502.845	1070.6
503.052	1156.24
503.26	1125.62
503.467	1206.8
503.674	1174.25
503.881	1155.65
504.089	1231.41
504.296	1182.97
504.503	1111.87
504.71	1147.9
504.917	1135.12
505.125	1195.76
505.332	1175.03
505.539	1200.41
505.746	1274.61
505.953	1230.83
506.16	1255.05
506.367	1320.53
506.574	1304.65
506.781	1364.13
506.988	1278.3
507.195	1299.8
507.402	1263.18
507.609	1338.16
507.816	1261.63
508.023	1313.95
508.23	1293.41
508.437	1247.3
508.644	1300.77
508.851	1372.84
509.058	1360.64
509.265	1356.96
509.472	1407.33
509.679	1480.18
509.885	1408.69
510.092	1405.39
510.299	1369.36
510.506	1405.59
510.713	1424.19
510.92	1408.11
511.126	1457.71
511.333	1504.98
511.54	1539.66
511.746	1506.53
511.953	1526.68
512.16	1593.33
512.367	1535.2
512.573	1540.82
512.78	1522.42
512.987	1543.15
513.193	1544.7
513.4	1495.1
513.606	1522.42
513.813	1595.46
514.02	1552.45
514.226	1626.27
514.433	1603.4
514.639	1528.42
514.846	1598.95
515.052	1575.7
515.259	1605.34
515.465	1662.5
515.672	1673.54
515.878	1768.09
516.085	1680.52
516.291	1718.3
516.497	1702.8
516.704	1687.88
516.91	1625.3
517.117	1570.08
517.323	1489.29
517.529	1559.62
517.736	1564.07
517.942	1599.53
518.148	1635.18
518.354	1691.17
518.561	1649.71
518.767	1732.25
518.973	1764.99
519.179	1746.58
519.386	1732.05
519.592	1767.7
519.798	1768.86
520.004	1914.37
520.21	1875.04
520.417	1924.06
520.623	1955.25
520.829	1981.6
521.035	1990.12
521.241	1980.24
521.447	2028.68
521.653	2132.33
521.859	2030.81
522.065	2095.52
522.271	2154.03
522.477	2140.86
522.683	2155.78
522.889	2141.83
523.095	2162.56
523.301	2164.5
523.507	2070.72
523.713	2149.58
523.919	2116.45
524.125	2257.3
524.331	2238.12
524.537	2305.16
524.742	2313.87
524.948	2339.26
525.154	2339.64
525.36	2425.47
525.566	2365.22
525.772	2392.73
525.977	2337.71
526.183	2422.76
526.389	2391.18
526.595	2319.88
526.8	2306.51
527.006	2205.76
527.212	2169.92
527.417	2159.46
527.623	2172.83
527.829	2285.01
528.034	2335.38
528.24	2345.46
528.446	2367.74
528.651	2474.1
528.857	2478.75
529.062	2528.93
529.268	2538.62
529.473	2547.92
529.679	2557.22
529.884	2623.48
530.09	2625.81
530.295	2607.21
530.501	2672.89
530.706	2647.7
530.912	2599.07
531.117	2649.44
531.323	2681.61
531.528	2708.15
531.733	2716.87
531.939	2655.06
532.144	2743.22
532.35	2696.33
532.555	2733.92
532.76	2697.69
532.966	2657.78
533.171	2639.76
533.376	2600.23
533.581	2600.23
533.787	2647.7
533.992	2694.59
534.197	2713.38
534.402	2724.62
534.607	2712.22
534.813	2819.94
535.018	2707.38
535.223	2779.45
535.428	2805.22
535.633	2815.49
535.838	2872.45
536.043	2894.92
536.249	2944.33
536.454	2920.88
536.659	2883.3
536.864	2845.52
537.069	2856.95
537.274	2858.89
537.479	2829.05
537.684	2842.03
537.889	2800.37
538.094	2937.93
538.299	2848.04
538.504	2925.15
538.708	2893.57
538.913	2957.7
539.118	2913.91
539.323	2912.55
539.528	2864.31
539.733	2883.69
539.938	2915.27
540.142	2880.78
540.347	2856.37
540.552	2834.86
540.757	2807.74
540.962	2847.45
541.166	2793.98
541.371	2782.74
541.576	2848.62
541.781	2795.92
541.985	2928.63
542.19	2884.85
542.395	3001.68
542.599	2957.89
542.804	2934.45
543.008	2995.09
543.213	2953.82
543.418	2908.29
543.622	3000.13
543.827	2869.93
544.031	3025.7
544.236	3040.04
544.44	3027.64
544.645	3076.66
544.849	3032.1
545.054	3051.86
545.258	3108.43
545.463	3130.33
545.667	3036.36
545.872	3080.15
546.076	3086.93
546.281	3048.56
546.485	3029.38
546.689	3085.18
546.894	3088.09
547.098	3077.43
547.302	3042.75
547.507	3077.24
547.711	3049.92
547.915	3067.36
548.119	2945.49
548.324	3022.41
548.528	3023.38
548.732	3012.14
548.936	3089.64
549.141	3092.93
549.345	3037.52
549.549	3107.66
549.753	3097
549.957	3163.46
550.161	3161.71
550.366	3134.98
550.57	3069.88
550.774	3137.49
550.978	3081.5
551.182	3137.49
551.386	3067.94
551.59	3102.81
551.794	3104.94
551.998	3187.29
552.202	3151.25
552.406	3079.37
552.61	3179.92
552.814	3149.7
553.018	3193.68
553.222	3103.98
553.426	3077.82
553.63	3198.72
553.833	3104.56
554.037	3034.81
554.241	3092.93
554.445	3142.34
554.649	3100.29
554.853	3113.28
555.056	3152.61
555.26	3168.49
555.464	3152.41
555.668	3144.47
555.871	3187.87
556.075	3133.04
556.279	3067.55
556.483	3031.51
556.686	3058.64
556.89	3108.63
557.094	3077.24
557.297	2966.03
557.501	3058.25
557.704	2987.73
557.908	3075.88
558.112	3002.84
558.315	3065.42
558.519	2971.07
558.722	3001.29
558.926	3014.27
559.129	2854.82
559.333	2874.39
559.536	2918.17
559.74	2910.62
559.943	2848.62
560.147	2845.13
560.35	2852.1
560.553	2900.54
560.757	2860.44
560.96	2890.27
561.164	2907.9
561.367	2999.74
561.57	2920.69
561.774	2888.53
561.977	2894.34
562.18	2881.55
562.384	2953.43
562.587	2916.43
562.79	2834.09
562.993	2821.69
563.197	2895.5
563.4	2931.54
563.603	2916.43
563.806	2942.97
564.009	2837.77
564.212	2886.98
564.416	2816.26
564.619	2830.99
564.822	2758.72
565.025	2865.28
565.228	2815.87
565.431	2817.04
565.634	2700.98
565.837	2725.2
566.04	2697.3
566.243	2704.47
566.446	2582.02
566.649	2725.78
566.852	2615.93
567.055	2652.93
567.258	2686.45
567.461	2681.61
567.664	2739.34
567.867	2646.15
568.07	2641.11
568.273	2646.93
568.475	2691.29
568.678	2587.83
568.881	2568.85
569.084	2557.8
569.287	2483.98
569.489	2520.6
569.692	2556.83
569.895	2508.59
570.098	2444.85
570.3	2458.41
570.503	2389.82
570.706	2404.94
570.909	2398.54
571.111	2369.09
571.314	2349.33
571.516	2328.99
571.719	2390.4
571.922	2355.14
572.124	2330.54
572.327	2375.49
572.529	2335.77
572.732	2359.79
572.935	2338.87
573.137	2389.24
573.34	2346.23
573.542	2378.39
573.745	2351.85
573.947	2360.57
574.15	2298.18
574.352	2309.03
574.554	2342.36
574.757	2259.24
574.959	2222.23
575.162	2248.39
575.364	2210.99
575.566	2317.17
575.769	2186.2
575.971	2243.93
576.173	2130.2
576.376	2191.04
576.578	2262.34
576.78	2252.84
576.982	2120.13
577.185	2191.23
577.387	2161.4
577.589	2142.99
577.791	2199.56
577.993	2155.78
578.196	2153.26
578.398	2170.5
578.6	2199.56
578.802	2100.56
579.004	2084.09
579.206	2091.26
579.408	2121.68
579.61	2069.95
579.812	2191.62
580.014	2106.18
580.216	2105.98
580.418	2129.04
580.62	2091.26
580.822	2078.08
581.024	2159.46
581.226	2169.15
581.428	2179.41
581.63	2223.78
581.832	2146.86
582.034	2196.85
582.236	2123.42
582.438	2214.09
582.64	2157.52
582.841	2218.16
583.043	2279
583.245	2143.38
583.447	2235.6
583.649	2150.16
583.85	2169.92
584.052	2220.29
584.254	2111.6
584.456	2161.98
584.657	2093.39
584.859	2153.26
585.061	2168.76
585.262	2130.2
585.464	2103.66
585.666	2154.23
585.867	2098.23
586.069	2139.89
586.27	2101.72
586.472	2104.63
586.674	2051.93
586.875	2106.37
587.077	2081.18
587.278	2095.52
587.48	2072.66
587.681	2158.3
587.883	2087.97
588.084	2019.57
588.285	1999.42
588.487	1982.76
588.688	1997.1
588.89	1868.84
589.091	1855.28
589.292	1844.43
589.494	1790.95
589.695	1770.61
589.896	1718.3
590.098	1696.79
590.299	1765.38
590.5	1744.06
590.702	1756.85
590.903	1811.49
591.104	1886.08
591.305	1881.04
591.507	1903.71
591.708	1861.09
591.909	1851.59
592.11	1906.23
592.311	1890.54
592.512	1821.76
592.714	1784.56
592.915	1829.31
593.116	1795.79
593.317	1849.66
593.518	1861.28
593.719	1847.72
593.92	1932.97
594.121	1947.89
594.322	1852.95
594.523	1879.49
594.724	1791.73
594.925	1823.89
595.126	1827.18
595.327	1808.97
595.528	1825.83
595.729	1855.66
595.929	1828.34
596.13	1859.15
596.331	1848.88
596.532	1861.47
596.733	1942.27
596.934	1881.04
597.135	1871.36
597.335	1872.13
597.536	1839.58
597.737	1860.89
597.938	1799.86
598.138	1850.04
598.339	1837.26
598.54	1880.46
598.74	1811.88
598.941	1855.86
599.142	1924.06
599.342	1847.33
599.543	1817.88
599.744	1809.94
599.944	1847.33
600.145	1823.5
600.345	1861.28
600.546	1887.63
600.746	1883.17
600.947	1906.04
601.147	1818.08
601.348	1876.78
601.548	1780.1
601.749	1828.73
601.949	1780.29
602.15	1771.38
602.35	1778.55
602.551	1832.22
602.751	1787.27
602.951	1784.94
603.152	1776.23
603.352	1822.53
603.552	1819.24
603.753	1834.35
603.953	1889.57
604.153	1813.81
604.354	1819.04
604.554	1807.61
604.754	1812.26
604.954	1783.39
605.155	1789.59
605.355	1804.9
605.555	1821.18
605.755	1867.29
605.955	1803.54
606.155	1832.41
606.356	1830.67
606.556	1837.84
606.756	1820.79
606.956	1770.61
607.156	1819.43
607.356	1773.51
607.556	1806.45
607.756	1786.49
607.956	1804.51
608.156	1767.12
608.356	1716.75
608.556	1803.93
608.756	1758.79
608.956	1741.74
609.156	1729.53
609.356	1719.85
609.556	1696.79
609.755	1721.4
609.955	1723.91
610.155	1732.83
610.355	1730.5
610.555	1670.63
610.755	1661.53
610.954	1636.34
611.154	1703.57
611.354	1711.32
611.554	1664.24
611.753	1653.2
611.953	1613.48
612.153	1702.8
612.352	1699.31
612.552	1607.28
612.752	1580.74
612.951	1658.43
613.151	1644.09
613.351	1623.55
613.55	1603.98
613.75	1669.67
613.949	1598.17
614.149	1620.65
614.348	1632.08
614.548	1610.18
614.747	1560
614.947	1581.32
615.146	1559.81
615.346	1620.65
615.545	1608.63
615.745	1599.14
615.944	1612.9
616.144	1581.51
616.343	1597.59
616.542	1550.32
616.742	1565.62
616.941	1510.21
617.14	1471.46
617.34	1522.42
617.539	1526.49
617.738	1487.16
617.938	1539.85
618.137	1533.85
618.336	1482.89
618.535	1578.8
618.734	1515.25
618.934	1555.94
619.133	1539.85
619.332	1560.59
619.531	1490.84
619.73	1526.68
619.929	1546.83
620.128	1532.49
620.328	1588.87
620.527	1500.52
620.726	1510.21
620.925	1548.77
621.124	1494.71
621.323	1505.37
621.522	1445.69
621.721	1501.11
621.92	1487.74
622.119	1492.97
622.318	1452.09
622.517	1484.25
622.715	1447.05
622.914	1375.94
623.113	1430
623.312	1377.49
623.511	1487.16
623.71	1461
623.909	1409.08
624.107	1478.05
624.306	1360.06
624.505	1411.98
624.704	1387.57
624.902	1373.62
625.101	1446.86
625.3	1418.18
625.499	1379.63
625.697	1368.58
625.896	1355.99
626.095	1390.28
626.293	1329.45
626.492	1383.5
626.69	1378.27
626.889	1353.66
627.088	1386.41
627.286	1366.26
627.485	1345.53
627.683	1317.82
627.882	1347.85
628.08	1275.78
628.279	1288.37
628.477	1342.23
628.676	1248.85
628.874	1343.78
629.073	1270.93
629.271	1251.36
629.469	1306
629.668	1293.21
629.866	1284.11
630.065	1271.9
630.263	1319.76
630.461	1242.26
630.66	1293.6
630.858	1351.34
631.056	1375.36
631.254	1341.84
631.453	1306.97
631.651	1344.36
631.849	1349.79
632.047	1288.18
632.245	1322.47
632.444	1336.61
632.642	1331.19
632.84	1359.28
633.038	1307.36
633.236	1290.89
633.434	1281.2
633.632	1320.15
633.83	1303.48
634.028	1356.57
634.227	1328.28
634.425	1387.38
634.623	1332.93
634.821	1371.1
635.019	1371.1
635.216	1324.8
635.414	1371.68
635.612	1336.81
635.81	1321.31
636.008	1385.05
636.206	1338.36
636.404	1349.21
636.602	1296.12
636.8	1321.89
636.997	1355.21
637.195	1345.53
637.393	1351.53
637.591	1375.75
637.789	1331
637.986	1354.44
638.184	1346.88
638.382	1363.93
638.58	1364.13
638.777	1392.22
638.975	1328.09
639.173	1351.14
639.37	1336.23
639.568	1349.79
639.765	1328.67
639.963	1312.4
640.161	1311.43
640.358	1317.82
640.556	1256.01
640.753	1262.21
640.951	1264.73
641.148	1299.22
641.346	1242.26
641.543	1256.98
641.741	1274.42
641.938	1225.4
642.136	1236.45
642.333	1209.71
642.531	1300.38
642.728	1284.69
642.925	1236.25
643.123	1255.24
643.32	1226.37
643.517	1182.58
643.715	1233.35
643.912	1204.48
644.109	1202.93
644.306	1233.73
644.504	1194.4
644.701	1213.78
644.898	1198.86
645.095	1198.67
645.293	1200.99
645.49	1199.63
645.687	1170.57
645.884	1226.18
646.081	1110.7
646.278	1115.55
646.475	1120
646.672	1123.49
646.87	1141.9
647.067	1105.86
647.264	1131.05
647.461	1088.04
647.658	1083.39
647.855	1108.96
648.052	1080.29
648.249	986.51
648.446	1074.09
648.642	1064.21
648.839	1032.04
649.036	1007.63
649.233	1002.98
649.43	999.11
649.627	996.01
649.824	1003.37
650.021	990.77
650.217	1008.02
650.414	1022.94
650.611	1028.94
650.808	1037.86
651.004	1049.87
651.201	1037.47
651.398	1101.21
651.595	1012.86
651.791	996.78
651.988	1013.06
652.185	996.01
652.381	1034.76
652.578	975.86
652.775	998.72
652.971	1041.15
653.168	1006.27
653.364	1028.36
653.561	996.01
653.757	1042.51
653.954	1026.23
654.15	992.13
654.347	1064.79
654.543	1010.73
654.74	970.24
654.936	956.68
655.133	986.71
655.329	998.91
655.525	983.99
655.722	995.42
655.918	931.88
656.115	937.88
656.311	849.73
656.507	840.81
656.704	806.13
656.9	856.9
657.096	865.42
657.292	831.51
657.489	903.2
657.685	896.23
657.881	884.21
658.077	893.13
658.273	910.95
658.47	1008.79
658.666	928.39
658.862	955.32
659.058	921.41
659.254	950.28
659.45	955.71
659.646	905.72
659.842	946.21
660.038	972.18
660.234	905.72
660.43	935.56
660.626	1013.44
660.822	943.69
661.018	963.84
661.214	926.84
661.41	878.4
661.606	972.95
661.802	950.86
661.998	931.88
662.194	879.37
662.39	915.41
662.586	939.43
662.781	915.21
662.977	946.02
663.173	953.58
663.369	914.83
663.564	911.73
663.76	921.61
663.956	895.84
664.152	937.69
664.347	845.46
664.543	880.92
664.739	862.9
664.934	838.49
665.13	854.96
665.326	875.88
665.521	877.24
665.717	835
665.912	824.15
666.108	795.67
666.304	854.96
666.499	844.3
666.695	794.7
666.89	843.14
667.086	885.38
667.281	879.37
667.477	902.04
667.672	844.11
667.867	855.54
668.063	860.19
668.258	806.13
668.454	837.52
668.649	917.15
668.844	831.13
669.04	867.36
669.235	823.96
669.43	808.07
669.626	785.79
669.821	787.53
670.016	769.9
670.211	832.29
670.407	818.73
670.602	804.78
670.797	792.57
670.992	853.6
671.187	807.1
671.382	848.37
671.578	758.28
671.773	837.13
671.968	774.17
672.163	841.59
672.358	856.51
672.553	787.15
672.748	775.33
672.943	858.06
673.138	815.24
673.333	835.2
673.528	798.19
673.723	855.15
673.918	815.24
674.113	798.77
674.308	874.14
674.503	844.5
674.698	829.96
674.892	810.78
675.087	849.73
675.282	820.47
675.477	837.13
675.672	833.26
675.867	796.45
676.061	788.89
676.256	777.27
676.451	783.27
676.646	820.47
676.84	763.32
677.035	767.77
677.23	799.55
677.424	790.83
677.619	826.86
677.814	848.18
678.008	854.18
678.203	761.77
678.397	778.82
678.592	799.93
678.787	848.95
678.981	805.17
679.176	817.56
679.37	809.04
679.565	786.18
679.759	799.55
679.954	849.34
680.148	851.86
680.342	872.98
680.537	827.64
680.731	802.26
680.926	861.74
681.12	841.01
681.314	809.23
681.509	829.77
681.703	825.9
681.897	840.81
682.092	816.4
682.286	835.78
682.48	888.28
682.674	837.91
682.869	811.17
683.063	851.47
683.257	892.93
683.451	844.3
683.645	862.32
683.839	826.67
684.034	848.95
684.228	857.67
684.422	812.14
684.616	814.46
684.81	860.77
685.004	838.68
685.198	867.75
685.392	862.51
685.586	816.98
685.78	868.71
685.974	868.91
686.168	859.41
686.362	930.33
686.556	789.67
686.75	771.84
686.944	765.25
687.138	788.89
687.331	645.71
687.525	700.74
687.719	633.12
687.913	673.61
688.107	749.56
688.301	689.89
688.494	751.88
688.688	693.57
688.882	681.36
689.076	680.97
689.269	716.04
689.463	800.52
689.657	762.54
689.85	740.26
690.044	776.88
690.238	790.05
690.431	765.25
690.625	799.16
690.818	849.34
691.012	842.95
691.205	877.05
691.399	834.03
691.593	883.83
691.786	953.19
691.98	972.76
692.173	1003.37
692.366	997.17
692.56	1024.49
692.753	1042.89
692.947	985.35
693.14	1055.68
693.333	1057.23
693.527	982.83
693.72	1075.64
693.914	1085.32
694.107	1061.69
694.3	1122.72
694.493	1059.56
694.687	1144.22
694.88	1107.8
695.073	1164.95
695.266	1166.7
695.46	1173.48
695.653	1230.25
695.846	1253.5
696.039	1200.41
696.232	1256.01
696.425	1326.73
696.618	1338.74
696.812	1316.66
697.005	1434.65
697.198	1498.78
697.391	1415.08
697.584	1490.84
697.777	1552.25
697.97	1513.5
698.163	1501.88
698.356	1522.8
698.549	1593.33
698.742	1614.25
698.935	1572.99
699.127	1570.47
699.32	1567.56
699.513	1555.94
699.706	1596.82
699.899	1667.34
700.092	1633.05
700.285	1644.48
700.477	1568.14
700.67	1676.45
700.863	1666.76
701.056	1751.43
701.248	1759.18
701.441	1755.11
701.634	1709
701.826	1839.19
702.019	1748.52
702.212	1825.24
702.404	1767.7
702.597	1814.01
702.79	1830.67
702.982	1873.68
703.175	1954.86
703.367	1922.51
703.56	1948.66
703.752	2021.7
703.945	2013.18
704.137	2051.35
704.33	2093
704.522	2094.17
704.715	2098.43
704.907	2123.23
705.1	2157.52
705.292	2199.95
705.484	2169.15
705.677	2219.71
705.869	2240.06
706.061	2285.01
706.254	2310.77
706.446	2256.53
706.638	2291.59
706.831	2358.05
707.023	2342.16
707.215	2483.79
707.407	2467.52
707.599	2477.01
707.792	2474.49
707.984	2473.33
708.176	2554.51
708.368	2489.02
708.56	2494.83
708.752	2544.82
708.944	2526.42
709.136	2612.63
709.329	2565.94
709.521	2701.76
709.713	2639.95
709.905	2666.3
710.097	2745.35
710.289	2673.08
710.481	2692.07
710.672	2743.41
710.864	2751.74
711.056	2824.59
711.248	2789.72
711.44	2818.39
711.632	2853.46
711.824	2877.29
712.016	2861.79
712.207	2926.5
712.399	2895.89
712.591	2982.11
712.783	2949.56
712.975	2983.85
713.166	2959.63
713.358	2969.52
713.55	3004.97
713.741	3021.63
713.933	3060.77
714.125	3012.14
714.316	3000.32
714.508	3086.34
714.7	3060
714.891	3087.31
715.083	3109.79
715.274	3040.43
715.466	3117.73
715.657	3128
715.849	3017.76
716.04	3067.16
716.232	3015.63
716.423	3029
716.615	2954.4
716.806	2854.62
716.998	2779.84
717.189	2675.02
717.381	2598.3
717.572	2534.94
717.763	2510.53
717.955	2514.6
718.146	2487.67
718.337	2396.99
718.528	2375.49
718.72	2244.9
718.911	2334.22
719.102	2244.32
719.293	2333.44
719.485	2290.82
719.676	2247.42
719.867	2219.71
720.058	2243.54
720.249	2219.91
720.44	2209.25
720.632	2315.81
720.823	2405.32
721.014	2546.57
721.205	2587.83
721.396	2649.06
721.587	2800.76
721.778	2863.34
721.969	2891.05
722.16	2964.48
722.351	3021.83
722.542	3152.41
722.733	3203.95
722.924	3077.05
723.115	3107.85
723.305	3086.73
723.496	3078.98
723.687	2923.02
723.878	2931.15
724.069	2906.16
724.26	2902.87
724.45	2801.34
724.641	2783.91
724.832	2835.64
725.023	2808.12
725.213	2790.3
725.404	2755.62
725.595	2777.32
725.785	2778.87
725.976	2855.2
726.167	2837.96
726.357	2846.1
726.548	2924.18
726.739	2846.87
726.929	2971.45
727.12	2987.15
727.31	2996.25
727.501	2920.88
727.691	2894.34
727.882	2893.95
728.072	2996.83
728.263	2994.7
728.453	3048.18
728.644	3065.61
728.834	3025.12
729.024	2992.57
729.215	2990.63
729.405	3021.63
729.596	3106.88
729.786	3118.89
729.976	3116.96
730.167	3112.5
730.357	3090.22
730.547	3090.22
730.737	3140.79
730.928	3165.2
731.118	3227.39
731.308	3179.34
731.498	3189.42
731.688	3247.93
731.879	3259.55
732.069	3312.45
732.259	3417.07
732.449	3424.05
732.639	3534.87
732.829	3541.65
733.019	3608.69
733.209	3668.36
733.399	3673.01
733.589	3772.4
733.779	3806.12
733.969	3859.2
734.159	3882.45
734.349	3927.6
734.539	3989.79
734.729	3961.5
734.919	4020.4
735.109	4077.94
735.299	3975.45
735.488	4003.93
735.678	4005.87
735.868	3992.5
736.058	4004.13
736.248	3977.19
736.437	3966.34
736.627	3925.27
736.817	4092.09
737.007	3964.79
737.196	4060.89
737.386	4101.58
737.576	4029.31
737.765	4141.49
737.955	4094.22
738.144	4232.55
738.334	4182.37
738.524	4105.46
738.713	4192.06
738.903	4152.54
739.092	4175.2
739.282	4200.39
739.471	4181.21
739.661	4184.12
739.85	4242.05
740.04	4256.38
740.229	4276.73
740.419	4282.73
740.608	4314.31
740.797	4262.39
740.987	4348.41
741.176	4341.63
741.365	4353.65
741.555	4259.68
741.744	4380.96
741.933	4333.11
742.123	4353.26
742.312	4354.61
742.501	4430.95
742.69	4437.34
742.88	4343.76
743.069	4491.59
743.258	4378.83
743.447	4488.69
743.636	4483.84
743.825	4406.34
744.014	4452.65
744.204	4460.59
744.393	4405.57
744.582	4496.24
744.771	4516.59
744.96	4428.04
745.149	4541
745.338	4481.71
745.527	4496.05
745.716	4463.69
745.905	4395.69
746.094	4515.62
746.283	4537.51
746.471	4458.66
746.66	4565.02
746.849	4565.22
747.038	4552.82
747.227	4489.85
747.416	4518.72
747.604	4488.88
747.793	4489.66
747.982	4533.44
748.171	4538.87
748.359	4530.73
748.548	4516.01
748.737	4479.77
748.926	4479
749.114	4352.48
749.303	4478.61
749.491	4468.34
749.68	4390.65
749.869	4471.25
750.057	4474.54
750.246	4407.7
750.434	4419.33
750.623	4401.5
750.811	4396.85
751	4463.5
751.188	4415.26
751.377	4371.08
751.565	4386.58
751.754	4357.13
751.942	4342.21
752.131	4453.62
752.319	4333.5
752.507	4314.12
752.696	4393.17
752.884	4400.34
753.072	4336.79
753.261	4376.51
753.449	4365.66
753.637	4292.62
753.825	4386.39
754.014	4378.83
754.202	4362.17
754.39	4381.55
754.578	4401.69
754.766	4358.1
754.955	4288.16
755.143	4380.77
755.331	4312.38
755.519	4326.71
755.707	4363.91
755.895	4292.81
756.083	4268.59
756.271	4216.47
756.459	4231.2
756.647	4330.59
756.835	4219.57
757.023	4269.37
757.211	4248.83
757.399	4195.55
757.587	4208.14
757.775	4166.1
757.963	4169
758.151	4181.21
758.339	4121.73
758.526	4122.12
758.714	4140.91
758.902	4007.81
759.09	3892.53
759.278	3682.89
759.465	3349.26
759.653	2920.5
759.841	2608.56
760.028	2282.68
760.216	1989.54
760.404	1820.01
760.591	1489.67
760.779	1265.7
760.967	1078.93
761.154	925.29
761.342	913.08
761.529	912.31
761.717	966.94
761.905	950.86
762.092	1023.32
762.28	944.28
762.467	964.04
762.655	876.27
762.842	893.71
763.029	888.67
763.217	918.7
763.404	921.61
763.592	938.08
763.779	896.23
763.966	950.86
764.154	983.03
764.341	1032.24
764.528	1049.09
764.716	1125.24
764.903	1210.29
765.09	1303.1
765.277	1331
765.465	1522.22
765.652	1588.49
765.839	1705.7
766.026	1867.29
766.213	1925.41
766.4	2054.83
766.588	2275.9
766.775	2292.37
766.962	2419.85
767.149	2512.47
767.336	2709.31
767.523	2693.62
767.71	2841.84
767.897	3019.5
768.084	3081.69
768.271	3121.03
768.458	3233.4
768.645	3268.47
768.832	3311.29
769.019	3354.49
769.206	3388.2
769.392	3456.98
769.579	3570.52
769.766	3550.18
769.953	3544.56
770.14	3600.16
770.327	3564.9
770.513	3630.58
770.7	3694.71
770.887	3638.33
771.073	3688.71
771.26	3693.94
771.447	3696.45
771.634	3645.89
771.82	3781.7
772.007	3638.91
772.193	3718.74
772.38	3750.12
772.567	3690.64
772.753	3734.43
772.94	3777.44
773.126	3754
773.313	3714.28
773.499	3743.73
773.686	3770.27
773.872	3700.33
774.059	3768.53
774.245	3611.79
774.432	3668.17
774.618	3585.24
774.804	3660.81
774.991	3575.75
775.177	3649.18
775.363	3650.73
775.55	3637.56
775.736	3591.64
775.922	3635.04
776.109	3620.7
776.295	3613.92
776.481	3657.9
776.667	3667.59
776.853	3582.73
777.04	3568.39
777.226	3592.41
777.412	3639.11
777.598	3593.77
777.784	3586.79
777.97	3556.57
778.156	3593.77
778.342	3588.34
778.528	3512.78
778.715	3511.62
778.901	3505.23
779.087	3526.15
779.272	3501.16
779.458	3514.72
779.644	3494.76
779.83	3501.35
780.016	3573.43
780.202	3472.68
780.388	3464.54
780.574	3391.11
780.76	3463.18
780.946	3508.71
781.131	3461.25
781.317	3438.38
781.503	3396.34
781.689	3444.78
781.874	3509.88
782.06	3398.86
782.246	3435.28
782.432	3392.66
782.617	3428.31
782.803	3470.55
782.989	3323.88
783.174	3343.25
783.36	3332.99
783.545	3318.45
783.731	3362.05
783.916	3252.58
784.102	3331.63
784.288	3298.5
784.473	3296.17
784.659	3280.87
784.844	3325.43
785.029	3301.21
785.215	3251.22
785.4	3214.41
785.586	3312.84
785.771	3177.41
785.956	3292.88
786.142	3240.57
786.327	3230.88
786.512	3202.59
786.698	3230.3
786.883	3114.83
787.068	3168.11
787.254	3164.62
787.439	3118.31
787.624	3083.83
787.809	3103.78
787.994	3099.13
788.18	3174.11
788.365	3028.8
788.55	3090.22
788.735	3075.3
788.92	3030.55
789.105	3062.9
789.29	3051.08
789.475	2974.36
789.66	3008.26
789.845	2969.32
790.03	2919.33
790.215	3001.1
790.4	3024.93
790.585	3018.34
790.77	2960.41
790.955	2955.76
791.14	2935.03
791.325	3012.72
791.51	2877.29
791.695	2983.27
791.879	2937.74
792.064	2870.51
792.249	2989.67
792.434	2941.42
792.618	2919.14
792.803	2966.8
792.988	2889.11
793.173	2919.72
793.357	2990.63
793.542	2905.97
793.727	2948.2
793.911	2978.82
794.096	2948.59
794.281	2984.05
794.465	3045.27
794.65	2990.63
794.834	3010.98
795.019	3031.32
795.203	3007.49
795.388	3025.7
795.572	3066.97
795.757	2983.27
795.941	3003.81
796.126	3006.13
796.31	2918.56
796.494	2927.08
796.679	2927.86
796.863	2923.79
797.048	3004.39
797.232	2955.37
797.416	2964.28
797.601	2964.67
797.785	3035.58
797.969	3016.21
798.153	2975.72
798.338	3026.28
798.522	3065.42
798.706	3063.87
798.89	3046.05
799.074	3115.99
799.258	3107.27
799.443	3060.58
799.627	3030.74
799.811	3077.82
799.995	3001.87
800.179	2996.64
800.363	3016.01
800.547	3010.59
800.731	3068.33
800.915	2957.31
801.099	2992.57
801.283	2994.31
801.467	3011.95
801.651	2952.66
801.835	3009.81
802.019	2993.15
802.202	3014.27
802.386	2939.29
802.57	2928.83
802.754	2925.15
802.938	2966.03
803.121	2942.2
803.305	3009.81
803.489	2965.83
803.673	2983.08
803.856	2987.73
804.04	2937.93
804.224	2959.83
804.407	2953.05
804.591	2963.9
804.775	2930.77
804.958	3000.32
805.142	3051.86
805.326	2979.2
805.509	2988.89
805.693	3009.43
805.876	3053.6
806.06	2995.28
806.243	3067.55
806.427	3044.69
806.61	3097.39
806.794	3009.81
806.977	3068.33
807.16	3026.28
807.344	3053.8
807.527	3024.35
807.71	3046.82
807.894	2993.93
808.077	3044.3
808.26	2960.6
808.444	2996.45
808.627	3016.01
808.81	2948.59
808.993	2947.82
809.177	2881.17
809.36	2921.08
809.543	2919.33
809.726	2824.01
809.909	2834.67
810.092	2826.72
810.276	2824.98
810.459	2795.92
810.642	2757.75
810.825	2745.93
811.008	2759.88
811.191	2666.69
811.374	2691.49
811.557	2662.81
811.74	2725.01
811.923	2592.29
812.106	2598.88
812.289	2613.6
812.472	2576.79
812.654	2564.58
812.837	2509.56
813.02	2486.5
813.203	2429.35
813.386	2301.47
813.569	2316.39
813.751	2222.23
813.934	2322.4
814.117	2235.21
814.3	2186.97
814.482	2122.84
814.665	2083.32
814.848	2032.17
815.03	1966.68
815.213	1974.04
815.396	1954.09
815.578	1930.84
815.761	1892.47
815.943	1958.54
816.126	1865.93
816.309	1846.36
816.491	1800.06
816.674	1701.44
816.856	1758.4
817.039	1757.43
817.221	1845.39
817.403	1777.97
817.586	1819.04
817.768	1785.53
817.951	1738.06
818.133	1707.64
818.315	1743.87
818.498	1762.86
818.68	1858.57
818.862	1821.18
819.045	1831.44
819.227	1822.14
819.409	1830.86
819.591	1785.53
819.774	1843.26
819.956	1773.9
820.138	1909.52
820.32	1843.46
820.502	1967.07
820.684	2053.28
820.866	2010.47
821.048	2113.93
821.231	2054.83
821.413	2136.21
821.595	2088.74
821.777	2096.68
821.959	2089.13
822.141	2110.25
822.323	1987.02
822.505	1910.49
822.686	1846.36
822.868	1742.51
823.05	1607.86
823.232	1559.04
823.414	1539.66
823.596	1609.6
823.778	1608.44
823.96	1653.97
824.141	1648.16
824.323	1706.48
824.505	1739.8
824.687	1793.86
824.868	1862.83
825.05	1981.79
825.232	2001.55
825.413	2109.08
825.595	2041.85
825.777	1963.19
825.958	2026.94
826.14	2013.37
826.321	2019.77
826.503	2024.8
826.685	2088.35
826.866	2058.13
827.048	2065.49
827.229	1992.45
827.411	1961.84
827.592	1888.6
827.773	1913.01
827.955	1855.08
828.136	1835.9
828.318	1803.54
828.499	1827.38
828.68	1779.13
828.862	1809.55
829.043	1830.86
829.224	1758.21
829.406	1772.35
829.587	1774.48
829.768	1809.74
829.949	1814.01
830.131	1806.45
830.312	1865.54
830.493	1811.88
830.674	1851.01
830.855	1813.62
831.036	1839.97
831.218	1833.58
831.399	1895.57
831.58	1815.75
831.761	1872.52
831.942	1827.38
832.123	1794.24
832.304	1802.96
832.485	1815.75
832.666	1796.38
832.847	1830.48
833.028	1807.42
833.209	1810.91
833.389	1783.78
833.57	1730.89
833.751	1748.13
833.932	1856.83
834.113	1783.2
834.294	1777.58
834.475	1847.91
834.655	1860.89
834.836	1877.56
835.017	1880.46
835.198	1807.42
835.378	1848.3
835.559	1925.41
835.74	1858.37
835.92	1874.84
836.101	1831.64
836.281	1911.07
836.462	1869.81
836.643	1917.66
836.823	1939.56
837.004	1934.71
837.184	1978.11
837.365	1926.96
837.545	1958.74
837.726	1897.32
837.906	1956.02
838.087	1919.41
838.267	1925.22
838.448	1876.01
838.628	1883.56
838.808	1911.27
838.989	1968.23
839.169	1862.06
839.349	1969.2
839.53	1937.62
839.71	1938.97
839.89	1901.39
840.07	1970.17
840.251	1924.44
840.431	1967.84
840.611	1896.54
840.791	1887.44
840.971	1925.41
841.151	1919.79
841.332	1843.65
841.512	1954.28
841.692	1869.61
841.872	1877.56
842.052	1876.97
842.232	1914.37
842.412	1833.58
842.592	1907.59
842.772	1913.59
842.952	1921.73
843.132	1859.54
843.312	1859.54
843.492	1852.76
843.672	1905.65
843.851	1809.36
844.031	1867.09
844.211	1882.79
844.391	1834.35
844.571	1872.91
844.751	1870.39
844.93	1875.04
845.11	1860.12
845.29	1881.43
845.47	1912.24
845.649	1857.99
845.829	1918.82
846.009	1845.98
846.188	1900.22
846.368	1833.19
846.547	1848.88
846.727	1917.47
846.907	1834.35
847.086	1851.98
847.266	1894.02
847.445	1851.21
847.625	1842.68
847.804	1796.76
847.984	1805.09
848.163	1804.32
848.343	1839.39
848.522	1793.08
848.701	1812.46
848.881	1750.85
849.06	1783.78
849.239	1804.9
849.419	1816.33
849.598	1744.45
849.777	1712.68
849.957	1707.06
850.136	1637.31
850.315	1643.9
850.494	1646.8
850.674	1677.42
850.853	1720.62
851.032	1694.66
851.211	1747.55
851.39	1678.58
851.569	1620.65
851.748	1667.92
851.927	1712.1
852.107	1693.5
852.286	1640.41
852.465	1650.1
852.644	1695.43
852.823	1671.6
853.002	1677.61
853.181	1656.49
853.359	1701.25
853.538	1609.22
853.717	1676.06
853.896	1567.56
854.075	1472.43
854.254	1457.71
854.433	1415.47
854.611	1457.71
854.79	1404.43
854.969	1456.16
855.148	1474.17
855.327	1421.28
855.505	1516.41
855.684	1496.07
855.863	1545.67
856.041	1509.82
856.22	1565.62
856.399	1511.37
856.577	1621.81
856.756	1620.84
856.934	1687.3
857.113	1663.47
857.291	1605.73
857.47	1565.82
857.648	1597.98
857.827	1622.97
858.005	1651.65
858.184	1565.82
858.362	1671.22
858.541	1609.41
858.719	1591.39
858.898	1586.55
859.076	1550.32
859.254	1643.7
859.433	1553.42
859.611	1536.75
859.789	1512.92
859.967	1621.42
860.146	1646.8
860.324	1530.94
860.502	1542.37
860.68	1501.88
860.859	1528.04
861.037	1549.54
861.215	1544.31
861.393	1558.07
861.571	1548.19
861.749	1534.04
861.927	1556.9
862.105	1505.95
862.283	1525.52
862.461	1463.71
862.639	1475.34
862.817	1525.52
862.995	1527.07
863.173	1516.8
863.351	1498.01
863.529	1557.49
863.707	1546.44
863.885	1514.67
864.063	1409.85
864.241	1465.84
864.418	1525.32
864.596	1495.49
864.774	1420.12
864.952	1463.91
865.129	1483.67
865.307	1410.43
865.485	1394.93
865.663	1457.71
865.84	1397.84
866.018	1385.83
866.196	1275.39
866.373	1303.48
866.551	1270.74
866.728	1175.03
866.906	1267.06
867.084	1308.71
867.261	1320.73
867.439	1308.91
867.616	1366.64
867.794	1312.59
867.971	1362.58
868.149	1356.38
868.326	1384.86
868.503	1425.74
868.681	1404.81
868.858	1348.82
869.035	1290.31
869.213	1380.79
869.39	1342.04
869.567	1417.6
869.745	1334.48
869.922	1374.39
870.099	1408.88
870.276	1410.82
870.454	1373.04
870.631	1368
870.808	1356.76
870.985	1398.61
871.162	1404.43
871.339	1375.36
871.517	1315.5
871.694	1324.6
871.871	1326.35
872.048	1353.47
872.225	1328.28
872.402	1364.13
872.579	1271.9
872.756	1348.63
872.933	1267.06
873.11	1292.05
873.287	1316.66
873.463	1311.62
873.64	1286.05
873.817	1310.07
873.994	1279.85
874.171	1248.65
874.348	1312.4
874.524	1264.35
874.701	1281.01
874.878	1218.43
875.055	1287.01
875.231	1295.15
875.408	1269.38
875.585	1194.02
875.762	1258.92
875.938	1234.32
876.115	1227.92
876.291	1210.48
876.468	1236.45
876.645	1224.43
876.821	1227.92
876.998	1228.5
877.174	1243.42
877.351	1224.63
877.527	1193.82
877.704	1217.27
877.88	1219.2
878.057	1188.01
878.233	1248.26
878.409	1178.9
878.586	1223.66
878.762	1205.45
878.938	1203.9
879.115	1141.9
879.291	1194.98
879.467	1129.3
879.644	1163.98
879.82	1195.76
879.996	1112.06
880.172	1119.62
880.349	1146.16
880.525	1202.93
880.701	1122.33
880.877	1158.56
881.053	1153.72
881.229	1155.46
881.405	1161.66
881.581	1111.29
881.757	1127.75
881.933	1154.1
882.109	1157.2
882.285	1121.55
882.461	1077.38
882.637	1163.6
882.813	1111.67
882.989	1170.77
883.165	1195.57
883.341	1127.95
883.517	1191.69
883.693	1140.54
883.869	1184.91
884.044	1115.16
884.22	1149.07
884.396	1236.45
884.572	1170.77
884.747	1166.89
884.923	1143.64
885.099	1167.47
885.275	1166.89
885.45	1124.07
885.626	1117.87
885.801	1088.42
885.977	1114.77
886.153	1094.04
886.328	1125.43
886.504	1134.54
886.679	1142.67
886.855	1109.93
887.03	1131.44
887.206	1145.58
887.381	1154.49
887.557	1134.73
887.732	1156.82
887.908	1131.05
888.083	1178.13
888.258	1150.62
888.434	1100.44
888.609	1132.79
888.784	1190.33
888.96	1136.09
889.135	1113.8
889.31	1126.4
889.485	1124.27
889.661	1120.59
889.836	1152.17
890.011	1138.02
890.186	1106.64
890.361	1095.98
890.537	1144.22
890.712	1145.97
890.887	1087.07
891.062	1089.97
891.237	1189.75
891.412	1073.31
891.587	1150.62
891.762	1154.3
891.937	1154.88
892.112	1057.62
892.287	1102.95
892.462	1078.54
892.637	1037.66
892.812	1024.29
892.987	1040.96
893.161	1017.71
893.336	1014.41
893.511	1030.69
893.686	1002.4
893.861	1010.92
894.035	1031.27
894.21	1034.37
894.385	956.09
894.56	1008.21
894.734	951.44
894.909	917.34
895.084	894.48
895.258	905.53
895.433	902.81
895.608	881.89
895.782	840.43
895.957	876.27
896.131	859.41
896.306	764.28
896.48	779.59
896.655	784.82
896.829	732.9
897.004	696.67
897.178	723.02
897.353	690.47
897.527	758.67
897.701	726.7
897.876	695.5
898.05	757.89
898.224	773.78
898.399	787.34
898.573	713.14
898.747	645.32
898.921	670.7
899.096	558.33
899.27	564.53
899.444	585.46
899.618	596.11
899.792	637.38
899.967	641.06
900.141	697.05
900.315	593.59
900.489	636.99
900.663	613.16
900.837	611.61
901.011	605.22
901.185	669.54
901.359	621.69
901.533	659.08
901.707	612
901.881	653.46
902.055	587.01
902.229	576.74
902.403	673.42
902.576	629.63
902.75	625.95
902.924	736.19
903.098	698.99
903.272	772.03
903.446	773.39
903.619	776.68
903.793	791.99
903.967	770.29
904.14	798.77
904.314	822.21
904.488	815.63
904.661	815.24
904.835	811.56
905.009	850.89
905.182	853.8
905.356	848.37
905.529	832.29
905.703	805.75
905.876	792.96
906.05	739.48
906.223	739.68
906.397	655.4
906.57	669.74
906.744	641.45
906.917	618.59
907.09	618.59
907.264	647.65
907.437	597.47
907.61	590.49
907.784	595.72
907.957	612.39
908.13	575.96
908.304	581.39
908.477	548.26
908.65	545.16
908.823	523.26
908.996	564.92
909.17	536.44
909.343	533.34
909.516	540.31
909.689	573.25
909.862	522.68
910.035	553.29
910.208	519.78
910.381	511.64
910.554	613.74
910.727	536.44
910.9	535.66
911.073	533.73
911.246	611.81
911.419	616.07
911.592	582.16
911.765	529.66
911.938	545.93
912.11	541.86
912.283	535.47
912.456	602.89
912.629	563.17
912.802	509.31
912.974	492.84
913.147	432.98
913.32	413.8
913.493	451.96
913.665	450.22
913.838	463.39
914.01	458.55
914.183	481.99
914.356	477.15
914.528	514.35
914.701	548.84
914.873	547.48
915.046	473.08
915.218	454.1
915.391	371.75
915.563	421.74
915.736	441.89
915.908	485.68
916.081	481.41
916.253	483.74
916.425	491.88
916.598	486.26
916.77	501.56
916.942	436.46
917.115	366.52
917.287	444.8
917.459	444.41
917.632	375.24
917.804	343.47
917.976	436.85
918.148	464.94
918.32	465.14
918.493	473.08
918.665	517.64
918.837	475.02
919.009	566.47
919.181	527.72
919.353	492.84
919.525	512.99
919.697	504.28
919.869	486.06
920.041	575.19
920.213	622.85
920.385	569.18
920.557	502.73
920.729	553.1
920.901	532.95
921.073	503.31
921.244	486.64
921.416	564.53
921.588	495.56
921.76	502.14
921.932	592.43
922.103	515.9
922.275	528.49
922.447	527.14
922.619	459.91
922.79	465.53
922.962	475.99
923.134	515.51
923.305	443.83
923.477	408.37
923.648	448.28
923.82	463.78
923.991	413.6
924.163	383.18
924.335	447.7
924.506	403.53
924.677	483.16
924.849	404.5
925.02	455.65
925.192	440.53
925.363	465.53
925.535	436.46
925.706	393.84
925.877	472.69
926.049	395.39
926.22	437.82
926.391	444.41
926.562	468.43
926.734	409.73
926.905	461.07
927.076	376.79
927.247	412.25
927.419	349.47
927.59	347.92
927.761	373.5
927.932	325.64
928.103	328.93
928.274	264.03
928.445	277.2
928.616	287.47
928.787	268.49
928.958	326.42
929.129	282.82
929.3	289.41
929.471	254.92
929.642	209.97
929.813	181.49
929.984	259.96
930.155	158.24
930.326	227.41
930.496	180.91
930.667	165.99
930.838	196.8
931.009	166.19
931.18	142.74
931.35	153.01
931.521	155.14
931.692	101.48
931.863	89.27
932.033	111.94
932.204	97.02
932.374	148.17
932.545	76.29
932.716	124.14
932.886	116.39
933.057	36.96
933.227	64.66
933.398	134.99
933.568	46.06
933.739	30.76
933.909	34.44
934.08	97.21
934.25	5.18
934.421	44.32
934.591	77.26
934.761	0.92
934.932	2.86
935.102	62.53
935.272	35.99
935.443	74.74
935.613	27.85
935.783	58.85
935.953	-8.96
936.123	164.83
936.294	8.28
936.464	61.76
936.634	64.47
936.804	28.24
936.974	-37.64
937.144	55.94
937.314	31.73
937.484	9.25
937.655	3.05
937.825	75.71
937.995	16.03
938.165	76.68
938.334	43.74
938.504	75.32
938.674	33.47
938.844	61.76
939.014	98.76
939.184	133.25
939.354	118.14
939.524	149.72
939.694	88.11
939.863	88.69
940.033	135.19
940.203	120.46
940.373	102.83
940.542	118.52
940.712	83.26
940.882	112.52
941.051	141.97
941.221	113.29
941.391	133.64
941.56	91.4
941.73	66.6
941.899	181.49
942.069	84.81
942.238	93.53
942.408	77.06
942.577	107.29
942.747	79.78
942.916	51.49
943.086	73.58
943.255	106.9
943.425	78.61
943.594	82.29
943.763	8.09
943.933	52.26
944.102	-3.54
944.271	54.39
944.441	83.46
944.61	62.53
944.779	48.78
944.948	159.21
945.117	47.61
945.287	55.36
945.456	30.56
945.625	48.39
945.794	98.96
945.963	24.36
946.132	75.13
946.301	33.08
946.47	85.59
946.639	24.94
946.808	56.33
946.977	82.68
947.146	91.98
947.315	63.5
947.484	79.97
947.653	71.06
947.822	40.64
947.991	46.45
948.16	122.01
948.329	98.76
948.498	89.85
948.666	68.93
948.835	101.86
949.004	9.06
949.173	15.65
949.341	48.19
949.51	78.23
949.679	96.24
949.847	86.94
950.016	130.73
950.185	114.46
950.353	45.29
950.522	66.41
950.69	103.8
950.859	69.89
951.028	103.8
951.196	73.38
951.365	51.68
951.533	55.94
951.701	131.7
951.87	89.46
952.038	43.16
952.207	68.34
952.375	105.93
952.543	49.36
952.712	42.58
952.88	61.56
953.048	122.79
953.217	78.61
953.385	60.59
953.553	103.61
953.721	51.1
953.89	59.82
954.058	34.05
954.226	56.72
954.394	68.54
954.562	31.73
954.73	41.8
954.898	47.61
955.067	68.34
955.235	54.2
955.403	96.44
955.571	133.64
955.739	86.94
955.907	66.99
956.075	70.09
956.243	55.17
956.41	70.48
956.578	14.68
956.746	32.89
956.914	69.12
957.082	95.66
957.25	114.26
957.418	52.46
957.585	75.71
957.753	102.25
957.921	50.33
958.089	71.64
958.256	93.14
958.424	81.33
958.592	81.13
958.759	81.33
958.927	88.11
959.095	52.84
959.262	80.94
959.43	35.21
959.597	9.06
959.765	75.71
959.932	42.77
960.1	112.13
960.267	96.63
960.435	97.99
960.602	108.45
960.77	75.32
960.937	33.47
961.104	83.84
961.272	40.64
961.439	77.26
961.606	91.79
961.774	113.87
961.941	55.36
962.108	107.09
962.275	63.5
962.443	108.84
962.61	96.05
962.777	144.29
962.944	133.06
963.111	94.11
963.278	115.23
963.446	102.25
963.613	90.63
963.78	104.38
963.947	102.44
964.114	95.66
964.281	159.6
964.448	104.77
964.615	68.54
964.782	85.59
964.949	110.39
965.116	105.16
965.282	152.24
965.449	93.92
965.616	65.05
965.783	98.38
965.95	117.17
966.117	63.31
966.283	86.75
966.45	106.51
966.617	73.96
966.784	143.91
966.95	140.81
967.117	122.79
967.284	85.39
967.45	83.46
967.617	155.72
967.784	134.61
967.95	157.66
968.117	93.14
968.283	155.92
968.45	217.53
968.616	130.15
968.783	162.31
968.949	152.04
969.116	132.47
969.282	138.67
969.449	100.51
969.615	109.42
969.781	88.3
969.948	87.33
970.114	75.51
970.28	175.1
970.447	120.85
970.613	134.02
970.779	120.27
970.945	142.74
971.112	147.78
971.278	148.56
971.444	128.02
971.61	164.64
971.776	125.5
971.942	114.84
972.108	149.91
972.275	114.65
972.441	143.32
972.607	165.99
972.773	100.89
972.939	134.22
973.105	107.87
973.271	79.78
973.437	97.41
973.602	78.81
973.768	137.9
973.934	99.73
974.1	141.77
974.266	47.03
974.432	128.99
974.598	85.59
974.763	133.25
974.929	72.61
975.095	159.79
975.261	63.5
975.426	98.38
975.592	116.78
975.758	150.11
975.923	50.13
976.089	83.65
976.255	107.29
976.42	119.69
976.586	120.85
976.751	92.76
976.917	170.06
977.082	107.09
977.248	36.57
977.413	35.02
977.579	101.28
977.744	130.54
977.91	65.83
978.075	77.45
978.24	141.19
978.406	91.79
978.571	80.55
978.736	82.1
978.902	142.74
979.067	51.1
979.232	45.09
979.397	108.06
979.563	160.76
979.728	82.49
979.893	113.1
980.058	78.61
980.223	132.28
980.388	96.83
980.554	102.44
980.719	68.15
980.884	110.19
981.049	123.56
981.214	97.41
981.379	107.68
981.544	75.13
981.709	98.38
981.874	76.29
982.039	87.72
982.204	126.86
982.368	120.85
982.533	75.13
982.698	157.08
982.863	137.9
983.028	94.89
983.193	130.34
983.357	117.75
983.522	135.77
983.687	97.79
983.852	105.35
984.016	107.87
984.181	108.45
984.346	110
984.51	143.71
984.675	103.8
984.839	111.16
985.004	110.77
985.168	133.83
985.333	135.19
985.498	95.86
985.662	125.89
985.827	115.04
985.991	131.89
986.155	83.65
986.32	113.29
986.484	157.08
986.649	121.82
986.813	50.52
986.977	83.07
987.142	127.44
987.306	75.32
987.47	93.53
987.634	91.21
987.799	94.5
987.963	124.53
988.127	109.22
988.291	154.37
988.455	102.83
988.62	101.28
988.784	113.87
988.948	92.76
989.112	100.7
989.276	102.64
989.44	107.87
989.604	62.14
989.768	84.62
989.932	161.54
990.096	76.09
990.26	90.63
990.424	86.56
990.588	107.09
990.752	129.76
990.915	120.27
991.079	76.87
991.243	83.26
991.407	127.05
991.571	74.93
991.734	121.24
991.898	118.52
992.062	168.71
992.226	86.75
992.389	56.91
992.553	40.83
992.717	72.8
992.88	75.71
993.044	94.31
993.207	89.85
993.371	105.35
993.535	105.35
993.698	107.87
993.862	115.81
994.025	113.1
994.189	103.61
994.352	95.86
994.515	123.37
994.679	123.37
994.842	67.57
995.006	106.13
995.169	67.18
995.332	39.28
995.496	124.92
995.659	38.12
995.822	50.91
995.985	90.82
996.149	137.71
996.312	84.23
996.475	141.77
996.638	95.08
996.801	122.59
996.964	132.47
997.128	81.71
997.291	76.29
997.454	76.48
997.617	43.93
997.78	116.78
997.943	58.85
998.106	117.36
998.269	79.97
998.432	79.19
998.595	69.31
998.758	49.36
998.92	38.12
999.083	20.88
999.246	60.98
999.409	9.45
999.572	18.36
999.735	59.04
999.897	98.96
1000.06	46.84
1000.223	48.58
1000.386	122.21
1000.548	98.96
1000.711	92.18
1000.874	66.6
1001.036	46.84
1001.199	118.52
1001.361	70.48
1001.524	52.65
1001.687	90.24
1001.849	55.56
1002.012	74.35
1002.174	74.93
1002.337	88.88
1002.499	57.49
1002.661	114.07
1002.824	48.58
1002.986	48.97
1003.149	98.76
1003.311	31.14
1003.473	107.09
1003.636	37.93
1003.798	86.56
1003.96	68.34
1004.123	43.74
1004.285	69.31
1004.447	72.03
1004.609	53.43
1004.771	102.06
1004.933	30.37
1005.096	47.81
1005.258	18.75
1005.42	37.54
1005.582	79.97
1005.744	64.28
1005.906	32.69
1006.068	74.74
1006.23	21.85
1006.392	21.07
1006.554	29.21
1006.716	82.88
1006.878	90.82
1007.04	27.27
1007.202	29.98
1007.363	79.97
1007.525	60.59
1007.687	66.79
1007.849	97.21
1008.011	1.89
1008.172	6.35
1008.334	60.4
1008.496	67.38
1008.658	3.83
1008.819	40.44
1008.981	19.71
1009.143	52.07
1009.304	52.26
1009.466	72.41
1009.627	108.06
1009.789	141
1009.95	52.84
1010.112	41.03
1010.273	48.39
1010.435	39.67
1010.596	50.13
1010.758	41.8
1010.919	43.16
1011.081	54.39
1011.242	52.46
1011.403	82.1
1011.565	27.08
1011.726	61.76
1011.887	11
1012.049	50.13
1012.21	53.04
1012.371	102.64
1012.532	-10.32
1012.693	6.93
1012.855	37.15
1013.016	45.48
1013.177	89.46
1013.338	23.78
1013.499	115.04
1013.66	72.99
1013.821	66.41
1013.982	35.79
1014.143	59.24
1014.304	22.62
1014.465	43.16
1014.626	56.72
1014.787	46.45
1014.948	108.06
1015.109	-20.2
1015.27	83.07
1015.431	38.7
1015.592	25.14
1015.752	76.68
1015.913	38.31
1016.074	50.91
1016.235	32.31
1016.395	36.57
1016.556	32.31
1016.717	10.22
1016.877	95.28
1017.038	7.7
1017.199	39.86
1017.359	56.72
1017.52	59.63
1017.681	29.79
1017.841	35.02
1018.002	37.34
1018.162	23.98
1018.323	66.21
1018.483	17.39
1018.644	33.66
1018.804	25.91
1018.964	3.25
1019.125	2.86
1019.285	41.41
1019.446	11
1019.606	6.15
1019.766	-12.06
1019.926	41.03
1020.087	64.08
1020.247	13.32
1020.407	39.48
1020.567	79.39
1020.728	19.33
1020.888	10.41
1021.048	3.25
1021.208	0.15
1021.368	-7.6
1021.528	67.38
1021.688	59.82
1021.848	47.23
1022.008	29.01
1022.168	17.2
1022.328	14.1
1022.488	31.34
1022.648	13.13
1022.808	21.46
1022.968	49.74
1023.128	1.11
1023.288	12.93
1023.448	16.23
1023.608	30.18
1023.767	26.69
1023.927	6.73
1024.087	2.66
1024.247	4.21
1024.406	12.16
1024.566	-13.22
1024.726	-8.19
1024.885	34.05
1025.045	26.3
1025.205	12.93
1025.364	1.11
1025.524	39.28
1025.683	4.8
1025.843	40.64
1026.003	23.01
1026.162	58.46
1026.321	75.32
1026.481	29.01
1026.64	-4.12
1026.8	33.86
1026.959	18.55
1027.119	19.13
1027.278	30.95
1027.437	0.34
1027.597	23.01
1027.756	-7.6
1027.915	39.28
1028.074	45.09
1028.234	-11.09
1028.393	33.66
1028.552	12.55
1028.711	-51.2
1028.87	42.77
1029.03	0.73
1029.189	25.72
1029.348	-39.38
1029.507	-14.58
1029.666	22.81
1029.825	17.78
1029.984	1.5
1030.143	24.36
1030.302	15.26
1030.461	-16.52
1030.62	29.59
1030.779	49.16
1030.938	0.53
1031.097	5.18
1031.255	53.81
1031.414	66.21
1031.573	37.34
1031.732	-37.44
1031.891	8.86
1032.049	71.83
1032.208	31.73
1032.367	-11.67
1032.525	-1.21
1032.684	17.78
1032.843	21.85
1033.001	-4.7
1033.16	146.04
1033.319	37.15
1033.477	50.71
1033.636	-6.05
1033.794	-52.75
1033.953	39.48
1034.111	63.89
1034.27	22.04
1034.428	53.62
1034.587	8.67
1034.745	23.01
1034.903	20.88
1035.062	18.36
1035.22	-26.79
1035.378	45.87
1035.537	-2.95
1035.695	53.04
1035.853	3.63
1036.011	40.25
1036.17	40.06
1036.328	-35.7
1036.486	24.17
1036.644	12.93
1036.802	-42.67
1036.96	-26.59
1037.119	22.04
1037.277	-7.6
1037.435	-19.62
1037.593	-3.54
1037.751	11.38
1037.909	39.09
1038.067	39.09
