Data from gum_young_FLMT105791__88__17-39-46-042.txt Node

Date: Mon Mar 20 17:39:46 GMT 2023
User: antho
Spectrometer: FLMT10579
Trigger mode: 0
Integration Time (sec): 1.000000E-1
Scans to average: 10
Electric dark correction enabled: true
Nonlinearity correction enabled: false
Boxcar width: 0
XAxis mode: Wavelengths
Number of Pixels in Spectrum: 3648
>>>>>Begin Spectral Data<<<<<
345.248	-122.27
345.464	-122.27
345.681	-122.27
345.898	-147.46
346.114	-148.62
346.331	-25.4
346.548	32.15
346.764	-5.83
346.981	-17.26
347.197	-25.01
347.414	14.32
347.631	-31.6
347.847	35.05
348.064	-6.22
348.28	45.9
348.497	-26.37
348.713	10.25
348.93	10.45
349.146	29.82
349.363	0.37
349.579	24.98
349.796	-0.79
350.012	-6.22
350.229	7.93
350.445	-9.51
350.661	-25.01
350.878	-1.18
351.094	-0.98
351.311	27.88
351.527	13.93
351.743	5.6
351.96	18.58
352.176	11.41
352.392	40.48
352.609	54.04
352.825	3.28
353.041	18
353.257	-27.14
353.474	16.65
353.69	1.53
353.906	12.96
354.122	-28.69
354.339	63.92
354.555	15.29
354.771	-12.61
354.987	40.48
355.203	39.51
355.42	1.15
355.636	9.67
355.852	-11.83
356.068	36.02
356.284	-31.98
356.5	18.39
356.716	6.77
356.932	8.51
357.148	34.66
357.364	-13.97
357.58	34.28
357.796	39.31
358.012	29.82
358.228	11.61
358.444	-27.92
358.66	32.92
358.876	29.24
359.092	-11.06
359.308	5.99
359.524	40.67
359.74	-6.6
359.956	-18.62
360.172	5.02
360.388	47.65
360.604	-7.77
360.819	93.18
361.035	10.06
361.251	6.77
361.467	-10.48
361.683	36.8
361.898	6.77
362.114	40.67
362.33	7.73
362.546	47.45
362.762	-15.32
362.977	23.23
363.193	-7.77
363.409	74.96
363.624	-2.34
363.84	-7.77
364.056	8.9
364.271	33.31
364.487	1.53
364.703	5.02
364.918	-27.72
365.134	-8.35
365.35	10.25
365.565	86.78
365.781	31.56
365.996	15.87
366.212	56.95
366.427	40.48
366.643	-6.41
366.858	-6.8
367.074	-15.71
367.289	45.51
367.505	118.94
367.72	-9.9
367.936	0.76
368.151	23.81
368.367	17.61
368.582	11.8
368.798	3.47
369.013	79.23
369.228	9.86
369.444	20.71
369.659	67.02
369.874	34.86
370.09	67.8
370.305	-32.18
370.52	-4.08
370.736	65.86
370.951	22.65
371.166	67.99
371.381	58.11
371.597	46.87
371.812	-19.2
372.027	-31.6
372.242	15.87
372.458	89.69
372.673	14.32
372.888	3.08
373.103	41.64
373.318	73.22
373.533	24.4
373.749	31.18
373.964	-47.1
374.179	52.3
374.394	10.83
374.609	84.07
374.824	-7.77
375.039	73.03
375.254	-3.5
375.469	54.43
375.684	29.43
375.899	43.19
376.114	13.74
376.329	25.56
376.544	49
376.759	60.05
376.974	-20.36
377.189	10.25
377.404	19.75
377.619	65.28
377.834	-11.45
378.049	-13.77
378.264	-7.96
378.478	34.66
378.693	-21.72
378.908	45.13
379.123	-2.34
379.338	99.18
379.553	33.11
379.767	13.55
379.982	40.86
380.197	24.4
380.412	-1.95
380.626	51.91
380.841	97.05
381.056	15.68
381.271	83.1
381.485	-12.8
381.7	-30.24
381.915	28.46
382.129	-5.63
382.344	36.6
382.559	8.31
382.773	52.3
382.988	-0.21
383.202	16.84
383.417	24.78
383.632	94.34
383.846	17.03
384.061	38.54
384.275	26.14
384.49	33.11
384.704	28.66
384.919	14.71
385.133	11.03
385.348	46.87
385.562	6.57
385.777	58.11
385.991	30.98
386.206	22.46
386.42	11.22
386.634	81.16
386.849	32.53
387.063	53.46
387.277	-24.62
387.492	-17.45
387.706	-18.42
387.92	-3.31
388.135	53.65
388.349	61.79
388.563	39.51
388.778	36.41
388.992	51.33
389.206	49.58
389.42	73.22
389.635	43.77
389.849	38.93
390.063	77.29
390.277	16.06
390.491	83.68
390.706	60.24
390.92	62.95
391.134	23.43
391.348	48.42
391.562	-14.55
391.776	40.86
391.99	14.13
392.205	48.23
392.419	6.18
392.633	20.71
392.847	75.55
393.061	29.24
393.275	90.27
393.489	15.87
393.703	65.28
393.917	73.03
394.131	-2.92
394.345	33.31
394.559	72.45
394.773	42.61
394.986	71.67
395.2	17.42
395.414	55.59
395.628	36.21
395.842	50.36
396.056	-6.99
396.27	-2.53
396.484	33.11
396.697	56.17
396.911	68.38
397.125	39.51
397.339	59.46
397.553	52.68
397.766	98.02
397.98	64.7
398.194	90.46
398.408	30.01
398.621	58.11
398.835	70.51
399.049	10.06
399.262	65.47
399.476	65.08
399.69	44.35
399.903	124.18
400.117	57.72
400.331	74.77
400.544	48.61
400.758	116.23
400.971	68.38
401.185	80.97
401.398	19.55
401.612	69.15
401.826	90.27
402.039	46.1
402.253	41.06
402.466	81.55
402.68	29.05
402.893	57.33
403.106	58.11
403.32	44.74
403.533	80.2
403.747	70.51
403.96	83.1
404.174	105.96
404.387	25.95
404.6	94.53
404.814	70.7
405.027	76.32
405.24	65.66
405.454	49.78
405.667	101.89
405.88	9.67
406.094	53.07
406.307	92.79
406.52	57.14
406.733	34.86
406.947	19.36
407.16	104.22
407.373	98.6
407.586	32.73
407.799	19.36
408.012	88.72
408.226	77.29
408.439	124.95
408.652	6.38
408.865	57.72
409.078	81.94
409.291	89.11
409.504	47.45
409.717	75.35
409.93	103.83
410.143	62.56
410.357	-4.08
410.57	19.75
410.783	64.31
410.996	90.27
411.209	53.85
411.421	99.76
411.634	96.86
411.847	67.02
412.06	75.93
412.273	68.18
412.486	46.68
412.699	167.77
412.912	62.18
413.125	103.44
413.338	91.05
413.55	82.13
413.763	74.96
413.976	111.58
414.189	90.27
414.402	43.19
414.615	112.94
414.827	69.93
415.04	97.05
415.253	74.96
415.466	88.33
415.678	125.14
415.891	94.73
416.104	96.08
416.316	78.06
416.529	71.48
416.742	93.37
416.954	124.95
417.167	87.95
417.38	71.86
417.592	128.63
417.805	81.75
418.017	50.55
418.23	120.88
418.442	86.01
418.655	71.86
418.868	99.38
419.08	109.84
419.293	112.74
419.505	90.27
419.718	108.29
419.93	126.11
420.142	71.67
420.355	125.53
420.567	130.76
420.78	126.5
420.992	60.82
421.205	145.88
421.417	54.43
421.629	81.16
421.842	68.96
422.054	45.71
422.266	129.79
422.479	138.9
422.691	45.9
422.903	107.9
423.115	95.11
423.328	85.43
423.54	122.82
423.752	83.68
423.964	79.03
424.177	94.53
424.389	91.63
424.601	213.49
424.813	94.73
425.025	116.23
425.238	116.43
425.45	109.26
425.662	102.09
425.874	371.78
426.086	103.64
426.298	128.63
426.51	112.74
426.722	103.44
426.934	84.46
427.146	108.48
427.358	65.86
427.57	139.48
427.782	97.44
427.994	108.29
428.206	122.04
428.418	81.75
428.63	132.12
428.842	122.24
429.054	122.43
429.266	130.76
429.478	73.22
429.69	103.44
429.902	72.83
430.114	114.68
430.325	103.06
430.537	75.35
430.749	81.36
430.961	43.77
431.173	77.87
431.384	125.14
431.596	45.9
431.808	84.65
432.02	107.13
432.231	117.98
432.443	140.64
432.655	112.36
432.867	75.35
433.078	106.16
433.29	168.93
433.502	141.42
433.713	166.41
433.925	113.91
434.136	163.89
434.348	68.76
434.56	77.87
434.771	196.64
434.983	86.98
435.194	111.58
435.406	107.51
435.617	185.01
435.829	188.31
436.04	154.01
436.252	153.82
436.463	167.77
436.675	168.16
436.886	149.36
437.098	148.78
437.309	184.04
437.521	128.83
437.732	117.2
437.943	137.35
438.155	118.56
438.366	91.43
438.578	179.59
438.789	135.8
439	166.8
439.211	120.3
439.423	160.41
439.634	129.99
439.845	159.83
440.057	147.04
440.268	175.71
440.479	113.71
440.69	162.15
440.902	118.17
441.113	122.63
441.324	142.58
441.535	170.09
441.746	213.3
441.957	95.5
442.168	148.2
442.38	143.74
442.591	200.71
442.802	120.49
443.013	122.82
443.224	190.82
443.435	157.69
443.646	143.36
443.857	137.74
444.068	156.53
444.279	145.88
444.49	214.07
444.701	171.26
444.912	229.19
445.123	193.54
445.334	167.58
445.545	158.86
445.756	162.93
445.967	139.09
446.178	165.64
446.388	203.22
446.599	201.09
446.81	199.16
447.021	166.61
447.232	206.13
447.443	185.98
447.653	143.55
447.864	191.79
448.075	188.89
448.286	189.66
448.496	187.72
448.707	224.92
448.918	153.82
449.129	270.65
449.339	180.36
449.55	188.5
449.761	173.78
449.971	203.81
450.182	200.32
450.393	190.82
450.603	172.81
450.814	204.19
451.024	205.16
451.235	210.2
451.446	254.96
451.656	216.98
451.867	165.64
452.077	190.44
452.288	255.34
452.498	247.79
452.709	185.59
452.919	215.24
453.13	139.48
453.34	243.14
453.55	156.92
453.761	208.65
453.971	223.76
454.182	222.79
454.392	229.19
454.602	284.02
454.813	211.56
455.023	271.81
455.233	153.63
455.444	226.86
455.654	132.7
455.864	204.19
456.075	209.04
456.285	206.52
456.495	215.62
456.705	207.29
456.916	233.06
457.126	261.74
457.336	226.67
457.546	115.07
457.756	195.67
457.967	242.56
458.177	213.88
458.387	219.31
458.597	202.45
458.807	220.27
459.017	201.67
459.227	203.81
459.437	229.19
459.647	238.49
459.857	244.88
460.068	198.77
460.278	253.21
460.488	263.09
460.698	264.84
460.908	220.86
461.117	192.18
461.327	197.99
461.537	221.63
461.747	216.4
461.957	245.07
462.167	315.79
462.377	272.78
462.587	230.74
462.797	277.24
463.007	250.5
463.216	273.17
463.426	288.28
463.636	229.38
463.846	186.37
464.056	219.11
464.265	291.19
464.475	222.21
464.685	239.84
464.895	265.61
465.104	219.5
465.314	260.38
465.524	227.83
465.733	224.54
465.943	295.25
466.153	333.04
466.362	299.9
466.572	272
466.782	243.52
466.991	241.39
467.201	311.34
467.41	225.89
467.62	253.79
467.829	237.13
468.039	254.96
468.249	254.18
468.458	241.97
468.668	280.92
468.877	259.61
469.086	283.24
469.296	284.02
469.505	248.95
469.715	333.04
469.924	281.11
470.134	309.59
470.343	283.05
470.552	272.2
470.762	262.71
470.971	243.33
471.18	262.12
471.39	292.35
471.599	247.4
471.808	298.35
472.018	256.51
472.227	318.31
472.436	315.79
472.645	270.26
472.855	278.01
473.064	321.6
473.273	309.4
473.482	291.96
473.691	321.22
473.901	335.36
474.11	259.22
474.319	359.58
474.528	307.65
474.737	358.42
474.946	340.01
475.155	344.27
475.364	357.45
475.573	336.72
475.783	352.41
475.992	349.12
476.201	364.23
476.41	328.19
476.619	291.77
476.828	320.64
477.037	286.92
477.245	323.93
477.454	388.83
477.663	339.24
477.872	322.57
478.081	371.01
478.29	296.22
478.499	418.67
478.708	368.88
478.917	434.56
479.125	362.68
479.334	365.97
479.543	363.07
479.752	376.24
479.961	358.42
480.169	382.44
480.378	364.42
480.587	465.75
480.796	410.53
481.004	373.53
481.213	396.97
481.422	402.98
481.63	391.35
481.839	441.92
482.048	480.67
482.256	384.18
482.465	415.77
482.674	459.36
482.882	419.45
483.091	485.32
483.299	428.55
483.508	441.15
483.716	400.65
483.925	435.92
484.134	404.92
484.342	391.16
484.551	437.85
484.759	429.52
484.967	454.9
485.176	446.96
485.384	447.54
485.593	492.1
485.801	428.55
486.01	430.88
486.218	422.55
486.426	384.57
486.635	392.52
486.843	392.9
487.051	424.68
487.26	396.2
487.468	457.81
487.676	478.15
487.885	436.69
488.093	418.67
488.301	425.45
488.509	457.42
488.717	480.48
488.926	468.08
489.134	441.53
489.342	466.53
489.55	432.04
489.758	479.7
489.967	471.95
490.175	552.36
490.383	452.96
490.591	529.5
490.799	485.9
491.007	513.41
491.215	495.78
491.423	475.83
491.631	500.24
491.839	499.46
492.047	527.75
492.255	489.58
492.463	430.1
492.671	487.65
492.879	542.28
493.087	489
493.295	519.61
493.503	562.04
493.711	553.91
493.919	574.83
494.127	561.66
494.334	564.18
494.542	491.52
494.75	532.4
494.958	552.74
495.166	586.65
495.374	572.7
495.581	560.49
495.789	571.34
495.997	591.49
496.205	540.34
496.412	540.93
496.62	570.96
496.828	562.24
497.035	567.08
497.243	612.23
497.451	566.31
497.658	580.64
497.866	601.76
498.074	628.31
498.281	587.04
498.489	654.46
498.696	610.87
498.904	572.7
499.112	577.93
499.319	665.31
499.527	616.49
499.734	683.14
499.942	560.49
500.149	572.89
500.357	613.78
500.564	605.64
500.771	614.36
500.979	578.51
501.186	600.02
501.394	640.51
501.601	610.29
501.808	682.75
502.016	654.85
502.223	610.87
502.43	627.14
502.638	631.79
502.845	576.19
503.052	716.27
503.26	645.36
503.467	714.33
503.674	636.25
503.881	678.49
504.089	708.13
504.296	698.25
504.503	618.43
504.71	677.32
504.917	644.97
505.125	685.07
505.332	689.92
505.539	705.42
505.746	738.55
505.953	717.62
506.16	696.89
506.367	786.6
506.574	778.65
506.781	785.44
506.988	726.92
507.195	760.64
507.402	748.62
507.609	795.32
507.816	746.88
508.023	759.86
508.23	740.49
508.437	721.89
508.644	801.52
508.851	816.63
509.058	811.98
509.265	780.01
509.472	809.46
509.679	927.45
509.885	786.6
510.092	818.95
510.299	851.12
510.506	832.32
510.713	844.53
510.92	828.64
511.126	877.27
511.333	875.33
511.54	899.55
511.746	948.57
511.953	911.56
512.16	955.55
512.367	873.78
512.573	884.83
512.78	895.1
512.987	915.25
513.193	912.15
513.4	843.95
513.606	888.51
513.813	928.81
514.02	964.85
514.226	1013.48
514.433	1000.69
514.639	920.67
514.846	966.59
515.052	981.7
515.259	978.21
515.465	1003.4
515.672	964.65
515.878	1082.26
516.085	1048.35
516.291	1059.59
516.497	988.09
516.704	1021.42
516.91	985.19
517.117	940.24
517.323	915.83
517.529	955.74
517.736	919.9
517.942	981.31
518.148	986.74
518.354	1043.31
518.561	978.21
518.767	1054.74
518.973	1071.41
519.179	1102.21
519.386	1081.29
519.592	1043.31
519.798	1077.61
520.004	1155.69
520.21	1124.3
520.417	1182.23
520.623	1213.42
520.829	1204.12
521.035	1211.1
521.241	1200.05
521.447	1230.47
521.653	1319.4
521.859	1241.9
522.065	1255.66
522.271	1373.65
522.477	1299.06
522.683	1368.42
522.889	1324.05
523.095	1334.32
523.301	1308.17
523.507	1256.24
523.713	1354.47
523.919	1309.33
524.125	1427.13
524.331	1387.21
524.537	1472.27
524.742	1428.48
524.948	1456.77
525.154	1450.18
525.36	1546.28
525.566	1432.94
525.772	1483.31
525.977	1428.09
526.183	1484.86
526.389	1497.46
526.595	1433.52
526.8	1445.14
527.006	1380.24
527.212	1352.53
527.417	1357.96
527.623	1347.11
527.829	1453.09
528.034	1456.38
528.24	1450.18
528.446	1450.57
528.651	1536.98
528.857	1548.41
529.062	1610.41
529.268	1582.51
529.473	1597.24
529.679	1574.96
529.884	1663.3
530.09	1663.11
530.295	1679.38
530.501	1640.44
530.706	1633.08
530.912	1630.56
531.117	1636.57
531.323	1635.21
531.528	1668.15
531.733	1700.89
531.939	1654
532.144	1723.56
532.35	1649.55
532.555	1715.23
532.76	1716
532.966	1699.92
533.171	1680.74
533.376	1645.29
533.581	1649.55
533.787	1648
533.992	1672.22
534.197	1723.56
534.402	1709.61
534.607	1676.09
534.813	1778.97
535.018	1728.4
535.223	1757.27
535.428	1764.05
535.633	1762.5
535.838	1814.62
536.043	1808.61
536.249	1869.84
536.454	1789.43
536.659	1841.16
536.864	1800.28
537.069	1761.34
537.274	1800.67
537.479	1799.31
537.684	1826.44
537.889	1775.1
538.094	1888.44
538.299	1832.06
538.504	1861.12
538.708	1837.68
538.913	1911.3
539.118	1857.05
539.323	1883.01
539.528	1799.12
539.733	1829.35
539.938	1853.76
540.142	1846.2
540.347	1807.45
540.552	1814.81
540.757	1797.76
540.962	1776.84
541.166	1781.49
541.371	1771.22
541.576	1790.6
541.781	1742.55
541.985	1868.09
542.19	1807.06
542.395	1905.1
542.599	1902
542.804	1885.92
543.008	1905.1
543.213	1858.6
543.418	1821.6
543.622	1882.43
543.827	1839.23
544.031	1897.54
544.236	1940.56
544.44	1901.81
544.645	1987.44
544.849	1921.96
545.054	1947.92
545.258	2044.99
545.463	1990.74
545.667	1914.01
545.872	1980.86
546.076	1928.16
546.281	1958.77
546.485	1883.79
546.689	1954.51
546.894	1960.71
547.098	1937.84
547.302	1942.11
547.507	1955.86
547.711	1943.46
547.915	1997.71
548.119	1925.06
548.324	1945.79
548.528	1998.49
548.732	1972.52
548.936	2037.82
549.141	2025.61
549.345	1989.57
549.549	1982.99
549.753	2021.54
549.957	2027.74
550.161	2044.02
550.366	2012.24
550.57	1991.71
550.774	1998.68
550.978	2008.37
551.182	2032.2
551.386	1989.57
551.59	2022.7
551.794	1986.47
551.998	1994.81
552.202	1985.51
552.406	1983.18
552.61	2043.63
552.814	2022.9
553.018	2076.76
553.222	1978.14
553.426	1996.36
553.63	2051.96
553.833	2010.5
554.037	1963.81
554.241	2031.23
554.445	2021.93
554.649	2003.72
554.853	1981.82
555.056	2052.74
555.26	2061.65
555.464	2038.4
555.668	2011.08
555.871	2029.68
556.075	2046.54
556.279	1977.17
556.483	2004.88
556.686	1976.01
556.89	1992.87
557.094	2029.1
557.297	1945.98
557.501	1998.68
557.704	1925.25
557.908	1986.28
558.112	1951.6
558.315	2006.82
558.519	1949.27
558.722	1913.43
558.926	1885.92
559.129	1863.64
559.333	1852.98
559.536	1842.52
559.74	1848.33
559.943	1855.5
560.147	1876.23
560.35	1866.54
560.553	1860.93
560.757	1844.46
560.96	1920.6
561.164	1865.96
561.367	1973.49
561.57	1898.32
561.774	1873.13
561.977	1813.26
562.18	1861.31
562.384	1927.96
562.587	1841.75
562.79	1837.1
562.993	1861.51
563.197	1890.57
563.4	1913.24
563.603	1891.54
563.806	1935.32
564.009	1843.88
564.212	1846.39
564.416	1787.88
564.619	1806.68
564.822	1791.95
565.025	1872.55
565.228	1805.51
565.431	1826.25
565.634	1760.56
565.837	1760.56
566.04	1741.38
566.243	1726.66
566.446	1690.23
566.649	1766.57
566.852	1674.73
567.055	1746.42
567.258	1737.51
567.461	1754.17
567.664	1762.5
567.867	1680.16
568.07	1672.02
568.273	1743.71
568.475	1739.64
568.678	1678.22
568.881	1661.17
569.084	1659.43
569.287	1591.81
569.489	1612.35
569.692	1635.4
569.895	1696.05
570.098	1571.47
570.3	1564.49
570.503	1530.78
570.706	1559.65
570.909	1556.16
571.111	1527.29
571.314	1478.08
571.516	1523.03
571.719	1501.72
571.922	1514.89
572.124	1525.16
572.327	1553.26
572.529	1483.12
572.732	1482.93
572.935	1513.92
573.137	1574.18
573.34	1488.93
573.542	1514.89
573.745	1517.22
573.947	1513.73
574.15	1486.22
574.352	1467.23
574.554	1522.06
574.757	1443.59
574.959	1448.83
575.162	1454.64
575.364	1465.88
575.566	1548.22
575.769	1388.38
575.971	1425.19
576.173	1351.76
576.376	1416.47
576.578	1462.78
576.78	1447.08
576.982	1357.18
577.185	1396.71
577.387	1350.4
577.589	1365.71
577.791	1411.24
577.993	1382.18
578.196	1335.1
578.398	1412.21
578.6	1388.18
578.802	1318.82
579.004	1319.01
579.206	1357.96
579.408	1380.63
579.61	1323.47
579.812	1394.19
580.014	1331.41
580.216	1336.65
580.418	1348.66
580.62	1337.42
580.822	1332.58
581.024	1375.01
581.226	1387.8
581.428	1327.35
581.63	1426.35
581.832	1325.21
582.034	1384.7
582.236	1410.85
582.438	1394.38
582.64	1415.31
582.841	1408.91
583.043	1449.99
583.245	1379.27
583.447	1394.58
583.649	1370.75
583.85	1372.1
584.052	1425.19
584.254	1357.76
584.456	1429.26
584.657	1341.3
584.859	1391.86
585.061	1350.4
585.262	1328.31
585.464	1319.98
585.666	1357.57
585.867	1341.88
586.069	1376.75
586.27	1291.89
586.472	1317.66
586.674	1301.38
586.875	1299.25
587.077	1280.85
587.278	1323.86
587.48	1282.59
587.681	1364.55
587.883	1282.78
588.084	1288.4
588.285	1291.12
588.487	1265.73
588.688	1296.93
588.89	1189.59
589.091	1184.94
589.292	1142.12
589.494	1137.28
589.695	1124.11
589.896	1066.76
590.098	1061.33
590.299	1108.02
590.5	1109.38
590.702	1093.49
590.903	1167.5
591.104	1203.93
591.305	1175.06
591.507	1207.61
591.708	1216.14
591.909	1162.27
592.11	1229.7
592.311	1199.47
592.512	1138.25
592.714	1088.46
592.915	1144.84
593.116	1143.29
593.317	1163.44
593.518	1147.74
593.719	1160.14
593.92	1227.37
594.121	1253.72
594.322	1197.73
594.523	1161.89
594.724	1134.96
594.925	1144.84
595.126	1143.67
595.327	1156.27
595.528	1156.07
595.729	1174.09
595.929	1172.54
596.13	1174.48
596.331	1194.44
596.532	1186.3
596.733	1209.94
596.934	1211.87
597.135	1186.49
597.335	1184.75
597.536	1142.12
597.737	1165.95
597.938	1103.18
598.138	1191.14
598.339	1140.57
598.54	1176.03
598.74	1147.16
598.941	1164.21
599.142	1192.3
599.342	1183
599.543	1164.6
599.744	1121.97
599.944	1163.82
600.145	1152
600.345	1162.27
600.546	1261.67
600.746	1210.13
600.947	1207.03
601.147	1156.65
601.348	1190.56
601.548	1133.79
601.749	1152.2
601.949	1111.51
602.15	1104.92
602.35	1102.79
602.551	1188.43
602.751	1161.3
602.951	1132.05
603.152	1101.24
603.352	1149.49
603.552	1151.42
603.753	1172.54
603.953	1185.14
604.153	1137.28
604.354	1124.49
604.554	1138.44
604.754	1149.1
604.954	1112.48
605.155	1151.42
605.355	1126.04
605.555	1171.19
605.755	1193.08
605.955	1128.56
606.155	1180.29
606.356	1137.47
606.556	1175.25
606.756	1174.09
606.956	1113.64
607.156	1173.32
607.356	1120.62
607.556	1155.3
607.756	1120.23
607.956	1158.79
608.156	1138.64
608.356	1086.71
608.556	1140.38
608.756	1104.15
608.956	1045.44
609.156	1126.04
609.356	1085.16
609.556	1072.57
609.755	1103.18
609.955	1077.61
610.155	1093.88
610.355	1089.62
610.555	1034.59
610.755	1072.18
610.954	1030.33
611.154	1087.1
611.354	1095.82
611.554	1040.99
611.753	1047.58
611.953	997.01
612.153	1031.69
612.352	1060.94
612.552	1032.08
612.752	964.46
612.951	1030.72
613.151	1061.52
613.351	1003.98
613.55	1049.13
613.75	1031.69
613.949	1019.29
614.149	1038.28
614.348	1023.74
614.548	977.05
614.747	962.33
614.947	972.4
615.146	939.08
615.346	1028.59
615.545	993.91
615.745	1001.46
615.944	1022.58
616.144	990.61
616.343	1023.16
616.542	966.59
616.742	985.77
616.941	979.96
617.14	918.35
617.34	978.99
617.539	971.24
617.738	919.31
617.938	1012.89
618.137	956.13
618.336	905.17
618.535	963.1
618.734	964.46
618.934	955.35
619.133	955.74
619.332	972.21
619.531	924.35
619.73	922.03
619.929	966.78
620.128	945.28
620.328	983.06
620.527	947.02
620.726	942.18
620.925	941.21
621.124	957.48
621.323	943.15
621.522	890.45
621.721	940.05
621.92	882.31
622.119	945.86
622.318	890.83
622.517	886.38
622.715	919.12
622.914	877.66
623.113	897.42
623.312	847.82
623.511	915.83
623.71	876.3
623.909	870.88
624.107	924.35
624.306	848.4
624.505	877.08
624.704	847.82
624.902	889.09
625.101	896.45
625.3	885.21
625.499	857.32
625.697	852.08
625.896	857.32
626.095	862.35
626.293	821.67
626.492	855.77
626.69	852.28
626.889	805.97
627.088	863.13
627.286	801.9
627.485	824.96
627.683	784.47
627.882	833.1
628.08	771.49
628.279	813.33
628.477	856.15
628.676	801.9
628.874	817.4
629.073	784.27
629.271	775.17
629.469	828.25
629.668	798.61
629.866	769.35
630.065	785.44
630.263	787.57
630.461	801.13
630.66	798.61
630.858	826.7
631.056	831.35
631.254	851.31
631.453	781.75
631.651	827.87
631.849	813.53
632.047	815.85
632.245	830
632.444	834.84
632.642	835.42
632.84	843.56
633.038	819.53
633.236	788.92
633.434	791.25
633.632	789.5
633.83	801.52
634.028	846.47
634.227	798.42
634.425	879.6
634.623	816.05
634.821	849.57
635.019	810.82
635.216	782.53
635.414	844.92
635.612	852.67
635.81	785.24
636.008	822.83
636.206	812.17
636.404	842.59
636.602	755.99
636.8	814.69
636.997	831.55
637.195	813.53
637.393	817.98
637.591	844.14
637.789	834.84
637.986	781.56
638.184	814.88
638.382	854.02
638.58	816.24
638.777	875.72
638.975	787.76
639.173	810.43
639.37	817.21
639.568	836.2
639.765	822.83
639.963	775.17
640.161	841.82
640.358	813.14
640.556	771.1
640.753	730.6
640.951	740.49
641.148	769.16
641.346	734.67
641.543	747.07
641.741	771.1
641.938	711.04
642.136	749.98
642.333	713.55
642.531	767.22
642.728	766.84
642.925	734.67
643.123	743.39
643.32	746.1
643.517	716.65
643.715	741.45
643.912	698.44
644.109	724.4
644.306	720.72
644.504	678.1
644.701	693.79
644.898	739.71
645.095	655.04
645.293	730.41
645.49	701.93
645.687	699.41
645.884	713.55
646.081	653.88
646.278	641.87
646.475	658.72
646.672	647.1
646.87	718.98
647.067	669.19
647.264	659.11
647.461	630.05
647.658	618.43
647.855	660.66
648.052	630.24
648.249	574.83
648.446	620.94
648.642	595.56
648.839	582.39
649.036	596.14
649.233	555.84
649.43	597.11
649.627	566.11
649.824	605.64
650.021	596.73
650.217	590.91
650.414	579.09
650.611	588.59
650.808	592.46
651.004	597.89
651.201	593.43
651.398	633.34
651.595	581.81
651.791	594.79
651.988	597.31
652.185	590.33
652.381	585.49
652.578	553.71
652.775	587.43
652.971	596.34
653.168	566.5
653.364	577.54
653.561	525.04
653.757	592.66
653.954	579.29
654.15	594.01
654.347	641.48
654.543	566.69
654.74	514.96
654.936	554.29
655.133	582.19
655.329	564.18
655.525	550.61
655.722	583.94
655.918	531.24
656.115	551.39
656.311	483.77
656.507	472.15
656.704	446.96
656.9	463.04
657.096	470.4
657.292	483.77
657.489	544.22
657.685	485.9
657.881	493.46
658.077	491.33
658.273	550.23
658.47	579.87
658.666	526.4
658.862	540.93
659.058	496.56
659.254	558.17
659.45	504.7
659.646	519.81
659.842	513.8
660.038	537.05
660.234	500.05
660.43	544.22
660.626	604.48
660.822	580.84
661.018	563.01
661.214	548.29
661.41	492.49
661.606	541.12
661.802	559.14
661.998	521.75
662.194	477.96
662.39	518.45
662.586	549.64
662.781	543.83
662.977	527.36
663.173	520.2
663.369	513.61
663.564	494.23
663.76	541.7
663.956	497.33
664.152	526.98
664.347	461.49
664.543	489.97
664.739	489.39
664.934	437.66
665.13	432.04
665.326	523.1
665.521	522.52
665.717	448.51
665.912	465.36
666.108	399.3
666.304	459.16
666.499	480.67
666.695	407.05
666.89	449.67
667.086	480.28
667.281	491.52
667.477	509.35
667.672	472.92
667.867	450.25
668.063	439.4
668.258	433.01
668.454	434.75
668.649	519.81
668.844	460.52
669.04	455.87
669.235	441.34
669.43	437.85
669.626	425.26
669.821	427.2
670.016	418.87
670.211	452.38
670.407	409.76
670.602	439.02
670.797	449.09
670.992	438.82
671.187	404.14
671.382	479.12
671.578	408.21
671.773	470.6
671.968	421.77
672.163	421.97
672.358	477.38
672.553	403.95
672.748	411.31
672.943	501.01
673.138	434.95
673.333	463.81
673.528	408.79
673.723	444.83
673.918	445.02
674.113	373.92
674.308	482.22
674.503	448.12
674.698	441.15
674.892	439.21
675.087	454.9
675.282	439.6
675.477	414.02
675.672	463.43
675.867	405.88
676.061	397.17
676.256	412.08
676.451	400.65
676.646	451.03
676.84	386.9
677.035	356.87
677.23	367.91
677.424	438.43
677.619	448.31
677.814	461.68
678.008	453.35
678.203	365.39
678.397	379.15
678.592	420.8
678.787	455.48
678.981	387.48
679.176	422.55
679.37	428.17
679.565	405.11
679.759	410.15
679.954	436.5
680.148	468.27
680.342	458.78
680.537	451.41
680.731	407.63
680.926	469.43
681.12	455.87
681.314	390.38
681.509	417.7
681.703	450.83
681.897	463.23
682.092	440.37
682.286	394.84
682.48	482.61
682.674	460.91
682.869	408.21
683.063	425.84
683.257	514.19
683.451	404.53
683.645	456.06
683.839	453.35
684.034	453.93
684.228	471.18
684.422	401.62
684.616	407.24
684.81	463.43
685.004	449.09
685.198	447.15
685.392	470.4
685.586	413.44
685.78	457.61
685.974	445.02
686.168	496.56
686.362	505.28
686.556	430.49
686.75	446.96
686.944	415.57
687.138	430.1
687.331	342.14
687.525	374.69
687.719	332.45
687.913	419.06
688.107	384.18
688.301	388.64
688.494	448.12
688.688	377.79
688.882	379.34
689.076	351.25
689.269	404.92
689.463	471.76
689.657	427.58
689.85	415.57
690.044	441.92
690.238	430.49
690.431	439.02
690.625	440.76
690.818	463.43
691.012	477.18
691.205	520
691.399	487.26
691.593	521.16
691.786	555.65
691.98	566.69
692.173	600.21
692.366	582
692.56	561.27
692.753	650.78
692.947	572.31
693.14	662.02
693.333	623.66
693.527	581.03
693.72	647.1
693.914	638.77
694.107	647.49
694.3	650.78
694.493	649.81
694.687	720.72
694.88	666.28
695.073	741.07
695.266	736.22
695.46	728.09
695.653	804.42
695.846	816.05
696.039	716.27
696.232	773.62
696.425	801.13
696.618	830.19
696.812	872.82
697.005	894.32
697.198	952.64
697.391	921.64
697.584	954.58
697.777	1019.48
697.97	991.58
698.163	1013.48
698.356	978.41
698.549	1071.79
698.742	1022.19
698.935	998.75
699.127	1055.33
699.32	1005.14
699.513	1030.91
699.706	1057.07
699.899	1067.53
700.092	1084
700.285	1115.97
700.477	1030.72
700.67	1108.99
700.863	1117.71
701.056	1215.75
701.248	1159.37
701.441	1177.39
701.634	1177
701.826	1251.2
702.019	1170.6
702.212	1260.12
702.404	1198.31
702.597	1199.09
702.79	1260.31
702.982	1267.09
703.175	1293.05
703.367	1305.45
703.56	1328.51
703.752	1421.51
703.945	1363.58
704.137	1391.67
704.33	1425.77
704.522	1452.89
704.715	1472.27
704.907	1480.6
705.1	1493
705.292	1511.6
705.484	1459.48
705.677	1543.57
705.869	1540.08
706.061	1574.18
706.254	1604.21
706.446	1579.41
706.638	1598.79
706.831	1634.05
707.023	1618.16
707.215	1706.51
707.407	1687.91
707.599	1686.75
707.792	1727.05
707.984	1749.52
708.176	1757.08
708.368	1711.35
708.56	1756.69
708.752	1777.03
708.944	1738.09
709.136	1827.41
709.329	1821.21
709.521	1918.08
709.713	1874.68
709.905	1851.43
710.097	1923.89
710.289	1875.65
710.481	1917.69
710.672	1910.72
710.864	1910.72
711.056	1979.89
711.248	2010.11
711.44	1953.54
711.632	1993.06
711.824	2033.36
712.016	2083.35
712.207	2066.3
712.399	2037.04
712.591	2115.32
712.783	2085.87
712.975	2110.67
713.166	2065.91
713.358	2100.98
713.55	2130.23
713.741	2136.24
713.933	2172.86
714.125	2175.57
714.316	2137.21
714.508	2239.31
714.7	2222.46
714.891	2185.26
715.083	2219.16
715.274	2181.97
715.466	2216.84
715.657	2237.38
715.849	2147.28
716.04	2192.23
716.232	2168.6
716.423	2205.02
716.615	2091.68
716.806	2081.22
716.998	2031.62
717.189	1941.91
717.381	1849.49
717.572	1808.61
717.763	1853.37
717.955	1820.82
718.146	1789.43
718.337	1736.54
718.528	1690.23
718.72	1659.24
718.911	1697.79
719.102	1643.54
719.293	1686.17
719.485	1682.1
719.676	1645.67
719.867	1605.18
720.058	1623.59
720.249	1636.37
720.44	1660.4
720.632	1686.55
720.823	1772.77
721.014	1858.41
721.205	1905.29
721.396	1957.22
721.587	2095.75
721.778	2080.44
721.969	2157.17
722.16	2204.63
722.351	2228.85
722.542	2334.64
722.733	2337.93
722.924	2251.91
723.115	2270.12
723.305	2241.64
723.496	2298.6
723.687	2159.88
723.878	2166.08
724.069	2156.2
724.26	2167.82
724.45	2049.25
724.641	2070.75
724.832	2123.84
725.023	2101.17
725.213	2106.6
725.404	2076.18
725.595	2092.65
725.785	2081.6
725.976	2154.26
726.167	2126.36
726.357	2119.38
726.548	2243
726.739	2125.58
726.929	2250.75
727.12	2218
727.31	2254.04
727.501	2177.7
727.691	2223.04
727.882	2214.13
728.072	2229.05
728.263	2254.04
728.453	2315.26
728.644	2315.65
728.834	2276.9
729.024	2277.68
729.215	2213.16
729.405	2305.96
729.596	2381.33
729.786	2342.19
729.976	2365.64
730.167	2418.72
730.357	2315.84
730.547	2362.54
730.737	2371.64
730.928	2431.71
731.118	2504.17
731.308	2429.19
731.498	2428.41
731.688	2507.85
731.879	2535.55
732.069	2561.52
732.259	2634.17
732.449	2661.1
732.639	2743.64
732.829	2761.66
733.019	2807.57
733.209	2856.01
733.399	2846.52
733.589	2888.95
733.779	2926.34
733.969	2934.29
734.159	3037.36
734.349	3021.28
734.539	3097.81
734.729	3105.17
734.919	3124.74
735.109	3153.22
735.299	3082.11
735.488	3127.45
735.678	3144.89
735.868	3141.79
736.058	3098
736.248	3091.8
736.437	3068.36
736.627	3055.96
736.817	3230.72
737.007	3124.55
737.196	3169.88
737.386	3193.52
737.576	3155.54
737.765	3228.01
737.955	3221.23
738.144	3287.87
738.334	3232.66
738.524	3213.28
738.713	3281.87
738.903	3284.19
739.092	3296.21
739.282	3293.88
739.471	3286.71
739.661	3276.83
739.85	3325.07
740.04	3331.85
740.229	3429.12
740.419	3432.99
740.608	3422.33
740.797	3408
740.987	3452.95
741.176	3441.13
741.365	3378.35
741.555	3367.12
741.744	3457.79
741.933	3420.98
742.123	3460.7
742.312	3458.37
742.501	3534.9
742.69	3525.41
742.88	3444.81
743.069	3548.85
743.258	3497.7
743.447	3540.71
743.636	3562.61
743.825	3464.38
744.014	3577.33
744.204	3568.03
744.393	3502.35
744.582	3589.73
744.771	3616.08
744.96	3549.82
745.149	3596.71
745.338	3491.7
745.527	3576.17
745.716	3558.35
745.905	3531.8
746.094	3627.13
746.283	3633.52
746.471	3588.57
746.66	3621.31
746.849	3603.49
747.038	3658.9
747.227	3619.76
747.416	3618.79
747.604	3602.52
747.793	3618.79
747.982	3631
748.171	3574.23
748.359	3652.31
748.548	3644.18
748.737	3624.8
748.926	3584.89
749.114	3530.83
749.303	3610.08
749.491	3590.31
749.68	3516.69
749.869	3620.15
750.057	3554.86
750.246	3531.61
750.434	3565.9
750.623	3583.15
750.811	3510.88
751	3567.26
751.188	3521.53
751.377	3576.36
751.565	3557.18
751.754	3557.18
751.942	3502.16
752.131	3567.26
752.319	3496.93
752.507	3460.7
752.696	3531.03
752.884	3598.26
753.072	3513.59
753.261	3529.67
753.449	3562.03
753.637	3484.14
753.825	3642.04
754.014	3538
754.202	3569.2
754.39	3545.95
754.578	3546.14
754.766	3453.53
754.955	3448.68
755.143	3584.7
755.331	3458.57
755.519	3489.18
755.707	3484.14
755.895	3486.85
756.083	3520.76
756.271	3415.17
756.459	3409.94
756.647	3451.59
756.835	3374.29
757.023	3392.11
757.211	3420.4
757.399	3378.16
757.587	3404.9
757.775	3398.89
757.963	3377.19
758.151	3403.93
758.339	3337.47
758.526	3382.23
758.714	3347.35
758.902	3223.94
759.09	3164.46
759.278	2955.02
759.465	2729.3
759.653	2376.87
759.841	2143.22
760.028	1817.53
760.216	1593.75
760.404	1457.93
760.591	1208.58
760.779	1000.11
760.967	881.15
761.154	736.8
761.342	757.54
761.529	739.9
761.717	786.4
761.905	752.11
762.092	859.06
762.28	797.45
762.467	774.2
762.655	710.07
762.842	725.95
763.029	733.7
763.217	704.26
763.404	721.11
763.592	738.94
763.779	711.04
763.966	765.09
764.154	784.47
764.341	876.69
764.528	838.52
764.716	910.6
764.903	958.45
765.09	1024.91
765.277	1082.64
765.465	1254.11
765.652	1311.27
765.839	1387.41
766.026	1504.04
766.213	1572.44
766.4	1671.25
766.588	1858.99
766.775	1880.49
766.962	1997.91
767.149	2074.63
767.336	2205.02
767.523	2214.13
767.71	2355.18
767.897	2430.35
768.084	2527.61
768.271	2559
768.458	2629.13
768.645	2714.38
768.832	2658.58
769.019	2725.81
769.206	2765.73
769.392	2817.26
769.579	2923.44
769.766	2937.39
769.953	2881.01
770.14	2924.21
770.327	2949.4
770.513	2972.84
770.7	3057.9
770.887	2996.28
771.073	3007.13
771.26	3036.78
771.447	3005
771.634	3017.21
771.82	3081.92
772.007	2999.19
772.193	2977.3
772.38	3050.53
772.567	2996.67
772.753	3016.05
772.94	3083.47
773.126	3056.15
773.313	3080.95
773.499	3001.9
773.686	3041.62
773.872	2985.05
774.059	3048.4
774.245	2954.44
774.432	3040.07
774.618	2946.69
774.804	3012.95
774.991	2918.79
775.177	3048.79
775.363	2983.3
775.55	2993.38
775.736	2934.67
775.922	2952.69
776.109	2984.66
776.295	2961.02
776.481	2982.33
776.667	2989.5
776.853	2938.55
777.04	2923.44
777.226	2940.29
777.412	3020.12
777.598	2862.79
777.784	2916.65
777.97	2890.31
778.156	2936.61
778.342	2927.7
778.528	2887.01
778.715	2817.07
778.901	2921.11
779.087	2895.54
779.272	2869.38
779.458	2870.93
779.644	2851.94
779.83	2815.13
780.016	2967.22
780.202	2828.69
780.388	2824.62
780.574	2831.41
780.76	2801.57
780.946	2846.32
781.131	2842.84
781.317	2801.38
781.503	2787.62
781.689	2794.98
781.874	2905.61
782.06	2745.96
782.246	2795.76
782.432	2784.52
782.617	2793.04
782.803	2844.97
782.989	2730.46
783.174	2791.3
783.36	2699.08
783.545	2786.84
783.731	2744.99
783.916	2683.96
784.102	2772.51
784.288	2692.49
784.473	2726.01
784.659	2647.73
784.844	2745.58
785.029	2690.16
785.215	2655.48
785.4	2629.91
785.586	2716.32
785.771	2635.33
785.956	2691.33
786.142	2634.95
786.327	2661.49
786.512	2636.11
786.698	2608.6
786.883	2557.64
787.068	2593.87
787.254	2597.36
787.439	2572.95
787.624	2590
787.809	2567.52
787.994	2539.43
788.18	2620.8
788.365	2500.49
788.55	2545.05
788.735	2518.89
788.92	2516.57
789.105	2517.54
789.29	2520.44
789.475	2428.8
789.66	2483.82
789.845	2397.99
790.03	2451.66
790.215	2470.84
790.4	2476.46
790.585	2533.81
790.77	2447.21
790.955	2365.44
791.14	2394.89
791.325	2485.18
791.51	2355.18
791.695	2473.55
791.879	2439.84
792.064	2404.39
792.249	2453.99
792.434	2397.61
792.618	2424.15
792.803	2449.92
792.988	2386.17
793.173	2430.16
793.357	2432.09
793.542	2366.41
793.727	2407.68
793.911	2470.07
794.096	2415.04
794.281	2462.51
794.465	2505.52
794.65	2426.67
794.834	2455.73
795.019	2487.31
795.203	2488.09
795.388	2497.19
795.572	2567.91
795.757	2466.19
795.941	2485.95
796.126	2461.15
796.31	2408.26
796.494	2416.98
796.679	2432.87
796.863	2380.75
797.048	2484.21
797.232	2444.3
797.416	2481.3
797.601	2434.03
797.785	2565.39
797.969	2493.7
798.153	2458.64
798.338	2486.15
798.522	2524.9
798.706	2490.99
798.89	2459.41
799.074	2579.73
799.258	2564.03
799.443	2532.84
799.627	2542.92
799.811	2513.27
799.995	2469.29
800.179	2464.84
800.363	2474.14
800.547	2524.7
800.731	2513.85
800.915	2386.76
801.099	2426.47
801.283	2448.95
801.467	2486.92
801.651	2438.87
801.835	2505.91
802.019	2432.09
802.202	2475.3
802.386	2397.8
802.57	2388.5
802.754	2381.52
802.938	2384.04
803.121	2431.51
803.305	2513.27
803.489	2408.26
803.673	2467.35
803.856	2494.09
804.04	2395.67
804.224	2438.1
804.407	2426.28
804.591	2399.16
804.775	2416.01
804.958	2441.2
805.142	2512.89
805.326	2453.99
805.509	2443.91
805.693	2500.68
805.876	2493.7
806.06	2504.75
806.243	2502.23
806.427	2548.34
806.61	2545.43
806.794	2470.07
806.977	2550.47
807.16	2469.29
807.344	2509.59
807.527	2469.1
807.71	2505.14
807.894	2512.89
808.077	2508.24
808.26	2459.02
808.444	2446.04
808.627	2447.98
808.81	2445.27
808.993	2370.67
809.177	2350.14
809.36	2379.39
809.543	2376.29
809.726	2281.94
809.909	2351.3
810.092	2315.07
810.276	2318.56
810.459	2322.04
810.642	2284.46
810.825	2269.73
811.008	2271.48
811.191	2149.8
811.374	2216.26
811.557	2188.75
811.74	2280.78
811.923	2163.37
812.106	2119
812.289	2064.75
812.472	2090.13
812.654	2108.73
812.837	2047.5
813.02	2033.17
813.203	2012.24
813.386	1917.5
813.569	1885.14
813.751	1851.63
813.934	1908.01
814.117	1822.18
814.3	1802.61
814.482	1772.38
814.665	1690.43
814.848	1703.99
815.03	1646.45
815.213	1640.25
815.396	1646.64
815.578	1589.1
815.761	1552.48
815.943	1588.71
816.126	1537.37
816.309	1529.42
816.491	1449.79
816.674	1375.59
816.856	1465.49
817.039	1418.02
817.221	1497.46
817.403	1478.28
817.586	1506.37
817.768	1518.57
817.951	1403.49
818.133	1395.35
818.315	1407.36
818.498	1457.93
818.68	1513.34
818.862	1498.81
819.045	1559.84
819.227	1494.94
819.409	1471.49
819.591	1507.14
819.774	1501.52
819.956	1473.63
820.138	1568.95
820.32	1577.86
820.502	1599.95
820.684	1674.35
820.866	1660.98
821.048	1722.59
821.231	1733.63
821.413	1752.43
821.595	1728.4
821.777	1724.33
821.959	1666.79
822.141	1776.65
822.323	1654
822.505	1595.3
822.686	1507.72
822.868	1459.48
823.05	1358.35
823.232	1319.01
823.414	1255.08
823.596	1328.9
823.778	1323.47
823.96	1346.53
824.141	1357.76
824.323	1339.75
824.505	1452.12
824.687	1504.82
824.868	1530.2
825.05	1664.66
825.232	1665.24
825.413	1726.08
825.595	1688.49
825.777	1628.43
825.958	1690.04
826.14	1641.41
826.321	1698.76
826.503	1670.08
826.685	1681.52
826.866	1724.14
827.048	1670.86
827.229	1659.04
827.411	1609.25
827.592	1547.06
827.773	1550.74
827.955	1491.64
828.136	1528.26
828.318	1492.81
828.499	1506.56
828.68	1453.09
828.862	1515.86
829.043	1513.92
829.224	1503.27
829.406	1450.76
829.587	1458.9
829.768	1472.66
829.949	1522.26
830.131	1514.7
830.312	1570.11
830.493	1537.95
830.674	1534.85
830.855	1463.94
831.036	1473.43
831.218	1529.62
831.399	1586.39
831.58	1507.34
831.761	1554.22
831.942	1527.49
832.123	1471.3
832.304	1465.88
832.485	1463.55
832.666	1485.06
832.847	1511.6
833.028	1492.81
833.209	1494.94
833.389	1455.22
833.57	1452.89
833.751	1485.06
833.932	1513.92
834.113	1497.84
834.294	1479.83
834.475	1496.87
834.655	1595.88
834.836	1561.39
835.017	1507.72
835.198	1515.47
835.378	1526.13
835.559	1557.32
835.74	1508.11
835.92	1489.32
836.101	1512.57
836.281	1588.9
836.462	1538.14
836.643	1596.85
836.823	1614.48
837.004	1579.41
837.184	1609.25
837.365	1607.31
837.545	1581.93
837.726	1588.32
837.906	1626.3
838.087	1579.61
838.267	1580.19
838.448	1546.28
838.628	1600.92
838.808	1546.09
838.989	1608.28
839.169	1533.3
839.349	1579.22
839.53	1617.19
839.71	1653.23
839.89	1534.27
840.07	1627.46
840.251	1591.04
840.431	1640.44
840.611	1581.74
840.791	1551.32
840.971	1588.32
841.151	1551.71
841.332	1557.32
841.512	1605.76
841.692	1523.03
841.872	1570.31
842.052	1545.12
842.232	1622.62
842.412	1537.17
842.592	1578.83
842.772	1585.03
842.952	1579.61
843.132	1555.39
843.312	1527.87
843.492	1527.68
843.672	1548.41
843.851	1505.59
844.031	1560.04
844.211	1567.79
844.391	1505.59
844.571	1540.08
844.751	1546.09
844.93	1560.42
845.11	1539.11
845.29	1542.6
845.47	1574.57
845.649	1554.42
845.829	1553.45
846.009	1557.71
846.188	1592.78
846.368	1534.85
846.547	1520.71
846.727	1576.12
846.907	1489.13
847.086	1525.94
847.266	1556.55
847.445	1526.52
847.625	1517.61
847.804	1479.44
847.984	1519.35
848.163	1501.72
848.343	1478.86
848.522	1484.09
848.701	1494.74
848.881	1433.71
849.06	1471.3
849.239	1497.07
849.419	1501.14
849.598	1422.09
849.777	1426.93
849.957	1392.25
850.136	1346.72
850.315	1307.97
850.494	1360.09
850.674	1395.93
850.853	1399.03
851.032	1377.91
851.211	1434.49
851.39	1400
851.569	1367.84
851.748	1361.06
851.927	1437.98
852.107	1392.45
852.286	1340.71
852.465	1350.6
852.644	1407.94
852.823	1365.51
853.002	1376.17
853.181	1382.76
853.359	1392.06
853.538	1308.75
853.717	1386.25
853.896	1269.61
854.075	1250.82
854.254	1214.2
854.433	1128.56
854.611	1232.41
854.79	1156.46
854.969	1242.87
855.148	1243.45
855.327	1196.57
855.505	1223.11
855.684	1250.43
855.863	1284.72
856.041	1232.22
856.22	1270.19
856.399	1261.28
856.577	1365.32
856.756	1289.37
856.934	1429.64
857.113	1434.68
857.291	1336.06
857.47	1294.41
857.648	1315.72
857.827	1338.58
858.005	1360.48
858.184	1264.96
858.362	1400.58
858.541	1325.6
858.719	1315.72
858.898	1330.06
859.076	1298.09
859.254	1375.2
859.433	1285.11
859.611	1283.17
859.789	1266.32
859.967	1337.23
860.146	1349.05
860.324	1260.89
860.502	1300.42
860.68	1263.99
860.859	1265.93
861.037	1260.31
861.215	1301.58
861.393	1275.03
861.571	1256.82
861.749	1224.47
861.927	1292.28
862.105	1273.1
862.283	1266.12
862.461	1253.33
862.639	1226.6
862.817	1248.68
862.995	1263.41
863.173	1196.57
863.351	1230.09
863.529	1223.69
863.707	1315.72
863.885	1267.09
864.063	1182.04
864.241	1233.96
864.418	1276.2
864.596	1200.83
864.774	1206.84
864.952	1211.68
865.129	1226.99
865.307	1158.59
865.485	1140.96
865.663	1193.66
865.84	1162.47
866.018	1191.34
866.196	1054.36
866.373	1062.49
866.551	1070.82
866.728	968.91
866.906	1026.65
867.084	1069.86
867.261	1067.72
867.439	1096.98
867.616	1113.64
867.794	1120.23
867.971	1093.88
868.149	1158.4
868.326	1169.44
868.503	1145.03
868.681	1141.35
868.858	1109.77
869.035	1105.12
869.213	1159.37
869.39	1145.8
869.567	1216.52
869.745	1098.72
869.922	1132.82
870.099	1133.02
870.276	1196.37
870.454	1155.3
870.631	1155.88
870.808	1149.29
870.985	1127.21
871.162	1192.11
871.339	1153.94
871.517	1109.57
871.694	1101.63
871.871	1105.31
872.048	1117.52
872.225	1099.5
872.402	1123.91
872.579	1080.12
872.756	1119.65
872.933	1073.54
873.11	1081.87
873.287	1112.67
873.463	1052.03
873.64	1054.74
873.817	1130.31
873.994	1084.19
874.171	1025.49
874.348	1097.95
874.524	1026.65
874.701	1059.01
874.878	992.36
875.055	1041.96
875.231	1022.78
875.408	1055.13
875.585	968.72
875.762	1026.07
875.938	1020.64
876.115	1002.82
876.291	994.49
876.468	1038.47
876.645	981.7
876.821	1025.1
876.998	1012.12
877.174	1016.58
877.351	1007.47
877.527	1018.13
877.704	983.83
877.88	1022.39
878.057	986.54
878.233	1037.31
878.409	968.33
878.586	1005.14
878.762	983.44
878.938	989.64
879.115	902.46
879.291	990.23
879.467	949.93
879.644	933.46
879.82	959.23
879.996	958.84
880.172	926.48
880.349	957.68
880.525	976.86
880.701	919.31
880.877	915.83
881.053	991.39
881.229	927.26
881.405	997.78
881.581	899.36
881.757	959.81
881.933	955.55
882.109	987.9
882.285	959.81
882.461	877.08
882.637	957.29
882.813	902.26
882.989	946.44
883.165	947.8
883.341	898.97
883.517	975.89
883.693	942.95
883.869	986.74
884.044	941.79
884.22	957.68
884.396	957.48
884.572	936.95
884.747	968.14
884.923	947.41
885.099	967.56
885.275	981.12
885.45	916.8
885.626	916.6
885.801	933.26
885.977	940.82
886.153	881.34
886.328	939.66
886.504	918.93
886.679	935.4
886.855	911.95
887.03	947.02
887.206	941.21
887.381	935.98
887.557	945.08
887.732	954
887.908	939.46
888.083	934.43
888.258	911.37
888.434	928.81
888.609	950.7
888.784	956.9
888.96	913.5
889.135	901.68
889.31	899.55
889.485	911.37
889.661	905.56
889.836	938.69
890.011	956.13
890.186	933.85
890.361	895.48
890.537	960.58
890.712	936.17
890.887	945.47
891.062	927.45
891.237	957.68
891.412	875.14
891.587	907.3
891.762	962.33
891.937	983.44
892.112	871.65
892.287	900.91
892.462	899.55
892.637	852.08
892.812	848.6
892.987	835.03
893.161	830.19
893.336	798.61
893.511	842.59
893.686	857.7
893.861	831.16
894.035	838.33
894.21	833.87
894.385	793.19
894.56	796.87
894.734	763.54
894.909	733.9
895.084	748.62
895.258	754.44
895.433	743.78
895.608	709.68
895.782	672.67
895.957	709.68
896.131	678.49
896.306	652.91
896.48	664.54
896.655	658.14
896.829	595.18
897.004	602.54
897.178	594.21
897.353	614.16
897.527	651.17
897.701	606.61
897.876	577.54
898.05	657.95
898.224	623.27
898.399	650.01
898.573	606.03
898.747	511.28
898.921	545.19
899.096	443.28
899.27	456.84
899.444	496.36
899.618	512.45
899.792	501.21
899.967	533.18
900.141	560.11
900.315	492.88
900.489	493.65
900.663	535.31
900.837	519.03
901.011	492.3
901.185	598.47
901.359	533.18
901.533	503.92
901.707	520.78
901.881	534.73
902.055	457.81
902.229	506.25
902.403	576.38
902.576	513.61
902.75	548.29
902.924	632.96
903.098	588.2
903.272	632.57
903.446	654.85
903.619	614.55
903.793	658.92
903.967	663.18
904.14	701.74
904.314	696.51
904.488	665.89
904.661	690.89
904.835	666.47
905.009	711.62
905.182	743.2
905.356	664.34
905.529	669.19
905.703	671.32
905.876	651.94
906.05	609.13
906.223	605.25
906.397	540.34
906.57	519.23
906.744	495.01
906.917	525.04
907.09	513.41
907.264	502.18
907.437	483.38
907.61	466.33
907.784	484.74
907.957	490.75
908.13	470.21
908.304	497.33
908.477	433.4
908.65	501.4
908.823	438.05
908.996	525.23
909.17	424.29
909.343	467.69
909.516	465.75
909.689	477.57
909.862	439.98
910.035	452.19
910.208	435.33
910.381	443.47
910.554	507.99
910.727	475.05
910.9	465.17
911.073	411.5
911.246	496.75
911.419	492.49
911.592	496.17
911.765	419.83
911.938	434.17
912.11	463.43
912.283	446.96
912.456	515.74
912.629	436.88
912.802	428.75
912.974	385.35
913.147	349.89
913.32	327.8
913.493	357.64
913.665	403.37
913.838	396.2
914.01	397.75
914.183	396.2
914.356	399.68
914.528	441.34
914.701	453.16
914.873	440.76
915.046	374.88
915.218	352.6
915.391	332.45
915.563	306.88
915.736	367.33
915.908	378.95
916.081	380.7
916.253	374.69
916.425	405.3
916.598	423.32
916.77	398.33
916.942	377.4
917.115	316.57
917.287	348.73
917.459	353.96
917.632	321.6
917.804	319.28
917.976	361.13
918.148	348.15
918.32	404.92
918.493	378.76
918.665	450.06
918.837	406.08
919.009	435.14
919.181	444.83
919.353	404.14
919.525	429.52
919.697	399.3
919.869	398.72
920.041	476.8
920.213	511.28
920.385	434.95
920.557	451.22
920.729	433.01
920.901	441.73
921.073	444.63
921.244	396.39
921.416	436.88
921.588	404.33
921.76	445.21
921.932	499.46
922.103	421.77
922.275	443.67
922.447	423.32
922.619	356.29
922.79	408.4
922.962	399.49
923.134	425.65
923.305	360.74
923.477	386.7
923.648	338.85
923.82	378.37
923.991	317.54
924.163	328.97
924.335	365.58
924.506	323.35
924.677	404.53
924.849	339.62
925.02	373.53
925.192	363.07
925.363	355.9
925.535	348.15
925.706	329.74
925.877	382.63
926.049	357.83
926.22	365
926.391	367.13
926.562	384.96
926.734	329.74
926.905	401.62
927.076	294.29
927.247	321.8
927.419	295.84
927.59	294.09
927.761	301.45
927.932	284.79
928.103	286.15
928.274	270.65
928.445	248.17
928.616	248.56
928.787	258.06
928.958	277.62
929.129	251.66
929.3	241.01
929.471	186.95
929.642	173.39
929.813	121.85
929.984	216.79
930.155	125.34
930.326	198.19
930.496	155.56
930.667	78.45
930.838	158.28
931.009	123.21
931.18	125.73
931.35	128.63
931.521	134.83
931.692	98.02
931.863	60.82
932.033	116.23
932.204	104.22
932.374	87.36
932.545	65.86
932.716	104.41
932.886	90.85
933.057	45.13
933.227	70.7
933.398	103.64
933.568	41.06
933.739	21.88
933.909	34.66
934.08	102.09
934.25	0.95
934.421	31.18
934.591	41.64
934.761	11.22
934.932	2.5
935.102	40.67
935.272	23.04
935.443	37.57
935.613	39.7
935.783	59.46
935.953	0.18
936.123	152.27
936.294	4.05
936.464	35.63
936.634	23.43
936.804	-15.52
936.974	1.73
937.144	63.34
937.314	49.2
937.484	43.19
937.655	1.34
937.825	36.8
937.995	7.93
938.165	74.19
938.334	28.46
938.504	57.72
938.674	35.05
938.844	56.17
939.014	88.33
939.184	73.22
939.354	120.49
939.524	114.1
939.694	43
939.863	61.21
940.033	112.16
940.203	101.89
940.373	67.8
940.542	126.69
940.712	79.42
940.882	87.75
941.051	110.23
941.221	100.54
941.391	119.53
941.56	33.11
941.73	80.78
941.899	151.69
942.069	63.92
942.238	73.61
942.408	48.23
942.577	89.88
942.747	93.56
942.916	2.31
943.086	44.35
943.255	104.99
943.425	82.33
943.594	64.11
943.763	14.13
943.933	24.59
944.102	-1.76
944.271	48.03
944.441	74.96
944.61	37.96
944.779	42.22
944.948	128.63
945.117	30.01
945.287	38.15
945.456	-18.03
945.625	31.18
945.794	60.82
945.963	19.36
946.132	67.6
946.301	35.83
946.47	63.92
946.639	-0.02
946.808	27.11
946.977	60.43
947.146	98.02
947.315	35.44
947.484	92.98
947.653	55.59
947.822	38.15
947.991	39.12
948.16	98.21
948.329	100.73
948.498	38.54
948.666	37.96
948.835	77.48
949.004	21.68
949.173	19.36
949.341	53.65
949.51	69.35
949.679	97.63
949.847	71.09
950.016	114.29
950.185	78.06
950.353	45.32
950.522	85.23
950.69	86.98
950.859	48.61
951.028	88.72
951.196	70.7
951.365	41.06
951.533	43.96
951.701	98.99
951.87	90.85
952.038	12
952.207	64.31
952.375	92.21
952.543	39.31
952.712	61.6
952.88	23.81
953.048	122.43
953.217	71.86
953.385	24.59
953.553	108.68
953.721	26.53
953.89	53.07
954.058	1.92
954.226	50.16
954.394	67.99
954.562	21.3
954.73	44.74
954.898	69.54
955.067	74.77
955.235	41.83
955.403	86.59
955.571	108.87
955.739	85.23
955.907	9.67
956.075	46.1
956.243	30.6
956.41	69.54
956.578	7.73
956.746	27.88
956.914	50.75
957.082	39.31
957.25	79.03
957.418	16.06
957.585	75.55
957.753	95.31
957.921	20.71
958.089	54.23
958.256	89.69
958.424	74.96
958.592	77.29
958.759	54.04
958.927	94.15
959.095	37.76
959.262	53.26
959.43	41.64
959.597	8.12
959.765	42.03
959.932	18.78
960.1	91.43
960.267	48.61
960.435	50.16
960.602	109.26
960.77	37.96
960.937	24.2
961.104	87.95
961.272	28.66
961.439	42.03
961.606	64.11
961.774	93.18
961.941	22.46
962.108	81.55
962.275	63.92
962.443	97.83
962.61	74.38
962.777	101.31
962.944	98.99
963.111	77.1
963.278	74
963.446	69.15
963.613	43.58
963.78	86.59
963.947	121.08
964.114	84.26
964.281	136.19
964.448	101.12
964.615	69.15
964.782	82.71
964.949	123.4
965.116	76.13
965.282	117.39
965.449	76.71
965.616	40.28
965.783	110.23
965.95	97.63
966.117	24.4
966.283	72.83
966.45	91.05
966.617	78.84
966.784	125.73
966.95	92.98
967.117	90.08
967.284	36.41
967.45	65.86
967.617	126.89
967.784	103.25
967.95	137.74
968.117	49.58
968.283	85.43
968.45	186.95
968.616	131.34
968.783	129.21
968.949	104.22
969.116	132.89
969.282	92.6
969.449	101.51
969.615	86.98
969.781	65.66
969.948	95.31
970.114	48.23
970.28	161.96
970.447	82.13
970.613	122.24
970.779	75.35
970.945	137.54
971.112	108.29
971.278	97.05
971.444	89.88
971.61	141.03
971.776	64.7
971.942	103.64
972.108	98.21
972.275	92.01
972.441	124.18
972.607	168.93
972.773	76.51
972.939	101.51
973.105	90.46
973.271	23.23
973.437	78.65
973.602	73.8
973.768	109.84
973.934	80.2
974.1	109.84
974.266	17.61
974.432	75.55
974.598	63.73
974.763	112.16
974.929	58.3
975.095	145.88
975.261	31.37
975.426	51.52
975.592	84.85
975.758	127.86
975.923	34.86
976.089	56.36
976.255	116.62
976.42	60.24
976.586	114.29
976.751	105.77
976.917	156.53
977.082	111.39
977.248	48.61
977.413	36.41
977.579	59.46
977.744	90.46
977.91	47.06
978.075	76.9
978.24	98.6
978.406	82.33
978.571	63.92
978.736	57.91
978.902	97.24
979.067	52.68
979.232	26.33
979.397	85.04
979.563	131.54
979.728	66.25
979.893	93.95
980.058	51.52
980.223	131.34
980.388	81.94
980.554	59.66
980.719	60.82
980.884	85.23
981.049	118.75
981.214	45.51
981.379	93.18
981.544	59.66
981.709	62.95
981.874	74.58
982.039	68.38
982.204	86.4
982.368	93.18
982.533	53.85
982.698	99.76
982.863	112.36
983.028	59.66
983.193	89.88
983.357	92.79
983.522	83.49
983.687	87.95
983.852	80.78
984.016	61.4
984.181	100.15
984.346	95.11
984.51	94.15
984.675	90.66
984.839	95.31
985.004	82.91
985.168	111.19
985.333	89.3
985.498	66.05
985.662	118.94
985.827	82.91
985.991	76.51
986.155	70.9
986.32	100.34
986.484	117.39
986.649	77.29
986.813	25.56
986.977	63.53
987.142	92.6
987.306	48.61
987.47	51.33
987.634	64.11
987.799	106.54
987.963	89.3
988.127	92.6
988.291	149.56
988.455	56.56
988.62	43.58
988.784	97.05
988.948	115.84
989.112	28.27
989.276	62.95
989.44	92.98
989.604	60.24
989.768	60.63
989.932	122.63
990.096	44.16
990.26	52.68
990.424	27.69
990.588	45.9
990.752	116.23
990.915	93.37
991.079	70.12
991.243	67.02
991.407	81.75
991.571	59.08
991.734	90.66
991.898	102.48
992.062	153.82
992.226	79.81
992.389	73.61
992.553	33.11
992.717	55.4
992.88	70.7
993.044	57.14
993.207	46.1
993.371	96.66
993.535	101.89
993.698	82.91
993.862	78.26
994.025	119.14
994.189	93.37
994.352	95.89
994.515	85.23
994.679	92.98
994.842	61.4
995.006	95.11
995.169	57.33
995.332	65.28
995.496	86.01
995.659	8.51
995.822	84.26
995.985	57.72
996.149	111.19
996.312	63.34
996.475	153.43
996.638	61.4
996.801	115.65
996.964	135.03
997.128	75.16
997.291	52.49
997.454	96.86
997.617	37.57
997.78	77.29
997.943	38.73
998.106	89.88
998.269	62.18
998.432	38.15
998.595	58.5
998.758	24.2
998.92	26.91
999.083	30.6
999.246	45.51
999.409	36.21
999.572	16.84
999.735	28.46
999.897	71.09
1000.06	47.45
1000.223	27.5
1000.386	86.98
1000.548	86.01
1000.711	53.46
1000.874	86.2
1001.036	30.21
1001.199	92.01
1001.361	59.08
1001.524	62.95
1001.687	102.09
1001.849	45.51
1002.012	83.3
1002.174	47.84
1002.337	67.21
1002.499	52.88
1002.661	94.34
1002.824	46.68
1002.986	40.86
1003.149	71.28
1003.311	23.81
1003.473	104.03
1003.636	28.85
1003.798	65.47
1003.96	58.69
1004.123	55.01
1004.285	21.49
1004.447	40.09
1004.609	40.48
1004.771	94.92
1004.933	3.67
1005.096	40.67
1005.258	30.79
1005.42	21.1
1005.582	81.75
1005.744	46.68
1005.906	-13.38
1006.068	52.68
1006.23	16.45
1006.392	9.48
1006.554	18
1006.716	73.22
1006.878	66.83
1007.04	18.78
1007.202	19.75
1007.363	48.42
1007.525	68.38
1007.687	53.85
1007.849	98.02
1008.011	-2.53
1008.172	3.47
1008.334	29.82
1008.496	60.24
1008.658	-2.73
1008.819	-1.18
1008.981	11.03
1009.143	19.55
1009.304	4.05
1009.466	47.06
1009.627	85.04
1009.789	127.66
1009.95	36.21
1010.112	10.83
1010.273	48.81
1010.435	24.59
1010.596	23.81
1010.758	37.38
1010.919	36.41
1011.081	1.73
1011.242	32.73
1011.403	52.88
1011.565	38.93
1011.726	51.33
1011.887	14.51
1012.049	28.46
1012.21	51.71
1012.371	69.15
1012.532	-31.6
1012.693	51.13
1012.855	7.35
1013.016	35.44
1013.177	64.5
1013.338	32.73
1013.499	106.74
1013.66	50.75
1013.821	71.67
1013.982	21.1
1014.143	32.92
1014.304	36.8
1014.465	18.2
1014.626	50.94
1014.787	4.44
1014.948	108.09
1015.109	-15.71
1015.27	74.19
1015.431	11.41
1015.592	-5.25
1015.752	70.31
1015.913	40.48
1016.074	52.49
1016.235	11.22
1016.395	8.9
1016.556	47.84
1016.717	19.36
1016.877	75.93
1017.038	26.14
1017.199	38.73
1017.359	48.81
1017.52	30.4
1017.681	7.15
1017.841	22.65
1018.002	24.4
1018.162	27.5
1018.323	77.87
1018.483	11.03
1018.644	-1.76
1018.804	-17.26
1018.964	16.65
1019.125	9.09
1019.285	16.45
1019.446	1.34
1019.606	14.9
1019.766	-29.47
1019.926	25.56
1020.087	58.3
1020.247	-16.1
1020.407	57.91
1020.567	51.71
1020.728	16.84
1020.888	-6.8
1021.048	3.28
1021.208	7.35
1021.368	13.93
1021.528	65.86
1021.688	55.01
1021.848	38.73
1022.008	37.18
1022.168	34.86
1022.328	-5.05
1022.488	24.78
1022.648	4.44
1022.808	4.83
1022.968	28.27
1023.128	-9.51
1023.288	5.8
1023.448	24.01
1023.608	11.8
1023.767	36.02
1023.927	5.41
1024.087	-16.87
1024.247	-30.05
1024.406	20.71
1024.566	-11.45
1024.726	-19.39
1024.885	27.5
1025.045	51.52
1025.205	-9.12
1025.364	7.15
1025.524	22.26
1025.683	15.68
1025.843	33.5
1026.003	9.09
1026.162	67.8
1026.321	43.38
1026.481	7.15
1026.64	4.44
1026.8	29.82
1026.959	24.98
1027.119	28.85
1027.278	-4.08
1027.437	-19.2
1027.597	9.86
1027.756	42.22
1027.915	31.37
1028.074	14.9
1028.234	-27.92
1028.393	13.55
1028.552	0.76
1028.711	-60.85
1028.87	10.06
1029.03	-15.13
1029.189	23.81
1029.348	-48.65
1029.507	9.48
1029.666	6.57
1029.825	-2.34
1029.984	-0.6
1030.143	34.47
1030.302	-22.3
1030.461	-28.88
1030.62	7.93
1030.779	36.41
1030.938	3.28
1031.097	-24.23
1031.255	29.43
1031.414	50.36
1031.573	46.29
1031.732	-42.06
1031.891	-2.92
1032.049	46.1
1032.208	12.96
1032.367	-12.61
1032.525	10.64
1032.684	5.02
1032.843	29.43
1033.001	-32.18
1033.16	132.89
1033.319	48.42
1033.477	31.56
1033.636	-8.35
1033.794	-20.17
1033.953	23.81
1034.111	42.61
1034.27	-10.09
1034.428	39.7
1034.587	2.89
1034.745	23.04
1034.903	34.86
1035.062	46.68
1035.22	-37.6
1035.378	31.37
1035.537	0.76
1035.695	26.14
1035.853	14.13
1036.011	13.93
1036.17	14.32
1036.328	-43.03
1036.486	23.62
1036.644	6.38
1036.802	-52.52
1036.96	3.47
1037.119	-0.79
1037.277	-5.25
1037.435	-40.9
1037.593	-19.78
1037.751	-13
1037.909	33.5
1038.067	33.5
