Data from gum_young_FLMT105791__79__17-39-37-043.txt Node

Date: Mon Mar 20 17:39:37 GMT 2023
User: antho
Spectrometer: FLMT10579
Trigger mode: 0
Integration Time (sec): 1.000000E-1
Scans to average: 10
Electric dark correction enabled: true
Nonlinearity correction enabled: false
Boxcar width: 0
XAxis mode: Wavelengths
Number of Pixels in Spectrum: 3648
>>>>>Begin Spectral Data<<<<<
345.248	-135.36
345.464	-135.36
345.681	-135.36
345.898	-147.57
346.114	-156.1
346.331	-13.11
346.548	12.08
346.764	5.88
346.981	6.46
347.197	-20.09
347.414	1.23
347.631	-11.95
347.847	53.93
348.064	16.73
348.28	15.37
348.497	-55.73
348.713	-10.79
348.93	23.7
349.146	56.45
349.363	3.16
349.579	24.67
349.796	20.21
350.012	14.79
350.229	42.3
350.445	-6.14
350.661	-10.2
350.878	7.04
351.094	37.65
351.311	23.9
351.527	33.58
351.743	20.21
351.96	51.41
352.176	49.08
352.392	20.6
352.609	70.01
352.825	17.31
353.041	11.69
353.257	20.8
353.474	3.36
353.69	24.09
353.906	29.9
354.122	-29.58
354.339	39.2
354.555	9.36
354.771	27
354.987	55.86
355.203	70.78
355.42	-11.17
355.636	-3.23
355.852	-1.29
356.068	29.32
356.284	-15.05
356.5	40.56
356.716	29.71
356.932	22.35
357.148	54.12
357.364	29.32
357.58	49.47
357.796	68.07
358.012	51.41
358.228	25.06
358.444	-45.08
358.66	74.85
358.876	14.21
359.092	-2.07
359.308	17.7
359.524	52.57
359.74	18.86
359.956	3.55
360.172	29.13
360.388	52.76
360.604	10.72
360.819	63.23
361.035	46.18
361.251	40.17
361.467	0.65
361.683	56.64
361.898	16.53
362.114	51.8
362.33	21.96
362.546	32.81
362.762	25.06
362.977	16.15
363.193	-5.94
363.409	43.08
363.624	12.27
363.84	3.36
364.056	3.94
364.271	68.07
364.487	35.52
364.703	23.31
364.918	-35.97
365.134	15.56
365.35	0.84
365.565	115.73
365.781	63.03
365.996	47.53
366.212	51.99
366.427	35.13
366.643	-8.65
366.858	29.32
367.074	-0.71
367.289	54.12
367.505	102.17
367.72	6.46
367.936	9.95
368.151	55.09
368.367	16.15
368.582	51.8
368.798	27
369.013	98.29
369.228	33.97
369.444	12.66
369.659	72.91
369.874	50.05
370.09	68.46
370.305	-22.8
370.52	16.34
370.736	60.9
370.951	22.15
371.166	60.32
371.381	74.66
371.597	57.03
371.812	-21.25
372.027	9.56
372.242	36.68
372.458	78.34
372.673	29.71
372.888	51.6
373.103	45.98
373.318	106.82
373.533	18.28
373.749	54.51
373.964	2.2
374.179	66.52
374.394	2.39
374.609	82.21
374.824	-9.82
375.039	67.68
375.254	-8.27
375.469	84.93
375.684	57.61
375.899	62.06
376.114	34.55
376.329	42.5
376.544	57.41
376.759	77.76
376.974	6.65
377.189	36.3
377.404	5.68
377.619	62.45
377.834	-22.02
378.049	-20.28
378.264	21.18
378.478	63.03
378.693	11.88
378.908	56.64
379.123	19.83
379.338	65.55
379.553	39.01
379.767	35.33
379.982	48.11
380.197	53.93
380.412	27.77
380.626	30.68
380.841	87.06
381.056	52.57
381.271	74.27
381.485	44.24
381.7	-3.04
381.915	45.79
382.129	14.21
382.344	42.5
382.559	31.84
382.773	68.46
382.988	-15.82
383.202	29.51
383.417	7.62
383.632	102.36
383.846	23.31
384.061	35.71
384.275	44.24
384.49	60.32
384.704	63.42
384.919	59.74
385.133	55.86
385.348	45.98
385.562	51.99
385.777	85.12
385.991	27.96
386.206	21.76
386.42	20.6
386.634	91.51
386.849	65.55
387.063	65.16
387.277	-0.52
387.492	25.83
387.706	-0.71
387.92	30.1
388.135	55.28
388.349	46.76
388.563	90.93
388.778	63.61
388.992	68.84
389.206	67.49
389.42	99.26
389.635	57.22
389.849	76.4
390.063	58.38
390.277	79.31
390.491	96.16
390.706	57.41
390.92	70.78
391.134	43.46
391.348	84.34
391.562	25.83
391.776	62.26
391.99	2
392.205	55.86
392.419	6.07
392.633	58
392.847	85.12
393.061	24.09
393.275	101.78
393.489	46.18
393.703	66.91
393.917	78.73
394.131	37.07
394.345	62.26
394.559	77.76
394.773	39.98
394.986	65.36
395.2	49.86
395.414	68.65
395.628	11.88
395.842	80.08
396.056	25.25
396.27	9.56
396.484	53.54
396.697	55.86
396.911	69.43
397.125	80.47
397.339	91.51
397.553	54.7
397.766	108.18
397.98	102.17
398.194	77.95
398.408	53.54
398.621	77.56
398.835	71.75
399.049	80.86
399.262	110.5
399.476	81.05
399.69	83.96
399.903	128.52
400.117	65.74
400.331	75.82
400.544	59.16
400.758	168.04
400.971	80.47
401.185	107.01
401.398	55.28
401.612	129.49
401.826	93.06
402.039	110.31
402.253	68.46
402.466	117.86
402.68	101.59
402.893	100.23
403.106	81.24
403.32	78.73
403.533	120.77
403.747	76.79
403.96	98.29
404.174	105.27
404.387	51.02
404.6	94.61
404.814	123.68
405.027	85.51
405.24	88.61
405.454	53.73
405.667	103.72
405.88	51.6
406.094	104.49
406.307	113.21
406.52	92.87
406.733	68.07
406.947	39.2
407.16	138.21
407.373	143.05
407.586	103.33
407.799	69.81
408.012	121.93
408.226	101.39
408.439	137.24
408.652	51.21
408.865	130.46
409.078	136.46
409.291	143.44
409.504	79.11
409.717	146.34
409.93	95
410.143	121.74
410.357	61.87
410.57	67.49
410.783	77.76
410.996	121.74
411.209	91.51
411.421	149.06
411.634	116.51
411.847	89.38
412.06	88.03
412.273	96.16
412.486	115.54
412.699	182.19
412.912	110.31
413.125	137.43
413.338	112.44
413.55	162.62
413.763	95.58
413.976	150.22
414.189	81.05
414.402	111.66
414.615	163.78
414.827	82.79
415.04	125.42
415.253	104.11
415.466	150.41
415.678	177.15
415.891	108.37
416.104	121.16
416.316	109.34
416.529	91.13
416.742	145.76
416.954	141.11
417.167	135.69
417.38	108.37
417.592	164.36
417.805	120.58
418.017	76.21
418.23	145.96
418.442	101.01
418.655	117.86
418.868	126
419.08	181.8
419.293	164.56
419.505	146.15
419.718	142.66
419.93	153.71
420.142	116.31
420.355	172.89
420.567	180.44
420.78	165.14
420.992	131.23
421.205	165.52
421.417	89.58
421.629	100.62
421.842	115.73
422.054	100.04
422.266	140.92
422.479	185.09
422.691	138.21
422.903	141.5
423.115	124.84
423.328	123.29
423.54	155.06
423.752	123.29
423.964	112.05
424.177	131.23
424.389	139.76
424.601	224.23
424.813	133.94
425.025	179.67
425.238	147.12
425.45	126.58
425.662	159.32
425.874	395.7
426.086	157.97
426.298	167.66
426.51	159.32
426.722	155.64
426.934	128.13
427.146	159.52
427.358	108.95
427.57	177.54
427.782	149.64
427.994	134.91
428.206	144.41
428.418	100.23
428.63	180.06
428.842	181.02
429.054	169.4
429.266	163.59
429.478	123.09
429.69	156.03
429.902	110.69
430.114	166.49
430.325	143.83
430.537	111.66
430.749	119.99
430.961	81.05
431.173	131.62
431.384	160.68
431.596	88.99
431.808	142.66
432.02	169.01
432.231	187.22
432.443	210.86
432.655	181.61
432.867	127.16
433.078	181.02
433.29	228.69
433.502	194.59
433.713	188
433.925	199.24
434.136	204.66
434.348	124.84
434.56	98.1
434.771	250.19
434.983	123.68
435.194	151.96
435.406	173.08
435.617	224.23
435.829	234.11
436.04	190.91
436.252	203.5
436.463	245.35
436.675	227.52
436.886	224.81
437.098	202.92
437.309	235.66
437.521	190.52
437.732	184.71
437.943	187.22
438.155	185.87
438.366	160.29
438.578	252.9
438.789	199.43
439	219.58
439.211	197.49
439.423	187.61
439.634	219.58
439.845	224.23
440.057	211.83
440.268	225.59
440.479	186.64
440.69	206.02
440.902	191.87
441.113	215.32
441.324	189.16
441.535	218.03
441.746	240.31
441.957	198.66
442.168	189.16
442.38	235.85
442.591	276.15
442.802	187.81
443.013	214.16
443.224	224.42
443.435	214.54
443.646	221.91
443.857	219.58
444.068	200.4
444.279	200.59
444.49	300.57
444.701	237.21
444.912	307.35
445.123	254.84
445.334	237.4
445.545	219.58
445.756	221.52
445.967	209.7
446.178	245.74
446.388	274.02
446.599	267.05
446.81	263.17
447.021	240.7
447.232	278.09
447.443	279.45
447.653	229.27
447.864	284.49
448.075	252.52
448.286	290.88
448.496	251.94
448.707	265.5
448.918	240.12
449.129	317.62
449.339	238.18
449.55	282.55
449.761	256.78
449.971	306.19
450.182	240.7
450.393	304.44
450.603	267.44
450.814	298.44
451.024	291.85
451.235	317.23
451.446	338.93
451.656	337.38
451.867	267.44
452.077	291.27
452.288	349.2
452.498	329.05
452.709	283.32
452.919	333.89
453.13	277.7
453.34	320.91
453.55	243.22
453.761	315.87
453.971	294.95
454.182	304.64
454.392	323.43
454.602	356.56
454.813	319.55
455.023	343.97
455.233	263.37
455.444	294.75
455.654	234.5
455.864	298.05
456.075	288.36
456.285	276.35
456.495	268.6
456.705	305.6
456.916	348.03
457.126	369.93
457.336	309.67
457.546	258.91
457.756	279.84
457.967	308.7
458.177	293.2
458.387	317.42
458.597	269.57
458.807	300.76
459.017	303.09
459.227	307.15
459.437	275.96
459.647	348.23
459.857	338.35
460.068	312.19
460.278	364.7
460.488	318.97
460.698	354.23
460.908	307.54
461.117	282.74
461.327	298.05
461.537	324.59
461.747	329.43
461.957	335.63
462.167	417.59
462.377	362.76
462.587	351.52
462.797	380.2
463.007	343.58
463.216	364.5
463.426	382.91
463.636	364.89
463.846	285.84
464.056	305.22
464.265	389.88
464.475	301.92
464.685	346.1
464.895	359.27
465.104	342.42
465.314	392.21
465.524	329.43
465.733	329.82
465.943	432.31
466.153	376.9
466.362	373.61
466.572	345.13
466.782	323.82
466.991	335.83
467.201	416.04
467.41	318.97
467.62	379.42
467.829	358.5
468.039	373.03
468.249	361.02
468.458	380
468.668	377.48
468.877	396.86
469.086	418.95
469.296	430.96
469.505	352.88
469.715	444.13
469.924	388.92
470.134	420.3
470.343	434.45
470.552	377.1
470.762	376.71
470.971	364.12
471.18	380.78
471.39	419.14
471.599	375.93
471.808	407.9
472.018	383.68
472.227	426.7
472.436	410.81
472.645	422.05
472.855	411.2
473.064	434.83
473.273	453.82
473.482	428.25
473.691	451.11
473.901	447.81
474.11	412.75
474.319	506.33
474.528	437.16
474.737	507.1
474.946	468.74
475.155	455.37
475.364	473.2
475.573	466.61
475.783	465.06
475.992	482.5
476.201	486.37
476.41	489.28
476.619	425.92
476.828	462.93
477.037	433.67
477.245	428.83
477.454	500.9
477.663	500.51
477.872	449.75
478.081	531.51
478.29	466.03
478.499	554.57
478.708	502.84
478.917	540.23
479.125	490.25
479.334	539.84
479.543	488.89
479.752	530.74
479.961	520.47
480.169	533.64
480.378	502.84
480.587	608.24
480.796	567.16
481.004	560.77
481.213	592.35
481.422	556.51
481.63	557.67
481.839	570.46
482.048	627.22
482.256	575.88
482.465	590.8
482.674	596.22
482.882	602.81
483.091	678.95
483.299	610.95
483.508	593.32
483.716	616.76
483.925	625.48
484.134	590.99
484.342	594.09
484.551	605.14
484.759	629.74
484.967	622.57
485.176	644.86
485.384	644.08
485.593	666.17
485.801	622.57
486.01	606.11
486.218	578.4
486.426	518.53
486.635	557.67
486.843	543.14
487.051	587.12
487.26	578.01
487.468	612.31
487.676	630.91
487.885	592.74
488.093	648.34
488.301	653.77
488.509	664.62
488.717	685.74
488.926	671.98
489.134	622.77
489.342	673.34
489.55	613.47
489.758	670.04
489.967	645.05
490.175	741.34
490.383	673.92
490.591	781.45
490.799	646.41
491.007	745.22
491.215	688.06
491.423	699.69
491.631	705.5
491.839	687.09
492.047	747.15
492.255	691.16
492.463	643.5
492.671	681.86
492.879	746.96
493.087	720.42
493.295	730.1
493.503	775.63
493.711	745.41
493.919	794.62
494.127	779.9
494.334	776.8
494.542	708.6
494.75	778.73
494.958	776.41
495.166	812.83
495.374	810.9
495.581	824.85
495.789	800.82
495.997	879.29
496.205	790.17
496.412	808.77
496.62	759.55
496.828	824.07
497.035	780.09
497.243	805.28
497.451	804.7
497.658	838.6
497.866	826.98
498.074	870.57
498.281	781.64
498.489	887.81
498.696	849.65
498.904	814.38
499.112	810.12
499.319	896.92
499.527	872.12
499.734	870.57
499.942	810.9
500.149	807.41
500.357	855.07
500.564	814.19
500.771	841.32
500.979	818.07
501.186	848.48
501.394	853.33
501.601	857.78
501.808	890.33
502.016	850.81
502.223	859.72
502.43	856.23
502.638	874.45
502.845	866.31
503.052	947.29
503.26	887.23
503.467	986.24
503.674	914.94
503.881	924.82
504.089	981.39
504.296	972.87
504.503	833.37
504.71	939.54
504.917	877.93
505.125	945.55
505.332	952.14
505.539	986.63
505.746	1014.91
505.953	999.99
506.16	1018.01
506.367	1077.88
506.574	1060.25
506.781	1055.02
506.988	989.53
507.195	1029.06
507.402	1041.84
507.609	1055.79
507.816	994.18
508.023	1040.1
508.23	983.14
508.437	1005.03
508.644	1054.05
508.851	1105.59
509.058	1113.14
509.265	1098.42
509.472	1115.47
509.679	1211.37
509.885	1128.84
510.092	1131.16
510.299	1106.17
510.506	1135.04
510.713	1168.17
510.92	1141.62
511.126	1169.14
511.333	1218.73
511.54	1221.64
511.746	1248.18
511.953	1263.49
512.16	1254.58
512.367	1261.55
512.573	1212.92
512.78	1275.7
512.987	1258.45
513.193	1268.53
513.4	1184.83
513.606	1227.84
513.813	1283.45
514.02	1248.57
514.226	1299.72
514.433	1304.37
514.639	1226.1
514.846	1280.73
515.052	1265.82
515.259	1283.45
515.465	1317.16
515.672	1297.59
515.878	1422.56
516.085	1362.88
516.291	1380.51
516.497	1337.31
516.704	1327.81
516.91	1295.85
517.117	1266.4
517.323	1213.31
517.529	1256.52
517.736	1269.88
517.942	1250.9
518.148	1315.8
518.354	1350.48
518.561	1376.06
518.767	1384.58
518.973	1405.31
519.179	1427.01
519.386	1408.41
519.592	1394.66
519.798	1457.24
520.004	1544.04
520.21	1516.52
520.417	1540.55
520.623	1577.75
520.829	1608.75
521.035	1592.09
521.241	1590.73
521.447	1620.95
521.653	1742.05
521.859	1601.97
522.065	1688.38
522.271	1735.85
522.477	1702.13
522.683	1760.65
522.889	1713.37
523.095	1695.16
523.301	1712.79
523.507	1684.12
523.713	1732.55
523.919	1725.19
524.125	1806.56
524.331	1847.06
524.537	1909.44
524.742	1855
524.948	1893.17
525.154	1898.59
525.36	1988.49
525.566	1887.36
525.772	1957.69
525.977	1891.81
526.183	1941.99
526.389	1955.17
526.595	1867.59
526.8	1840.08
527.006	1824.78
527.212	1786.03
527.417	1778.86
527.623	1782.35
527.829	1843.76
528.034	1912.74
528.24	1930.17
528.446	1911.38
528.651	2012.13
528.857	2043.32
529.062	2085.56
529.268	2043.13
529.473	2088.47
529.679	2076.07
529.884	2174.68
530.09	2123.34
530.295	2131.28
530.501	2135.55
530.706	2163.64
530.912	2121.6
531.117	2143.3
531.323	2189.99
531.528	2166.55
531.733	2228.55
531.939	2164.03
532.144	2177.78
532.35	2200.45
532.555	2230.87
532.76	2174.3
532.966	2170.81
533.171	2156.47
533.376	2120.24
533.581	2103.77
533.787	2157.83
533.992	2248.31
534.197	2230.1
534.402	2224.28
534.607	2221.38
534.813	2311.47
535.018	2243.46
535.223	2266.71
535.428	2262.84
535.633	2341.5
535.838	2341.89
536.043	2355.06
536.249	2432.56
536.454	2344.21
536.659	2395.36
536.864	2335.88
537.069	2301.39
537.274	2373.27
537.479	2318.83
537.684	2334.91
537.889	2312.24
538.094	2446.12
538.299	2374.24
538.504	2399.04
538.708	2389.55
538.913	2422.68
539.118	2375.41
539.323	2406.21
539.528	2381.22
539.733	2351.57
539.938	2462.98
540.142	2374.44
540.347	2332.2
540.552	2355.06
540.757	2327.55
540.962	2352.74
541.166	2272.53
541.371	2319.61
541.576	2333.94
541.781	2252.76
541.985	2394.2
542.19	2399.82
542.395	2450.97
542.599	2505.99
542.804	2418.03
543.008	2478.29
543.213	2401.95
543.418	2383.35
543.622	2455.04
543.827	2423.26
544.031	2493.4
544.236	2502.89
544.44	2453.68
544.645	2571.48
544.849	2418.22
545.054	2536.6
545.258	2556.95
545.463	2540.67
545.667	2458.52
545.872	2522.27
546.076	2530.4
546.281	2515.87
546.485	2487
546.689	2523.23
546.894	2562.18
547.098	2542.03
547.302	2493.01
547.507	2521.1
547.711	2524.59
547.915	2596.28
548.119	2469.76
548.324	2465.89
548.528	2539.9
548.732	2545.13
548.936	2586.2
549.141	2559.47
549.345	2524.98
549.549	2529.82
549.753	2544.74
549.957	2660.02
550.161	2641.23
550.366	2590.85
550.57	2552.88
550.774	2615.85
550.978	2584.46
551.182	2625.34
551.386	2576.13
551.59	2570.9
551.794	2567.41
551.998	2580.97
552.202	2596.47
552.406	2591.63
552.61	2645.49
552.814	2672.23
553.018	2687.34
553.222	2563.34
553.426	2588.53
553.63	2640.06
553.833	2656.92
554.037	2558.3
554.241	2603.83
554.445	2614.1
554.649	2613.71
554.853	2586.78
555.056	2639.29
555.26	2651.69
555.464	2632.31
555.668	2630.18
555.871	2671.06
556.075	2651.11
556.279	2602.48
556.483	2561.79
556.686	2588.33
556.89	2556.75
557.094	2611.78
557.297	2506.38
557.501	2549.2
557.704	2480.22
557.908	2593.76
558.112	2503.47
558.315	2560.24
558.519	2521.68
558.722	2508.32
558.926	2508.7
559.129	2427.14
559.333	2394.59
559.536	2414.35
559.74	2434.89
559.943	2416.09
560.147	2420.74
560.35	2422.49
560.553	2442.83
560.757	2386.26
560.96	2481.77
561.164	2429.07
561.367	2506.57
561.57	2457.36
561.774	2446.7
561.977	2401.37
562.18	2406.02
562.384	2453.68
562.587	2419
562.79	2348.67
562.993	2382.57
563.197	2397.11
563.4	2432.17
563.603	2426.75
563.806	2445.54
564.009	2392.84
564.212	2430.24
564.416	2325.81
564.619	2362.23
564.822	2307.01
565.025	2366.3
565.228	2306.63
565.431	2352.74
565.634	2274.66
565.837	2299.46
566.04	2263.23
566.243	2237.46
566.446	2199.1
566.649	2286.67
566.852	2198.13
567.055	2249.08
567.258	2265.94
567.461	2313.41
567.664	2289.38
567.867	2201.81
568.07	2221.38
568.273	2243.46
568.475	2241.33
568.678	2161.7
568.881	2164.03
569.084	2122.57
569.287	2022.2
569.489	2077.81
569.692	2137.1
569.895	2134.97
570.098	2063.86
570.3	2062.7
570.503	2012.52
570.706	2048.94
570.909	2008.64
571.111	1938.7
571.314	1941.41
571.516	1991.59
571.719	2016.2
571.922	1956.52
572.124	1988.1
572.327	1957.3
572.529	1944.12
572.732	1946.45
572.935	1966.79
573.137	2047
573.34	1969.12
573.542	2010
573.745	1935.02
573.947	1965.05
574.15	1922.04
574.352	1890.46
574.554	1971.06
574.757	1899.76
574.959	1883.87
575.162	1922.81
575.364	1832.14
575.566	1933.27
575.769	1857.71
575.971	1912.93
576.173	1760.26
576.376	1836.98
576.578	1868.76
576.78	1895.88
576.982	1754.45
577.185	1822.84
577.387	1787.96
577.589	1769.75
577.791	1864.69
577.993	1832.91
578.196	1805.6
578.398	1792.61
578.6	1790.87
578.802	1725.38
579.004	1750.38
579.206	1791.84
579.408	1790.1
579.61	1786.03
579.812	1803.85
580.014	1768.59
580.216	1754.45
580.418	1768.2
580.62	1762.39
580.822	1733.71
581.024	1770.33
581.226	1811.79
581.428	1750.96
581.63	1827.49
581.832	1769.75
582.034	1787.58
582.236	1766.46
582.438	1807.53
582.64	1848.8
582.841	1855.58
583.043	1891.81
583.245	1800.95
583.447	1833.49
583.649	1809.66
583.85	1788.16
584.052	1797.07
584.254	1744.37
584.456	1821.68
584.657	1760.06
584.859	1815.28
585.061	1766.85
585.262	1755.41
585.464	1701.55
585.666	1793.78
585.867	1729.84
586.069	1799.98
586.27	1741.85
586.472	1733.33
586.674	1708.53
586.875	1706.59
587.077	1706.01
587.278	1718.02
587.48	1686.05
587.681	1786.03
587.883	1732.75
588.084	1634.71
588.285	1680.43
588.487	1646.33
588.688	1670.55
588.89	1571.35
589.091	1576.39
589.292	1539
589.494	1481.46
589.695	1466.54
589.896	1415.97
590.098	1413.64
590.299	1447.55
590.5	1441.74
590.702	1466.54
590.903	1506.84
591.104	1580.07
591.305	1549.85
591.507	1594.6
591.708	1563.6
591.909	1523.5
592.11	1616.3
592.311	1563.02
592.512	1552.37
592.714	1500.44
592.915	1516.52
593.116	1510.91
593.317	1546.94
593.518	1555.47
593.719	1543.84
593.92	1586.66
594.121	1605.84
594.322	1574.07
594.523	1544.81
594.724	1518.46
594.925	1520.59
595.126	1528.34
595.327	1537.84
595.528	1524.66
595.729	1528.15
595.929	1527.57
596.13	1510.91
596.331	1563.02
596.532	1579.69
596.733	1608.17
596.934	1567.09
597.135	1566.51
597.335	1534.35
597.536	1542.49
597.737	1564.96
597.938	1503.93
598.138	1570
598.339	1525.24
598.54	1532.8
598.74	1512.65
598.941	1542.49
599.142	1594.99
599.342	1560.7
599.543	1491.14
599.744	1513.42
599.944	1530.67
600.145	1534.16
600.345	1537.26
600.546	1618.24
600.746	1571.94
600.947	1605.45
601.147	1522.34
601.348	1602.74
601.548	1510.32
601.749	1544.62
601.949	1497.73
602.15	1500.25
602.35	1498.51
602.551	1566.9
602.751	1458.59
602.951	1496.57
603.152	1432.05
603.352	1551.98
603.552	1515.56
603.753	1554.5
603.953	1555.47
604.153	1511.29
604.354	1513.23
604.554	1497.15
604.754	1526.41
604.954	1447.16
605.155	1511.68
605.355	1488.62
605.555	1513.23
605.755	1556.63
605.955	1502.38
606.155	1531.44
606.356	1507.22
606.556	1552.56
606.756	1486.69
606.956	1453.17
607.156	1562.83
607.356	1477.39
607.556	1496.37
607.756	1504.9
607.956	1546.36
608.156	1494.05
608.356	1460.72
608.556	1528.15
608.756	1453.94
608.956	1434.57
609.156	1481.65
609.356	1424.49
609.556	1429.92
609.755	1448.13
609.955	1422.17
610.155	1423.91
610.355	1483.78
610.555	1408.41
610.755	1384.97
610.954	1394.66
611.154	1400.86
611.354	1436.12
611.554	1379.16
611.753	1394.08
611.953	1371.79
612.153	1423.72
612.352	1409.19
612.552	1369.66
612.752	1321.61
612.951	1362.69
613.151	1371.79
613.351	1357.46
613.55	1353
613.75	1381.68
613.949	1335.95
614.149	1364.05
614.348	1351.06
614.548	1319.1
614.747	1285.19
614.947	1292.36
615.146	1260.97
615.346	1382.06
615.545	1364.43
615.745	1327.43
615.944	1337.11
616.144	1305.15
616.343	1312.31
616.542	1292.94
616.742	1284.41
616.941	1261.36
617.14	1231.52
617.34	1293.33
617.539	1242.76
617.738	1269.11
617.938	1329.36
618.137	1293.91
618.336	1251.67
618.535	1289.65
618.734	1304.18
618.934	1281.12
619.133	1291.58
619.332	1319.87
619.531	1267.75
619.73	1292.16
619.929	1315.8
620.128	1297.01
620.328	1327.81
620.527	1253.03
620.726	1244.89
620.925	1244.12
621.124	1256.71
621.323	1287.71
621.522	1196.65
621.721	1221.25
621.92	1230.55
622.119	1283.64
622.318	1245.28
622.517	1224.74
622.715	1206.14
622.914	1190.84
623.113	1230.75
623.312	1170.49
623.511	1208.47
623.71	1209.43
623.909	1170.69
624.107	1226.87
624.306	1146.66
624.505	1138.52
624.704	1166.23
624.902	1175.53
625.101	1232.3
625.3	1178.63
625.499	1167.59
625.697	1155.57
625.896	1128.45
626.095	1174.17
626.293	1126.12
626.492	1167.2
626.69	1133.68
626.889	1129.03
627.088	1209.63
627.286	1152.47
627.485	1131.16
627.683	1097.26
627.882	1140.46
628.08	1031.38
628.279	1083.11
628.477	1132.32
628.676	1042.23
628.874	1130.58
629.073	1050.95
629.271	1099
629.469	1125.15
629.668	1077.11
629.866	1085.05
630.065	1065.48
630.263	1093.57
630.461	1034.48
630.66	1091.44
630.858	1123.6
631.056	1154.8
631.254	1104.42
631.453	1064.51
631.651	1133.49
631.849	1095.12
632.047	1077.49
632.245	1098.42
632.444	1085.82
632.642	1093.57
632.84	1145.3
633.038	1072.46
633.236	1059.86
633.434	1111.59
633.632	1062.57
633.83	1086.41
634.028	1156.35
634.227	1103.07
634.425	1139.1
634.623	1099
634.821	1109.46
635.019	1108.49
635.216	1064.9
635.414	1139.3
635.612	1115.27
635.81	1112.56
636.008	1178.24
636.206	1116.63
636.404	1102.49
636.602	1090.47
636.8	1094.93
636.997	1130
637.195	1148.02
637.393	1093.19
637.591	1140.65
637.789	1108.88
637.986	1090.86
638.184	1099.39
638.382	1098.22
638.58	1089.7
638.777	1158.09
638.975	1083.69
639.173	1099.39
639.37	1104.62
639.568	1077.49
639.765	1099.58
639.963	1083.11
640.161	1121.28
640.358	1114.5
640.556	1029.25
640.753	1006.19
640.951	1037.77
641.148	1049.98
641.346	1025.96
641.543	1033.9
641.741	1040.1
641.938	1009.49
642.136	1035.26
642.333	1007.74
642.531	1061.41
642.728	1062.19
642.925	1030.22
643.123	1025.37
643.32	1000.58
643.517	991.47
643.715	995.34
643.912	1012.39
644.109	1005.23
644.306	993.6
644.504	961.63
644.701	995.15
644.898	998.06
645.095	958.53
645.293	969.77
645.49	959.5
645.687	987.59
645.884	982.17
646.081	871.93
646.278	926.18
646.475	932.38
646.672	920.75
646.87	960.08
647.067	911.45
647.264	915.13
647.461	882.2
647.658	845
647.855	905.83
648.052	848.29
648.249	789.39
648.446	843.25
648.642	848.29
648.839	836.47
649.036	838.8
649.233	804.5
649.43	796.56
649.627	789.78
649.824	838.99
650.021	786.87
650.217	819.42
650.414	833.76
650.611	830.85
650.808	838.99
651.004	876.77
651.201	853.71
651.398	853.91
651.595	835.12
651.791	840.73
651.988	853.33
652.185	812.83
652.381	834.34
652.578	794.04
652.775	829.3
652.971	815.55
653.168	844.03
653.364	852.16
653.561	753.94
653.757	836.86
653.954	864.18
654.15	788.42
654.347	842.28
654.543	819.23
654.74	764.2
654.936	760.72
655.133	820.78
655.329	795.78
655.525	780.67
655.722	824.65
655.918	737.85
656.115	787.45
656.311	699.88
656.507	690.97
656.704	664.23
656.9	671.4
657.096	720.03
657.292	659.19
657.489	746.57
657.685	754.71
657.881	695.81
658.077	717.32
658.273	732.24
658.47	820.58
658.666	738.82
658.862	757.04
659.058	747.54
659.254	790.17
659.45	728.75
659.646	770.02
659.842	749.48
660.038	824.07
660.234	727.39
660.43	746.38
660.626	791.91
660.822	763.62
661.018	784.93
661.214	741.73
661.41	718.67
661.606	756.26
661.802	795.4
661.998	723.9
662.194	718.87
662.39	744.44
662.586	738.44
662.781	761.3
662.977	729.72
663.173	733.01
663.369	741.34
663.564	709.57
663.76	747.74
663.956	729.14
664.152	756.26
664.347	680.7
664.543	729.91
664.739	699.3
664.934	660.55
665.13	671.59
665.326	733.59
665.521	719.64
665.717	663.26
665.912	684.57
666.108	593.32
666.304	666.17
666.499	686.32
666.695	616.96
666.89	684.38
667.086	702.98
667.281	720.22
667.477	718.29
667.672	694.84
667.867	682.25
668.063	689.61
668.258	667.33
668.454	665.01
668.649	723.32
668.844	659.39
669.04	678.76
669.235	631.87
669.43	625.09
669.626	641.37
669.821	669.66
670.016	637.88
670.211	649.12
670.407	629.94
670.602	655.32
670.797	611.92
670.992	654.35
671.187	604.36
671.382	672.95
671.578	634.39
671.773	627.81
671.968	630.32
672.163	640.4
672.358	631.87
672.553	597.39
672.748	590.99
672.943	660.94
673.138	621.99
673.333	682.05
673.528	609.79
673.723	641.37
673.918	594.87
674.113	589.44
674.308	676.05
674.503	636.52
674.698	654.54
674.892	608.62
675.087	643.11
675.282	622.19
675.477	615.41
675.672	644.86
675.867	596.42
676.061	575.88
676.256	590.02
676.451	617.73
676.646	636.72
676.84	596.61
677.035	578.59
677.23	583.44
677.424	627.03
677.619	642.72
677.814	651.25
678.008	652.8
678.203	579.56
678.397	587.51
678.592	599.91
678.787	639.82
678.981	598.16
679.176	630.71
679.37	622.57
679.565	581.31
679.759	582.47
679.954	604.17
680.148	653.77
680.342	663.26
680.537	619.67
680.731	607.07
680.926	653.96
681.12	653.96
681.314	594.67
681.509	609.59
681.703	624.71
681.897	647.96
682.092	599.32
682.286	608.43
682.48	677.99
682.674	661.91
682.869	625.48
683.063	625.09
683.257	691.35
683.451	609.21
683.645	649.12
683.839	617.73
684.034	625.48
684.228	686.7
684.422	561.74
684.616	583.24
684.81	675.27
685.004	664.62
685.198	619.09
685.392	682.05
685.586	629.94
685.78	647.57
685.974	680.5
686.168	658.81
686.362	701.82
686.556	608.62
686.75	560.77
686.944	589.44
687.138	586.92
687.331	486.37
687.525	515.24
687.719	459.44
687.913	523.38
688.107	545.46
688.301	541.2
688.494	599.71
688.688	499.16
688.882	514.46
689.076	517.37
689.269	539.84
689.463	646.79
689.657	560.38
689.85	578.21
690.044	590.99
690.238	578.79
690.431	624.32
690.625	610.56
690.818	669.27
691.012	660.55
691.205	699.3
691.399	673.34
691.593	727.59
691.786	755.68
691.98	793.46
692.173	811.09
692.366	788.42
692.56	812.83
692.753	854.68
692.947	758.39
693.14	849.65
693.333	886.65
693.527	824.46
693.72	872.31
693.914	840.73
694.107	860.88
694.3	863.21
694.493	842.48
694.687	913.58
694.88	860.3
695.073	998.64
695.266	988.18
695.46	965.51
695.653	1044.36
695.846	1048.04
696.039	990.5
696.232	1039.13
696.425	1134.65
696.618	1099.39
696.812	1084.47
697.005	1168.36
697.198	1274.92
697.391	1199.94
697.584	1261.36
697.777	1299.33
697.97	1303.98
698.163	1312.9
698.356	1321.23
698.549	1382.26
698.742	1361.72
698.935	1306.89
699.127	1341.18
699.32	1338.28
699.513	1378.77
699.706	1400.86
699.899	1373.15
700.092	1412.09
700.285	1390.01
700.477	1346.61
700.67	1439.99
700.863	1439.03
701.056	1509.16
701.248	1486.69
701.441	1525.44
701.634	1469.25
701.826	1612.24
702.019	1497.15
702.212	1593.05
702.404	1554.5
702.597	1547.72
702.79	1584.34
702.982	1611.46
703.175	1661.83
703.367	1698.26
703.56	1732.16
703.752	1797.65
703.945	1727.32
704.137	1749.02
704.33	1831.94
704.522	1851.71
704.715	1835.63
704.907	1864.49
705.1	1928.62
705.292	1895.3
705.484	1889.88
705.677	1966.41
705.869	1971.44
706.061	2035.38
706.254	2010.19
706.446	1978.61
706.638	1993.92
706.831	2072
707.023	2045.65
707.215	2162.86
707.407	2163.06
707.599	2134.19
707.792	2180.88
707.984	2167.32
708.176	2241.91
708.368	2177.78
708.56	2227.77
708.752	2205.49
708.944	2230.48
709.136	2250.05
709.329	2284.34
709.521	2380.64
709.713	2347.51
709.905	2326.97
710.097	2409.51
710.289	2356.03
710.481	2420.16
710.672	2407.96
710.864	2431.01
711.056	2453.68
711.248	2501.92
711.44	2463.56
711.632	2471.31
711.824	2519.55
712.016	2594.34
712.207	2541.45
712.399	2571.67
712.591	2601.51
712.783	2613.52
712.975	2617.4
713.166	2583.68
713.358	2571.48
713.55	2671.84
713.741	2700.9
713.933	2656.73
714.125	2673.58
714.316	2642.39
714.508	2729.77
714.7	2746.24
714.891	2689.47
715.083	2737.71
715.274	2708.65
715.466	2753.6
715.657	2752.24
715.849	2674.94
716.04	2735.78
716.232	2693.93
716.423	2696.06
716.615	2592.02
716.806	2569.93
716.998	2477.12
717.189	2390.32
717.381	2270.2
717.572	2240.95
717.763	2272.33
717.955	2233.97
718.146	2176.04
718.337	2116.95
718.528	2096.99
718.72	2029.37
718.911	2058.82
719.102	2020.85
719.293	2062.7
719.485	2047.39
719.676	2031.31
719.867	1991.4
720.058	2001.28
720.249	2026.08
720.44	2031.31
720.632	2089.05
720.823	2143.49
721.014	2274.85
721.205	2336.85
721.396	2414.54
721.587	2543.58
721.778	2578.84
721.969	2610.61
722.16	2704.78
722.351	2724.93
722.542	2847.18
722.733	2814.05
722.924	2743.14
723.115	2778.59
723.305	2764.06
723.496	2769.29
723.687	2649.36
723.878	2636.38
724.069	2598.41
724.26	2630.96
724.45	2540.87
724.641	2554.62
724.832	2594.73
725.023	2558.88
725.213	2562.57
725.404	2535.83
725.595	2523.43
725.785	2516.84
725.976	2588.14
726.167	2552.3
726.357	2550.36
726.548	2670.48
726.739	2572.64
726.929	2692.18
727.12	2743.33
727.31	2717.37
727.501	2655.76
727.691	2691.21
727.882	2639.29
728.072	2766
728.263	2740.23
728.453	2804.36
728.644	2772.59
728.834	2781.69
729.024	2728.8
729.215	2713.69
729.405	2777.24
729.596	2835.56
729.786	2817.54
729.976	2877.79
730.167	2827.42
730.357	2806.3
730.547	2828.39
730.737	2901.24
730.928	2929.52
731.118	2952.58
731.308	2947.54
731.498	2924.1
731.688	3020
731.879	3048.48
732.069	3049.65
732.259	3163.96
732.449	3185.66
732.639	3265.29
732.829	3300.55
733.019	3330.77
733.209	3418.35
733.399	3387.73
733.589	3447.99
733.779	3521.61
733.969	3558.62
734.159	3594.85
734.349	3664.02
734.539	3721.37
734.729	3697.15
734.919	3730.47
735.109	3800.8
735.299	3685.91
735.488	3762.25
735.678	3801.19
735.868	3702.77
736.058	3740.94
736.248	3722.53
736.437	3644.06
736.627	3683.01
736.817	3811.46
737.007	3713.81
737.196	3825.8
737.386	3803.13
737.576	3796.15
737.765	3835.48
737.955	3823.08
738.144	3928.29
738.334	3909.3
738.524	3809.14
738.713	3854.67
738.903	3814.37
739.092	3897.48
739.282	3887.6
739.471	3920.93
739.661	3892.25
739.85	3984.86
740.04	3983.12
740.229	4027.88
740.419	4039.5
740.608	3983.9
740.797	4022.26
740.987	4085.03
741.176	4124.36
741.365	4059.07
741.555	3967.23
741.744	4067.98
741.933	4056.94
742.123	4057.52
742.312	4128.62
742.501	4119.52
742.69	4211.94
742.88	4056.55
743.069	4205.74
743.258	4190.24
743.447	4225.5
743.636	4172.41
743.825	4144.71
744.014	4177.45
744.204	4189.27
744.393	4160.01
744.582	4254.56
744.771	4257.27
744.96	4190.82
745.149	4228.79
745.338	4165.63
745.527	4213.49
745.716	4225.89
745.905	4198.95
746.094	4272.97
746.283	4233.25
746.471	4226.85
746.66	4284.98
746.849	4269.87
747.038	4303.77
747.227	4233.83
747.416	4300.28
747.604	4191.79
747.793	4227.05
747.982	4240.03
748.171	4240.22
748.359	4284.98
748.548	4279.17
748.737	4254.56
748.926	4198.95
749.114	4169.12
749.303	4257.85
749.491	4213.29
749.68	4176.87
749.869	4248.55
750.057	4223.17
750.246	4193.14
750.434	4209.61
750.623	4228.21
750.811	4191.79
751	4241.58
751.188	4201.28
751.377	4198.76
751.565	4175.32
751.754	4144.51
751.942	4121.84
752.131	4167.95
752.319	4154.97
752.507	4128.82
752.696	4207.29
752.884	4186.36
753.072	4122.81
753.261	4167.76
753.449	4138.89
753.637	4104.21
753.825	4246.81
754.014	4149.16
754.202	4103.24
754.39	4231.7
754.578	4172.6
754.766	4077.09
754.955	4073.79
755.143	4194.3
755.331	4102.86
755.519	4100.34
755.707	4103.82
755.895	4039.69
756.083	4065.66
756.271	4069.73
756.459	4086.77
756.647	4094.14
756.835	4026.52
757.023	4055.78
757.211	4006.37
757.399	4032.53
757.587	4028.84
757.775	3949.99
757.963	4050.35
758.151	3987.77
758.339	3957.16
758.526	3951.54
758.714	3928.1
758.902	3823.47
759.09	3714.97
759.278	3497.78
759.465	3202.32
759.653	2757.09
759.841	2514.9
760.028	2165.19
760.216	1889.49
760.404	1707.17
760.591	1448.13
760.779	1188.12
760.967	1028.47
761.154	852.36
761.342	873.48
761.529	885.49
761.717	911.06
761.905	910.68
762.092	1015.88
762.28	922.11
762.467	910.68
762.655	863.98
762.842	869.02
763.029	861.66
763.217	869.21
763.404	873.09
763.592	888.78
763.779	842.28
763.966	903.7
764.154	946.71
764.341	1016.27
764.528	1015.3
764.716	1088.92
764.903	1140.27
765.09	1257.48
765.277	1277.25
765.465	1465.76
765.652	1518.46
765.839	1631.03
766.026	1789.71
766.213	1842.6
766.4	1992.56
766.588	2172.94
766.775	2214.4
766.962	2326.39
767.149	2434.3
767.336	2648.98
767.523	2621.46
767.71	2744.11
767.897	2868.3
768.084	2935.14
768.271	2985.32
768.458	3125.79
768.645	3199.8
768.832	3179.65
769.019	3180.04
769.206	3269.16
769.392	3353.25
769.579	3428.81
769.766	3381.34
769.953	3381.92
770.14	3449.35
770.327	3440.24
770.513	3514.45
770.7	3545.45
770.887	3453.8
771.073	3497.98
771.26	3542.54
771.447	3516.96
771.634	3524.33
771.82	3621.59
772.007	3545.83
772.193	3570.83
772.38	3569.28
772.567	3558.81
772.753	3535.76
772.94	3617.71
773.126	3557.46
773.313	3558.62
773.499	3609.38
773.686	3586.52
773.872	3473.56
774.059	3613.26
774.245	3504.76
774.432	3534.6
774.618	3456.32
774.804	3557.84
774.991	3458.65
775.177	3474.73
775.363	3482.86
775.55	3548.16
775.736	3446.25
775.922	3492.36
776.109	3493.33
776.295	3509.41
776.481	3519.1
776.667	3533.63
776.853	3476.66
777.04	3450.12
777.226	3451.09
777.412	3517.16
777.598	3406.92
777.784	3436.95
777.97	3391.03
778.156	3456.71
778.342	3458.65
778.528	3406.14
778.715	3364.1
778.901	3374.17
779.087	3401.3
779.272	3313.53
779.458	3355.38
779.644	3381.53
779.83	3329.42
780.016	3439.85
780.202	3352.67
780.388	3350.15
780.574	3274.59
780.76	3291.25
780.946	3353.44
781.131	3341.24
781.317	3277.3
781.503	3267.03
781.689	3305
781.874	3420.48
782.06	3243.78
782.246	3283.31
782.432	3298.22
782.617	3263.74
782.803	3314.89
782.989	3226.15
783.174	3248.43
783.36	3188.76
783.545	3216.66
783.731	3226.15
783.916	3106.03
784.102	3229.64
784.288	3174.81
784.473	3198.44
784.659	3169.77
784.844	3206.97
785.029	3162.79
785.215	3138.19
785.4	3130.05
785.586	3159.5
785.771	3064.37
785.956	3153.49
786.142	3064.95
786.327	3093.24
786.512	3116.3
786.698	3099.25
786.883	3036.08
787.068	3048.68
787.254	3076.77
787.439	3051.97
787.624	3013.22
787.809	3004.31
787.994	2962.85
788.18	3068.25
788.365	2944.63
788.55	2941.92
788.735	2980.67
788.92	2931.27
789.105	2922.74
789.29	2947.35
789.475	2852.8
789.66	2894.65
789.845	2883.8
790.03	2862.87
790.215	2903.37
790.4	2946.57
790.585	2868.49
790.77	2853.57
790.955	2819.09
791.14	2891.94
791.325	2917.7
791.51	2813.47
791.695	2841.95
791.879	2817.73
792.064	2807.27
792.249	2876.24
792.434	2813.08
792.618	2866.55
792.803	2881.28
792.988	2809.01
793.173	2836.14
793.357	2864.62
793.542	2784.6
793.727	2841.95
793.911	2845.63
794.096	2872.37
794.281	2886.12
794.465	2954.9
794.65	2866.36
794.834	2932.24
795.019	2934.75
795.203	2918.67
795.388	2904.34
795.572	2972.53
795.757	2868.1
795.941	2882.44
796.126	2873.14
796.31	2801.26
796.494	2854.16
796.679	2833.23
796.863	2824.71
797.048	2899.3
797.232	2859
797.416	2900.65
797.601	2866.94
797.785	2967.69
797.969	2926.62
798.153	2902.01
798.338	2970.79
798.522	2936.69
798.706	2983.38
798.89	2977.38
799.074	3012.25
799.258	2990.55
799.443	2944.83
799.627	2939.99
799.811	2992.68
799.995	2949.28
800.179	2889.22
800.363	2850.09
800.547	2941.34
800.731	2927
800.915	2859
801.099	2861.32
801.283	2881.86
801.467	2890.19
801.651	2891.94
801.835	2914.41
802.019	2890.58
802.202	2874.11
802.386	2849.51
802.57	2837.88
802.754	2872.37
802.938	2816.57
803.121	2840.21
803.305	2893.87
803.489	2816.96
803.673	2880.7
803.856	2902.01
804.04	2888.45
804.224	2903.37
804.407	2897.17
804.591	2823.74
804.775	2884.19
804.958	2877.4
805.142	3003.53
805.326	2917.51
805.509	2876.82
805.693	2947.15
805.876	2925.45
806.06	2922.74
806.243	2946.77
806.427	2976.41
806.61	2986.68
806.794	2939.6
806.977	2933.59
807.16	2929.33
807.344	2942.31
807.527	2922.74
807.71	2930.3
807.894	2921.97
808.077	2934.17
808.26	2873.72
808.444	2824.9
808.627	2952.58
808.81	2858.22
808.993	2805.33
809.177	2787.89
809.36	2792.93
809.543	2829.16
809.726	2724.54
809.909	2750.5
810.092	2735.39
810.276	2695.28
810.459	2730.35
810.642	2708.46
810.825	2638.13
811.008	2650.53
811.191	2595.7
811.374	2579.42
811.557	2620.88
811.74	2616.81
811.923	2541.64
812.106	2542.42
812.289	2512
812.472	2497.47
812.654	2490.49
812.837	2435.66
813.02	2390.52
813.203	2372.11
813.386	2228.55
813.569	2251.41
813.751	2170.42
813.934	2228.16
814.117	2150.47
814.3	2111.91
814.482	2099.7
814.665	2024.72
814.848	1972.02
815.03	1947.42
815.213	1895.11
815.396	1941.41
815.578	1904.21
815.761	1864.69
815.943	1894.14
816.126	1803.08
816.309	1773.63
816.491	1713.76
816.674	1662.22
816.856	1711.05
817.039	1716.47
817.221	1782.54
817.403	1722.86
817.586	1754.06
817.768	1781.38
817.951	1673.46
818.133	1662.03
818.315	1658.73
818.498	1741.08
818.68	1789.9
818.862	1790.48
819.045	1809.08
819.227	1803.85
819.409	1745.92
819.591	1782.54
819.774	1751.15
819.956	1786.22
820.138	1824.58
820.32	1817.99
820.502	1905.37
820.684	1946.84
820.866	1968.92
821.048	1997.79
821.231	2057.27
821.413	2043.32
821.595	1986.17
821.777	2015.23
821.959	2000.31
822.141	2083.62
822.323	1931.72
822.505	1852.68
822.686	1764.91
822.868	1695.16
823.05	1568.25
823.232	1557.6
823.414	1500.25
823.596	1565.54
823.778	1561.47
823.96	1595.96
824.141	1600.03
824.323	1579.1
824.505	1711.63
824.687	1770.53
824.868	1828.65
825.05	1927.07
825.232	1945.48
825.413	2018.72
825.595	1986.55
825.777	1920.49
825.958	1961.76
826.14	1907.31
826.321	1997.6
826.503	1974.16
826.685	2010.77
826.866	2003.8
827.048	1969.89
827.229	1945.09
827.411	1904.02
827.592	1829.23
827.773	1855.97
827.955	1773.82
828.136	1806.37
828.318	1758.9
828.499	1803.85
828.68	1731.2
828.862	1761.42
829.043	1771.11
829.224	1736.04
829.406	1707.37
829.587	1730.23
829.768	1749.21
829.949	1759.1
830.131	1728.68
830.312	1837.76
830.493	1799.78
830.674	1794.75
830.855	1761.03
831.036	1759.48
831.218	1851.51
831.399	1829.43
831.58	1795.13
831.761	1794.75
831.942	1790.1
832.123	1740.11
832.304	1710.08
832.485	1744.18
832.666	1790.1
832.847	1820.51
833.028	1770.91
833.209	1757.35
833.389	1734.49
833.57	1705.82
833.751	1718.41
833.932	1788.74
834.113	1762.97
834.294	1755.03
834.475	1806.76
834.655	1831.36
834.836	1805.6
835.017	1797.46
835.198	1777.5
835.378	1791.45
835.559	1866.43
835.74	1794.55
835.92	1808.89
836.101	1812.96
836.281	1872.44
836.462	1819.35
836.643	1847.44
836.823	1867.21
837.004	1859.84
837.184	1922.81
837.365	1867.59
837.545	1864.88
837.726	1818.96
837.906	1927.66
838.087	1900.72
838.267	1898.79
838.448	1821.29
838.628	1850.35
838.808	1848.8
838.989	1909.83
839.169	1860.62
839.349	1915.45
839.53	1914.09
839.71	1907.51
839.89	1878.44
840.07	1918.74
840.251	1867.59
840.431	1894.33
840.611	1838.53
840.791	1822.84
840.971	1875.54
841.151	1866.63
841.332	1862.56
841.512	1894.72
841.692	1806.76
841.872	1821.09
842.052	1844.54
842.232	1876.12
842.412	1803.85
842.592	1853.64
842.772	1862.94
842.952	1861.59
843.132	1842.21
843.312	1835.43
843.492	1806.37
843.672	1811.79
843.851	1713.18
844.031	1789.71
844.211	1812.57
844.391	1805.98
844.571	1804.82
844.751	1815.09
844.93	1827.88
845.11	1790.29
845.29	1813.54
845.47	1874.76
845.649	1843.38
845.829	1867.21
846.009	1822.45
846.188	1838.14
846.368	1829.04
846.547	1814.31
846.727	1877.67
846.907	1747.86
847.086	1775.56
847.266	1838.92
847.445	1841.83
847.625	1795.33
847.804	1769.36
847.984	1777.7
848.163	1744.76
848.343	1768.2
848.522	1750.96
848.701	1759.29
848.881	1751.15
849.06	1758.13
849.239	1780.8
849.419	1746.7
849.598	1653.7
849.777	1687.22
849.957	1650.98
850.136	1610.88
850.315	1624.44
850.494	1590.92
850.674	1621.15
850.853	1682.95
851.032	1599.84
851.211	1660.67
851.39	1649.63
851.569	1566.9
851.748	1580.65
851.927	1655.44
852.107	1658.93
852.286	1606.81
852.465	1604.1
852.644	1651.57
852.823	1652.53
853.002	1671.72
853.181	1608.55
853.359	1664.74
853.538	1570.19
853.717	1648.85
853.896	1525.82
854.075	1462.08
854.254	1423.53
854.433	1382.45
854.611	1448.91
854.79	1387.88
854.969	1432.05
855.148	1448.33
855.327	1407.25
855.505	1483.97
855.684	1469.44
855.863	1486.3
856.041	1468.28
856.22	1520.21
856.399	1473.32
856.577	1601
856.756	1564.57
856.934	1660.87
857.113	1630.84
857.291	1562.83
857.47	1542.87
857.648	1558.76
857.827	1552.75
858.005	1604.87
858.184	1533.77
858.362	1632.38
858.541	1557.21
858.719	1544.04
858.898	1573.49
859.076	1541.52
859.254	1577.75
859.433	1513.04
859.611	1525.24
859.789	1516.91
859.967	1534.16
860.146	1578.14
860.324	1493.47
860.502	1508.97
860.68	1494.24
860.859	1493.66
861.037	1514.2
861.215	1525.24
861.393	1517.11
861.571	1501.41
861.749	1476.22
861.927	1522.34
862.105	1528.73
862.283	1519.04
862.461	1470.8
862.639	1461.31
862.817	1442.51
862.995	1481.46
863.173	1467.7
863.351	1476.22
863.529	1475.84
863.707	1525.82
863.885	1495.79
864.063	1432.63
864.241	1487.66
864.418	1525.05
864.596	1428.76
864.774	1395.43
864.952	1452.01
865.129	1461.89
865.307	1387.29
865.485	1375.86
865.663	1422.56
865.84	1383.81
866.018	1383.81
866.196	1243.53
866.373	1282.86
866.551	1251.09
866.728	1176.89
866.906	1233.85
867.084	1269.11
867.261	1292.55
867.439	1292.75
867.616	1289.45
867.794	1314.06
867.971	1311.35
868.149	1308.63
868.326	1372.96
868.503	1402.99
868.681	1350.29
868.858	1345.45
869.035	1317.16
869.213	1368.11
869.39	1331.5
869.567	1413.26
869.745	1319.68
869.922	1337.7
870.099	1320.45
870.276	1341.57
870.454	1347.77
870.631	1344.09
870.808	1336.53
870.985	1342.35
871.162	1381.09
871.339	1339.44
871.517	1250.9
871.694	1272.98
871.871	1292.55
872.048	1343.51
872.225	1315.41
872.402	1307.08
872.579	1268.33
872.756	1309.6
872.933	1256.71
873.11	1256.13
873.287	1317.74
873.463	1254.19
873.64	1261.55
873.817	1289.45
873.994	1305.15
874.171	1237.33
874.348	1291.39
874.524	1220.09
874.701	1259.62
874.878	1225.13
875.055	1285.77
875.231	1219.51
875.408	1266.98
875.585	1179.79
875.762	1222.42
875.938	1213.12
876.115	1181.92
876.291	1216.41
876.468	1193.74
876.645	1156.54
876.821	1172.04
876.998	1197.42
877.174	1189.09
877.351	1174.17
877.527	1180.95
877.704	1188.32
877.88	1181.15
878.057	1165.65
878.233	1215.44
878.409	1170.69
878.586	1164.1
878.762	1154.99
878.938	1181.92
879.115	1144.72
879.291	1155.77
879.467	1109.85
879.644	1126.12
879.82	1177.08
879.996	1112.56
880.172	1119.54
880.349	1100.74
880.525	1157.12
880.701	1121.09
880.877	1104.04
881.053	1128.25
881.229	1105.97
881.405	1167.97
881.581	1091.83
881.757	1089.51
881.933	1160.22
882.109	1132.52
882.285	1114.69
882.461	1075.94
882.637	1126.7
882.813	1075.17
882.989	1098.03
883.165	1169.72
883.341	1099.58
883.517	1148.4
883.693	1129.8
883.869	1149.18
884.044	1084.08
884.22	1122.83
884.396	1172.04
884.572	1115.85
884.747	1150.92
884.923	1138.91
885.099	1160.8
885.275	1153.83
885.45	1106.94
885.626	1128.06
885.801	1085.63
885.977	1100.74
886.153	1061.99
886.328	1140.46
886.504	1081.76
886.679	1098.03
886.855	1081.76
887.03	1122.44
887.206	1098.03
887.381	1142.59
887.557	1103.84
887.732	1123.99
887.908	1125.15
888.083	1120.5
888.258	1114.69
888.434	1074.78
888.609	1077.3
888.784	1115.66
888.96	1087.96
889.135	1101.71
889.31	1078.07
889.485	1112.56
889.661	1119.34
889.836	1132.9
890.011	1124.96
890.186	1127.29
890.361	1085.63
890.537	1120.12
890.712	1109.46
890.887	1103.46
891.062	1115.85
891.237	1175.53
891.412	1065.87
891.587	1111.2
891.762	1132.52
891.937	1152.28
892.112	1031.77
892.287	1093.38
892.462	1045.91
892.637	1030.02
892.812	1004.64
892.987	1039.91
893.161	1014.33
893.336	1021.11
893.511	979.26
893.686	986.24
893.861	952.72
894.035	983.91
894.21	1025.57
894.385	952.91
894.56	950.39
894.734	920.95
894.909	920.17
895.084	912.23
895.258	860.5
895.433	898.08
895.608	882.97
895.782	826.4
895.957	833.76
896.131	825.62
896.306	768.47
896.48	737.47
896.655	757.81
896.829	687.48
897.004	720.8
897.178	744.05
897.353	723.9
897.527	756.45
897.701	762.27
897.876	671.79
898.05	760.72
898.224	749.48
898.399	752.97
898.573	697.75
898.747	614.24
898.921	627.03
899.096	555.54
899.27	576.85
899.444	599.91
899.618	642.72
899.792	656.29
899.967	634.2
900.141	639.04
900.315	601.84
900.489	603.59
900.663	633.04
900.837	631.1
901.011	577.43
901.185	681.09
901.359	612.5
901.533	629.94
901.707	620.06
901.881	635.75
902.055	590.02
902.229	632.07
902.403	649.51
902.576	621.41
902.75	598.16
902.924	772.92
903.098	711.5
903.272	742.31
903.446	767.11
903.619	748.51
903.793	804.5
903.967	761.49
904.14	816.52
904.314	789.2
904.488	794.82
904.661	826.59
904.835	800.24
905.009	841.9
905.182	846.93
905.356	815.74
905.529	789.39
905.703	774.86
905.876	731.46
906.05	739.21
906.223	718.09
906.397	661.71
906.57	644.08
906.744	642.14
906.917	642.14
907.09	636.14
907.264	612.89
907.437	601.84
907.61	560.38
907.784	592.16
907.957	618.89
908.13	544.49
908.304	585.76
908.477	541.98
908.65	546.82
908.823	521.63
908.996	590.99
909.17	556.31
909.343	547.21
909.516	554.76
909.689	542.17
909.862	499.93
910.035	544.88
910.208	518.34
910.381	527.83
910.554	610.56
910.727	534.42
910.9	527.83
911.073	517.37
911.246	612.11
911.419	608.43
911.592	561.93
911.765	552.83
911.938	547.4
912.11	543.33
912.283	530.16
912.456	559.8
912.629	551.08
912.802	522.41
912.974	458.08
913.147	441.61
913.32	389.88
913.493	413.91
913.665	445.88
913.838	464.67
914.01	461.18
914.183	466.03
914.356	493.73
914.528	519.69
914.701	558.25
914.873	506.52
915.046	465.83
915.218	423.4
915.391	385.82
915.563	407.13
915.736	423.98
915.908	490.83
916.081	479.78
916.253	457.89
916.425	455.56
916.598	493.54
916.77	495.67
916.942	438.71
917.115	363.73
917.287	446.26
917.459	417.2
917.632	399.38
917.804	386.2
917.976	426.89
918.148	436.96
918.32	460.6
918.493	486.56
918.665	533.45
918.837	504.39
919.009	547.4
919.181	518.53
919.353	510.78
919.525	518.53
919.697	513.69
919.869	496.06
920.041	578.59
920.213	607.07
920.385	538.68
920.557	531.32
920.729	528.61
920.901	532.29
921.073	524.34
921.244	517.76
921.416	534.23
921.588	498.96
921.76	473.39
921.932	576.46
922.103	535.39
922.275	524.15
922.447	524.15
922.619	456.34
922.79	507.49
922.962	492.18
923.134	529.77
923.305	451.11
923.477	446.07
923.648	420.3
923.82	435.8
923.991	390.85
924.163	407.9
924.335	418.75
924.506	398.41
924.677	478.23
924.849	429.99
925.02	464.09
925.192	458.28
925.363	446.46
925.535	415.85
925.706	429.21
925.877	464.09
926.049	411.39
926.22	420.3
926.391	455.95
926.562	441.61
926.734	404.61
926.905	459.63
927.076	393.37
927.247	364.12
927.419	351.52
927.59	337.96
927.761	366.63
927.932	328.85
928.103	350.17
928.274	312.77
928.445	270.15
928.616	296.69
928.787	293.01
928.958	329.82
929.129	287.97
929.3	278.67
929.471	225.39
929.642	203.11
929.813	193.42
929.984	249.42
930.155	169.59
930.326	248.64
930.496	206.99
930.667	157.77
930.838	168.62
931.009	159.32
931.18	178.51
931.35	163.01
931.521	155.06
931.692	113.6
931.863	62.45
932.033	136.66
932.204	134.91
932.374	123.09
932.545	69.62
932.716	163.39
932.886	135.69
933.057	50.25
933.227	72.91
933.398	162.62
933.568	57.61
933.739	21.18
933.909	55.86
934.08	87.25
934.25	8.59
934.421	31.45
934.591	57.8
934.761	54.12
934.932	20.99
935.102	64.78
935.272	49.86
935.443	50.44
935.613	32.61
935.783	58.58
935.953	29.32
936.123	176.37
936.294	-5.94
936.464	20.99
936.634	57.03
936.804	26.22
936.974	-3.04
937.144	53.93
937.314	41.72
937.484	35.71
937.655	22.54
937.825	67.49
937.995	34.94
938.165	103.33
938.334	54.51
938.504	84.15
938.674	38.62
938.844	78.92
939.014	111.47
939.184	96.36
939.354	172.69
939.524	169.4
939.694	88.03
939.863	64.58
940.033	159.71
940.203	158.55
940.373	108.37
940.542	114.18
940.712	117.28
940.882	133.17
941.051	134.33
941.221	106.04
941.391	159.52
941.56	95.78
941.73	66.52
941.899	208.54
942.069	98.49
942.238	104.49
942.408	72.72
942.577	115.34
942.747	104.3
942.916	57.22
943.086	88.22
943.255	94.23
943.425	99.65
943.594	63.03
943.763	7.62
943.933	58
944.102	3.75
944.271	63.61
944.441	97.33
944.61	66.13
944.779	62.64
944.948	142.47
945.117	27.77
945.287	48.5
945.456	11.11
945.625	48.89
945.794	51.41
945.963	50.25
946.132	86.86
946.301	53.93
946.47	95.78
946.639	38.62
946.808	63.03
946.977	74.27
947.146	147.31
947.315	68.84
947.484	92.68
947.653	66.33
947.822	43.27
947.991	43.85
948.16	133.75
948.329	99.84
948.498	81.05
948.666	70.98
948.835	108.76
949.004	35.71
949.173	63.42
949.341	69.04
949.51	76.79
949.679	92.48
949.847	87.44
950.016	136.85
950.185	141.89
950.353	57.03
950.522	70.59
950.69	125.61
950.859	55.86
951.028	120.77
951.196	84.15
951.365	65.74
951.533	67.29
951.701	83.18
951.87	90.16
952.038	28.55
952.207	88.61
952.375	123.48
952.543	54.12
952.712	70.78
952.88	66.71
953.048	151.19
953.217	84.34
953.385	81.63
953.553	109.34
953.721	18.86
953.89	102.36
954.058	34.94
954.226	51.8
954.394	75.43
954.562	18.08
954.73	76.79
954.898	67.29
955.067	108.18
955.235	64.97
955.403	103.14
955.571	134.33
955.739	113.02
955.907	40.17
956.075	43.27
956.243	37.46
956.41	99.46
956.578	39.98
956.746	64
956.914	88.99
957.082	96.16
957.25	105.66
957.418	49.47
957.585	78.34
957.753	119.22
957.921	49.86
958.089	93.45
958.256	103.91
958.424	91.13
958.592	75.04
958.759	60.9
958.927	122.9
959.095	63.23
959.262	74.85
959.43	98.29
959.597	42.69
959.765	86.67
959.932	47.53
960.1	124.26
960.267	77.18
960.435	101.2
960.602	109.92
960.77	68.46
960.937	39.98
961.104	105.27
961.272	34.75
961.439	75.43
961.606	95.97
961.774	102.94
961.941	47.34
962.108	115.15
962.275	112.44
962.443	89.38
962.61	117.67
962.777	189.55
962.944	106.04
963.111	82.99
963.278	111.08
963.446	103.91
963.613	87.83
963.78	110.11
963.947	117.09
964.114	99.26
964.281	149.44
964.448	101.2
964.615	104.11
964.782	100.62
964.949	131.62
965.116	130.26
965.282	138.59
965.449	89.77
965.616	50.83
965.783	115.93
965.95	103.53
966.117	73.3
966.283	88.41
966.45	111.08
966.617	102.56
966.784	124.84
966.95	137.63
967.117	132.2
967.284	76.79
967.45	110.89
967.617	173.08
967.784	150.02
967.95	142.28
968.117	93.64
968.283	145.38
968.45	194.39
968.616	125.61
968.783	146.92
968.949	118.83
969.116	153.71
969.282	148.67
969.449	165.91
969.615	129.88
969.781	92.48
969.948	109.92
970.114	96.55
970.28	179.86
970.447	123.09
970.613	144.99
970.779	129.1
970.945	137.43
971.112	162.62
971.278	141.11
971.444	126.97
971.61	185.48
971.776	107.21
971.942	135.49
972.108	137.63
972.275	129.49
972.441	156.81
972.607	184.32
972.773	108.56
972.939	144.21
973.105	115.54
973.271	49.28
973.437	94.81
973.602	103.91
973.768	140.53
973.934	124.84
974.1	130.46
974.266	88.61
974.432	118.44
974.598	86.28
974.763	138.79
974.929	128.13
975.095	170.37
975.261	74.27
975.426	97.71
975.592	119.22
975.758	154.29
975.923	51.99
976.089	89.77
976.255	122.51
976.42	107.98
976.586	101.2
976.751	107.79
976.917	179.28
977.082	136.85
977.248	94.42
977.413	71.75
977.579	99.26
977.744	82.6
977.91	79.31
978.075	87.25
978.24	123.09
978.406	80.28
978.571	85.89
978.736	74.66
978.902	122.9
979.067	79.11
979.232	37.85
979.397	107.01
979.563	144.41
979.728	85.12
979.893	116.89
980.058	81.83
980.223	149.64
980.388	109.92
980.554	133.94
980.719	94.42
980.884	79.89
981.049	114.38
981.214	109.92
981.379	117.86
981.544	103.53
981.709	103.33
981.874	96.94
982.039	118.64
982.204	127.16
982.368	101.01
982.533	52.57
982.698	137.63
982.863	137.82
983.028	117.28
983.193	113.21
983.357	109.14
983.522	90.35
983.687	105.46
983.852	93.84
984.016	75.04
984.181	116.7
984.346	100.81
984.51	122.13
984.675	95.78
984.839	119.61
985.004	105.66
985.168	137.82
985.333	122.32
985.498	93.64
985.662	161.07
985.827	132.98
985.991	100.04
986.155	99.26
986.32	119.22
986.484	145.57
986.649	123.09
986.813	61.48
986.977	116.12
987.142	112.83
987.306	64.19
987.47	78.73
987.634	110.89
987.799	108.76
987.963	113.02
988.127	101.2
988.291	151.77
988.455	105.08
988.62	113.21
988.784	122.51
988.948	130.07
989.112	59.93
989.276	106.43
989.44	135.69
989.604	97.33
989.768	72.14
989.932	147.31
990.096	68.65
990.26	78.34
990.424	47.53
990.588	94.81
990.752	161.65
990.915	107.59
991.079	100.81
991.243	93.26
991.407	103.33
991.571	93.45
991.734	126.58
991.898	123.48
992.062	171.34
992.226	111.08
992.389	64.39
992.553	36.49
992.717	94.23
992.88	89.58
993.044	105.46
993.207	63.61
993.371	97.33
993.535	85.89
993.698	84.73
993.862	107.59
994.025	119.8
994.189	79.5
994.352	102.17
994.515	107.98
994.679	103.53
994.842	97.33
995.006	101.01
995.169	70.01
995.332	58.77
995.496	101.01
995.659	45.6
995.822	97.91
995.985	96.55
996.149	140.14
996.312	106.24
996.475	150.99
996.638	85.89
996.801	135.49
996.964	147.89
997.128	70.2
997.291	78.34
997.454	98.49
997.617	54.7
997.78	127.55
997.943	59.54
998.106	112.83
998.269	52.96
998.432	95.78
998.595	89.77
998.758	31.06
998.92	77.56
999.083	42.11
999.246	125.81
999.409	59.93
999.572	23.7
999.735	61.87
999.897	73.69
1000.06	54.31
1000.223	52.96
1000.386	85.7
1000.548	101.01
1000.711	78.34
1000.874	85.7
1001.036	31.06
1001.199	109.92
1001.361	83.57
1001.524	76.4
1001.687	114.96
1001.849	53.93
1002.012	74.85
1002.174	81.44
1002.337	91.51
1002.499	66.91
1002.661	122.71
1002.824	29.9
1002.986	50.44
1003.149	71.36
1003.311	73.49
1003.473	119.41
1003.636	52.96
1003.798	77.76
1003.96	89.77
1004.123	77.18
1004.285	47.34
1004.447	86.28
1004.609	42.3
1004.771	111.66
1004.933	10.53
1005.096	54.51
1005.258	35.91
1005.42	7.43
1005.582	97.91
1005.744	70.2
1005.906	45.98
1006.068	60.9
1006.23	21.76
1006.392	21.96
1006.554	41.14
1006.716	96.55
1006.878	82.21
1007.04	20.02
1007.202	52.38
1007.363	69.62
1007.525	74.46
1007.687	77.56
1007.849	106.63
1008.011	10.33
1008.172	9.56
1008.334	48.7
1008.496	76.01
1008.658	37.26
1008.819	60.13
1008.981	-4.39
1009.143	21.96
1009.304	59.35
1009.466	52.76
1009.627	82.21
1009.789	140.14
1009.95	62.26
1010.112	46.37
1010.273	89.77
1010.435	24.48
1010.596	26.41
1010.758	57.61
1010.919	48.5
1011.081	28.35
1011.242	42.11
1011.403	66.71
1011.565	47.34
1011.726	96.16
1011.887	8.2
1012.049	50.05
1012.21	79.5
1012.371	113.21
1012.532	-30.55
1012.693	48.89
1012.855	34.36
1013.016	54.7
1013.177	86.09
1013.338	60.9
1013.499	117.86
1013.66	82.99
1013.821	61.48
1013.982	49.28
1014.143	53.54
1014.304	44.05
1014.465	78.92
1014.626	58
1014.787	57.61
1014.948	130.84
1015.109	-18.34
1015.27	107.4
1015.431	34.75
1015.592	41.33
1015.752	83.57
1015.913	33.97
1016.074	52.18
1016.235	37.85
1016.395	21.38
1016.556	45.98
1016.717	35.91
1016.877	79.5
1017.038	59.54
1017.199	58.38
1017.359	39.98
1017.52	44.05
1017.681	24.28
1017.841	63.81
1018.002	23.31
1018.162	20.21
1018.323	87.44
1018.483	56.06
1018.644	6.85
1018.804	18.66
1018.964	10.33
1019.125	14.98
1019.285	42.3
1019.446	40.17
1019.606	-0.52
1019.766	4.13
1019.926	54.7
1020.087	44.43
1020.247	8.78
1020.407	42.88
1020.567	75.04
1020.728	25.45
1020.888	9.56
1021.048	27.38
1021.208	20.8
1021.368	10.14
1021.528	84.15
1021.688	59.74
1021.848	49.08
1022.008	39.98
1022.168	29.9
1022.328	22.93
1022.488	50.63
1022.648	31.26
1022.808	48.7
1022.968	47.15
1023.128	8.01
1023.288	21.76
1023.448	12.46
1023.608	66.13
1023.767	60.71
1023.927	3.94
1024.087	31.65
1024.247	8.01
1024.406	31.65
1024.566	-7.1
1024.726	5.3
1024.885	37.65
1025.045	69.43
1025.205	47.73
1025.364	12.08
1025.524	39.78
1025.683	20.41
1025.843	44.63
1026.003	38.04
1026.162	51.6
1026.321	78.73
1026.481	34.36
1026.64	34.75
1026.8	38.04
1026.959	40.36
1027.119	39.4
1027.278	26.8
1027.437	13.82
1027.597	31.65
1027.756	40.95
1027.915	32.61
1028.074	56.45
1028.234	8.01
1028.393	26.41
1028.552	22.54
1028.711	-61.93
1028.87	48.31
1029.03	-2.65
1029.189	23.7
1029.348	-18.34
1029.507	7.43
1029.666	23.31
1029.825	-12.92
1029.984	28.35
1030.143	28.74
1030.302	44.82
1030.461	-23.96
1030.62	37.07
1030.779	34.36
1030.938	15.95
1031.097	-6.72
1031.255	58.19
1031.414	61.29
1031.573	35.91
1031.732	-2.07
1031.891	26.22
1032.049	62.06
1032.208	39.2
1032.367	19.83
1032.525	21.18
1032.684	4.52
1032.843	21.57
1033.001	-27.64
1033.16	152.93
1033.319	44.05
1033.477	39.78
1033.636	12.27
1033.794	-10.2
1033.953	46.37
1034.111	33.78
1034.27	8.4
1034.428	63.42
1034.587	-13.69
1034.745	38.81
1034.903	18.47
1035.062	16.15
1035.22	-22.41
1035.378	41.91
1035.537	11.3
1035.695	51.6
1035.853	20.99
1036.011	55.48
1036.17	19.44
1036.328	-2.65
1036.486	7.23
1036.644	46.37
1036.802	-62.52
1036.96	-0.9
1037.119	8.78
1037.277	-5.55
1037.435	-2.07
1037.593	-14.27
1037.751	28.55
1037.909	38.23
1038.067	38.23
