Data from gum_young_FLMT105791__5__17-38-04-045.txt Node

Date: Mon Mar 20 17:38:04 GMT 2023
User: antho
Spectrometer: FLMT10579
Trigger mode: 0
Integration Time (sec): 1.000000E-1
Scans to average: 10
Electric dark correction enabled: true
Nonlinearity correction enabled: false
Boxcar width: 0
XAxis mode: Wavelengths
Number of Pixels in Spectrum: 3648
>>>>>Begin Spectral Data<<<<<
345.248	-132.54
345.464	-132.54
345.681	-132.54
345.898	-144.75
346.114	-132.73
346.331	-32.37
346.548	28.46
346.764	0.57
346.981	-36.25
347.197	-9.32
347.414	9.09
347.631	-8.54
347.847	55.59
348.064	14.13
348.28	13.16
348.497	-28.5
348.713	-6.02
348.93	11.03
349.146	18
349.363	19.36
349.579	34.28
349.796	2.31
350.012	-5.25
350.229	2.31
350.445	-2.53
350.661	-17.84
350.878	10.06
351.094	10.45
351.311	14.51
351.527	-9.51
351.743	8.7
351.96	47.26
352.176	29.24
352.392	9.28
352.609	37.18
352.825	-21.52
353.041	0.18
353.257	5.99
353.474	-16.1
353.69	-16.29
353.906	18
354.122	-15.13
354.339	43.96
354.555	1.92
354.771	-10.87
354.987	54.23
355.203	42.22
355.42	-24.82
355.636	0.18
355.852	-1.57
356.068	22.46
356.284	-21.33
356.5	61.21
356.716	14.32
356.932	8.7
357.148	30.21
357.364	3.28
357.58	26.14
357.796	67.41
358.012	54.62
358.228	19.16
358.444	-16.29
358.66	49.39
358.876	6.96
359.092	-8.54
359.308	22.85
359.524	42.03
359.74	17.81
359.956	-4.47
360.172	28.08
360.388	53.85
360.604	-0.6
360.819	64.5
361.035	28.27
361.251	20.71
361.467	-22.68
361.683	30.21
361.898	8.31
362.114	42.22
362.33	2.89
362.546	25.36
362.762	13.93
362.977	15.29
363.193	1.34
363.409	43.77
363.624	-26.75
363.84	17.61
364.056	9.67
364.271	-3.89
364.487	30.79
364.703	2.31
364.918	-13.38
365.134	-12.61
365.35	22.26
365.565	70.7
365.781	26.14
365.996	50.94
366.212	63.73
366.427	43.58
366.643	-5.25
366.858	4.25
367.074	-20.17
367.289	71.48
367.505	83.88
367.72	4.83
367.936	5.99
368.151	83.49
368.367	34.47
368.582	24.98
368.798	4.44
369.013	42.03
369.228	10.25
369.444	19.16
369.659	65.86
369.874	31.56
370.09	39.51
370.305	-54.85
370.52	-3.31
370.736	70.31
370.951	-8.35
371.166	72.64
371.381	76.13
371.597	49.58
371.812	-0.02
372.027	-9.9
372.242	15.1
372.458	72.45
372.673	2.12
372.888	16.45
373.103	15.1
373.318	98.21
373.533	26.53
373.749	22.07
373.964	-25.78
374.179	69.54
374.394	6.57
374.609	77.29
374.824	-3.5
375.039	37.18
375.254	19.94
375.469	57.33
375.684	18
375.899	52.88
376.114	31.95
376.329	34.47
376.544	57.33
376.759	57.14
376.974	11.41
377.189	0.95
377.404	37.38
377.619	53.46
377.834	-43.22
378.049	-28.11
378.264	-13.77
378.478	22.26
378.693	18.78
378.908	35.44
379.123	22.65
379.338	64.5
379.553	34.08
379.767	24.2
379.982	34.28
380.197	47.45
380.412	13.55
380.626	29.63
380.841	77.48
381.056	36.41
381.271	92.98
381.485	-6.02
381.7	-13.58
381.915	25.95
382.129	-0.98
382.344	36.41
382.559	30.4
382.773	34.66
382.988	-29.08
383.202	37.76
383.417	16.06
383.632	107.9
383.846	26.91
384.061	23.81
384.275	10.45
384.49	55.59
384.704	39.7
384.919	36.41
385.133	43.77
385.348	39.7
385.562	-13.19
385.777	50.94
385.991	1.92
386.206	-2.73
386.42	7.93
386.634	47.45
386.849	65.28
387.063	40.86
387.277	-17.84
387.492	-0.6
387.706	9.86
387.92	-16.87
388.135	54.43
388.349	30.21
388.563	6.38
388.778	23.04
388.992	48.03
389.206	55.59
389.42	74.58
389.635	8.31
389.849	63.53
390.063	70.7
390.277	8.7
390.491	105.77
390.706	66.25
390.92	29.24
391.134	51.33
391.348	61.98
391.562	-14.74
391.776	-0.21
391.99	13.93
392.205	54.43
392.419	1.73
392.633	19.75
392.847	79.61
393.061	3.86
393.275	83.49
393.489	45.51
393.703	39.31
393.917	74.96
394.131	21.88
394.345	76.71
394.559	74
394.773	29.63
394.986	57.91
395.2	64.89
395.414	63.53
395.628	7.93
395.842	47.26
396.056	39.31
396.27	-6.99
396.484	64.11
396.697	37.76
396.911	67.41
397.125	52.88
397.339	78.06
397.553	50.16
397.766	97.24
397.98	63.92
398.194	66.44
398.408	32.92
398.621	83.49
398.835	83.1
399.049	36.41
399.262	91.82
399.476	69.15
399.69	67.41
399.903	101.12
400.117	60.82
400.331	75.35
400.544	32.53
400.758	177.46
400.971	75.93
401.185	59.27
401.398	28.85
401.612	110.61
401.826	88.14
402.039	73.8
402.253	67.02
402.466	78.26
402.68	74
402.893	86.2
403.106	76.9
403.32	63.53
403.533	74.19
403.747	71.86
403.96	83.3
404.174	91.24
404.387	42.8
404.6	69.15
404.814	94.92
405.027	69.35
405.24	97.05
405.454	72.64
405.667	92.98
405.88	6.77
406.094	92.98
406.307	95.69
406.52	97.63
406.733	52.1
406.947	39.12
407.16	137.54
407.373	119.72
407.586	72.45
407.799	47.26
408.012	111
408.226	85.81
408.439	120.3
408.652	19.94
408.865	93.18
409.078	131.15
409.291	113.13
409.504	34.86
409.717	88.33
409.93	97.44
410.143	90.66
410.357	21.88
410.57	45.9
410.783	51.91
410.996	88.91
411.209	92.21
411.421	125.53
411.634	72.25
411.847	60.24
412.06	105.77
412.273	88.14
412.486	99.38
412.699	170.87
412.912	79.03
413.125	122.82
413.338	98.21
413.55	124.56
413.763	90.08
413.976	123.21
414.189	96.47
414.402	91.05
414.615	144.13
414.827	79.61
415.04	113.13
415.253	140.84
415.466	126.11
415.678	164.48
415.891	89.88
416.104	107.13
416.316	96.66
416.529	90.66
416.742	121.46
416.954	147.04
417.167	127.66
417.38	96.66
417.592	146.46
417.805	81.75
418.017	58.88
418.23	123.59
418.442	77.87
418.655	108.09
418.868	112.74
419.08	130.96
419.293	142.78
419.505	129.79
419.718	120.3
419.93	163.89
420.142	106.35
420.355	156.53
420.567	162.34
420.78	113.71
420.992	110.61
421.205	172.61
421.417	79.61
421.629	95.89
421.842	97.24
422.054	86.59
422.266	126.31
422.479	157.31
422.691	72.45
422.903	143.55
423.115	104.03
423.328	114.1
423.54	119.14
423.752	126.11
423.964	93.76
424.177	150.14
424.389	72.06
424.601	225.89
424.813	129.79
425.025	151.49
425.238	134.25
425.45	103.64
425.662	114.68
425.874	401.82
426.086	127.66
426.298	152.46
426.51	142.19
426.722	116.43
426.934	108.09
427.146	137.35
427.358	105.77
427.57	161.96
427.782	132.51
427.994	108.48
428.206	124.56
428.418	116.04
428.63	126.31
428.842	153.24
429.054	144.13
429.266	160.21
429.478	92.6
429.69	135.41
429.902	77.1
430.114	145.29
430.325	148.59
430.537	99.57
430.749	122.24
430.961	59.27
431.173	116.81
431.384	138.13
431.596	75.93
431.808	128.63
432.02	150.72
432.231	141.23
432.443	201.09
432.655	162.54
432.867	120.88
433.078	156.92
433.29	196.64
433.502	182.3
433.713	180.17
433.925	161.18
434.136	190.63
434.348	113.52
434.56	77.87
434.771	224.92
434.983	113.71
435.194	133.86
435.406	153.04
435.617	207.29
435.829	205.36
436.04	178.04
436.252	161.76
436.463	229.38
436.675	181.33
436.886	181.33
437.098	193.54
437.309	207.68
437.521	135.99
437.732	174.55
437.943	171.45
438.155	166.61
438.366	138.13
438.578	227.83
438.789	163.12
439	201.67
439.211	174.94
439.423	189.86
439.634	179.78
439.845	212.72
440.057	186.37
440.268	199.54
440.479	170.87
440.69	188.31
440.902	183.66
441.113	167.96
441.324	178.23
441.535	204.97
441.746	235.97
441.957	173
442.168	178.81
442.38	234.22
442.591	241.39
442.802	188.11
443.013	182.69
443.224	212.33
443.435	195.47
443.646	196.64
443.857	194.51
444.068	150.53
444.279	188.69
444.49	264.64
444.701	205.16
444.912	293.12
445.123	238.87
445.334	228.02
445.545	220.66
445.756	223.96
445.967	188.5
446.178	226.09
446.388	244.49
446.599	232.87
446.81	258.44
447.021	189.47
447.232	249.53
447.443	253.99
447.653	175.33
447.864	262.12
448.075	253.6
448.286	250.11
448.496	243.14
448.707	265.61
448.918	213.11
449.129	309.79
449.339	228.02
449.55	270.07
449.761	248.76
449.971	285.76
450.182	230.74
450.393	257.28
450.603	233.06
450.814	294.29
451.024	288.09
451.235	291.38
451.446	314.63
451.656	304.36
451.867	252.44
452.077	265.03
452.288	304.55
452.498	317.34
452.709	248.95
452.919	269.87
453.13	239.65
453.34	290.02
453.55	230.16
453.761	282.66
453.971	275.69
454.182	298.55
454.392	290.6
454.602	353.96
454.813	307.27
455.023	321.02
455.233	248.56
455.444	281.11
455.654	220.86
455.864	260.77
456.075	260.77
456.285	276.07
456.495	269.29
456.705	273.75
456.916	321.99
457.126	324.32
457.336	284.4
457.546	238.68
457.756	259.22
457.967	306.3
458.177	280.92
458.387	290.8
458.597	279.95
458.807	289.83
459.017	291.38
459.227	300.49
459.437	282.85
459.647	313.47
459.857	332.65
460.068	293.7
460.278	312.3
460.488	326.25
460.698	354.15
460.908	297.19
461.117	266.77
461.327	289.44
461.537	328.58
461.747	314.44
461.957	303
462.167	384.57
462.377	329.55
462.587	312.69
462.797	346.21
463.007	319.28
463.216	345.44
463.426	379.53
463.636	337.88
463.846	265.61
464.056	321.41
464.265	360.55
464.475	310.95
464.685	327.22
464.895	338.46
465.104	316.57
465.314	335.36
465.524	303.2
465.733	328.97
465.943	390.77
466.153	384.57
466.362	357.45
466.572	351.64
466.782	325.09
466.991	325.29
467.201	389.61
467.41	306.3
467.62	351.44
467.829	329.74
468.039	339.62
468.249	318.7
468.458	347.37
468.668	367.52
468.877	388.64
469.086	401.23
469.296	389.61
469.505	340.01
469.715	399.49
469.924	362.87
470.134	377.98
470.343	392.32
470.552	362.87
470.762	366.75
470.971	355.32
471.18	364.81
471.39	370.82
471.599	352.02
471.808	393.87
472.018	359.58
472.227	414.6
472.436	421.58
472.645	397.36
472.855	362.68
473.064	450.64
473.273	401.62
473.482	416.54
473.691	441.15
473.901	406.27
474.11	368.49
474.319	489.39
474.528	437.27
474.737	462.46
474.946	449.09
475.155	431.07
475.364	470.21
475.573	408.4
475.783	448.12
475.992	472.34
476.201	483.96
476.41	433.78
476.619	400.85
476.828	426.23
477.037	404.53
477.245	426.62
477.454	475.63
477.663	422.93
477.872	437.27
478.081	521.36
478.29	436.69
478.499	528.72
478.708	501.6
478.917	532.79
479.125	469.43
479.334	475.05
479.543	491.91
479.752	505.47
479.961	515.93
480.169	514.38
480.378	484.55
480.587	613
480.796	558.17
481.004	513.22
481.213	540.54
481.422	535.69
481.63	530.08
481.839	532.01
482.048	619.97
482.256	563.01
482.465	543.64
482.674	579.09
482.882	568.83
483.091	640.32
483.299	593.04
483.508	611.64
483.716	591.88
483.925	583.16
484.134	582.39
484.342	544.99
484.551	624.62
484.759	584.91
484.967	607.77
485.176	623.85
485.384	610.48
485.593	620.94
485.801	570.96
486.01	593.43
486.218	528.91
486.426	495.01
486.635	536.28
486.843	535.69
487.051	553.52
487.26	545.19
487.468	567.47
487.676	638.57
487.885	571.73
488.093	574.64
488.301	629.47
488.509	613
488.717	647.87
488.926	653.49
489.134	628.69
489.342	676.16
489.55	616.29
489.758	639.93
489.967	660.47
490.175	752.69
490.383	652.14
490.591	738.74
490.799	631.6
491.007	698.83
491.215	716.85
491.423	677.71
491.631	677.91
491.839	696.89
492.047	732.15
492.255	659.11
492.463	638.57
492.671	682.36
492.879	722.66
493.087	684.69
493.295	703.48
493.503	707.74
493.711	733.51
493.919	743.78
494.127	758.5
494.334	776.72
494.542	709.1
494.75	727.12
494.958	740.49
495.166	808.1
495.374	758.31
495.581	762.96
495.789	776.91
495.997	829.42
496.205	779.04
496.412	761.02
496.62	770.71
496.828	792.8
497.035	789.7
497.243	819.15
497.451	817.4
497.658	813.14
497.866	792.41
498.074	867.58
498.281	807.72
498.489	873.59
498.696	820.5
498.904	805.97
499.112	786.99
499.319	907.69
499.527	809.85
499.734	896.65
499.942	828.83
500.149	811.98
500.357	843.56
500.564	790.09
500.771	854.41
500.979	845.69
501.186	816.82
501.394	868.75
501.601	828.25
501.808	867
502.016	846.66
502.223	842.4
502.43	842.59
502.638	867.58
502.845	829.42
503.052	907.88
503.26	874.56
503.467	940.43
503.674	872.62
503.881	925.9
504.089	949.54
504.296	929.78
504.503	867.58
504.71	903.23
504.917	899.55
505.125	942.18
505.332	939.66
505.539	941.98
505.746	1007.66
505.953	985.58
506.16	966.59
506.367	1065.98
506.574	1048.35
506.781	1060.17
506.988	1006.11
507.195	1023.94
507.402	1015.61
507.609	1050.87
507.816	1017.74
508.023	1028.01
508.23	1011.15
508.437	981.12
508.644	1036.92
508.851	1117.13
509.058	1084.58
509.265	1055.52
509.472	1096.79
509.679	1190.37
509.885	1130.11
510.092	1081.87
510.299	1108.02
510.506	1138.83
510.713	1136.51
510.92	1145.42
511.126	1177
511.333	1207.42
511.54	1193.47
511.746	1235.9
511.953	1215.75
512.16	1260.12
512.367	1192.11
512.573	1207.22
512.78	1187.27
512.987	1210.52
513.193	1213.42
513.4	1174.48
513.606	1224.66
513.813	1241.32
514.02	1226.79
514.226	1292.86
514.433	1276.78
514.639	1235.7
514.846	1270.19
515.052	1234.54
515.259	1287.05
515.465	1296.15
515.672	1289.18
515.878	1379.66
516.085	1313.01
516.291	1334.32
516.497	1301.19
516.704	1328.51
516.91	1245.97
517.117	1232.8
517.323	1200.64
517.529	1245.78
517.736	1226.99
517.942	1266.9
518.148	1278.72
518.354	1323.08
518.561	1269.22
518.767	1344.01
518.973	1356.99
519.179	1391.28
519.386	1369.78
519.592	1355.25
519.798	1395.35
520.004	1493.97
520.21	1457.54
520.417	1476.53
520.623	1561.97
520.829	1515.09
521.035	1542.6
521.241	1535.43
521.447	1586.97
521.653	1675.12
521.859	1580.77
522.065	1601.89
522.271	1669.12
522.477	1624.94
522.683	1678.42
522.889	1650.52
523.095	1633.47
523.301	1680.16
523.507	1615.45
523.713	1660.59
523.919	1611.19
524.125	1755.33
524.331	1699.53
524.537	1803
524.742	1747
524.948	1820.43
525.154	1821.21
525.36	1888.63
525.566	1801.45
525.772	1856.08
525.977	1778.58
526.183	1850.85
526.389	1840.39
526.595	1765.8
526.8	1744.87
527.006	1694.3
527.212	1693.72
527.417	1660.2
527.623	1690.04
527.829	1746.42
528.034	1768.12
528.24	1786.53
528.446	1808.23
528.651	1888.05
528.857	1884.76
529.062	1963.61
529.268	1943.27
529.473	1969.04
529.679	1967.1
529.884	2034.72
530.09	1995.77
530.295	1988.02
530.501	2026
530.706	1980.86
530.912	1979.31
531.117	2038.01
531.323	2033.55
531.528	2073.27
531.733	2055.84
531.939	2058.35
532.144	2079.86
532.35	2039.56
532.555	2095.55
532.76	2052.35
532.966	2055.64
533.171	2024.64
533.376	1997.13
533.581	1995.39
533.787	1995.58
533.992	2069.98
534.197	2110.47
534.402	2057.77
534.607	2064.36
534.813	2172.47
535.018	2092.07
535.223	2096.72
535.428	2085.48
535.633	2187.97
535.838	2190.3
536.043	2200.56
536.249	2289.49
536.454	2169.76
536.659	2193.78
536.864	2137.6
537.069	2144.96
537.274	2186.81
537.479	2152.9
537.684	2132.17
537.889	2127.33
538.094	2243.96
538.299	2183.71
538.504	2240.67
538.708	2215.1
538.913	2228.46
539.118	2231.56
539.323	2228.27
539.528	2204.05
539.733	2178.87
539.938	2207.15
540.142	2260.63
540.347	2182.35
540.552	2137.21
540.757	2131.78
540.962	2167.05
541.166	2104.08
541.371	2101.17
541.576	2171.7
541.781	2084.12
541.985	2215.68
542.19	2194.95
542.395	2285.81
542.599	2276.32
542.804	2243.38
543.008	2274.19
543.213	2198.63
543.418	2175.38
543.622	2269.54
543.827	2209.28
544.031	2313.52
544.236	2321.27
544.44	2278.06
544.645	2371.64
544.849	2306.16
545.054	2339.68
545.258	2343.55
545.463	2351.69
545.667	2300.93
545.872	2313.91
546.076	2279.03
546.281	2319.14
546.485	2282.71
546.689	2328.63
546.894	2348.98
547.098	2309.84
547.302	2261.6
547.507	2303.44
547.711	2339.68
547.915	2355.95
548.119	2266.25
548.324	2245.9
548.528	2347.04
548.732	2345.88
548.936	2374.55
549.141	2395.67
549.345	2319.33
549.549	2365.83
549.753	2351.3
549.957	2422.99
550.161	2394.89
550.366	2392.37
550.57	2342
550.774	2348.78
550.978	2372.22
551.182	2332.12
551.386	2358.47
551.59	2371.26
551.794	2352.66
551.998	2353.24
552.202	2363.12
552.406	2326.89
552.61	2400.32
552.814	2396.06
553.018	2435.19
553.222	2336.19
553.426	2387.92
553.63	2400.51
553.833	2350.91
554.037	2304.03
554.241	2385.4
554.445	2348.59
554.649	2380.56
554.853	2325.92
555.056	2444.88
555.26	2449.14
555.464	2370.87
555.668	2391.21
555.871	2360.79
556.075	2409.81
556.279	2342.58
556.483	2323.4
556.686	2319.72
556.89	2349.75
557.094	2347.43
557.297	2299.18
557.501	2345.88
557.704	2282.71
557.908	2280.58
558.112	2247.84
558.315	2345.29
558.519	2281.55
558.722	2286.78
558.926	2275.55
559.129	2221.1
559.333	2199.79
559.536	2187
559.74	2224.78
559.943	2164.33
560.147	2202.5
560.35	2200.37
560.553	2252.1
560.757	2151.35
560.96	2259.85
561.164	2218
561.367	2266.44
561.57	2271.28
561.774	2230.21
561.977	2188.36
562.18	2234.86
562.384	2258.5
562.587	2199.21
562.79	2228.85
562.993	2176.15
563.197	2227.69
563.4	2296.08
563.603	2234.08
563.806	2282.71
564.009	2155.62
564.212	2195.91
564.416	2125.39
564.619	2184.1
564.822	2122.48
565.025	2223.43
565.228	2163.56
565.431	2168.4
565.634	2058.16
565.837	2079.86
566.04	2052.54
566.243	2065.33
566.446	1988.99
566.649	2082.19
566.852	2039.56
567.055	2070.56
567.258	2100.98
567.461	2135.85
567.664	2100.59
567.867	2043.63
568.07	2030.84
568.273	2066.69
568.475	2092.45
568.678	2036.27
568.881	1991.9
569.084	2019.99
569.287	1916.92
569.489	1938.42
569.692	1945.4
569.895	1955.28
570.098	1905.29
570.3	1928.74
570.503	1857.83
570.706	1859.18
570.909	1887.47
571.111	1849.49
571.314	1839.42
571.516	1860.73
571.719	1860.73
571.922	1859.18
572.124	1812.3
572.327	1862.86
572.529	1786.91
572.732	1795.63
572.935	1816.75
573.137	1898.13
573.34	1817.91
573.542	1889.6
573.745	1885.34
573.947	1826.44
574.15	1821.21
574.352	1815.59
574.554	1875.46
574.757	1788.46
574.959	1753.01
575.162	1761.34
575.364	1765.41
575.566	1824.7
575.769	1752.04
575.971	1778.39
576.173	1659.04
576.376	1727.24
576.578	1774.51
576.78	1788.66
576.982	1660.01
577.185	1714.07
577.387	1678.42
577.589	1707.48
577.791	1754.17
577.993	1749.72
578.196	1717.94
578.398	1722.59
578.6	1710.77
578.802	1663.69
579.004	1654.59
579.206	1668.53
579.408	1699.92
579.61	1672.02
579.812	1729.76
580.014	1659.82
580.216	1675.7
580.418	1668.92
580.62	1666.6
580.822	1620.68
581.024	1667.95
581.226	1749.52
581.428	1682.87
581.63	1755.53
581.832	1662.72
582.034	1737.12
582.236	1683.26
582.438	1751.65
582.64	1732.67
582.841	1783.62
583.043	1813.85
583.245	1753.59
583.447	1732.86
583.649	1745.84
583.85	1717.36
584.052	1749.33
584.254	1663.3
584.456	1724.72
584.657	1636.37
584.859	1695.47
585.061	1704.96
585.262	1698.95
585.464	1702.63
585.666	1683.07
585.867	1648.77
586.069	1734.6
586.27	1629.98
586.472	1672.22
586.674	1655.36
586.875	1649.16
587.077	1641.8
587.278	1667.18
587.48	1627.85
587.681	1741.19
587.883	1665.63
588.084	1581.74
588.285	1569.72
588.487	1579.8
588.688	1605.57
588.89	1519.93
589.091	1473.24
589.292	1456.38
589.494	1443.21
589.695	1430.61
589.896	1311.27
590.098	1370.16
590.299	1420.54
590.5	1407.75
590.702	1420.34
590.903	1447.28
591.104	1487.19
591.305	1489.51
591.507	1526.32
591.708	1512.37
591.909	1514.12
592.11	1542.99
592.311	1564.88
592.512	1479.24
592.714	1424.8
592.915	1465.88
593.116	1488.35
593.317	1483.31
593.518	1482.73
593.719	1461.03
593.92	1514.89
594.121	1577.28
594.322	1510.82
594.523	1479.44
594.724	1465.68
594.925	1452.89
595.126	1459.68
595.327	1484.28
595.528	1516.06
595.729	1493
595.929	1453.67
596.13	1478.08
596.331	1521.67
596.532	1492.81
596.733	1524.77
596.934	1569.92
597.135	1543.57
597.335	1534.46
597.536	1479.83
597.737	1499.78
597.938	1457.35
598.138	1532.52
598.339	1451.15
598.54	1488.16
598.74	1472.85
598.941	1505.01
599.142	1569.92
599.342	1482.54
599.543	1464.91
599.744	1496.68
599.944	1475.76
600.145	1485.44
600.345	1464.91
600.546	1563.33
600.746	1560.62
600.947	1530.39
601.147	1498.04
601.348	1497.65
601.548	1487.38
601.749	1500.17
601.949	1418.99
602.15	1448.24
602.35	1448.24
602.551	1522.26
602.751	1472.08
602.951	1460.45
603.152	1427.32
603.352	1512.18
603.552	1481.57
603.753	1496.29
603.953	1539.11
604.153	1507.14
604.354	1498.81
604.554	1474.59
604.754	1514.51
604.954	1473.04
605.155	1500.17
605.355	1473.04
605.555	1525.16
605.755	1522.84
605.955	1480.79
606.155	1492.61
606.356	1504.04
606.556	1503.66
606.756	1479.24
606.956	1463.16
607.156	1503.07
607.356	1434.49
607.556	1468.39
607.756	1427.13
607.956	1488.35
608.156	1489.71
608.356	1439.14
608.556	1506.37
608.756	1449.21
608.956	1444.18
609.156	1429.64
609.356	1386.05
609.556	1428.09
609.755	1427.32
609.955	1389.54
610.155	1431
610.355	1436.62
610.555	1384.7
610.755	1395.74
610.954	1347.88
611.154	1412.01
611.354	1433.33
611.554	1376.75
611.753	1408.91
611.953	1329.48
612.153	1404.07
612.352	1373.07
612.552	1332
612.752	1317.27
612.951	1399.23
613.151	1350.01
613.351	1337.81
613.55	1366.87
613.75	1397.48
613.949	1322.5
614.149	1359.51
614.348	1369.2
614.548	1289.57
614.747	1263.02
614.947	1294.6
615.146	1264.96
615.346	1338.97
615.545	1323.66
615.745	1345.56
615.944	1324.44
616.144	1303.32
616.343	1309.52
616.542	1294.99
616.742	1308.17
616.941	1274.07
617.14	1231.25
617.34	1272.9
617.539	1240.35
617.738	1250.23
617.938	1322.11
618.137	1298.87
618.336	1215.94
618.535	1299.83
618.734	1258.76
618.934	1262.63
619.133	1307.58
619.332	1292.28
619.531	1255.08
619.73	1284.33
619.929	1284.72
620.128	1278.91
620.328	1333.74
620.527	1226.79
620.726	1276.2
620.925	1287.82
621.124	1231.05
621.323	1266.32
621.522	1228.34
621.721	1237.83
621.92	1197.54
622.119	1278.91
622.318	1224.27
622.517	1189.01
622.715	1231.83
622.914	1187.65
623.113	1216.33
623.312	1176.8
623.511	1250.62
623.71	1170.99
623.909	1160.53
624.107	1262.63
624.306	1195.02
624.505	1186.88
624.704	1179.52
624.902	1179.9
625.101	1184.75
625.3	1214
625.499	1147.16
625.697	1161.3
625.896	1125.66
626.095	1181.84
626.293	1116.74
626.492	1132.63
626.69	1182.04
626.889	1167.31
627.088	1215.94
627.286	1153.94
627.485	1129.92
627.683	1109.57
627.882	1134.18
628.08	1046.03
628.279	1101.05
628.477	1172.74
628.676	1080.12
628.874	1118.1
629.073	1031.49
629.271	1049.9
629.469	1107.06
629.668	1070.44
629.866	1086.13
630.065	1055.91
630.263	1129.34
630.461	1085.74
630.66	1113.45
630.858	1114.61
631.056	1129.53
631.254	1138.44
631.453	1078.96
631.651	1162.08
631.849	1067.53
632.047	1092.72
632.245	1116.55
632.444	1124.11
632.642	1093.69
632.84	1121.39
633.038	1078.96
633.236	1089.04
633.434	1055.91
633.632	1081.29
633.83	1119.07
634.028	1111.71
634.227	1121.78
634.425	1201.02
634.623	1120.81
634.821	1148.71
635.019	1155.88
635.216	1107.64
635.414	1156.07
635.612	1117.91
635.81	1118.1
636.008	1183.2
636.206	1098.72
636.404	1140.38
636.602	1077.99
636.8	1098.72
636.997	1143.09
637.195	1134.57
637.393	1087.68
637.591	1168.47
637.789	1109.96
637.986	1102.21
638.184	1103.18
638.382	1120.42
638.58	1152.39
638.777	1170.6
638.975	1082.26
639.173	1098.14
639.37	1077.61
639.568	1120.81
639.765	1106.86
639.963	1077.8
640.161	1104.15
640.358	1110.35
640.556	1053.19
640.753	1025.29
640.951	1039.24
641.148	1073.15
641.346	1045.64
641.543	1003.01
641.741	1047.77
641.938	1022.19
642.136	1060.56
642.333	996.23
642.531	1104.34
642.728	1082.45
642.925	1031.88
643.123	996.43
643.32	1049.32
643.517	1008.05
643.715	1028.2
643.912	981.89
644.109	1036.92
644.306	1018.32
644.504	985.96
644.701	1015.41
644.898	1012.89
645.095	965.62
645.293	967.17
645.49	1006.69
645.687	988.48
645.884	1016.77
646.081	888.9
646.278	935.01
646.475	946.25
646.672	929.78
646.87	974.34
647.067	931.91
647.264	940.63
647.461	878.05
647.658	880.76
647.855	902.46
648.052	866.62
648.249	854.6
648.446	891.61
648.642	847.05
648.839	842.4
649.036	854.41
649.233	819.73
649.43	811.78
649.627	800.93
649.824	823.22
650.021	836
650.217	821.28
650.414	844.92
650.611	880.95
650.808	871.65
651.004	885.41
651.201	860.61
651.398	945.66
651.595	877.85
651.791	845.5
651.988	861.19
652.185	817.98
652.381	857.12
652.578	788.54
652.775	864.68
652.971	836.97
653.168	831.93
653.364	859.25
653.561	782.72
653.757	834.84
653.954	862.35
654.15	811.2
654.347	883.47
654.543	816.43
654.74	798.42
654.936	793.77
655.133	801.9
655.329	829.22
655.525	795.51
655.722	822.05
655.918	750.56
656.115	795.7
656.311	709.29
656.507	693.6
656.704	648.07
656.9	708.71
657.096	673.45
657.292	664.73
657.489	746.88
657.685	737.58
657.881	708.52
658.077	719.95
658.273	761.6
658.47	821.47
658.666	764.51
658.862	780.4
659.058	780.59
659.254	780.79
659.45	733.12
659.646	781.56
659.842	766.06
660.038	807.72
660.234	770.9
660.43	762.96
660.626	849.57
660.822	785.63
661.018	791.44
661.214	768.39
661.41	750.75
661.606	762.38
661.802	779.62
661.998	761.02
662.194	729.05
662.39	733.12
662.586	758.12
662.781	768
662.977	784.47
663.173	757.92
663.369	733.12
663.564	728.28
663.76	754.24
663.956	691.27
664.152	742.23
664.347	715.69
664.543	729.64
664.739	714.33
664.934	685.27
665.13	676.36
665.326	762.96
665.521	730.41
665.717	679.84
665.912	646.91
666.108	612.03
666.304	659.11
666.499	677.91
666.695	617.07
666.89	680.42
667.086	707.55
667.281	697.47
667.477	755.99
667.672	693.41
667.867	672.09
668.063	663.37
668.258	656.98
668.454	637.61
668.649	716.46
668.844	639.54
669.04	681.01
669.235	652.14
669.43	660.27
669.626	619.2
669.821	587.04
670.016	599.63
670.211	647.1
670.407	621.91
670.602	642.06
670.797	617.84
670.992	672.87
671.187	608.16
671.382	667.25
671.578	581.23
671.773	622.49
671.968	550.23
672.163	646.32
672.358	634.51
672.553	603.12
672.748	610.48
672.943	691.86
673.138	617.84
673.333	643.81
673.528	589.94
673.723	630.44
673.918	599.44
674.113	580.64
674.308	680.04
674.503	620.94
674.698	636.83
674.892	593.63
675.087	661.44
675.282	614.55
675.477	594.4
675.672	627.72
675.867	583.55
676.061	596.53
676.256	572.12
676.451	604.67
676.646	605.44
676.84	602.15
677.035	553.71
677.23	552.74
677.424	578.32
677.619	636.83
677.814	637.22
678.008	588.2
678.203	520.39
678.397	578.71
678.592	607.38
678.787	647.49
678.981	610.87
679.176	610.48
679.37	594.79
679.565	569.99
679.759	592.66
679.954	624.82
680.148	663.18
680.342	662.21
680.537	626.56
680.731	583.55
680.926	627.14
681.12	656.4
681.314	579.29
681.509	623.66
681.703	582
681.897	635.47
682.092	601.18
682.286	594.4
682.48	671.12
682.674	681.39
682.869	615.71
683.063	595.76
683.257	675.19
683.451	573.28
683.645	629.08
683.839	639.35
684.034	626.76
684.228	658.72
684.422	607.96
684.616	585.88
684.81	648.26
685.004	626.17
685.198	618.43
685.392	686.82
685.586	628.31
685.78	670.54
685.974	651.17
686.168	665.51
686.362	697.67
686.556	609.71
686.75	585.29
686.944	586.07
687.138	569.79
687.331	535.5
687.525	530.27
687.719	460.71
687.913	512.45
688.107	551
688.301	531.82
688.494	607.96
688.688	533.76
688.882	555.65
689.076	508.57
689.269	552.36
689.463	661.24
689.657	583.94
689.85	600.6
690.044	645.55
690.238	622.49
690.431	629.86
690.625	634.12
690.818	691.47
691.012	680.23
691.205	708.13
691.399	685.27
691.593	731.19
691.786	800.74
691.98	812.17
692.173	830
692.366	831.55
692.56	845.88
692.753	880.37
692.947	805.58
693.14	873.01
693.333	909.43
693.527	837.94
693.72	891.22
693.914	873.4
694.107	887.73
694.3	881.53
694.493	876.5
694.687	970.66
694.88	882.31
695.073	996.04
695.266	1025.88
695.46	960.78
695.653	1007.66
695.846	1002.43
696.039	1038.28
696.232	1008.24
696.425	1074.31
696.618	1108.61
696.812	1096.01
697.005	1166.92
697.198	1233.96
697.391	1188.24
697.584	1208
697.777	1274.07
697.97	1230.86
698.163	1300.61
698.356	1252.37
698.549	1307.97
698.742	1321.92
698.935	1275.03
699.127	1286.66
699.32	1298.87
699.513	1284.53
699.706	1302.74
699.899	1344.4
700.092	1338
700.285	1335.48
700.477	1263.99
700.67	1353.5
700.863	1412.01
701.056	1463.55
701.248	1428.48
701.441	1430.61
701.634	1427.32
701.826	1499.39
702.019	1392.64
702.212	1464.13
702.404	1483.89
702.597	1426.16
702.79	1465.29
702.982	1499.39
703.175	1584.45
703.367	1557.52
703.56	1577.09
703.752	1650.32
703.945	1629.79
704.137	1644.12
704.33	1660.59
704.522	1677.06
704.715	1681.71
704.907	1726.85
705.1	1733.25
705.292	1764.05
705.484	1723.56
705.677	1754.37
705.869	1801.83
706.061	1785.75
706.254	1862.48
706.446	1768.31
706.638	1818.3
706.831	1885.92
707.023	1822.18
707.215	1925.25
707.407	1930.87
707.599	1905.49
707.792	1974.27
707.984	1923.31
708.176	1981.24
708.368	1968.65
708.56	1964.97
708.752	1984.15
708.944	1974.07
709.136	2030.65
709.329	2005.85
709.521	2132.37
709.713	2073.85
709.905	2071.14
710.097	2141.28
710.289	2071.53
710.481	2103.89
710.672	2125.78
710.864	2109.7
711.056	2168.4
711.248	2158.91
711.44	2178.67
711.632	2178.67
711.824	2168.6
712.016	2240.09
712.207	2255.2
712.399	2234.28
712.591	2304.8
712.783	2286.2
712.975	2289.69
713.166	2230.21
713.358	2276.9
713.55	2323.98
713.741	2330.76
713.933	2326.89
714.125	2315.26
714.316	2304.99
714.508	2371.64
714.7	2349.75
714.891	2330.57
715.083	2409.81
715.274	2317.98
715.466	2373
715.657	2402.26
715.849	2347.81
716.04	2274.77
716.232	2269.93
716.423	2345.49
716.615	2228.08
716.806	2162.01
716.998	2122.48
717.189	2029.49
717.381	2016.12
717.572	1915.95
717.763	1986.28
717.955	1894.06
718.146	1882.63
718.337	1828.96
718.528	1802.22
718.72	1735.57
718.911	1771.8
719.102	1754.37
719.293	1747.58
719.485	1752.04
719.676	1718.13
719.867	1693.33
720.058	1699.73
720.249	1689.46
720.44	1734.8
720.632	1801.25
720.823	1851.43
721.014	1983.96
721.205	1973.11
721.396	2083.93
721.587	2185.84
721.778	2212.77
721.969	2246.29
722.16	2281.36
722.351	2346.84
722.542	2397.99
722.733	2421.63
722.924	2272.25
723.115	2362.54
723.305	2331.93
723.496	2362.73
723.687	2205.02
723.878	2250.55
724.069	2207.73
724.26	2248.81
724.45	2169.76
724.641	2134.11
724.832	2189.13
725.023	2173.25
725.213	2127.52
725.404	2138.57
725.595	2158.13
725.785	2141.47
725.976	2195.53
726.167	2183.32
726.357	2202.11
726.548	2304.99
726.739	2202.11
726.929	2261.98
727.12	2286.98
727.31	2317.59
727.501	2265.66
727.691	2275.74
727.882	2259.85
728.072	2338.71
728.263	2335.61
728.453	2397.22
728.644	2342.78
728.834	2356.92
729.024	2321.66
729.215	2303.44
729.405	2375.52
729.596	2412.14
729.786	2434.81
729.976	2472.78
730.167	2438.68
730.357	2404.97
730.547	2439.26
730.737	2453.21
730.928	2537.3
731.118	2540.01
731.308	2459.41
731.498	2491.38
731.688	2574.5
731.879	2556.87
732.069	2657.23
732.259	2680.28
732.449	2751.58
732.639	2801.57
732.829	2778.32
733.019	2834.31
733.209	2893.6
733.399	2913.17
733.589	2955.99
733.779	2978.27
733.969	2991.63
734.159	3063.71
734.349	3096.06
734.539	3083.08
734.729	3103.04
734.919	3137.53
735.109	3182.86
735.299	3104.4
735.488	3152.45
735.678	3158.06
735.868	3172.98
736.058	3155.35
736.248	3146.25
736.437	3110.6
736.627	3083.28
736.817	3214.25
737.007	3127.65
737.196	3257.26
737.386	3185.19
737.576	3167.17
737.765	3267.14
737.955	3206.89
738.144	3343.67
738.334	3281.87
738.524	3181.89
738.713	3297.37
738.903	3276.64
739.092	3312.09
739.282	3317.71
739.471	3279.35
739.661	3281.29
739.85	3314.03
740.04	3347.74
740.229	3350.26
740.419	3416.13
740.608	3433.38
740.797	3426.79
740.987	3435.12
741.176	3452.75
741.365	3376.42
741.555	3338.44
741.744	3482.98
741.933	3417.3
742.123	3451.98
742.312	3474.26
742.501	3556.99
742.69	3496.35
742.88	3456.05
743.069	3542.07
743.258	3496.15
743.447	3571.91
743.636	3558.15
743.825	3501.38
744.014	3516.88
744.204	3570.36
744.393	3500.42
744.582	3602.13
744.771	3605.81
744.96	3568.81
745.149	3618.6
745.338	3577.53
745.527	3640.3
745.716	3547.11
745.905	3539.94
746.094	3600.97
746.283	3607.36
746.471	3587.02
746.66	3617.24
746.849	3633.52
747.038	3656.96
747.227	3599.03
747.416	3635.46
747.604	3576.75
747.793	3593.61
747.982	3643.21
748.171	3640.69
748.359	3614.92
748.548	3597.87
748.737	3629.45
748.926	3608.33
749.114	3478.91
749.303	3580.43
749.491	3574.04
749.68	3498.67
749.869	3583.53
750.057	3576.75
750.246	3553.7
750.434	3561.83
750.623	3553.31
750.811	3529.86
751	3580.82
751.188	3556.41
751.377	3548.85
751.565	3546.53
751.754	3484.53
751.942	3468.64
752.131	3555.83
752.319	3484.14
752.507	3455.85
752.696	3514.75
752.884	3559.7
753.072	3484.53
753.261	3534.51
753.449	3533.16
753.637	3475.42
753.825	3554.28
754.014	3505.84
754.202	3457.79
754.39	3509.71
754.578	3538.39
754.766	3482.78
754.955	3449.07
755.143	3513.98
755.331	3463.22
755.519	3452.37
755.707	3415.75
755.895	3433.96
756.083	3480.65
756.271	3384.55
756.459	3429.5
756.647	3476.39
756.835	3386.49
757.023	3410.9
757.211	3426.79
757.399	3385.72
757.587	3387.85
757.775	3362.66
757.963	3380.68
758.151	3341.74
758.339	3351.81
758.526	3348.13
758.714	3325.66
758.902	3243.31
759.09	3123.58
759.278	2935.06
759.465	2699.27
759.653	2345.49
759.841	2107.57
760.028	1807.65
760.216	1605.95
760.404	1455.41
760.591	1217.1
760.779	1006.5
760.967	898.78
761.154	731.38
761.342	801.52
761.529	754.24
761.717	798.22
761.905	808.3
762.092	876.3
762.28	798.8
762.467	771.68
762.655	697.67
762.842	757.92
763.029	742.62
763.217	745.14
763.404	727.89
763.592	775.55
763.779	744.55
763.966	785.05
764.154	823.6
764.341	878.82
764.528	875.53
764.716	946.44
764.903	1000.3
765.09	1043.51
765.277	1110.16
765.465	1275.42
765.652	1328.9
765.839	1412.79
766.026	1515.86
766.213	1584.25
766.4	1682.87
766.588	1864.61
766.775	1871.78
766.962	2028.9
767.149	2067.46
767.336	2227.69
767.523	2224.98
767.71	2300.73
767.897	2471.42
768.084	2547.37
768.271	2562.68
768.458	2630.3
768.645	2677.96
768.832	2740.54
769.019	2724.46
769.206	2776.38
769.392	2834.51
769.579	2899.8
769.766	2862.41
769.953	2867.64
770.14	2961.99
770.327	2955.6
770.513	2994.35
770.7	3011.01
770.887	2934.29
771.073	3011.4
771.26	3001.13
771.447	2949.98
771.634	2964.9
771.82	3021.47
772.007	2983.88
772.193	3030
772.38	3057.51
772.567	2980.4
772.753	2989.7
772.94	3017.21
773.126	3025.73
773.313	3031.16
773.499	3028.25
773.686	3107.3
773.872	2984.66
774.059	3028.25
774.245	2981.75
774.432	2969.35
774.618	2929.64
774.804	2986.79
774.991	2912.97
775.177	2978.46
775.363	2954.63
775.55	2984.47
775.736	2951.72
775.922	2975.55
776.109	2947.27
776.295	2956.37
776.481	2948.24
776.667	2957.54
776.853	2933.51
777.04	2924.6
777.226	2928.09
777.412	2969.94
777.598	2893.4
777.784	2891.08
777.97	2897.09
778.156	2907.94
778.342	2885.85
778.528	2883.72
778.715	2846.91
778.901	2825.79
779.087	2841.48
779.272	2838.57
779.458	2814.16
779.644	2858.53
779.83	2850.97
780.016	2912.59
780.202	2835.47
780.388	2836.64
780.574	2757.39
780.76	2817.84
780.946	2828.11
781.131	2833.54
781.317	2814.55
781.503	2796.34
781.689	2779.48
781.874	2934.87
782.06	2731.63
782.246	2780.26
782.432	2767.47
782.617	2851.17
782.803	2803.51
782.989	2732.01
783.174	2716.51
783.36	2707.02
783.545	2725.81
783.731	2733.56
783.916	2637.08
784.102	2726.2
784.288	2672.15
784.473	2699.08
784.659	2667.11
784.844	2716.32
785.029	2669.24
785.215	2672.92
785.4	2627.58
785.586	2724.65
785.771	2588.83
785.956	2665.95
786.142	2613.83
786.327	2617.32
786.512	2597.17
786.698	2596.58
786.883	2537.49
787.068	2598.13
787.254	2585.73
787.439	2559.58
787.624	2528.58
787.809	2524.7
787.994	2525.67
788.18	2600.27
788.365	2493.12
788.55	2523.15
788.735	2510.56
788.92	2498.74
789.105	2470.45
789.29	2482.47
789.475	2476.27
789.66	2466.97
789.845	2423.57
790.03	2435.97
790.215	2439.84
790.4	2468.32
790.585	2473.75
790.77	2410.2
790.955	2334.83
791.14	2366.03
791.325	2491.77
791.51	2380.94
791.695	2419.89
791.879	2407.87
792.064	2362.54
792.249	2430.54
792.434	2407.1
792.618	2387.34
792.803	2436.16
792.988	2421.05
793.173	2431.32
793.357	2433.45
793.542	2351.88
793.727	2437.52
793.911	2462.7
794.096	2397.99
794.281	2461.93
794.465	2485.37
794.65	2436.16
794.834	2452.82
795.019	2494.29
795.203	2472.78
795.388	2487.31
795.572	2459.6
795.757	2472
795.941	2466
796.126	2441.97
796.31	2386.17
796.494	2411.17
796.679	2428.22
796.863	2380.36
797.048	2492.93
797.232	2453.6
797.416	2471.62
797.601	2434.22
797.785	2506.88
797.969	2448.17
798.153	2439.84
798.338	2496.03
798.522	2512.11
798.706	2507.07
798.89	2502.81
799.074	2576.63
799.258	2534.59
799.443	2495.25
799.627	2496.61
799.811	2499.52
799.995	2444.11
800.179	2447.79
800.363	2433.45
800.547	2484.21
800.731	2498.16
800.915	2378.62
801.099	2419.69
801.283	2460.96
801.467	2469.1
801.651	2426.86
801.835	2460.19
802.019	2438.49
802.202	2432.29
802.386	2433.64
802.57	2364.67
802.754	2412.14
802.938	2417.95
803.121	2393.54
803.305	2438.29
803.489	2409.42
803.673	2432.29
803.856	2383.07
804.04	2398.77
804.224	2414.27
804.407	2431.51
804.591	2414.46
804.775	2395.67
804.958	2442.75
805.142	2508.62
805.326	2424.73
805.509	2446.62
805.693	2488.86
805.876	2472
806.06	2467.35
806.243	2525.48
806.427	2520.64
806.61	2528.39
806.794	2474.72
806.977	2507.46
807.16	2461.74
807.344	2489.64
807.527	2434.03
807.71	2453.41
807.894	2465.22
808.077	2488.86
808.26	2416.4
808.444	2430.54
808.627	2440.81
808.81	2390.63
808.993	2352.27
809.177	2341.81
809.36	2401.09
809.543	2370.09
809.726	2306.54
809.909	2314.29
810.092	2287.36
810.276	2255.59
810.459	2325.34
810.642	2253.26
810.825	2217.42
811.008	2283.68
811.191	2173.25
811.374	2185.84
811.557	2197.08
811.74	2223.81
811.923	2147.67
812.106	2147.09
812.289	2118.8
812.472	2116.09
812.654	2112.8
812.837	2014.57
813.02	2003.91
813.203	1982.02
813.386	1912.85
813.569	1914.79
813.751	1831.09
813.934	1860.54
814.117	1836.71
814.3	1783.62
814.482	1749.91
814.665	1744.68
814.848	1679
815.03	1656.91
815.213	1632.89
815.396	1640.25
815.578	1617.39
815.761	1574.37
815.943	1630.56
816.126	1521.48
816.309	1530.01
816.491	1439.53
816.674	1362.03
816.856	1450.96
817.039	1469.36
817.221	1509.27
817.403	1486.03
817.586	1497.84
817.768	1505.01
817.951	1432.74
818.133	1415.89
818.315	1477.11
818.498	1472.46
818.68	1536.79
818.862	1514.51
819.045	1509.47
819.227	1518.57
819.409	1511.79
819.591	1505.21
819.774	1496.68
819.956	1477.31
820.138	1547.64
820.32	1542.6
820.502	1633.08
820.684	1644.51
820.866	1670.67
821.048	1721.43
821.231	1700.89
821.413	1722.4
821.595	1697.98
821.777	1707.09
821.959	1707.28
822.141	1749.13
822.323	1618.74
822.505	1579.8
822.686	1511.41
822.868	1398.06
823.05	1332.58
823.232	1336.65
823.414	1297.12
823.596	1336.26
823.778	1331.41
823.96	1371.13
824.141	1377.91
824.323	1391.48
824.505	1443.21
824.687	1508.31
824.868	1557.71
825.05	1643.93
825.232	1666.99
825.413	1708.06
825.595	1680.55
825.777	1631.53
825.958	1638.5
826.14	1659.43
826.321	1662.53
826.503	1653.62
826.685	1661.95
826.866	1697.98
827.048	1716.78
827.229	1669.5
827.411	1580.96
827.592	1563.14
827.773	1549.57
827.955	1507.14
828.136	1506.95
828.318	1486.22
828.499	1512.96
828.68	1456.96
828.862	1514.89
829.043	1541.24
829.224	1489.51
829.406	1463.74
829.587	1501.52
829.768	1445.73
829.949	1511.6
830.131	1470.14
830.312	1550.93
830.493	1518.38
830.674	1513.54
830.855	1486.41
831.036	1488.16
831.218	1540.27
831.399	1566.04
831.58	1529.81
831.761	1511.6
831.942	1515.09
832.123	1489.71
832.304	1471.3
832.485	1483.51
832.666	1459.09
832.847	1506.76
833.028	1493.58
833.209	1508.69
833.389	1490.87
833.57	1428.68
833.751	1478.08
833.932	1536.01
834.113	1468.39
834.294	1479.44
834.475	1490.29
834.655	1581.54
834.836	1557.32
835.017	1546.28
835.198	1464.91
835.378	1548.41
835.559	1525.94
835.74	1528.07
835.92	1532.52
836.101	1521.67
836.281	1569.14
836.462	1567.01
836.643	1568.37
836.823	1563.14
837.004	1583.09
837.184	1622.62
837.365	1602.08
837.545	1613.9
837.726	1581.54
837.906	1618.55
838.087	1592.59
838.267	1576.7
838.448	1552.09
838.628	1536.21
838.808	1565.27
838.989	1619.71
839.169	1547.44
839.349	1604.79
839.53	1588.71
839.71	1592
839.89	1545.89
840.07	1627.27
840.251	1548.99
840.431	1589.29
840.611	1559.26
840.791	1578.25
840.971	1559.65
841.151	1550.16
841.332	1518.19
841.512	1591.81
841.692	1507.14
841.872	1595.3
842.052	1541.63
842.232	1579.02
842.412	1544.15
842.592	1550.35
842.772	1573.99
842.952	1560.42
843.132	1536.21
843.312	1554.03
843.492	1503.27
843.672	1576.51
843.851	1477.69
844.031	1556.55
844.211	1560.23
844.391	1499.39
844.571	1546.09
844.751	1543.76
844.93	1541.05
845.11	1505.79
845.29	1555.58
845.47	1569.92
845.649	1556.74
845.829	1571.08
846.009	1505.4
846.188	1551.12
846.368	1550.93
846.547	1528.65
846.727	1568.76
846.907	1499.78
847.086	1505.79
847.266	1542.21
847.445	1515.86
847.625	1512.57
847.804	1472.27
847.984	1481.38
848.163	1480.79
848.343	1490.48
848.522	1469.56
848.701	1517.02
848.881	1449.99
849.06	1467.23
849.239	1500.36
849.419	1462.78
849.598	1396.51
849.777	1428.87
849.957	1391.86
850.136	1352.73
850.315	1361.06
850.494	1361.83
850.674	1366.29
850.853	1451.73
851.032	1391.67
851.211	1448.83
851.39	1400
851.569	1345.36
851.748	1356.6
851.927	1381.21
852.107	1391.28
852.286	1310.3
852.465	1337.23
852.644	1403.49
852.823	1398.84
853.002	1383.53
853.181	1399.42
853.359	1428.09
853.538	1320.56
853.717	1335.29
853.896	1306.42
854.075	1256.82
854.254	1229.7
854.433	1160.14
854.611	1203.35
854.79	1169.64
854.969	1195.99
855.148	1259.15
855.327	1168.28
855.505	1224.47
855.684	1239
855.863	1226.4
856.041	1238.03
856.22	1267.87
856.399	1243.84
856.577	1339.55
856.756	1319.4
856.934	1433.33
857.113	1392.25
857.291	1312.82
857.47	1272.13
857.648	1300.42
857.827	1343.23
858.005	1372.1
858.184	1302.35
858.362	1360.48
858.541	1302.93
858.719	1313.4
858.898	1295.77
859.076	1299.83
859.254	1334.13
859.433	1308.55
859.611	1319.98
859.789	1245.2
859.967	1341.68
860.146	1315.14
860.324	1260.7
860.502	1274.65
860.68	1254.5
860.859	1269.61
861.037	1278.13
861.215	1251.4
861.393	1263.02
861.571	1274.65
861.749	1265.15
861.927	1282.01
862.105	1252.17
862.283	1260.5
862.461	1223.69
862.639	1222.92
862.817	1230.86
862.995	1253.33
863.173	1223.69
863.351	1254.88
863.529	1257.98
863.707	1294.22
863.885	1266.7
864.063	1162.08
864.241	1214.59
864.418	1261.47
864.596	1217.88
864.774	1195.21
864.952	1197.15
865.129	1217.69
865.307	1184.36
865.485	1129.34
865.663	1245.39
865.84	1165.37
866.018	1160.72
866.196	1028.59
866.373	1070.24
866.551	1031.49
866.728	981.12
866.906	1033.04
867.084	1071.6
867.261	1096.79
867.439	1110.35
867.616	1142.9
867.794	1087.68
867.971	1119.07
868.149	1100.47
868.326	1165.57
868.503	1120.81
868.681	1127.01
868.858	1122.36
869.035	1081.87
869.213	1170.02
869.39	1104.92
869.567	1152.78
869.745	1083.61
869.922	1125.85
870.099	1131.86
870.276	1129.14
870.454	1141.16
870.631	1130.31
870.808	1127.01
870.985	1143.09
871.162	1171.77
871.339	1124.11
871.517	1070.05
871.694	1072.57
871.871	1094.66
872.048	1081.87
872.225	1078.57
872.402	1102.41
872.579	1058.62
872.756	1105.12
872.933	1059.39
873.11	1078.19
873.287	1069.27
873.463	1080.9
873.64	1061.91
873.817	1106.86
873.994	1101.82
874.171	1052.42
874.348	1076.06
874.524	983.64
874.701	1031.49
874.878	1020.45
875.055	1035.95
875.231	1063.27
875.408	1052.81
875.585	1008.83
875.762	1026.65
875.938	1060.94
876.115	1003.59
876.291	1000.3
876.468	1039.83
876.645	969.11
876.821	981.7
876.998	1028.39
877.174	1034.21
877.351	984.61
877.527	998.75
877.704	1006.89
877.88	1010.76
878.057	971.43
878.233	1046.99
878.409	967.36
878.586	1009.6
878.762	967.17
878.938	984.03
879.115	918.54
879.291	991.97
879.467	925.9
879.644	947.02
879.82	997.98
879.996	920.28
880.172	922.41
880.349	940.43
880.525	992.55
880.701	908.46
880.877	919.12
881.053	945.28
881.229	935.01
881.405	983.83
881.581	924.55
881.757	937.33
881.933	957.48
882.109	980.34
882.285	953.03
882.461	908.66
882.637	954.19
882.813	900.33
882.989	936.75
883.165	992.16
883.341	941.4
883.517	948.96
883.693	966.01
883.869	976.08
884.044	916.02
884.22	959.42
884.396	983.06
884.572	949.15
884.747	976.28
884.923	961.55
885.099	972.98
885.275	975.5
885.45	906.33
885.626	889.09
885.801	923.19
885.977	912.34
886.153	883.47
886.328	981.7
886.504	921.06
886.679	926.29
886.855	928.03
887.03	960.78
887.206	974.73
887.381	926.87
887.557	944.31
887.732	937.33
887.908	954.58
888.083	947.6
888.258	928.61
888.434	901.3
888.609	926.1
888.784	984.22
888.96	918.73
889.135	908.85
889.31	893.55
889.485	911.37
889.661	894.51
889.836	981.12
890.011	933.85
890.186	909.63
890.361	917.18
890.537	943.92
890.712	916.8
890.887	901.3
891.062	940.24
891.237	989.84
891.412	881.53
891.587	930.36
891.762	955.55
891.937	966.01
892.112	885.02
892.287	917.57
892.462	851.31
892.637	848.98
892.812	849.95
892.987	875.33
893.161	845.69
893.336	811.2
893.511	826.7
893.686	819.34
893.861	823.99
894.035	818.57
894.21	834.45
894.385	788.73
894.56	815.66
894.734	770.9
894.909	760.25
895.084	755.99
895.258	739.9
895.433	777.3
895.608	717.24
895.782	687.98
895.957	720.14
896.131	714.72
896.306	661.63
896.48	668.22
896.655	628.11
896.829	592.27
897.004	602.15
897.178	602.34
897.353	621.52
897.527	648.84
897.701	633.73
897.876	579.48
898.05	652.72
898.224	609.32
898.399	635.09
898.573	632.18
898.747	544.03
898.921	575.61
899.096	502.76
899.27	457.03
899.444	458.58
899.618	503.15
899.792	516.13
899.967	541.7
900.141	566.31
900.315	489.97
900.489	523.88
900.663	548.09
900.837	539.38
901.011	496.75
901.185	571.93
901.359	537.83
901.533	531.43
901.707	539.76
901.881	549.64
902.055	483.38
902.229	518.84
902.403	580.26
902.576	516.9
902.75	541.31
902.924	627.92
903.098	592.08
903.272	620.17
903.446	683.33
903.619	650.97
903.793	683.14
903.967	668.99
904.14	691.27
904.314	676.74
904.488	669.38
904.661	703.67
904.835	686.04
905.009	678.87
905.182	719.37
905.356	696.31
905.529	677.13
905.703	656.79
905.876	650.01
906.05	610.48
906.223	615.13
906.397	546.35
906.57	538.79
906.744	543.44
906.917	501.21
907.09	549.45
907.264	531.05
907.437	517.48
907.61	474.28
907.784	475.25
907.957	478.73
908.13	452.19
908.304	501.98
908.477	461.68
908.65	473.7
908.823	435.14
908.996	512.64
909.17	454.9
909.343	475.83
909.516	478.93
909.689	473.89
909.862	421.77
910.035	456.45
910.208	447.93
910.381	450.83
910.554	510.51
910.727	455.68
910.9	430.49
911.073	453.16
911.246	491.13
911.419	511.28
911.592	480.67
911.765	460.91
911.938	456.65
912.11	496.95
912.283	441.53
912.456	505.66
912.629	447.93
912.802	435.14
912.974	406.47
913.147	372.95
913.32	327.22
913.493	356.67
913.665	393.29
913.838	394.65
914.01	390.38
914.183	419.83
914.356	395.23
914.528	448.9
914.701	490.16
914.873	427.58
915.046	397.17
915.218	349.5
915.391	315.99
915.563	349.7
915.736	382.63
915.908	410.92
916.081	393.87
916.253	381.67
916.425	380.5
916.598	430.49
916.77	408.6
916.942	355.7
917.115	295.64
917.287	352.6
917.459	351.44
917.632	309.01
917.804	291.19
917.976	358.42
918.148	366.17
918.32	376.82
918.493	387.87
918.665	431.65
918.837	407.63
919.009	448.51
919.181	440.76
919.353	435.53
919.525	417.32
919.697	400.07
919.869	427.58
920.041	480.86
920.213	536.66
920.385	472.73
920.557	421.19
920.729	451.61
920.901	414.8
921.073	435.53
921.244	436.11
921.416	460.33
921.588	426.62
921.76	395.03
921.932	461.88
922.103	432.62
922.275	429.91
922.447	438.82
922.619	336.33
922.79	414.6
922.962	395.23
923.134	454.71
923.305	385.93
923.477	346.99
923.648	363.84
923.82	390.38
923.991	320.83
924.163	344.47
924.335	369.07
924.506	334.78
924.677	417.7
924.849	348.92
925.02	366.75
925.192	391.74
925.363	372.95
925.535	367.52
925.706	331.87
925.877	403.37
926.049	322.96
926.22	346.79
926.391	356.09
926.562	386.7
926.734	346.02
926.905	380.12
927.076	295.45
927.247	340.59
927.419	302.23
927.59	294.87
927.761	306.88
927.932	278.01
928.103	297.77
928.274	252.44
928.445	272.59
928.616	248.56
928.787	258.06
928.958	275.69
929.129	264.06
929.3	233.45
929.471	217.76
929.642	189.86
929.813	122.24
929.984	237.13
930.155	145.1
930.326	179.01
930.496	171.84
930.667	123.01
930.838	165.06
931.009	135.41
931.18	143.16
931.35	165.83
931.521	137.74
931.692	121.27
931.863	58.88
932.033	122.04
932.204	109.84
932.374	105.96
932.545	68.57
932.716	107.13
932.886	113.71
933.057	33.7
933.227	67.8
933.398	129.02
933.568	60.63
933.739	23.81
933.909	39.9
934.08	91.43
934.25	-46.13
934.421	23.04
934.591	60.63
934.761	15.68
934.932	-0.6
935.102	75.74
935.272	18
935.443	31.37
935.613	32.34
935.783	61.21
935.953	19.36
936.123	160.41
936.294	30.79
936.464	33.89
936.634	40.48
936.804	19.55
936.974	-2.73
937.144	24.4
937.314	46.48
937.484	32.53
937.655	18.78
937.825	79.42
937.995	11.22
938.165	75.93
938.334	26.72
938.504	30.98
938.674	36.21
938.844	50.94
939.014	123.79
939.184	70.51
939.354	132.31
939.524	118.56
939.694	67.21
939.863	74.38
940.033	134.06
940.203	132.89
940.373	97.24
940.542	124.18
940.712	65.47
940.882	110.03
941.051	116.62
941.221	109.84
941.391	92.98
941.56	69.15
941.73	71.09
941.899	160.02
942.069	54.43
942.238	96.66
942.408	59.66
942.577	114.29
942.747	79.03
942.916	39.51
943.086	62.95
943.255	100.73
943.425	73.61
943.594	36.41
943.763	-8.73
943.933	15.87
944.102	6.77
944.271	55.78
944.441	69.93
944.61	21.49
944.779	39.9
944.948	134.83
945.117	26.91
945.287	46.1
945.456	-0.21
945.625	39.7
945.794	60.24
945.963	11.41
946.132	77.68
946.301	26.72
946.47	74.38
946.639	16.45
946.808	62.37
946.977	76.9
947.146	92.4
947.315	57.33
947.484	79.03
947.653	31.95
947.822	36.8
947.991	21.68
948.16	129.41
948.329	112.55
948.498	30.4
948.666	51.52
948.835	62.18
949.004	21.49
949.173	41.06
949.341	53.26
949.51	64.31
949.679	87.75
949.847	89.3
950.016	123.98
950.185	108.48
950.353	42.8
950.522	56.36
950.69	87.17
950.859	45.9
951.028	76.51
951.196	75.93
951.365	23.81
951.533	61.4
951.701	88.14
951.87	87.17
952.038	37.96
952.207	57.33
952.375	99.76
952.543	32.73
952.712	55.2
952.88	37.76
953.048	112.94
953.217	86.01
953.385	69.35
953.553	98.99
953.721	18.78
953.89	52.3
954.058	19.94
954.226	50.75
954.394	70.31
954.562	17.23
954.73	50.16
954.898	54.81
955.067	83.1
955.235	36.99
955.403	86.78
955.571	114.29
955.739	65.47
955.907	24.4
956.075	61.21
956.243	31.37
956.41	87.56
956.578	12.96
956.746	24.2
956.914	44.55
957.082	105.38
957.25	71.86
957.418	33.7
957.585	68.38
957.753	100.54
957.921	20.91
958.089	71.28
958.256	66.44
958.424	74
958.592	73.03
958.759	47.45
958.927	95.11
959.095	34.08
959.262	47.26
959.43	59.66
959.597	49.78
959.765	74.19
959.932	23.81
960.1	90.08
960.267	78.26
960.435	72.06
960.602	92.79
960.77	40.28
960.937	37.38
961.104	57.91
961.272	11.22
961.439	48.61
961.606	60.24
961.774	105.77
961.941	61.79
962.108	71.48
962.275	72.06
962.443	95.89
962.61	74.38
962.777	126.31
962.944	94.53
963.111	84.46
963.278	82.91
963.446	86.01
963.613	65.86
963.78	100.54
963.947	74.77
964.114	78.65
964.281	160.99
964.448	135.03
964.615	79.81
964.782	94.34
964.949	104.41
965.116	79.61
965.282	128.83
965.449	70.7
965.616	55.59
965.783	97.44
965.95	62.56
966.117	50.94
966.283	67.8
966.45	83.49
966.617	84.85
966.784	126.11
966.95	121.08
967.117	100.93
967.284	52.1
967.45	63.53
967.617	145.49
967.784	115.65
967.95	154.4
968.117	92.6
968.283	137.35
968.45	170.29
968.616	84.26
968.783	142.19
968.949	121.46
969.116	106.35
969.282	104.41
969.449	108.68
969.615	109.45
969.781	65.28
969.948	93.37
970.114	88.91
970.28	137.16
970.447	77.87
970.613	116.43
970.779	93.37
970.945	124.18
971.112	118.94
971.278	93.18
971.444	77.29
971.61	134.44
971.776	86.78
971.942	118.75
972.108	138.51
972.275	109.26
972.441	111.58
972.607	136.58
972.773	61.4
972.939	92.21
973.105	109.06
973.271	66.05
973.437	89.69
973.602	73.22
973.768	135.8
973.934	79.03
974.1	110.61
974.266	23.81
974.432	105.19
974.598	76.71
974.763	105.77
974.929	75.16
975.095	148.59
975.261	35.05
975.426	53.46
975.592	84.26
975.758	118.56
975.923	42.8
976.089	65.86
976.255	112.16
976.42	104.99
976.586	81.16
976.751	93.95
976.917	156.34
977.082	121.66
977.248	67.41
977.413	21.1
977.579	89.5
977.744	101.51
977.91	67.6
978.075	57.72
978.24	108.48
978.406	72.83
978.571	76.32
978.736	56.95
978.902	98.02
979.067	63.34
979.232	36.99
979.397	100.73
979.563	118.17
979.728	48.03
979.893	89.11
980.058	68.96
980.223	117.78
980.388	98.6
980.554	93.76
980.719	73.61
980.884	89.5
981.049	83.88
981.214	49.39
981.379	107.51
981.544	69.54
981.709	89.69
981.874	56.75
982.039	71.28
982.204	95.11
982.368	78.84
982.533	62.18
982.698	96.86
982.863	98.41
983.028	67.6
983.193	84.85
983.357	82.91
983.522	78.84
983.687	70.7
983.852	62.18
984.016	55.78
984.181	61.4
984.346	97.83
984.51	113.13
984.675	77.1
984.839	104.61
985.004	92.98
985.168	126.5
985.333	101.31
985.498	85.81
985.662	84.46
985.827	110.23
985.991	96.28
986.155	113.13
986.32	88.72
986.484	119.72
986.649	78.84
986.813	31.18
986.977	105.19
987.142	88.91
987.306	49.58
987.47	44.55
987.634	78.65
987.799	85.81
987.963	125.34
988.127	112.55
988.291	137.54
988.455	83.3
988.62	64.11
988.784	97.24
988.948	95.69
989.112	64.7
989.276	104.22
989.44	104.8
989.604	44.74
989.768	74.96
989.932	165.06
990.096	58.88
990.26	17.03
990.424	43
990.588	80.58
990.752	137.35
990.915	131.73
991.079	54.62
991.243	75.16
991.407	99.96
991.571	78.65
991.734	108.48
991.898	94.92
992.062	135.22
992.226	79.61
992.389	48.23
992.553	28.46
992.717	80.97
992.88	78.45
993.044	93.37
993.207	76.71
993.371	95.69
993.535	96.47
993.698	75.16
993.862	103.44
994.025	121.85
994.189	82.33
994.352	74.77
994.515	94.34
994.679	120.69
994.842	51.52
995.006	92.01
995.169	25.75
995.332	84.65
995.496	94.34
995.659	22.65
995.822	69.35
995.985	82.91
996.149	134.44
996.312	78.65
996.475	157.89
996.638	72.06
996.801	116.04
996.964	125.14
997.128	70.7
997.291	81.55
997.454	90.46
997.617	24.4
997.78	101.89
997.943	28.08
998.106	97.44
998.269	41.64
998.432	80
998.595	52.49
998.758	10.64
998.92	25.95
999.083	37.76
999.246	78.84
999.409	35.63
999.572	7.73
999.735	38.73
999.897	38.15
1000.06	61.98
1000.223	29.63
1000.386	67.41
1000.548	78.65
1000.711	99.57
1000.874	74.19
1001.036	15.87
1001.199	111.19
1001.361	48.03
1001.524	62.95
1001.687	94.92
1001.849	38.73
1002.012	78.45
1002.174	49
1002.337	65.28
1002.499	51.91
1002.661	100.54
1002.824	5.99
1002.986	39.7
1003.149	47.26
1003.311	34.86
1003.473	111.19
1003.636	27.3
1003.798	44.16
1003.96	70.12
1004.123	49.39
1004.285	36.02
1004.447	39.51
1004.609	36.99
1004.771	90.85
1004.933	2.31
1005.096	20.52
1005.258	16.06
1005.42	28.85
1005.582	88.53
1005.744	34.08
1005.906	19.75
1006.068	52.3
1006.23	24.59
1006.392	0.57
1006.554	12.38
1006.716	91.05
1006.878	45.32
1007.04	20.52
1007.202	22.46
1007.363	62.95
1007.525	38.15
1007.687	52.49
1007.849	90.08
1008.011	2.89
1008.172	-4.47
1008.334	33.7
1008.496	79.23
1008.658	8.12
1008.819	14.13
1008.981	9.67
1009.143	5.41
1009.304	39.51
1009.466	55.01
1009.627	125.53
1009.789	139.48
1009.95	43.77
1010.112	20.71
1010.273	53.85
1010.435	56.56
1010.596	30.01
1010.758	23.43
1010.919	24.78
1011.081	5.02
1011.242	37.18
1011.403	69.93
1011.565	11.03
1011.726	52.88
1011.887	6.57
1012.049	49.78
1012.21	65.47
1012.371	57.72
1012.532	-18.62
1012.693	42.8
1012.855	17.81
1013.016	41.64
1013.177	43.58
1013.338	23.43
1013.499	98.21
1013.66	17.03
1013.821	62.18
1013.982	47.45
1014.143	35.83
1014.304	30.21
1014.465	37.76
1014.626	46.1
1014.787	17.42
1014.948	118.56
1015.109	-32.95
1015.27	70.12
1015.431	24.4
1015.592	15.29
1015.752	67.41
1015.913	38.93
1016.074	41.06
1016.235	-1.18
1016.395	37.76
1016.556	56.95
1016.717	24.2
1016.877	51.91
1017.038	-6.41
1017.199	44.93
1017.359	41.25
1017.52	64.89
1017.681	13.16
1017.841	39.9
1018.002	-6.8
1018.162	32.15
1018.323	57.91
1018.483	-2.34
1018.644	16.84
1018.804	9.86
1018.964	-14.16
1019.125	12.77
1019.285	21.1
1019.446	-4.28
1019.606	-22.49
1019.766	-19.97
1019.926	65.28
1020.087	51.33
1020.247	-15.13
1020.407	39.9
1020.567	70.9
1020.728	5.8
1020.888	12.38
1021.048	-6.02
1021.208	5.22
1021.368	18.2
1021.528	49.78
1021.688	55.98
1021.848	50.75
1022.008	45.71
1022.168	17.03
1022.328	33.89
1022.488	4.63
1022.648	13.55
1022.808	24.59
1022.968	33.7
1023.128	9.86
1023.288	7.15
1023.448	23.23
1023.608	7.73
1023.767	31.37
1023.927	9.67
1024.087	-17.45
1024.247	11.03
1024.406	33.11
1024.566	-29.85
1024.726	-1.95
1024.885	31.56
1025.045	36.99
1025.205	18
1025.364	3.28
1025.524	18.97
1025.683	-2.34
1025.843	18.97
1026.003	5.6
1026.162	63.34
1026.321	56.36
1026.481	36.21
1026.64	15.48
1026.8	36.99
1026.959	39.31
1027.119	6.96
1027.278	23.23
1027.437	2.12
1027.597	15.29
1027.756	21.68
1027.915	36.41
1028.074	12.58
1028.234	18.97
1028.393	20.71
1028.552	29.82
1028.711	-43.03
1028.87	26.53
1029.03	-33.34
1029.189	41.06
1029.348	-14.35
1029.507	-18.62
1029.666	3.47
1029.825	-20.94
1029.984	2.89
1030.143	29.82
1030.302	4.83
1030.461	-43.22
1030.62	-2.15
1030.779	58.11
1030.938	12.96
1031.097	-7.77
1031.255	51.71
1031.414	44.16
1031.573	41.64
1031.732	-25.01
1031.891	1.15
1032.049	37.57
1032.208	19.55
1032.367	7.93
1032.525	12.19
1032.684	4.83
1032.843	8.12
1033.001	-30.43
1033.16	133.48
1033.319	43.58
1033.477	15.1
1033.636	5.22
1033.794	-33.73
1033.953	16.84
1034.111	59.27
1034.27	-9.32
1034.428	41.64
1034.587	0.76
1034.745	6.57
1034.903	10.06
1035.062	55.01
1035.22	-34.31
1035.378	46.29
1035.537	-32.18
1035.695	24.2
1035.853	20.91
1036.011	41.45
1036.17	20.33
1036.328	-31.4
1036.486	10.64
1036.644	-10.28
1036.802	-48.45
1036.96	-21.33
1037.119	17.23
1037.277	-3.12
1037.435	-27.53
1037.593	-38.77
1037.751	-3.31
1037.909	10.64
1038.067	10.64
