Data from gum_young_FLMT105791__87__17-39-45-042.txt Node

Date: Mon Mar 20 17:39:45 GMT 2023
User: antho
Spectrometer: FLMT10579
Trigger mode: 0
Integration Time (sec): 1.000000E-1
Scans to average: 10
Electric dark correction enabled: true
Nonlinearity correction enabled: false
Boxcar width: 0
XAxis mode: Wavelengths
Number of Pixels in Spectrum: 3648
>>>>>Begin Spectral Data<<<<<
345.248	-147.15
345.464	-147.15
345.681	-147.15
345.898	-130.3
346.114	-127.78
346.331	-11.14
346.548	43.69
346.764	1.65
346.981	0.1
347.197	-6.49
347.414	20.83
347.631	-24.9
347.847	37.68
348.064	6.1
348.28	13.47
348.497	-55.7
348.713	-25.28
348.93	27.61
349.146	17.53
349.363	-2.23
349.579	26.45
349.796	33.23
350.012	-1.65
350.229	38.07
350.445	1.65
350.661	-37.1
350.878	-5.91
351.094	17.15
351.311	17.15
351.527	17.53
351.743	-6.1
351.96	33.23
352.176	54.93
352.392	50.66
352.609	34.58
352.825	-8.43
353.041	44.66
353.257	17.92
353.474	8.62
353.69	-3.58
353.906	38.85
354.122	-10.17
354.339	50.08
354.555	5.72
354.771	13.85
354.987	51.25
355.203	71.98
355.42	2.23
355.636	3
355.852	-13.47
356.068	18.31
356.284	-0.1
356.5	54.73
356.716	42.14
356.932	24.32
357.148	32.07
357.364	19.28
357.58	44.85
357.796	31.68
358.012	74.11
358.228	33.03
358.444	-50.47
358.66	52.02
358.876	22.77
359.092	-14.82
359.308	16.95
359.524	37.68
359.74	-5.72
359.956	10.56
360.172	22.57
360.388	55.31
360.604	-21.02
360.819	89.03
361.035	24.51
361.251	33.81
361.467	-6.68
361.683	35.36
361.898	39.43
362.114	34.2
362.33	12.88
362.546	51.25
362.762	3
362.977	50.66
363.193	-4.55
363.409	30.71
363.624	-11.72
363.84	6.68
364.056	-22.18
364.271	35.94
364.487	56.86
364.703	-3.2
364.918	-27.42
365.134	19.28
365.35	18.5
365.565	106.08
365.781	11.53
365.996	60.74
366.212	62.48
366.427	24.9
366.643	18.89
366.858	-18.7
367.074	-8.82
367.289	54.54
367.505	106.46
367.72	2.62
367.936	-13.08
368.151	51.83
368.367	37.3
368.582	36.52
368.798	9.98
369.013	63.65
369.228	17.73
369.444	44.66
369.659	44.85
369.874	28
370.09	55.12
370.305	-36.13
370.52	9.78
370.736	46.21
370.951	1.07
371.166	54.93
371.381	84.96
371.597	53.76
371.812	4.36
372.027	-5.72
372.242	20.25
372.458	91.35
372.673	-5.91
372.888	37.68
373.103	21.22
373.318	86.12
373.533	40.4
373.749	40.4
373.964	-8.23
374.179	57.64
374.394	3.78
374.609	71.59
374.824	-18.89
375.039	45.82
375.254	4.36
375.469	87.28
375.684	35.36
375.899	67.71
376.114	28.77
376.329	26.06
376.544	58.8
376.759	71.78
376.974	22.38
377.189	15.79
377.404	15.4
377.619	37.3
377.834	-3.39
378.049	3.39
378.264	-6.49
378.478	47.18
378.693	-3.2
378.908	56.48
379.123	13.08
379.338	44.66
379.553	27.03
379.767	19.28
379.982	35.17
380.197	88.45
380.412	17.92
380.626	32.07
380.841	79.15
381.056	40.78
381.271	84.57
381.485	28.38
381.7	-4.36
381.915	37.3
382.129	32.45
382.344	33.62
382.559	9.59
382.773	76.82
382.988	3.97
383.202	36.72
383.417	5.91
383.632	106.08
383.846	19.47
384.061	25.09
384.275	17.53
384.49	34.97
384.704	54.15
384.919	39.82
385.133	50.66
385.348	37.68
385.562	-11.14
385.777	57.45
385.991	39.82
386.206	28.77
386.42	16.95
386.634	84.57
386.849	57.25
387.063	53.57
387.277	0.68
387.492	30.13
387.706	1.84
387.92	4.75
388.135	62.1
388.349	36.72
388.563	16.95
388.778	57.25
388.992	44.08
389.206	67.13
389.42	96.58
389.635	26.25
389.849	48.34
390.063	58.41
390.277	46.01
390.491	89.8
390.706	54.54
390.92	74.88
391.134	43.69
391.348	48.73
391.562	-0.1
391.776	25.48
391.99	8.04
392.205	69.46
392.419	20.05
392.633	45.63
392.847	93.29
393.061	24.51
393.275	95.61
393.489	43.69
393.703	31.1
393.917	56.09
394.131	31.68
394.345	47.76
394.559	90.96
394.773	29.74
394.986	38.46
395.2	45.43
395.414	54.73
395.628	6.88
395.842	51.63
396.056	33.03
396.27	-5.52
396.484	46.21
396.697	62.48
396.911	89.41
397.125	50.08
397.339	57.83
397.553	51.05
397.766	113.44
397.98	47.76
398.194	72.95
398.408	55.51
398.621	43.11
398.835	55.12
399.049	52.41
399.262	85.73
399.476	72.56
399.69	75.66
399.903	137.85
400.117	64.23
400.331	77.4
400.544	42.33
400.758	163.23
400.971	45.05
401.185	84.57
401.398	39.62
401.612	81.86
401.826	107.82
402.039	68.3
402.253	47.37
402.466	88.64
402.68	62.87
402.893	75.08
403.106	81.28
403.32	52.8
403.533	75.27
403.747	60.16
403.96	70.62
404.174	71.78
404.387	38.85
404.6	53.38
404.814	108.79
405.027	81.66
405.24	87.48
405.454	60.74
405.667	86.7
405.88	3.58
406.094	71.4
406.307	86.9
406.52	98.52
406.733	49.7
406.947	16.37
407.16	114.6
407.373	99.68
407.586	65.39
407.799	26.06
408.012	89.61
408.226	80.89
408.439	127.39
408.652	21.8
408.865	72.56
409.078	136.49
409.291	92.51
409.504	38.65
409.717	76.24
409.93	95.03
410.143	99.68
410.357	22.57
410.57	24.7
410.783	76.24
410.996	71.59
411.209	67.91
411.421	86.12
411.634	76.43
411.847	68.49
412.06	74.5
412.273	85.15
412.486	71.59
412.699	152.77
412.912	81.86
413.125	88.64
413.338	75.27
413.55	120.41
413.763	87.09
413.976	122.35
414.189	44.85
414.402	68.49
414.615	116.93
414.827	83.21
415.04	139.4
415.253	63.45
415.466	117.31
415.678	143.66
415.891	73.53
416.104	104.53
416.316	108.01
416.529	93.68
416.742	107.05
416.954	114.6
417.167	91.55
417.38	79.15
417.592	121.19
417.805	54.35
418.017	40.78
418.23	94.84
418.442	71.01
418.655	61.51
418.868	118.28
419.08	139.21
419.293	126.42
419.505	119.45
419.718	113.25
419.93	148.51
420.142	98.91
420.355	133.01
420.567	143.08
420.78	109.37
420.992	104.72
421.205	170.21
421.417	77.79
421.629	110.92
421.842	83.21
422.054	55.9
422.266	132.62
422.479	119.83
422.691	69.46
422.903	144.24
423.115	103.95
423.328	81.28
423.54	135.53
423.752	100.46
423.964	73.53
424.177	115.18
424.389	109.37
424.601	177.57
424.813	129.91
425.025	136.49
425.238	127.2
425.45	91.16
425.662	80.31
425.874	390.69
426.086	87.48
426.298	115.96
426.51	122.74
426.722	107.24
426.934	83.8
427.146	139.79
427.358	72.17
427.57	126.42
427.782	125.65
427.994	117.7
428.206	109.95
428.418	78.37
428.63	127.97
428.842	183.96
429.054	121.77
429.266	142.89
429.478	76.43
429.69	112.47
429.902	68.3
430.114	158.19
430.325	111.7
430.537	74.11
430.749	97.16
430.961	42.33
431.173	111.11
431.384	133.39
431.596	23.73
431.808	100.07
432.02	106.85
432.231	147.73
432.443	164.2
432.655	136.69
432.867	97.55
433.078	128.36
433.29	201.01
433.502	152.38
433.713	183.38
433.925	134.36
434.136	169.24
434.348	105.88
434.56	56.86
434.771	200.04
434.983	86.12
435.194	127.58
435.406	123.51
435.617	160.13
435.829	182.8
436.04	163.43
436.252	152.38
436.463	153.35
436.675	183.58
436.886	134.94
437.098	167.3
437.309	209.73
437.521	140.95
437.732	154.9
437.943	126.81
438.155	173.11
438.366	87.28
438.578	183.38
438.789	175.83
439	170.21
439.211	140.76
439.423	165.36
439.634	150.83
439.845	182.41
440.057	178.54
440.268	166.33
440.479	146.38
440.69	162.46
440.902	141.92
441.113	138.43
441.324	154.32
441.535	178.34
441.746	208.96
441.957	126.23
442.168	153.74
442.38	186.87
442.591	196.94
442.802	139.98
443.013	153.35
443.224	180.28
443.435	168.66
443.646	147.34
443.857	152.38
444.068	150.83
444.279	132.62
444.49	218.84
444.701	168.66
444.912	253.13
445.123	190.36
445.334	170.4
445.545	172.14
445.756	173.11
445.967	159.74
446.178	210.51
446.388	222.13
446.599	211.86
446.81	206.44
447.021	176.79
447.232	204.11
447.443	235.89
447.653	180.86
447.864	209.34
448.075	189.19
448.286	210.31
448.496	200.43
448.707	219.03
448.918	158.58
449.129	271.54
449.339	174.86
449.55	221.36
449.761	189.78
449.971	244.41
450.182	188.03
450.393	206.44
450.603	182.41
450.814	248.48
451.024	231.24
451.235	237.44
451.446	283.94
451.656	245.38
451.867	189.97
452.077	215.54
452.288	240.92
452.498	239.76
452.709	209.54
452.919	235.69
453.13	198.88
453.34	253.13
453.55	188.61
453.761	271.15
453.971	222.13
454.182	253.13
454.392	232.21
454.602	300.99
454.813	227.17
455.023	258.94
455.233	198.49
455.444	227.17
455.654	155.87
455.864	205.86
456.075	204.5
456.285	207.99
456.495	206.05
456.705	254.1
456.916	260.69
457.126	260.3
457.336	231.24
457.546	182.41
457.756	184.35
457.967	263.79
458.177	217.68
458.387	233.56
458.597	216.71
458.807	216.13
459.017	217.68
459.227	210.7
459.437	215.54
459.647	259.72
459.857	237.82
460.068	214.77
460.278	243.44
460.488	269.02
460.698	314.55
460.908	245.19
461.117	166.53
461.327	217.87
461.537	251.19
461.747	250.03
461.957	264.37
462.167	346.13
462.377	260.11
462.587	232.21
462.797	272.12
463.007	258.17
463.216	302.92
463.426	282.19
463.636	298.47
463.846	213.41
464.056	228.91
464.265	290.91
464.475	225.23
464.685	238.79
464.895	279.09
465.104	257.59
465.314	275.41
465.524	240.15
465.733	258.36
465.943	336.64
466.153	324.24
466.362	298.27
466.572	268.63
466.782	246.93
466.991	276.38
467.201	296.92
467.41	210.12
467.62	277.16
467.829	267.27
468.039	279.87
468.249	250.03
468.458	264.76
468.668	274.64
468.877	298.66
469.086	325.01
469.296	320.36
469.505	256.81
469.715	338.57
469.924	279.29
470.134	313.77
470.343	348.84
470.552	297.69
470.762	306.6
470.971	262.43
471.18	278.12
471.39	294.4
471.599	272.31
471.808	319
472.018	279.48
472.227	313.19
472.436	346.71
472.645	309.7
472.855	265.53
473.064	366.47
473.273	340.51
473.482	339.74
473.691	343.61
473.901	353.88
474.11	281.81
474.319	406.19
474.528	330.63
474.737	369.38
474.946	328.89
475.155	358.34
475.364	372.29
475.573	347.68
475.783	331.99
475.992	358.34
476.201	387.01
476.41	354.85
476.619	351.75
476.828	362.99
477.037	325.4
477.245	341.09
477.454	372.09
477.663	344.19
477.872	373.45
478.081	395.92
478.29	329.85
478.499	436.22
478.708	382.36
478.917	431.57
479.125	405.8
479.334	384.1
479.543	379.26
479.752	376.55
479.961	375.39
480.169	403.28
480.378	385.65
480.587	495.7
480.796	412.97
481.004	394.57
481.213	430.99
481.422	422.47
481.63	415.49
481.839	430.8
482.048	488.15
482.256	421.11
482.465	437.38
482.674	460.25
482.882	451.14
483.091	487.95
483.299	461.6
483.508	457.15
483.716	437.38
483.925	470.32
484.134	425.57
484.342	430.8
484.551	493.57
484.759	481.36
484.967	473.81
485.176	484.66
485.384	480.98
485.593	482.53
485.801	474.78
486.01	476.91
486.218	453.85
486.426	398.25
486.635	430.41
486.843	428.08
487.051	454.24
487.26	419.75
487.468	488.92
487.676	476.91
487.885	421.11
488.093	474.58
488.301	504.81
488.509	505.2
488.717	519.53
488.926	482.91
489.134	475.94
489.342	494.93
489.55	465.87
489.758	480.59
489.967	465.48
490.175	607.49
490.383	520.7
490.591	567.2
490.799	504.23
491.007	562.16
491.215	549.56
491.423	526.9
491.631	541.23
491.839	541.23
492.047	565.45
492.255	489.31
492.463	472.26
492.671	525.54
492.879	575.14
493.087	529.03
493.295	561.96
493.503	581.92
493.711	578.04
493.919	586.57
494.127	565.84
494.334	577.85
494.542	536.39
494.75	567.2
494.958	545.5
495.166	609.04
495.374	581.92
495.581	579.79
495.789	590.06
495.997	655.54
496.205	589.09
496.412	566.03
496.62	595.48
496.828	632.49
497.035	587.15
497.243	613.5
497.451	613.69
497.658	616.79
497.866	610.79
498.074	679.18
498.281	610.98
498.489	697.01
498.696	636.94
498.904	613.31
499.112	594.71
499.319	671.04
499.527	648.57
499.734	657.09
499.942	596.84
500.149	608.66
500.357	656.51
500.564	614.28
500.771	647.6
500.979	604.59
501.186	612.73
501.394	687.9
501.601	640.43
501.808	698.17
502.016	656.71
502.223	651.28
502.43	685.96
502.638	686.35
502.845	650.31
503.052	729.56
503.26	674.72
503.467	742.54
503.674	705.34
503.881	682.47
504.089	761.91
504.296	723.16
504.503	683.44
504.71	704.95
504.917	675.31
505.125	705.34
505.332	722.58
505.539	754.55
505.746	801.44
505.953	773.54
506.16	752.8
506.367	794.27
506.574	822.17
506.781	809.57
506.988	771.02
507.195	825.27
507.402	773.34
507.609	855.1
507.816	790.59
508.023	782.84
508.23	790.39
508.437	772.76
508.644	855.3
508.851	876.61
509.058	859.37
509.265	859.17
509.472	831.85
509.679	928.73
509.885	860.14
510.092	860.53
510.299	844.06
510.506	884.55
510.713	902.38
510.92	877.58
511.126	921.75
511.333	916.72
511.54	929.7
511.746	1007.19
511.953	979.1
512.16	1001.77
512.367	976.78
512.573	984.14
512.78	990.15
512.987	943.65
513.193	981.23
513.4	913.62
513.606	969.8
513.813	991.7
514.02	998.09
514.226	1048.66
514.433	1065.51
514.639	937.45
514.846	1012.81
515.052	986.27
515.259	1035.87
515.465	1055.83
515.672	1032.38
515.878	1121.12
516.085	1071.71
516.291	1136.04
516.497	1067.26
516.704	1052.92
516.91	1012.04
517.117	991.31
517.323	985.11
517.529	1034.13
517.736	1029.09
517.942	1039.55
518.148	1072.49
518.354	1041.68
518.561	1080.04
518.767	1108.91
518.973	1139.91
519.179	1161.22
519.386	1127.12
519.592	1141.46
519.798	1093.61
520.004	1250.93
520.21	1194.35
520.417	1223.03
520.623	1265.27
520.829	1292.97
521.035	1263.72
521.241	1267.4
521.447	1307.12
521.653	1393.91
521.859	1286.19
522.065	1346.64
522.271	1403.8
522.477	1375.12
522.683	1395.85
522.889	1363.88
523.095	1354.58
523.301	1350.52
523.507	1359.62
523.713	1394.5
523.919	1371.05
524.125	1453.98
524.331	1442.93
524.537	1477.42
524.742	1516.17
524.948	1533.02
525.154	1533.8
525.36	1603.36
525.566	1520.24
525.772	1563.06
525.977	1510.74
526.183	1572.94
526.389	1586.31
526.595	1529.15
526.8	1519.66
527.006	1424.72
527.212	1411.74
527.417	1404.38
527.623	1403.6
527.829	1486.91
528.034	1511.33
528.24	1526.05
528.446	1538.84
528.651	1610.72
528.857	1608.59
529.062	1659.54
529.268	1642.1
529.473	1673.88
529.679	1656.44
529.884	1725.61
530.09	1685.31
530.295	1683.57
530.501	1739.17
530.706	1719.41
530.912	1653.15
531.117	1718.44
531.323	1707.2
531.528	1749.25
531.733	1787.22
531.939	1754.09
532.144	1781.6
532.35	1766.3
532.555	1806.21
532.76	1772.88
532.966	1761.65
533.171	1713.79
533.376	1688.8
533.581	1706.04
533.787	1719.8
533.992	1785.48
534.197	1798.46
534.402	1749.44
534.607	1810.66
534.813	1880.22
535.018	1791.1
535.223	1819.77
535.428	1837.01
535.633	1864.14
535.838	1873.44
536.043	1863.95
536.249	1949.39
536.454	1887.19
536.659	1906.76
536.864	1852.71
537.069	1867.63
537.274	1880.8
537.479	1899.98
537.684	1863.75
537.889	1836.82
538.094	1989.69
538.299	1898.24
538.504	1911.8
538.708	1901.73
538.913	1922.26
539.118	1929.82
539.323	1933.69
539.528	1869.18
539.733	1899.79
539.938	1914.9
540.142	1927.69
540.347	1933.11
540.552	1877.31
540.757	1862.4
540.962	1905.21
541.166	1859.49
541.371	1840.89
541.576	1917.61
541.781	1807.37
541.985	1918.97
542.19	1914.71
542.395	1973.8
542.599	2014.1
542.804	1932.53
543.008	2003.64
543.213	1960.04
543.418	1922.07
543.622	1989.3
543.827	1918.78
544.031	2030.96
544.236	2019.52
544.44	1986.97
544.645	2061.57
544.849	1952.29
545.054	2027.86
545.258	2069.12
545.463	2077.07
545.667	2018.56
545.872	2024.95
546.076	2054.98
546.281	2035.02
546.485	2018.75
546.689	2046.65
546.894	2054.01
547.098	2035.41
547.302	2005.77
547.507	2048.39
547.711	2067.57
547.915	2087.14
548.119	2013.52
548.324	2016.42
548.528	2084.43
548.732	2058.85
548.936	2102.25
549.141	2095.28
549.345	2055.95
549.549	2070.29
549.753	2093.15
549.957	2140.62
550.161	2137.52
550.366	2127.44
550.57	2031.34
550.774	2060.6
550.978	2101.48
551.182	2134.22
551.386	2066.99
551.59	2074.74
551.794	2081.14
551.998	2132.67
552.202	2104.97
552.406	2084.82
552.61	2149.92
552.814	2114.27
553.018	2128.22
553.222	2092.95
553.426	2081.14
553.63	2157.28
553.833	2068.35
554.037	2059.05
554.241	2126.86
554.445	2119.11
554.649	2091.6
554.853	2048.59
555.056	2125.89
555.26	2129.96
555.464	2101.09
555.668	2088.5
555.871	2149.33
556.075	2142.17
556.279	2127.44
556.483	2083.46
556.686	2107.29
556.89	2048.97
557.094	2085.01
557.297	2025.92
557.501	2110.39
557.704	2011.19
557.908	2054.4
558.112	1995.31
558.315	2098.19
558.519	2056.14
558.722	2058.27
558.926	2003.44
559.129	1945.71
559.333	1938.73
559.536	1943.19
559.74	1929.82
559.943	1936.99
560.147	1950.94
560.35	1948.81
560.553	1954.23
560.757	1934.28
560.96	2035.22
561.164	1976.71
561.367	2036.96
561.57	1961.98
561.774	1972.83
561.977	1970.7
562.18	1971.47
562.384	2047.81
562.587	1947.26
562.79	1932.73
562.993	1965.66
563.197	1956.75
563.4	1977.29
563.603	2004.61
563.806	1994.72
564.009	1919.94
564.212	1966.63
564.416	1842.83
564.619	1958.11
564.822	1883.32
565.025	1938.15
565.228	1898.82
565.431	1905.02
565.634	1821.71
565.837	1868.6
566.04	1843.41
566.243	1815.12
566.446	1748.47
566.649	1861.81
566.852	1759.9
567.055	1799.04
567.258	1833.72
567.461	1908.89
567.664	1878.48
567.867	1764.75
568.07	1835.46
568.273	1820.55
568.475	1860.07
568.678	1754.67
568.881	1759.71
569.084	1740.14
569.287	1684.15
569.489	1669.04
569.692	1728.32
569.895	1769.78
570.098	1650.24
570.3	1668.26
570.503	1584.17
570.706	1608.2
570.909	1614.79
571.111	1568.09
571.314	1560.34
571.516	1618.85
571.719	1652.95
571.922	1597.93
572.124	1590.76
572.327	1625.25
572.529	1566.93
572.732	1598.32
572.935	1580.3
573.137	1673.88
573.34	1575.65
573.542	1597.16
573.745	1600.45
573.947	1605.49
574.15	1549.49
574.352	1567.9
574.554	1652.95
574.757	1515.2
574.959	1493.5
575.162	1523.92
575.364	1506.29
575.566	1601.81
575.769	1508.81
575.971	1529.34
576.173	1453.2
576.376	1495.83
576.578	1511.13
576.78	1556.86
576.982	1440.8
577.185	1485.56
577.387	1474.51
577.589	1438.86
577.791	1472.38
577.993	1473.16
578.196	1482.07
578.398	1465.6
578.6	1465.21
578.802	1399.73
579.004	1422.4
579.206	1402.63
579.408	1440.03
579.61	1394.69
579.812	1486.53
580.014	1422.4
580.216	1421.04
580.418	1477.81
580.62	1432.08
580.822	1384.42
581.024	1423.36
581.226	1482.46
581.428	1417.94
581.63	1491.18
581.832	1397.6
582.034	1493.5
582.236	1460.56
582.438	1461.14
582.64	1483.23
582.841	1533.22
583.043	1561.12
583.245	1485.17
583.447	1461.14
583.649	1445.26
583.85	1426.85
584.052	1470.06
584.254	1432.86
584.456	1489.04
584.657	1386.94
584.859	1439.83
585.061	1403.21
585.262	1390.62
585.464	1390.23
585.666	1446.23
585.867	1391.4
586.069	1453.59
586.27	1402.83
586.472	1418.71
586.674	1375.7
586.875	1369.5
587.077	1399.53
587.278	1360.01
587.48	1379.19
587.681	1499.7
587.883	1393.91
588.084	1320.29
588.285	1379.77
588.487	1362.53
588.688	1365.24
588.89	1268.56
589.091	1226.71
589.292	1250.54
589.494	1213.15
589.695	1208.11
589.896	1145.53
590.098	1147.47
590.299	1193.19
590.5	1160.06
590.702	1177.31
590.903	1232.91
591.104	1288.52
591.305	1270.3
591.507	1263.14
591.708	1283.67
591.909	1240.85
592.11	1283.67
592.311	1291.42
592.512	1230
592.714	1190.67
592.915	1257.13
593.116	1249.38
593.317	1256.35
593.518	1275.53
593.719	1271.08
593.92	1308.67
594.121	1305.18
594.322	1286.58
594.523	1255
594.724	1182.54
594.925	1226.32
595.126	1271.08
595.327	1265.07
595.528	1240.66
595.729	1242.79
595.929	1248.99
596.13	1253.06
596.331	1266.43
596.532	1282.7
596.733	1307.5
596.934	1285.03
597.135	1286.19
597.335	1274.37
597.536	1204.04
597.737	1231.75
597.938	1215.47
598.138	1256.35
598.339	1237.37
598.54	1276.31
598.74	1216.83
598.941	1234.07
599.142	1279.8
599.342	1258.87
599.543	1217.02
599.744	1204.82
599.944	1254.03
600.145	1260.62
600.345	1233.3
600.546	1331.14
600.746	1260.62
600.947	1307.89
601.147	1214.31
601.348	1283.09
601.548	1218.77
601.749	1261.97
601.949	1231.55
602.15	1197.65
602.35	1224.97
602.551	1226.9
602.751	1211.99
602.951	1205.59
603.152	1169.17
603.352	1275.92
603.552	1216.05
603.753	1258.87
603.953	1262.94
604.153	1261.2
604.354	1243.76
604.554	1218.19
604.754	1242.21
604.954	1204.43
605.155	1257.52
605.355	1214.7
605.555	1248.02
605.755	1266.04
605.955	1195.52
606.155	1280.77
606.356	1210.24
606.556	1228.65
606.756	1211.21
606.956	1162.97
607.156	1279.22
607.356	1200.55
607.556	1235.82
607.756	1202.49
607.956	1223.03
608.156	1215.86
608.356	1161.61
608.556	1238.72
608.756	1164.13
608.956	1141.46
609.156	1180.4
609.356	1151.92
609.556	1172.07
609.755	1216.44
609.955	1167.81
610.155	1150.18
610.355	1178.27
610.555	1129.84
610.755	1152.51
610.954	1092.64
611.154	1137.97
611.354	1149.79
611.554	1134.1
611.753	1149.99
611.953	1087.02
612.153	1153.67
612.352	1154.06
612.552	1098.06
612.752	1050.01
612.951	1120.15
613.151	1099.22
613.351	1073.84
613.55	1109.69
613.75	1113.95
613.949	1064.93
614.149	1104.84
614.348	1069.58
614.548	1060.86
614.747	1029.86
614.947	1052.92
615.146	999.83
615.346	1080.82
615.545	1069.19
615.745	1080.43
615.944	1077.33
616.144	1016.49
616.343	1079.66
616.542	1025.21
616.742	1039.94
616.941	1033.35
617.14	988.01
617.34	1035.29
617.539	1023.47
617.738	1011.65
617.938	1076.56
618.137	1007.97
618.336	995.57
618.535	1056.21
618.734	1009.33
618.934	1013.98
619.133	1035.29
619.332	1035.87
619.531	999.64
619.73	989.95
619.929	1056.02
620.128	1037.03
620.328	1052.92
620.527	1008.36
620.726	1015.72
620.925	1031.41
621.124	1010.49
621.323	1020.56
621.522	992.47
621.721	966.9
621.92	984.53
622.119	1057.18
622.318	971.74
622.517	1001.77
622.715	972.13
622.914	938.8
623.113	963.6
623.312	918.65
623.511	964.96
623.71	946.16
623.909	929.31
624.107	1006.81
624.306	910.71
624.505	912.84
624.704	936.09
624.902	955.66
625.101	989.76
625.3	921.36
625.499	923.3
625.697	914.39
625.896	909.74
626.095	948.49
626.293	905.28
626.492	890.95
626.69	954.3
626.889	874.87
627.088	948.88
627.286	908.77
627.485	893.08
627.683	854.13
627.882	884.94
628.08	827.4
628.279	820.23
628.477	914.58
628.676	847.74
628.874	881.45
629.073	853.55
629.271	858.01
629.469	845.8
629.668	854.52
629.866	869.83
630.065	871.77
630.263	885.91
630.461	845.22
630.66	867.5
630.858	858.98
631.056	863.82
631.254	881.84
631.453	850.07
631.651	897.34
631.849	880.1
632.047	903.54
632.245	869.83
632.444	903.15
632.642	877.58
632.84	922.53
633.038	846.97
633.236	847.16
633.434	877.58
633.632	842.7
633.83	854.52
634.028	908.19
634.227	883
634.425	933.18
634.623	863.05
634.821	909.35
635.019	866.53
635.216	873.7
635.414	904.51
635.612	902.96
635.81	890.17
636.008	922.91
636.206	860.14
636.404	897.92
636.602	859.56
636.8	843.48
636.997	889.78
637.195	918.85
637.393	884.36
637.591	910.9
637.789	892.11
637.986	865.37
638.184	873.12
638.382	893.27
638.58	908.38
638.777	922.33
638.975	858.59
639.173	876.22
639.37	838.25
639.568	877.97
639.765	859.37
639.963	857.23
640.161	896.18
640.358	896.18
640.556	805.5
640.753	823.52
640.951	798.53
641.148	842.51
641.346	827.4
641.543	816.55
641.741	858.59
641.938	800.47
642.136	813.06
642.333	752.22
642.531	833.79
642.728	878.16
642.925	813.84
643.123	793.69
643.32	795.43
643.517	804.54
643.715	798.34
643.912	786.32
644.109	781.48
644.306	789.81
644.504	729.36
644.701	785.55
644.898	835.73
645.095	751.64
645.293	756.49
645.49	802.79
645.687	758.81
645.884	777.22
646.081	700.11
646.278	718.32
646.475	709.99
646.672	687.32
646.87	728.59
647.067	727.04
647.264	734.01
647.461	689.64
647.658	666.78
647.855	739.44
648.052	686.74
648.249	604.78
648.446	684.61
648.642	641.01
648.839	655.74
649.036	647.79
649.233	625.32
649.43	621.44
649.627	599.94
649.824	655.35
650.021	623.38
650.217	625.32
650.414	660.77
650.611	643.92
650.808	643.92
651.004	659.61
651.201	658.26
651.398	708.82
651.595	655.93
651.791	629.19
651.988	664.46
652.185	623.58
652.381	672.21
652.578	599.55
652.775	612.53
652.971	638.69
653.168	643.53
653.364	668.14
653.561	588.89
653.757	610.98
653.954	650.51
654.15	592.77
654.347	660
654.543	628.03
654.74	557.31
654.936	593.35
655.133	593.74
655.329	623.19
655.525	603.81
655.722	641.59
655.918	562.55
656.115	613.5
656.311	530
656.507	520.7
656.704	520.89
656.9	523.8
657.096	521.47
657.292	518.37
657.489	590.83
657.685	548.98
657.881	531.55
658.077	557.31
658.273	559.45
658.47	599.55
658.666	577.27
658.862	605.36
659.058	560.22
659.254	622.41
659.45	564.87
659.646	579.79
659.842	579.01
660.038	598.97
660.234	565.26
660.43	585.21
660.626	625.51
660.822	610.79
661.018	594.9
661.214	606.14
661.41	539.88
661.606	608.27
661.802	592.19
661.998	559.25
662.194	540.65
662.39	576.11
662.586	563.51
662.781	574.17
662.977	580.37
663.173	595.87
663.369	571.46
663.564	539.68
663.76	593.54
663.956	543.56
664.152	608.85
664.347	505.78
664.543	536.2
664.739	525.54
664.934	472.26
665.13	499
665.326	553.44
665.521	521.66
665.717	510.04
665.912	470.32
666.108	456.57
666.304	479.43
666.499	492.02
666.695	464.12
666.89	512.36
667.086	562.55
667.281	504.23
667.477	572.23
667.672	539.1
667.867	499.58
668.063	517.4
668.258	447.65
668.454	502.87
668.649	564.48
668.844	513.53
669.04	495.31
669.235	505.2
669.43	474.78
669.626	477.1
669.821	470.32
670.016	437.77
670.211	474.58
670.407	489.5
670.602	481.36
670.797	465.48
670.992	488.92
671.187	438.35
671.382	534.06
671.578	443.97
671.773	493.18
671.968	445.13
672.163	459.67
672.358	499.77
672.553	456.18
672.748	457.15
672.943	487.76
673.138	466.25
673.333	497.45
673.528	434.09
673.723	484.85
673.918	479.82
674.113	429.83
674.308	503.65
674.503	484.27
674.698	500.93
674.892	486.98
675.087	495.51
675.282	502.1
675.477	467.42
675.672	476.72
675.867	461.22
676.061	429.25
676.256	425.76
676.451	435.45
676.646	474
676.84	444.75
677.035	409.1
677.23	444.94
677.424	461.22
677.619	483.69
677.814	514.5
678.008	492.6
678.203	413.36
678.397	449.2
678.592	449.78
678.787	502.48
678.981	439.32
679.176	482.91
679.37	451.53
679.565	411.62
679.759	447.85
679.954	472.26
680.148	500.93
680.342	497.83
680.537	469.93
680.731	474.58
680.926	469.55
681.12	497.64
681.314	411.62
681.509	433.32
681.703	489.31
681.897	483.11
682.092	454.05
682.286	444.94
682.48	536.2
682.674	469.16
682.869	450.56
683.063	489.11
683.257	525.73
683.451	466.45
683.645	478.07
683.839	505.58
684.034	481.17
684.228	523.41
684.422	475.36
684.616	439.13
684.81	496.86
685.004	488.34
685.198	481.36
685.392	528.83
685.586	482.72
685.78	489.31
685.974	529.61
686.168	502.87
686.362	522.25
686.556	470.71
686.75	457.73
686.944	466.64
687.138	475.75
687.331	381.59
687.525	407.35
687.719	353.1
687.913	408.71
688.107	433.7
688.301	417.04
688.494	476.33
688.688	398.44
688.882	391.27
689.076	404.06
689.269	438.93
689.463	517.4
689.657	471.1
689.85	433.9
690.044	480.01
690.238	480.2
690.431	471.29
690.625	463.54
690.818	527.86
691.012	514.88
691.205	550.92
691.399	541.81
691.593	557.12
691.786	621.25
691.98	637.72
692.173	659.61
692.366	645.66
692.56	636.36
692.753	703.21
692.947	627.45
693.14	686.93
693.333	686.16
693.527	660.97
693.72	707.08
693.914	696.81
694.107	716.96
694.3	734.98
694.493	712.51
694.687	752.8
694.88	742.34
695.073	800.66
695.266	796.59
695.46	788.07
695.653	848.32
695.846	857.62
696.039	812.48
696.232	866.73
696.425	879.52
696.618	895.21
696.812	923.3
697.005	954.3
697.198	1057.57
697.391	974.84
697.584	1021.92
697.777	1084.89
697.97	1036.26
698.163	1088.38
698.356	1047.3
698.549	1153.67
698.742	1121.7
698.935	1082.18
699.127	1120.73
699.32	1104.65
699.513	1103.29
699.706	1139.72
699.899	1147.08
700.092	1156.19
700.285	1174.98
700.477	1128.29
700.67	1189.51
700.863	1217.02
701.056	1266.43
701.248	1290.45
701.441	1264.1
701.634	1249.38
701.826	1337.15
702.019	1270.5
702.212	1320.48
702.404	1324.36
702.597	1281.54
702.79	1301.69
702.982	1353.23
703.175	1390.04
703.367	1407.86
703.56	1451.26
703.752	1511.52
703.945	1478.39
704.137	1506.09
704.33	1515.39
704.522	1518.3
704.715	1551.43
704.907	1541.16
705.1	1592.51
705.292	1606.84
705.484	1570.03
705.677	1649.85
705.869	1640.36
706.061	1658.77
706.254	1714.95
706.446	1643.65
706.638	1695
706.831	1752.54
707.023	1716.5
707.215	1775.4
707.407	1779.86
707.599	1756.61
707.792	1824.03
707.984	1830.04
708.176	1837.98
708.368	1809.5
708.56	1886.03
708.752	1870.15
708.944	1851.16
709.136	1903.66
709.329	1901.34
709.521	1986.39
709.713	1949
709.905	2006.16
710.097	2005.19
710.289	1978.64
710.481	2051.49
710.672	2017.59
710.864	2024.95
711.056	2099.54
711.248	2087.92
711.44	2094.7
711.632	2093.15
711.824	2091.6
712.016	2161.35
712.207	2124.54
712.399	2149.53
712.591	2184.21
712.783	2208.62
712.975	2191.38
713.166	2155.15
713.358	2228
713.55	2249.7
713.741	2277.79
713.933	2229.74
714.125	2293.87
714.316	2260.93
714.508	2324.87
714.7	2272.36
714.891	2273.14
715.083	2359.36
715.274	2314.21
715.466	2304.33
715.657	2335.14
715.849	2278.37
716.04	2302.78
716.232	2248.34
716.423	2294.06
716.615	2183.82
716.806	2165.03
716.998	2131.32
717.189	2006.54
717.381	1967.79
717.572	1910.06
717.763	1947.84
717.955	1891.26
718.146	1851.74
718.337	1808.15
718.528	1771.53
718.72	1740.14
718.911	1764.55
719.102	1733.17
719.293	1771.72
719.485	1731.81
719.676	1723.48
719.867	1675.82
720.058	1670.39
720.249	1702.75
720.44	1717.86
720.632	1755.25
720.823	1831.4
721.014	1943.77
721.205	1981.36
721.396	2017.2
721.587	2169.29
721.778	2174.72
721.969	2226.45
722.16	2289.22
722.351	2299.68
722.542	2430.27
722.733	2391.71
722.924	2333.98
723.115	2365.56
723.305	2345.99
723.496	2369.04
723.687	2220.63
723.878	2261.13
724.069	2264.81
724.26	2255.51
724.45	2166.77
724.641	2181.88
724.832	2185.18
725.023	2163.09
725.213	2159.22
725.404	2178.01
725.595	2182.66
725.785	2137.13
725.976	2233.23
726.167	2201.84
726.357	2213.27
726.548	2268.68
726.739	2214.63
726.929	2274.5
727.12	2339.21
727.31	2304.53
727.501	2282.44
727.691	2281.47
727.882	2307.24
728.072	2330.49
728.263	2309.56
728.453	2415.74
728.644	2388.03
728.834	2366.53
729.024	2312.86
729.215	2314.8
729.405	2357.81
729.596	2398.88
729.786	2436.47
729.976	2409.92
730.167	2447.32
730.357	2443.44
730.547	2441.51
730.737	2489.56
730.928	2514.94
731.118	2568.8
731.308	2479.29
731.498	2483.55
731.688	2577.13
731.879	2552.91
732.069	2615.3
732.259	2666.45
732.449	2700.35
732.639	2788.89
732.829	2814.66
733.019	2798.97
733.209	2901.46
733.399	2926.07
733.589	2987.49
733.779	3059.75
733.969	3000.47
734.159	3100.25
734.349	3137.64
734.539	3170.19
734.729	3183.17
734.919	3223.28
735.109	3259.12
735.299	3156.43
735.488	3187.43
735.678	3174.06
735.868	3242.46
736.058	3210.1
736.248	3159.73
736.437	3180.85
736.627	3134.35
736.817	3264.74
737.007	3202.93
737.196	3259.89
737.386	3276.17
737.576	3221.92
737.765	3281.21
737.955	3235.87
738.144	3397.65
738.334	3344.56
738.524	3297.29
738.713	3288.37
738.903	3289.15
739.092	3396.87
739.282	3313.37
739.471	3378.66
739.661	3335.84
739.85	3390.87
740.04	3410.44
740.229	3443.18
740.419	3450.74
740.608	3444.15
740.797	3427.29
740.987	3538.31
741.176	3518.16
741.365	3425.94
741.555	3424.19
741.744	3513.9
741.933	3481.73
742.123	3510.8
742.312	3526.88
742.501	3563.69
742.69	3560.59
742.88	3455.77
743.069	3602.25
743.258	3530.17
743.447	3623.36
743.636	3591.4
743.825	3601.66
744.014	3619.3
744.204	3615.42
744.393	3534.82
744.582	3646.23
744.771	3623.17
744.96	3637.12
745.149	3646.42
745.338	3617.36
745.527	3679.94
745.716	3603.21
745.905	3598.76
746.094	3649.13
746.283	3633.44
746.471	3623.75
746.66	3669.09
746.849	3681.88
747.038	3694.66
747.227	3652.04
747.416	3690.4
747.604	3638.48
747.793	3647.58
747.982	3662.11
748.171	3627.24
748.359	3673.16
748.548	3685.36
748.737	3653.2
748.926	3673.93
749.114	3570.47
749.303	3646.61
749.491	3630.53
749.68	3566.79
749.869	3670.64
750.057	3608.06
750.246	3591.2
750.434	3645.64
750.623	3599.73
750.811	3588.1
751	3622.78
751.188	3608.83
751.377	3598.37
751.565	3560.78
751.754	3554.97
751.942	3567.95
752.131	3612.71
752.319	3541.41
752.507	3547.22
752.696	3561.17
752.884	3620.85
753.072	3549.55
753.261	3567.95
753.449	3564.27
753.637	3499.95
753.825	3656.69
754.014	3577.45
754.202	3571.25
754.39	3589.46
754.578	3544.31
754.766	3492
754.955	3525.91
755.143	3615.03
755.331	3541.99
755.519	3553.23
755.707	3547.61
755.895	3486.38
756.083	3507.12
756.271	3439.5
756.459	3479.8
756.647	3488.9
756.835	3480.96
757.023	3429.42
757.211	3514.28
757.399	3426.52
757.587	3486.38
757.775	3399.2
757.963	3476.7
758.151	3452.28
758.339	3331
758.526	3347.47
758.714	3404.43
758.902	3278.88
759.09	3212.04
759.278	2986.32
759.465	2741.62
759.653	2362.84
759.841	2168.52
760.028	1818.41
760.216	1607.04
760.404	1505.51
760.591	1252.09
760.779	1048.66
760.967	930.08
761.154	749.12
761.342	774.89
761.529	753.58
761.717	826.62
761.905	796.79
762.092	856.27
762.28	778.57
762.467	766.56
762.655	699.33
762.842	710.96
763.029	745.05
763.217	754.35
763.404	727.42
763.592	786.13
763.779	729.94
763.966	783.42
764.154	813.25
764.341	880.68
764.528	862.27
764.716	937.64
764.903	1000.61
765.09	1054.47
765.277	1124.99
765.465	1246.47
765.652	1294.52
765.839	1377.64
766.026	1528.57
766.213	1607.42
766.4	1682.21
766.588	1851.55
766.775	1913.93
766.962	2037.35
767.149	2107.1
767.336	2241.36
767.523	2248.92
767.71	2397.91
767.897	2482.39
768.084	2582.17
768.271	2584.3
768.458	2648.23
768.645	2715.46
768.832	2716.43
769.019	2732.9
769.206	2787.73
769.392	2870.85
769.579	2934.4
769.766	2889.84
769.953	2919.09
770.14	3002.4
770.327	2961.14
770.513	3028.37
770.7	3046.38
770.887	2971.4
771.073	3039.8
771.26	3025.85
771.447	2971.79
771.634	2990
771.82	3108.38
772.007	2992.33
772.193	3080.68
772.38	3077.19
772.567	3085.33
772.753	3015.19
772.94	3084.55
773.126	3082.03
773.313	3075.06
773.499	3062.27
773.686	3149.26
773.872	2982.45
774.059	3085.13
774.245	3038.63
774.432	3028.75
774.618	2993.88
774.804	3040.96
774.991	2994.85
775.177	3021.97
775.363	3002.4
775.55	3031.08
775.736	2958.81
775.922	3010.15
776.109	2987.68
776.295	3012.87
776.481	3050.65
776.667	3027.98
776.853	2959.78
777.04	2967.92
777.226	2997.95
777.412	3049.87
777.598	2932.46
777.784	2970.44
777.97	2936.14
778.156	3018.29
778.342	2970.44
778.528	2892.94
778.715	2864.65
778.901	2934.98
779.087	2913.09
779.272	2922
779.458	2872.79
779.644	2925.1
779.83	2899.33
780.016	2952.42
780.202	2884.22
780.388	2857.67
780.574	2818.15
780.76	2854.38
780.946	2885.77
781.131	2861.16
781.317	2873.95
781.503	2787.93
781.689	2799.16
781.874	2947.38
782.06	2800.71
782.246	2841.01
782.432	2803.62
782.617	2847.21
782.803	2875.11
782.989	2757.31
783.174	2798.97
783.36	2710.62
783.545	2775.14
783.731	2778.82
783.916	2684.08
784.102	2775.53
784.288	2742.98
784.473	2730.96
784.659	2725.54
784.844	2726.12
785.029	2691.05
785.215	2699.38
785.4	2619.75
785.586	2727.09
785.771	2643.97
785.956	2701.13
786.142	2676.91
786.327	2653.27
786.512	2671.48
786.698	2642.03
786.883	2562.99
787.068	2596.12
787.254	2644.55
787.439	2587.59
787.624	2570.35
787.809	2525.79
787.994	2550
788.18	2642.03
788.365	2501.95
788.55	2558.34
788.735	2544
788.92	2542.25
789.105	2509.51
789.29	2525.98
789.475	2457.78
789.66	2508.35
789.845	2465.72
790.03	2461.07
790.215	2485.68
790.4	2467.27
790.585	2534.89
790.77	2452.94
790.955	2388.23
791.14	2446.16
791.325	2517.07
791.51	2419.42
791.695	2432.21
791.879	2423.29
792.064	2378.93
792.249	2483.94
792.434	2465.14
792.618	2427.17
792.803	2447.9
792.988	2424.26
793.173	2437.05
793.357	2458.94
793.542	2428.14
793.727	2443.25
793.911	2498.08
794.096	2403.53
794.281	2474.06
794.465	2526.17
794.65	2424.46
794.834	2477.54
795.019	2560.27
795.203	2533.92
795.388	2467.86
795.572	2482.97
795.757	2506.8
795.941	2500.99
796.126	2484.52
796.31	2414.77
796.494	2466.11
796.679	2409.34
796.863	2401.4
797.048	2439.57
797.232	2464.76
797.416	2488.01
797.601	2488.59
797.785	2537.41
797.969	2506.8
798.153	2475.22
798.338	2485.29
798.522	2534.5
798.706	2555.24
798.89	2560.66
799.074	2590.88
799.258	2589.92
799.443	2504.09
799.627	2562.02
799.811	2527.34
799.995	2520.55
800.179	2492.46
800.363	2478.71
800.547	2521.52
800.731	2519.97
800.915	2450.42
801.099	2460.49
801.283	2460.69
801.467	2455.46
801.651	2494.2
801.835	2529.08
802.019	2464.76
802.202	2500.4
802.386	2444.99
802.57	2398.88
802.754	2446.93
802.938	2438.41
803.121	2412.83
803.305	2540.7
803.489	2470.37
803.673	2482.97
803.856	2505.44
804.04	2412.06
804.224	2466.69
804.407	2407.02
804.591	2389.58
804.775	2432.79
804.958	2464.56
805.142	2578.29
805.326	2451
805.509	2479.67
805.693	2513
805.876	2491.49
806.06	2488.97
806.243	2507.19
806.427	2504.47
806.61	2549.42
806.794	2524.62
806.977	2522.3
807.16	2521.14
807.344	2526.95
807.527	2515.13
807.71	2486.65
807.894	2507.96
808.077	2534.12
808.26	2464.56
808.444	2473.09
808.627	2538.96
808.81	2433.37
808.993	2377.18
809.177	2363.04
809.36	2420.77
809.543	2411.09
809.726	2320.61
809.909	2320.99
810.092	2287.48
810.276	2325.06
810.459	2342.69
810.642	2310.73
810.825	2264.23
811.008	2328.16
811.191	2195.25
811.374	2235.55
811.557	2194.28
811.74	2283.6
811.923	2171.23
812.106	2166.58
812.289	2141
812.472	2110.39
812.654	2169.87
812.837	2087.72
813.02	2055.17
813.203	2056.14
813.386	1916.06
813.569	1889.71
813.751	1849.8
813.934	1888.55
814.117	1872.47
814.3	1832.36
814.482	1786.83
814.665	1731.03
814.848	1733.75
815.03	1665.74
815.213	1633.77
815.396	1629.9
815.578	1601.81
815.761	1614.01
815.943	1641.52
816.126	1557.63
816.309	1535.35
816.491	1478
816.674	1401.86
816.856	1460.76
817.039	1432.08
817.221	1531.28
817.403	1458.63
817.586	1482.26
817.768	1552.21
817.951	1399.34
818.133	1414.26
818.315	1464.05
818.498	1501.83
818.68	1550.85
818.862	1530.12
819.045	1537.48
819.227	1538.84
819.409	1491.18
819.591	1545.81
819.774	1521.01
819.956	1486.53
820.138	1580.3
820.32	1583.79
820.502	1625.64
820.684	1690.35
820.866	1694.42
821.048	1726.58
821.231	1762.42
821.413	1773.47
821.595	1717.67
821.777	1731.81
821.959	1727.55
822.141	1788.19
822.323	1640.17
822.505	1594.06
822.686	1529.73
822.868	1480.52
823.05	1344.7
823.232	1351.29
823.414	1271.66
823.596	1343.73
823.778	1356.71
823.96	1367.56
824.141	1379.19
824.323	1412.51
824.505	1426.08
824.687	1522.18
824.868	1578.56
825.05	1656.83
825.232	1613.24
825.413	1749.63
825.595	1696.94
825.777	1665.16
825.958	1677.75
826.14	1657.02
826.321	1694.03
826.503	1670.39
826.685	1686.09
826.866	1715.53
827.048	1718.05
827.229	1658.77
827.411	1631.06
827.592	1546.01
827.773	1593.09
827.955	1556.08
828.136	1521.98
828.318	1504.74
828.499	1514.43
828.68	1467.54
828.862	1531.28
829.043	1549.88
829.224	1472.58
829.406	1490.59
829.587	1470.83
829.768	1491.18
829.949	1503.38
830.131	1500.09
830.312	1546.78
830.493	1519.08
830.674	1514.43
830.855	1520.43
831.036	1530.7
831.218	1558.41
831.399	1594.64
831.58	1515.98
831.761	1551.04
831.942	1533.99
832.123	1539.61
832.304	1460.56
832.485	1487.49
832.666	1506.87
832.847	1529.73
833.028	1516.17
833.209	1520.63
833.389	1495.05
833.57	1445.06
833.751	1453.59
833.932	1537.29
834.113	1501.44
834.294	1520.43
834.475	1526.63
834.655	1569.06
834.836	1577.59
835.017	1536.51
835.198	1512.29
835.378	1563.83
835.559	1605.49
835.74	1524.89
835.92	1528.96
836.101	1535.74
836.281	1606.84
836.462	1589.99
836.643	1577.78
836.823	1615.37
837.004	1616.34
837.184	1652.18
837.365	1644.04
837.545	1638.62
837.726	1620.99
837.906	1634.55
838.087	1589.79
838.267	1570.81
838.448	1534.38
838.628	1617.3
838.808	1610.72
838.989	1636.68
839.169	1575.84
839.349	1600.64
839.53	1630.29
839.71	1613.43
839.89	1595.02
840.07	1662.84
840.251	1586.31
840.431	1604.13
840.611	1588.24
840.791	1569.84
840.971	1603.55
841.151	1575.26
841.332	1546.2
841.512	1617.3
841.692	1539.42
841.872	1604.52
842.052	1572.55
842.232	1646.75
842.412	1524.31
842.592	1567.9
842.772	1597.35
842.952	1595.02
843.132	1546.59
843.312	1550.85
843.492	1537.87
843.672	1580.3
843.851	1502.22
844.031	1554.72
844.211	1552.79
844.391	1519.27
844.571	1564.61
844.751	1532.83
844.93	1573.91
845.11	1515.39
845.29	1567.12
845.47	1599.09
845.649	1565.77
845.829	1591.73
846.009	1507.26
846.188	1554.72
846.368	1540.39
846.547	1557.44
846.727	1560.73
846.907	1515.01
847.086	1531.47
847.266	1594.64
847.445	1528.96
847.625	1487.69
847.804	1506.87
847.984	1564.22
848.163	1503.96
848.343	1522.56
848.522	1517.33
848.701	1525.86
848.881	1524.5
849.06	1529.92
849.239	1510.36
849.419	1511.33
849.598	1417.16
849.777	1438.67
849.957	1419.88
850.136	1384.03
850.315	1375.51
850.494	1342.18
850.674	1384.81
850.853	1449.52
851.032	1416.78
851.211	1467.34
851.39	1419.49
851.569	1388.1
851.748	1360.01
851.927	1431.89
852.107	1409.41
852.286	1365.43
852.465	1359.81
852.644	1432.47
852.823	1387.33
853.002	1417.75
853.181	1404.76
853.359	1398.18
853.538	1334.63
853.717	1452.04
853.896	1293.55
854.075	1264.3
854.254	1223.42
854.433	1185.25
854.611	1233.49
854.79	1192.8
854.969	1247.25
855.148	1226.9
855.327	1201.91
855.505	1235.82
855.684	1255.58
855.863	1286.58
856.041	1264.49
856.22	1329.59
856.399	1260.23
856.577	1360.01
856.756	1335.6
856.934	1399.15
857.113	1411.93
857.291	1364.85
857.47	1289.48
857.648	1338.5
857.827	1359.81
858.005	1400.7
858.184	1320.68
858.362	1375.12
858.541	1334.43
858.719	1352.07
858.898	1329.59
859.076	1310.99
859.254	1366.6
859.433	1317
859.611	1312.54
859.789	1265.46
859.967	1370.28
860.146	1348.58
860.324	1312.15
860.502	1285.61
860.68	1246.09
860.859	1273.21
861.037	1286.19
861.215	1311.57
861.393	1264.49
861.571	1288.32
861.749	1264.49
861.927	1294.72
862.105	1287.74
862.283	1274.76
862.461	1265.65
862.639	1199.78
862.817	1237.56
862.995	1286.38
863.173	1246.86
863.351	1281.73
863.529	1279.22
863.707	1279.99
863.885	1288.32
864.063	1209.47
864.241	1262.75
864.418	1275.92
864.596	1239.5
864.774	1178.27
864.952	1246.86
865.129	1268.75
865.307	1185.64
865.485	1197.26
865.663	1203.07
865.84	1153.28
866.018	1173.24
866.196	1050.79
866.373	1080.04
866.551	1049.82
866.728	1004.48
866.906	1061.25
867.084	1060.09
867.261	1107.17
867.439	1115.89
867.616	1141.46
867.794	1129.26
867.971	1144.76
868.149	1143.4
868.326	1171.11
868.503	1163.94
868.681	1169.17
868.858	1134.29
869.035	1134.87
869.213	1166.46
869.39	1148.63
869.567	1208.89
869.745	1124.02
869.922	1164.91
870.099	1141.66
870.276	1189.7
870.454	1170.14
870.631	1138.36
870.808	1118.99
870.985	1210.44
871.162	1193.58
871.339	1189.7
871.517	1086.63
871.694	1086.24
871.871	1134.1
872.048	1131.19
872.225	1094.77
872.402	1103.1
872.579	1086.44
872.756	1103.29
872.933	1090.51
873.11	1066.48
873.287	1122.28
873.463	1073.46
873.64	1092.25
873.817	1111.43
873.994	1126.74
874.171	1043.43
874.348	1077.53
874.524	1014.36
874.701	1070.94
874.878	1034.71
875.055	1063.58
875.231	1048.08
875.408	1104.65
875.585	1011.84
875.762	1070.16
875.938	1058.34
876.115	1057.18
876.291	1058.73
876.468	1027.15
876.645	1008.74
876.821	1011.65
876.998	1019.79
877.174	1014.56
877.351	1006.03
877.527	1032.96
877.704	1006.42
877.88	1046.14
878.057	971.55
878.233	1080.24
878.409	1002.55
878.586	1008.74
878.762	1000.41
878.938	982.78
879.115	911.48
879.291	1018.24
879.467	951.2
879.644	983.95
879.82	990.73
879.996	956.05
880.172	924.08
880.349	963.21
880.525	1013.01
880.701	915.17
880.877	955.27
881.053	944.03
881.229	969.03
881.405	988.21
881.581	942.48
881.757	960.89
881.933	984.91
882.109	1001.19
882.285	945.78
882.461	908.38
882.637	967.28
882.813	925.43
882.989	953.33
883.165	1004.48
883.341	949.26
883.517	978.52
883.693	947.52
883.869	976.78
884.044	938.8
884.22	995.57
884.396	1025.79
884.572	1014.94
884.747	1001.19
884.923	997.12
885.099	994.41
885.275	984.33
885.45	936.28
885.626	916.13
885.801	929.11
885.977	931.44
886.153	894.82
886.328	935.31
886.504	935.31
886.679	928.73
886.855	898.7
887.03	974.26
887.206	982.59
887.381	935.12
887.557	945.58
887.732	975.03
887.908	946.94
888.083	990.92
888.258	953.53
888.434	910.52
888.609	963.6
888.784	971.55
888.96	931.63
889.135	912.84
889.31	931.63
889.485	945.58
889.661	948.88
889.836	972.51
890.011	968.45
890.186	932.41
890.361	903.73
890.537	949.65
890.712	948.1
890.887	960.11
891.062	938.22
891.237	988.98
891.412	895.6
891.587	943.06
891.762	963.21
891.937	970.38
892.112	881.45
892.287	911.1
892.462	876.42
892.637	873.32
892.812	839.6
892.987	877
893.161	835.53
893.336	847.93
893.511	874.28
893.686	882.23
893.861	847.93
894.035	843.09
894.21	823.33
894.385	819.45
894.56	841.15
894.734	789.23
894.909	772.95
895.084	754.74
895.258	736.53
895.433	757.07
895.608	754.74
895.782	685.57
895.957	746.8
896.131	721.42
896.306	636.56
896.48	651.86
896.655	657.09
896.829	602.46
897.004	581.14
897.178	621.06
897.353	587.54
897.527	661.36
897.701	634.43
897.876	582.69
898.05	648.76
898.224	639.27
898.399	672.4
898.573	593.74
898.747	495.7
898.921	562.35
899.096	494.93
899.27	475.55
899.444	493.76
899.618	527.28
899.792	536.97
899.967	565.45
900.141	598.97
900.315	519.73
900.489	531.35
900.663	547.63
900.837	532.71
901.011	482.91
901.185	602.46
901.359	516.24
901.533	560.61
901.707	540.85
901.881	549.76
902.055	493.57
902.229	535.81
902.403	572.04
902.576	563.71
902.75	546.46
902.924	604.98
903.098	588.31
903.272	623.96
903.446	676.86
903.619	682.67
903.793	705.72
903.967	654.96
904.14	664.07
904.314	694.87
904.488	654.77
904.661	696.23
904.835	685.19
905.009	700.88
905.182	725.68
905.356	719.09
905.529	703.01
905.703	666.78
905.876	653.8
906.05	643.34
906.223	622.99
906.397	554.6
906.57	539.3
906.744	540.65
906.917	537.75
907.09	522.44
907.264	541.23
907.437	485.05
907.61	483.3
907.784	498.22
907.957	509.65
908.13	494.54
908.304	519.15
908.477	472.84
908.65	500.35
908.823	436.8
908.996	503.84
909.17	442.03
909.343	467.61
909.516	472.45
909.689	470.71
909.862	463.93
910.035	462.38
910.208	442.23
910.381	433.12
910.554	538.52
910.727	456.37
910.9	458.7
911.073	433.51
911.246	527.86
911.419	546.46
911.592	503.06
911.765	454.05
911.938	428.67
912.11	452.3
912.283	470.9
912.456	506.94
912.629	489.7
912.802	446.88
912.974	391.27
913.147	351.75
913.32	322.49
913.493	354.65
913.665	404.83
913.838	389.92
914.01	394.76
914.183	419.56
914.356	376.94
914.528	426.15
914.701	483.3
914.873	422.08
915.046	394.37
915.218	384.69
915.391	292.46
915.563	327.34
915.736	378.29
915.908	387.59
916.081	380.04
916.253	377.52
916.425	396.7
916.598	387.98
916.77	421.88
916.942	366.28
917.115	327.92
917.287	382.75
917.459	366.67
917.632	340.32
917.804	277.35
917.976	372.87
918.148	417.62
918.32	394.95
918.493	402.12
918.665	444.75
918.837	432.15
919.009	449.01
919.181	469.93
919.353	439.9
919.525	413.36
919.697	419.95
919.869	412
920.041	464.7
920.213	531.55
920.385	493.96
920.557	428.47
920.729	464.12
920.901	452.3
921.073	430.99
921.244	415.49
921.416	498.8
921.588	447.27
921.76	418.2
921.932	475.75
922.103	415.3
922.275	442.03
922.447	480.59
922.619	368.99
922.79	404.25
922.962	409.29
923.134	426.34
923.305	381.39
923.477	369.38
923.648	365.12
923.82	376.55
923.991	340.7
924.163	307.57
924.335	373.84
924.506	354.27
924.677	411.81
924.849	350.2
925.02	384.69
925.192	395.73
925.363	354.65
925.535	384.1
925.706	328.11
925.877	388.56
926.049	329.66
926.22	385.85
926.391	362.21
926.562	377.71
926.734	331.02
926.905	397.67
927.076	298.86
927.247	332.18
927.419	294.21
927.59	287.04
927.761	302.34
927.932	284.71
928.103	341.87
928.274	245.77
928.445	249.26
928.616	254.29
928.787	280.06
928.958	280.45
929.129	272.31
929.3	261.07
929.471	204.5
929.642	168.85
929.813	145.21
929.984	215.54
930.155	159.36
930.326	173.31
930.496	152.58
930.667	129.33
930.838	152.96
931.009	115.96
931.18	114.8
931.35	118.48
931.521	113.63
931.692	96.78
931.863	53.38
932.033	109.76
932.204	97.94
932.374	130.68
932.545	51.05
932.716	108.01
932.886	118.09
933.057	41.17
933.227	48.92
933.398	120.22
933.568	35.36
933.739	37.88
933.909	41.37
934.08	57.25
934.25	-12.5
934.421	19.67
934.591	67.33
934.761	34.39
934.932	5.33
935.102	20.25
935.272	37.68
935.443	25.87
935.613	26.45
935.783	60.55
935.953	8.23
936.123	152.58
936.294	21.22
936.464	36.91
936.634	27.42
936.804	7.27
936.974	-7.85
937.144	70.43
937.314	67.13
937.484	6.88
937.655	4.17
937.825	74.3
937.995	7.07
938.165	83.41
938.334	33.03
938.504	36.91
938.674	24.12
938.844	68.49
939.014	87.48
939.184	92.71
939.354	114.02
939.524	136.88
939.694	57.25
939.863	80.11
940.033	147.54
940.203	123.32
940.373	112.47
940.542	104.72
940.712	58.8
940.882	105.88
941.051	136.69
941.221	86.51
941.391	104.72
941.56	48.34
941.73	64.23
941.899	169.24
942.069	52.6
942.238	108.6
942.408	66.36
942.577	111.5
942.747	80.5
942.916	38.46
943.086	66.55
943.255	82.05
943.425	102.2
943.594	49.89
943.763	21.22
943.933	28.19
944.102	6.88
944.271	62.68
944.441	75.85
944.61	58.22
944.779	45.63
944.948	123.9
945.117	35.36
945.287	20.63
945.456	-2.81
945.625	20.44
945.794	65.2
945.963	31.29
946.132	78.18
946.301	57.45
946.47	83.21
946.639	13.27
946.808	21.41
946.977	102.78
947.146	96.39
947.315	53.18
947.484	62.48
947.653	54.73
947.822	62.87
947.991	51.63
948.16	120.22
948.329	125.06
948.498	31.1
948.666	31.48
948.835	80.7
949.004	15.4
949.173	37.68
949.341	82.44
949.51	82.25
949.679	95.81
949.847	92.32
950.016	150.83
950.185	99.68
950.353	42.92
950.522	59
950.69	96.39
950.859	85.15
951.028	90
951.196	80.31
951.365	47.56
951.533	67.91
951.701	98.52
951.87	77.98
952.038	27.8
952.207	76.43
952.375	124.87
952.543	21.22
952.712	64.61
952.88	29.93
953.048	134.75
953.217	49.5
953.385	58.22
953.553	95.23
953.721	46.98
953.89	48.92
954.058	31.29
954.226	33.03
954.394	52.99
954.562	0.48
954.73	57.83
954.898	43.69
955.067	75.66
955.235	33.42
955.403	78.76
955.571	103.36
955.739	75.08
955.907	34.2
956.075	53.18
956.243	31.1
956.41	66.16
956.578	27.61
956.746	17.15
956.914	59
957.082	83.41
957.25	71.4
957.418	75.85
957.585	81.47
957.753	107.82
957.921	62.48
958.089	60.74
958.256	115.38
958.424	65.2
958.592	91.93
958.759	59.77
958.927	93.48
959.095	51.05
959.262	67.33
959.43	67.71
959.597	43.88
959.765	62.68
959.932	36.33
960.1	71.98
960.267	64.42
960.435	62.48
960.602	106.46
960.77	65.58
960.937	30.71
961.104	55.7
961.272	16.37
961.439	76.05
961.606	80.89
961.774	89.41
961.941	40.59
962.108	53.96
962.275	70.43
962.443	84.76
962.61	89.61
962.777	119.64
962.944	94.84
963.111	82.05
963.278	76.63
963.446	90.38
963.613	64.42
963.78	109.18
963.947	87.09
964.114	78.18
964.281	141.14
964.448	114.8
964.615	29.93
964.782	119.06
964.949	98.52
965.116	115.96
965.282	130.68
965.449	74.3
965.616	56.48
965.783	105.3
965.95	80.7
966.117	60.16
966.283	76.05
966.45	105.88
966.617	100.46
966.784	103.36
966.95	102.78
967.117	113.44
967.284	81.66
967.45	62.48
967.617	134.75
967.784	99.49
967.95	153.74
968.117	94.84
968.283	124.29
968.45	176.79
968.616	91.16
968.783	154.71
968.949	84.57
969.116	140.56
969.282	78.18
969.449	115.38
969.615	111.5
969.781	82.05
969.948	89.41
970.114	69.07
970.28	150.44
970.447	80.11
970.613	140.76
970.779	95.61
970.945	118.67
971.112	111.31
971.278	139.21
971.444	91.16
971.61	142.5
971.776	95.81
971.942	133.39
972.108	133.98
972.275	99.1
972.441	123.9
972.607	152.77
972.773	83.21
972.939	129.33
973.105	92.13
973.271	69.85
973.437	96.58
973.602	74.5
973.768	106.08
973.934	85.54
974.1	119.83
974.266	30.32
974.432	110.34
974.598	86.7
974.763	94.26
974.929	71.98
975.095	148.51
975.261	53.38
975.426	75.66
975.592	74.5
975.758	143.08
975.923	35.55
976.089	53.76
976.255	115.76
976.42	77.6
976.586	99.68
976.751	90.19
976.917	155.68
977.082	126.23
977.248	52.21
977.413	72.36
977.579	79.34
977.744	86.9
977.91	55.31
978.075	83.41
978.24	102.59
978.406	101.62
978.571	60.55
978.736	52.99
978.902	112.28
979.067	56.48
979.232	47.76
979.397	100.26
979.563	135.14
979.728	62.68
979.893	78.95
980.058	99.49
980.223	117.7
980.388	62.87
980.554	89.8
980.719	62.29
980.884	70.62
981.049	126.03
981.214	67.91
981.379	112.66
981.544	72.17
981.709	84.76
981.874	60.74
982.039	102.98
982.204	83.02
982.368	95.81
982.533	66.55
982.698	120.41
982.863	113.05
983.028	84.96
983.193	76.05
983.357	108.4
983.522	74.88
983.687	72.56
983.852	73.72
984.016	83.21
984.181	91.93
984.346	91.93
984.51	114.41
984.675	79.34
984.839	102.59
985.004	96.78
985.168	125.26
985.333	118.86
985.498	57.45
985.662	87.48
985.827	109.18
985.991	58.8
986.155	77.98
986.32	131.26
986.484	120.41
986.649	97.55
986.813	38.65
986.977	96.58
987.142	77.98
987.306	46.98
987.47	71.2
987.634	96.39
987.799	70.23
987.963	86.51
988.127	99.49
988.291	159.16
988.455	81.28
988.62	71.59
988.784	104.14
988.948	88.06
989.112	63.84
989.276	77.01
989.44	76.43
989.604	57.25
989.768	33.62
989.932	166.33
990.096	48.92
990.26	32.45
990.424	47.76
990.588	90.96
990.752	144.83
990.915	67.71
991.079	58.03
991.243	60.35
991.407	117.12
991.571	83.99
991.734	75.66
991.898	90.58
992.062	171.95
992.226	88.83
992.389	61.32
992.553	55.31
992.717	63.65
992.88	49.7
993.044	73.72
993.207	85.73
993.371	95.42
993.535	102.01
993.698	74.69
993.862	95.03
994.025	123.71
994.189	114.99
994.352	89.61
994.515	73.91
994.679	116.35
994.842	59.38
995.006	101.81
995.169	43.5
995.332	58.03
995.496	119.64
995.659	26.45
995.822	77.21
995.985	56.09
996.149	134.17
996.312	103.17
996.475	129.91
996.638	50.28
996.801	119.83
996.964	122.93
997.128	89.61
997.291	78.95
997.454	67.91
997.617	40.01
997.78	100.07
997.943	67.52
998.106	96.39
998.269	31.29
998.432	56.67
998.595	56.28
998.758	34.97
998.92	32.07
999.083	35.36
999.246	52.02
999.409	59.58
999.572	22.96
999.735	56.28
999.897	71.78
1000.06	52.21
1000.223	34.78
1000.386	105.11
1000.548	53.57
1000.711	100.65
1000.874	85.93
1001.036	20.25
1001.199	86.9
1001.361	48.34
1001.524	45.82
1001.687	89.41
1001.849	32.84
1002.012	63.26
1002.174	76.24
1002.337	78.56
1002.499	78.56
1002.661	96.97
1002.824	25.28
1002.986	46.98
1003.149	61.71
1003.311	41.56
1003.473	97.16
1003.636	29.35
1003.798	87.09
1003.96	71.01
1004.123	63.45
1004.285	41.17
1004.447	55.31
1004.609	59.77
1004.771	98.33
1004.933	11.72
1005.096	24.9
1005.258	24.32
1005.42	29.16
1005.582	77.6
1005.744	69.46
1005.906	22.18
1006.068	40.2
1006.23	17.73
1006.392	8.43
1006.554	36.33
1006.716	78.76
1006.878	43.88
1007.04	42.14
1007.202	57.25
1007.363	83.6
1007.525	54.93
1007.687	53.57
1007.849	82.44
1008.011	8.82
1008.172	19.28
1008.334	47.18
1008.496	70.43
1008.658	22.18
1008.819	19.47
1008.981	29.55
1009.143	8.23
1009.304	32.45
1009.466	48.53
1009.627	89.41
1009.789	140.95
1009.95	46.4
1010.112	24.9
1010.273	57.64
1010.435	18.5
1010.596	33.81
1010.758	35.17
1010.919	33.23
1011.081	28.77
1011.242	44.08
1011.403	77.98
1011.565	28.38
1011.726	59.19
1011.887	6.3
1012.049	41.95
1012.21	60.35
1012.371	108.4
1012.532	-19.47
1012.693	43.88
1012.855	13.85
1013.016	11.72
1013.177	66.55
1013.338	36.13
1013.499	86.7
1013.66	43.69
1013.821	35.75
1013.982	53.18
1014.143	51.63
1014.304	22.18
1014.465	39.62
1014.626	81.86
1014.787	40.01
1014.948	100.26
1015.109	-15.4
1015.27	67.91
1015.431	20.25
1015.592	18.7
1015.752	69.07
1015.913	64.61
1016.074	16.95
1016.235	16.57
1016.395	29.16
1016.556	4.94
1016.717	24.32
1016.877	69.26
1017.038	16.57
1017.199	57.06
1017.359	34.2
1017.52	65.39
1017.681	22.38
1017.841	45.43
1018.002	36.52
1018.162	40.01
1018.323	40.01
1018.483	29.74
1018.644	48.15
1018.804	-2.62
1018.964	-5.13
1019.125	-1.45
1019.285	38.85
1019.446	-1.26
1019.606	12.69
1019.766	-26.45
1019.926	44.85
1020.087	40.4
1020.247	17.15
1020.407	68.1
1020.567	60.16
1020.728	36.72
1020.888	16.57
1021.048	15.98
1021.208	-1.65
1021.368	1.26
1021.528	59.19
1021.688	76.24
1021.848	15.21
1022.008	18.89
1022.168	4.36
1022.328	31.87
1022.488	36.52
1022.648	23.35
1022.808	41.95
1022.968	24.12
1023.128	-0.48
1023.288	33.62
1023.448	20.63
1023.608	55.7
1023.767	25.48
1023.927	9.4
1024.087	13.27
1024.247	0.68
1024.406	14.05
1024.566	-14.24
1024.726	-4.17
1024.885	32.45
1025.045	66.94
1025.205	34.97
1025.364	31.87
1025.524	32.65
1025.683	7.27
1025.843	42.72
1026.003	18.12
1026.162	86.12
1026.321	68.3
1026.481	34.97
1026.64	-1.26
1026.8	50.28
1026.959	20.63
1027.119	27.61
1027.278	2.81
1027.437	1.26
1027.597	27.8
1027.756	44.66
1027.915	40.4
1028.074	54.73
1028.234	3.78
1028.393	37.49
1028.552	-1.26
1028.711	-42.14
1028.87	53.76
1029.03	-4.75
1029.189	4.17
1029.348	-18.5
1029.507	35.17
1029.666	-4.36
1029.825	-10.37
1029.984	7.65
1030.143	23.93
1030.302	5.72
1030.461	-46.79
1030.62	9.98
1030.779	60.74
1030.938	-15.02
1031.097	-21.02
1031.255	38.07
1031.414	67.13
1031.573	41.75
1031.732	-35.36
1031.891	0.68
1032.049	91.35
1032.208	41.75
1032.367	-1.45
1032.525	15.21
1032.684	-0.87
1032.843	16.18
1033.001	-21.6
1033.16	134.56
1033.319	37.3
1033.477	35.75
1033.636	-11.92
1033.794	-24.12
1033.953	19.28
1034.111	9.01
1034.27	-4.94
1034.428	28.77
1034.587	-3.39
1034.745	40.98
1034.903	20.63
1035.062	44.66
1035.22	-14.43
1035.378	50.28
1035.537	-1.84
1035.695	55.9
1035.853	3.78
1036.011	47.56
1036.17	16.37
1036.328	-33.81
1036.486	31.87
1036.644	34
1036.802	-49.7
1036.96	-18.5
1037.119	25.28
1037.277	-6.3
1037.435	-32.65
1037.593	-1.45
1037.751	11.14
1037.909	52.6
1038.067	52.6
