Data from gum_young_FLMT105791__25__17-38-24-045.txt Node

Date: Mon Mar 20 17:38:24 GMT 2023
User: antho
Spectrometer: FLMT10579
Trigger mode: 0
Integration Time (sec): 1.000000E-1
Scans to average: 10
Electric dark correction enabled: true
Nonlinearity correction enabled: false
Boxcar width: 0
XAxis mode: Wavelengths
Number of Pixels in Spectrum: 3648
>>>>>Begin Spectral Data<<<<<
345.248	-163.91
345.464	-163.91
345.681	-163.91
345.898	-164.69
346.114	-119.74
346.331	-47.47
346.548	3.68
346.764	10.07
346.981	-13.95
347.197	-6.2
347.414	-3.49
347.631	-20.34
347.847	73.43
348.064	-1.55
348.28	15.69
348.497	-11.43
348.713	1.55
348.93	20.73
349.146	6.59
349.363	-30.61
349.579	8.52
349.796	-1.16
350.012	-6.59
350.229	17.44
350.445	-0.19
350.661	-6.59
350.878	-9.69
351.094	29.84
351.311	14.72
351.527	-4.46
351.743	-12.79
351.96	17.05
352.176	30.42
352.392	8.14
352.609	25.57
352.825	-16.08
353.041	-33.91
353.257	-25.38
353.474	12.98
353.69	2.91
353.906	-2.32
354.122	-38.56
354.339	35.65
354.555	-5.23
354.771	-36.23
354.987	36.62
355.203	68.2
355.42	-31.19
355.636	-16.47
355.852	-51.54
356.068	-1.74
356.284	-37.2
356.5	57.93
356.716	11.43
356.932	-2.52
357.148	28.87
357.364	-17.24
357.58	39.72
357.796	40.3
358.012	39.14
358.228	14.53
358.444	-42.43
358.66	45.34
358.876	26.93
359.092	-11.62
359.308	28.67
359.524	1.36
359.74	14.34
359.956	-6.2
360.172	-9.49
360.388	33.13
360.604	-21.12
360.819	62.19
361.035	1.94
361.251	33.32
361.467	-32.36
361.683	27.12
361.898	7.56
362.114	29.26
362.33	12.21
362.546	64.71
362.762	-25.96
362.977	41.27
363.193	-6.2
363.409	58.32
363.624	1.36
363.84	-26.35
364.056	0.58
364.271	10.27
364.487	6.78
364.703	-4.07
364.918	-42.43
365.134	13.17
365.35	-2.32
365.565	107.53
365.781	14.72
365.996	29.84
366.212	55.99
366.427	1.36
366.643	-7.75
366.858	-8.72
367.074	-20.54
367.289	53.47
367.505	89.12
367.72	-32.74
367.936	-30.42
368.151	20.92
368.367	14.53
368.582	25.38
368.798	-23.83
369.013	43.21
369.228	-0.39
369.444	9.49
369.659	34.68
369.874	21.7
370.09	54.64
370.305	-34.68
370.52	-14.53
370.736	48.63
370.951	14.53
371.166	49.6
371.381	58.32
371.597	48.24
371.812	-33.32
372.027	-17.24
372.242	-13.17
372.458	62
372.673	-28.67
372.888	4.84
373.103	33.91
373.318	109.08
373.533	43.01
373.749	20.73
373.964	-44.95
374.179	40.88
374.394	-30.81
374.609	47.08
374.824	-12.01
375.039	46.69
375.254	-3.49
375.469	31
375.684	33.91
375.899	55.8
376.114	21.89
376.329	-0.58
376.544	50.96
376.759	37.01
376.974	6.59
377.189	23.44
377.404	-12.01
377.619	56.96
377.834	-52.7
378.049	-13.56
378.264	-3.49
378.478	42.82
378.693	6.59
378.908	43.01
379.123	21.51
379.338	36.81
379.553	22.86
379.767	28.48
379.982	32.55
380.197	47.08
380.412	-12.59
380.626	17.24
380.841	90.67
381.056	19.18
381.271	82.54
381.485	-16.08
381.7	3.49
381.915	33.52
382.129	13.95
382.344	18.79
382.559	17.44
382.773	52.12
382.988	-35.84
383.202	22.86
383.417	-3.68
383.632	109.08
383.846	10.66
384.061	33.52
384.275	8.33
384.49	43.59
384.704	41.66
384.919	36.42
385.133	9.88
385.348	39.52
385.562	-12.01
385.777	85.06
385.991	1.94
386.206	13.56
386.42	-7.36
386.634	75.95
386.849	30.22
387.063	35.26
387.277	-4.26
387.492	-0.77
387.706	0.58
387.92	-28.87
388.135	41.27
388.349	30.81
388.563	33.32
388.778	61.03
388.992	49.41
389.206	42.04
389.42	81.18
389.635	45.72
389.849	52.89
390.063	58.51
390.277	26.93
390.491	69.56
390.706	34.68
390.92	40.49
391.134	29.45
391.348	51.73
391.562	-5.62
391.776	42.82
391.99	-18.41
392.205	69.56
392.419	-11.24
392.633	6.97
392.847	78.27
393.061	12.21
393.275	67.42
393.489	33.91
393.703	33.52
393.917	74.01
394.131	-1.36
394.345	44.56
394.559	69.56
394.773	7.36
394.986	25.96
395.2	52.12
395.414	43.01
395.628	23.83
395.842	58.12
396.056	19.96
396.27	-25.77
396.484	10.85
396.697	56.38
396.911	82.34
397.125	52.7
397.339	39.52
397.553	46.5
397.766	82.54
397.98	73.82
398.194	87.57
398.408	47.86
398.621	55.61
398.835	43.21
399.049	26.74
399.262	96.87
399.476	70.14
399.69	54.44
399.903	104.43
400.117	37.39
400.331	68.2
400.544	-4.65
400.758	169.34
400.971	54.44
401.185	80.79
401.398	32.74
401.612	69.94
401.826	64.52
402.039	85.64
402.253	29.84
402.466	70.72
402.68	63.16
402.893	100.55
403.106	83.31
403.32	46.31
403.533	64.71
403.747	48.44
403.96	68.2
404.174	90.67
404.387	36.81
404.6	49.6
404.814	94.94
405.027	77.11
405.24	51.54
405.454	61.22
405.667	85.25
405.88	36.42
406.094	71.69
406.307	103.27
406.52	70.33
406.733	49.21
406.947	7.36
407.16	103.27
407.373	130
407.586	44.95
407.799	30.22
408.012	94.55
408.226	69.75
408.439	101.33
408.652	44.17
408.865	90.48
409.078	115.28
409.291	90.09
409.504	49.79
409.717	76.14
409.93	98.23
410.143	69.56
410.357	66.46
410.57	38.94
410.783	68.01
410.996	84.09
411.209	54.64
411.421	99.78
411.634	72.46
411.847	56.77
412.06	88.35
412.273	99.78
412.486	74.79
412.699	154.61
412.912	78.47
413.125	99.2
413.338	79.63
413.55	115.09
413.763	86.99
413.976	110.82
414.189	55.22
414.402	94.74
414.615	123.03
414.827	69.94
415.04	99.78
415.253	117.99
415.466	119.54
415.678	154.61
415.891	85.64
416.104	77.69
416.316	90.48
416.529	58.51
416.742	99.2
416.954	136.4
417.167	92.22
417.38	107.53
417.592	117.22
417.805	69.94
418.017	56.19
418.23	115.47
418.442	65.49
418.655	83.7
418.868	99.97
419.08	100.17
419.293	149.96
419.505	122.64
419.718	119.93
419.93	143.95
420.142	85.06
420.355	162.75
420.567	114.31
420.78	116.83
420.992	100.36
421.205	167.98
421.417	66.26
421.629	66.65
421.842	64.13
422.054	70.14
422.266	120.12
422.479	144.15
422.691	116.25
422.903	131.36
423.115	90.29
423.328	116.83
423.54	133.88
423.752	121.29
423.964	94.35
424.177	117.41
424.389	107.14
424.601	204.21
424.813	142.4
425.025	122.45
425.238	125.94
425.45	106.75
425.662	101.33
425.874	386.33
426.086	116.25
426.298	155.19
426.51	95.9
426.722	145.89
426.934	77.31
427.146	134.07
427.358	78.86
427.57	154.03
427.782	122.64
427.994	117.41
428.206	93
428.418	78.08
428.63	126.9
428.842	144.15
429.054	117.02
429.266	153.06
429.478	122.06
429.69	111.21
429.902	42.43
430.114	176.12
430.325	115.86
430.537	81.57
430.749	110.05
430.961	59.09
431.173	113.92
431.384	156.94
431.596	61.81
431.808	99.2
432.02	143.57
432.231	159.45
432.443	190.65
432.655	140.66
432.867	115.09
433.078	151.32
433.29	215.06
433.502	172.63
433.713	180.18
433.925	144.92
434.136	204.4
434.348	107.53
434.56	84.86
434.771	210.41
434.983	77.69
435.194	105.59
435.406	126.32
435.617	181.73
435.829	232.5
436.04	188.52
436.252	179.99
436.463	195.88
436.675	162.36
436.886	169.92
437.098	169.53
437.309	224.75
437.521	166.24
437.732	176.7
437.943	167.98
438.155	178.25
438.366	105.4
438.578	223.39
438.789	168.75
439	200.33
439.211	182.7
439.423	179.41
439.634	195.88
439.845	194.91
440.057	186.97
440.268	195.68
440.479	156.94
440.69	155.39
440.902	164.3
441.113	185.61
441.324	167.4
441.535	205.18
441.746	255.55
441.957	159.07
442.168	125.16
442.38	193.36
442.591	201.88
442.802	163.72
443.013	177.67
443.224	198.59
443.435	158.1
443.646	171.47
443.857	190.45
444.068	174.37
444.279	160.04
444.49	267.76
444.701	202.27
444.912	284.81
445.123	202.47
445.334	220.87
445.545	202.85
445.756	201.69
445.967	172.63
446.178	214.67
446.388	232.5
446.599	231.33
446.81	225.91
447.021	227.07
447.232	249.55
447.443	248.77
447.653	193.36
447.864	270.47
448.075	210.02
448.286	248.58
448.496	238.12
448.707	254.78
448.918	201.5
449.129	339.45
449.339	216.42
449.55	234.24
449.761	243.35
449.971	289.65
450.182	230.17
450.393	263.3
450.603	241.02
450.814	281.71
451.024	242.96
451.235	286.36
451.446	302.83
451.656	321.04
451.867	219.13
452.077	275.7
452.288	317.55
452.498	276.09
452.709	252.07
452.919	275.51
453.13	270.08
453.34	279.77
453.55	189.87
453.761	292.17
453.971	274.54
454.182	282.48
454.392	267.18
454.602	316.78
454.813	288.68
455.023	323.95
455.233	267.76
455.444	278.03
455.654	236.76
455.864	284.61
456.075	264.27
456.285	247.61
456.495	255.75
456.705	287.33
456.916	313.68
457.126	323.75
457.336	281.13
457.546	245.67
457.756	270.47
457.967	333.25
458.177	261.37
458.387	283.06
458.597	241.41
458.807	262.53
459.017	293.33
459.227	262.14
459.437	269.11
459.647	311.55
459.857	310.38
460.068	277.45
460.278	329.56
460.488	304.18
460.698	363.86
460.908	301.28
461.117	263.11
461.327	274.73
461.537	312.71
461.747	277.83
461.957	321.04
462.167	415.78
462.377	330.92
462.587	332.47
462.797	331.31
463.007	326.27
463.216	331.11
463.426	347
463.636	332.47
463.846	273.57
464.056	299.34
464.265	376.06
464.475	294.5
464.685	325.5
464.895	344.1
465.104	315.23
465.314	362.11
465.524	296.63
465.733	301.28
465.943	375.68
466.153	405.71
466.362	362.11
466.572	336.35
466.782	317.94
466.991	335.76
467.201	381.68
467.41	288.88
467.62	348.94
467.829	335.57
468.039	364.24
468.249	375.68
468.458	325.5
468.668	366.76
468.877	341.38
469.086	403.19
469.296	391.76
469.505	313.1
469.715	423.92
469.924	360.76
470.134	383.62
470.343	414.43
470.552	352.04
470.762	345.26
470.971	347
471.18	372.38
471.39	361.53
471.599	343.51
471.808	379.16
472.018	342.74
472.227	414.81
472.436	374.51
472.645	389.43
472.855	367.54
473.064	440.39
473.273	357.66
473.482	421.21
473.691	427.02
473.901	400.67
474.11	406.29
474.319	470.03
474.528	388.08
474.737	454.72
474.946	438.64
475.155	431.67
475.364	469.06
475.573	437.29
475.783	441.74
475.992	463.25
476.201	476.04
476.41	421.21
476.619	389.43
476.828	441.16
477.037	434.58
477.245	451.43
477.454	478.36
477.663	445.04
477.872	453.95
478.081	498.71
478.29	443.29
478.499	537.65
478.708	471.58
478.917	535.32
479.125	485.14
479.334	496.96
479.543	495.02
479.752	535.13
479.961	493.47
480.169	528.54
480.378	467.9
480.587	641.88
480.796	533.77
481.004	539.97
481.213	540.94
481.422	543.85
481.63	517.69
481.839	576.4
482.048	582.6
482.256	535.71
482.465	568.07
482.674	592.87
482.882	580.08
483.091	624.83
483.299	603.91
483.508	595.58
483.716	588.6
483.925	603.72
484.134	532.22
484.342	564.77
484.551	607.79
484.759	606.43
484.967	622.7
485.176	622.51
485.384	609.92
485.593	618.25
485.801	599.45
486.01	579.11
486.218	552.18
486.426	518.08
486.635	555.47
486.843	504.91
487.051	570.78
487.26	532.8
487.468	581.63
487.676	614.57
487.885	573.1
488.093	616.31
488.301	626.97
488.509	611.85
488.717	653.32
488.926	616.5
489.134	618.44
489.342	632.78
489.55	622.7
489.758	644.21
489.967	638.4
490.175	747.48
490.383	633.17
490.591	736.24
490.799	663.78
491.007	736.82
491.215	718.22
491.423	657.38
491.631	689.55
491.839	689.74
492.047	694.58
492.255	653.51
492.463	650.02
492.671	653.32
492.879	713.57
493.087	688
493.295	740.89
493.503	732.95
493.711	750.38
493.919	748.83
494.127	732.95
494.334	762.98
494.542	694
494.75	738.76
494.958	747.09
495.166	805.6
495.374	763.17
495.581	780.03
495.789	802.11
495.997	817.61
496.205	748.06
496.412	760.26
496.62	770.92
496.828	798.04
497.035	773.44
497.243	845.51
497.451	817.03
497.658	832.53
497.866	786.42
498.074	880.58
498.281	793.39
498.489	891.24
498.696	807.73
498.904	819.16
499.112	781.58
499.319	904.99
499.527	839.12
499.734	852.29
499.942	821.68
500.149	841.83
500.357	863.53
500.564	808.31
500.771	850.94
500.979	825.94
501.186	801.34
501.394	865.47
501.601	844.93
501.808	869.54
502.016	859.66
502.223	836.21
502.43	876.12
502.638	851.52
502.845	848.81
503.052	945.87
503.26	877.09
503.467	995.09
503.674	897.63
503.881	936.38
504.089	958.27
504.296	953.62
504.503	907.71
504.71	919.72
504.917	889.11
505.125	936.19
505.332	932.31
505.539	960.02
505.746	1035.58
505.953	1022.6
506.16	1007.68
506.367	1065.42
506.574	1056.12
506.781	1074.13
506.988	1024.73
507.195	1041
507.402	1035.39
507.609	1068.52
507.816	992.57
508.023	1006.71
508.23	1029.57
508.437	1014.27
508.644	1064.25
508.851	1086.53
509.058	1121.22
509.265	1106.68
509.472	1109.78
509.679	1207.43
509.885	1104.75
510.092	1144.46
510.299	1129.93
510.506	1134
510.713	1142.53
510.92	1162.29
511.126	1156.67
511.333	1222.16
511.54	1182.83
511.746	1248.31
511.953	1239.79
512.16	1295.2
512.367	1231.65
512.573	1230.49
512.78	1248.51
512.987	1231.65
513.193	1220.61
513.4	1197.55
513.606	1254.9
513.813	1278.34
514.02	1252.96
514.226	1299.66
514.433	1324.65
514.639	1256.64
514.846	1270.79
515.052	1263.62
515.259	1271.95
515.465	1312.44
515.672	1319.42
515.878	1392.66
516.085	1346.74
516.291	1393.82
516.497	1350.03
516.704	1305.28
516.91	1288.61
517.117	1223.9
517.323	1213.25
517.529	1240.95
517.736	1259.74
517.942	1274.47
518.148	1297.14
518.354	1337.44
518.561	1321.16
518.767	1331.43
518.973	1382.97
519.179	1398.85
519.386	1384.13
519.592	1379.87
519.798	1413.97
520.004	1517.04
520.21	1494.76
520.417	1508.52
520.623	1556.57
520.829	1562.57
521.035	1577.3
521.241	1550.95
521.447	1593.76
521.653	1687.15
521.859	1598.41
522.065	1608.68
522.271	1723.96
522.477	1671.46
522.683	1702.84
522.889	1669.71
523.095	1657.31
523.301	1639.88
523.507	1648.01
523.713	1724.74
523.919	1655.18
524.125	1771.04
524.331	1717.96
524.537	1826.07
524.742	1796.81
524.948	1831.11
525.154	1817.54
525.36	1901.24
525.566	1809.6
525.772	1884
525.977	1806.89
526.183	1807.66
526.389	1854.94
526.595	1768.91
526.8	1750.51
527.006	1720.48
527.212	1721.44
527.417	1655.57
527.623	1706.91
527.829	1796.81
528.034	1809.02
528.24	1830.33
528.446	1814.64
528.651	1928.95
528.857	1892.52
529.062	1983.39
529.268	1972.73
529.473	1980.29
529.679	1990.75
529.884	2057.21
530.09	2006.45
530.295	2002.57
530.501	2034.35
530.706	2045.78
530.912	2002.38
531.117	2048.88
531.323	2035.9
531.528	2112.81
531.733	2099.06
531.939	2039.19
532.144	2084.14
532.35	2084.33
532.555	2134.51
532.76	2063.02
532.966	2055.85
533.171	2063.8
533.376	1997.92
533.581	2009.16
533.787	2042.29
533.992	2096.35
534.197	2113.59
534.402	2122.5
534.607	2090.15
534.813	2189.73
535.018	2106.23
535.223	2126.18
535.428	2159.12
535.633	2219.57
535.838	2229.26
536.043	2249.6
536.249	2249.79
536.454	2152.53
536.659	2238.75
536.864	2168.23
537.069	2200.77
537.274	2199.81
537.479	2208.72
537.684	2179.27
537.889	2172.49
538.094	2319.15
538.299	2213.37
538.504	2292.22
538.708	2226.93
538.913	2294.16
539.118	2235.65
539.323	2289.32
539.528	2208.14
539.733	2227.51
539.938	2253.09
540.142	2230.03
540.347	2198.45
540.552	2190.89
540.757	2170.16
540.962	2183.73
541.166	2139.55
541.371	2145.56
541.576	2202.13
541.781	2127.34
541.985	2251.34
542.19	2215.69
542.395	2316.83
542.599	2301.91
542.804	2283.7
543.008	2329.81
543.213	2263.16
543.418	2249.41
543.622	2305.79
543.827	2234.1
544.031	2355.77
544.236	2327.49
544.44	2342.4
544.645	2378.05
544.849	2341.44
545.054	2351.7
545.258	2422.23
545.463	2393.36
545.667	2258.32
545.872	2367.59
546.076	2375.73
546.281	2352.87
546.485	2310.05
546.689	2377.86
546.894	2356.94
547.098	2358.29
547.302	2349.77
547.507	2363.33
547.711	2406.92
547.915	2376.89
548.119	2284.47
548.324	2314.7
548.528	2407.5
548.732	2336.4
548.936	2417.97
549.141	2382.32
549.345	2324.39
549.549	2432.5
549.753	2394.91
549.957	2442.96
550.161	2443.73
550.366	2399.17
550.57	2395.1
550.774	2352.29
550.978	2398.59
551.182	2404.4
551.386	2362.17
551.59	2410.22
551.794	2404.02
551.998	2443.54
552.202	2392
552.406	2340.66
552.61	2417.58
552.814	2418.93
553.018	2440.25
553.222	2388.32
553.426	2412.93
553.63	2494.11
553.833	2402.27
554.037	2376.5
554.241	2424.17
554.445	2400.33
554.649	2377.08
554.853	2372.43
555.056	2478.41
555.26	2454.97
555.464	2430.37
555.668	2446.83
555.871	2425.33
556.075	2465.43
556.279	2364.3
556.483	2444.51
556.686	2386.38
556.89	2386.97
557.094	2418.93
557.297	2328.07
557.501	2387.55
557.704	2305.2
557.908	2346.28
558.112	2334.85
558.315	2420.1
558.519	2348.02
558.722	2338.14
558.926	2318.96
559.129	2250.57
559.333	2242.04
559.536	2248.24
559.74	2274.79
559.943	2217.63
560.147	2259.09
560.35	2245.53
560.553	2271.49
560.757	2188.37
560.96	2283.89
561.164	2269.75
561.367	2323.8
561.57	2262.77
561.774	2272.65
561.977	2221.51
562.18	2238.94
562.384	2331.36
562.587	2197.29
562.79	2247.08
562.993	2228.09
563.197	2273.43
563.4	2279.82
563.603	2291.64
563.806	2320.51
564.009	2210.27
564.212	2218.79
564.416	2175.98
564.619	2194.19
564.822	2190.89
565.025	2226.74
565.228	2170.74
565.431	2203.87
565.634	2089.76
565.837	2126.18
566.04	2101.38
566.243	2118.04
566.446	2012.45
566.649	2147.11
566.852	2043.65
567.055	2069.22
567.258	2123.28
567.461	2131.99
567.664	2150.98
567.867	2044.81
568.07	2079.88
568.273	2085.5
568.475	2148.27
568.678	2010.9
568.881	1994.24
569.084	1995.6
569.287	1950.45
569.489	1991.92
569.692	2030.47
569.895	1971.57
570.098	1951.03
570.3	1974.87
570.503	1898.72
570.706	1913.25
570.909	1900.27
571.111	1843.89
571.314	1853.19
571.516	1869.66
571.719	1881.29
571.922	1877.22
572.124	1878.38
572.327	1892.91
572.529	1844.09
572.732	1848.15
572.935	1864.82
573.137	1926.82
573.34	1830.91
573.542	1932.24
573.745	1839.24
573.947	1865.2
574.15	1823.36
574.352	1828.2
574.554	1884.39
574.757	1828.2
574.959	1761.36
575.162	1823.94
575.364	1809.21
575.566	1888.65
575.769	1772.59
575.971	1771.82
576.173	1691.03
576.376	1788.87
576.578	1802.24
576.78	1835.75
576.982	1714.66
577.185	1777.63
577.387	1714.66
577.589	1689.09
577.791	1774.72
577.993	1791.58
578.196	1739.66
578.398	1711.56
578.6	1734.62
578.802	1715.05
579.004	1685.99
579.206	1668.55
579.408	1704.59
579.61	1667.97
579.812	1741.59
580.014	1691.8
580.216	1715.44
580.418	1723.19
580.62	1710.59
580.822	1649.76
581.024	1680.56
581.226	1766.59
581.428	1709.63
581.63	1816.19
581.832	1683.66
582.034	1735.01
582.236	1720.09
582.438	1725.51
582.64	1788.67
582.841	1800.88
583.043	1827.62
583.245	1750.7
583.447	1754.38
583.649	1775.11
583.85	1771.82
584.052	1784.02
584.254	1718.54
584.456	1779.96
584.657	1718.54
584.859	1789.45
585.061	1728.23
585.262	1725.13
585.464	1669.13
585.666	1713.5
585.867	1680.56
586.069	1728.81
586.27	1700.52
586.472	1679.01
586.674	1652.08
586.875	1682.31
587.077	1663.9
587.278	1706.91
587.48	1652.28
587.681	1793.91
587.883	1653.25
588.084	1627.86
588.285	1642.98
588.487	1610.04
588.688	1617.21
588.89	1509.48
589.091	1480.81
589.292	1493.21
589.494	1434.5
589.695	1445.94
589.896	1363.21
590.098	1368.82
590.299	1442.84
590.5	1419.59
590.702	1460.47
590.903	1465.31
591.104	1547.46
591.305	1528.08
591.507	1554.43
591.708	1501.93
591.909	1520.53
592.11	1577.88
592.311	1545.33
592.512	1488.56
592.714	1490.69
592.915	1491.47
593.116	1492.63
593.317	1538.74
593.518	1531.77
593.719	1523.43
593.92	1530.99
594.121	1578.46
594.322	1557.73
594.523	1532.54
594.724	1451.36
594.925	1516.27
595.126	1480.23
595.327	1511.42
595.528	1487.01
595.729	1537.58
595.929	1483.91
596.13	1530.6
596.331	1498.83
596.532	1546.49
596.733	1578.85
596.934	1549.98
597.135	1550.95
597.335	1528.08
597.536	1497.28
597.737	1507.55
597.938	1495.15
598.138	1525.18
598.339	1509.1
598.54	1503.87
598.74	1490.3
598.941	1500.96
599.142	1572.65
599.342	1546.3
599.543	1491.27
599.744	1519.95
599.944	1494.18
600.145	1545.91
600.345	1513.75
600.546	1565.87
600.746	1569.55
600.947	1597.64
601.147	1538.74
601.348	1559.08
601.548	1484.49
601.749	1504.45
601.949	1486.62
602.15	1492.82
602.35	1506.38
602.551	1536.61
602.751	1488.56
602.951	1480.23
603.152	1453.69
603.352	1473.06
603.552	1476.35
603.753	1544.55
603.953	1528.08
604.153	1520.72
604.354	1518.59
604.554	1506.77
604.754	1502.12
604.954	1492.05
605.155	1525.76
605.355	1489.53
605.555	1540.48
605.755	1555.21
605.955	1501.35
606.155	1558.5
606.356	1525.37
606.556	1527.89
606.756	1523.05
606.956	1483.91
607.156	1512.97
607.356	1463.95
607.556	1512.58
607.756	1475
607.956	1517.62
608.156	1491.08
608.356	1450.59
608.556	1536.03
608.756	1449.04
608.956	1409.9
609.156	1449.42
609.356	1432.57
609.556	1409.51
609.755	1460.85
609.955	1379.29
610.155	1435.47
610.355	1431.79
610.555	1409.32
610.755	1412.61
610.954	1376.77
611.154	1423.65
611.354	1452.14
611.554	1411.64
611.753	1412.03
611.953	1395.17
612.153	1476.16
612.352	1413.19
612.552	1362.04
612.752	1339.37
612.951	1415.9
613.151	1409.32
613.351	1368.44
613.55	1368.63
613.75	1373.28
613.949	1373.47
614.149	1377.54
614.348	1380.26
614.548	1335.5
614.747	1337.82
614.947	1321.36
615.146	1305.66
615.346	1359.91
615.545	1357.2
615.745	1324.65
615.944	1380.06
616.144	1333.17
616.343	1369.21
616.542	1310.51
616.742	1296.36
616.941	1286.09
617.14	1269.63
617.34	1303.73
617.539	1278.15
617.738	1281.64
617.938	1328.91
618.137	1285.51
618.336	1279.31
618.535	1308.76
618.734	1275.05
618.934	1283.58
619.133	1306.63
619.332	1302.56
619.531	1228.16
619.73	1280.86
619.929	1295.39
620.128	1312.25
620.328	1353.71
620.527	1238.24
620.726	1273.5
620.925	1272.92
621.124	1274.66
621.323	1286.87
621.522	1227.58
621.721	1253.35
621.92	1229.91
622.119	1261.88
622.318	1231.65
622.517	1235.53
622.715	1282.03
622.914	1211.89
623.113	1249.09
623.312	1185.54
623.511	1243.08
623.71	1208.01
623.909	1213.83
624.107	1303.14
624.306	1168.3
624.505	1174.3
624.704	1225.84
624.902	1172.95
625.101	1231.26
625.3	1206.66
625.499	1198.71
625.697	1172.95
625.896	1145.24
626.095	1204.53
626.293	1154.93
626.492	1180.7
626.69	1174.3
626.889	1173.72
627.088	1219.25
627.286	1159.96
627.485	1155.7
627.683	1133.62
627.882	1163.65
628.08	1059.22
628.279	1121.22
628.477	1180.5
628.676	1083.43
628.874	1148.73
629.073	1100.1
629.271	1094.09
629.469	1108.43
629.668	1129.16
629.866	1114.43
630.065	1114.43
630.263	1132.65
630.461	1115.02
630.66	1129.55
630.858	1126.06
631.056	1172.36
631.254	1157.45
631.453	1101.65
631.651	1150.66
631.849	1122.96
632.047	1124.7
632.245	1118.7
632.444	1142.14
632.642	1147.18
632.84	1156.28
633.038	1112.88
633.236	1081.69
633.434	1121.8
633.632	1077.23
633.83	1127.8
634.028	1147.18
634.227	1143.88
634.425	1191.93
634.623	1130.13
634.821	1151.25
635.019	1146.79
635.216	1109.98
635.414	1146.01
635.612	1156.48
635.81	1109.59
636.008	1201.04
636.206	1129.35
636.404	1103.58
636.602	1121.8
636.8	1138.85
636.997	1147.56
637.195	1177.4
637.393	1133.42
637.591	1151.05
637.789	1144.46
637.986	1096.42
638.184	1121.99
638.382	1196.2
638.58	1165
638.777	1181.08
638.975	1100.29
639.173	1109.2
639.37	1133.42
639.568	1159.96
639.765	1143.88
639.963	1108.82
640.161	1146.01
640.358	1126.25
640.556	1074.72
640.753	1067.16
640.951	1050.11
641.148	1100.87
641.346	1096.22
641.543	1071.81
641.741	1077.82
641.938	1042.94
642.136	1090.99
642.333	1009.81
642.531	1089.83
642.728	1119.08
642.925	1102.23
643.123	1055.15
643.32	1069.87
643.517	1065.8
643.715	1037.52
643.912	1059.99
644.109	1043.91
644.306	1062.9
644.504	1011.55
644.701	1028.02
644.898	1026.67
645.095	991.99
645.293	1031.9
645.49	1010.2
645.687	988.69
645.884	1016.98
646.081	935.02
646.278	955.95
646.475	942.39
646.672	950.91
646.87	924.76
647.067	933.09
647.264	921.85
647.461	900.92
647.658	858.11
647.855	934.44
648.052	905.96
648.249	842.03
648.446	843.58
648.642	888.14
648.839	860.43
649.036	844.54
649.233	848.23
649.43	817.23
649.627	815.87
649.824	863.34
650.021	838.93
650.217	862.56
650.414	829.43
650.611	879.22
650.808	888.91
651.004	875.93
651.201	843.19
651.398	919.72
651.595	842.22
651.791	838.15
651.988	856.75
652.185	822.65
652.381	851.91
652.578	799.01
652.775	838.93
652.971	834.86
653.168	859.85
653.364	885.04
653.561	816.64
653.757	804.83
653.954	850.36
654.15	811.99
654.347	902.28
654.543	843.96
654.74	803.66
654.936	774.41
655.133	813.16
655.329	810.44
655.525	804.24
655.722	859.08
655.918	748.45
656.115	799.59
656.311	758.33
656.507	707.18
656.704	678.12
656.9	679.86
657.096	707.37
657.292	734.88
657.489	750.77
657.685	777.9
657.881	737.21
658.077	737.21
658.273	777.7
658.47	853.07
658.666	738.56
658.862	782.74
659.058	780.41
659.254	795.33
659.45	737.79
659.646	809.48
659.842	757.36
660.038	821.88
660.234	736.43
660.43	772.08
660.626	827.88
660.822	790.1
661.018	792.04
661.214	751.74
661.41	741.28
661.606	769.56
661.802	795.72
661.998	753.87
662.194	743.8
662.39	757.36
662.586	778.48
662.781	764.33
662.977	807.54
663.173	774.8
663.369	751.74
663.564	733.14
663.76	765.5
663.956	739.15
664.152	813.16
664.347	670.56
664.543	721.9
664.739	700.4
664.934	656.03
665.13	679.67
665.326	727.33
665.521	718.41
665.717	679.86
665.912	674.05
666.108	633.55
666.304	673.08
666.499	676.57
666.695	614.37
666.89	672.69
667.086	730.23
667.281	697.88
667.477	752.13
667.672	672.69
667.867	679.86
668.063	679.47
668.258	662.23
668.454	688.58
668.649	720.93
668.844	663.39
669.04	707.76
669.235	664.94
669.43	649.25
669.626	606.04
669.821	628.32
670.016	618.83
670.211	650.22
670.407	634.13
670.602	642.85
670.797	632.78
670.992	682.38
671.187	585.31
671.382	652.15
671.578	630.45
671.773	646.53
671.968	613.02
672.163	637.04
672.358	645.18
672.553	598.87
672.748	621.54
672.943	693.03
673.138	627.55
673.333	661.84
673.528	605.27
673.723	682.38
673.918	627.74
674.113	601.39
674.308	707.18
674.503	628.32
674.698	670.17
674.892	645.76
675.087	635.3
675.282	602.94
675.477	612.24
675.672	646.92
675.867	613.6
676.061	594.61
676.256	572.52
676.451	609.72
676.646	606.82
676.84	585.89
677.035	571.75
677.23	584.73
677.424	629.87
677.619	626.77
677.814	639.75
678.008	662.23
678.203	563.61
678.397	570.97
678.592	630.65
678.787	644.79
678.981	611.08
679.176	638.59
679.37	613.98
679.565	570.78
679.759	614.18
679.954	629.48
680.148	680.83
680.342	632
680.537	643.82
680.731	627.16
680.926	608.37
681.12	639.75
681.314	581.05
681.509	613.6
681.703	612.63
681.897	630.65
682.092	583.37
682.286	592.48
682.48	703.88
682.674	634.33
682.869	626.58
683.063	626.58
683.257	662.23
683.451	609.53
683.645	649.83
683.839	621.35
684.034	622.9
684.228	675.98
684.422	589.19
684.616	620.18
684.81	660.1
685.004	631.62
685.198	639.17
685.392	660.29
685.586	632.97
685.78	681.99
685.974	672.11
686.168	683.35
686.362	723.26
686.556	630.26
686.75	557.02
686.944	598.29
687.138	605.46
687.331	502.19
687.525	536.1
687.719	530.67
687.913	558.96
688.107	571.94
688.301	543.27
688.494	587.05
688.688	521.37
688.882	551.21
689.076	547.72
689.269	566.9
689.463	632.58
689.657	579.3
689.85	614.18
690.044	626.19
690.238	609.53
690.431	659.71
690.625	639.37
690.818	686.83
691.012	703.5
691.205	726.55
691.399	728.3
691.593	732.75
691.786	762.59
691.98	781.38
692.173	839.31
692.366	812.19
692.56	840.09
692.753	870.31
692.947	807.15
693.14	903.25
693.333	871.48
693.527	852.49
693.72	862.76
693.914	885.04
694.107	895.69
694.3	934.25
694.493	917.39
694.687	963.31
694.88	907.71
695.073	974.16
695.266	996.44
695.46	1008.07
695.653	1027.44
695.846	1035.39
696.039	978.23
696.232	1053.02
696.425	1113.08
696.618	1097.58
696.812	1113.27
697.005	1197.55
697.198	1254.51
697.391	1226.61
697.584	1227.39
697.777	1287.06
697.97	1259.36
698.163	1280.86
698.356	1264.39
698.549	1363.21
698.742	1344.22
698.935	1263.23
699.127	1316.71
699.32	1296.17
699.513	1328.72
699.706	1331.24
699.899	1386.07
700.092	1352.36
700.285	1379.67
700.477	1315.74
700.67	1386.46
700.863	1377.74
701.056	1476.74
701.248	1464.15
701.441	1478.1
701.634	1452.33
701.826	1502.51
702.019	1404.86
702.212	1486.82
702.404	1492.82
702.597	1481
702.79	1491.66
702.982	1548.04
703.175	1580.4
703.367	1593.96
703.56	1593.57
703.752	1664.09
703.945	1639.88
704.137	1648.98
704.33	1699.74
704.522	1697.81
704.715	1719.31
704.907	1750.51
705.1	1750.51
705.292	1785.19
705.484	1785.19
705.677	1797.78
705.869	1800.49
706.061	1832.27
706.254	1888.84
706.446	1826.07
706.638	1823.74
706.831	1916.16
707.023	1884.77
707.215	1948.32
707.407	1938.25
707.599	1929.92
707.792	1958.4
707.984	1991.92
708.176	1993.66
708.368	1946.58
708.56	1994.24
708.752	1989.78
708.944	2003.35
709.136	2057.01
709.329	2048.1
709.521	2148.85
709.713	2118.82
709.905	2127.15
710.097	2153.31
710.289	2095.96
710.481	2129.09
710.672	2139.55
710.864	2168.23
711.056	2150.98
711.248	2214.14
711.44	2226.93
711.632	2201.94
711.824	2209.49
712.016	2246.11
712.207	2295.13
712.399	2223.83
712.591	2308.69
712.783	2289.9
712.975	2327.1
713.166	2317.22
713.358	2313.54
713.55	2394.33
713.741	2386.97
713.933	2336.98
714.125	2336.79
714.316	2307.92
714.508	2396.85
714.7	2404.6
714.891	2372.24
715.083	2405.95
715.274	2361
715.466	2393.17
715.657	2409.44
715.849	2334.65
716.04	2363.52
716.232	2296.68
716.423	2348.6
716.615	2256.57
716.806	2182.76
716.998	2157.57
717.189	2050.23
717.381	1995.02
717.572	1993.08
717.763	1995.6
717.955	1922.55
718.146	1902.6
718.337	1899.5
718.528	1798.94
718.72	1759.22
718.911	1803.59
719.102	1760.58
719.293	1813.09
719.485	1783.64
719.676	1748.57
719.867	1717.18
720.058	1743.14
720.249	1723.96
720.44	1804.37
720.632	1814.44
720.823	1886.52
721.014	2003.15
721.205	2010.51
721.396	2064.96
721.587	2168.03
721.778	2247.08
721.969	2247.66
722.16	2307.34
722.351	2355.97
722.542	2439.08
722.733	2407.31
722.924	2374.76
723.115	2392.78
723.305	2349.57
723.496	2412.73
723.687	2259.87
723.878	2262
724.069	2276.53
724.26	2297.07
724.45	2207.17
724.641	2223.64
724.832	2212.79
725.023	2180.82
725.213	2180.63
725.404	2196.51
725.595	2178.11
725.785	2197.87
725.976	2233.13
726.167	2201.36
726.357	2251.34
726.548	2318.96
726.739	2260.06
726.929	2321.67
727.12	2343.18
727.31	2347.44
727.501	2299.2
727.691	2327.87
727.882	2314.31
728.072	2348.02
728.263	2402.08
728.453	2431.33
728.644	2425.72
728.834	2392.78
729.024	2359.07
729.215	2356.94
729.405	2394.52
729.596	2473.57
729.786	2472.41
729.976	2489.26
730.167	2496.24
730.357	2421.65
730.547	2447.22
730.737	2496.24
730.928	2529.95
731.118	2572.58
731.308	2500.89
731.498	2525.3
731.688	2594.86
731.879	2598.54
732.069	2662.09
732.259	2690.96
732.449	2730.67
732.639	2849.83
732.829	2815.53
733.019	2846.73
733.209	2912.41
733.399	2954.65
733.589	3008.51
733.779	3014.71
733.969	3014.13
734.159	3099.57
734.349	3142.58
734.539	3213.3
734.729	3191.02
734.919	3165.64
735.109	3237.52
735.299	3182.88
735.488	3178.42
735.678	3228.8
735.868	3217.37
736.058	3222.99
736.248	3172.22
736.437	3165.64
736.627	3186.56
736.817	3293.7
737.007	3201.09
737.196	3237.52
737.386	3267.35
737.576	3230.35
737.765	3306.88
737.955	3279.95
738.144	3418.86
738.334	3312.88
738.524	3290.41
738.713	3283.82
738.903	3345.82
739.092	3351.05
739.282	3350.66
739.471	3369.46
739.661	3373.72
739.85	3437.85
740.04	3392.32
740.229	3438.04
740.419	3464.01
740.608	3511.47
740.797	3446.18
740.987	3544.02
741.176	3511.86
741.365	3551.39
741.555	3424.48
741.744	3577.35
741.933	3489.97
742.123	3522.32
742.312	3537.44
742.501	3575.41
742.69	3601.95
742.88	3518.06
743.069	3605.05
743.258	3568.05
743.447	3606.41
743.636	3598.08
743.825	3610.29
744.014	3639.93
744.204	3620.55
744.393	3588
744.582	3673.45
744.771	3701.35
744.96	3586.84
745.149	3667.64
745.338	3693.4
745.527	3678.1
745.716	3651.75
745.905	3646.9
746.094	3683.13
746.283	3716.85
746.471	3629.47
746.66	3707.16
746.849	3631.21
747.038	3723.63
747.227	3664.15
747.416	3731.96
747.604	3665.89
747.793	3678.68
747.982	3680.23
748.171	3718.4
748.359	3687.98
748.548	3710.26
748.737	3687.78
748.926	3693.21
749.114	3602.34
749.303	3615.13
749.491	3618.81
749.68	3562.62
749.869	3678.68
750.057	3636.44
750.246	3605.44
750.434	3650.78
750.623	3631.79
750.811	3589.17
751	3636.05
751.188	3585.29
751.377	3649.62
751.565	3598.85
751.754	3601.57
751.942	3594.01
752.131	3626.56
752.319	3552.16
752.507	3535.31
752.696	3571.92
752.884	3620.17
753.072	3549.45
753.261	3594.4
753.449	3563.01
753.637	3556.23
753.825	3671.12
754.014	3565.14
754.202	3566.5
754.39	3623.85
754.578	3626.37
754.766	3552.74
754.955	3510.51
755.143	3620.94
755.331	3570.57
755.519	3568.63
755.707	3542.67
755.895	3508.57
756.083	3468.46
756.271	3490.16
756.459	3473.89
756.647	3530.46
756.835	3470.21
757.023	3455.68
757.211	3539.76
757.399	3469.82
757.587	3433.2
757.775	3445.21
757.963	3461.29
758.151	3428.94
758.339	3394.06
758.526	3422.54
758.714	3402.78
758.902	3260.38
759.09	3215.82
759.278	2998.63
759.465	2768.84
759.653	2395.3
759.841	2136.45
760.028	1844.28
760.216	1603.06
760.404	1482.55
760.591	1216.73
760.779	1023.18
760.967	895.5
761.154	743.8
761.342	749.61
761.529	760.07
761.717	803.47
761.905	796.49
762.092	848.42
762.28	792.23
762.467	797.27
762.655	715.9
762.842	750.58
763.029	751.55
763.217	771.5
763.404	758.91
763.592	790.88
763.779	732.36
763.966	757.75
764.154	820.52
764.341	875.35
764.528	907.51
764.716	942.39
764.903	1029.57
765.09	1054.57
765.277	1122.57
765.465	1291.71
765.652	1336.86
765.839	1438.96
766.026	1551.33
766.213	1616.82
766.4	1695.48
766.588	1909.77
766.775	1963.63
766.962	2086.66
767.149	2139.16
767.336	2297.07
767.523	2252.89
767.71	2378.44
767.897	2503.41
768.084	2588.66
768.271	2622.56
768.458	2736.29
768.645	2761.67
768.832	2741.91
769.019	2757.99
769.206	2777.17
769.392	2890.9
769.579	2976.73
769.766	2902.33
769.953	2917.45
770.14	2979.64
770.327	2972.86
770.513	3040.09
770.7	3118.75
770.887	3025.36
771.073	3013.16
771.26	3050.16
771.447	3050.36
771.634	3019.16
771.82	3114.68
772.007	3007.73
772.193	3077.48
772.38	3116.04
772.567	3074.96
772.753	3053.46
772.94	3099.76
773.126	3086.59
773.313	3072.64
773.499	3097.63
773.686	3104.61
773.872	3023.04
774.059	3088.72
774.245	3021.68
774.432	3068.37
774.618	2997.27
774.804	3069.92
774.991	3003.47
775.177	3068.18
775.363	2999.4
775.55	3008.89
775.736	2949.22
775.922	3046.87
776.109	3012.58
776.295	3041.83
776.481	3050.74
776.667	3074.38
776.853	3014.9
777.04	2961.43
777.226	2973.44
777.412	3022.84
777.598	2962.01
777.784	2962.01
777.97	2950.19
778.156	2974.6
778.342	2959.88
778.528	2968.01
778.715	2902.53
778.901	2921.71
779.087	2953.87
779.272	2875.79
779.458	2906.4
779.644	2943.99
779.83	2886.64
780.016	2955.81
780.202	2934.88
780.388	2887.8
780.574	2819.6
780.76	2827.55
780.946	2865.91
781.131	2878.7
781.317	2867.07
781.503	2828.71
781.689	2819.8
781.874	2935.27
782.06	2819.02
782.246	2824.06
782.432	2830.26
782.617	2871.14
782.803	2872.69
782.989	2823.67
783.174	2771.75
783.36	2754.89
783.545	2780.27
783.731	2793.45
783.916	2740.17
784.102	2781.05
784.288	2756.64
784.473	2751.79
784.659	2684.95
784.844	2797.9
785.029	2731.45
785.215	2694.64
785.4	2666.93
785.586	2780.08
785.771	2650.66
785.956	2732.03
786.142	2685.92
786.327	2693.28
786.512	2709.17
786.698	2622.56
786.883	2573.74
787.068	2614.62
787.254	2629.92
787.439	2601.06
787.624	2596.41
787.809	2581.68
787.994	2579.74
788.18	2634.77
788.365	2536.34
788.55	2589.82
788.735	2530.15
788.92	2541.58
789.105	2506.31
789.29	2564.63
789.475	2484.03
789.66	2531.11
789.845	2457.49
790.03	2517.36
790.215	2529.37
790.4	2561.53
790.585	2523.56
790.77	2487.71
790.955	2391.23
791.14	2496.05
791.325	2534.79
791.51	2426.1
791.695	2495.27
791.879	2445.48
792.064	2382.12
792.249	2499.92
792.434	2462.72
792.618	2458.46
792.803	2467.76
792.988	2397.82
793.173	2461.36
793.357	2485.2
793.542	2407.12
793.727	2458.46
793.911	2503.6
794.096	2467.76
794.281	2483.06
794.465	2559.01
794.65	2475.9
794.834	2513.68
795.019	2519.88
795.203	2537.89
795.388	2545.45
795.572	2529.76
795.757	2506.12
795.941	2517.94
796.126	2470.66
796.31	2419.32
796.494	2452.06
796.679	2395.3
796.863	2412.35
797.048	2482.29
797.232	2466.01
797.416	2525.88
797.601	2439.08
797.785	2535.76
797.969	2530.34
798.153	2474.15
798.338	2532.28
798.522	2563.08
798.706	2598.34
798.89	2556.88
799.074	2630.51
799.258	2605.71
799.443	2577.03
799.627	2540.03
799.811	2542.93
799.995	2514.65
800.179	2521.43
800.363	2502.63
800.547	2554.56
800.731	2569.86
800.915	2467.37
801.099	2494.11
801.283	2515.23
801.467	2527.43
801.651	2505.15
801.835	2533.63
802.019	2531.89
802.202	2528.79
802.386	2504.57
802.57	2427.27
802.754	2455.55
802.938	2443.93
803.121	2455.75
803.305	2499.92
803.489	2463.5
803.673	2555.14
803.856	2491.01
804.04	2490.62
804.224	2513.48
804.407	2468.92
804.591	2442.96
804.775	2466.21
804.958	2501.08
805.142	2597.18
805.326	2492.17
805.509	2537.12
805.693	2541.58
805.876	2575.29
806.06	2533.05
806.243	2557.66
806.427	2600.28
806.61	2568.51
806.794	2496.82
806.977	2514.06
807.16	2550.1
807.344	2543.9
807.527	2541.58
807.71	2500.5
807.894	2516.97
808.077	2544.87
808.26	2492.36
808.444	2470.08
808.627	2527.82
808.81	2458.07
808.993	2434.05
809.177	2403.05
809.36	2443.73
809.543	2447.22
809.726	2338.53
809.909	2354.8
810.092	2326.52
810.276	2347.05
810.459	2344.73
810.642	2322.25
810.825	2294.94
811.008	2333.88
811.191	2199.03
811.374	2210.66
811.557	2243.79
811.74	2255.02
811.923	2199.81
812.106	2181.59
812.289	2144.98
812.472	2136.45
812.654	2164.35
812.837	2095.96
813.02	2070.58
813.203	2065.15
813.386	1953.94
813.569	1943.09
813.751	1891.75
813.934	1894.46
814.117	1891.36
814.3	1835.75
814.482	1753.61
814.665	1741.21
814.848	1725.9
815.03	1659.06
815.213	1641.62
815.396	1678.63
815.578	1610.43
815.761	1610.04
815.943	1673.01
816.126	1577.1
816.309	1552.5
816.491	1498.44
816.674	1436.44
816.856	1543.39
817.039	1478.87
817.221	1528.47
817.403	1525.57
817.586	1493.6
817.768	1514.72
817.951	1415.13
818.133	1439.15
818.315	1482.17
818.498	1541.45
818.68	1558.5
818.862	1551.53
819.045	1555.6
819.227	1585.43
819.409	1515.68
819.591	1553.85
819.774	1524.02
819.956	1509.68
820.138	1562.57
820.32	1565.09
820.502	1664.68
820.684	1699.74
820.866	1701.1
821.048	1754.19
821.231	1786.35
821.413	1722.99
821.595	1740.43
821.777	1740.24
821.959	1746.24
822.141	1770.85
822.323	1661.77
822.505	1582.72
822.686	1510.26
822.868	1479.26
823.05	1391.49
823.232	1345.77
823.414	1308.96
823.596	1350.03
823.778	1329.88
823.96	1434.12
824.141	1365.53
824.323	1429.66
824.505	1482.36
824.687	1527.7
824.868	1586.98
825.05	1649.76
825.232	1707.3
825.413	1708.08
825.595	1729.39
825.777	1623.02
825.958	1700.52
826.14	1670.49
826.321	1712.34
826.503	1700.91
826.685	1710.01
826.866	1708.66
827.048	1734.04
827.229	1668.55
827.411	1643.75
827.592	1598.61
827.773	1566.45
827.955	1518.01
828.136	1550.56
828.318	1516.65
828.499	1543.39
828.68	1495.73
828.862	1541.65
829.043	1531.18
829.224	1518.59
829.406	1473.25
829.587	1476.74
829.768	1510.84
829.949	1507.35
830.131	1496.7
830.312	1576.33
830.493	1482.75
830.674	1506
830.855	1505.8
831.036	1524.02
831.218	1562.18
831.399	1557.73
831.58	1545.72
831.761	1535.25
831.942	1568.58
832.123	1505.22
832.304	1494.18
832.485	1497.28
832.666	1524.4
832.847	1560.05
833.028	1528.67
833.209	1516.07
833.389	1513.55
833.57	1515.88
833.751	1495.53
833.932	1555.21
834.113	1518.98
834.294	1530.02
834.475	1558.89
834.655	1588.92
834.836	1602.1
835.017	1580.98
835.198	1556.37
835.378	1560.63
835.559	1620.31
835.74	1595.31
835.92	1559.08
836.101	1554.63
836.281	1549.01
836.462	1586.98
836.643	1611.98
836.823	1629.22
837.004	1642.78
837.184	1640.65
837.365	1630.38
837.545	1640.46
837.726	1605.2
837.906	1670.1
838.087	1617.98
838.267	1602.48
838.448	1574
838.628	1644.14
838.808	1611.01
838.989	1658.67
839.169	1576.13
839.349	1616.05
839.53	1633.29
839.71	1641.81
839.89	1590.47
840.07	1659.25
840.251	1608.88
840.431	1664.87
840.611	1611.4
840.791	1585.82
840.971	1604.42
841.151	1585.05
841.332	1586.6
841.512	1654.02
841.692	1570.9
841.872	1626.31
842.052	1594.73
842.232	1628.45
842.412	1504.83
842.592	1572.45
842.772	1620.7
842.952	1589.89
843.132	1577.88
843.312	1566.45
843.492	1565.87
843.672	1596.09
843.851	1536.61
844.031	1590.08
844.211	1543.2
844.391	1523.05
844.571	1558.89
844.751	1610.04
844.93	1598.61
845.11	1549.01
845.29	1563.35
845.47	1599.38
845.649	1589.89
845.829	1589.5
846.009	1573.42
846.188	1569.35
846.368	1592.6
846.547	1542.62
846.727	1616.82
846.907	1536.03
847.086	1549.4
847.266	1583.5
847.445	1561.41
847.625	1565.28
847.804	1514.91
847.984	1544.94
848.163	1502.32
848.343	1508.71
848.522	1491.08
848.701	1565.48
848.881	1488.95
849.06	1536.42
849.239	1518.2
849.419	1520.33
849.598	1424.43
849.777	1412.8
849.957	1414.94
850.136	1389.36
850.315	1374.64
850.494	1386.46
850.674	1398.08
850.853	1469.57
851.032	1424.04
851.211	1471.9
851.39	1399.24
851.569	1363.79
851.748	1398.27
851.927	1479.45
852.107	1411.64
852.286	1369.21
852.465	1368.82
852.644	1488.95
852.823	1394.79
853.002	1398.27
853.181	1388.97
853.359	1404.09
853.538	1335.11
853.717	1424.24
853.896	1304.11
854.075	1264.01
854.254	1244.24
854.433	1164.81
854.611	1237.27
854.79	1171.98
854.969	1259.16
855.148	1248.89
855.327	1209.76
855.505	1279.89
855.684	1253.35
855.863	1286.29
856.041	1244.24
856.22	1299.85
856.399	1285.32
856.577	1340.73
856.756	1326.2
856.934	1457.17
857.113	1421.14
857.291	1353.71
857.47	1323.1
857.648	1360.3
857.827	1360.3
858.005	1394.21
858.184	1329.49
858.362	1427.14
858.541	1338.99
858.719	1350.42
858.898	1335.69
859.076	1325.04
859.254	1401.57
859.433	1337.24
859.611	1314.38
859.789	1269.82
859.967	1362.62
860.146	1362.62
860.324	1284.93
860.502	1322.32
860.68	1264.98
860.859	1277.96
861.037	1320.97
861.215	1301.79
861.393	1317.29
861.571	1311.47
861.749	1272.73
861.927	1318.64
862.105	1308.57
862.283	1265.17
862.461	1244.63
862.639	1232.81
862.817	1259.94
862.995	1267.69
863.173	1271.95
863.351	1238.24
863.529	1262.46
863.707	1343.25
863.885	1256.64
864.063	1206.27
864.241	1196.78
864.418	1287.84
864.596	1235.91
864.774	1173.53
864.952	1219.45
865.129	1244.83
865.307	1203.17
865.485	1174.5
865.663	1273.5
865.84	1178.76
866.018	1174.88
866.196	1056.31
866.373	1051.85
866.551	1047.79
866.728	1042.36
866.906	1066
867.084	1061.54
867.261	1123.15
867.439	1112.11
867.616	1106.1
867.794	1131.1
867.971	1166.94
868.149	1141.75
868.326	1179.15
868.503	1175.27
868.681	1182.83
868.858	1161.71
869.035	1109.59
869.213	1140.01
869.39	1145.63
869.567	1194.84
869.745	1112.69
869.922	1132.84
870.099	1138.07
870.276	1179.15
870.454	1151.05
870.631	1190.96
870.808	1114.43
870.985	1156.67
871.162	1165.58
871.339	1147.56
871.517	1096.42
871.694	1107.85
871.871	1142.33
872.048	1118.89
872.225	1121.6
872.402	1100.87
872.579	1100.68
872.756	1139.04
872.933	1103.58
873.11	1094.28
873.287	1102.81
873.463	1091.77
873.64	1042.75
873.817	1101.84
873.994	1099.71
874.171	1067.93
874.348	1088.67
874.524	1002.84
874.701	1065.8
874.878	1033.84
875.055	1073.36
875.231	1065.22
875.408	1109.78
875.585	1027.83
875.762	1040.42
875.938	1032.87
876.115	1027.25
876.291	1032.87
876.468	1056.89
876.645	1023.95
876.821	1003.03
876.998	1019.89
877.174	1048.17
877.351	1006.71
877.527	996.05
877.704	1038.87
877.88	1010.2
878.057	1000.7
878.233	1077.82
878.409	991.4
878.586	1035
878.762	1010.59
878.938	992.95
879.115	921.46
879.291	1026.28
879.467	923.4
879.644	977.07
879.82	997.02
879.996	986.95
880.172	929.6
880.349	974.74
880.525	986.56
880.701	937.93
880.877	929.6
881.053	955.56
881.229	955.95
881.405	980.75
881.581	920.11
881.757	962.73
881.933	957.31
882.109	972.22
882.285	955.17
882.461	913.71
882.637	944.32
882.813	940.64
882.989	943.74
883.165	987.72
883.341	925.72
883.517	995.09
883.693	971.84
883.869	985.2
884.044	927.66
884.22	961.37
884.396	997.22
884.572	967.57
884.747	995.47
884.923	951.49
885.099	978.81
885.275	1000.32
885.45	929.21
885.626	947.42
885.801	923.4
885.977	945.87
886.153	894.72
886.328	954.01
886.504	915.07
886.679	954.01
886.855	914.49
887.03	953.04
887.206	996.64
887.381	954.01
887.557	976.68
887.732	973.39
887.908	958.08
888.083	978.62
888.258	943.74
888.434	928.24
888.609	943.74
888.784	1000.32
888.96	903.06
889.135	933.86
889.31	903.25
889.485	912.74
889.661	943.16
889.836	966.6
890.011	940.64
890.186	939.09
890.361	918.75
890.537	948.78
890.712	920.49
890.887	946.07
891.062	975.9
891.237	984.43
891.412	926.31
891.587	919.33
891.762	954.79
891.937	962.73
892.112	878.45
892.287	924.37
892.462	903.44
892.637	861.59
892.812	835.24
892.987	843.19
893.161	829.24
893.336	856.94
893.511	872.44
893.686	909.06
893.861	856.17
894.035	871.48
894.21	839.31
894.385	806.57
894.56	821.68
894.734	769.18
894.909	768.98
895.084	768.21
895.258	729.46
895.433	773.25
895.608	754.06
895.782	696.91
895.957	734.3
896.131	692.84
896.306	644.6
896.48	665.33
896.655	642.66
896.829	584.73
897.004	576.98
897.178	610.11
897.353	635.88
897.527	647.31
897.701	605.46
897.876	563.42
898.05	662.03
898.224	668.62
898.399	664.94
898.573	621.73
898.747	517.5
898.921	562.45
899.096	463.06
899.27	504.32
899.444	497.16
899.618	551.99
899.792	528.93
899.967	554.7
900.141	558.57
900.315	524.47
900.489	529.7
900.663	522.34
900.837	514.4
901.011	484.95
901.185	598.1
901.359	544.43
901.533	545.79
901.707	545.79
901.881	555.47
902.055	508.2
902.229	503.16
902.403	585.7
902.576	543.46
902.75	553.34
902.924	637.82
903.098	563.22
903.272	628.9
903.446	649.44
903.619	647.89
903.793	684.7
903.967	658.16
904.14	724.23
904.314	671.53
904.488	676.57
904.661	686.45
904.835	707.95
905.009	709.5
905.182	758.33
905.356	701.17
905.529	683.73
905.703	649.44
905.876	650.02
906.05	608.17
906.223	604.69
906.397	550.44
906.57	547.92
906.744	505.68
906.917	526.02
907.09	549.66
907.264	531.06
907.437	503.36
907.61	470.61
907.784	489.02
907.957	511.69
908.13	462.47
908.304	529.32
908.477	473.13
908.65	478.36
908.823	443.1
908.996	525.05
909.17	459.96
909.343	467.71
909.516	510.14
909.689	475.65
909.862	430.31
910.035	489.02
910.208	425.66
910.381	434.77
910.554	529.7
910.727	453.56
910.9	455.31
911.073	444.84
911.246	516.53
911.419	530.67
911.592	499.87
911.765	433.22
911.938	447.75
912.11	483.79
912.283	445.23
912.456	506.26
912.629	449.88
912.802	444.65
912.974	380.13
913.147	372.77
913.32	300.31
913.493	373.93
913.665	376.64
913.838	398.73
914.01	391.56
914.183	409.19
914.356	400.09
914.528	438.84
914.701	451.62
914.873	455.11
915.046	384.39
915.218	387.88
915.391	322.59
915.563	351.26
915.736	360.56
915.908	404.93
916.081	392.34
916.253	420.63
916.425	401.83
916.598	401.44
916.77	394.08
916.942	350.88
917.115	281.71
917.287	370.25
917.459	352.81
917.632	304.76
917.804	302.63
917.976	355.14
918.148	378.19
918.32	370.25
918.493	416.94
918.665	427.6
918.837	396.79
919.009	458.02
919.181	416.75
919.353	437.87
919.525	405.71
919.697	410.36
919.869	431.09
920.041	471.39
920.213	512.85
920.385	477.78
920.557	426.63
920.729	438.64
920.901	426.83
921.073	431.28
921.244	424.89
921.416	445.23
921.588	429.34
921.76	417.14
921.932	489.41
922.103	412.29
922.275	444.46
922.447	439.03
922.619	364.24
922.79	446.97
922.962	386.53
923.134	465.19
923.305	367.54
923.477	358.04
923.648	370.44
923.82	390.21
923.991	325.88
924.163	338.67
924.335	384.01
924.506	332.47
924.677	394.47
924.849	335.76
925.02	348.36
925.192	403.38
925.363	375.68
925.535	372.96
925.706	318.71
925.877	403.19
926.049	351.07
926.22	347
926.391	364.44
926.562	367.73
926.734	325.88
926.905	380.91
927.076	300.11
927.247	315.42
927.419	286.36
927.59	304.18
927.761	299.34
927.932	274.15
928.103	297.01
928.274	261.37
928.445	249.35
928.616	242.96
928.787	259.82
928.958	281.13
929.129	228.04
929.3	250.71
929.471	195.68
929.642	167.2
929.813	134.07
929.984	214.48
930.155	121.87
930.326	203.24
930.496	144.54
930.667	120.51
930.838	137.56
931.009	115.67
931.18	143.57
931.35	128.65
931.521	140.66
931.692	84.47
931.863	48.82
932.033	95.9
932.204	84.28
932.374	91.06
932.545	55.22
932.716	118.38
932.886	103.07
933.057	29.84
933.227	46.5
933.398	128.45
933.568	49.41
933.739	23.64
933.909	28.09
934.08	60.06
934.25	10.46
934.421	10.07
934.591	61.61
934.761	35.26
934.932	-26.74
935.102	59.48
935.272	24.02
935.443	33.32
935.613	7.17
935.783	42.62
935.953	-0.77
936.123	164.49
936.294	10.27
936.464	14.53
936.634	25.38
936.804	6.59
936.974	10.85
937.144	45.72
937.314	52.31
937.484	24.61
937.655	6.39
937.825	53.09
937.995	14.92
938.165	68.59
938.334	28.09
938.504	15.31
938.674	49.79
938.844	25.57
939.014	100.55
939.184	90.87
939.354	124.58
939.524	105.2
939.694	51.34
939.863	62.19
940.033	113.15
940.203	96.87
940.373	91.25
940.542	99.2
940.712	83.31
940.882	113.15
941.051	109.08
941.221	79.82
941.391	122.84
941.56	61.81
941.73	53.67
941.899	171.27
942.069	67.04
942.238	99.39
942.408	84.47
942.577	78.66
942.747	67.62
942.916	24.61
943.086	49.99
943.255	85.83
943.425	60.64
943.594	26.54
943.763	-5.04
943.933	6.59
944.102	-5.23
944.271	52.89
944.441	81.57
944.61	41.46
944.779	44.56
944.948	132.33
945.117	9.49
945.287	60.26
945.456	0.77
945.625	28.87
945.794	71.3
945.963	34.68
946.132	55.99
946.301	18.02
946.47	84.28
946.639	-11.24
946.808	57.16
946.977	65.68
947.146	106.37
947.315	44.56
947.484	73.24
947.653	24.41
947.822	28.09
947.991	30.61
948.16	111.21
948.329	100.75
948.498	50.76
948.666	58.71
948.835	58.51
949.004	22.86
949.173	-8.91
949.341	53.28
949.51	53.09
949.679	92.61
949.847	64.91
950.016	151.12
950.185	97.84
950.353	50.37
950.522	64.13
950.69	89.32
950.859	58.51
951.028	101.91
951.196	55.41
951.365	50.37
951.533	32.16
951.701	80.02
951.87	52.12
952.038	20.15
952.207	31.97
952.375	97.65
952.543	28.48
952.712	42.04
952.88	44.95
953.048	86.02
953.217	70.33
953.385	47.08
953.553	68.39
953.721	26.93
953.89	70.14
954.058	22.86
954.226	-4.65
954.394	55.22
954.562	10.27
954.73	35.26
954.898	63.16
955.067	106.37
955.235	46.69
955.403	84.86
955.571	87.96
955.739	52.51
955.907	19.57
956.075	40.3
956.243	7.75
956.41	57.93
956.578	18.41
956.746	-1.16
956.914	17.63
957.082	84.86
957.25	65.1
957.418	55.22
957.585	79.05
957.753	104.62
957.921	1.16
958.089	56.19
958.256	71.69
958.424	72.66
958.592	52.7
958.759	30.03
958.927	55.41
959.095	43.59
959.262	49.6
959.43	58.32
959.597	46.5
959.765	94.74
959.932	8.52
960.1	98.62
960.267	83.31
960.435	69.56
960.602	75.37
960.77	39.52
960.937	23.06
961.104	66.84
961.272	38.56
961.439	28.09
961.606	57.35
961.774	68.01
961.941	34.68
962.108	79.05
962.275	79.63
962.443	106.17
962.61	91.45
962.777	128.65
962.944	111.6
963.111	88.74
963.278	84.47
963.446	66.65
963.613	54.25
963.78	76.72
963.947	96.1
964.114	78.66
964.281	133.88
964.448	80.79
964.615	56.77
964.782	70.33
964.949	84.09
965.116	105.59
965.282	117.8
965.449	66.46
965.616	69.56
965.783	101.72
965.95	75.37
966.117	39.52
966.283	59.48
966.45	94.94
966.617	71.11
966.784	119.93
966.95	122.64
967.117	95.13
967.284	60.64
967.45	45.14
967.617	141.24
967.784	102.49
967.95	140.66
968.117	80.99
968.283	124.77
968.45	178.44
968.616	102.3
968.783	129.23
968.949	110.05
969.116	110.44
969.282	74.21
969.449	120.9
969.615	85.06
969.781	45.34
969.948	76.92
970.114	48.05
970.28	127.49
970.447	89.7
970.613	115.86
970.779	94.74
970.945	107.53
971.112	78.08
971.278	114.89
971.444	100.17
971.61	116.64
971.776	89.12
971.942	110.05
972.108	105.4
972.275	70.72
972.441	87.57
972.607	148.8
972.773	55.99
972.939	76.92
973.105	74.21
973.271	62.39
973.437	79.05
973.602	56.57
973.768	98.04
973.934	68.01
974.1	87.77
974.266	37.39
974.432	88.35
974.598	76.92
974.763	94.55
974.929	62.58
975.095	138.14
975.261	59.67
975.426	60.84
975.592	72.07
975.758	121.09
975.923	45.72
976.089	68.78
976.255	90.48
976.42	80.02
976.586	104.24
976.751	92.61
976.917	124.39
977.082	121.29
977.248	43.79
977.413	50.18
977.579	64.71
977.744	76.34
977.91	60.45
978.075	67.42
978.24	116.83
978.406	55.8
978.571	51.15
978.736	30.03
978.902	125.35
979.067	43.01
979.232	15.11
979.397	67.04
979.563	121.87
979.728	55.41
979.893	74.21
980.058	66.65
980.223	99.97
980.388	109.27
980.554	65.49
980.719	70.72
980.884	81.18
981.049	99.97
981.214	42.82
981.379	79.24
981.544	59.67
981.709	74.59
981.874	70.52
982.039	76.92
982.204	92.42
982.368	77.31
982.533	60.06
982.698	90.87
982.863	100.75
983.028	63.94
983.193	89.9
983.357	100.17
983.522	88.35
983.687	80.99
983.852	68.78
984.016	94.16
984.181	74.98
984.346	93
984.51	79.05
984.675	76.14
984.839	85.44
985.004	80.02
985.168	117.22
985.333	86.22
985.498	81.76
985.662	82.54
985.827	74.98
985.991	83.7
986.155	79.44
986.32	92.42
986.484	104.24
986.649	74.21
986.813	62.39
986.977	109.27
987.142	94.74
987.306	16.08
987.47	59.87
987.634	72.27
987.799	85.64
987.963	92.61
988.127	109.85
988.291	129.23
988.455	66.26
988.62	86.02
988.784	121.48
988.948	86.61
989.112	40.3
989.276	81.76
989.44	65.29
989.604	36.62
989.768	51.34
989.932	133.49
990.096	54.83
990.26	25.96
990.424	54.64
990.588	78.08
990.752	136.2
990.915	74.01
991.079	44.56
991.243	62.58
991.407	106.95
991.571	71.69
991.734	113.34
991.898	99.2
992.062	144.73
992.226	71.3
992.389	59.87
992.553	50.37
992.717	47.08
992.88	66.65
993.044	66.84
993.207	77.5
993.371	93
993.535	83.12
993.698	46.69
993.862	108.89
994.025	104.24
994.189	98.23
994.352	89.51
994.515	71.88
994.679	81.37
994.842	46.69
995.006	94.35
995.169	20.34
995.332	66.46
995.496	108.3
995.659	39.91
995.822	71.69
995.985	76.72
996.149	120.12
996.312	89.9
996.475	122.45
996.638	45.34
996.801	95.32
996.964	121.09
997.128	31.19
997.291	49.6
997.454	54.83
997.617	20.15
997.78	98.23
997.943	35.84
998.106	99.97
998.269	29.06
998.432	60.06
998.595	52.51
998.758	-8.14
998.92	33.13
999.083	2.52
999.246	61.61
999.409	10.07
999.572	12.4
999.735	48.24
999.897	66.46
1000.06	35.46
1000.223	50.57
1000.386	70.72
1000.548	80.21
1000.711	70.52
1000.874	84.67
1001.036	10.27
1001.199	85.25
1001.361	22.86
1001.524	66.46
1001.687	88.15
1001.849	13.56
1002.012	46.11
1002.174	39.52
1002.337	78.47
1002.499	53.86
1002.661	73.04
1002.824	17.63
1002.986	33.32
1003.149	37.2
1003.311	6.59
1003.473	95.32
1003.636	20.54
1003.798	70.72
1003.96	62.19
1004.123	44.56
1004.285	34.1
1004.447	47.86
1004.609	44.17
1004.771	117.99
1004.933	-3.87
1005.096	40.49
1005.258	-18.99
1005.42	16.08
1005.582	69.36
1005.744	66.65
1005.906	14.34
1006.068	13.37
1006.23	9.3
1006.392	-2.91
1006.554	-0.58
1006.716	56.57
1006.878	50.76
1007.04	11.43
1007.202	33.13
1007.363	37.2
1007.525	39.91
1007.687	37.39
1007.849	83.7
1008.011	4.46
1008.172	12.21
1008.334	0.77
1008.496	53.47
1008.658	3.49
1008.819	-12.01
1008.981	-0
1009.143	16.66
1009.304	38.94
1009.466	50.76
1009.627	74.4
1009.789	92.8
1009.95	29.84
1010.112	11.04
1010.273	43.21
1010.435	18.99
1010.596	59.87
1010.758	17.82
1010.919	4.46
1011.081	6.97
1011.242	27.32
1011.403	45.14
1011.565	30.61
1011.726	55.99
1011.887	-16.47
1012.049	24.41
1012.21	78.66
1012.371	78.08
1012.532	-8.72
1012.693	37.78
1012.855	24.41
1013.016	29.64
1013.177	71.49
1013.338	8.72
1013.499	80.79
1013.66	78.66
1013.821	76.92
1013.982	18.02
1014.143	63.36
1014.304	-4.65
1014.465	39.52
1014.626	62.77
1014.787	16.27
1014.948	96.29
1015.109	-24.22
1015.27	51.34
1015.431	32.36
1015.592	-6.78
1015.752	86.02
1015.913	31.58
1016.074	36.42
1016.235	32.55
1016.395	7.36
1016.556	24.61
1016.717	5.23
1016.877	68.97
1017.038	23.06
1017.199	21.7
1017.359	17.24
1017.52	42.82
1017.681	-13.17
1017.841	19.76
1018.002	24.8
1018.162	23.25
1018.323	95.9
1018.483	31.39
1018.644	11.62
1018.804	12.01
1018.964	-4.84
1019.125	27.71
1019.285	26.35
1019.446	-2.52
1019.606	1.55
1019.766	-23.44
1019.926	37.97
1020.087	37.2
1020.247	-15.11
1020.407	32.36
1020.567	55.61
1020.728	7.75
1020.888	-20.92
1021.048	-18.79
1021.208	-18.02
1021.368	-15.11
1021.528	41.85
1021.688	43.98
1021.848	40.3
1022.008	30.03
1022.168	12.98
1022.328	31.39
1022.488	29.06
1022.648	8.91
1022.808	2.13
1022.968	26.54
1023.128	-8.91
1023.288	8.14
1023.448	27.51
1023.608	20.73
1023.767	43.4
1023.927	16.27
1024.087	5.81
1024.247	7.56
1024.406	11.24
1024.566	-0.97
1024.726	-5.04
1024.885	41.66
1025.045	33.32
1025.205	14.92
1025.364	-4.84
1025.524	55.41
1025.683	-16.86
1025.843	13.76
1026.003	4.26
1026.162	76.34
1026.321	53.09
1026.481	34.49
1026.64	-2.52
1026.8	22.47
1026.959	-5.04
1027.119	25.57
1027.278	-6.78
1027.437	-6.39
1027.597	29.06
1027.756	18.21
1027.915	9.88
1028.074	30.61
1028.234	-15.5
1028.393	28.67
1028.552	20.92
1028.711	-56.19
1028.87	43.59
1029.03	-22.67
1029.189	9.11
1029.348	-37.01
1029.507	-8.33
1029.666	-14.72
1029.825	-26.74
1029.984	-20.73
1030.143	32.94
1030.302	-3.68
1030.461	-55.22
1030.62	1.16
1030.779	17.82
1030.938	-5.04
1031.097	-40.11
1031.255	15.89
1031.414	61.03
1031.573	34.68
1031.732	-35.46
1031.891	27.9
1032.049	26.93
1032.208	35.46
1032.367	-19.76
1032.525	-16.66
1032.684	3.87
1032.843	-25.77
1033.001	-27.32
1033.16	114.7
1033.319	27.51
1033.477	30.81
1033.636	-19.57
1033.794	-29.84
1033.953	32.36
1034.111	32.36
1034.27	-4.65
1034.428	24.8
1034.587	-4.26
1034.745	-1.36
1034.903	-12.4
1035.062	12.98
1035.22	-31.39
1035.378	-0
1035.537	-18.02
1035.695	54.06
1035.853	2.52
1036.011	51.54
1036.17	7.75
1036.328	-59.67
1036.486	27.9
1036.644	9.49
1036.802	-51.92
1036.96	-3.29
1037.119	-15.5
1037.277	-6.39
1037.435	-32.36
1037.593	-22.67
1037.751	8.33
1037.909	28.67
1038.067	28.67
