Data from gum_young_FLMT105791__132__17-41-00-040.txt Node

Date: Mon Mar 20 17:41:00 GMT 2023
User: antho
Spectrometer: FLMT10579
Trigger mode: 0
Integration Time (sec): 1.000000E-1
Scans to average: 10
Electric dark correction enabled: true
Nonlinearity correction enabled: false
Boxcar width: 0
XAxis mode: Wavelengths
Number of Pixels in Spectrum: 3648
>>>>>Begin Spectral Data<<<<<
345.248	-161.62
345.464	-161.62
345.681	-161.62
345.898	-143.79
346.114	-147.47
346.331	-20.18
346.548	15.47
346.764	-6.81
346.981	-24.44
347.197	-18.05
347.414	2.49
347.631	-3.13
347.847	56.35
348.064	9.66
348.28	19.54
348.497	-25.8
348.713	-5.07
348.93	30.19
349.146	30.39
349.363	-4.49
349.579	-5.46
349.796	-1.97
350.012	-19.21
350.229	9.66
350.445	-3.91
350.661	-1
350.878	2.87
351.094	30.97
351.311	11.98
351.527	17.02
351.743	-15.53
351.96	19.54
352.176	42.2
352.392	33.68
352.609	46.08
352.825	-2.94
353.041	6.75
353.257	8.11
353.474	18.57
353.69	14.5
353.906	18.57
354.122	-23.86
354.339	57.32
354.555	-10.3
354.771	11.59
354.987	66.23
355.203	58.09
355.42	10.43
355.636	-28.51
355.852	-8.94
356.068	10.62
356.284	-35.1
356.5	52.67
356.716	0.55
356.932	13.53
357.148	34.07
357.364	15.27
357.58	37.75
357.796	74.17
358.012	50.34
358.228	18.37
358.444	-51.18
358.66	49.18
358.876	29.61
359.092	-15.73
359.308	22.25
359.524	19.92
359.74	5.39
359.956	-26.58
360.172	17.4
360.388	35.42
360.604	-5.46
360.819	85.41
361.035	13.92
361.251	41.82
361.467	-1.58
361.683	17.6
361.898	-7.78
362.114	20.89
362.33	22.64
362.546	37.75
362.762	4.42
362.977	25.54
363.193	-10.3
363.409	58.09
363.624	4.62
363.84	-19.99
364.056	5.97
364.271	16.24
364.487	17.99
364.703	0.74
364.918	11.4
365.134	17.99
365.35	16.82
365.565	112.15
365.781	25.35
365.996	60.03
366.212	98.97
366.427	36.59
366.643	24.77
366.858	9.27
367.074	4.62
367.289	64.1
367.505	93.16
367.72	-31.61
367.936	-7.39
368.151	55.96
368.367	45.3
368.582	5.01
368.798	-13.01
369.013	56.93
369.228	20.12
369.444	17.21
369.659	38.91
369.874	9.66
370.09	79.6
370.305	-19.02
370.52	14.31
370.736	48.99
370.951	39.1
371.166	47.63
371.381	70.49
371.597	41.24
371.812	0.94
372.027	-2.94
372.242	6.75
372.458	97.04
372.673	7.52
372.888	19.34
373.103	41.62
373.318	101.49
373.533	40.65
373.749	39.49
373.964	-29.87
374.179	78.24
374.394	-8.36
374.609	81.73
374.824	1.13
375.039	78.05
375.254	25.54
375.469	40.27
375.684	46.85
375.899	50.73
376.114	27.67
376.329	45.11
376.544	59.45
376.759	56.35
376.974	8.11
377.189	36.78
377.404	-15.53
377.619	46.66
377.834	-29.87
378.049	-18.44
378.264	-26.77
378.478	41.24
378.693	19.34
378.908	29.03
379.123	17.99
379.338	54.6
379.553	37.17
379.767	40.27
379.982	35.62
380.197	31.35
380.412	38.52
380.626	37.94
380.841	102.07
381.056	51.31
381.271	86.57
381.485	-0.42
381.7	-9.53
381.915	14.11
382.129	23.02
382.344	31.55
382.559	29.8
382.773	44.72
382.988	-35.1
383.202	57.9
383.417	3.65
383.632	115.44
383.846	30.97
384.061	41.82
384.275	39.88
384.49	33.87
384.704	53.83
384.919	55.38
385.133	59.06
385.348	39.1
385.562	-2.16
385.777	68.94
385.991	40.85
386.206	17.99
386.42	6.94
386.634	54.99
386.849	47.44
387.063	65.84
387.277	14.89
387.492	0.36
387.706	9.66
387.92	0.94
388.135	68.55
388.349	25.74
388.563	43.95
388.778	29.22
388.992	56.93
389.206	42.79
389.42	119.32
389.635	31.74
389.849	70.1
390.063	44.92
390.277	54.8
390.491	89.29
390.706	67.97
390.92	59.64
391.134	51.5
391.348	70.3
391.562	-10.11
391.776	50.73
391.99	21.09
392.205	61
392.419	20.12
392.633	65.07
392.847	105.75
393.061	16.82
393.275	90.25
393.489	36.2
393.703	54.8
393.917	80.57
394.131	34.26
394.345	61.19
394.559	76.5
394.773	45.69
394.986	46.66
395.2	56.74
395.414	86.96
395.628	27.29
395.842	69.14
396.056	28.25
396.27	7.72
396.484	62.35
396.697	53.44
396.911	99.75
397.125	64.68
397.339	92.77
397.553	45.5
397.766	99.36
397.98	75.14
398.194	98.59
398.408	58.48
398.621	56.93
398.835	59.25
399.049	83.47
399.262	110.6
399.476	114.47
399.69	114.86
399.903	149.15
400.117	83.86
400.331	97.62
400.544	69.33
400.758	177.25
400.971	96.65
401.185	116.02
401.398	36.78
401.612	113.7
401.826	103.82
402.039	101.3
402.253	77.47
402.466	102.07
402.68	82.31
402.893	113.5
403.106	93.94
403.32	86.77
403.533	127.26
403.747	74.56
403.96	112.15
404.174	125.32
404.387	74.37
404.6	88.9
404.814	132.88
405.027	112.92
405.24	80.95
405.454	82.5
405.667	122.22
405.88	50.54
406.094	123
406.307	149.93
406.52	101.3
406.733	68.75
406.947	57.9
407.16	161.36
407.373	161.17
407.586	92.97
407.799	79.02
408.012	146.63
408.226	77.27
408.439	181.7
408.652	90.06
408.865	116.99
409.078	149.35
409.291	121.64
409.504	74.56
409.717	130.75
409.93	123
410.143	129
410.357	68.94
410.57	79.99
410.783	72.62
410.996	128.42
411.209	127.84
411.421	165.04
411.634	122.22
411.847	89.48
412.06	125.71
412.273	130.36
412.486	128.03
412.699	167.17
412.912	114.08
413.125	148.77
413.338	123.19
413.55	162.13
413.763	116.02
413.976	134.23
414.189	95.1
414.402	98.78
414.615	159.03
414.827	116.41
415.04	168.33
415.253	165.82
415.466	152.83
415.678	207.86
415.891	138.88
416.104	137.33
416.316	143.34
416.529	119.7
416.742	166.78
416.954	193.71
417.167	163.3
417.38	134.43
417.592	196.81
417.805	133.46
418.017	79.21
418.23	171.24
418.442	123.38
418.655	146.63
418.868	130.94
419.08	190.81
419.293	198.75
419.505	154.97
419.718	148.18
419.93	194.68
420.142	137.53
420.355	188.29
420.567	181.12
420.78	180.15
420.992	147.41
421.205	197.4
421.417	111.57
421.629	137.53
421.842	144.7
422.054	119.51
422.266	180.54
422.479	199.91
422.691	170.66
422.903	165.43
423.115	123.58
423.328	141.79
423.54	172.79
423.752	159.62
423.964	150.12
424.177	182.48
424.389	167.37
424.601	250.87
424.813	161.94
425.025	210.57
425.238	205.73
425.45	174.73
425.662	152.06
425.874	458.76
426.086	185.58
426.298	171.43
426.51	183.64
426.722	179.18
426.934	161.94
427.146	187.32
427.358	154.58
427.57	208.05
427.782	145.28
427.994	179.57
428.206	153.03
428.418	129.39
428.63	198.95
428.842	203.79
429.054	201.46
429.266	190.23
429.478	148.38
429.69	162.52
429.902	151.67
430.114	189.45
430.325	191.39
430.537	153.03
430.749	160.39
430.961	102.27
431.173	151.48
431.384	167.95
431.596	91.22
431.808	164.46
432.02	186.93
432.231	206.11
432.443	237.31
432.655	193.52
432.867	181.7
433.078	218.13
433.29	254.16
433.502	240.99
433.713	244.86
433.925	224.91
434.136	242.15
434.348	183.06
434.56	157.48
434.771	290.98
434.983	178.02
435.194	181.12
435.406	213.86
435.617	244.09
435.829	278.58
436.04	240.41
436.252	214.83
436.463	277.99
436.675	282.45
436.886	246.22
437.098	275.86
437.309	318.49
437.521	254.94
437.732	306.67
437.943	231.5
438.155	264.24
438.366	212.7
438.578	308.61
438.789	246.8
439	219.48
439.211	229.36
439.423	259.2
439.634	250.29
439.845	240.6
440.057	253.39
440.268	275.67
440.479	239.25
440.69	256.3
440.902	245.83
441.113	260.56
441.324	209.02
441.535	271.6
441.746	321.78
441.957	255.33
442.168	256.3
442.38	269.08
442.591	302.41
442.802	258.43
443.013	248.93
443.224	317.33
443.435	280.13
443.646	253.58
443.857	291.94
444.068	287.88
444.279	271.02
444.49	332.05
444.701	286.71
444.912	365.57
445.123	337.28
445.334	312.87
445.545	309.96
445.756	296.01
445.967	248.74
446.178	312.09
446.388	308.41
446.599	320.23
446.81	293.49
447.021	291.36
447.232	322.17
447.443	363.24
447.653	292.53
447.864	343.87
448.075	335.54
448.286	351.04
448.496	347.36
448.707	358.79
448.918	321.2
449.129	401.99
449.339	310.74
449.55	328.18
449.761	313.26
449.971	389.59
450.182	341.93
450.393	349.29
450.603	346.19
450.814	388.04
451.024	373.9
451.235	386.88
451.446	397.15
451.656	419.24
451.867	344.06
452.077	376.61
452.288	416.14
452.498	394.44
452.709	347.74
452.919	366.92
453.13	351.81
453.34	375.45
453.55	299.5
453.761	393.66
453.971	372.35
454.182	389.01
454.392	382.81
454.602	436.09
454.813	405.87
455.023	392.5
455.233	347.94
455.444	381.26
455.654	324.49
455.864	397.15
456.075	362.47
456.285	380.49
456.495	358.21
456.705	392.5
456.916	436.67
457.126	460.7
457.336	381.46
457.546	355.3
457.756	374.29
457.967	431.06
458.177	349.49
458.387	418.07
458.597	365.76
458.807	374.29
459.017	341.74
459.227	389.21
459.437	401.61
459.647	434.74
459.857	413.23
460.068	375.64
460.278	441.91
460.488	409.16
460.698	474.45
460.908	390.76
461.117	374.48
461.327	412.46
461.537	432.41
461.747	445.39
461.957	433.77
462.167	524.25
462.377	432.02
462.587	431.64
462.797	446.36
463.007	435.51
463.216	492.67
463.426	467.67
463.636	477.75
463.846	385.33
464.056	400.06
464.265	478.52
464.475	415.75
464.685	459.15
464.895	463.99
465.104	419.82
465.314	444.81
465.524	442.1
465.733	402.77
465.943	513.79
466.153	501.58
466.362	491.31
466.572	454.89
466.782	442.49
466.991	483.37
467.201	516.3
467.41	408.77
467.62	488.21
467.829	458.18
468.039	483.95
468.249	450.24
468.458	462.64
468.668	487.63
468.877	477.75
469.086	542.65
469.296	520.18
469.505	464.77
469.715	524.83
469.924	480.07
470.134	534.9
470.343	526.57
470.552	485.89
470.762	465.15
470.971	461.67
471.18	473.87
471.39	483.37
471.599	481.82
471.808	525.22
472.018	480.46
472.227	548.85
472.436	586.25
472.645	519.6
472.855	482.4
473.064	569.39
473.273	563.58
473.482	529.29
473.691	581.4
473.901	574.62
474.11	546.14
474.319	633.91
474.528	569.39
474.737	617.25
474.946	581.4
475.155	594.38
475.364	606.4
475.573	595.74
475.783	599.81
475.992	606.01
476.201	637.78
476.41	596.13
476.619	574.04
476.828	590.9
477.037	580.63
477.245	585.47
477.454	632.55
477.663	577.53
477.872	622.48
478.081	718.77
478.29	616.08
478.499	691.45
478.708	661.23
478.917	691.45
479.125	661.61
479.334	671.3
479.543	679.44
479.752	686.41
479.961	696.68
480.169	716.83
480.378	672.66
480.587	790.07
480.796	740.28
481.004	721.68
481.213	741.44
481.422	742.41
481.63	724.58
481.839	755
482.048	786
482.256	715.67
482.465	772.83
482.674	761.2
482.882	808.47
483.091	835.79
483.299	781.35
483.508	803.82
483.716	787.74
483.925	801.69
484.134	780.77
484.342	800.53
484.551	820.87
484.759	800.73
484.967	837.54
485.176	835.02
485.384	809.25
485.593	837.54
485.801	808.86
486.01	769.73
486.218	722.84
486.426	686.61
486.635	698.04
486.843	692.03
487.051	727.29
487.26	743.57
487.468	798.79
487.676	803.82
487.885	802.08
488.093	805.18
488.301	830.76
488.509	844.51
488.717	846.84
488.926	833.47
489.134	842.19
489.342	868.15
489.55	826.3
489.758	849.55
489.967	853.62
490.175	949.72
490.383	872.8
490.591	945.07
490.799	887.72
491.007	962.31
491.215	933.83
491.423	922.01
491.631	922.59
491.839	923.17
492.047	965.41
492.255	890.24
492.463	838.12
492.671	913.49
492.879	950.69
493.087	925.5
493.295	954.95
493.503	961.34
493.711	989.24
493.919	1003.97
494.127	1023.53
494.334	992.73
494.542	963.09
494.75	982.07
494.958	1019.47
495.166	1046.2
495.374	1045.82
495.581	1057.05
495.789	1015.2
495.997	1116.15
496.205	1021.21
496.412	1025.47
496.62	1087.28
496.828	1058.8
497.035	1071.58
497.243	1076.81
497.451	1055.5
497.658	1083.6
497.866	1074.49
498.074	1123.9
498.281	1065
498.489	1128.55
498.696	1080.11
498.904	1062.09
499.112	1059.18
499.319	1138.43
499.527	1085.73
499.734	1131.65
499.942	1075.85
500.149	1086.11
500.357	1139.2
500.564	1101.03
500.771	1143.27
500.979	1096
501.186	1073.52
501.394	1119.44
501.601	1079.91
501.808	1122.15
502.016	1123.51
502.223	1133.78
502.43	1113.63
502.638	1105.3
502.845	1123.7
503.052	1202.17
503.26	1150.83
503.467	1258.74
503.674	1155.86
503.881	1212.24
504.089	1257.39
504.296	1212.83
504.503	1149.47
504.71	1196.94
504.917	1173.11
505.125	1226.39
505.332	1183.57
505.539	1232.78
505.746	1280.64
505.953	1311.06
506.16	1300.21
506.367	1333.53
506.574	1393.98
506.781	1341.09
506.988	1317.06
507.195	1310.47
507.402	1291.49
507.609	1373.44
507.816	1301.76
508.023	1310.67
508.23	1298.66
508.437	1295.17
508.644	1354.45
508.851	1434.86
509.058	1412.39
509.265	1443
509.472	1449
509.679	1508.29
509.885	1414.9
510.092	1410.84
510.299	1437.96
510.506	1438.35
510.713	1467.41
510.92	1428.85
511.126	1493.76
511.333	1510.61
511.54	1510.23
511.746	1574.55
511.953	1574.36
512.16	1608.26
512.367	1531.54
512.573	1572.61
512.78	1547.62
512.987	1557.31
513.193	1552.66
513.4	1496.67
513.606	1571.45
513.813	1586.18
514.02	1565.25
514.226	1682.66
514.433	1629.58
514.639	1559.83
514.846	1617.56
515.052	1634.23
515.259	1638.29
515.465	1666.39
515.672	1689.44
515.878	1765.2
516.085	1720.44
516.291	1743.5
516.497	1733.04
516.704	1696.42
516.91	1651.08
517.117	1591.99
517.323	1553.63
517.529	1612.53
517.736	1605.55
517.942	1597.8
518.148	1663.29
518.354	1694.67
518.561	1691.38
518.767	1696.81
518.973	1745.63
519.179	1784.77
519.386	1770.82
519.592	1796.39
519.798	1818.67
520.004	1936.28
520.21	1904.7
520.417	1965.92
520.623	1970.96
520.829	1983.75
521.035	2012.23
521.241	2014.16
521.447	2050.01
521.653	2155.99
521.859	2060.47
522.065	2090.31
522.271	2195.51
522.477	2154.05
522.683	2186.6
522.889	2150.95
523.095	2128.28
523.301	2118.21
523.507	2106.97
523.713	2161.41
523.919	2162.96
524.125	2252.09
524.331	2260.03
524.537	2361.75
524.742	2321.64
524.948	2389.65
525.154	2379.76
525.36	2472.96
525.566	2337.92
525.772	2439.05
525.977	2340.43
526.183	2384.61
526.389	2394.49
526.595	2331.91
526.8	2312.53
527.006	2254.22
527.212	2199.97
527.417	2195.12
527.623	2200.35
527.829	2287.93
528.034	2383.25
528.24	2368.14
528.446	2394.1
528.651	2481.68
528.857	2520.81
529.062	2542.32
529.268	2553.75
529.473	2631.64
529.679	2588.62
529.884	2661.86
530.09	2625.82
530.295	2620.98
530.501	2655.08
530.706	2633.19
530.912	2630.67
531.117	2657.4
531.323	2639.58
531.528	2705.84
531.733	2750.21
531.939	2722.5
532.144	2753.5
532.35	2724.05
532.555	2797.87
532.76	2675.23
532.966	2676.78
533.171	2655.08
533.376	2648.49
533.581	2633.57
533.787	2644.62
533.992	2733.35
534.197	2734.71
534.402	2734.9
534.607	2781.79
534.813	2802.91
535.018	2730.45
535.223	2801.55
535.428	2774.82
535.633	2855.8
535.838	2896.68
536.043	2867.43
536.249	2959.07
536.454	2934.85
536.659	2927.1
536.864	2903.66
537.069	2872.27
537.274	2858.13
537.479	2907.34
537.684	2863.75
537.889	2826.35
538.094	2978.83
538.299	2889.9
538.504	2930.98
538.708	2932.91
538.913	2978.64
539.118	2938.34
539.323	2964.69
539.528	2932.33
539.733	2953.06
539.938	2927.29
540.142	2914.51
540.347	2917.61
540.552	2872.85
540.757	2873.43
540.962	2869.95
541.166	2826.74
541.371	2833.71
541.576	2832.36
541.781	2786.44
541.985	2914.51
542.19	2903.85
542.395	3012.35
542.599	2998.98
542.804	2969.53
543.008	3011.57
543.213	2965.27
543.418	2905.4
543.622	2991.81
543.827	2938.73
544.031	3005.57
544.236	3039.47
544.44	3020.29
544.645	3081.71
544.849	3037.34
545.054	3087.33
545.258	3140.61
545.463	3107.29
545.667	3015.84
545.872	3129.95
546.076	3071.64
546.281	3080.55
546.485	3035.41
546.689	3117.55
546.894	3090.62
547.098	3078.61
547.302	3059.43
547.507	3056.14
547.711	3098.37
547.915	3125.69
548.119	3022.42
548.324	3048.19
548.528	3156.3
548.732	3106.51
548.936	3139.64
549.141	3152.82
549.345	3133.83
549.549	3099.92
549.753	3180.52
549.957	3198.93
550.161	3173.35
550.366	3169.87
550.57	3125.5
550.774	3132.09
550.978	3139.45
551.182	3131.12
551.386	3084.42
551.59	3112.9
551.794	3132.86
551.998	3172.77
552.202	3193.7
552.406	3096.05
552.61	3205.71
552.814	3150.49
553.018	3185.56
553.222	3104.19
553.426	3179.36
553.63	3247.17
553.833	3176.45
554.037	3101.67
554.241	3152.04
554.445	3182.07
554.649	3158.63
554.853	3145.45
555.056	3195.44
555.26	3220.63
555.464	3208.23
555.668	3209.78
555.871	3205.32
556.075	3192.73
556.279	3124.14
556.483	3115.42
556.686	3112.9
556.89	3127.44
557.094	3101.47
557.297	3021.84
557.501	3103.41
557.704	3031.34
557.908	3110.19
558.112	3044.9
558.315	3126.85
558.519	3067.96
558.722	3023.78
558.926	3067.96
559.129	2932.14
559.333	2944.93
559.536	2931.94
559.74	2908.11
559.943	2901.53
560.147	2903.46
560.35	2930.39
560.553	2956.55
560.757	2899.2
560.96	2994.14
561.164	2945.7
561.367	3012.54
561.57	2990.65
561.774	2956.94
561.977	2942.21
562.18	2926.71
562.384	3027.85
562.587	2909.66
562.79	2907.92
562.993	2853.09
563.197	2894.36
563.4	2938.34
563.603	2960.23
563.806	3005.18
564.009	2870.53
564.212	2929.81
564.416	2814.73
564.619	2874.6
564.822	2787.8
565.025	2881.38
565.228	2843.01
565.431	2856
565.634	2750.02
565.837	2730.83
566.04	2683.37
566.243	2724.44
566.446	2615.75
566.649	2778.3
566.852	2652.37
567.055	2698.87
567.258	2702.94
567.461	2801.94
567.664	2757.18
567.867	2663.02
568.07	2732
568.273	2718.24
568.475	2789.15
568.678	2618.07
568.881	2609.94
569.084	2570.41
569.287	2507.64
569.489	2546.58
569.692	2571.96
569.895	2546.58
570.098	2479.16
570.3	2478.58
570.503	2444.48
570.706	2434.21
570.909	2451.65
571.111	2379.96
571.314	2365.23
571.516	2367.37
571.719	2382.86
571.922	2385.77
572.124	2374.73
572.327	2374.92
572.529	2358.07
572.732	2364.65
572.935	2412.31
573.137	2447
573.34	2368.14
573.542	2407.66
573.745	2379.57
573.947	2396.43
574.15	2330.36
574.352	2342.18
574.554	2386.93
574.757	2322.61
574.959	2268.55
575.162	2301.68
575.364	2270.49
575.566	2333.27
575.769	2207.91
575.971	2306.14
576.173	2188.73
576.376	2242.4
576.578	2254.41
576.78	2280.57
576.982	2203.84
577.185	2233.49
577.387	2152.31
577.589	2201.9
577.791	2189.7
577.993	2230.39
578.196	2171.87
578.398	2215.66
578.6	2249.95
578.802	2160.83
579.004	2153.47
579.206	2154.82
579.408	2143.2
579.61	2138.55
579.812	2218.57
580.014	2123.05
580.216	2123.05
580.418	2162.57
580.62	2155.99
580.822	2118.4
581.024	2151.53
581.226	2194.35
581.428	2144.17
581.63	2239.69
581.832	2145.91
582.034	2208.69
582.236	2140.49
582.438	2207.72
582.64	2215.08
582.841	2227.29
583.043	2325.52
583.245	2189.12
583.447	2228.64
583.649	2227.09
583.85	2232.9
584.052	2242.59
584.254	2161.61
584.456	2206.36
584.657	2157.15
584.859	2207.72
585.061	2151.72
585.262	2189.31
585.464	2086.82
585.666	2140.49
585.867	2112.39
586.069	2164.71
586.27	2157.92
586.472	2122.08
586.674	2075.39
586.875	2056.21
587.077	2081.78
587.278	2111.04
587.48	2071.13
587.681	2218.76
587.883	2097.28
588.084	2013
588.285	2038.58
588.487	2010.29
588.688	2002.54
588.89	1963.6
589.091	1888.03
589.292	1871.95
589.494	1842.89
589.695	1830.1
589.896	1748.73
590.098	1758.03
590.299	1800.85
590.5	1778.57
590.702	1798.72
590.903	1835.53
591.104	1899.27
591.305	1898.11
591.507	1904.5
591.708	1912.25
591.909	1892.3
592.11	1988.4
592.311	1953.13
592.512	1854.52
592.714	1851.03
592.915	1885.32
593.116	1841.34
593.317	1885.71
593.518	1899.27
593.719	1916.13
593.92	1956.62
594.121	1968.63
594.322	1917.68
594.523	1909.54
594.724	1837.66
594.925	1827
595.126	1875.05
595.327	1899.66
595.528	1852.77
595.729	1886.87
595.929	1808.79
596.13	1867.88
596.331	1884.74
596.532	1869.82
596.733	1955.07
596.934	1914.38
597.135	1927.17
597.335	1897.92
597.536	1842.12
597.737	1862.85
597.938	1881.25
598.138	1883.19
598.339	1863.82
598.54	1914.97
598.74	1845.22
598.941	1883
599.142	1930.85
599.342	1898.3
599.543	1875.05
599.744	1858
599.944	1888.42
600.145	1869.43
600.345	1893.07
600.546	1996.34
600.746	1941.9
600.947	1995.37
601.147	1900.63
601.348	1916.32
601.548	1855.68
601.749	1882.22
601.949	1811.31
602.15	1847.93
602.35	1835.53
602.551	1885.9
602.751	1822.94
602.951	1835.53
603.152	1808.79
603.352	1866.33
603.552	1880.87
603.753	1861.49
603.953	1905.08
604.153	1868.85
604.354	1876.41
604.554	1857.42
604.754	1872.92
604.954	1830.3
605.155	1878.15
605.355	1894.43
605.555	1925.04
605.755	1949.06
605.955	1867.11
606.155	1904.7
606.356	1873.89
606.556	1909.93
606.756	1885.32
606.956	1796.59
607.156	1899.27
607.356	1833.59
607.556	1845.99
607.756	1864.98
607.956	1868.47
608.156	1855.68
608.356	1816.54
608.556	1843.67
608.756	1843.86
608.956	1777.79
609.156	1818.67
609.356	1739.82
609.556	1752.8
609.755	1793.87
609.955	1753.19
610.155	1763.84
610.355	1773.34
610.555	1751.25
610.755	1748.73
610.954	1703.2
611.154	1745.63
611.354	1815.57
611.554	1708.62
611.753	1721.41
611.953	1671.81
612.153	1765.2
612.352	1720.06
612.552	1699.52
612.752	1677.04
612.951	1675.49
613.151	1676.46
613.351	1675.49
613.55	1682.27
613.75	1695.84
613.949	1636.16
614.149	1651.47
614.348	1645.46
614.548	1629.96
614.747	1553.43
614.947	1615.04
615.146	1579.01
615.346	1663.09
615.545	1649.34
615.745	1655.54
615.944	1657.67
616.144	1640.43
616.343	1608.46
616.542	1579.78
616.742	1584.24
616.941	1556.73
617.14	1537.74
617.34	1548.4
617.539	1583.08
617.738	1546.07
617.938	1632.68
618.137	1556.92
618.336	1537.35
618.535	1595.09
618.734	1598.77
618.934	1586.37
619.133	1571.65
619.332	1620.28
619.531	1567.58
619.73	1559.63
619.929	1577.26
620.128	1588.5
620.328	1616.21
620.527	1565.06
620.726	1542.78
620.925	1577.46
621.124	1560.41
621.323	1574.16
621.522	1520.69
621.721	1509.06
621.92	1508.48
622.119	1565.64
622.318	1504.41
622.517	1501.7
622.715	1518.36
622.914	1437.18
623.113	1518.95
623.312	1466.05
623.511	1520.3
623.71	1462.95
623.909	1465.67
624.107	1569.32
624.306	1452.3
624.505	1493.37
624.704	1464.7
624.902	1447.45
625.101	1522.43
625.3	1479.03
625.499	1439.12
625.697	1433.7
625.896	1403.28
626.095	1455.98
626.293	1407.93
626.492	1437.18
626.69	1458.11
626.889	1446.29
627.088	1447.26
627.286	1420.72
627.485	1412.97
627.683	1380.22
627.882	1383.9
628.08	1331.98
628.279	1332.95
628.477	1399.02
628.676	1304.08
628.874	1374.6
629.073	1319
629.271	1306.79
629.469	1363.17
629.668	1335.66
629.866	1326.17
630.065	1341.86
630.263	1341.67
630.461	1336.63
630.66	1374.22
630.858	1371.89
631.056	1395.92
631.254	1388.36
631.453	1349.22
631.651	1404.05
631.849	1371.31
632.047	1379.06
632.245	1384.87
632.444	1394.95
632.642	1356.97
632.84	1401.92
633.038	1376.35
633.236	1330.04
633.434	1317.26
633.632	1335.66
633.83	1341.28
634.028	1410.06
634.227	1369.37
634.425	1432.53
634.623	1381.58
634.821	1378.67
635.019	1393.2
635.216	1372.09
635.414	1418.58
635.612	1364.53
635.81	1377.7
636.008	1420.91
636.206	1384.1
636.404	1410.06
636.602	1343.22
636.8	1377.51
636.997	1367.44
637.195	1392.62
637.393	1355.42
637.591	1422.65
637.789	1379.64
637.986	1357.36
638.184	1365.11
638.382	1409.87
638.58	1402.7
638.777	1458.3
638.975	1380.42
639.173	1381
639.37	1364.92
639.568	1398.24
639.765	1399.99
639.963	1336.82
640.161	1405.6
640.358	1398.82
640.556	1312.99
640.753	1313.77
640.951	1270.37
641.148	1348.84
641.346	1323.26
641.543	1309.89
641.741	1324.42
641.938	1269.59
642.136	1289.74
642.333	1254.67
642.531	1345.54
642.728	1315.51
642.925	1279.86
643.123	1273.86
643.32	1282.96
643.517	1283.74
643.715	1293.42
643.912	1279.09
644.109	1260.1
644.306	1254.09
644.504	1199.65
644.701	1275.21
644.898	1282.38
645.095	1176.4
645.293	1233.56
645.49	1277.73
645.687	1237.43
645.884	1250.41
646.081	1145.4
646.278	1170.01
646.475	1162.45
646.672	1162.45
646.87	1213.99
647.067	1181.63
647.264	1172.14
647.461	1107.81
647.658	1065.58
647.855	1158.96
648.052	1067.71
648.249	1040.78
648.446	1110.53
648.642	1069.26
648.839	1075.26
649.036	1058.6
649.233	1067.51
649.43	1063.64
649.627	1021.6
649.824	1058.22
650.021	1064.61
650.217	1071.2
650.414	1037.48
650.611	1094.64
650.808	1091.93
651.004	1088.44
651.201	1080.5
651.398	1101.42
651.595	1066.35
651.791	1048.92
651.988	1090.57
652.185	1023.34
652.381	1050.66
652.578	999.7
652.775	1062.87
652.971	1044.65
653.168	1062.48
653.364	1081.85
653.561	1019.66
653.757	1040
653.954	1047.56
654.15	1018.69
654.347	1096.38
654.543	1036.13
654.74	970.06
654.936	986.33
655.133	1003
655.329	1039.03
655.525	1010.36
655.722	1020.05
655.918	952.43
656.115	985.56
656.311	896.63
656.507	880.74
656.704	821.26
656.9	883.26
657.096	887.72
657.292	868.15
657.489	943.9
657.685	938.87
657.881	928.6
658.077	949.72
658.273	929.76
658.47	1024.7
658.666	953.4
658.862	997.18
659.058	956.11
659.254	1026.44
659.45	964.64
659.646	965.6
659.842	953.59
660.038	1001.64
660.234	942.55
660.43	978
660.626	1021.6
660.822	1006.29
661.018	1015.2
661.214	992.92
661.41	963.67
661.606	983.43
661.802	1003.77
661.998	959.4
662.194	922.2
662.39	989.63
662.586	1005.71
662.781	993.12
662.977	960.37
663.173	971.8
663.369	952.43
663.564	984.01
663.76	979.55
663.956	953.01
664.152	981.88
664.347	910.39
664.543	899.54
664.739	928.02
664.934	871.64
665.13	877.06
665.326	959.02
665.521	927.63
665.717	882.68
665.912	878.03
666.108	827.27
666.304	910.97
666.499	889.65
666.695	871.25
666.89	854.59
667.086	915.62
667.281	908.06
667.477	901.47
667.672	901.67
667.867	889.65
668.063	890.82
668.258	837.54
668.454	862.34
668.649	938.29
668.844	883.46
669.04	883.46
669.235	885.78
669.43	845.09
669.626	806.34
669.821	872.8
670.016	836.37
670.211	860.21
670.407	832.69
670.602	850.91
670.797	841.61
670.992	879.77
671.187	823.59
671.382	880.36
671.578	817.19
671.773	843.93
671.968	790.46
672.163	848.77
672.358	845.29
672.553	798.01
672.748	832.5
672.943	858.46
673.138	838.31
673.333	842.57
673.528	771.66
673.723	843.54
673.918	813.71
674.113	793.36
674.308	899.54
674.503	834.63
674.698	832.89
674.892	830.56
675.087	849.36
675.282	830.56
675.477	795.3
675.672	816.03
675.867	812.74
676.061	784.84
676.256	770.31
676.451	780.96
676.646	834.44
676.84	780.58
677.035	754.81
677.23	761.78
677.424	825.33
677.619	822.62
677.814	835.02
678.008	824.75
678.203	769.34
678.397	811.38
678.592	774.38
678.787	875.71
678.981	799.37
679.176	824.56
679.37	823.78
679.565	780.38
679.759	788.91
679.954	831.14
680.148	869.89
680.342	887.33
680.537	850.91
680.731	804.02
680.926	850.13
681.12	845.67
681.314	796.08
681.509	801.11
681.703	816.61
681.897	831.92
682.092	812.54
682.286	840.64
682.48	882.1
682.674	830.76
682.869	825.72
683.063	830.95
683.257	875.32
683.451	846.84
683.645	840.44
683.839	845.09
684.034	815.64
684.228	867.57
684.422	807.89
684.616	831.14
684.81	860.98
685.004	836.57
685.198	813.71
685.392	846.45
685.586	834.05
685.78	893.72
685.974	874.54
686.168	847.61
686.362	910.77
686.556	820.68
686.75	775.15
686.944	764.49
687.138	756.55
687.331	649.02
687.525	689.32
687.719	626.74
687.913	649.21
688.107	731.56
688.301	674.79
688.494	742.79
688.688	676.53
688.882	681.18
689.076	673.05
689.269	733.49
689.463	801.31
689.657	720.13
689.85	722.06
690.044	759.65
690.238	768.18
690.431	792.01
690.625	800.53
690.818	845.48
691.012	830.37
691.205	897.21
691.399	835.21
691.593	940.61
691.786	984.2
691.98	960.95
692.173	982.85
692.366	960.57
692.56	1047.75
692.753	1035.55
692.947	988.85
693.14	1067.71
693.333	1072.94
693.527	1023.73
693.72	1078.36
693.914	1058.41
694.107	1076.62
694.3	1080.88
694.493	1101.23
694.687	1160.32
694.88	1118.08
695.073	1219.99
695.266	1198.88
695.46	1199.07
695.653	1264.94
695.846	1294.01
696.039	1201.01
696.232	1249.44
696.425	1349.22
696.618	1361.62
696.812	1348.84
697.005	1447.26
697.198	1533.67
697.391	1426.14
697.584	1485.04
697.777	1546.46
697.97	1521.46
698.163	1597.8
698.356	1558.66
698.549	1670.26
698.742	1619.5
698.935	1599.16
699.127	1615.82
699.32	1576.88
699.513	1610.98
699.706	1631.71
699.899	1699.52
700.092	1626.48
700.285	1680.53
700.477	1622.79
700.67	1696.61
700.863	1717.92
701.056	1805.11
701.248	1763.45
701.441	1773.53
701.634	1779.92
701.826	1869.43
702.019	1770.43
702.212	1876.22
702.404	1825.07
702.597	1788.45
702.79	1876.22
702.982	1866.92
703.175	1941.12
703.367	1972.12
703.56	2016.88
703.752	2072.87
703.945	2057.95
704.137	2067.83
704.33	2133.51
704.522	2145.52
704.715	2176.14
704.907	2207.14
705.1	2194.93
705.292	2250.73
705.484	2221.28
705.677	2275.92
705.869	2301.3
706.061	2330.17
706.254	2326.87
706.446	2340.63
706.638	2322.8
706.831	2391.78
707.023	2414.83
707.215	2503.57
707.407	2456.3
707.599	2480.51
707.792	2542.32
707.984	2541.93
708.176	2573.51
708.368	2505.31
708.56	2583.97
708.752	2578.74
708.944	2549.49
709.136	2641.52
709.329	2608
709.521	2720.76
709.713	2701
709.905	2721.73
710.097	2783.53
710.289	2715.53
710.481	2793.22
710.672	2778.5
710.864	2824.8
711.056	2840.11
711.248	2863.36
711.44	2866.46
711.632	2880.41
711.824	2957.52
712.016	2906.18
712.207	2958.88
712.399	2910.44
712.591	3013.71
712.783	3010.22
712.975	3031.92
713.166	2958.49
713.358	3008.28
713.55	3092.37
713.741	3074.35
713.933	3055.56
714.125	3047.42
714.316	3060.79
714.508	3128.4
714.7	3085.39
714.891	3125.11
715.083	3151.46
715.274	3115.81
715.466	3159.6
715.657	3179.94
715.849	3060.79
716.04	3120.85
716.232	3025.72
716.423	3085.78
716.615	2975.73
716.806	2898.23
716.998	2819.96
717.189	2735.1
717.381	2635.51
717.572	2543.87
717.763	2555.11
717.955	2517.52
718.146	2501.24
718.337	2418.32
718.528	2377.63
718.72	2309.82
718.911	2350.12
719.102	2292
719.293	2281.34
719.485	2274.37
719.676	2254.8
719.867	2205
720.058	2257.9
720.249	2231.55
720.44	2241.24
720.632	2339.08
720.823	2379.38
721.014	2546.58
721.205	2601.61
721.396	2713.59
721.587	2846.5
721.778	2908.31
721.969	2928.46
722.16	2985.81
722.351	3011.96
722.542	3190.98
722.733	3185.17
722.924	3125.11
723.115	3146.81
723.305	3080.16
723.496	3102.83
723.687	2934.27
723.878	2928.65
724.069	2883.31
724.26	2956.74
724.45	2839.53
724.641	2835.85
724.832	2857.55
725.023	2795.55
725.213	2843.4
725.404	2780.82
725.595	2859.48
725.785	2772.1
725.976	2875.37
726.167	2832.75
726.357	2861.81
726.548	2936.98
726.739	2867.23
726.929	2988.91
727.12	2999.56
727.31	3004.21
727.501	2935.63
727.691	2915.67
727.882	2965.27
728.072	2980.58
728.263	2998.59
728.453	3115.81
728.644	3112.71
728.834	3056.72
729.024	3027.46
729.215	3009.83
729.405	3013.71
729.596	3117.36
729.786	3103.8
729.976	3196.41
730.167	3140.22
730.357	3094.11
730.547	3121.82
730.737	3153.4
730.928	3196.02
731.118	3223.15
731.308	3157.85
731.498	3219.47
731.688	3308.59
731.879	3345.79
732.069	3354.7
732.259	3444.41
732.449	3477.73
732.639	3521.32
732.829	3568.02
733.019	3648.62
733.209	3728.83
733.399	3725.92
733.589	3783.46
733.779	3837.71
733.969	3859.22
734.159	3956.09
734.349	3977.99
734.539	4027.2
734.729	4048.32
734.919	4096.17
735.109	4093.46
735.299	4038.63
735.488	4052.19
735.678	4093.65
735.868	4023.52
736.058	4048.12
736.248	4057.03
736.437	3996
736.627	4028.94
736.817	4115.55
737.007	4052.38
737.196	4166.31
737.386	4145.19
737.576	4075.44
737.765	4144.22
737.955	4101.21
738.144	4243.03
738.334	4244.39
738.524	4184.91
738.713	4212.23
738.903	4177.16
739.092	4239.93
739.282	4211.26
739.471	4255.82
739.661	4194.01
739.85	4286.63
740.04	4303.09
740.229	4307.16
740.419	4317.62
740.608	4366.26
740.797	4309.49
740.987	4454.99
741.176	4362.57
741.365	4366.06
741.555	4306.39
741.744	4442.01
741.933	4355.02
742.123	4407.52
742.312	4422.25
742.501	4469.14
742.69	4453.05
742.88	4402.87
743.069	4537.33
743.258	4471.27
743.447	4554.77
743.636	4451.89
743.825	4489.67
744.014	4494.71
744.204	4553.42
744.393	4466.62
744.582	4585.19
744.771	4581.7
744.96	4488.32
745.149	4542.37
745.338	4540.82
745.527	4583.25
745.716	4521.06
745.905	4501.88
746.094	4574.53
746.283	4549.15
746.471	4535.2
746.66	4677.22
746.849	4609.41
747.038	4612.31
747.227	4530.94
747.416	4635.56
747.604	4524.74
747.793	4483.86
747.982	4524.93
748.171	4610.38
748.359	4546.83
748.548	4572.98
748.737	4556.71
748.926	4516.99
749.114	4410.04
749.303	4504.4
749.491	4540.43
749.68	4454.22
749.869	4523.58
750.057	4466.81
750.246	4477.27
750.434	4471.85
750.623	4452.28
750.811	4430.19
751	4534.62
751.188	4458.09
751.377	4435.04
751.565	4441.24
751.754	4420.5
751.942	4395.12
752.131	4484.25
752.319	4417.79
752.507	4365.67
752.696	4427.48
752.884	4465.26
753.072	4371.68
753.261	4396.67
753.449	4372.46
753.637	4349.01
753.825	4462.74
754.014	4373.42
754.202	4397.64
754.39	4403.26
754.578	4466.04
754.766	4329.64
754.955	4357.15
755.143	4415.08
755.331	4377.11
755.519	4375.36
755.707	4305.42
755.895	4311.23
756.083	4311.62
756.271	4246.52
756.459	4327.89
756.647	4329.44
756.835	4230.05
757.023	4238.19
757.211	4274.23
757.399	4271.13
757.587	4263.76
757.775	4182.78
757.963	4229.28
758.151	4223.85
758.339	4130.85
758.526	4147.51
758.714	4173.67
758.902	4075.44
759.09	3964.42
759.278	3692.21
759.465	3395.78
759.653	2991.04
759.841	2686.08
760.028	2316.02
760.216	1994.21
760.404	1834.75
760.591	1574.75
760.779	1260.49
760.967	1109.95
761.154	937.51
761.342	910
761.529	932.67
761.717	972.58
761.905	948.94
762.092	1018.69
762.28	955.92
762.467	955.92
762.655	869.51
762.842	880.55
763.029	899.73
763.217	906.51
763.404	906.51
763.592	958.24
763.779	862.53
763.966	899.92
764.154	1006.1
764.341	1078.56
764.528	1041.17
764.716	1116.73
764.903	1205.27
765.09	1276.57
765.277	1370.34
765.465	1503.25
765.652	1604
765.839	1712.11
766.026	1845.41
766.213	1920.78
766.4	2075.39
766.588	2264.49
766.775	2267.59
766.962	2428.59
767.149	2542.71
767.336	2731.22
767.523	2764.74
767.71	2892.61
767.897	3027.66
768.084	3094.5
768.271	3151.65
768.458	3235.35
768.645	3331.84
768.832	3310.53
769.019	3368.46
769.206	3459.32
769.392	3579.06
769.579	3592.04
769.766	3583.13
769.953	3550.19
770.14	3642.42
770.327	3645.71
770.513	3714.68
770.7	3765.45
770.887	3646.29
771.073	3717.01
771.26	3743.94
771.447	3728.25
771.634	3687.95
771.82	3786.18
772.007	3696.28
772.193	3760.99
772.38	3767.38
772.567	3716.04
772.753	3694.92
772.94	3751.69
773.126	3784.43
773.313	3770.29
773.499	3781.91
773.686	3811.75
773.872	3739.1
774.059	3795.67
774.245	3692.79
774.432	3700.73
774.618	3644.93
774.804	3727.86
774.991	3639.12
775.177	3710.61
775.363	3745.3
775.55	3741.81
775.736	3666.83
775.922	3694.34
776.109	3673.22
776.295	3704.61
776.481	3722.82
776.667	3703.64
776.853	3661.6
777.04	3627.5
777.226	3622.85
777.412	3697.25
777.598	3627.3
777.784	3626.72
777.97	3616.26
778.156	3635.63
778.342	3599.4
778.528	3571.12
778.715	3511.83
778.901	3561.62
779.087	3602.89
779.272	3545.35
779.458	3569.18
779.644	3556.39
779.83	3495.56
780.016	3633.7
780.202	3549.42
780.388	3517.45
780.574	3483.35
780.76	3482.19
780.946	3569.57
781.131	3518.8
781.317	3472.89
781.503	3475.02
781.689	3434.14
781.874	3565.69
782.06	3428.13
782.246	3469.79
782.432	3466.69
782.617	3445.37
782.803	3516.29
782.989	3396.16
783.174	3389.77
783.36	3380.28
783.545	3391.51
783.731	3379.69
783.916	3305.1
784.102	3379.89
784.288	3323.9
784.473	3344.63
784.659	3333.2
784.844	3355.48
785.029	3352.38
785.215	3302.39
785.4	3256.86
785.586	3369.23
785.771	3250.85
785.956	3284.95
786.142	3189.82
786.327	3261.12
786.512	3262.86
786.698	3231.87
786.883	3179.36
787.068	3247.17
787.254	3221.79
787.439	3189.05
787.624	3162.31
787.809	3139.84
787.994	3124.34
788.18	3204.55
788.365	3088.69
788.55	3117.75
788.735	3138.48
788.92	3107.09
789.105	3094.89
789.29	3110.58
789.475	2997.82
789.66	2994.33
789.845	3027.07
790.03	2982.32
790.215	3034.44
790.4	3038.51
790.585	3071.25
790.77	3014.09
790.955	2942.21
791.14	2952.87
791.325	3053.42
791.51	2927.1
791.695	2975.54
791.879	2953.64
792.064	2893.39
792.249	3030.95
792.434	2992.97
792.618	2978.64
792.803	2975.34
792.988	2948.22
793.173	2987.16
793.357	3029.01
793.542	2921.29
793.727	3025.72
793.911	3051.29
794.096	3022.81
794.281	3087.33
794.465	3105.93
794.65	2995.88
794.834	3094.69
795.019	3091.59
795.203	3090.43
795.388	3061.37
795.572	3104.57
795.757	3040.06
795.941	3041.99
796.126	3034.82
796.31	2957.71
796.494	2997.04
796.679	2979.8
796.863	2966.82
797.048	3023.78
797.232	3032.11
797.416	3025.72
797.601	2997.43
797.785	3090.04
797.969	3068.34
798.153	3034.44
798.338	3092.95
798.522	3094.89
798.706	3071.06
798.89	3124.72
799.074	3132.47
799.258	3161.15
799.443	3075.9
799.627	3068.73
799.811	3108.06
799.995	3080.16
800.179	3065.82
800.363	3038.51
800.547	3068.15
800.731	3074.35
800.915	2998.59
801.099	3008.86
801.283	3011.19
801.467	3006.92
801.651	3015.84
801.835	3049.36
802.019	3027.07
802.202	3037.34
802.386	2964.11
802.57	2923.42
802.754	3033.86
802.938	2971.66
803.121	2992.59
803.305	3054.78
803.489	3008.47
803.673	3011.38
803.856	3046.84
804.04	3028.24
804.224	3035.41
804.407	3013.32
804.591	2991.42
804.775	2986
804.958	3012.74
805.142	3119.3
805.326	3050.71
805.509	3054.78
805.693	3078.61
805.876	3084.23
806.06	3073.57
806.243	3095.85
806.427	3088.69
806.61	3128.4
806.794	3060.4
806.977	3103.99
807.16	3081.52
807.344	3055.75
807.527	3068.54
807.71	3053.23
807.894	3078.42
808.077	3094.5
808.26	3000.34
808.444	3010.22
808.627	3093.72
808.81	2986.58
808.993	2931.56
809.177	2963.14
809.36	2921.68
809.543	3001.31
809.726	2872.46
809.909	2876.15
810.092	2862.2
810.276	2836.23
810.459	2862.58
810.642	2783.53
810.825	2790.12
811.008	2813.76
811.191	2695.38
811.374	2732.19
811.557	2720.76
811.74	2734.9
811.923	2668.06
812.106	2694.99
812.289	2611.49
812.472	2622.92
812.654	2626.41
812.837	2577.77
813.02	2517.91
813.203	2471.02
813.386	2372.02
813.569	2328.03
813.751	2276.89
813.934	2299.55
814.117	2280.37
814.3	2203.07
814.482	2146.69
814.665	2127.31
814.848	2084.69
815.03	2029.66
815.213	1986.07
815.396	2010.87
815.578	1960.3
815.761	1939.38
815.943	1988.01
816.126	1876.02
816.309	1867.88
816.491	1810.15
816.674	1749.51
816.856	1802.2
817.039	1813.05
817.221	1876.6
817.403	1837.47
817.586	1826.23
817.768	1814.6
817.951	1766.17
818.133	1737.88
818.315	1763.65
818.498	1797.75
818.68	1875.05
818.862	1835.34
819.045	1886.68
819.227	1864.01
819.409	1833.4
819.591	1862.65
819.774	1853.16
819.956	1805.3
820.138	1910.12
820.32	1898.88
820.502	1968.05
820.684	2065.51
820.866	2053.11
821.048	2092.63
821.231	2138.94
821.413	2106.78
821.595	2092.83
821.777	2131.19
821.959	2077.71
822.141	2169.55
822.323	2010.48
822.505	1931.05
822.686	1890.17
822.868	1758.81
823.05	1692.35
823.232	1606.71
823.414	1549.95
823.596	1635.19
823.778	1631.32
823.96	1671.04
824.141	1694.67
824.323	1675.49
824.505	1780.89
824.687	1858.78
824.868	1897.92
825.05	1989.56
825.232	2006.22
825.413	2129.06
825.595	2056.98
825.777	1999.83
825.958	2055.24
826.14	2030.05
826.321	2063.57
826.503	2055.43
826.685	2072.29
826.866	2116.66
827.048	2076.55
827.229	2011.26
827.411	1966.5
827.592	1936.47
827.773	1921.36
827.955	1851.22
828.136	1861.68
828.318	1802.98
828.499	1854.71
828.68	1790.77
828.862	1831.27
829.043	1857.81
829.224	1842.7
829.406	1779.15
829.587	1804.14
829.768	1784.19
829.949	1822.55
830.131	1841.54
830.312	1907.41
830.493	1833.79
830.674	1861.49
830.855	1834.37
831.036	1848.9
831.218	1896.56
831.399	1918.26
831.58	1829.14
831.761	1836.69
831.942	1891.91
832.123	1862.65
832.304	1786.9
832.485	1831.27
832.666	1865.75
832.847	1844.44
833.028	1825.07
833.209	1823.13
833.389	1845.02
833.57	1749.7
833.751	1796.78
833.932	1863.82
834.113	1874.47
834.294	1828.94
834.475	1851.03
834.655	1901.21
834.836	1934.92
835.017	1937.44
835.198	1818.67
835.378	1878.35
835.559	1902.18
835.74	1886.48
835.92	1859.17
836.101	1871.37
836.281	1916.32
836.462	1933.37
836.643	1939.76
836.823	1969.41
837.004	1932.4
837.184	1992.85
837.365	1976.77
837.545	1946.55
837.726	1903.73
837.906	1951.97
838.087	1966.89
838.267	1970.38
838.448	1886.29
838.628	1902.95
838.808	1938.02
838.989	1961.46
839.169	1892.1
839.349	1963.79
839.53	1992.08
839.71	1951.39
839.89	1933.37
840.07	2020.95
840.251	1915.74
840.431	2026.37
840.611	1915.93
840.791	1952.94
840.971	1962.43
841.151	1920
841.332	1899.08
841.512	1984.13
841.692	1861.88
841.872	1969.21
842.052	1931.82
842.232	1960.69
842.412	1877.57
842.592	1908.38
842.772	1945.77
842.952	1880.87
843.132	1881.25
843.312	1885.71
843.492	1836.69
843.672	1954.1
843.851	1853.16
844.031	1875.25
844.211	1873.89
844.391	1900.24
844.571	1889.39
844.751	1913.42
844.93	1861.49
845.11	1883
845.29	1892.88
845.47	1881.64
845.649	1908.38
845.829	1915.35
846.009	1873.5
846.188	1913.03
846.368	1894.62
846.547	1913.22
846.727	1919.42
846.907	1823.71
847.086	1882.8
847.266	1888.62
847.445	1894.43
847.625	1846.38
847.804	1819.25
847.984	1854.71
848.163	1844.83
848.343	1800.85
848.522	1829.52
848.701	1842.5
848.881	1815.77
849.06	1842.31
849.239	1842.12
849.419	1790.58
849.598	1758.22
849.777	1763.07
849.957	1719.67
850.136	1673.56
850.315	1635
850.494	1678.79
850.674	1658.64
850.853	1736.33
851.032	1687.31
851.211	1746.21
851.39	1718.31
851.569	1666.19
851.748	1633.64
851.927	1733.81
852.107	1706.11
852.286	1668.71
852.465	1641.78
852.644	1704.94
852.823	1741.17
853.002	1684.02
853.181	1680.53
853.359	1689.44
853.538	1616.59
853.717	1701.46
853.896	1559.25
854.075	1526.5
854.254	1499.38
854.433	1412.19
854.611	1462.18
854.79	1408.32
854.969	1486.01
855.148	1513.91
855.327	1431.18
855.505	1478.84
855.684	1501.31
855.863	1532.51
856.041	1542.97
856.22	1580.36
856.399	1523.79
856.577	1643.72
856.756	1620.47
856.934	1744.08
857.113	1731.68
857.291	1646.63
857.47	1577.07
857.648	1658.83
857.827	1673.56
858.005	1632.68
858.184	1586.18
858.362	1699.32
858.541	1615.82
858.719	1624.73
858.898	1615.63
859.076	1600.13
859.254	1673.94
859.433	1605.16
859.611	1581.91
859.789	1530.76
859.967	1650.11
860.146	1633.64
860.324	1572.61
860.502	1561.96
860.68	1523.01
860.859	1557.11
861.037	1572.03
861.215	1581.14
861.393	1603.03
861.571	1551.5
861.749	1549.36
861.927	1578.81
862.105	1555.95
862.283	1550.53
862.461	1545.88
862.639	1538.9
862.817	1547.62
862.995	1569.13
863.173	1525.15
863.351	1534.83
863.529	1529.41
863.707	1569.9
863.885	1541.03
864.063	1488.14
864.241	1498.8
864.418	1559.05
864.596	1470.32
864.774	1455.01
864.952	1502.67
865.129	1503.06
865.307	1492.79
865.485	1442.22
865.663	1469.35
865.84	1410.64
866.018	1393.2
866.196	1288.77
866.373	1327.52
866.551	1283.35
866.728	1225.03
866.906	1282.19
867.084	1325.78
867.261	1328.69
867.439	1366.47
867.616	1379.64
867.794	1360.85
867.971	1387.39
868.149	1383.9
868.326	1453.27
868.503	1424.01
868.681	1410.45
868.858	1414.52
869.035	1406.77
869.213	1416.84
869.39	1386.04
869.567	1459.66
869.745	1403.86
869.922	1384.68
870.099	1379.06
870.276	1366.85
870.454	1399.4
870.631	1371.12
870.808	1357.36
870.985	1385.45
871.162	1483.88
871.339	1384.29
871.517	1318.22
871.694	1289.55
871.871	1346.51
872.048	1382.94
872.225	1341.28
872.402	1380.8
872.579	1324.23
872.756	1352.71
872.933	1304.86
873.11	1309.51
873.287	1356.39
873.463	1335.47
873.64	1288.97
873.817	1352.52
873.994	1327.14
874.171	1292.84
874.348	1301.17
874.524	1263.39
874.701	1293.62
874.878	1227.55
875.055	1286.45
875.231	1288.97
875.408	1313.38
875.585	1220.77
875.762	1262.62
875.938	1274.05
876.115	1232.01
876.291	1242.47
876.468	1271.53
876.645	1225.42
876.821	1234.14
876.998	1239.56
877.174	1274.24
877.351	1257
877.527	1231.43
877.704	1252.74
877.88	1238.59
878.057	1201.2
878.233	1258.74
878.409	1218.06
878.586	1246.54
878.762	1213.99
878.938	1226.19
879.115	1154.7
879.291	1195.58
879.467	1182.79
879.644	1189.58
879.82	1216.89
879.996	1150.44
880.172	1131.45
880.349	1201.39
880.525	1189.96
880.701	1150.63
880.877	1120.02
881.053	1141.14
881.229	1160.13
881.405	1200.43
881.581	1132.81
881.757	1175.82
881.933	1180.28
882.109	1183.57
882.285	1218.64
882.461	1110.53
882.637	1136.3
882.813	1138.43
882.989	1159.35
883.165	1222.71
883.341	1140.36
883.517	1188.41
883.693	1198.49
883.869	1198.68
884.044	1131.45
884.22	1186.48
884.396	1217.48
884.572	1192.87
884.747	1186.48
884.923	1164.78
885.099	1167.68
885.275	1204.11
885.45	1152.18
885.626	1128.55
885.801	1125.64
885.977	1151.99
886.153	1095.61
886.328	1174.08
886.504	1105.88
886.679	1148.5
886.855	1129.51
887.03	1155.09
887.206	1203.14
887.381	1126.41
887.557	1162.26
887.732	1164.19
887.908	1182.21
888.083	1173.69
888.258	1151.41
888.434	1123.51
888.609	1143.08
888.784	1188.41
888.96	1146.95
889.135	1156.06
889.31	1118.86
889.485	1181.83
889.661	1127.77
889.836	1199.84
890.011	1114.79
890.186	1148.5
890.361	1154.31
890.537	1178.92
890.712	1175.63
890.887	1155.48
891.062	1166.33
891.237	1191.9
891.412	1107.62
891.587	1129.32
891.762	1175.63
891.937	1151.02
892.112	1107.43
892.287	1143.27
892.462	1075.26
892.637	1067.32
892.812	1049.88
892.987	1061.12
893.161	1044.85
893.336	1053.57
893.511	1045.04
893.686	1036.9
893.861	1022.57
894.035	1053.76
894.21	1041.75
894.385	977.03
894.56	1019.85
894.734	947
894.909	954.56
895.084	918.33
895.258	919.3
895.433	907.29
895.608	900.12
895.782	847.81
895.957	860.79
896.131	846.45
896.306	767.4
896.48	801.89
896.655	789.68
896.829	728.65
897.004	730.39
897.178	737.18
897.353	705.01
897.527	759.65
897.701	730.01
897.876	723.61
898.05	791.43
898.224	729.81
898.399	804.99
898.573	729.43
898.747	633.13
898.921	676.15
899.096	548.85
899.27	593.22
899.444	598.65
899.618	619.77
899.792	667.23
899.967	670.91
900.141	693.78
900.315	619.96
900.489	626.35
900.663	675.37
900.837	643.79
901.011	598.07
901.185	666.07
901.359	636.43
901.533	663.55
901.707	628.87
901.881	640.5
902.055	614.34
902.229	626.93
902.403	685.06
902.576	640.3
902.75	666.26
902.924	764.49
903.098	733.49
903.272	755.97
903.446	804.79
903.619	783.09
903.793	830.95
903.967	792.01
904.14	828.82
904.314	830.76
904.488	818.16
904.661	852.26
904.835	800.14
905.009	871.44
905.182	907.48
905.356	845.87
905.529	838.89
905.703	825.52
905.876	773.79
906.05	763.33
906.223	743.57
906.397	681.96
906.57	691.06
906.744	667.23
906.917	622.09
907.09	643.01
907.264	580.43
907.437	626.16
907.61	576.75
907.784	587.8
907.957	628.48
908.13	560.48
908.304	612.4
908.477	594.97
908.65	554.08
908.823	529.48
908.996	639.14
909.17	532.39
909.343	556.41
909.516	549.24
909.689	528.12
909.862	521.92
910.035	577.14
910.208	520.76
910.381	532.97
910.554	606.78
910.727	565.13
910.9	548.27
911.073	546.33
911.246	642.63
911.419	633.52
911.592	585.86
911.765	563.77
911.938	542.46
912.11	525.6
912.283	575.59
912.456	628.29
912.629	586.63
912.802	508.36
912.974	495.57
913.147	454.69
913.32	425.82
913.493	447.91
913.665	488.21
913.838	470.39
914.01	464.96
914.183	493.44
914.356	493.83
914.528	535.29
914.701	544.2
914.873	506.81
915.046	476.2
915.218	449.85
915.391	347.55
915.563	383.78
915.736	428.54
915.908	467.09
916.081	458.95
916.253	451.98
916.425	468.64
916.598	503.9
916.77	493.05
916.942	450.82
917.115	379.71
917.287	435.12
917.459	428.34
917.632	399.09
917.804	344.84
917.976	435.32
918.148	458.57
918.32	462.44
918.493	459.15
918.665	532.97
918.837	504.29
919.009	522.12
919.181	542.46
919.353	501.19
919.525	503.32
919.697	513.98
919.869	507.2
920.041	568.23
920.213	634.3
920.385	551.76
920.557	533.94
920.729	549.05
920.901	544.59
921.073	515.53
921.244	490.92
921.416	538.97
921.588	521.92
921.76	497.12
921.932	567.84
922.103	536.45
922.275	498.87
922.447	513.79
922.619	447.14
922.79	508.17
922.962	449.27
923.134	519.99
923.305	466.32
923.477	427.96
923.648	429.89
923.82	461.28
923.991	419.43
924.163	409.16
924.335	449.27
924.506	418.07
924.677	460.5
924.849	411.68
925.02	447.14
925.192	481.04
925.363	450.43
925.535	447.14
925.706	415.17
925.877	494.22
926.049	412.07
926.22	413.62
926.391	460.5
926.562	467.29
926.734	427.57
926.905	492.09
927.076	402.57
927.247	407.22
927.419	380.29
927.59	351.43
927.761	376.22
927.932	333.79
928.103	347.55
928.274	297.37
928.445	277.99
928.616	327.01
928.787	320.43
928.958	306.48
929.129	303.38
929.3	275.09
929.471	259.59
929.642	207.66
929.813	169.11
929.984	250.29
930.155	174.34
930.326	224.52
930.496	175.89
930.667	135.01
930.838	186.74
931.009	141.98
931.18	149.73
931.35	148.77
931.521	151.87
931.692	114.28
931.863	103.04
932.033	121.06
932.204	93.35
932.374	116.99
932.545	64.87
932.716	143.92
932.886	135.2
933.057	25.54
933.227	66.62
933.398	113.89
933.568	47.44
933.739	13.14
933.909	76.69
934.08	77.08
934.25	-5.46
934.421	15.66
934.591	47.44
934.761	30
934.932	5.01
935.102	75.14
935.272	-4.88
935.443	47.05
935.613	53.05
935.783	43.17
935.953	20.89
936.123	137.53
936.294	25.54
936.464	14.5
936.634	30.58
936.804	20.31
936.974	-4.1
937.144	74.37
937.314	53.64
937.484	15.47
937.655	22.05
937.825	47.44
937.995	11.98
938.165	94.32
938.334	21.47
938.504	49.76
938.674	48.6
938.844	76.11
939.014	106.92
939.184	86.57
939.354	129.39
939.524	136.75
939.694	82.31
939.863	70.88
940.033	121.06
940.203	143.15
940.373	85.22
940.542	124.93
940.712	98.39
940.882	101.88
941.051	113.12
941.221	108.27
941.391	121.25
941.56	79.79
941.73	74.75
941.899	186.55
942.069	92.19
942.238	135.4
942.408	80.18
942.577	98
942.747	91.22
942.916	53.05
943.086	64.49
943.255	85.22
943.425	92.97
943.594	38.33
943.763	-0.61
943.933	65.07
944.102	-12.04
944.271	51.89
944.441	99.75
944.61	52.28
944.779	73.79
944.948	162.13
945.117	37.17
945.287	59.64
945.456	21.47
945.625	42.79
945.794	67
945.963	45.11
946.132	85.02
946.301	19.73
946.47	67
946.639	9.66
946.808	43.17
946.977	80.76
947.146	111.57
947.315	53.25
947.484	88.9
947.653	33.29
947.822	46.85
947.991	34.65
948.16	141.98
948.329	94.9
948.498	38.91
948.666	65.45
948.835	102.27
949.004	39.3
949.173	43.75
949.341	46.66
949.51	63.52
949.679	65.45
949.847	107.3
950.016	124.35
950.185	126.48
950.353	63.71
950.522	73.01
950.69	101.3
950.859	82.12
951.028	102.27
951.196	91.42
951.365	34.07
951.533	68.36
951.701	114.28
951.87	89.67
952.038	27.87
952.207	68.55
952.375	115.63
952.543	70.49
952.712	32.52
952.88	29.03
953.048	102.07
953.217	92.39
953.385	61.19
953.553	117.18
953.721	58.09
953.89	54.8
954.058	36.97
954.226	4.81
954.394	80.95
954.562	30.39
954.73	75.72
954.898	56.35
955.067	110.02
955.235	69.52
955.403	74.37
955.571	108.27
955.739	61
955.907	55.38
956.075	40.65
956.243	39.88
956.41	86.77
956.578	14.11
956.746	26.12
956.914	44.72
957.082	97.23
957.25	88.32
957.418	74.56
957.585	98.2
957.753	120.09
957.921	44.72
958.089	63.32
958.256	88.32
958.424	66.62
958.592	66.42
958.759	59.45
958.927	103.82
959.095	50.54
959.262	47.05
959.43	62.35
959.597	40.27
959.765	73.01
959.932	35.04
960.1	109.63
960.267	88.9
960.435	51.7
960.602	112.53
960.77	39.3
960.937	31.94
961.104	81.73
961.272	17.99
961.439	56.15
961.606	92.58
961.774	95.68
961.941	54.22
962.108	69.14
962.275	60.8
962.443	120.67
962.61	109.63
962.777	168.14
962.944	97.62
963.111	105.75
963.278	117.18
963.446	89.87
963.613	92.77
963.78	113.12
963.947	89.09
964.114	84.44
964.281	157.1
964.448	98
964.615	79.4
964.782	95.1
964.949	114.28
965.116	95.1
965.282	146.83
965.449	63.32
965.616	63.52
965.783	102.46
965.95	94.13
966.117	70.69
966.283	91.22
966.45	111.18
966.617	126.1
966.784	118.93
966.95	155.93
967.117	138.69
967.284	46.27
967.45	91.22
967.617	163.88
967.784	124.16
967.95	160.97
968.117	99.17
968.283	130.94
968.45	206.89
968.616	108.47
968.783	137.72
968.949	113.31
969.116	153.22
969.282	110.98
969.449	119.12
969.615	137.33
969.781	67.97
969.948	97.23
970.114	63.9
970.28	177.83
970.447	95.49
970.613	173.37
970.779	112.15
970.945	150.51
971.112	128.23
971.278	117.77
971.444	124.35
971.61	148.77
971.776	89.09
971.942	146.63
972.108	120.67
972.275	109.24
972.441	123.38
972.607	182.28
972.773	90.45
972.939	133.27
973.105	125.9
973.271	76.69
973.437	83.28
973.602	53.25
973.768	115.25
973.934	84.25
974.1	117.57
974.266	54.8
974.432	117.18
974.598	103.43
974.763	134.23
974.929	112.92
975.095	163.68
975.261	95.29
975.426	71.27
975.592	73.4
975.758	150.12
975.923	53.83
976.089	97.62
976.255	123.58
976.42	103.62
976.586	114.08
976.751	111.37
976.917	155.55
977.082	115.05
977.248	65.26
977.413	59.84
977.579	93.16
977.744	98.39
977.91	84.05
978.075	72.04
978.24	144.31
978.406	102.27
978.571	81.34
978.736	91.22
978.902	121.83
979.067	83.47
979.232	46.08
979.397	90.84
979.563	130.94
979.728	78.05
979.893	77.27
980.058	73.01
980.223	114.47
980.388	122.22
980.554	122.42
980.719	89.29
980.884	102.27
981.049	141.4
981.214	84.64
981.379	137.72
981.544	89.29
981.709	91.22
981.874	107.88
982.039	108.85
982.204	92.97
982.368	112.73
982.533	92.77
982.698	136.17
982.863	148.57
983.028	75.53
983.193	121.45
983.357	128.81
983.522	115.83
983.687	89.67
983.852	73.98
984.016	82.89
984.181	95.87
984.346	104.2
984.51	102.07
984.675	97.62
984.839	114.28
985.004	101.3
985.168	117.96
985.333	131.72
985.498	80.95
985.662	114.47
985.827	107.88
985.991	111.76
986.155	94.71
986.32	134.62
986.484	180.35
986.649	109.82
986.813	50.73
986.977	95.68
987.142	130.17
987.306	65.45
987.47	81.92
987.634	88.7
987.799	120.48
987.963	105.75
988.127	107.11
988.291	175.7
988.455	114.28
988.62	114.67
988.784	92.77
988.948	123.19
989.112	95.1
989.276	96.84
989.44	86.57
989.604	98.2
989.768	66.23
989.932	154.58
990.096	91.8
990.26	68.17
990.424	57.9
990.588	89.67
990.752	159.03
990.915	117.38
991.079	72.24
991.243	76.3
991.407	125.52
991.571	77.27
991.734	88.51
991.898	140.82
992.062	182.09
992.226	69.52
992.389	73.2
992.553	36.39
992.717	98.97
992.88	56.74
993.044	96.26
993.207	95.29
993.371	105.37
993.535	79.21
993.698	71.85
993.862	101.49
994.025	144.31
994.189	103.23
994.352	105.56
994.515	115.25
994.679	124.74
994.842	91.61
995.006	107.69
995.169	70.88
995.332	48.6
995.496	122.61
995.659	59.06
995.822	85.99
995.985	74.95
996.149	119.32
996.312	105.75
996.475	144.31
996.638	74.17
996.801	125.32
996.964	135.78
997.128	78.63
997.291	76.5
997.454	77.85
997.617	49.18
997.78	111.95
997.943	61.39
998.106	121.25
998.269	36.97
998.432	59.25
998.595	98.2
998.758	22.83
998.92	39.1
999.083	38.91
999.246	60.22
999.409	42.01
999.572	18.57
999.735	73.4
999.897	67.39
1000.06	46.85
1000.223	64.1
1000.386	89.29
1000.548	94.13
1000.711	88.12
1000.874	77.85
1001.036	-11.85
1001.199	89.09
1001.361	42.01
1001.524	72.62
1001.687	116.22
1001.849	45.5
1002.012	57.9
1002.174	95.49
1002.337	76.5
1002.499	44.92
1002.661	90.25
1002.824	50.15
1002.986	52.47
1003.149	62.16
1003.311	25.93
1003.473	93.16
1003.636	18.95
1003.798	84.83
1003.96	98.97
1004.123	71.65
1004.285	55.77
1004.447	64.1
1004.609	51.7
1004.771	118.35
1004.933	17.21
1005.096	37.55
1005.258	8.49
1005.42	20.12
1005.582	84.05
1005.744	48.6
1005.906	19.34
1006.068	59.84
1006.23	29.61
1006.392	-10.11
1006.554	22.64
1006.716	102.85
1006.878	85.8
1007.04	0.36
1007.202	41.62
1007.363	39.88
1007.525	25.15
1007.687	78.63
1007.849	108.47
1008.011	11.59
1008.172	15.66
1008.334	24.96
1008.496	71.27
1008.658	5.2
1008.819	31.94
1008.981	20.31
1009.143	18.95
1009.304	45.89
1009.466	55.38
1009.627	109.05
1009.789	139.08
1009.95	55.38
1010.112	20.5
1010.273	52.28
1010.435	35.04
1010.596	43.17
1010.758	18.95
1010.919	44.72
1011.081	21.28
1011.242	43.17
1011.403	56.15
1011.565	32.9
1011.726	55.19
1011.887	3.26
1012.049	23.6
1012.21	40.27
1012.371	106.53
1012.532	-28.51
1012.693	57.51
1012.855	23.22
1013.016	34.26
1013.177	70.3
1013.338	29.22
1013.499	111.95
1013.66	80.76
1013.821	57.7
1013.982	48.21
1014.143	30.39
1014.304	53.05
1014.465	43.75
1014.626	61.39
1014.787	38.91
1014.948	118.35
1015.109	-24.06
1015.27	98
1015.431	32.71
1015.592	9.66
1015.752	73.79
1015.913	55.19
1016.074	55.96
1016.235	22.64
1016.395	63.13
1016.556	51.5
1016.717	12.37
1016.877	71.85
1017.038	27.29
1017.199	56.54
1017.359	47.05
1017.52	48.21
1017.681	31.35
1017.841	4.62
1018.002	39.69
1018.162	16.63
1018.323	101.3
1018.483	21.09
1018.644	13.72
1018.804	-1
1018.964	6.94
1019.125	25.54
1019.285	56.74
1019.446	-0.03
1019.606	-2.55
1019.766	-29.48
1019.926	50.15
1020.087	55.57
1020.247	-7.2
1020.407	51.31
1020.567	68.36
1020.728	24.77
1020.888	8.88
1021.048	-0.42
1021.208	-8.94
1021.368	30
1021.528	65.84
1021.688	54.22
1021.848	63.71
1022.008	51.12
1022.168	25.35
1022.328	29.03
1022.488	44.34
1022.648	23.8
1022.808	35.23
1022.968	32.9
1023.128	30
1023.288	6.75
1023.448	33.49
1023.608	49.95
1023.767	49.76
1023.927	-5.07
1024.087	-7.78
1024.247	-20.76
1024.406	36.59
1024.566	-11.85
1024.726	-5.07
1024.885	18.76
1025.045	27.09
1025.205	17.79
1025.364	9.27
1025.524	20.12
1025.683	12.95
1025.843	35.42
1026.003	26.9
1026.162	62.74
1026.321	68.94
1026.481	40.07
1026.64	21.28
1026.8	50.92
1026.959	37.75
1027.119	4.04
1027.278	12.37
1027.437	2.1
1027.597	13.92
1027.756	20.12
1027.915	26.9
1028.074	45.89
1028.234	-17.66
1028.393	1.13
1028.552	3.26
1028.711	-60.09
1028.87	45.5
1029.03	-39.94
1029.189	-2.94
1029.348	-42.08
1029.507	-6.81
1029.666	-25.41
1029.825	7.91
1029.984	7.33
1030.143	17.02
1030.302	11.01
1030.461	-44.59
1030.62	36.97
1030.779	25.74
1030.938	3.84
1031.097	-10.3
1031.255	19.34
1031.414	48.79
1031.573	39.69
1031.732	-38.98
1031.891	18.76
1032.049	54.99
1032.208	24.96
1032.367	8.3
1032.525	-5.65
1032.684	9.85
1032.843	9.27
1033.001	-21.15
1033.16	156.52
1033.319	41.04
1033.477	37.75
1033.636	-10.69
1033.794	-24.83
1033.953	35.23
1034.111	32.32
1034.27	-15.92
1034.428	29.42
1034.587	-6.23
1034.745	39.69
1034.903	-9.33
1035.062	6.56
1035.22	-34.71
1035.378	54.8
1035.537	-33.94
1035.695	34.45
1035.853	13.53
1036.011	66.04
1036.17	15.47
1036.328	-28.51
1036.486	20.5
1036.644	28.45
1036.802	-55.06
1036.96	13.14
1037.119	-7.98
1037.277	-4.29
1037.435	-23.48
1037.593	-30.64
1037.751	6.17
1037.909	30.19
1038.067	30.19
