Data from gum_young_FLMT105791__31__17-38-30-045.txt Node

Date: Mon Mar 20 17:38:30 GMT 2023
User: antho
Spectrometer: FLMT10579
Trigger mode: 0
Integration Time (sec): 1.000000E-1
Scans to average: 10
Electric dark correction enabled: true
Nonlinearity correction enabled: false
Boxcar width: 0
XAxis mode: Wavelengths
Number of Pixels in Spectrum: 3648
>>>>>Begin Spectral Data<<<<<
345.248	-149.22
345.464	-149.22
345.681	-149.22
345.898	-140.69
346.114	-156.19
346.331	-26.77
346.548	41.43
346.764	-31.61
346.981	-1.39
347.197	-6.23
347.414	13.34
347.631	-21.54
347.847	47.24
348.064	7.72
348.28	37.75
348.497	-53.12
348.713	-6.81
348.93	10.04
349.146	13.53
349.363	1.91
349.579	17.02
349.796	14.31
350.012	-8.75
350.229	34.84
350.445	-4.49
350.661	2.49
350.878	9.85
351.094	25.15
351.311	11.21
351.527	16.05
351.743	-13.79
351.96	32.13
352.176	46.08
352.392	22.83
352.609	17.79
352.825	-14.56
353.041	-5.46
353.257	-3.52
353.474	16.82
353.69	38.52
353.906	34.07
354.122	-6.43
354.339	62.74
354.555	17.4
354.771	-23.86
354.987	52.67
355.203	37.75
355.42	0.74
355.636	-12.63
355.852	-12.24
356.068	-2.55
356.284	-26.77
356.5	45.11
356.716	1.91
356.932	2.87
357.148	15.66
357.364	33.29
357.58	26.12
357.796	57.32
358.012	57.7
358.228	26.32
358.444	-51.76
358.66	33.29
358.876	12.76
359.092	-16.5
359.308	-2.74
359.524	25.15
359.74	14.69
359.956	-4.1
360.172	0.94
360.388	26.51
360.604	0.74
360.819	71.07
361.035	9.07
361.251	18.95
361.467	-3.71
361.683	23.02
361.898	27.48
362.114	40.65
362.33	26.32
362.546	17.6
362.762	21.28
362.977	15.27
363.193	-19.21
363.409	37.94
363.624	-19.02
363.84	-25.22
364.056	-24.83
364.271	36
364.487	28.84
364.703	16.05
364.918	-37.04
365.134	8.69
365.35	17.21
365.565	95.29
365.781	-12.04
365.996	29.03
366.212	50.34
366.427	41.82
366.643	21.67
366.858	13.34
367.074	-30.45
367.289	50.92
367.505	102.27
367.72	-23.86
367.936	-15.53
368.151	45.3
368.367	33.87
368.582	27.67
368.798	-2.74
369.013	58.87
369.228	33.1
369.444	52.86
369.659	57.12
369.874	42.98
370.09	52.28
370.305	-38.98
370.52	-12.63
370.736	67.97
370.951	14.69
371.166	53.05
371.381	60.8
371.597	77.66
371.812	2.49
372.027	-12.24
372.242	25.35
372.458	90.64
372.673	-3.71
372.888	13.14
373.103	24.77
373.318	86.96
373.533	41.82
373.749	29.61
373.964	-10.11
374.179	78.05
374.394	-6.81
374.609	79.21
374.824	-3.33
375.039	51.5
375.254	-25.41
375.469	66.04
375.684	24.57
375.899	40.46
376.114	14.11
376.329	2.49
376.544	-3.71
376.759	40.46
376.974	-3.52
377.189	11.4
377.404	-0.03
377.619	58.67
377.834	-33.74
378.049	-10.11
378.264	-0.81
378.478	21.09
378.693	0.94
378.908	43.56
379.123	-5.07
379.338	54.8
379.553	31.74
379.767	12.95
379.982	41.04
380.197	27.87
380.412	16.82
380.626	33.29
380.841	85.99
381.056	37.55
381.271	85.22
381.485	-1.97
381.7	-18.05
381.915	41.82
382.129	10.62
382.344	43.56
382.559	28.84
382.773	51.89
382.988	-7.59
383.202	49.76
383.417	5.97
383.632	113.31
383.846	34.65
384.061	28.64
384.275	20.7
384.49	45.89
384.704	79.99
384.919	26.32
385.133	17.79
385.348	54.22
385.562	-2.74
385.777	56.35
385.991	59.25
386.206	16.24
386.42	3.65
386.634	63.13
386.849	37.36
387.063	18.95
387.277	-6.04
387.492	-8.36
387.706	-27.93
387.92	-4.29
388.135	39.3
388.349	34.45
388.563	37.17
388.778	24.19
388.992	53.44
389.206	51.12
389.42	75.34
389.635	17.6
389.849	42.4
390.063	70.3
390.277	28.25
390.491	73.79
390.706	25.15
390.92	56.93
391.134	11.59
391.348	62.35
391.562	-16.5
391.776	19.54
391.99	7.52
392.205	53.05
392.419	10.82
392.633	26.51
392.847	18.95
393.061	32.9
393.275	91.42
393.489	54.22
393.703	39.49
393.917	74.75
394.131	16.63
394.345	46.27
394.559	80.37
394.773	11.98
394.986	47.44
395.2	21.28
395.414	73.79
395.628	23.99
395.842	25.35
396.056	17.02
396.27	-13.4
396.484	83.47
396.697	39.3
396.911	98.59
397.125	63.71
397.339	80.95
397.553	41.82
397.766	115.44
397.98	86.57
398.194	55.77
398.408	25.93
398.621	70.1
398.835	43.37
399.049	55.96
399.262	72.62
399.476	82.89
399.69	78.63
399.903	116.02
400.117	27.67
400.331	78.05
400.544	32.71
400.758	147.41
400.971	56.35
401.185	104.2
401.398	51.7
401.612	99.94
401.826	84.05
402.039	66.04
402.253	55.19
402.466	87.74
402.68	49.76
402.893	87.93
403.106	81.73
403.32	50.15
403.533	78.24
403.747	73.4
403.96	78.05
404.174	94.9
404.387	23.02
404.6	61.97
404.814	79.99
405.027	69.52
405.24	75.53
405.454	68.17
405.667	123.58
405.88	12.56
406.094	72.82
406.307	100.14
406.52	89.09
406.733	41.43
406.947	22.64
407.16	141.6
407.373	110.79
407.586	30
407.799	40.07
408.012	105.75
408.226	96.07
408.439	110.6
408.652	61.97
408.865	99.55
409.078	87.93
409.291	105.17
409.504	57.12
409.717	98
409.93	69.72
410.143	100.14
410.357	27.67
410.57	23.02
410.783	59.64
410.996	87.35
411.209	91.22
411.421	123.19
411.634	89.48
411.847	73.4
412.06	93.74
412.273	88.32
412.486	82.89
412.699	158.45
412.912	90.45
413.125	122.03
413.338	104.59
413.55	119.7
413.763	79.21
413.976	98.59
414.189	74.95
414.402	79.4
414.615	124.93
414.827	65.45
415.04	145.86
415.253	114.86
415.466	127.26
415.678	149.93
415.891	85.22
416.104	77.47
416.316	112.15
416.529	76.3
416.742	135.2
416.954	143.34
417.167	84.25
417.38	67.39
417.592	148.57
417.805	59.25
418.017	89.87
418.23	132.3
418.442	109.82
418.655	115.63
418.868	104.01
419.08	132.3
419.293	115.83
419.505	121.45
419.718	119.9
419.93	141.02
420.142	114.47
420.355	145.47
420.567	143.92
420.78	136.56
420.992	129.58
421.205	166.98
421.417	93.74
421.629	84.25
421.842	72.24
422.054	75.92
422.266	149.35
422.479	150.12
422.691	93.35
422.903	140.63
423.115	90.45
423.328	108.66
423.54	111.18
423.752	106.14
423.964	90.06
424.177	114.67
424.389	104.2
424.601	182.48
424.813	129.78
425.025	167.37
425.238	160.58
425.45	110.4
425.662	92.58
425.874	365.96
426.086	113.7
426.298	135.59
426.51	130.36
426.722	118.15
426.934	99.17
427.146	135.2
427.358	79.79
427.57	152.83
427.782	122.42
427.994	99.36
428.206	108.85
428.418	68.75
428.63	139.08
428.842	175.89
429.054	149.54
429.266	152.45
429.478	88.32
429.69	116.99
429.902	84.64
430.114	151.48
430.325	129.78
430.537	98.78
430.749	103.23
430.961	68.17
431.173	128.62
431.384	140.43
431.596	62.35
431.808	129.58
432.02	137.53
432.231	164.46
432.443	182.87
432.655	143.92
432.867	107.11
433.078	135.01
433.29	200.11
433.502	149.54
433.713	175.31
433.925	157.1
434.136	175.12
434.348	106.92
434.56	119.7
434.771	222.78
434.983	79.4
435.194	116.41
435.406	138.88
435.617	162.72
435.829	206.11
436.04	183.25
436.252	175.12
436.463	195.85
436.675	178.41
436.886	172.6
437.098	169.5
437.309	204.76
437.521	145.28
437.732	181.9
437.943	142.95
438.155	179.18
438.366	132.49
438.578	205.73
438.789	165.04
439	192.75
439.211	165.62
439.423	184.8
439.634	173.95
439.845	187.71
440.057	164.85
440.268	202.63
440.479	159.81
440.69	179.57
440.902	160.78
441.113	183.06
441.324	164.85
441.535	177.25
441.746	237.89
441.957	142.95
442.168	149.35
442.38	198.36
442.591	215.61
442.802	202.43
443.013	157.1
443.224	226.26
443.435	177.63
443.646	192.36
443.857	193.52
444.068	172.02
444.279	174.92
444.49	264.63
444.701	168.33
444.912	280.51
445.123	247.58
445.334	225.88
445.545	228.98
445.756	191
445.967	171.63
446.178	220.26
446.388	250.87
446.599	213.67
446.81	230.91
447.021	204.18
447.232	227.62
447.443	260.36
447.653	222.2
447.864	245.45
448.075	230.53
448.286	253
448.496	219.87
448.707	234.6
448.918	228.59
449.129	288.46
449.339	206.31
449.55	255.91
449.761	225.1
449.971	291.56
450.182	224.71
450.393	268.5
450.603	250.29
450.814	257.85
451.024	229.95
451.235	295.82
451.446	292.72
451.656	310.93
451.867	232.46
452.077	275.09
452.288	310.54
452.498	304.93
452.709	271.21
452.919	280.32
453.13	249.9
453.34	280.32
453.55	216.96
453.761	273.15
453.971	263.08
454.182	296.21
454.392	289.23
454.602	321.59
454.813	283.81
455.023	296.4
455.233	240.41
455.444	282.26
455.654	209.8
455.864	264.43
456.075	251.06
456.285	265.01
456.495	271.8
456.705	303.18
456.916	317.33
457.126	339.8
457.336	280.9
457.546	233.24
457.756	230.53
457.967	310.16
458.177	297.37
458.387	278.58
458.597	241.96
458.807	282.64
459.017	265.98
459.227	275.09
459.437	302.6
459.647	319.46
459.857	309.38
460.068	278.96
460.278	306.28
460.488	301.83
460.698	357.04
460.908	293.88
461.117	256.49
461.327	257.85
461.537	319.65
461.747	310.93
461.957	297.37
462.167	371.57
462.377	349.88
462.587	306.67
462.797	341.16
463.007	330.11
463.216	352.2
463.426	366.92
463.636	339.99
463.846	283.03
464.056	300.08
464.265	333.6
464.475	290.01
464.685	295.24
464.895	338.64
465.104	312.48
465.314	352.01
465.524	339.41
465.733	298.73
465.943	387.46
466.153	362.08
466.362	353.17
466.572	351.81
466.782	302.99
466.991	352.39
467.201	353.75
467.41	299.69
467.62	337.48
467.829	334.57
468.039	353.17
468.249	338.83
468.458	329.14
468.668	381.07
468.877	364.79
469.086	394.82
469.296	362.47
469.505	320.04
469.715	415.36
469.924	378.36
470.134	379.32
470.343	398.89
470.552	362.08
470.762	353.17
470.971	310.16
471.18	380.1
471.39	356.66
471.599	343.68
471.808	389.79
472.018	361.31
472.227	397.34
472.436	396.57
472.645	401.8
472.855	348.91
473.064	415.75
473.273	378.16
473.482	425.44
473.691	428.34
473.901	434.35
474.11	422.14
474.319	491.7
474.528	397.15
474.737	473.87
474.946	457.02
475.155	423.89
475.364	468.64
475.573	413.81
475.783	434.16
475.992	430.47
476.201	441.91
476.41	409.55
476.619	387.85
476.828	448.11
477.037	407.03
477.245	429.12
477.454	480.07
477.663	432.61
477.872	446.75
478.081	510.1
478.29	427.18
478.499	548.27
478.708	480.27
478.917	553.89
479.125	459.15
479.334	488.79
479.543	470.19
479.752	506.81
479.961	520.95
480.169	527.15
480.378	482.2
480.587	588.38
480.796	534.9
481.004	516.3
481.213	551.76
481.422	526.96
481.63	539.17
481.839	548.08
482.048	597.29
482.256	560.28
482.465	560.87
482.674	569
482.882	581.98
483.091	635.85
483.299	531.22
483.508	560.28
483.716	575.4
483.925	579.66
484.134	540.52
484.342	560.67
484.551	622.28
484.759	606.78
484.967	584.12
485.176	616.47
485.384	605.23
485.593	620.35
485.801	579.08
486.01	565.13
486.218	563.38
486.426	482.2
486.635	548.47
486.843	543.04
487.051	575.78
487.26	533.55
487.468	583.15
487.676	593.42
487.885	539.94
488.093	579.66
488.301	639.72
488.509	653.67
488.717	623.45
488.926	630.42
489.134	612.6
489.342	617.63
489.55	616.28
489.758	625.77
489.967	629.65
490.175	734.08
490.383	659.68
490.591	729.43
490.799	637.4
491.007	720.32
491.215	694.36
491.423	718.19
491.631	691.45
491.839	703.85
492.047	726.71
492.255	624.42
492.463	635.65
492.671	684.67
492.879	690.68
493.087	668.59
493.295	724.97
493.503	728.84
493.711	772.24
493.919	751.71
494.127	750.74
494.334	748.22
494.542	684.28
494.75	713.35
494.958	730.2
495.166	798.79
495.374	760.81
495.581	785.61
495.789	778.64
495.997	795.69
496.205	756.55
496.412	761.98
496.62	753.64
496.828	804.79
497.035	774.18
497.243	827.07
497.451	783.09
497.658	812.16
497.866	787.74
498.074	846.45
498.281	786.39
498.489	857.11
498.696	800.73
498.904	825.33
499.112	786.97
499.319	879.77
499.527	804.99
499.734	867.76
499.942	807.31
500.149	834.24
500.357	819.52
500.564	811.38
500.771	864.86
500.979	811.38
501.186	807.7
501.394	851.49
501.601	846.06
501.808	869.7
502.016	851.68
502.223	827.27
502.43	861.17
502.638	864.66
502.845	823.2
503.052	940.03
503.26	867.96
503.467	949.91
503.674	898.18
503.881	902.44
504.089	978.58
504.296	904.57
504.503	870.67
504.71	933.64
504.917	876.29
505.125	930.15
505.332	947.78
505.539	953.98
505.746	1006.48
505.953	984.78
506.16	1018.88
506.367	1037.68
506.574	1041.36
506.781	1074.68
506.988	1013.65
507.195	1017.33
507.402	1024.31
507.609	1044.85
507.816	1004.16
508.023	1002.03
508.23	982.65
508.437	1002.03
508.644	1038.45
508.851	1082.05
509.058	1088.83
509.265	1077.59
509.472	1072.94
509.679	1199.46
509.885	1087.86
510.092	1120.41
510.299	1119.44
510.506	1160.32
510.713	1146.76
510.92	1136.3
511.126	1176.79
511.333	1212.05
511.54	1188.8
511.746	1218.64
511.953	1197.71
512.16	1237.04
512.367	1198.49
512.573	1197.52
512.78	1211.86
512.987	1224.64
513.193	1221.74
513.4	1165.36
513.606	1219.8
513.813	1250.02
514.02	1227.74
514.226	1306.41
514.433	1296.33
514.639	1225.81
514.846	1236.27
515.052	1252.74
515.259	1269.01
515.465	1271.92
515.672	1292.84
515.878	1359.88
516.085	1299.04
516.291	1350
516.497	1343.8
516.704	1289.74
516.91	1268.24
517.117	1211.08
517.323	1178.73
517.529	1218.83
517.736	1234.72
517.942	1262.42
518.148	1289.36
518.354	1338.76
518.561	1318.61
518.767	1301.76
518.973	1356
519.179	1376.35
519.386	1351.55
519.592	1376.93
519.798	1357.94
520.004	1467.41
520.21	1445.52
520.417	1463.73
520.623	1513.13
520.829	1536.19
521.035	1550.53
521.241	1513.13
521.447	1559.63
521.653	1665.61
521.859	1542.78
522.065	1589.28
522.271	1674.33
522.477	1647.59
522.683	1634.81
522.889	1629.96
523.095	1628.22
523.301	1609.62
523.507	1616.4
523.713	1666.19
523.919	1648.95
524.125	1731.68
524.331	1710.56
524.537	1773.92
524.742	1740.21
524.948	1777.79
525.154	1818.48
525.36	1879.32
525.566	1808.79
525.772	1833.59
525.977	1743.11
526.183	1819.25
526.389	1822.94
526.595	1753.57
526.8	1718.7
527.006	1695.84
527.212	1693.12
527.417	1638.1
527.623	1664.26
527.829	1712.69
528.034	1740.59
528.24	1796
528.446	1768.3
528.651	1882.61
528.857	1897.33
529.062	1936.86
529.268	1889.78
529.473	1962.05
529.679	1921.55
529.884	1999.05
530.09	1985.1
530.295	1970.76
530.501	1977.93
530.706	1950.61
530.912	1974.06
531.117	1968.83
531.323	1984.91
531.528	2056.01
531.733	2037.41
531.939	2013
532.144	2032.96
532.35	2017.85
532.555	2016.3
532.76	2004.86
532.966	2029.86
533.171	1994.21
533.376	1973.67
533.581	1987.43
533.787	1966.7
533.992	2032.38
534.197	2082.17
534.402	2050.2
534.607	2038.77
534.813	2103.68
535.018	2013.58
535.223	2080.43
535.428	2104.64
535.633	2164.71
535.838	2178.27
536.043	2167.81
536.249	2236.2
536.454	2125.18
536.659	2188.73
536.864	2134.48
537.069	2129.06
537.274	2149.21
537.479	2163.74
537.684	2171.49
537.889	2127.89
538.094	2204.23
538.299	2133.51
538.504	2209.65
538.708	2167.03
538.913	2216.24
539.118	2195.71
539.323	2223.99
539.528	2141.07
539.733	2155.41
539.938	2198.03
540.142	2186.6
540.347	2143.78
540.552	2103.68
540.757	2119.76
540.962	2132.35
541.166	2087.79
541.371	2108.13
541.576	2125.37
541.781	2028.89
541.985	2186.02
542.19	2125.96
542.395	2214.89
542.599	2269.33
542.804	2227.29
543.008	2252.86
543.213	2176.14
543.418	2176.72
543.622	2232.71
543.827	2193.96
544.031	2276.89
544.236	2300.13
544.44	2272.62
544.645	2346.44
544.849	2263.32
545.054	2285.99
545.258	2357.29
545.463	2345.67
545.667	2223.41
545.872	2319.51
546.076	2329.58
546.281	2284.64
546.485	2264.49
546.689	2318.54
546.894	2330.75
547.098	2325.32
547.302	2244.14
547.507	2306.33
547.711	2324.74
547.915	2301.1
548.119	2242.01
548.324	2270.69
548.528	2339.47
548.732	2281.15
548.936	2297.81
549.141	2351.09
549.345	2300.91
549.549	2332.88
549.753	2309.05
549.957	2372.79
550.161	2370.47
550.366	2373.18
550.57	2325.9
550.774	2353.22
550.978	2336.56
551.182	2329
551.386	2324.55
551.59	2328.03
551.794	2284.64
551.998	2363.68
552.202	2332.1
552.406	2283.86
552.61	2380.73
552.814	2376.28
553.018	2393.91
553.222	2296.26
553.426	2355.16
553.63	2422.2
553.833	2353.61
554.037	2285.6
554.241	2363.1
554.445	2344.12
554.649	2365.23
554.853	2354.58
555.056	2358.26
555.26	2420.06
555.464	2403.01
555.668	2388.87
555.871	2359.03
556.075	2424.91
556.279	2323.58
556.483	2331.13
556.686	2335.2
556.89	2349.35
557.094	2330.75
557.297	2233.49
557.501	2325.32
557.704	2232.32
557.908	2304.98
558.112	2223.02
558.315	2335.01
558.519	2247.63
558.722	2255.77
558.926	2256.93
559.129	2152.31
559.333	2176.14
559.536	2189.51
559.74	2171.29
559.943	2138.94
560.147	2136.22
560.35	2136.81
560.553	2192.61
560.757	2120.53
560.96	2234.26
561.164	2201.52
561.367	2249.95
561.57	2187.76
561.774	2220.12
561.977	2189.7
562.18	2168.39
562.384	2267.39
562.587	2176.91
562.79	2197.84
562.993	2167.61
563.197	2191.06
563.4	2218.57
563.603	2183.11
563.806	2271.27
564.009	2151.34
564.212	2177.3
564.416	2111.81
564.619	2160.44
564.822	2089.73
565.025	2178.27
565.228	2117.04
565.431	2142.62
565.634	2003.31
565.837	2050.98
566.04	2038.19
566.243	2053.69
566.446	1959.72
566.649	2092.44
566.852	1976.96
567.055	2030.83
567.258	2052.14
567.461	2072.09
567.664	2101.54
567.867	2001.57
568.07	2020.36
568.273	2069.96
568.475	2060.86
568.678	2000.99
568.881	1994.98
569.084	1976.77
569.287	1881.25
569.489	1928.33
569.692	1958.75
569.895	1968.63
570.098	1894.62
570.3	1903.92
570.503	1828.75
570.706	1873.5
570.909	1872.15
571.111	1804.53
571.314	1826.62
571.516	1822.16
571.719	1840.95
571.922	1821.77
572.124	1829.91
572.327	1812.86
572.529	1800.07
572.732	1808.6
572.935	1865.37
573.137	1904.89
573.34	1834.95
573.542	1851.8
573.745	1835.92
573.947	1837.08
574.15	1819.45
574.352	1759.77
574.554	1832.04
574.757	1781.86
574.959	1727.42
575.162	1786.51
575.364	1704.17
575.566	1815.96
575.769	1735.94
575.971	1765.39
576.173	1668.13
576.376	1708.62
576.578	1767.72
576.78	1782.64
576.982	1672.39
577.185	1735.17
577.387	1692.35
577.589	1691.19
577.791	1720.06
577.993	1703.78
578.196	1684.79
578.398	1709.01
578.6	1728
578.802	1647.01
579.004	1639.07
579.206	1657.67
579.408	1685.37
579.61	1641.59
579.812	1720.64
580.014	1658.64
580.216	1677.62
580.418	1663.87
580.62	1662.13
580.822	1632.68
581.024	1706.11
581.226	1710.95
581.428	1685.76
581.63	1760.36
581.832	1675.11
582.034	1731.1
582.236	1701.07
582.438	1730.71
582.64	1740.01
582.841	1757.06
583.043	1757.06
583.245	1728.39
583.447	1710.56
583.649	1711.72
583.85	1709.59
584.052	1712.89
584.254	1658.64
584.456	1707.66
584.657	1647.98
584.859	1714.82
585.061	1666.19
585.262	1630.16
585.464	1640.23
585.666	1698.74
585.867	1657.28
586.069	1729.74
586.27	1657.86
586.472	1672.39
586.674	1621.24
586.875	1640.81
587.077	1606.13
587.278	1660.19
587.48	1615.82
587.681	1696.03
587.883	1637.91
588.084	1586.76
588.285	1610.98
588.487	1554.21
588.688	1541.42
588.89	1489.88
589.091	1483.49
589.292	1434.47
589.494	1426.33
589.695	1387.59
589.896	1348.64
590.098	1335.27
590.299	1420.52
590.5	1423.23
590.702	1414.9
590.903	1451.52
591.104	1495.7
591.305	1485.23
591.507	1515.46
591.708	1525.34
591.909	1469.54
592.11	1548.4
592.311	1519.91
592.512	1461.6
592.714	1416.84
592.915	1472.83
593.116	1456.95
593.317	1509.06
593.518	1483.88
593.719	1496.86
593.92	1512.36
594.121	1518.75
594.322	1499.77
594.523	1467.8
594.724	1419.36
594.925	1460.24
595.126	1461.79
595.327	1459.66
595.528	1461.98
595.729	1493.18
595.929	1469.73
596.13	1445.52
596.331	1475.74
596.532	1516.62
596.733	1561.18
596.934	1498.22
597.135	1533.86
597.335	1508.68
597.536	1423.62
597.737	1508.1
597.938	1457.14
598.138	1510.81
598.339	1488.14
598.54	1492.6
598.74	1465.67
598.941	1475.16
599.142	1522.63
599.342	1484.85
599.543	1471.87
599.744	1489.5
599.944	1505.58
600.145	1510.03
600.345	1463.92
600.546	1546.65
600.746	1535.22
600.947	1560.41
601.147	1479.62
601.348	1514.68
601.548	1459.85
601.749	1480.78
601.949	1455.59
602.15	1434.67
602.35	1456.56
602.551	1487.95
602.751	1416.07
602.951	1454.82
603.152	1391.27
603.352	1492.02
603.552	1482.72
603.753	1509.45
603.953	1509.84
604.153	1455.98
604.354	1456.75
604.554	1476.9
604.754	1489.11
604.954	1441.45
605.155	1503.45
605.355	1474.77
605.555	1463.15
605.755	1515.07
605.955	1486.59
606.155	1539.1
606.356	1476.13
606.556	1462.76
606.756	1445.52
606.956	1449.78
607.156	1503.45
607.356	1397.47
607.556	1447.45
607.756	1448.03
607.956	1484.46
608.156	1444.16
608.356	1402.31
608.556	1470.9
608.756	1434.86
608.956	1416.26
609.156	1416.84
609.356	1401.34
609.556	1385.84
609.755	1462.37
609.955	1417.03
610.155	1425.95
610.355	1399.79
610.555	1370.92
610.755	1407.93
610.954	1330.43
611.154	1386.23
611.354	1422.46
611.554	1370.15
611.753	1404.64
611.953	1355.42
612.153	1395.72
612.352	1403.67
612.552	1310.67
612.752	1277.15
612.951	1369.76
613.151	1371.31
613.351	1315.12
613.55	1331.98
613.75	1350.19
613.949	1339.34
614.149	1350.97
614.348	1329.27
614.548	1287.42
614.747	1292.46
614.947	1306.99
615.146	1247.12
615.346	1334.5
615.545	1288.19
615.745	1290.13
615.944	1318.42
616.144	1269.21
616.343	1318.22
616.542	1281.41
616.742	1237.43
616.941	1264.56
617.14	1213.99
617.34	1303.31
617.539	1254.87
617.738	1231.43
617.938	1347.48
618.137	1273.47
618.336	1267.66
618.535	1269.79
618.734	1272.89
618.934	1253.51
619.133	1276.76
619.332	1301.76
619.531	1237.63
619.73	1260.68
619.929	1291.68
620.128	1269.01
620.328	1316.87
620.527	1257
620.726	1240.14
620.925	1290.52
621.124	1272.89
621.323	1277.34
621.522	1190.74
621.721	1228.33
621.92	1201.59
622.119	1273.66
622.318	1228.33
622.517	1218.64
622.715	1226.97
622.914	1159.93
623.113	1216.51
623.312	1132.03
623.511	1223.68
623.71	1204.49
623.909	1174.08
624.107	1238.21
624.306	1145.4
624.505	1165.94
624.704	1165.16
624.902	1147.92
625.101	1197.52
625.3	1160.13
625.499	1156.64
625.697	1167.88
625.896	1149.86
626.095	1193.06
626.293	1132.42
626.492	1117.89
626.69	1169.81
626.889	1129.51
627.088	1174.27
627.286	1138.62
627.485	1132.81
627.683	1134.55
627.882	1133.58
628.08	1046.98
628.279	1087.47
628.477	1123.12
628.676	1068.1
628.874	1141.14
629.073	1073.91
629.271	1021.6
629.469	1110.72
629.668	1088.05
629.866	1080.88
630.065	1073.52
630.263	1099.1
630.461	1055.89
630.66	1103.36
630.858	1067.71
631.056	1128.74
631.254	1148.7
631.453	1043.3
631.651	1116.53
631.849	1092.12
632.047	1074.3
632.245	1077.59
632.444	1120.41
632.642	1108.78
632.84	1120.99
633.038	1088.25
633.236	1059.96
633.434	1082.24
633.632	1083.4
633.83	1078.17
634.028	1150.25
634.227	1108.98
634.425	1182.21
634.623	1090.57
634.821	1109.17
635.019	1133.78
635.216	1098.9
635.414	1122.93
635.612	1119.05
635.81	1114.4
636.008	1157.22
636.206	1089.6
636.404	1120.21
636.602	1097.16
636.8	1089.21
636.997	1151.21
637.195	1140.75
637.393	1133.39
637.591	1177.18
637.789	1127.58
637.986	1088.63
638.184	1145.4
638.382	1155.67
638.58	1167.49
638.777	1166.13
638.975	1126.41
639.173	1121.57
639.37	1093.86
639.568	1113.82
639.765	1127
639.963	1081.46
640.161	1116.73
640.358	1111.11
640.556	1077.2
640.753	1057.83
640.951	1026.44
641.148	1093.86
641.346	1053.57
641.543	1056.08
641.741	1058.6
641.938	1007.84
642.136	1055.89
642.333	1021.6
642.531	1102
642.728	1092.51
642.925	1015.4
643.123	1037.87
643.32	1005.71
643.517	1043.3
643.715	1022.76
643.912	1009.2
644.109	1025.67
644.306	1013.65
644.504	978.97
644.701	1004.35
644.898	1022.95
645.095	964.83
645.293	987.5
645.49	1021.79
645.687	984.98
645.884	1018.88
646.081	910.97
646.278	965.99
646.475	948.75
646.672	923.56
646.87	941.97
647.067	930.54
647.264	934.6
647.461	855.75
647.658	887.33
647.855	927.63
648.052	871.44
648.249	864.86
648.446	867.76
648.642	848.39
648.839	872.61
649.036	846.64
649.233	834.63
649.43	804.6
649.627	806.54
649.824	850.91
650.021	836.57
650.217	828.43
650.414	832.31
650.611	864.08
650.808	869.12
651.004	895.66
651.201	853.62
651.398	925.3
651.595	866.21
651.791	839.86
651.988	883.65
652.185	834.63
652.381	875.9
652.578	809.06
652.775	851.49
652.971	821.26
653.168	846.26
653.364	881.71
653.561	779.8
653.757	824.36
653.954	853.81
654.15	816.03
654.347	865.44
654.543	829.01
654.74	776.12
654.936	786.19
655.133	829.59
655.329	806.15
655.525	782.71
655.722	852.46
655.918	736.59
656.115	781.74
656.311	709.28
656.507	677.89
656.704	661.42
656.9	722.06
657.096	690.29
657.292	683.51
657.489	749.38
657.685	741.63
657.881	713.35
658.077	768.18
658.273	714.12
658.47	822.42
658.666	775.34
658.862	774.57
659.058	769.53
659.254	820.87
659.45	742.6
659.646	745.31
659.842	740.47
660.038	803.24
660.234	747.25
660.43	774.76
660.626	835.21
660.822	799.56
661.018	779.41
661.214	739.31
661.41	718.38
661.606	761.01
661.802	790.26
661.998	761.98
662.194	734.66
662.39	755.39
662.586	738.14
662.781	774.38
662.977	782.13
663.173	762.17
663.369	756.16
663.564	751.13
663.76	753.45
663.956	721.29
664.152	766.24
664.347	664.33
664.543	710.25
664.739	724.78
664.934	668.2
665.13	652.9
665.326	743.18
665.521	737.18
665.717	689.13
665.912	665.88
666.108	631.39
666.304	676.34
666.499	720.32
666.695	626.93
666.89	667.43
667.086	704.24
667.281	676.15
667.477	753.26
667.672	637.4
667.867	664.52
668.063	717.41
668.258	660.26
668.454	692.81
668.649	715.28
668.844	677.11
669.04	693.58
669.235	655.22
669.43	640.11
669.626	638.75
669.821	662.97
670.016	636.04
670.211	643.4
670.407	619.57
670.602	630.81
670.797	653.09
670.992	662.39
671.187	632.36
671.382	669.36
671.578	600.2
671.773	662
671.968	607.75
672.163	620.73
672.358	655.03
672.553	617.63
672.748	610.66
672.943	689.51
673.138	590.7
673.333	658.32
673.528	582.37
673.723	622.48
673.918	619.38
674.113	578.88
674.308	662.78
674.503	630.42
674.698	634.68
674.892	618.22
675.087	653.28
675.282	634.49
675.477	592.06
675.672	631.58
675.867	558.15
676.061	567.84
676.256	569.97
676.451	604.85
676.646	587.8
676.84	590.7
677.035	530.06
677.23	561.83
677.424	601.94
677.619	636.23
677.814	655.41
678.008	656.38
678.203	546.14
678.397	561.06
678.592	589.73
678.787	641.08
678.981	592.06
679.176	590.12
679.37	623.06
679.565	580.24
679.759	591.48
679.954	592.83
680.148	646.7
680.342	637.98
680.537	628.1
680.731	598.45
680.926	648.05
681.12	601.55
681.314	590.12
681.509	609.88
681.703	600.58
681.897	638.95
682.092	593.8
682.286	609.69
682.48	643.4
682.674	637.59
682.869	602.91
683.063	625
683.257	675.76
683.451	592.83
683.645	630.61
683.839	600.78
684.034	589.54
684.228	662.58
684.422	574.43
684.616	581.6
684.81	631.2
685.004	617.83
685.198	605.62
685.392	673.24
685.586	612.4
685.78	659.68
685.974	670.14
686.168	652.51
686.362	717.8
686.556	634.49
686.75	575.98
686.944	585.08
687.138	569.78
687.331	510.88
687.525	510.49
687.719	469.22
687.913	525.6
688.107	544.98
688.301	522.12
688.494	579.85
688.688	546.33
688.882	512.43
689.076	557.18
689.269	564.55
689.463	603.3
689.657	577.53
689.85	609.5
690.044	611.24
690.238	598.26
690.431	637.2
690.625	612.98
690.818	660.26
691.012	680.99
691.205	721.68
691.399	678.47
691.593	728.07
691.786	753.84
691.98	775.54
692.173	810.61
692.366	815.26
692.56	820.87
692.753	843.16
692.947	785.61
693.14	863.31
693.333	860.4
693.527	814.48
693.72	879.39
693.914	839.86
694.107	852.07
694.3	853.42
694.493	887.14
694.687	954.17
694.88	879.77
695.073	968.32
695.266	958.63
695.46	963.09
695.653	1019.08
695.846	999.9
696.039	990.02
696.232	1011.91
696.425	1079.91
696.618	1108.78
696.812	1088.44
697.005	1163.61
697.198	1221.54
697.391	1175.82
697.584	1209.53
697.777	1269.98
697.97	1252.16
698.163	1263.97
698.356	1253.51
698.549	1325.2
698.742	1306.99
698.935	1240.92
699.127	1289.55
699.32	1281.99
699.513	1287.03
699.706	1270.56
699.899	1315.12
700.092	1288.97
700.285	1343.22
700.477	1271.53
700.67	1349.42
700.863	1383.9
701.056	1428.08
701.248	1419.36
701.441	1433.31
701.634	1390.88
701.826	1507.9
702.019	1399.21
702.212	1481.36
702.404	1421.49
702.597	1450.94
702.79	1451.33
702.982	1459.27
703.175	1513.71
703.367	1554.98
703.56	1538.51
703.752	1620.08
703.945	1584.82
704.137	1629.19
704.33	1654.96
704.522	1676.46
704.715	1676.46
704.907	1697.58
705.1	1725.87
705.292	1755.32
705.484	1700.49
705.677	1749.7
705.869	1783.6
706.061	1780.7
706.254	1841.34
706.446	1789.61
706.638	1775.08
706.831	1860.91
707.023	1834.56
707.215	1926.4
707.407	1875.05
707.599	1895.78
707.792	1928.33
707.984	1922.91
708.176	1964.95
708.368	1965.73
708.56	1984.71
708.752	1975.61
708.944	1984.33
709.136	1997.11
709.329	1991.11
709.521	2107.36
709.713	2048.07
709.905	2059.31
710.097	2078.49
710.289	2077.33
710.481	2106.97
710.672	2123.24
710.864	2174.78
711.056	2169.74
711.248	2164.9
711.44	2141.46
711.632	2098.06
711.824	2167.22
712.016	2259.45
712.207	2238.33
712.399	2241.43
712.591	2287.54
712.783	2254.6
712.975	2297.23
713.166	2237.75
713.358	2283.86
713.55	2332.68
713.741	2289.48
713.933	2313.5
714.125	2300.13
714.316	2283.28
714.508	2358.07
714.7	2345.86
714.891	2335.59
715.083	2358.07
715.274	2342.37
715.466	2312.34
715.657	2381.51
715.849	2297.03
716.04	2357.87
716.232	2279.02
716.423	2312.92
716.615	2209.65
716.806	2180.21
716.998	2128.86
717.189	2052.53
717.381	1979.87
717.572	1941.51
717.763	1974.83
717.955	1908.96
718.146	1889.2
718.337	1821.19
718.528	1815.77
718.72	1703.78
718.911	1784.38
719.102	1723.16
719.293	1771.98
719.485	1755.32
719.676	1717.73
719.867	1696.22
720.058	1702.62
720.249	1733.81
720.44	1753.96
720.632	1791.35
720.823	1849.29
721.014	1952.16
721.205	1975.03
721.396	2050.39
721.587	2145.91
721.778	2220.5
721.969	2253.83
722.16	2266.81
722.351	2307.88
722.542	2399.14
722.733	2394.88
722.924	2338.3
723.115	2343.92
723.305	2329.97
723.496	2370.27
723.687	2240.46
723.878	2246.27
724.069	2253.44
724.26	2239.3
724.45	2135.26
724.641	2181.56
724.832	2200.16
725.023	2175.75
725.213	2169.36
725.404	2133.12
725.595	2138.16
725.785	2132.35
725.976	2201.13
726.167	2173.04
726.357	2178.85
726.548	2265.84
726.739	2192.41
726.929	2261.97
727.12	2310.79
727.31	2285.99
727.501	2225.15
727.691	2308.08
727.882	2269.91
728.072	2320.67
728.263	2321.64
728.453	2390.42
728.644	2337.92
728.834	2357.68
729.024	2314.08
729.215	2323.19
729.405	2335.2
729.596	2385
729.786	2402.82
729.976	2453
730.167	2437.89
730.357	2399.33
730.547	2408.63
730.737	2474.89
730.928	2490.39
731.118	2551.81
731.308	2470.63
731.498	2449.13
731.688	2548.91
731.879	2567.89
732.069	2645.97
732.259	2660.7
732.449	2681.04
732.639	2732.97
732.829	2773.07
733.019	2834.49
733.209	2900.75
733.399	2888.35
733.589	2956.94
733.779	2987.55
733.969	2962.17
734.159	3049.94
734.349	3059.43
734.539	3134.02
734.729	3122.59
734.919	3136.93
735.109	3182.07
735.299	3090.43
735.488	3112.32
735.678	3130.34
735.868	3151.27
736.058	3140.22
736.248	3176.65
736.437	3108.25
736.627	3122.4
736.817	3240
737.007	3170.45
737.196	3270.03
737.386	3185.95
737.576	3224.5
737.765	3257.25
737.955	3158.44
738.144	3343.08
738.334	3280.88
738.524	3266.74
738.713	3301.23
738.903	3252.79
739.092	3274.3
739.282	3314.98
739.471	3303.36
739.661	3336.1
739.85	3363.23
740.04	3345.21
740.229	3396.74
740.419	3414.76
740.608	3416.51
740.797	3410.31
740.987	3451.57
741.176	3396.55
741.365	3372.33
741.555	3381.05
741.744	3472.89
741.933	3444.02
742.123	3455.64
742.312	3521.9
742.501	3499.04
742.69	3496.14
742.88	3441.69
743.069	3557.75
743.258	3503.89
743.447	3596.11
743.636	3603.47
743.825	3530.62
744.014	3551.55
744.204	3609.87
744.393	3522.87
744.582	3612.58
744.771	3636.99
744.96	3559.49
745.149	3575.38
745.338	3579.84
745.527	3619.55
745.716	3601.34
745.905	3577.32
746.094	3601.73
746.283	3621.68
746.471	3607.73
746.66	3653.27
746.849	3658.5
747.038	3662.95
747.227	3575.57
747.416	3620.33
747.604	3559.69
747.793	3593.59
747.982	3626.53
748.171	3626.14
748.359	3625.95
748.548	3626.92
748.737	3608.9
748.926	3592.43
749.114	3526.36
749.303	3585.84
749.491	3596.89
749.68	3494.78
749.869	3614.52
750.057	3535.27
750.246	3551.35
750.434	3531.01
750.623	3562.4
750.811	3534.69
751	3585.07
751.188	3535.66
751.377	3521.71
751.565	3531.79
751.754	3515.9
751.942	3517.84
752.131	3562.98
752.319	3507.76
752.507	3461.65
752.696	3529.27
752.884	3553.1
753.072	3518.22
753.261	3513.57
753.449	3517.45
753.637	3495.75
753.825	3596.11
754.014	3487.42
754.202	3487.03
754.39	3534.3
754.578	3536.82
754.766	3443.24
754.955	3448.28
755.143	3589.91
755.331	3469.98
755.519	3513.57
755.707	3530.62
755.895	3456.03
756.083	3463.01
756.271	3414.76
756.459	3479.67
756.647	3496.33
756.835	3440.53
757.023	3411.86
757.211	3440.92
757.399	3374.46
757.587	3435.11
757.775	3390.16
757.963	3376.59
758.151	3386.48
758.339	3304.33
758.526	3336.1
758.714	3365.16
758.902	3213.85
759.09	3156.11
759.278	2941.44
759.465	2697.7
759.653	2333.27
759.841	2095.54
760.028	1840.95
760.216	1559.83
760.404	1467.02
760.591	1192.68
760.779	998.15
760.967	866.99
761.154	709.08
761.342	762.17
761.529	736.4
761.717	809.06
761.905	784.26
762.092	831.34
762.28	779.41
762.467	786.39
762.655	691.06
762.842	727.29
763.029	754.61
763.217	761.98
763.404	737.95
763.592	760.23
763.779	721.68
763.966	769.14
764.154	824.94
764.341	890.43
764.528	861.37
764.716	933.44
764.903	979.75
765.09	1102.2
765.277	1138.81
765.465	1289.94
765.652	1315.12
765.839	1413.16
766.026	1555.76
766.213	1577.46
766.4	1707.07
766.588	1866.72
766.775	1895.98
766.962	2040.71
767.149	2104.06
767.336	2264.1
767.523	2263.9
767.71	2353.8
767.897	2465.21
768.084	2570.02
768.271	2589.59
768.458	2657.21
768.645	2725.99
768.832	2732.58
769.019	2732.38
769.206	2754.08
769.392	2841.46
769.579	2937.37
769.766	2905.59
769.953	2896.49
770.14	2923.61
770.327	2931.36
770.513	2976.51
770.7	3061.76
770.887	2944.54
771.073	2999.56
771.26	2978.44
771.447	2995.3
771.634	2945.7
771.82	3081.13
772.007	2954.23
772.193	3048.77
772.38	3024.94
772.567	3019.91
772.753	3022.23
772.94	3100.31
773.126	3054.2
773.313	3060.21
773.499	3079.39
773.686	3073.57
773.872	3008.86
774.059	3046.06
774.245	2992.78
774.432	2997.43
774.618	2932.72
774.804	3007.89
774.991	2966.24
775.177	3004.79
775.363	2958.49
775.55	2998.4
775.736	2943.76
775.922	2980.19
776.109	2954.61
776.295	2933.3
776.481	2987.94
776.667	3006.34
776.853	2973.41
777.04	2940.47
777.226	2928.84
777.412	3022.04
777.598	2912.38
777.784	2924
777.97	2910.63
778.156	2960.81
778.342	2947.83
778.528	2861.81
778.715	2880.02
778.901	2869.75
779.087	2912.18
779.272	2849.21
779.458	2856.38
779.644	2896.88
779.83	2854.83
780.016	2914.7
780.202	2868.2
780.388	2867.43
780.574	2751.95
780.76	2778.5
780.946	2823.45
781.131	2868.78
781.317	2810.85
781.503	2806.01
781.689	2781.21
781.874	2887.77
782.06	2790.51
782.246	2784.5
782.432	2818.8
782.617	2813.18
782.803	2840.5
782.989	2728.9
783.174	2751.95
783.36	2733.55
783.545	2757.18
783.731	2739.36
783.916	2632.02
784.102	2747.88
784.288	2676.39
784.473	2753.7
784.659	2703.52
784.844	2750.6
785.029	2719.99
785.215	2685.89
785.4	2642.1
785.586	2697.7
785.771	2619.82
785.956	2644.81
786.142	2634.16
786.327	2637.06
786.512	2631.44
786.698	2640.55
786.883	2528.56
787.068	2579.91
787.254	2595.41
787.439	2590.37
787.624	2581.07
787.809	2551.81
787.994	2588.04
788.18	2618.66
788.365	2491.36
788.55	2548.91
788.735	2501.05
788.92	2530.11
789.105	2472.18
789.29	2554.14
789.475	2484.97
789.66	2454.55
789.845	2406.5
790.03	2442.73
790.215	2462.11
790.4	2481.68
790.585	2487.88
790.77	2440.21
790.955	2385
791.14	2395.46
791.325	2481.29
791.51	2377.83
791.695	2391.2
791.879	2427.04
792.064	2387.32
792.249	2467.53
792.434	2377.25
792.618	2398.56
792.803	2446.41
792.988	2417.16
793.173	2421.42
793.357	2470.24
793.542	2403.79
793.727	2432.46
793.911	2468.69
794.096	2441.96
794.281	2443.7
794.465	2526.43
794.65	2452.61
794.834	2469.66
795.019	2496.79
795.203	2497.18
795.388	2487.68
795.572	2487.49
795.757	2456.3
795.941	2493.11
796.126	2409.99
796.31	2384.22
796.494	2441.38
796.679	2378.41
796.863	2400.69
797.048	2499.31
797.232	2443.12
797.416	2439.05
797.601	2465.01
797.785	2528.18
797.969	2519.46
798.153	2471.6
798.338	2475.28
798.522	2505.89
798.706	2513.06
798.89	2511.71
799.074	2587.46
799.258	2577.19
799.443	2483.61
799.627	2484.19
799.811	2551.81
799.995	2507.06
800.179	2461.33
800.363	2465.59
800.547	2487.1
800.731	2505.31
800.915	2438.66
801.099	2432.46
801.283	2475.28
801.467	2430.72
801.651	2432.08
801.835	2492.91
802.019	2483.23
802.202	2428.01
802.386	2406.89
802.57	2404.37
802.754	2404.37
802.938	2416.77
803.121	2407.28
803.305	2482.84
803.489	2437.5
803.673	2428.59
803.856	2451.45
804.04	2435.95
804.224	2455.91
804.407	2444.09
804.591	2432.46
804.775	2415.41
804.958	2448.74
805.142	2536.51
805.326	2453.78
805.509	2470.44
805.693	2495.04
805.876	2476.25
806.06	2494.08
806.243	2509.96
806.427	2529.92
806.61	2530.89
806.794	2466.76
806.977	2497.56
807.16	2480.51
807.344	2515
807.527	2501.05
807.71	2496.98
807.894	2448.16
808.077	2514.42
808.26	2449.9
808.444	2431.5
808.627	2527.98
808.81	2442.15
808.993	2410.18
809.177	2340.24
809.36	2370.66
809.543	2405.92
809.726	2287.35
809.909	2329.58
810.092	2305.56
810.276	2318.15
810.459	2287.93
810.642	2306.33
810.825	2255.38
811.008	2284.83
811.191	2204.04
811.374	2205
811.557	2217.6
811.74	2276.69
811.923	2119.76
812.106	2132.54
812.289	2097.28
812.472	2130.8
812.654	2116.07
812.837	2079.26
813.02	2052.53
813.203	1941.12
813.386	1914.77
813.569	1927.37
813.751	1819.06
813.934	1894.82
814.117	1859.17
814.3	1858.58
814.482	1758.61
814.665	1711.53
814.848	1682.47
815.03	1627.83
815.213	1610.39
815.396	1652.24
815.578	1636.94
815.761	1580.36
815.943	1653.02
816.126	1552.85
816.309	1544.13
816.491	1468.38
816.674	1383.52
816.856	1469.54
817.039	1478.65
817.221	1539.68
817.403	1488.14
817.586	1496.86
817.768	1496.86
817.951	1440.48
818.133	1414.32
818.315	1418.58
818.498	1524.18
818.68	1517.4
818.862	1534.64
819.045	1567.58
819.227	1531.73
819.409	1518.95
819.591	1529.21
819.774	1504.8
819.956	1490.27
820.138	1549.95
820.32	1569.9
820.502	1637.71
820.684	1687.51
820.866	1712.11
821.048	1716.37
821.231	1754.93
821.413	1774.69
821.595	1753.38
821.777	1751.64
821.959	1755.32
822.141	1783.6
822.323	1644.88
822.505	1598.77
822.686	1523.6
822.868	1439.7
823.05	1336.44
823.232	1310.09
823.414	1256.42
823.596	1353.87
823.778	1326.94
823.96	1356.59
824.141	1341.28
824.323	1366.66
824.505	1457.92
824.687	1531.35
824.868	1570.1
825.05	1683.24
825.232	1706.11
825.413	1751.25
825.595	1674.53
825.777	1644.3
825.958	1667.74
826.14	1687.89
826.321	1679.17
826.503	1696.81
826.685	1711.14
826.866	1700.87
827.048	1700.29
827.229	1644.11
827.411	1594.12
827.592	1548.78
827.773	1538.51
827.955	1509.45
828.136	1521.85
828.318	1485.04
828.499	1522.63
828.68	1452.88
828.862	1503.06
829.043	1519.14
829.224	1478.26
829.406	1472.64
829.587	1485.43
829.768	1464.5
829.949	1555.95
830.131	1504.8
830.312	1554.98
830.493	1508.87
830.674	1506.93
830.855	1499.18
831.036	1494.15
831.218	1536
831.399	1588.11
831.58	1556.92
831.761	1524.56
831.942	1517.98
832.123	1524.56
832.304	1518.56
832.485	1504.61
832.666	1514.3
832.847	1519.53
833.028	1491.43
833.209	1478.45
833.389	1485.82
833.57	1421.3
833.751	1447.45
833.932	1553.05
834.113	1539.87
834.294	1486.59
834.475	1522.24
834.655	1535.8
834.836	1597.99
835.017	1557.31
835.198	1518.95
835.378	1524.56
835.559	1572.42
835.74	1535.41
835.92	1540.65
836.101	1525.34
836.281	1574.16
836.462	1559.83
836.643	1605.16
836.823	1604.39
837.004	1616.59
837.184	1622.21
837.365	1589.86
837.545	1635.19
837.726	1585.21
837.906	1638.49
838.087	1587.53
838.267	1573.58
838.448	1545.88
838.628	1577.65
838.808	1565.25
838.989	1638.88
839.169	1568.35
839.349	1614.46
839.53	1634.81
839.71	1590.44
839.89	1582.69
840.07	1626.86
840.251	1582.88
840.431	1629.58
840.611	1595.67
840.791	1571.65
840.971	1578.43
841.151	1564.67
841.332	1535.41
841.512	1630.54
841.692	1531.54
841.872	1584.24
842.052	1528.63
842.232	1623.96
842.412	1528.63
842.592	1562.15
842.772	1579.2
842.952	1586.76
843.132	1546.85
843.312	1553.82
843.492	1496.28
843.672	1555.37
843.851	1482.13
844.031	1560.21
844.211	1531.15
844.391	1508.87
844.571	1530.38
844.751	1564.67
844.93	1556.15
845.11	1529.8
845.29	1561.38
845.47	1586.18
845.649	1536.58
845.829	1584.82
846.009	1458.11
846.188	1544.71
846.368	1558.28
846.547	1511.78
846.727	1564.09
846.907	1493.37
847.086	1527.66
847.266	1543.94
847.445	1562.54
847.625	1467.8
847.804	1485.62
847.984	1507.32
848.163	1487.75
848.343	1486.78
848.522	1515.85
848.701	1527.66
848.881	1480.2
849.06	1495.89
849.239	1490.08
849.419	1499.77
849.598	1447.07
849.777	1443.97
849.957	1406.38
850.136	1360.85
850.315	1364.14
850.494	1364.53
850.674	1350.77
850.853	1434.28
851.032	1363.95
851.211	1455.4
851.39	1420.33
851.569	1345.54
851.748	1368.79
851.927	1411.8
852.107	1412.58
852.286	1310.47
852.465	1368.6
852.644	1430.21
852.823	1399.6
853.002	1364.14
853.181	1372.09
853.359	1381.97
853.538	1332.95
853.717	1401.54
853.896	1321.32
854.075	1252.54
854.254	1243.82
854.433	1164.78
854.611	1234.53
854.79	1154.31
854.969	1224.64
855.148	1238.4
855.327	1189.96
855.505	1238.59
855.684	1228.91
855.863	1245.76
856.041	1217.48
856.22	1315.71
856.399	1268.43
856.577	1361.04
856.756	1317.06
856.934	1399.79
857.113	1419.75
857.291	1318.03
857.47	1300.98
857.648	1356.97
857.827	1356
858.005	1374.6
858.184	1325.2
858.362	1388.75
858.541	1336.63
858.719	1340.7
858.898	1274.63
859.076	1300.79
859.254	1370.54
859.433	1308.15
859.611	1347.87
859.789	1231.43
859.967	1357.55
860.146	1371.31
860.324	1263.39
860.502	1281.22
860.68	1254.87
860.859	1255.84
861.037	1263.39
861.215	1261.46
861.393	1277.54
861.571	1288.39
861.749	1261.65
861.927	1269.01
862.105	1267.07
862.283	1244.02
862.461	1255.84
862.639	1213.99
862.817	1247.89
862.995	1257.97
863.173	1222.13
863.351	1249.83
863.529	1264.56
863.707	1256.22
863.885	1252.93
864.063	1191.32
864.241	1254.87
864.418	1288
864.596	1229.68
864.774	1229.68
864.952	1186.86
865.129	1258.16
865.307	1189.96
865.485	1157.99
865.663	1195.97
865.84	1100.45
866.018	1155.48
866.196	1032.06
866.373	1051.24
866.551	1023.34
866.728	1005.13
866.906	1025.86
867.084	1068.29
867.261	1077.59
867.439	1105.1
867.616	1127.58
867.794	1084.95
867.971	1136.49
868.149	1127
868.326	1179.69
868.503	1146.95
868.681	1136.88
868.858	1086.5
869.035	1126.22
869.213	1178.92
869.39	1132.03
869.567	1183.18
869.745	1139.59
869.922	1136.3
870.099	1151.21
870.276	1191.51
870.454	1164.39
870.631	1128.16
870.808	1135.91
870.985	1164
871.162	1148.5
871.339	1141.33
871.517	1078.75
871.694	1103.94
871.871	1079.91
872.048	1108.01
872.225	1100.65
872.402	1103.16
872.579	1048.72
872.756	1099.87
872.933	1030.51
873.11	1089.02
873.287	1090.57
873.463	1072.16
873.64	1034.38
873.817	1078.36
873.994	1070.42
874.171	1054.73
874.348	1085.92
874.524	1019.66
874.701	1064.22
874.878	1022.95
875.055	1065.38
875.231	1066.35
875.408	1091.15
875.585	991.95
875.762	1049.5
875.938	1029.73
876.115	1019.27
876.291	1020.24
876.468	1019.08
876.645	1003.58
876.821	987.5
876.998	997.38
877.174	1024.5
877.351	1007.26
877.527	1014.04
877.704	1021.6
877.88	1001.06
878.057	969.67
878.233	1065.77
878.409	995.83
878.586	1042.52
878.762	988.27
878.938	1015.98
879.115	917.36
879.291	1002.03
879.467	929.37
879.644	966.19
879.82	995.25
879.996	942.55
880.172	933.64
880.349	964.64
880.525	982.85
880.701	908.84
880.877	922.59
881.053	938.09
881.229	955.53
881.405	983.04
881.581	934.8
881.757	950.88
881.933	975.87
882.109	960.57
882.285	949.14
882.461	911.74
882.637	927.63
882.813	909.8
882.989	912.9
883.165	980.91
883.341	932.09
883.517	1001.64
883.693	951.07
883.869	964.44
884.044	944.29
884.22	950.49
884.396	970.64
884.572	943.13
884.747	956.11
884.923	999.12
885.099	972
885.275	960.95
885.45	946.42
885.626	929.18
885.801	927.05
885.977	931.31
886.153	868.54
886.328	946.42
886.504	931.12
886.679	910.39
886.855	913.68
887.03	963.09
887.206	952.62
887.381	953.59
887.557	952.82
887.732	951.85
887.908	990.4
888.083	955.34
888.258	943.13
888.434	928.79
888.609	951.07
888.784	981.3
888.96	922.4
889.135	923.95
889.31	875.71
889.485	954.56
889.661	944.87
889.836	971.03
890.011	950.69
890.186	903.99
890.361	928.99
890.537	957.47
890.712	912.71
890.887	941.77
891.062	924.92
891.237	1005.52
891.412	895.27
891.587	940.03
891.762	945.07
891.937	963.86
892.112	882.1
892.287	936.54
892.462	886.17
892.637	861.56
892.812	831.72
892.987	849.74
893.161	866.99
893.336	850.91
893.511	868.34
893.686	870.28
893.861	838.89
894.035	840.25
894.21	823.59
894.385	801.89
894.56	803.44
894.734	785.42
894.909	762.56
895.084	727.49
895.258	735.43
895.433	745.51
895.608	722.64
895.782	686.61
895.957	708.5
896.131	739.69
896.306	643.79
896.48	678.86
896.655	648.83
896.829	572.68
897.004	576.95
897.178	613.95
897.353	600.97
897.527	659.29
897.701	627.32
897.876	550.4
898.05	671.3
898.224	605.04
898.399	632.36
898.573	592.25
898.747	500.8
898.921	552.53
899.096	496.35
899.27	491.31
899.444	497.32
899.618	523.47
899.792	550.4
899.967	518.44
900.141	580.24
900.315	497.7
900.489	506.62
900.663	542.27
900.837	516.89
901.011	468.45
901.185	546.33
901.359	534.52
901.533	550.79
901.707	574.43
901.881	533.16
902.055	464.77
902.229	498.87
902.403	568.42
902.576	548.66
902.75	538.2
902.924	650.76
903.098	579.08
903.272	649.6
903.446	636.23
903.619	649.21
903.793	656.58
903.967	675.95
904.14	705.21
904.314	700.75
904.488	672.66
904.661	709.66
904.835	660.84
905.009	701.14
905.182	723.61
905.356	682.54
905.529	653.86
905.703	643.79
905.876	638.17
906.05	618.41
906.223	609.88
906.397	561.64
906.57	548.08
906.744	535.29
906.917	521.34
907.09	522.12
907.264	515.53
907.437	507.97
907.61	479.3
907.784	484.53
907.957	526.77
908.13	476.2
908.304	496.93
908.477	477.17
908.65	461.09
908.823	436.87
908.996	519.99
909.17	439
909.343	451.4
909.516	462.25
909.689	456.24
909.862	458.18
910.035	450.04
910.208	457.02
910.381	433.38
910.554	496.54
910.727	461.47
910.9	445.97
911.073	444.04
911.246	515.92
911.419	489.57
911.592	497.51
911.765	443.07
911.938	451.4
912.11	457.6
912.283	449.07
912.456	516.89
912.629	456.44
912.802	450.82
912.974	378.94
913.147	377.19
913.32	347.55
913.493	382.62
913.665	381.84
913.838	400.06
914.01	358.79
914.183	421.95
914.356	389.4
914.528	439.58
914.701	452.37
914.873	429.51
915.046	370.61
915.218	394.63
915.391	336.31
915.563	309.19
915.736	384.56
915.908	397.54
916.081	372.16
916.253	397.15
916.425	427.37
916.598	421.37
916.77	407.61
916.942	382.23
917.115	338.44
917.287	381.84
917.459	333.6
917.632	339.61
917.804	308.22
917.976	364.79
918.148	393.86
918.32	390.76
918.493	426.41
918.665	416.33
918.837	432.02
919.009	434.35
919.181	449.27
919.353	429.12
919.525	430.86
919.697	415.75
919.869	407.81
920.041	477.55
920.213	505.65
920.385	448.3
920.557	424.27
920.729	467.48
920.901	435.12
921.073	426.79
921.244	423.69
921.416	424.27
921.588	431.25
921.76	410.91
921.932	485.5
922.103	431.25
922.275	426.6
922.447	440.94
922.619	375.64
922.79	435.71
922.962	395.6
923.134	405.87
923.305	388.62
923.477	372.54
923.648	352.98
923.82	348.52
923.991	327.4
924.163	321.78
924.335	351.23
924.506	342.32
924.677	399.47
924.849	339.61
925.02	341.74
925.192	394.05
925.363	342.32
925.535	392.11
925.706	349.1
925.877	429.31
926.049	335.34
926.22	404.9
926.391	384.17
926.562	393.47
926.734	327.4
926.905	425.05
927.076	307.06
927.247	319.46
927.419	260.95
927.59	306.28
927.761	269.86
927.932	288.46
928.103	287.1
928.274	264.82
928.445	244.67
928.616	263.85
928.787	245.06
928.958	266.18
929.129	265.01
929.3	242.93
929.471	182.87
929.642	156.71
929.813	143.15
929.984	204.56
930.155	143.15
930.326	197.59
930.496	146.05
930.667	109.05
930.838	153.03
931.009	103.23
931.18	113.31
931.35	131.33
931.521	119.32
931.692	80.95
931.863	43.17
932.033	112.73
932.204	108.47
932.374	108.85
932.545	65.84
932.716	93.16
932.886	127.84
933.057	36.2
933.227	41.43
933.398	131.13
933.568	40.07
933.739	1.13
933.909	57.32
934.08	76.11
934.25	20.89
934.421	9.66
934.591	54.6
934.761	23.41
934.932	2.68
935.102	25.15
935.272	25.35
935.443	33.87
935.613	2.87
935.783	58.87
935.953	-2.36
936.123	170.66
936.294	5.78
936.464	20.7
936.634	17.02
936.804	-6.04
936.974	-14.56
937.144	50.15
937.314	44.92
937.484	17.02
937.655	9.46
937.825	64.68
937.995	23.99
938.165	78.24
938.334	21.47
938.504	91.61
938.674	27.09
938.844	16.24
939.014	79.02
939.184	127.65
939.354	158.65
939.524	121.83
939.694	81.54
939.863	47.63
940.033	126.68
940.203	115.63
940.373	95.1
940.542	95.1
940.712	57.32
940.882	97.81
941.051	80.37
941.221	91.22
941.391	131.72
941.56	55.38
941.73	20.5
941.899	146.63
942.069	61.39
942.238	110.21
942.408	76.3
942.577	74.56
942.747	64.87
942.916	26.9
943.086	57.12
943.255	99.36
943.425	80.95
943.594	57.12
943.763	17.6
943.933	26.7
944.102	15.66
944.271	50.54
944.441	48.99
944.61	26.32
944.779	54.22
944.948	153.61
945.117	36.2
945.287	55.19
945.456	0.94
945.625	41.62
945.794	21.47
945.963	8.69
946.132	100.52
946.301	18.18
946.47	103.82
946.639	5.59
946.808	37.17
946.977	83.67
947.146	117.18
947.315	32.52
947.484	86.38
947.653	32.52
947.822	36
947.991	41.82
948.16	128.81
948.329	96.65
948.498	33.87
948.666	51.5
948.835	75.34
949.004	8.3
949.173	9.66
949.341	87.54
949.51	68.94
949.679	88.7
949.847	70.1
950.016	145.47
950.185	107.88
950.353	43.37
950.522	49.57
950.69	110.4
950.859	34.07
951.028	88.7
951.196	54.99
951.365	60.61
951.533	45.69
951.701	92.58
951.87	74.95
952.038	34.26
952.207	37.36
952.375	101.69
952.543	12.37
952.712	56.93
952.88	59.64
953.048	104.78
953.217	74.56
953.385	54.6
953.553	111.18
953.721	49.76
953.89	55.19
954.058	32.13
954.226	31.94
954.394	52.47
954.562	20.12
954.73	70.88
954.898	45.3
955.067	104.01
955.235	44.14
955.403	72.43
955.571	108.08
955.739	71.46
955.907	33.49
956.075	41.04
956.243	48.6
956.41	74.95
956.578	3.65
956.746	12.17
956.914	33.49
957.082	70.88
957.25	78.05
957.418	42.2
957.585	58.67
957.753	92.19
957.921	56.93
958.089	58.48
958.256	68.17
958.424	76.89
958.592	61
958.759	30.39
958.927	74.37
959.095	30.97
959.262	68.75
959.43	69.91
959.597	28.06
959.765	53.05
959.932	41.43
960.1	90.64
960.267	52.86
960.435	83.28
960.602	108.85
960.77	78.05
960.937	32.52
961.104	64.49
961.272	19.54
961.439	29.61
961.606	67.78
961.774	81.15
961.941	53.44
962.108	49.76
962.275	66.42
962.443	102.07
962.61	83.86
962.777	107.5
962.944	113.89
963.111	77.66
963.278	93.94
963.446	45.89
963.613	77.66
963.78	90.84
963.947	70.3
964.114	69.33
964.281	144.5
964.448	85.22
964.615	72.04
964.782	78.05
964.949	106.53
965.116	86.19
965.282	102.07
965.449	80.95
965.616	41.62
965.783	124.93
965.95	67
966.117	32.32
966.283	79.79
966.45	91.42
966.617	86.57
966.784	96.07
966.95	126.68
967.117	125.32
967.284	95.68
967.45	61.97
967.617	135.59
967.784	138.88
967.95	133.85
968.117	83.86
968.283	139.85
968.45	185.38
968.616	98
968.783	136.95
968.949	93.35
969.116	111.95
969.282	114.67
969.449	127.84
969.615	103.43
969.781	56.54
969.948	77.66
970.114	48.02
970.28	153.8
970.447	105.75
970.613	151.48
970.779	86.38
970.945	103.43
971.112	98
971.278	89.29
971.444	103.62
971.61	150.9
971.776	82.7
971.942	83.47
972.108	129
972.275	104.4
972.441	116.8
972.607	144.7
972.773	91.8
972.939	82.31
973.105	97.23
973.271	72.04
973.437	69.33
973.602	45.5
973.768	115.44
973.934	94.9
974.1	97.42
974.266	13.92
974.432	80.95
974.598	52.28
974.763	105.75
974.929	69.52
975.095	136.17
975.261	44.72
975.426	49.95
975.592	82.5
975.758	126.1
975.923	41.82
976.089	57.32
976.255	155.16
976.42	100.91
976.586	103.82
976.751	84.25
976.917	162.72
977.082	107.88
977.248	28.45
977.413	13.14
977.579	95.29
977.744	84.83
977.91	38.33
978.075	70.49
978.24	106.72
978.406	69.33
978.571	35.04
978.736	64.87
978.902	95.49
979.067	66.81
979.232	8.3
979.397	87.15
979.563	146.44
979.728	48.79
979.893	72.82
980.058	67.59
980.223	103.04
980.388	88.7
980.554	83.86
980.719	50.15
980.884	86.38
981.049	111.95
981.214	57.12
981.379	108.27
981.544	60.8
981.709	65.07
981.874	72.62
982.039	104.2
982.204	82.7
982.368	87.93
982.533	34.26
982.698	121.64
982.863	104.2
983.028	74.95
983.193	104.78
983.357	92
983.522	71.65
983.687	67.97
983.852	75.14
984.016	54.6
984.181	87.54
984.346	88.9
984.51	101.1
984.675	71.46
984.839	104.59
985.004	102.07
985.168	119.32
985.333	124.55
985.498	84.05
985.662	108.47
985.827	81.54
985.991	83.09
986.155	76.11
986.32	94.71
986.484	140.63
986.649	94.52
986.813	42.79
986.977	117.57
987.142	107.5
987.306	60.42
987.47	55.57
987.634	89.09
987.799	78.05
987.963	103.23
988.127	123.58
988.291	137.72
988.455	85.41
988.62	91.22
988.784	86.57
988.948	104.4
989.112	38.14
989.276	90.64
989.44	68.55
989.604	72.24
989.768	46.66
989.932	134.43
990.096	39.3
990.26	60.61
990.424	33.68
990.588	52.47
990.752	123.77
990.915	136.56
991.079	55.38
991.243	68.36
991.407	102.46
991.571	55.77
991.734	102.65
991.898	106.53
992.062	160
992.226	75.72
992.389	56.93
992.553	49.18
992.717	61.19
992.88	62.94
993.044	57.12
993.207	95.68
993.371	69.52
993.535	81.73
993.698	73.2
993.862	71.27
994.025	94.9
994.189	72.04
994.352	84.05
994.515	85.41
994.679	109.43
994.842	46.08
995.006	103.43
995.169	49.95
995.332	42.01
995.496	90.06
995.659	15.47
995.822	85.02
995.985	70.1
996.149	139.47
996.312	61
996.475	139.27
996.638	40.07
996.801	112.73
996.964	139.47
997.128	67.97
997.291	56.93
997.454	64.49
997.617	28.64
997.78	107.3
997.943	55.77
998.106	97.04
998.269	36.59
998.432	73.98
998.595	74.56
998.758	4.81
998.92	28.06
999.083	14.89
999.246	53.44
999.409	32.9
999.572	34.26
999.735	17.79
999.897	99.94
1000.06	32.32
1000.223	28.84
1000.386	93.94
1000.548	65.26
1000.711	77.85
1000.874	63.9
1001.036	26.9
1001.199	95.87
1001.361	1.13
1001.524	56.74
1001.687	82.31
1001.849	39.3
1002.012	80.95
1002.174	80.18
1002.337	76.3
1002.499	39.69
1002.661	118.54
1002.824	26.12
1002.986	26.12
1003.149	72.04
1003.311	7.72
1003.473	96.45
1003.636	47.63
1003.798	74.56
1003.96	66.04
1004.123	36
1004.285	47.82
1004.447	32.32
1004.609	36.78
1004.771	97.42
1004.933	-2.36
1005.096	40.65
1005.258	33.29
1005.42	36.2
1005.582	58.29
1005.744	49.76
1005.906	-6.43
1006.068	67.2
1006.23	-0.42
1006.392	-25.03
1006.554	23.6
1006.716	70.88
1006.878	55.57
1007.04	2.1
1007.202	29.03
1007.363	61.39
1007.525	58.67
1007.687	57.7
1007.849	73.59
1008.011	5.39
1008.172	10.04
1008.334	44.92
1008.496	77.66
1008.658	-8.17
1008.819	20.31
1008.981	16.05
1009.143	11.01
1009.304	37.75
1009.466	78.24
1009.627	109.24
1009.789	142.37
1009.95	25.15
1010.112	41.62
1010.273	32.52
1010.435	10.43
1010.596	30.39
1010.758	29.42
1010.919	22.44
1011.081	3.07
1011.242	31.74
1011.403	33.49
1011.565	33.49
1011.726	68.94
1011.887	-15.53
1012.049	14.89
1012.21	63.9
1012.371	102.46
1012.532	-7.01
1012.693	31.55
1012.855	25.54
1013.016	47.82
1013.177	40.85
1013.338	34.45
1013.499	68.94
1013.66	24.19
1013.821	55.19
1013.982	49.18
1014.143	9.66
1014.304	32.52
1014.465	59.25
1014.626	65.65
1014.787	35.62
1014.948	100.91
1015.109	-22.7
1015.27	53.44
1015.431	13.72
1015.592	6.56
1015.752	76.3
1015.913	36.2
1016.074	38.52
1016.235	20.7
1016.395	22.64
1016.556	20.31
1016.717	4.62
1016.877	61.19
1017.038	-0.61
1017.199	69.33
1017.359	24.19
1017.52	40.27
1017.681	13.34
1017.841	36.2
1018.002	18.18
1018.162	20.7
1018.323	88.32
1018.483	15.27
1018.644	0.36
1018.804	2.68
1018.964	-5.84
1019.125	13.34
1019.285	55.77
1019.446	6.94
1019.606	16.44
1019.766	-12.63
1019.926	49.57
1020.087	63.52
1020.247	-0.23
1020.407	44.34
1020.567	67.78
1020.728	15.47
1020.888	0.55
1021.048	2.49
1021.208	14.5
1021.368	-1.97
1021.528	92.19
1021.688	52.67
1021.848	51.7
1022.008	38.14
1022.168	34.65
1022.328	25.54
1022.488	23.02
1022.648	14.5
1022.808	20.5
1022.968	43.75
1023.128	-15.14
1023.288	19.92
1023.448	23.99
1023.608	37.36
1023.767	56.15
1023.927	2.49
1024.087	1.52
1024.247	-16.11
1024.406	18.95
1024.566	-1
1024.726	-24.25
1024.885	39.3
1025.045	42.01
1025.205	-6.43
1025.364	-8.36
1025.524	5.59
1025.683	9.85
1025.843	16.82
1026.003	37.17
1026.162	67.78
1026.321	59.25
1026.481	32.32
1026.64	6.75
1026.8	28.45
1026.959	1.13
1027.119	2.1
1027.278	14.89
1027.437	-6.43
1027.597	55.57
1027.756	19.54
1027.915	11.4
1028.074	41.24
1028.234	-12.04
1028.393	30.39
1028.552	14.31
1028.711	-50.41
1028.87	63.52
1029.03	-17.47
1029.189	2.68
1029.348	-18.63
1029.507	10.24
1029.666	-0.61
1029.825	-31.61
1029.984	-16.5
1030.143	27.29
1030.302	-2.16
1030.461	-39.36
1030.62	34.07
1030.779	21.28
1030.938	12.95
1031.097	-16.31
1031.255	36.39
1031.414	50.34
1031.573	54.6
1031.732	1.32
1031.891	-8.17
1032.049	73.4
1032.208	21.28
1032.367	-33.55
1032.525	-9.33
1032.684	7.33
1032.843	23.22
1033.001	-41.3
1033.16	136.95
1033.319	22.64
1033.477	22.05
1033.636	-27.54
1033.794	-27.54
1033.953	33.68
1034.111	64.49
1034.27	0.55
1034.428	18.57
1034.587	-31.42
1034.745	28.25
1034.903	14.5
1035.062	33.29
1035.22	8.69
1035.378	36.78
1035.537	-11.46
1035.695	32.71
1035.853	0.16
1036.011	46.27
1036.17	23.22
1036.328	-38.59
1036.486	2.49
1036.644	30.77
1036.802	-52.15
1036.96	-4.1
1037.119	-13.01
1037.277	-7.98
1037.435	-14.76
1037.593	-9.53
1037.751	4.81
1037.909	29.42
1038.067	29.42
