Data from gum_young_FLMT105791__112__17-40-40-041.txt Node

Date: Mon Mar 20 17:40:40 GMT 2023
User: antho
Spectrometer: FLMT10579
Trigger mode: 0
Integration Time (sec): 1.000000E-1
Scans to average: 10
Electric dark correction enabled: true
Nonlinearity correction enabled: false
Boxcar width: 0
XAxis mode: Wavelengths
Number of Pixels in Spectrum: 3648
>>>>>Begin Spectral Data<<<<<
345.248	-137.54
345.464	-137.54
345.681	-137.54
345.898	-197.8
346.114	-159.83
346.331	-37.96
346.548	13.58
346.764	-16.26
346.981	-3.08
347.197	-4.25
347.414	11.83
347.631	-25.56
347.847	56.2
348.064	17.26
348.28	31.4
348.497	-30.4
348.713	-12.77
348.93	42.45
349.146	33.73
349.363	-5.6
349.579	15.13
349.796	17.07
350.012	-6.18
350.229	20.17
350.445	18.23
350.661	-16.84
350.878	16.87
351.094	-8.7
351.311	27.92
351.527	13.19
351.743	-16.45
351.96	35.47
352.176	57.37
352.392	40.12
352.609	28.88
352.825	2.53
353.041	-9.09
353.257	3.12
353.474	23.27
353.69	-12.77
353.906	9.32
354.122	-30.6
354.339	53.49
354.555	4.86
354.771	-11.22
354.987	67.25
355.203	68.02
355.42	4.67
355.636	1.57
355.852	-8.12
356.068	-6.57
356.284	-17.42
356.5	61.05
356.716	19.78
356.932	12.61
357.148	38.57
357.364	-10.64
357.58	39.93
357.796	71.51
358.012	35.28
358.228	24.04
358.444	-45.32
358.66	57.56
358.876	24.23
359.092	-20.33
359.308	24.82
359.524	20.75
359.74	28.69
359.956	17.65
360.172	30.05
360.388	39.54
360.604	-22.46
360.819	85.46
361.035	33.92
361.251	40.7
361.467	-2.12
361.683	31.79
361.898	20.36
362.114	40.7
362.33	22.88
362.546	10.67
362.762	35.28
362.977	24.62
363.193	-7.73
363.409	59.69
363.624	1.95
363.84	1.95
364.056	-14.32
364.271	38.57
364.487	31.4
364.703	4.67
364.918	-2.5
365.134	28.11
365.35	21.33
365.565	113.75
365.781	36.05
365.996	42.45
366.212	85.46
366.427	0.4
366.643	-1.92
366.858	23.27
367.074	-5.6
367.289	73.06
367.505	124.6
367.72	-33.7
367.936	-4.25
368.151	52.91
368.367	32.57
368.582	28.11
368.798	-2.89
369.013	70.54
369.228	31.98
369.444	30.82
369.659	67.25
369.874	33.73
370.09	78.87
370.305	-20.71
370.52	14.74
370.736	70.93
370.951	11.45
371.166	75.38
371.381	68.6
371.597	62.79
371.812	1.95
372.027	16.68
372.242	27.53
372.458	106.19
372.673	26.75
372.888	2.53
373.103	47.48
373.318	122.08
373.533	28.5
373.749	27.72
373.964	-43.58
374.179	54.07
374.394	9.7
374.609	51.55
374.824	-4.05
375.039	58.33
375.254	18.42
375.469	51.94
375.684	35.08
375.899	62.4
376.114	45.16
376.329	47.68
376.544	44.97
376.759	53.68
376.974	-13.35
377.189	14.16
377.404	31.98
377.619	55.43
377.834	-26.72
378.049	-9.86
378.264	-4.83
378.478	27.72
378.693	-8.51
378.908	62.98
379.123	19
379.338	82.55
379.553	42.06
379.767	44.19
379.982	57.75
380.197	46.52
380.412	9.9
380.626	38.77
380.841	105.41
381.056	56.2
381.271	114.52
381.485	13.77
381.7	20.17
381.915	33.34
382.129	11.45
382.344	43.03
382.559	21.33
382.773	42.45
382.988	-20.91
383.202	37.22
383.417	-21.3
383.632	131.18
383.846	17.45
384.061	66.08
384.275	13.77
384.49	70.73
384.704	77.71
384.919	30.24
385.133	29.85
385.348	78.1
385.562	12.22
385.777	73.25
385.991	10.48
386.206	19.78
386.42	27.72
386.634	48.45
386.849	47.1
387.063	46.71
387.277	11.06
387.492	45.55
387.706	18.42
387.92	16.87
388.135	47.29
388.349	73.25
388.563	41.67
388.778	37.6
388.992	85.85
389.206	53.1
389.42	113.75
389.635	69.77
389.849	58.14
390.063	71.12
390.277	71.32
390.491	106.38
390.706	58.92
390.92	69.38
391.134	48.45
391.348	75.77
391.562	-11.61
391.776	57.17
391.99	25.59
392.205	82.75
392.419	22.68
392.633	53.3
392.847	75.58
393.061	18.23
393.275	104.83
393.489	18.81
393.703	22.49
393.917	91.46
394.131	10.48
394.345	67.44
394.559	78.87
394.773	33.15
394.986	50.2
395.2	70.54
395.414	83.33
395.628	40.9
395.842	48.45
396.056	39.54
396.27	-4.44
396.484	68.99
396.697	78.29
396.911	91.08
397.125	78.48
397.339	67.05
397.553	71.32
397.766	108.9
397.98	88.17
398.194	91.08
398.408	51.36
398.621	57.37
398.835	109.29
399.049	90.5
399.262	104.64
399.476	98.83
399.69	99.6
399.903	122.85
400.117	77.9
400.331	121.11
400.544	76.55
400.758	163.35
400.971	106.77
401.185	124.98
401.398	52.52
401.612	152.69
401.826	114.33
402.039	112.58
402.253	63.76
402.466	101.15
402.68	65.5
402.893	107.16
403.106	108.13
403.32	73.25
403.533	137
403.747	119.95
403.96	109.48
404.174	137.77
404.387	70.15
404.6	122.27
404.814	133.12
405.027	94.18
405.24	117.04
405.454	93.4
405.667	114.91
405.88	54.85
406.094	112.2
406.307	133.7
406.52	85.26
406.733	81.2
406.947	68.99
407.16	166.83
407.373	146.1
407.586	76.93
407.799	101.73
408.012	144.36
408.226	115.68
408.439	165.86
408.652	70.93
408.865	117.62
409.078	154.24
409.291	161.41
409.504	92.43
409.717	131.96
409.93	129.44
410.143	122.46
410.357	30.63
410.57	84.49
410.783	106.58
410.996	122.08
411.209	112.39
411.421	150.17
411.634	119.17
411.847	95.73
412.06	110.06
412.273	126.34
412.486	128.08
412.699	196.48
412.912	130.02
413.125	134.86
413.338	125.56
413.55	164.12
413.763	121.5
413.976	141.45
414.189	111.03
414.402	146.49
414.615	166.64
414.827	99.99
415.04	163.54
415.253	136.22
415.466	162.57
415.678	190.08
415.891	130.41
416.104	118.98
416.316	122.85
416.529	132.35
416.742	179.04
416.954	187.95
417.167	152.69
417.38	147.46
417.592	173.23
417.805	96.11
418.017	77.32
418.23	155.6
418.442	117.81
418.655	124.21
418.868	170.71
419.08	163.93
419.293	198.22
419.505	144.16
419.718	158.31
419.93	165.09
420.142	142.61
420.355	191.05
420.567	183.11
420.78	153.08
420.992	161.99
421.205	217.21
421.417	109.48
421.629	114.13
421.842	126.73
422.054	143.78
422.266	184.27
422.479	179.62
422.691	143.2
422.903	175.94
423.115	145.91
423.328	149.01
423.54	146.68
423.752	173.03
423.964	141.65
424.177	173.23
424.389	142.23
424.601	260.8
424.813	189.69
425.025	170.9
425.238	194.93
425.45	156.76
425.662	163.35
425.874	417.15
426.086	156.56
426.298	194.54
426.51	191.44
426.722	178.65
426.934	141.65
427.146	163.15
427.358	161.99
427.57	183.3
427.782	180.01
427.994	194.73
428.206	169.35
428.418	142.81
428.63	180.78
428.842	197.64
429.054	190.28
429.266	226.31
429.478	153.46
429.69	172.26
429.902	145.13
430.114	178.46
430.325	182.14
430.537	148.04
430.749	151.14
430.961	94.95
431.173	128.28
431.384	175.74
431.596	104.64
431.808	166.83
432.02	187.76
432.231	197.64
432.443	224.76
432.655	208.88
432.867	175.74
433.078	194.34
433.29	252.08
433.502	212.56
433.713	244.53
433.925	231.74
434.136	260.22
434.348	192.6
434.56	169.35
434.771	289.09
434.983	154.63
435.194	201.9
435.406	179.81
435.617	230.38
435.829	257.89
436.04	263.9
436.252	234.26
436.463	284.05
436.675	245.11
436.886	223.41
437.098	241.04
437.309	291.8
437.521	255.37
437.732	244.14
437.943	228.25
438.155	244.33
438.366	197.25
438.578	282.11
438.789	233.09
439	240.46
439.211	204.03
439.423	242.59
439.634	253.63
439.845	282.69
440.057	243.17
440.268	262.35
440.479	211.98
440.69	271.46
440.902	226.51
441.113	241.81
441.324	249.95
441.535	276.11
441.746	311.76
441.957	234.06
442.168	255.37
442.38	305.17
442.591	289.28
442.802	246.46
443.013	258.28
443.224	290.83
443.435	250.14
443.646	275.91
443.857	248.4
444.068	276.3
444.279	245.88
444.49	342.75
444.701	295.29
444.912	350.7
445.123	318.15
445.334	306.33
445.545	285.6
445.756	261.77
445.967	232.9
446.178	298.97
446.388	317.37
446.599	312.14
446.81	307.3
447.021	298.19
447.232	318.15
447.443	318.34
447.653	301.68
447.864	335.39
448.075	313.89
448.286	337.14
448.496	301.49
448.707	327.84
448.918	260.8
449.129	390.22
449.339	294.32
449.55	331.32
449.761	315.44
449.971	348.37
450.182	317.57
450.393	379.37
450.603	316.99
450.814	373.17
451.024	349.15
451.235	355.35
451.446	411.54
451.656	405.72
451.867	330.94
452.077	332.87
452.288	385.77
452.498	374.34
452.709	349.92
452.919	368.52
453.13	327.06
453.34	372.98
453.55	283.47
453.761	340.43
453.971	377.44
454.182	381.12
454.392	347.4
454.602	420.06
454.813	373.95
455.023	366
455.233	335.01
455.444	387.9
455.654	305.56
455.864	366.78
456.075	343.53
456.285	336.56
456.495	374.92
456.705	377.63
456.916	408.44
457.126	420.64
457.336	352.05
457.546	323.57
457.756	365.62
457.967	418.9
458.177	365.42
458.387	389.84
458.597	343.34
458.807	362.52
459.017	378.02
459.227	359.42
459.437	345.66
459.647	381.12
459.857	399.52
460.068	377.24
460.278	418.32
460.488	400.88
460.698	444.08
460.908	417.15
461.117	346.24
461.327	374.92
461.537	410.76
461.747	380.34
461.957	393.13
462.167	491.17
462.377	418.7
462.587	409.21
462.797	415.6
463.007	397.2
463.216	434.2
463.426	467.72
463.636	439.82
463.846	365.42
464.056	373.56
464.265	442.73
464.475	365.04
464.685	394.49
464.895	426.45
465.104	392.16
465.314	446.8
465.524	393.9
465.733	381.12
465.943	479.73
466.153	478.18
466.362	472.57
466.572	474.12
466.782	402.62
466.991	447.38
467.201	522.75
467.41	379.18
467.62	446.41
467.829	449.12
468.039	454.55
468.249	413.67
468.458	454.55
468.668	449.7
468.877	467.72
469.086	498.92
469.296	488.45
469.505	431.1
469.715	513.25
469.924	481.87
470.134	499.69
470.343	486.71
470.552	456.68
470.762	463.85
470.971	436.53
471.18	462.3
471.39	482.64
471.599	441.95
471.808	499.5
472.018	443.7
472.227	503.37
472.436	514.42
472.645	504.92
472.855	471.21
473.064	529.14
473.273	527.78
473.482	533.6
473.691	549.1
473.901	537.28
474.11	518.87
474.319	605.48
474.528	552.78
474.737	568.28
474.946	526.23
475.155	581.06
475.364	594.82
475.573	580.48
475.783	581.65
475.992	584.36
476.201	581.06
476.41	566.34
476.619	537.47
476.828	568.47
477.037	573.51
477.245	548.51
477.454	601.99
477.663	556.65
477.872	574.86
478.081	668.25
478.29	559.95
478.499	659.92
478.708	635.7
478.917	686.66
479.125	603.15
479.334	610.71
479.543	609.93
479.752	641.9
479.961	647.52
480.169	670.96
480.378	636.28
480.587	775.59
480.796	675.42
481.004	655.27
481.213	700.41
481.422	709.52
481.63	699.44
481.839	700.61
482.048	762.61
482.256	718.04
482.465	709.32
482.674	713.97
482.882	766.48
483.091	770.74
483.299	730.25
483.508	734.12
483.716	733.93
483.925	706.42
484.134	714.36
484.342	730.25
484.551	777.91
484.759	770.36
484.967	773.46
485.176	787.4
485.384	798.64
485.593	801.16
485.801	751.56
486.01	746.91
486.218	709.32
486.426	677.36
486.635	656.24
486.843	669.41
487.051	719.21
487.26	689.76
487.468	712.42
487.676	762.22
487.885	738
488.093	749.82
488.301	804.26
488.509	813.37
488.717	830.22
488.926	808.33
489.134	787.79
489.342	810.65
489.55	758.73
489.758	826.15
489.967	826.35
490.175	924.19
490.383	832.35
490.591	909.85
490.799	832.94
491.007	914.5
491.215	880.6
491.423	855.41
491.631	864.32
491.839	848.24
492.047	901.91
492.255	855.02
492.463	826.15
492.671	838.55
492.879	909.85
493.087	870.72
493.295	864.9
493.503	917.99
493.711	927.48
493.919	961.78
494.127	961.97
494.334	934.85
494.542	923.8
494.75	946.86
494.958	901.91
495.166	1023.39
495.374	967.59
495.581	998.4
495.789	966.43
495.997	1010.8
496.205	953.64
496.412	985.8
496.62	972.82
496.828	966.23
497.035	972.82
497.243	1013.7
497.451	1014.48
497.658	989.87
497.866	982.12
498.074	1055.36
498.281	987.35
498.489	1082.48
498.696	993.55
498.904	980.57
499.112	977.08
499.319	1067.76
499.527	1013.51
499.734	1059.23
499.942	996.26
500.149	1027.85
500.357	1029.01
500.564	1002.08
500.771	1035.4
500.979	1037.92
501.186	999.17
501.394	1026.1
501.601	1035.79
501.808	1071.44
502.016	1027.65
502.223	1017.77
502.43	1057.49
502.638	1034.63
502.845	1005.56
503.052	1130.92
503.26	1081.13
503.467	1164.44
503.674	1113.87
503.881	1135.37
504.089	1181.29
504.296	1153.39
504.503	1075.7
504.71	1112.32
504.917	1094.49
505.125	1135.18
505.332	1152.42
505.539	1174.71
505.746	1233.41
505.953	1255.3
506.16	1183.81
506.367	1249.69
506.574	1260.73
506.781	1278.75
506.988	1203.38
507.195	1232.05
507.402	1251.24
507.609	1288.44
507.816	1231.28
508.023	1220.04
508.23	1252.59
508.437	1197.57
508.644	1272.16
508.851	1314.98
509.058	1328.93
509.265	1344.43
509.472	1358.38
509.679	1422.12
509.885	1331.83
510.092	1341.72
510.299	1371.36
510.506	1374.07
510.713	1389.18
510.92	1352.18
511.126	1421.93
511.333	1433.16
511.54	1448.86
511.746	1480.05
511.953	1474.63
512.16	1538.76
512.367	1485.86
512.573	1444.21
512.78	1470.56
512.987	1486.25
513.193	1490.71
513.4	1433.55
513.606	1497.1
513.813	1542.63
514.02	1517.25
514.226	1565.88
514.433	1548.83
514.639	1478.89
514.846	1535.08
515.052	1537.4
515.259	1556.97
515.465	1570.14
515.672	1594.17
515.878	1660.82
516.085	1651.13
516.291	1668.37
516.497	1607.92
516.704	1586.22
516.91	1564.14
517.117	1512.79
517.323	1476.56
517.529	1480.44
517.736	1521.13
517.942	1531.39
518.148	1566.46
518.354	1619.55
518.561	1603.27
518.767	1631.76
518.973	1679.22
519.179	1711
519.386	1677.48
519.592	1692.98
519.798	1724.75
520.004	1846.43
520.21	1796.83
520.417	1855.15
520.623	1896.22
520.829	1922.76
521.035	1892.93
521.241	1923.54
521.447	1962.87
521.653	2076.21
521.859	1950.08
522.065	1994.26
522.271	2099.85
522.477	2039.01
522.683	2074.86
522.889	2074.47
523.095	2051.02
523.301	2052.57
523.507	2042.31
523.713	2095
523.919	2025.26
524.125	2164.95
524.331	2135.89
524.537	2241.48
524.742	2202.73
524.948	2202.53
525.154	2254.46
525.36	2354.24
525.566	2262.98
525.772	2331.57
525.977	2259.5
526.183	2268.6
526.389	2299.8
526.595	2234.89
526.8	2227.53
527.006	2148.67
527.212	2107.4
527.417	2099.07
527.623	2142.67
527.829	2199.43
528.034	2260.47
528.24	2255.62
528.446	2286.23
528.651	2413.33
528.857	2393.57
529.062	2454.99
529.268	2419.14
529.473	2452.27
529.679	2481.14
529.884	2561.55
530.09	2507.3
530.295	2515.44
530.501	2565.62
530.706	2540.43
530.912	2459.25
531.117	2536.55
531.323	2559.61
531.528	2623.16
531.733	2623.16
531.939	2581.5
532.144	2654.35
532.35	2597.39
532.555	2641.95
532.76	2591.19
532.966	2620.83
533.171	2566.39
533.376	2518.54
533.581	2474.17
533.787	2532.49
533.992	2636.92
534.197	2617.54
534.402	2600.1
534.607	2659.2
534.813	2725.26
535.018	2645.05
535.223	2717.51
535.428	2716.55
535.633	2760.72
535.838	2830.28
536.043	2806.06
536.249	2872.9
536.454	2780.29
536.659	2791.91
536.864	2780.29
537.069	2725.46
537.274	2737.86
537.479	2778.35
537.684	2761.11
537.889	2737.66
538.094	2833.76
538.299	2799.28
538.504	2851.2
538.708	2817.29
538.913	2866.31
539.118	2846.16
539.323	2857.59
539.528	2789.01
539.733	2808.19
539.938	2800.05
540.142	2807.41
540.347	2790.17
540.552	2765.76
540.757	2776.41
540.962	2758.4
541.166	2704.73
541.371	2764.21
541.576	2757.81
541.781	2706.28
541.985	2834.34
542.19	2787.46
542.395	2909.32
542.599	2891.69
542.804	2874.06
543.008	2894.79
543.213	2874.06
543.418	2834.34
543.622	2913.78
543.827	2807.99
544.031	2856.24
544.236	2994.77
544.44	2909.32
544.645	2989.54
544.849	2914.36
545.054	2980.62
545.258	3022.67
545.463	3002.13
545.667	2873.68
545.872	2978.3
546.076	2950.79
546.281	2967.25
546.485	2926.96
546.689	2979.46
546.894	2972.29
547.098	2983.14
547.302	2948.07
547.507	2983.72
547.711	3000.77
547.915	3013.56
548.119	2909.52
548.324	2924.44
548.528	3015.11
548.732	2982.37
548.936	3007.36
549.141	3026.15
549.345	3001.16
549.549	3038.94
549.753	3046.89
549.957	3088.35
550.161	3081.18
550.366	3042.62
550.57	3014.34
550.774	3003.1
550.978	2989.54
551.182	3007.17
551.386	3007.94
551.59	3008.33
551.794	2975
551.998	3065.87
552.202	3006.59
552.406	3028.09
552.61	3105.4
552.814	3051.34
553.018	3097.07
553.222	3021.5
553.426	3003.29
553.63	3070.13
553.833	3055.41
554.037	2948.85
554.241	3014.34
554.445	3066.07
554.649	3008.72
554.853	3011.04
555.056	3063.35
555.26	3091.06
555.464	3046.3
555.668	3043.4
555.871	3107.72
556.075	3073.23
556.279	3016.47
556.483	2941.49
556.686	2981.01
556.89	3027.7
557.094	2983.53
557.297	2893.82
557.501	2976.17
557.704	2898.47
557.908	2987.02
558.112	2889.95
558.315	2994.96
558.519	2977.91
558.722	2883.56
558.926	2906.61
559.129	2792.3
559.333	2779.9
559.536	2797.53
559.74	2812.45
559.943	2809.93
560.147	2781.84
560.35	2787.46
560.553	2798.11
560.757	2738.44
560.96	2883.17
561.164	2852.17
561.367	2927.73
561.57	2823.69
561.774	2803.73
561.977	2804.12
562.18	2804.31
562.384	2911.65
562.587	2796.95
562.79	2784.36
562.993	2815.94
563.197	2789.2
563.4	2847.13
563.603	2847.91
563.806	2849.26
564.009	2775.25
564.212	2775.83
564.416	2670.63
564.619	2788.81
564.822	2720.61
565.025	2756.26
565.228	2744.06
565.431	2732.05
565.634	2665.59
565.837	2671.4
566.04	2625.29
566.243	2627.81
566.446	2524.74
566.649	2634.4
566.852	2593.9
567.055	2556.7
567.258	2586.15
567.461	2680.9
567.664	2666.17
567.867	2556.9
568.07	2598.94
568.273	2580.92
568.475	2611.34
568.678	2482.89
568.881	2516.6
569.084	2477.46
569.287	2362.96
569.489	2442.97
569.692	2447.04
569.895	2445.11
570.098	2383.69
570.3	2371.48
570.503	2345.13
570.706	2380.78
570.909	2359.08
571.111	2312.2
571.314	2276.16
571.516	2253.3
571.719	2311.81
571.922	2252.13
572.124	2219.58
572.327	2335.06
572.529	2231.98
572.732	2260.47
572.935	2283.13
573.137	2403.26
573.34	2241.09
573.542	2288.17
573.745	2269.57
573.947	2277.51
574.15	2252.52
574.352	2202.34
574.554	2281
574.757	2208.15
574.959	2174.05
575.162	2175.02
575.364	2134.14
575.566	2222.88
575.769	2139.18
575.971	2176.38
576.173	2060.52
576.376	2128.72
576.578	2166.69
576.78	2175.6
576.982	2059.74
577.185	2128.14
577.387	2082.99
577.589	2111.28
577.791	2108.18
577.993	2119.42
578.196	2079.51
578.398	2076.41
578.6	2095.39
578.802	2017.31
579.004	2020.99
579.206	2023.9
579.408	2035.72
579.61	2023.51
579.812	2057.81
580.014	2024.48
580.216	2014.6
580.418	2036.11
580.62	2001.23
580.822	1997.36
581.024	2064.39
581.226	2076.79
581.428	2048.12
581.63	2098.69
581.832	2029.91
582.034	2130.65
582.236	2060.71
582.438	2079.12
582.64	2126.78
582.841	2147.32
583.043	2179.87
583.245	2071.56
583.447	2081.83
583.649	2085.51
583.85	2100.24
584.052	2120
584.254	2020.02
584.456	2116.32
584.657	1996.97
584.859	2095.39
585.061	2067.88
585.262	2042.89
585.464	2022.16
585.666	2051.61
585.867	1996.19
586.069	2043.27
586.27	2024.09
586.472	1980.69
586.674	1958.99
586.875	1994.64
587.077	1960.16
587.278	2029.32
587.48	1965.97
587.681	2073.11
587.883	2012.47
588.084	1923.93
588.285	1912.11
588.487	1928.96
588.688	1915.59
588.89	1801.09
589.091	1789.08
589.292	1784.43
589.494	1763.31
589.695	1735.6
589.896	1642.41
590.098	1654.04
590.299	1708.09
590.5	1673.6
590.702	1709.84
590.903	1729.6
591.104	1805.35
591.305	1834.61
591.507	1805.16
591.708	1765.83
591.909	1790.43
592.11	1800.32
592.311	1806.9
592.512	1793.73
592.714	1709.25
592.915	1782.88
593.116	1746.45
593.317	1791.79
593.518	1803.22
593.719	1821.63
593.92	1843.71
594.121	1831.9
594.322	1820.85
594.523	1788.5
594.724	1739.67
594.925	1744.13
595.126	1773.77
595.327	1780.55
595.528	1766.02
595.729	1778.03
595.929	1770.28
596.13	1759.43
596.331	1783.07
596.532	1779.39
596.733	1822.21
596.934	1832.86
597.135	1817.17
597.335	1797.41
597.536	1749.36
597.737	1804.77
597.938	1759.24
598.138	1778.81
598.339	1760.6
598.54	1806.32
598.74	1780.36
598.941	1807.29
599.142	1822.6
599.342	1771.06
599.543	1776.87
599.744	1763.89
599.944	1787.53
600.145	1805.16
600.345	1794.5
600.546	1816.01
600.746	1822.21
600.947	1873.55
601.147	1787.33
601.348	1857.66
601.548	1780.94
601.749	1776.48
601.949	1725.53
602.15	1764.08
602.35	1756.53
602.551	1802.06
602.751	1742
602.951	1771.64
603.152	1698.6
603.352	1775.9
603.552	1770.28
603.753	1800.9
603.953	1766.22
604.153	1781.72
604.354	1779.78
604.554	1757.11
604.754	1782.3
604.954	1757.69
605.155	1833.06
605.355	1748.58
605.555	1796.25
605.755	1822.79
605.955	1784.23
606.155	1761.76
606.356	1755.95
606.556	1765.44
606.756	1753.82
606.956	1706.93
607.156	1813.68
607.356	1708.29
607.556	1739.29
607.756	1722.43
607.956	1772.03
608.156	1717.59
608.356	1704.02
608.556	1741.03
608.756	1730.95
608.956	1703.83
609.156	1699.18
609.356	1668.37
609.556	1624.59
609.755	1673.8
609.955	1656.55
610.155	1667.4
610.355	1678.84
610.555	1624.59
610.755	1696.08
610.954	1547.67
611.154	1639.12
611.354	1698.79
611.554	1637.96
611.753	1632.14
611.953	1610.44
612.153	1644.16
612.352	1592.62
612.552	1588.16
612.752	1561.23
612.951	1562.2
613.151	1581.77
613.351	1546.89
613.55	1598.24
613.75	1599.98
613.949	1563.94
614.149	1586.42
614.348	1544.96
614.548	1550.77
614.747	1518.41
614.947	1531.39
615.146	1482.76
615.346	1565.11
615.545	1560.84
615.745	1560.65
615.944	1542.44
616.144	1521.51
616.343	1528.1
616.542	1512.21
616.742	1463.78
616.941	1480.63
617.14	1445.95
617.34	1480.24
617.539	1473.27
617.738	1468.43
617.938	1530.43
618.137	1487.03
618.336	1458.74
618.535	1505.82
618.734	1490.51
618.934	1512.99
619.133	1469.78
619.332	1492.84
619.531	1435.68
619.73	1492.64
619.929	1488.19
620.128	1506.01
620.328	1546.12
620.527	1482.57
620.726	1477.73
620.925	1514.93
621.124	1482.76
621.323	1463.2
621.522	1440.14
621.721	1427.93
621.92	1400.23
622.119	1458.35
622.318	1436.07
622.517	1417.08
622.715	1413.01
622.914	1380.27
623.113	1397.9
623.312	1356.05
623.511	1429.68
623.71	1403.71
623.909	1389.57
624.107	1431.61
624.306	1371.94
624.505	1365.55
624.704	1371.17
624.902	1365.55
625.101	1401.39
625.3	1384.53
625.499	1315.56
625.697	1348.11
625.896	1342.49
626.095	1326.02
626.293	1303.93
626.492	1329.32
626.69	1327.38
626.889	1327.57
627.088	1364.58
627.286	1345.98
627.485	1314.01
627.683	1302.19
627.882	1323.31
628.08	1258.79
628.279	1259.76
628.477	1313.82
628.676	1251.04
628.874	1292.12
629.073	1230.89
629.271	1213.65
629.469	1276.04
629.668	1263.64
629.866	1268.87
630.065	1237.29
630.263	1315.95
630.461	1251.82
630.66	1268.09
630.858	1300.25
631.056	1345.4
631.254	1334.35
631.453	1233.99
631.651	1288.63
631.849	1299.09
632.047	1271.19
632.245	1302.39
632.444	1322.92
632.642	1275.26
632.84	1316.33
633.038	1278.55
633.236	1259.37
633.434	1259.18
633.632	1268.29
633.83	1271.77
634.028	1309.75
634.227	1283.4
634.425	1347.92
634.623	1276.23
634.821	1307.62
635.019	1303.93
635.216	1261.7
635.414	1283.79
635.612	1309.94
635.81	1305.29
636.008	1309.36
636.206	1295.22
636.404	1289.79
636.602	1252.4
636.8	1242.32
636.997	1302
637.195	1252.98
637.393	1296.96
637.591	1369.62
637.789	1292.7
637.986	1279.91
638.184	1281.27
638.382	1326.02
638.58	1318.85
638.777	1370.58
638.975	1264.41
639.173	1276.42
639.37	1280.3
639.568	1244.26
639.765	1278.75
639.963	1229.15
640.161	1283.4
640.358	1283.59
640.556	1221.98
640.753	1203.38
640.951	1196.41
641.148	1264.8
641.346	1194.27
641.543	1224.5
641.741	1204.93
641.938	1171.41
642.136	1209.77
642.333	1177.42
642.531	1244.07
642.728	1211.91
642.925	1180.71
643.123	1205.9
643.32	1201.83
643.517	1172.57
643.715	1159.59
643.912	1159.59
644.109	1166.18
644.306	1182.07
644.504	1120.84
644.701	1155.14
644.898	1161.72
645.095	1134.99
645.293	1155.33
645.49	1186.91
645.687	1140.02
645.884	1165.6
646.081	1071.05
646.278	1089.07
646.475	1085.58
646.672	1120.07
646.87	1076.09
647.067	1067.95
647.264	1088.1
647.461	1045.09
647.658	1030.17
647.855	1053.81
648.052	1007.89
648.249	976.31
648.446	1024.55
648.642	1024.75
648.839	1012.73
649.036	980.76
649.233	949.38
649.43	980.38
649.627	939.3
649.824	991.03
650.021	964.68
650.217	952.87
650.414	957.71
650.611	1004.79
650.808	1007.89
651.004	989.29
651.201	1033.08
651.398	1047.8
651.595	1012.93
651.791	972.05
651.988	1025.71
652.185	938.53
652.381	996.85
652.578	931.75
652.775	969.53
652.971	985.41
653.168	989.48
653.364	1010.8
653.561	926.52
653.757	973.4
653.954	989.1
654.15	956.35
654.347	1052.84
654.543	976.7
654.74	942.6
654.936	909.85
655.133	948.8
655.329	959.06
655.525	958.1
655.722	958.87
655.918	910.43
656.115	958.68
656.311	823.64
656.507	826.74
656.704	771.71
656.9	817.63
657.096	818.6
657.292	811.04
657.489	905.78
657.685	877.69
657.881	877.5
658.077	856.77
658.273	905.4
658.47	959.65
658.666	918.57
658.862	925.93
659.058	900.94
659.254	939.11
659.45	915.86
659.646	906.37
659.842	884.28
660.038	962.36
660.234	880.4
660.43	894.74
660.626	951.12
660.822	958.1
661.018	957.9
661.214	895.13
661.41	847.66
661.606	948.99
661.802	921.48
661.998	903.65
662.194	871.88
662.39	916.83
662.586	925.74
662.781	903.85
662.977	915.28
663.173	909.27
663.369	885.44
663.564	891.45
663.76	876.33
663.956	867.03
664.152	907.53
664.347	854.64
664.543	883.7
664.739	859.67
664.934	832.16
665.13	806
665.326	907.33
665.521	881.18
665.717	826.35
665.912	852.7
666.108	763.19
666.304	830.03
666.499	822.47
666.695	784.11
666.89	825.57
667.086	855.6
667.281	876.72
667.477	876.14
667.672	875.75
667.867	839.33
668.063	838.75
668.258	788.18
668.454	828.48
668.649	884.08
668.844	838.75
669.04	856.38
669.235	803.1
669.43	800.19
669.626	759.31
669.821	780.82
670.016	759.51
670.211	800.77
670.407	762.22
670.602	812.59
670.797	769.77
670.992	832.16
671.187	749.82
671.382	820.73
671.578	772.87
671.773	794.38
671.968	753.5
672.163	761.06
672.358	829.64
672.553	763.19
672.748	779.85
672.943	862.39
673.138	778.88
673.333	824.02
673.528	749.62
673.723	789.34
673.918	807.17
674.113	784.3
674.308	869.75
674.503	813.17
674.698	817.44
674.892	776.75
675.087	803.87
675.282	816.47
675.477	742.26
675.672	770.36
675.867	772.49
676.061	741.49
676.256	751.37
676.451	750.59
676.646	774.42
676.84	762.8
677.035	725.79
677.23	752.53
677.424	769.97
677.619	800
677.814	827.12
678.008	808.52
678.203	715.33
678.397	764.54
678.592	745.17
678.787	826.54
678.981	767.26
679.176	785.27
679.37	766.29
679.565	728.12
679.759	750.01
679.954	810.65
680.148	859.48
680.342	841.46
680.537	819.76
680.731	793.22
680.926	791.47
681.12	831.19
681.314	780.24
681.509	802.9
681.703	757.57
681.897	795.54
682.092	790.12
682.286	794.38
682.48	865.29
682.674	846.3
682.869	807.17
683.063	810.85
683.257	867.81
683.451	816.85
683.645	827.7
683.839	829.45
684.034	820.92
684.228	828.09
684.422	760.86
684.616	750.01
684.81	823.05
685.004	808.52
685.198	799.22
685.392	851.34
685.586	804.45
685.78	833.13
685.974	833.32
686.168	847.85
686.362	883.7
686.556	755.82
686.75	748.46
686.944	755.44
687.138	735.67
687.331	632.02
687.525	688.59
687.719	603.93
687.913	654.49
688.107	668.64
688.301	647.13
688.494	706.22
688.688	656.63
688.882	663.99
689.076	678.33
689.269	693.05
689.463	804.26
689.657	705.06
689.85	694.02
690.044	737.81
690.238	742.46
690.431	753.11
690.625	750.59
690.818	796.51
691.012	824.99
691.205	837.59
691.399	803.49
691.593	830.8
691.786	900.55
691.98	918.96
692.173	948.41
692.366	936.59
692.56	1004.01
692.753	1006.73
692.947	942.6
693.14	997.43
693.333	1016.22
693.527	995.3
693.72	1009.25
693.914	1029.78
694.107	1005.56
694.3	1049.74
694.493	1030.36
694.687	1125.3
694.88	1062.33
695.073	1147.77
695.266	1143.9
695.46	1153.97
695.653	1184.78
695.846	1200.28
696.039	1160.56
696.232	1201.06
696.425	1250.46
696.618	1268.48
696.812	1316.33
697.005	1356.63
697.198	1435.68
697.391	1397.9
697.584	1439.95
697.777	1472.3
697.97	1458.55
698.163	1475.01
698.356	1484.51
698.549	1555.03
698.742	1513.96
698.935	1473.85
699.127	1531.78
699.32	1482.76
699.513	1502.91
699.706	1573.63
699.899	1581.38
700.092	1571.31
700.285	1590.49
700.477	1552.9
700.67	1637.96
700.863	1615.48
701.056	1708.87
701.248	1675.74
701.441	1717.78
701.634	1667.4
701.826	1792.76
702.019	1702.67
702.212	1808.07
702.404	1710.03
702.597	1721.65
702.79	1763.7
702.982	1798.38
703.175	1856.89
703.367	1852.82
703.56	1931.29
703.752	1969.46
703.945	1953.96
704.137	1982.83
704.33	2013.82
704.522	2049.47
704.715	2025.06
704.907	2093.07
705.1	2153.32
705.292	2158.36
705.484	2106.44
705.677	2141.12
705.869	2162.04
706.061	2216.68
706.254	2264.34
706.446	2216.68
706.638	2261.43
706.831	2298.05
707.023	2316.07
707.215	2379.81
707.407	2384.46
707.599	2357.73
707.792	2434.45
707.984	2460.22
708.176	2434.06
708.368	2419.73
708.56	2454.79
708.752	2512.14
708.944	2465.06
709.136	2522.99
709.329	2478.24
709.521	2634.4
709.713	2587.32
709.905	2605.92
710.097	2670.24
710.289	2632.27
710.481	2641.37
710.672	2672.76
710.864	2689.23
711.056	2740.18
711.248	2755.49
711.44	2748.13
711.632	2765.37
711.824	2826.4
712.016	2832.41
712.207	2842.68
712.399	2816.13
712.591	2909.91
712.783	2893.24
712.975	2893.05
713.166	2869.99
713.358	2914.56
713.55	2964.74
713.741	2917.66
713.933	2983.53
714.125	2967.45
714.316	2974.42
714.508	3024.99
714.7	2999.61
714.891	2986.82
715.083	3004.07
715.274	3036.62
715.466	3048.44
715.657	3043.59
715.849	2988.18
716.04	3001.35
716.232	2979.07
716.423	2974.42
716.615	2872.9
716.806	2825.43
716.998	2704.73
717.189	2669.85
717.381	2561.55
717.572	2509.24
717.763	2502.26
717.955	2461.19
718.146	2429.03
718.337	2332.54
718.528	2297.86
718.72	2268.6
718.911	2244.19
719.102	2203.12
719.293	2305.03
719.485	2265.31
719.676	2229.47
719.867	2223.27
720.058	2196.14
720.249	2156.81
720.44	2241.28
720.632	2274.22
720.823	2349.01
721.014	2505.94
721.205	2599.52
721.396	2653.77
721.587	2710.73
721.778	2811.68
721.969	2829.89
722.16	2926.96
722.351	2965.7
722.542	3086.22
722.733	3055.41
722.924	2992.44
723.115	3024.22
723.305	3006.97
723.496	3036.62
723.687	2840.35
723.878	2909.13
724.069	2829.69
724.26	2892.66
724.45	2820.2
724.641	2783.39
724.832	2792.3
725.023	2752.2
725.213	2766.92
725.404	2780.29
725.595	2753.94
725.785	2716.74
725.976	2799.66
726.167	2767.89
726.357	2759.95
726.548	2920.95
726.739	2821.75
726.929	2908.55
727.12	2907.97
727.31	2899.44
727.501	2840.16
727.691	2855.27
727.882	2848.1
728.072	2912.42
728.263	2952.92
728.453	2996.32
728.644	3028.67
728.834	2937.22
729.024	2927.34
729.215	2954.27
729.405	3012.4
729.596	3033.52
729.786	3071.3
729.976	3086.8
730.167	3055.6
730.357	3063.35
730.547	3055.8
730.737	3104.43
730.928	3130.39
731.118	3138.33
731.308	3117.8
731.498	3103.07
731.688	3222.81
731.879	3276.48
732.069	3307.67
732.259	3386.72
732.449	3397.76
732.639	3493.28
732.829	3520.21
733.019	3530.09
733.209	3625.22
733.399	3646.92
733.589	3717.44
733.779	3752.71
733.969	3784.09
734.159	3904.6
734.349	3918.17
734.539	3926.11
734.729	3994.89
734.919	3975.9
735.109	3989.85
735.299	3941.8
735.488	3975.71
735.678	4008.65
735.868	3939.87
736.058	3933.08
736.248	3942.19
736.437	3922.04
736.627	3882.52
736.817	3990.63
737.007	3917.2
737.196	4050.5
737.386	4002.06
737.576	3977.84
737.765	4069.1
737.955	4034.03
738.144	4161.51
738.334	4094.09
738.524	4039.45
738.713	4117.53
738.903	4056.89
739.092	4125.86
739.282	4132.64
739.471	4180.5
739.661	4125.28
739.85	4200.46
740.04	4162.29
740.229	4254.9
740.419	4277.57
740.608	4248.31
740.797	4244.24
740.987	4346.74
741.176	4272.14
741.365	4296.94
741.555	4171.78
741.744	4331.43
741.933	4245.6
742.123	4283.38
742.312	4289.39
742.501	4409.7
742.69	4317.29
742.88	4284.15
743.069	4402.53
743.258	4345.57
743.447	4434.7
743.636	4404.47
743.825	4414.74
744.014	4360.3
744.204	4465.7
744.393	4358.94
744.582	4442.83
744.771	4444.38
744.96	4393.82
745.149	4416.68
745.338	4389.17
745.527	4457.95
745.716	4432.57
745.905	4450.97
746.094	4478.29
746.283	4480.42
746.471	4428.3
746.66	4512.39
746.849	4460.08
747.038	4509.29
747.227	4408.93
747.416	4483.91
747.604	4448.07
747.793	4418.42
747.982	4462.01
748.171	4482.75
748.359	4465.31
748.548	4445.93
748.737	4465.31
748.926	4418.03
749.114	4333.17
749.303	4488.75
749.491	4437.6
749.68	4348.09
749.869	4468.8
750.057	4377.54
750.246	4388
750.434	4362.04
750.623	4341.12
750.811	4390.91
751	4397.69
751.188	4372.7
751.377	4340.15
751.565	4366.69
751.754	4353.32
751.942	4333.37
752.131	4398.85
752.319	4283.38
752.507	4346.35
752.696	4358.55
752.884	4373.86
753.072	4294.04
753.261	4323.49
753.449	4309.34
753.637	4282.6
753.825	4383.35
754.014	4349.64
754.202	4299.85
754.39	4357.2
754.578	4319.03
754.766	4278.54
754.955	4266.72
755.143	4366.5
755.331	4267.49
755.519	4305.66
755.707	4237.85
755.895	4188.64
756.083	4270.98
756.271	4169.65
756.459	4174.88
756.647	4271.37
756.835	4209.17
757.023	4189.22
757.211	4190.57
757.399	4208.21
757.587	4161.32
757.775	4106.68
757.963	4164.81
758.151	4138.65
758.339	4079.17
758.526	4117.53
758.714	4108.43
758.902	3966.99
759.09	3856.36
759.278	3612.24
759.465	3340.22
759.653	2924.05
759.841	2613.09
760.028	2226.56
760.216	1940.98
760.404	1824.15
760.591	1525.58
760.779	1247.94
760.967	1076.67
761.154	897.65
761.342	926.52
761.529	901.33
761.717	944.15
761.905	946.67
762.092	1029.01
762.28	941.63
762.467	949.18
762.655	879.05
762.842	886.02
763.029	865.29
763.217	911.21
763.404	911.79
763.592	882.73
763.779	887.18
763.966	950.93
764.154	960.42
764.341	1029.78
764.528	1043.73
764.716	1125.49
764.903	1180.32
765.09	1240.97
765.277	1329.9
765.465	1527.13
765.652	1583.32
765.839	1664.89
766.026	1832.28
766.213	1927.03
766.4	1990.19
766.588	2227.33
766.775	2236.44
766.962	2398.22
767.149	2493.93
767.336	2684
767.523	2676.05
767.71	2835.12
767.897	2957.18
768.084	3023.05
768.271	3127.87
768.458	3206.34
768.645	3252.64
768.832	3217.19
769.019	3322.01
769.206	3339.64
769.392	3423.92
769.579	3529.12
769.766	3472.35
769.953	3502.19
770.14	3543.27
770.327	3532.61
770.513	3623.09
770.7	3658.74
770.887	3602.94
771.073	3674.43
771.26	3632.97
771.447	3614.76
771.634	3609.72
771.82	3730.81
772.007	3615.53
772.193	3688.58
772.38	3704.85
772.567	3605.07
772.753	3679.66
772.94	3718.8
773.126	3728.1
773.313	3672.69
773.499	3695.16
773.686	3701.75
773.872	3603.33
774.059	3720.54
774.245	3623.86
774.432	3625.41
774.618	3552.76
774.804	3657.77
774.991	3584.73
775.177	3609.14
775.363	3604.49
775.55	3637.43
775.736	3576.01
775.922	3647.11
776.109	3600.42
776.295	3607.98
776.481	3616.31
776.667	3603.13
776.853	3566.32
777.04	3559.35
777.226	3525.83
777.412	3612.43
777.598	3572.13
777.784	3525.25
777.97	3514.01
778.156	3535.9
778.342	3518.27
778.528	3505.48
778.715	3421.4
778.901	3465.77
779.087	3487.27
779.272	3483.59
779.458	3408.42
779.644	3467.12
779.83	3460.34
780.016	3505.87
780.202	3483.98
780.388	3461.12
780.574	3356.11
780.76	3416.75
780.946	3444.84
781.131	3383.04
781.317	3382.07
781.503	3374.12
781.689	3400.47
781.874	3475.07
782.06	3333.05
782.246	3382.84
782.432	3367.92
782.617	3334.99
782.803	3416.94
782.989	3325.49
783.174	3351.26
783.36	3269.31
783.545	3318.71
783.731	3279.96
783.916	3200.91
784.102	3257.68
784.288	3297.21
784.473	3304.76
784.659	3246.44
784.844	3311.54
785.029	3255.16
785.215	3256.52
785.4	3167.01
785.586	3296.82
785.771	3150.15
785.956	3216.03
786.142	3185.03
786.327	3185.61
786.512	3181.73
786.698	3173.01
786.883	3115.28
787.068	3146.86
787.254	3192
787.439	3080.02
787.624	3115.86
787.809	3054.83
787.994	3044.17
788.18	3153.06
788.365	3018.99
788.55	3055.99
788.735	3078.08
788.92	3017.24
789.105	3016.47
789.29	3035.07
789.475	2966.48
789.66	2958.54
789.845	2947.69
790.03	2898.47
790.215	2948.07
790.4	2964.74
790.585	2952.72
790.77	2930.06
790.955	2871.74
791.14	2919.59
791.325	2998.64
791.51	2849.84
791.695	2928.89
791.879	2936.26
792.064	2855.85
792.249	2968.8
792.434	2897.31
792.618	2918.62
792.803	2930.25
792.988	2912.81
793.173	2890.92
793.357	2918.04
793.542	2904.48
793.727	2909.32
793.911	2937.61
794.096	2922.89
794.281	2972.29
794.465	3011.82
794.65	2912.23
794.834	2947.3
795.019	3006.78
795.203	3010.46
795.388	3014.92
795.572	3040.69
795.757	2963.38
795.941	2966.87
796.126	2914.75
796.31	2867.67
796.494	2944.2
796.679	2918.82
796.863	2876
797.048	2967.25
797.232	2920.17
797.416	2935.67
797.601	2943.42
797.785	2974.81
797.969	2996.51
798.153	2928.31
798.338	3012.79
798.522	3049.99
798.706	3020.15
798.89	2980.24
799.074	3071.88
799.258	3090.67
799.443	2951.17
799.627	3011.24
799.811	3027.9
799.995	2971.52
800.179	2955.63
800.363	2928.51
800.547	2972.87
800.731	3025.19
800.915	2908.94
801.099	2953.89
801.283	2960.47
801.467	2942.84
801.651	2961.25
801.835	3006.78
802.019	2996.32
802.202	2928.12
802.386	2900.61
802.57	2905.26
802.754	2889.37
802.938	2857.98
803.121	2875.61
803.305	3002.52
803.489	2938.19
803.673	2959.31
803.856	2924.63
804.04	2915.52
804.224	2965.51
804.407	2929.86
804.591	2912.04
804.775	2955.05
804.958	2950.01
805.142	3051.73
805.326	2950.59
805.509	2965.51
805.693	3029.25
805.876	3001.55
806.06	2957.57
806.243	2984.11
806.427	3060.64
806.61	3018.4
806.794	2976.55
806.977	3036.23
807.16	2993.02
807.344	3007.55
807.527	2933.16
807.71	2969.97
807.894	3009.88
808.077	2989.54
808.26	2972.68
808.444	2888.79
808.627	2988.57
808.81	2897.12
808.993	2839.38
809.177	2845
809.36	2862.44
809.543	2880.84
809.726	2801.41
809.909	2789.59
810.092	2769.83
810.276	2766.73
810.459	2767.11
810.642	2754.52
810.825	2716.74
811.008	2719.26
811.191	2631.1
811.374	2658.03
811.557	2662.3
811.74	2719.84
811.923	2609.99
812.106	2593.13
812.289	2522.8
812.472	2576.85
812.654	2543.53
812.837	2503.04
813.02	2431.93
813.203	2419.92
813.386	2318.4
813.569	2317.81
813.751	2210.28
813.934	2254.27
814.117	2166.89
814.3	2156.81
814.482	2139.57
814.665	2090.16
814.848	2014.41
815.03	1986.31
815.213	1971.59
815.396	1974.3
815.578	1927.61
815.761	1861.35
815.943	1926.06
816.126	1848.75
816.309	1797.6
816.491	1760.79
816.674	1703.25
816.856	1769.12
817.039	1731.15
817.221	1840.42
817.403	1766.99
817.586	1794.89
817.768	1769.9
817.951	1686.78
818.133	1713.13
818.315	1716.42
818.498	1797.8
818.68	1835
818.862	1796.44
819.045	1827.44
819.227	1787.72
819.409	1797.99
819.591	1802.25
819.774	1793.73
819.956	1807.68
820.138	1856.5
820.32	1825.12
820.502	1911.91
820.684	1971.98
820.866	1993.68
821.048	2063.81
821.231	2055.09
821.413	2062.65
821.595	2047.54
821.777	2037.66
821.959	2048.51
822.141	2112.44
822.323	1980.31
822.505	1872
822.686	1831.31
822.868	1749.17
823.05	1620.13
823.232	1572.66
823.414	1505.63
823.596	1572.27
823.778	1576.73
823.96	1585.84
824.141	1633.89
824.323	1657.91
824.505	1775.32
824.687	1757.88
824.868	1861.73
825.05	1950.08
825.232	1993.29
825.413	2056.64
825.595	1994.64
825.777	1914.82
825.958	2013.44
826.14	2015.37
826.321	2028.74
826.503	2041.72
826.685	2035.52
826.866	2041.72
827.048	2002.78
827.229	1958.03
827.411	1923.54
827.592	1855.73
827.773	1875.88
827.955	1824.15
828.136	1810.58
828.318	1773.58
828.499	1818.72
828.68	1767.57
828.862	1792.76
829.043	1800.51
829.224	1781.33
829.406	1749.75
829.587	1749.75
829.768	1775.13
829.949	1824.73
830.131	1788.69
830.312	1869.48
830.493	1827.63
830.674	1803.61
830.855	1771.25
831.036	1781.33
831.218	1834.61
831.399	1889.25
831.58	1820.08
831.761	1836.16
831.942	1839.06
832.123	1814.27
832.304	1742.77
832.485	1776.1
832.666	1797.8
832.847	1822.4
833.028	1787.72
833.209	1774.74
833.389	1788.88
833.57	1727.27
833.751	1778.81
833.932	1825.5
834.113	1798.38
834.294	1772.03
834.475	1816.2
834.655	1861.15
834.836	1872.78
835.017	1865.8
835.198	1794.7
835.378	1825.89
835.559	1893.12
835.74	1814.07
835.92	1837.13
836.101	1810.97
836.281	1853.21
836.462	1862.7
836.643	1885.18
836.823	1923.54
837.004	1890.02
837.184	1939.04
837.365	1883.63
837.545	1909.78
837.726	1865.8
837.906	1951.05
838.087	1916.18
838.267	1852.24
838.448	1843.91
838.628	1889.63
838.808	1915.21
838.989	1920.63
839.169	1834.03
839.349	1895.45
839.53	1940.59
839.71	1952.79
839.89	1883.43
840.07	1978.37
840.251	1860.57
840.431	1897
840.611	1887.11
840.791	1895.64
840.971	1896.8
841.151	1845.85
841.332	1836.93
841.512	1940.01
841.692	1801.28
841.872	1911.33
842.052	1883.24
842.232	1915.59
842.412	1845.26
842.592	1889.83
842.772	1892.54
842.952	1926.06
843.132	1868.9
843.312	1852.43
843.492	1851.46
843.672	1909.59
843.851	1820.66
844.031	1830.93
844.211	1859.41
844.391	1828.02
844.571	1889.83
844.751	1842.55
844.93	1859.99
845.11	1822.4
845.29	1827.05
845.47	1872
845.649	1841.58
845.829	1881.88
846.009	1846.81
846.188	1864.06
846.368	1864.25
846.547	1847.4
846.727	1882.08
846.907	1794.12
847.086	1848.95
847.266	1872
847.445	1818.14
847.625	1799.73
847.804	1799.73
847.984	1822.6
848.163	1773.19
848.343	1779.58
848.522	1809.42
848.701	1808.45
848.881	1777.84
849.06	1791.21
849.239	1776.1
849.419	1760.6
849.598	1748
849.777	1698.02
849.957	1698.21
850.136	1623.81
850.315	1619.36
850.494	1635.63
850.674	1628.27
850.853	1716.81
851.032	1665.66
851.211	1713.32
851.39	1659.07
851.569	1616.45
851.748	1633.69
851.927	1691.04
852.107	1644.93
852.286	1613.35
852.465	1591.26
852.644	1697.82
852.823	1675.93
853.002	1644.74
853.181	1644.93
853.359	1647.64
853.538	1591.46
853.717	1639.51
853.896	1546.31
854.075	1490.71
854.254	1457.19
854.433	1374.07
854.611	1420.18
854.79	1376.01
854.969	1439.17
855.148	1481.02
855.327	1425.8
855.505	1509.89
855.684	1461.65
855.863	1502.33
856.041	1487.61
856.22	1509.69
856.399	1498.84
856.577	1617.42
856.756	1576.34
856.934	1672.64
857.113	1680.97
857.291	1581.19
857.47	1559.68
857.648	1595.52
857.827	1612.77
858.005	1631.17
858.184	1537.59
858.362	1647.26
858.541	1593.97
858.719	1562.39
858.898	1566.85
859.076	1556.78
859.254	1615.09
859.433	1569.76
859.611	1531.2
859.789	1546.12
859.967	1622.07
860.146	1623.81
860.324	1510.66
860.502	1529.26
860.68	1487.41
860.859	1547.67
861.037	1516.09
861.215	1569.37
861.393	1519.77
861.571	1515.12
861.749	1508.53
861.927	1537.21
862.105	1536.04
862.283	1500.98
862.461	1486.25
862.639	1482.76
862.817	1474.43
862.995	1514.15
863.173	1494.39
863.351	1504.66
863.529	1523.84
863.707	1514.93
863.885	1506.01
864.063	1403.71
864.241	1446.92
864.418	1531.39
864.596	1441.69
864.774	1446.92
864.952	1455.25
865.129	1493.81
865.307	1418.05
865.485	1365.55
865.663	1421.15
865.84	1394.41
866.018	1407.59
866.196	1276.04
866.373	1291.92
866.551	1259.76
866.728	1215.97
866.906	1227.79
867.084	1283.98
867.261	1303.35
867.439	1329.7
867.616	1349.47
867.794	1329.51
867.971	1346.37
868.149	1333.38
868.326	1384.92
868.503	1361.87
868.681	1346.75
868.858	1348.5
869.035	1328.73
869.213	1388.41
869.39	1338.03
869.567	1427.55
869.745	1308.78
869.922	1376.01
870.099	1372.52
870.276	1419.02
870.454	1347.72
870.631	1368.07
870.808	1388.41
870.985	1377.95
871.162	1381.05
871.339	1360.7
871.517	1288.24
871.694	1309.36
871.871	1340.94
872.048	1332.22
872.225	1314.59
872.402	1318.08
872.579	1272.55
872.756	1329.32
872.933	1271.39
873.11	1319.82
873.287	1323.12
873.463	1277.39
873.64	1264.41
873.817	1311.88
873.994	1282.43
874.171	1226.05
874.348	1254.53
874.524	1247.75
874.701	1279.33
874.878	1200.67
875.055	1262.09
875.231	1250.07
875.408	1264.41
875.585	1230.12
875.762	1240.97
875.938	1239.22
876.115	1206.29
876.291	1230.5
876.468	1220.82
876.645	1188.27
876.821	1203.96
876.998	1214.23
877.174	1225.47
877.351	1196.6
877.527	1175.09
877.704	1223.92
877.88	1231.67
878.057	1171.61
878.233	1221.59
878.409	1200.47
878.586	1208.22
878.762	1191.37
878.938	1180.13
879.115	1115.61
879.291	1220.24
879.467	1126.85
879.644	1193.89
879.82	1184.78
879.996	1188.07
880.172	1080.93
880.349	1150.87
880.525	1152.81
880.701	1102.05
880.877	1095.66
881.053	1141.38
881.229	1122.39
881.405	1199.89
881.581	1106.12
881.757	1156.69
881.933	1158.04
882.109	1177.42
882.285	1123.36
882.461	1090.43
882.637	1131.69
882.813	1091.98
882.989	1140.61
883.165	1160.95
883.341	1099.34
883.517	1157.27
883.693	1145.84
883.869	1142.93
884.044	1116
884.22	1170.64
884.396	1176.26
884.572	1156.69
884.747	1161.72
884.923	1167.54
885.099	1168.7
885.275	1182.07
885.45	1115.81
885.626	1131.5
885.801	1086.74
885.977	1113.09
886.153	1066.21
886.328	1134.99
886.504	1097.59
886.679	1118.13
886.855	1093.14
887.03	1109.03
887.206	1145.64
887.381	1112.71
887.557	1135.18
887.732	1140.8
887.908	1157.07
888.083	1142.93
888.258	1100.31
888.434	1076.28
888.609	1134.02
888.784	1158.62
888.96	1112.32
889.135	1103.6
889.31	1090.04
889.485	1113.09
889.661	1126.66
889.836	1176.64
890.011	1117.55
890.186	1108.25
890.361	1074.73
890.537	1130.14
890.712	1103.02
890.887	1123.75
891.062	1099.92
891.237	1156.3
891.412	1057.49
891.587	1124.53
891.762	1124.14
891.937	1144.09
892.112	1071.44
892.287	1066.4
892.462	1057.68
892.637	1050.9
892.812	1041.41
892.987	1029.2
893.161	998.4
893.336	970.88
893.511	1022.23
893.686	1020.68
893.861	985.03
894.035	1011.38
894.21	999.56
894.385	943.57
894.56	994.71
894.734	909.85
894.909	874.78
895.084	936.98
895.258	894.16
895.433	932.33
895.608	863.94
895.782	834.29
895.957	841.46
896.131	812.4
896.306	766.67
896.48	788.76
896.655	766.09
896.829	729.28
897.004	688.98
897.178	713.59
897.353	701.57
897.527	750.59
897.701	734.32
897.876	707.39
898.05	785.08
898.224	739.16
898.399	762.41
898.573	729.67
898.747	603.35
898.921	665.15
899.096	576.61
899.27	562.66
899.444	595.6
899.618	607.22
899.792	642.09
899.967	634.15
900.141	675.81
900.315	620.2
900.489	607.99
900.663	624.66
900.837	622.33
901.011	598.31
901.185	673.48
901.359	616.33
901.533	652.56
901.707	634.54
901.881	619.04
902.055	600.63
902.229	606.25
902.403	672.9
902.576	586.68
902.75	641.13
902.924	738.77
903.098	697.7
903.272	736.64
903.446	775.97
903.619	751.95
903.793	796.32
903.967	776.75
904.14	849.4
904.314	816.08
904.488	813.95
904.661	844.75
904.835	832.94
905.009	875.95
905.182	873.43
905.356	843.01
905.529	811.43
905.703	756.99
905.876	752.72
906.05	758.15
906.223	727.15
906.397	642.68
906.57	658.18
906.744	652.36
906.917	627.76
907.09	643.26
907.264	606.64
907.437	573.31
907.61	522.94
907.784	608.58
907.957	593.27
908.13	558.2
908.304	583.78
908.477	568.66
908.65	574.67
908.823	521
908.996	576.41
909.17	531.08
909.343	548.71
909.516	558.01
909.689	529.91
909.862	504.53
910.035	531.08
910.208	521.78
910.381	527.2
910.554	591.14
910.727	564.98
910.9	547.16
911.073	533.4
911.246	623.88
911.419	620.78
911.592	588.04
911.765	510.73
911.938	514.42
912.11	547.74
912.283	535.92
912.456	574.67
912.629	564.01
912.802	526.81
912.974	473.53
913.147	442.92
913.32	430.52
913.493	434.98
913.665	462.88
913.838	443.31
914.01	454.74
914.183	486.71
914.356	488.07
914.528	517.71
914.701	539.41
914.873	500.08
915.046	452.42
915.218	417.15
915.391	396.62
915.563	362.9
915.736	435.17
915.908	487.68
916.081	458.62
916.253	462.3
916.425	488.84
916.598	481.67
916.77	471.02
916.942	438.66
917.115	376.66
917.287	413.47
917.459	393.32
917.632	400.49
917.804	356.7
917.976	433.62
918.148	425.49
918.32	461.91
918.493	469.08
918.665	533.01
918.837	478.96
919.009	532.05
919.181	515.97
919.353	490.39
919.525	492.91
919.697	506.67
919.869	489.23
920.041	568.28
920.213	579.51
920.385	547.55
920.557	508.02
920.729	542.51
920.901	517.9
921.073	492.52
921.244	519.45
921.416	550.65
921.588	494.07
921.76	525.26
921.932	602.57
922.103	492.91
922.275	505.31
922.447	504.53
922.619	470.63
922.79	516.55
922.962	468.3
923.134	519.26
923.305	428
923.477	412.89
923.648	443.5
923.82	441.37
923.991	395.45
924.163	415.8
924.335	443.7
924.506	421.22
924.677	456.87
924.849	403.98
925.02	430.13
925.192	459.2
925.363	445.83
925.535	440.4
925.706	433.43
925.877	481.87
926.049	429.75
926.22	419.87
926.391	435.95
926.562	438.47
926.734	404.95
926.905	442.15
927.076	378.99
927.247	392.74
927.419	375.5
927.59	343.34
927.761	354.77
927.932	340.62
928.103	331.52
928.274	312.34
928.445	287.73
928.616	279.79
928.787	264.09
928.958	348.18
929.129	309.82
929.3	279.79
929.471	249.95
929.642	206.74
929.813	170.51
929.984	231.93
930.155	182.91
930.326	220.5
930.496	170.13
930.667	151.33
930.838	164.31
931.009	115.1
931.18	171.09
931.35	155.21
931.521	107.55
931.692	102.9
931.863	73.25
932.033	131.38
932.204	114.71
932.374	137.96
932.545	74.42
932.716	126.15
932.886	108.9
933.057	48.84
933.227	77.13
933.398	129.63
933.568	49.42
933.739	41.48
933.909	51.17
934.08	93.21
934.25	-8.12
934.421	40.32
934.591	54.85
934.761	47.48
934.932	-4.83
935.102	62.79
935.272	43.03
935.443	54.85
935.613	24.04
935.783	58.92
935.953	-0.76
936.123	176.52
936.294	20.75
936.464	33.34
936.634	56.01
936.804	2.53
936.974	-9.28
937.144	57.75
937.314	41.87
937.484	26.17
937.655	14.74
937.825	64.92
937.995	6.41
938.165	99.02
938.334	26.56
938.504	56.98
938.674	55.82
938.844	69.38
939.014	120.91
939.184	85.85
939.354	143.97
939.524	137.77
939.694	85.26
939.863	79.45
940.033	129.05
940.203	153.66
940.373	114.91
940.542	106.77
940.712	111.42
940.882	128.28
941.051	147.26
941.221	108.9
941.391	118.4
941.56	76.35
941.73	78.48
941.899	166.25
942.069	81.97
942.238	112.39
942.408	99.99
942.577	117.04
942.747	62.98
942.916	31.02
943.086	57.37
943.255	119.36
943.425	110.45
943.594	105.8
943.763	29.47
943.933	50
944.102	12.8
944.271	66.67
944.441	78.87
944.61	39.93
944.779	73.25
944.948	167.41
945.117	35.28
945.287	60.27
945.456	12.03
945.625	41.48
945.794	85.65
945.963	51.55
946.132	56.78
946.301	16.29
946.47	90.3
946.639	16.87
946.808	39.73
946.977	75.97
947.146	102.12
947.315	52.52
947.484	89.33
947.653	62.6
947.822	46.32
947.991	67.63
948.16	108.13
948.329	112.58
948.498	64.53
948.666	61.24
948.835	83.91
949.004	25.59
949.173	38.57
949.341	78.1
949.51	64.73
949.679	110.26
949.847	100.76
950.016	141.26
950.185	139.32
950.353	56.78
950.522	94.95
950.69	103.67
950.859	66.47
951.028	112.97
951.196	99.21
951.365	33.15
951.533	46.71
951.701	97.86
951.87	69.77
952.038	29.66
952.207	83.52
952.375	133.9
952.543	42.06
952.712	63.95
952.88	49.23
953.048	130.8
953.217	82.36
953.385	85.46
953.553	119.36
953.721	51.55
953.89	57.95
954.058	34.89
954.226	50.39
954.394	67.63
954.562	10.67
954.73	60.47
954.898	65.12
955.067	94.76
955.235	56.78
955.403	102.7
955.571	129.83
955.739	101.35
955.907	38.57
956.075	62.4
956.243	65.7
956.41	108.13
956.578	31.02
956.746	20.75
956.914	61.24
957.082	95.34
957.25	104.25
957.418	42.25
957.585	92.43
957.753	93.21
957.921	33.92
958.089	81.2
958.256	95.34
958.424	83.91
958.592	106.19
958.759	48.65
958.927	77.52
959.095	40.51
959.262	73.25
959.43	102.9
959.597	36.05
959.765	40.51
959.932	47.87
960.1	104.25
960.267	55.23
960.435	69.18
960.602	116.46
960.77	102.51
960.937	45.35
961.104	101.73
961.272	45.74
961.439	26.75
961.606	102.31
961.774	91.27
961.941	58.53
962.108	95.53
962.275	82.55
962.443	97.66
962.61	91.46
962.777	129.05
962.944	110.84
963.111	103.09
963.278	137.96
963.446	103.09
963.613	99.8
963.78	106
963.947	87.01
964.114	96.31
964.281	136.03
964.448	124.21
964.615	66.28
964.782	90.11
964.949	133.31
965.116	133.51
965.282	134.86
965.449	93.01
965.616	78.87
965.783	118.98
965.95	113.94
966.117	67.25
966.283	99.99
966.45	93.21
966.617	103.67
966.784	137.38
966.95	125.76
967.117	103.67
967.284	76.74
967.45	93.01
967.617	157.34
967.784	134.67
967.95	146.1
968.117	107.55
968.283	160.44
968.45	191.44
968.616	146.1
968.783	146.49
968.949	136.41
969.116	157.15
969.282	118.01
969.449	122.66
969.615	115.3
969.781	94.37
969.948	126.15
970.114	84.1
970.28	195.89
970.447	126.34
970.613	175.36
970.779	112.2
970.945	149.59
971.112	131.38
971.278	96.5
971.444	110.84
971.61	154.82
971.776	96.5
971.942	147.65
972.108	143.58
972.275	107.74
972.441	112.97
972.607	223.02
972.773	98.05
972.939	144.16
973.105	122.46
973.271	75
973.437	111.03
973.602	92.82
973.768	124.4
973.934	99.02
974.1	127.5
974.266	30.24
974.432	118.4
974.598	119.56
974.763	125.95
974.929	93.01
975.095	135.45
975.261	98.05
975.426	61.05
975.592	127.7
975.758	145.52
975.923	81.2
976.089	104.25
976.255	141.65
976.42	97.47
976.586	131.76
976.751	120.91
976.917	142.61
977.082	117.43
977.248	69.38
977.413	52.33
977.579	76.93
977.744	138.35
977.91	76.16
978.075	87.01
978.24	126.34
978.406	92.05
978.571	74.8
978.736	103.67
978.902	109.1
979.067	80.61
979.232	43.61
979.397	120.91
979.563	144.75
979.728	82.94
979.893	100.18
980.058	72.67
980.223	117.23
980.388	87.2
980.554	107.35
980.719	82.36
980.884	109.1
981.049	136.61
981.214	95.34
981.379	111.03
981.544	85.65
981.709	116.46
981.874	80.42
982.039	106.38
982.204	112.39
982.368	101.54
982.533	82.36
982.698	124.21
982.863	145.13
983.028	101.15
983.193	124.4
983.357	99.21
983.522	89.14
983.687	86.23
983.852	88.75
984.016	116.65
984.181	122.85
984.346	99.8
984.51	127.5
984.675	116.65
984.839	105.41
985.004	122.66
985.168	136.8
985.333	129.83
985.498	88.17
985.662	106.19
985.827	123.63
985.991	99.99
986.155	99.8
986.32	155.4
986.484	141.45
986.649	128.66
986.813	44.19
986.977	114.71
987.142	119.56
987.306	70.15
987.47	86.62
987.634	78.48
987.799	118.98
987.963	78.29
988.127	116.46
988.291	174.58
988.455	101.15
988.62	92.63
988.784	115.3
988.948	104.06
989.112	75.38
989.276	123.05
989.44	92.82
989.604	71.7
989.768	90.69
989.932	156.76
990.096	60.66
990.26	65.5
990.424	60.66
990.588	112.97
990.752	119.36
990.915	144.75
991.079	87.2
991.243	76.93
991.407	135.45
991.571	101.54
991.734	106
991.898	143.39
992.062	158.31
992.226	96.5
992.389	86.62
992.553	57.75
992.717	70.15
992.88	85.07
993.044	89.33
993.207	77.9
993.371	103.48
993.535	82.36
993.698	90.3
993.862	94.37
994.025	119.95
994.189	102.51
994.352	118.01
994.515	87.78
994.679	122.85
994.842	85.65
995.006	83.52
995.169	66.47
995.332	56.78
995.496	96.89
995.659	21.72
995.822	65.5
995.985	73.25
996.149	142.23
996.312	80.81
996.475	147.46
996.638	84.1
996.801	102.51
996.964	148.81
997.128	49.42
997.291	92.43
997.454	88.75
997.617	62.98
997.78	98.83
997.943	73.45
998.106	139.71
998.269	75.19
998.432	72.87
998.595	65.7
998.758	25.59
998.92	23.65
999.083	34.5
999.246	91.85
999.409	23.27
999.572	8.73
999.735	84.3
999.897	100.38
1000.06	63.57
1000.223	75.77
1000.386	132.73
1000.548	94.56
1000.711	92.24
1000.874	99.8
1001.036	56.4
1001.199	103.67
1001.361	52.33
1001.524	72.09
1001.687	94.76
1001.849	50.97
1002.012	62.79
1002.174	74.61
1002.337	87.01
1002.499	60.66
1002.661	91.85
1002.824	24.62
1002.986	32.76
1003.149	69.38
1003.311	42.64
1003.473	108.71
1003.636	53.1
1003.798	87.01
1003.96	111.61
1004.123	55.62
1004.285	55.04
1004.447	52.52
1004.609	44.19
1004.771	104.25
1004.933	4.28
1005.096	41.87
1005.258	18.81
1005.42	47.29
1005.582	95.53
1005.744	65.7
1005.906	15.32
1006.068	77.52
1006.23	11.64
1006.392	3.31
1006.554	43.61
1006.716	63.76
1006.878	68.99
1007.04	18.03
1007.202	41.67
1007.363	39.15
1007.525	83.71
1007.687	95.34
1007.849	83.71
1008.011	8.15
1008.172	11.64
1008.334	40.12
1008.496	71.7
1008.658	35.47
1008.819	12.42
1008.981	-2.12
1009.143	20.55
1009.304	72.67
1009.466	77.13
1009.627	90.3
1009.789	126.34
1009.95	64.53
1010.112	31.4
1010.273	55.82
1010.435	58.53
1010.596	50.58
1010.758	37.41
1010.919	36.25
1011.081	25.59
1011.242	32.57
1011.403	84.3
1011.565	53.3
1011.726	50.97
1011.887	25.2
1012.049	39.73
1012.21	76.35
1012.371	82.55
1012.532	-19.75
1012.693	52.72
1012.855	33.73
1013.016	41.09
1013.177	69.96
1013.338	44.58
1013.499	118.59
1013.66	64.92
1013.821	67.25
1013.982	82.94
1014.143	27.53
1014.304	19.78
1014.465	50
1014.626	77.9
1014.787	24.04
1014.948	86.23
1015.109	-14.71
1015.27	85.26
1015.431	36.05
1015.592	9.51
1015.752	91.08
1015.913	69.57
1016.074	62.4
1016.235	53.68
1016.395	40.12
1016.556	36.25
1016.717	23.65
1016.877	57.17
1017.038	-7.15
1017.199	46.71
1017.359	48.84
1017.52	53.3
1017.681	37.22
1017.841	0.4
1018.002	31.98
1018.162	27.72
1018.323	65.31
1018.483	36.44
1018.644	29.66
1018.804	11.83
1018.964	17.84
1019.125	25.59
1019.285	45.55
1019.446	8.15
1019.606	-3.47
1019.766	-25.56
1019.926	63.76
1020.087	44.19
1020.247	23.27
1020.407	34.7
1020.567	63.37
1020.728	25.59
1020.888	-18.2
1021.048	-15.68
1021.208	4.28
1021.368	21.13
1021.528	50.58
1021.688	58.53
1021.848	68.6
1022.008	35.28
1022.168	43.61
1022.328	25.01
1022.488	50.97
1022.648	16.29
1022.808	30.05
1022.968	39.35
1023.128	14.93
1023.288	36.83
1023.448	3.12
1023.608	44
1023.767	54.85
1023.927	16.87
1024.087	-9.67
1024.247	12.22
1024.406	19.78
1024.566	-16.06
1024.726	-17.61
1024.885	18.23
1025.045	53.3
1025.205	18.42
1025.364	19
1025.524	41.09
1025.683	26.37
1025.843	17.07
1026.003	21.33
1026.162	66.67
1026.321	69.96
1026.481	42.06
1026.64	16.29
1026.8	29.85
1026.959	9.32
1027.119	32.76
1027.278	7.77
1027.437	13.97
1027.597	23.65
1027.756	41.28
1027.915	19.78
1028.074	57.75
1028.234	26.17
1028.393	36.63
1028.552	20.75
1028.711	-37.38
1028.87	51.36
1029.03	-8.12
1029.189	24.43
1029.348	-62.95
1029.507	2.15
1029.666	33.15
1029.825	-1.15
1029.984	-0.37
1030.143	18.03
1030.302	25.59
1030.461	-17.42
1030.62	45.74
1030.779	38.57
1030.938	-9.48
1031.097	-15.87
1031.255	49.23
1031.414	54.85
1031.573	46.71
1031.732	-1.34
1031.891	5.83
1032.049	54.27
1032.208	18.42
1032.367	13.38
1032.525	23.65
1032.684	25.2
1032.843	24.23
1033.001	-19.75
1033.16	163.54
1033.319	56.98
1033.477	37.22
1033.636	12.61
1033.794	-11.03
1033.953	40.51
1034.111	30.63
1034.27	-8.12
1034.428	30.63
1034.587	-17.23
1034.745	36.83
1034.903	30.43
1035.062	34.89
1035.22	-22.46
1035.378	37.6
1035.537	-10.45
1035.695	22.3
1035.853	15.13
1036.011	55.62
1036.17	43.42
1036.328	-16.84
1036.486	51.75
1036.644	10.28
1036.802	-67.02
1036.96	-7.15
1037.119	-22.85
1037.277	0.02
1037.435	-16.26
1037.593	-21.3
1037.751	18.23
1037.909	30.24
1038.067	30.24
