Data from gum_young_FLMT105791__91__17-39-49-042.txt Node

Date: Mon Mar 20 17:39:49 GMT 2023
User: antho
Spectrometer: FLMT10579
Trigger mode: 0
Integration Time (sec): 1.000000E-1
Scans to average: 10
Electric dark correction enabled: true
Nonlinearity correction enabled: false
Boxcar width: 0
XAxis mode: Wavelengths
Number of Pixels in Spectrum: 3648
>>>>>Begin Spectral Data<<<<<
345.248	-153.08
345.464	-153.08
345.681	-153.08
345.898	-144.55
346.114	-160.63
346.331	-34.31
346.548	53.85
346.764	-4.08
346.981	-27.53
347.197	-23.85
347.414	37.18
347.631	-38.96
347.847	59.85
348.064	4.25
348.28	28.27
348.497	-29.27
348.713	-25.4
348.93	14.9
349.146	22.65
349.363	-38.18
349.579	-2.34
349.796	16.65
350.012	-3.31
350.229	17.42
350.445	-12.8
350.661	-8.15
350.878	-4.08
351.094	6.18
351.311	-16.87
351.527	1.34
351.743	-29.47
351.96	13.55
352.176	7.35
352.392	28.66
352.609	26.53
352.825	-18.03
353.041	3.86
353.257	-0.6
353.474	-19
353.69	29.43
353.906	5.22
354.122	-24.62
354.339	48.42
354.555	-7.77
354.771	-28.5
354.987	33.11
355.203	40.09
355.42	6.96
355.636	0.76
355.852	-16.87
356.068	9.67
356.284	-27.33
356.5	54.43
356.716	18.2
356.932	3.47
357.148	12.58
357.364	-3.5
357.58	27.88
357.796	47.45
358.012	28.46
358.228	24.01
358.444	-53.3
358.66	55.59
358.876	20.52
359.092	-4.86
359.308	12.38
359.524	28.08
359.74	1.53
359.956	-5.05
360.172	3.86
360.388	34.86
360.604	2.5
360.819	78.45
361.035	20.91
361.251	29.63
361.467	-29.66
361.683	31.76
361.898	14.13
362.114	43.96
362.33	14.51
362.546	35.44
362.762	15.48
362.977	21.1
363.193	-26.17
363.409	28.46
363.624	-35.86
363.84	-0.21
364.056	-8.15
364.271	29.43
364.487	20.13
364.703	10.25
364.918	-17.45
365.134	-14.55
365.35	7.73
365.565	88.72
365.781	15.29
365.996	13.35
366.212	36.6
366.427	25.36
366.643	9.09
366.858	2.12
367.074	-8.15
367.289	61.4
367.505	95.31
367.72	-46.32
367.936	-11.45
368.151	55.01
368.367	44.35
368.582	13.35
368.798	-8.15
369.013	56.56
369.228	-4.28
369.444	8.12
369.659	57.91
369.874	25.56
370.09	51.52
370.305	-44.38
370.52	-9.12
370.736	66.25
370.951	16.26
371.166	50.55
371.381	56.36
371.597	25.36
371.812	-25.98
372.027	-16.1
372.242	29.43
372.458	45.32
372.673	-10.67
372.888	-6.41
373.103	17.61
373.318	118.75
373.533	42.41
373.749	17.42
373.964	-39.54
374.179	48.61
374.394	5.8
374.609	64.5
374.824	-1.37
375.039	51.33
375.254	-5.05
375.469	60.24
375.684	6.57
375.899	69.15
376.114	11.61
376.329	18.58
376.544	27.11
376.759	55.98
376.974	-5.05
377.189	8.7
377.404	-2.15
377.619	52.68
377.834	-49.62
378.049	-15.32
378.264	-43.22
378.478	22.46
378.693	-24.04
378.908	27.69
379.123	10.64
379.338	27.5
379.553	14.9
379.767	23.23
379.982	43.38
380.197	51.71
380.412	20.52
380.626	33.7
380.841	77.48
381.056	26.14
381.271	72.83
381.485	-13.58
381.7	-2.15
381.915	13.93
382.129	1.34
382.344	19.55
382.559	-6.6
382.773	36.21
382.988	-2.34
383.202	37.76
383.417	1.15
383.632	97.05
383.846	17.42
384.061	13.74
384.275	-4.08
384.49	32.92
384.704	21.1
384.919	30.79
385.133	5.6
385.348	30.4
385.562	-12.8
385.777	52.3
385.991	18.78
386.206	1.34
386.42	-7.96
386.634	55.98
386.849	23.62
387.063	53.65
387.277	-15.32
387.492	18
387.706	-20.94
387.92	-10.87
388.135	45.32
388.349	58.5
388.563	28.66
388.778	32.15
388.992	31.56
389.206	47.06
389.42	93.18
389.635	21.88
389.849	52.68
390.063	75.74
390.277	45.32
390.491	82.91
390.706	23.81
390.92	48.81
391.134	28.27
391.348	55.2
391.562	-19.78
391.776	2.12
391.99	-0.21
392.205	49.2
392.419	12
392.633	29.82
392.847	56.95
393.061	6.77
393.275	79.61
393.489	14.9
393.703	61.6
393.917	66.63
394.131	19.75
394.345	64.11
394.559	51.52
394.773	21.88
394.986	29.43
395.2	15.68
395.414	29.63
395.628	-0.98
395.842	21.88
396.056	23.81
396.27	-7.18
396.484	17.81
396.697	37.76
396.911	81.16
397.125	46.87
397.339	46.1
397.553	49
397.766	76.71
397.98	60.43
398.194	68.57
398.408	28.66
398.621	38.73
398.835	45.71
399.049	60.82
399.262	65.66
399.476	64.31
399.69	51.13
399.903	127.08
400.117	-7.18
400.331	80.58
400.544	34.28
400.758	131.54
400.971	59.08
401.185	91.82
401.398	35.05
401.612	102.09
401.826	69.93
402.039	48.03
402.253	37.38
402.466	74.19
402.68	67.99
402.893	91.43
403.106	42.03
403.32	38.15
403.533	71.09
403.747	46.68
403.96	79.42
404.174	69.15
404.387	35.44
404.6	67.41
404.814	123.98
405.027	65.28
405.24	40.67
405.454	19.94
405.667	83.68
405.88	18.2
406.094	77.29
406.307	96.66
406.52	65.08
406.733	25.95
406.947	8.7
407.16	126.89
407.373	93.76
407.586	20.91
407.799	24.59
408.012	97.83
408.226	48.81
408.439	80.78
408.652	25.17
408.865	67.21
409.078	88.14
409.291	77.29
409.504	41.83
409.717	59.85
409.93	77.68
410.143	94.15
410.357	13.55
410.57	28.85
410.783	63.34
410.996	78.65
411.209	60.24
411.421	99.18
411.634	66.83
411.847	29.43
412.06	66.83
412.273	55.4
412.486	81.94
412.699	149.17
412.912	67.21
413.125	99.38
413.338	88.33
413.55	103.06
413.763	105.58
413.976	100.34
414.189	52.68
414.402	47.45
414.615	93.95
414.827	53.65
415.04	84.46
415.253	90.46
415.466	96.86
415.678	147.81
415.891	105.96
416.104	70.12
416.316	63.15
416.529	74.77
416.742	113.52
416.954	132.51
417.167	82.52
417.38	70.9
417.592	111.97
417.805	60.63
418.017	36.6
418.23	86.01
418.442	54.43
418.655	81.94
418.868	94.73
419.08	119.53
419.293	115.46
419.505	110.03
419.718	92.6
419.93	126.5
420.142	66.25
420.355	131.73
420.567	121.46
420.78	83.49
420.992	70.12
421.205	129.41
421.417	42.8
421.629	89.3
421.842	67.99
422.054	47.45
422.266	103.25
422.479	113.52
422.691	77.87
422.903	131.93
423.115	57.91
423.328	71.86
423.54	98.02
423.752	70.31
423.964	56.56
424.177	76.71
424.389	87.95
424.601	169.71
424.813	97.83
425.025	123.79
425.238	138.13
425.45	97.24
425.662	98.21
425.874	362.29
426.086	103.25
426.298	126.69
426.51	101.89
426.722	97.05
426.934	78.84
427.146	115.07
427.358	57.33
427.57	108.29
427.782	104.22
427.994	104.99
428.206	95.31
428.418	61.01
428.63	118.56
428.842	131.54
429.054	111.97
429.266	146.26
429.478	67.8
429.69	81.36
429.902	60.05
430.114	111.19
430.325	93.56
430.537	94.15
430.749	60.82
430.961	28.27
431.173	84.65
431.384	104.41
431.596	20.91
431.808	83.1
432.02	92.98
432.231	89.69
432.443	130.38
432.655	91.63
432.867	76.32
433.078	122.04
433.29	167.58
433.502	122.82
433.713	135.61
433.925	107.71
434.136	121.27
434.348	81.16
434.56	54.62
434.771	155.95
434.983	67.8
435.194	82.33
435.406	101.7
435.617	120.49
435.829	190.24
436.04	139.87
436.252	140.45
436.463	194.7
436.675	141.81
436.886	124.37
437.098	142.78
437.309	182.88
437.521	111.97
437.732	124.37
437.943	133.09
438.155	114.88
438.366	75.74
438.578	177.07
438.789	140.84
439	148.39
439.211	118.75
439.423	165.44
439.634	141.42
439.845	166.22
440.057	131.93
440.268	146.26
440.479	98.41
440.69	140.64
440.902	133.67
441.113	130.57
441.324	128.83
441.535	131.34
441.746	187.34
441.957	107.51
442.168	129.21
442.38	164.67
442.591	167.77
442.802	113.91
443.013	132.89
443.224	149.94
443.435	117.98
443.646	142.58
443.857	149.17
444.068	132.51
444.279	131.93
444.49	192.18
444.701	136.77
444.912	226.67
445.123	145.88
445.334	187.53
445.545	182.88
445.756	140.84
445.967	96.47
446.178	188.89
446.388	206.91
446.599	167.19
446.81	168.16
447.021	143.74
447.232	182.88
447.443	205.74
447.653	146.26
447.864	202.45
448.075	147.62
448.286	196.25
448.496	169.9
448.707	197.22
448.918	162.34
449.129	241.2
449.339	159.83
449.55	175.13
449.761	184.04
449.971	211.36
450.182	153.63
450.393	186.95
450.603	159.05
450.814	195.67
451.024	205.36
451.235	210.39
451.446	227.06
451.656	243.91
451.867	158.47
452.077	197.41
452.288	257.28
452.498	219.69
452.709	199.35
452.919	218.34
453.13	157.11
453.34	238.87
453.55	148.39
453.761	213.69
453.971	218.53
454.182	200.12
454.392	199.54
454.602	233.45
454.813	204.58
455.023	244.88
455.233	170.29
455.444	221.63
455.654	142.97
455.864	187.14
456.075	202.06
456.285	205.74
456.495	188.89
456.705	204.97
456.916	215.43
457.126	238.1
457.336	204.39
457.546	160.02
457.756	169.71
457.967	248.95
458.177	204.19
458.387	218.72
458.597	158.08
458.807	222.02
459.017	190.63
459.227	190.24
459.437	211.56
459.647	253.99
459.857	243.91
460.068	187.34
460.278	255.92
460.488	244.11
460.698	289.83
460.908	206.71
461.117	182.88
461.327	204.58
461.537	229.19
461.747	222.99
461.957	245.27
462.167	314.05
462.377	261.93
462.587	224.54
462.797	244.69
463.007	244.49
463.216	252.24
463.426	247.79
463.636	253.79
463.846	179.2
464.056	238.1
464.265	295.25
464.475	190.63
464.685	228.99
464.895	264.45
465.104	230.16
465.314	258.83
465.524	214.46
465.733	208.26
465.943	334.59
466.153	284.6
466.362	258.83
466.572	245.85
466.782	245.85
466.991	269.68
467.201	271.23
467.41	222.21
467.62	271.81
467.829	229.38
468.039	267.94
468.249	249.34
468.458	261.54
468.668	274.91
468.877	254.37
469.086	298.35
469.296	272.39
469.505	265.81
469.715	310.56
469.924	283.82
470.134	287.31
470.343	316.57
470.552	253.79
470.762	257.09
470.971	199.93
471.18	270.65
471.39	260.57
471.599	215.62
471.808	292.93
472.018	267.55
472.227	316.95
472.436	309.79
472.645	281.11
472.855	262.51
473.064	333.42
473.273	329.16
473.482	305.52
473.691	310.56
473.901	323.93
474.11	313.08
474.319	356.09
474.528	276.27
474.737	350.28
474.946	314.63
475.155	318.12
475.364	345.82
475.573	318.7
475.783	338.65
475.992	321.41
476.201	347.18
476.41	313.08
476.619	258.64
476.828	354.15
477.037	294.48
477.245	314.05
477.454	352.99
477.663	332.26
477.872	324.9
478.081	396.2
478.29	317.15
478.499	435.92
478.708	315.4
478.917	408.79
479.125	357.83
479.334	365.97
479.543	329.55
479.752	371.4
479.961	373.53
480.169	395.62
480.378	358.61
480.587	472.15
480.796	397.55
481.004	375.66
481.213	384.18
481.422	372.17
481.63	385.73
481.839	414.8
482.048	441.15
482.256	405.3
482.465	436.11
482.674	427.39
482.882	406.27
483.091	473.89
483.299	440.57
483.508	418.87
483.716	389.03
483.925	416.93
484.134	420.03
484.342	403.17
484.551	420.03
484.759	419.25
484.967	455.48
485.176	456.45
485.384	455.48
485.593	464.4
485.801	470.98
486.01	424.68
486.218	411.31
486.426	372.56
486.635	383.41
486.843	363.84
487.051	391.93
487.26	405.3
487.468	410.73
487.676	426.62
487.885	402.78
488.093	437.85
488.301	428.75
488.509	420.61
488.717	459.36
488.926	468.08
489.134	462.07
489.342	455.1
489.55	410.92
489.758	494.62
489.967	458.78
490.175	581.42
490.383	454.13
490.591	530.08
490.799	457.03
491.007	524.46
491.215	477.76
491.423	477.76
491.631	494.23
491.839	487.06
492.047	519.42
492.255	465.36
492.463	435.53
492.671	469.43
492.879	513.03
493.087	466.72
493.295	530.85
493.503	523.1
493.711	532.59
493.919	541.89
494.127	549.45
494.334	555.84
494.542	489.39
494.75	531.43
494.958	551.39
495.166	586.46
495.374	535.69
495.581	547.13
495.789	571.73
495.997	608.35
496.205	528.72
496.412	533.37
496.62	537.44
496.828	591.69
497.035	558.17
497.243	594.59
497.451	570.57
497.658	606.41
497.866	549.06
498.074	618.62
498.281	565.92
498.489	619.97
498.696	590.33
498.904	594.98
499.112	564.18
499.319	637.02
499.527	578.51
499.734	653.69
499.942	582.97
500.149	596.53
500.357	619.39
500.564	599.44
500.771	594.01
500.979	591.49
501.186	600.02
501.394	633.15
501.601	611.26
501.808	636.25
502.016	613.39
502.223	597.89
502.43	611.84
502.638	579.48
502.845	605.64
503.052	681.78
503.26	624.04
503.467	706.97
503.674	648.84
503.881	670.35
504.089	711.81
504.296	691.47
504.503	642.45
504.71	659.11
504.917	667.25
505.125	665.7
505.332	645.94
505.539	674.81
505.746	739.32
505.953	747.27
506.16	701.16
506.367	788.15
506.574	761.22
506.781	756.76
506.988	718.98
507.195	730.8
507.402	729.44
507.609	769.94
507.816	714.72
508.023	723.82
508.23	732.93
508.437	737
508.644	769.94
508.851	832.9
509.058	782.92
509.265	803.84
509.472	820.31
509.679	872.43
509.885	798.03
510.092	809.46
510.299	816.24
510.506	837.36
510.713	859.64
510.92	839.88
511.126	853.83
511.333	887.35
511.54	907.5
511.746	911.37
511.953	913.31
512.16	904.01
512.367	891.22
512.573	882.7
512.78	902.07
512.987	891.61
513.193	937.91
513.4	841.04
513.606	908.66
513.813	935.4
514.02	924.93
514.226	975.89
514.433	969.3
514.639	942.18
514.846	920.48
515.052	926.1
515.259	962.13
515.465	972.79
515.672	975.31
515.878	1054.74
516.085	968.33
516.291	1030.72
516.497	998.75
516.704	999.14
516.91	974.34
517.117	923.58
517.323	887.54
517.529	966.2
517.736	905.17
517.942	945.47
518.148	931.71
518.354	1016.38
518.561	1003.59
518.767	993.52
518.973	1048.54
519.179	1100.47
519.386	1032.85
519.592	1056.29
519.798	1073.34
520.004	1156.46
520.21	1130.5
520.417	1189.4
520.623	1159.37
520.829	1212.65
521.035	1195.4
521.241	1204.7
521.447	1237.64
521.653	1284.33
521.859	1248.68
522.065	1279.68
522.271	1346.53
522.477	1313.2
522.683	1335.48
522.889	1308.36
523.095	1292.08
523.301	1325.6
523.507	1288.21
523.713	1337.81
523.919	1296.15
524.125	1414.92
524.331	1357.57
524.537	1471.88
524.742	1414.34
524.948	1434.49
525.154	1408.91
525.36	1550.16
525.566	1460.06
525.772	1501.72
525.977	1408.53
526.183	1470.91
526.389	1496.1
526.595	1413.95
526.8	1434.1
527.006	1342.65
527.212	1297.9
527.417	1320.18
527.623	1361.64
527.829	1408.91
528.034	1421.51
528.24	1445.53
528.446	1435.84
528.651	1556.36
528.857	1530.01
529.062	1603.44
529.268	1559.26
529.473	1603.82
529.679	1621.26
529.884	1654.2
530.09	1612.15
530.295	1628.62
530.501	1655.75
530.706	1610.22
530.912	1590.65
531.117	1629.98
531.323	1629.59
531.528	1676.09
531.733	1693.72
531.939	1649.35
532.144	1681.52
532.35	1656.91
532.555	1738.67
532.76	1694.5
532.966	1670.86
533.171	1651.29
533.376	1607.12
533.581	1622.81
533.787	1615.84
533.992	1694.11
534.197	1736.15
534.402	1698.57
534.607	1706.12
534.813	1813.26
535.018	1725.69
535.223	1741.58
535.428	1741.19
535.633	1804.16
535.838	1809.39
536.043	1770.06
536.249	1853.76
536.454	1795.05
536.659	1845.04
536.864	1776.06
537.069	1772
537.274	1809.97
537.479	1811.71
537.684	1789.82
537.889	1734.41
538.094	1894.25
538.299	1827.02
538.504	1843.29
538.708	1822.76
538.913	1870.42
539.118	1822.56
539.323	1808.61
539.528	1795.44
539.733	1834.77
539.938	1848.53
540.142	1860.34
540.347	1770.25
540.552	1775.48
540.757	1786.91
540.962	1798.93
541.166	1781.68
541.371	1741
541.576	1783.62
541.781	1708.45
541.985	1817.14
542.19	1843.88
542.395	1879.91
542.599	1914.01
542.804	1834.96
543.008	1915.95
543.213	1844.84
543.418	1836.51
543.622	1877.39
543.827	1846.01
544.031	1932.42
544.236	1923.89
544.44	1891.15
544.645	1960.71
544.849	1914.59
545.054	1920.79
545.258	2000.23
545.463	1996.94
545.667	1903.55
545.872	1928.93
546.076	1932.81
546.281	1932.22
546.485	1949.86
546.689	1922.34
546.894	1977.76
547.098	1926.41
547.302	1908.98
547.507	1932.61
547.711	1975.82
547.915	2016.7
548.119	1948.69
548.324	1920.6
548.528	1951.02
548.732	1930.67
548.936	1940.94
549.141	2008.95
549.345	1944.62
549.549	1983.96
549.753	1993.06
549.957	2030.07
550.161	2017.67
550.366	1998.49
550.57	1967.29
550.774	1957.41
550.978	2002.36
551.182	2016.31
551.386	1975.04
551.59	1968.84
551.794	1974.27
551.998	2029.68
552.202	1983.18
552.406	1959.74
552.61	2046.34
552.814	1980.08
553.018	2063.39
553.222	1988.99
553.426	1929.32
553.63	2058.35
553.833	2008.56
554.037	1962.06
554.241	2010.11
554.445	1988.61
554.649	1995
554.853	1960.9
555.056	2028.32
555.26	2021.54
555.464	1999.26
555.668	2035.49
555.871	2018.83
556.075	2049.83
556.279	2001.01
556.483	1963.61
556.686	1998.1
556.89	1964.19
557.094	2005.46
557.297	1900.06
557.501	1973.49
557.704	1914.79
557.908	1983.37
558.112	1906.26
558.315	1981.63
558.519	1936.68
558.722	1910.33
558.926	1889.41
559.129	1850.08
559.333	1846.59
559.536	1851.82
559.74	1848.33
559.943	1856.28
560.147	1820.43
560.35	1844.65
560.553	1873.91
560.757	1807.45
560.96	1907.62
561.164	1873.13
561.367	1941.14
561.57	1892.7
561.774	1869.06
561.977	1840
562.18	1831.48
562.384	1925.25
562.587	1846.78
562.79	1806.87
562.993	1828.18
563.197	1875.07
563.4	1933.39
563.603	1899.48
563.806	1887.86
564.009	1802.41
564.212	1845.23
564.416	1750.88
564.619	1884.95
564.822	1747.2
565.025	1838.26
565.228	1799.9
565.431	1826.25
565.634	1723.75
565.837	1740.03
566.04	1742.55
566.243	1706.9
566.446	1635.4
566.649	1724.53
566.852	1690.82
567.055	1714.26
567.258	1734.41
567.461	1767.73
567.664	1735.38
567.867	1662.72
568.07	1703.99
568.273	1727.24
568.475	1740.42
568.678	1679.97
568.881	1658.85
569.084	1681.13
569.287	1567.21
569.489	1628.24
569.692	1650.71
569.895	1674.15
570.098	1570.5
570.3	1595.3
570.503	1540.08
570.706	1543.37
570.909	1535.04
571.111	1521.67
571.314	1498.42
571.516	1512.37
571.719	1510.82
571.922	1512.37
572.124	1507.72
572.327	1517.99
572.529	1467.81
572.732	1466.07
572.935	1544.54
573.137	1576.51
573.34	1489.51
573.542	1559.07
573.745	1525.36
573.947	1479.24
574.15	1467.81
574.352	1443.21
574.554	1555.97
574.757	1440.49
574.959	1441.27
575.162	1437.78
575.364	1433.33
575.566	1516.64
575.769	1406.78
575.971	1431
576.173	1323.08
576.376	1422.67
576.578	1449.02
576.78	1434.49
576.982	1364.16
577.185	1363.96
577.387	1364.35
577.589	1335.29
577.791	1432.16
577.993	1403.1
578.196	1412.98
578.398	1357.38
578.6	1404.65
578.802	1342.46
579.004	1317.27
579.206	1336.84
579.408	1395.55
579.61	1347.11
579.812	1369.39
580.014	1324.05
580.216	1323.86
580.418	1332.38
580.62	1301.97
580.822	1276.97
581.024	1334.9
581.226	1378.69
581.428	1373.46
581.63	1447.66
581.832	1307.2
582.034	1384.11
582.236	1357.96
582.438	1357.57
582.64	1403.49
582.841	1404.07
583.043	1431.19
583.245	1404.46
583.447	1382.95
583.649	1364.93
583.85	1375.01
584.052	1422.28
584.254	1328.51
584.456	1402.33
584.657	1313.4
584.859	1336.84
585.061	1355.63
585.262	1335.1
585.464	1279.88
585.666	1336.26
585.867	1284.72
586.069	1379.27
586.27	1309.33
586.472	1327.15
586.674	1291.89
586.875	1305.65
587.077	1283.95
587.278	1288.98
587.48	1293.63
587.681	1399.61
587.883	1292.28
588.084	1236.67
588.285	1280.07
588.487	1260.5
588.688	1253.33
588.89	1181.07
589.091	1153.75
589.292	1187.27
589.494	1115.58
589.695	1107.64
589.896	1040.21
590.098	1066.17
590.299	1120.04
590.5	1091.56
590.702	1115.19
590.903	1123.33
591.104	1188.43
591.305	1165.18
591.507	1202.77
591.708	1167.89
591.909	1159.95
592.11	1242.29
592.311	1186.1
592.512	1159.56
592.714	1133.79
592.915	1127.79
593.116	1132.05
593.317	1176.42
593.518	1142.32
593.719	1162.47
593.92	1186.69
594.121	1222.72
594.322	1152
594.523	1159.75
594.724	1123.52
594.925	1144.25
595.126	1173.7
595.327	1153.55
595.528	1151.04
595.729	1169.25
595.929	1144.45
596.13	1160.72
596.331	1174.09
596.532	1179.32
596.733	1200.25
596.934	1193.66
597.135	1193.27
597.335	1173.32
597.536	1143.67
597.737	1151.42
597.938	1157.82
598.138	1169.44
598.339	1134.96
598.54	1145.42
598.74	1117.71
598.941	1146.19
599.142	1205.67
599.342	1152.97
599.543	1146
599.744	1132.63
599.944	1127.59
600.145	1121.01
600.345	1132.24
600.546	1220.4
600.746	1187.65
600.947	1216.14
601.147	1161.89
601.348	1195.79
601.548	1148.32
601.749	1134.57
601.949	1112.67
602.15	1130.11
602.35	1133.6
602.551	1164.02
602.751	1098.14
602.951	1123.14
603.152	1052.03
603.352	1138.25
603.552	1138.83
603.753	1182.04
603.953	1172.54
604.153	1141.16
604.354	1162.47
604.554	1127.98
604.754	1120.42
604.954	1099.69
605.155	1141.35
605.355	1090.39
605.555	1178.55
605.755	1183.59
605.955	1137.86
606.155	1147.74
606.356	1121.39
606.556	1133.21
606.756	1121.01
606.956	1079.16
607.156	1180.29
607.356	1095.24
607.556	1117.71
607.756	1133.02
607.956	1155.88
608.156	1113.26
608.356	1087.29
608.556	1143.29
608.756	1082.26
608.956	1055.71
609.156	1102.41
609.356	1068.89
609.556	1067.92
609.755	1110.16
609.955	1038.47
610.155	1092.52
610.355	1048.16
610.555	1028.78
610.755	1048.93
610.954	992.94
611.154	1076.64
611.354	1102.21
611.554	1029.17
611.753	1040.79
611.953	1007.08
612.153	1082.45
612.352	1010.96
612.552	1010.18
612.752	975.5
612.951	1028.39
613.151	1005.34
613.351	974.14
613.55	997.01
613.75	1029.94
613.949	1005.92
614.149	1014.25
614.348	1002.43
614.548	945.08
614.747	925.51
614.947	971.63
615.146	923
615.346	993.13
615.545	1007.86
615.745	1005.92
615.944	1010.57
616.144	997.01
616.343	1015.99
616.542	948.57
616.742	957.68
616.941	946.83
617.14	914.28
617.34	948.76
617.539	958.65
617.738	930.36
617.938	1020.06
618.137	954.38
618.336	904.59
618.535	953.22
618.734	943.34
618.934	973.18
619.133	906.14
619.332	965.23
619.531	901.88
619.73	918.73
619.929	971.43
620.128	959.61
620.328	985.19
620.527	911.56
620.726	910.01
620.925	935.2
621.124	905.95
621.323	937.72
621.522	907.5
621.721	900.71
621.92	885.8
622.119	904.4
622.318	908.85
622.517	894.9
622.715	877.66
622.914	838.52
623.113	894.32
623.312	837.55
623.511	881.53
623.71	871.46
623.909	829.42
624.107	922.22
624.306	847.63
624.505	857.32
624.704	852.86
624.902	857.51
625.101	879.4
625.3	905.75
625.499	810.23
625.697	859.06
625.896	818.37
626.095	849.76
626.293	785.63
626.492	796.48
626.69	835.62
626.889	816.43
627.088	867.39
627.286	803.26
627.485	812.56
627.683	816.05
627.882	823.22
628.08	752.69
628.279	796.87
628.477	857.7
628.676	769.94
628.874	851.5
629.073	761.6
629.271	785.05
629.469	800.35
629.668	785.05
629.866	808.88
630.065	759.09
630.263	801.32
630.461	774.78
630.66	827.28
630.858	813.33
631.056	850.53
631.254	829.22
631.453	767.03
631.651	861.38
631.849	796.87
632.047	802.48
632.245	808.68
632.444	823.02
632.642	812.56
632.84	840.65
633.038	797.83
633.236	804.62
633.434	800.35
633.632	785.24
633.83	777.49
634.028	808.68
634.227	804.03
634.425	862.55
634.623	817.02
634.821	820.5
635.019	816.24
635.216	806.55
635.414	830.77
635.612	817.02
635.81	822.63
636.008	872.04
636.206	790.47
636.404	810.62
636.602	798.42
636.8	756.76
636.997	820.12
637.195	807.52
637.393	806.55
637.591	858.67
637.789	789.5
637.986	777.69
638.184	813.14
638.382	820.31
638.58	820.31
638.777	884.25
638.975	795.9
639.173	783.89
639.37	803.26
639.568	788.34
639.765	811.78
639.963	758.89
640.161	797.06
640.358	797.45
640.556	769.16
640.753	738.35
640.951	727.12
641.148	742.62
641.346	747.07
641.543	761.41
641.741	757.54
641.938	711.81
642.136	731.19
642.333	714.14
642.531	768.39
642.728	792.8
642.925	718.98
643.123	730.02
643.32	729.83
643.517	691.08
643.715	708.52
643.912	691.27
644.109	697.67
644.306	732.35
644.504	719.56
644.701	733.7
644.898	709.49
645.095	673.45
645.293	695.92
645.49	704.84
645.687	697.86
645.884	704.45
646.081	630.82
646.278	631.02
646.475	632.96
646.672	652.33
646.87	664.34
647.067	669.77
647.264	635.09
647.461	639.16
647.658	603.31
647.855	629.47
648.052	627.72
648.249	565.34
648.446	620.56
648.642	588.2
648.839	594.59
649.036	593.82
649.233	587.23
649.43	551.97
649.627	523.88
649.824	592.27
650.021	585.29
650.217	554.29
650.414	553.52
650.611	597.11
650.808	596.73
651.004	565.34
651.201	597.69
651.398	625.98
651.595	581.23
651.791	561.27
651.988	581.23
652.185	569.21
652.381	598.28
652.578	539.57
652.775	587.62
652.971	570.57
653.168	579.68
653.364	610.09
653.561	510.31
653.757	555.84
653.954	584.71
654.15	545.38
654.347	608.54
654.543	593.24
654.74	526.01
654.936	523.49
655.133	564.95
655.329	564.95
655.525	556.81
655.722	572.31
655.918	515.93
656.115	565.53
656.311	471.56
656.507	462.85
656.704	450.64
656.9	480.09
657.096	465.75
657.292	457.23
657.489	557.59
657.685	534.14
657.881	474.28
658.077	502.95
658.273	509.15
658.47	576.96
658.666	491.52
658.862	519.03
659.058	493.07
659.254	559.91
659.45	481.06
659.646	545.96
659.842	529.11
660.038	566.31
660.234	505.66
660.43	523.88
660.626	582.58
660.822	561.66
661.018	526.98
661.214	525.23
661.41	486.68
661.606	542.67
661.802	534.92
661.998	519.61
662.194	505.08
662.39	519.03
662.586	532.79
662.781	529.11
662.977	497.53
663.173	504.5
663.369	507.6
663.564	514.19
663.76	526.78
663.956	475.05
664.152	532.4
664.347	450.83
664.543	466.33
664.739	482.8
664.934	411.31
665.13	427
665.326	496.56
665.521	490.75
665.717	444.05
665.912	453.74
666.108	422.93
666.304	441.53
666.499	451.61
666.695	383.8
666.89	445.8
667.086	480.67
667.281	456.45
667.477	492.3
667.672	463.04
667.867	455.1
668.063	459.16
668.258	437.27
668.454	465.56
668.649	521.36
668.844	456.45
669.04	457.81
669.235	417.9
669.43	442.12
669.626	409.95
669.821	436.11
670.016	403.56
670.211	419.25
670.407	406.27
670.602	432.82
670.797	409.18
670.992	481.06
671.187	395.03
671.382	446.96
671.578	399.1
671.773	441.53
671.968	419.25
672.163	440.95
672.358	415.38
672.553	399.1
672.748	378.37
672.943	501.79
673.138	408.4
673.333	438.82
673.528	403.17
673.723	429.91
673.918	421.58
674.113	361.71
674.308	484.35
674.503	435.72
674.698	422.93
674.892	397.55
675.087	448.12
675.282	441.92
675.477	411.12
675.672	394.07
675.867	411.12
676.061	387.67
676.256	361.9
676.451	392.32
676.646	432.04
676.84	379.15
677.035	379.34
677.23	399.68
677.424	447.35
677.619	443.47
677.814	454.9
678.008	438.63
678.203	367.33
678.397	382.63
678.592	394.07
678.787	463.04
678.981	432.62
679.176	439.98
679.37	421.77
679.565	386.51
679.759	381.47
679.954	439.02
680.148	427
680.342	430.49
680.537	406.27
680.731	415.77
680.926	434.75
681.12	445.21
681.314	400.27
681.509	423.52
681.703	438.43
681.897	438.63
682.092	425.07
682.286	407.24
682.48	456.84
682.674	440.18
682.869	401.62
683.063	429.52
683.257	485.71
683.451	417.32
683.645	453.74
683.839	441.15
684.034	446.57
684.228	468.08
684.422	397.55
684.616	422.35
684.81	478.54
685.004	427.58
685.198	430.3
685.392	462.26
685.586	416.35
685.78	454.71
685.974	482.03
686.168	461.68
686.362	512.83
686.556	427.39
686.75	387.28
686.944	431.07
687.138	437.47
687.331	354.15
687.525	366.94
687.719	303.39
687.913	388.64
688.107	355.51
688.301	380.89
688.494	402.78
688.688	356.48
688.882	347.95
689.076	361.71
689.269	363.84
689.463	473.11
689.657	390.77
689.85	413.25
690.044	404.72
690.238	419.06
690.431	429.52
690.625	453.16
690.818	475.63
691.012	486.1
691.205	503.15
691.399	478.35
691.593	532.79
691.786	563.01
691.98	559.33
692.173	592.66
692.366	578.51
692.56	612.42
692.753	647.87
692.947	584.33
693.14	661.63
693.333	663.57
693.527	581.42
693.72	639.93
693.914	618.23
694.107	656.79
694.3	676.94
694.493	691.47
694.687	687.21
694.88	665.89
695.073	717.82
695.266	712.39
695.46	737.19
695.653	778.27
695.846	764.9
696.039	724.6
696.232	785.24
696.425	816.43
696.618	818.95
696.812	825.15
697.005	905.95
697.198	969.69
697.391	903.81
697.584	923
697.777	991.58
697.97	1019.68
698.163	999.91
698.356	974.92
698.549	1015.61
698.742	1035.56
698.935	983.83
699.127	1040.02
699.32	1010.38
699.513	1014.64
699.706	1054.16
699.899	1074.31
700.092	1062.11
700.285	1084.58
700.477	1039.44
700.67	1099.89
700.863	1133.41
701.056	1210.71
701.248	1171.57
701.441	1189.79
701.634	1151.04
701.826	1247.52
702.019	1155.49
702.212	1222.34
702.404	1189.59
702.597	1190.56
702.79	1228.34
702.982	1249.46
703.175	1294.02
703.367	1306.42
703.56	1311.85
703.752	1381.79
703.945	1400.78
704.137	1386.63
704.33	1418.6
704.522	1427.51
704.715	1433.52
704.907	1473.24
705.1	1507.53
705.292	1479.63
705.484	1486.99
705.677	1517.8
705.869	1510.63
706.061	1596.65
706.254	1633.66
706.446	1554.42
706.638	1566.24
706.831	1664.66
707.023	1574.37
707.215	1669.7
707.407	1689.27
707.599	1668.92
707.792	1728.02
707.984	1704.96
708.176	1763.86
708.368	1701.67
708.56	1773.35
708.752	1742.74
708.944	1739.64
709.136	1819.46
709.329	1817.33
709.521	1860.15
709.713	1858.02
709.905	1875.84
710.097	1869.45
710.289	1874.49
710.481	1889.6
710.672	1937.65
710.864	1925.06
711.056	1979.11
711.248	1966.91
711.44	1938.42
711.632	1955.28
711.824	2007.79
712.016	2063.78
712.207	2011.86
712.399	2043.44
712.591	2077.54
712.783	2075.4
712.975	2080.44
713.166	2071.72
713.358	2065.52
713.55	2142.44
713.741	2129.85
713.933	2144.38
714.125	2115.9
714.316	2111.25
714.508	2189.72
714.7	2207.15
714.891	2163.17
715.083	2212.19
715.274	2185.65
715.466	2247.06
715.657	2247.06
715.849	2166.85
716.04	2188.17
716.232	2117.64
716.423	2187.2
716.615	2094.97
716.806	2043.63
716.998	2001.59
717.189	1959.93
717.381	1849.69
717.572	1793.7
717.763	1829.15
717.955	1781.1
718.146	1772.38
718.337	1733.25
718.528	1693.92
718.72	1581.93
718.911	1672.8
719.102	1647.03
719.293	1688.49
719.485	1667.37
719.676	1626.69
719.867	1607.5
720.058	1616.61
720.249	1628.82
720.44	1630.37
720.632	1706.12
720.823	1723.17
721.014	1845.81
721.205	1925.25
721.396	1941.72
721.587	2047.12
721.778	2092.45
721.969	2113.77
722.16	2216.65
722.351	2209.67
722.542	2301.7
722.733	2308.87
722.924	2264.5
723.115	2280.58
723.305	2248.42
723.496	2246.87
723.687	2131.01
723.878	2176.93
724.069	2113.18
724.26	2162.01
724.45	2097.88
724.641	2093.81
724.832	2088
725.023	2106.79
725.213	2105.43
725.404	2044.79
725.595	2093.04
725.785	2036.65
725.976	2095.55
726.167	2102.34
726.357	2155.62
726.548	2189.72
726.739	2135.66
726.929	2197.27
727.12	2254.04
727.31	2232.73
727.501	2178.28
727.691	2194.36
727.882	2220.52
728.072	2304.03
728.263	2291.43
728.453	2295.31
728.644	2287.56
728.834	2253.46
729.024	2274.38
729.215	2248.81
729.405	2286.39
729.596	2346.65
729.786	2353.63
729.976	2384.62
730.167	2355.37
730.357	2333.28
730.547	2375.91
730.737	2406.52
730.928	2452.63
731.118	2493.12
731.308	2423.57
731.498	2390.05
731.688	2502.23
731.879	2528.97
732.069	2575.66
732.259	2602.01
732.449	2626.03
732.639	2697.91
732.829	2727.94
733.019	2800.6
733.209	2837.41
733.399	2825.4
733.589	2895.15
733.779	2899.6
733.969	2917.43
734.159	2972.07
734.349	3031.35
734.539	3049.57
734.729	3027.48
734.919	3085.8
735.109	3179.18
735.299	3060.8
735.488	3101.68
735.678	3131.71
735.868	3092.58
736.058	3114.86
736.248	3066.42
736.437	3079.4
736.627	3042.59
736.817	3137.14
737.007	3108.27
737.196	3154.58
737.386	3115.25
737.576	3110.79
737.765	3195.07
737.955	3145.28
738.144	3295.62
738.334	3238.66
738.524	3212.12
738.713	3220.26
738.903	3222.19
739.092	3271.99
739.282	3265.79
739.471	3293.49
739.661	3243.12
739.85	3283.61
740.04	3269.47
740.229	3368.28
740.419	3396.76
740.608	3388.43
740.797	3308.8
740.987	3445.58
741.176	3419.62
741.365	3405.87
741.555	3329.72
741.744	3434.73
741.933	3409.55
742.123	3399.47
742.312	3426.02
742.501	3454.88
742.69	3484.33
742.88	3449.46
743.069	3524.63
743.258	3448.3
743.447	3561.45
743.636	3519.4
743.825	3529.28
744.014	3541.49
744.204	3554.28
744.393	3427.57
744.582	3595.35
744.771	3577.14
744.96	3509.52
745.149	3587.6
745.338	3528.9
745.527	3566.48
745.716	3551.56
745.905	3533.35
746.094	3590.89
746.283	3584.89
746.471	3549.05
746.66	3581.01
746.849	3619.38
747.038	3692.81
747.227	3556.6
747.416	3602.33
747.604	3589.15
747.793	3586.63
747.982	3619.76
748.171	3618.02
748.359	3578.3
748.548	3606.01
748.737	3600.78
748.926	3534.13
749.114	3508.75
749.303	3568.61
749.491	3561.06
749.68	3486.47
749.869	3631.78
750.057	3548.66
750.246	3582.18
750.434	3536.06
750.623	3530.45
750.811	3528.51
751	3555.83
751.188	3532.96
751.377	3525.99
751.565	3540.71
751.754	3466.12
751.942	3497.51
752.131	3550.01
752.319	3468.45
752.507	3473.87
752.696	3492.86
752.884	3533.93
753.072	3495.38
753.261	3556.6
753.449	3534.13
753.637	3508.36
753.825	3569.97
754.014	3532.58
754.202	3513.2
754.39	3528.31
754.578	3546.14
754.766	3464.77
754.955	3432.02
755.143	3541.88
755.331	3450.23
755.519	3468.06
755.707	3458.18
755.895	3420.01
756.083	3482.4
756.271	3384.55
756.459	3422.14
756.647	3442.68
756.835	3382.04
757.023	3423.3
757.211	3419.62
757.399	3372.35
757.587	3381.65
757.775	3333.21
757.963	3364.21
758.151	3374.48
758.339	3352.2
758.526	3323.52
758.714	3350.45
758.902	3234.59
759.09	3148.76
759.278	2958.7
759.465	2709.73
759.653	2382.88
759.841	2165.11
760.028	1822.95
760.216	1602.85
760.404	1488.93
760.591	1209.74
760.779	1009.79
760.967	856.73
761.154	708.52
761.342	724.99
761.529	718.59
761.717	786.99
761.905	749.2
762.092	825.54
762.28	782.72
762.467	748.04
762.655	669.77
762.842	697.67
763.029	707.55
763.217	727.89
763.404	712.78
763.592	721.11
763.779	726.54
763.966	736.8
764.154	782.72
764.341	846.85
764.528	843.37
764.716	912.15
764.903	952.06
765.09	1054.36
765.277	1096.98
765.465	1245.2
765.652	1276.78
765.839	1362.41
766.026	1472.08
766.213	1559.07
766.4	1680.35
766.588	1838.84
766.775	1859.38
766.962	1978.92
767.149	2073.85
767.336	2210.45
767.523	2199.98
767.71	2332.51
767.897	2424.92
768.084	2533.62
768.271	2525.87
768.458	2617.9
768.645	2691.71
768.832	2682.41
769.019	2684.93
769.206	2748.48
769.392	2790.53
769.579	2939.9
769.766	2888.56
769.953	2847.1
770.14	2929.44
770.327	2960.05
770.513	2979.82
770.7	3027.48
770.887	2914.91
771.073	2965.87
771.26	3005.39
771.447	2978.85
771.634	2958.5
771.82	3064.29
772.007	2939.52
772.193	3004.81
772.38	3030.77
772.567	2982.33
772.753	2980.78
772.94	3044.33
773.126	3038.52
773.313	3033.29
773.499	3030
773.686	3051.7
773.872	2977.1
774.059	3026.12
774.245	3010.62
774.432	2974
774.618	2927.12
774.804	2996.28
774.991	2949.2
775.177	2970.32
775.363	2922.27
775.55	2986.21
775.736	2916.07
775.922	2929.64
776.109	2994.54
776.295	2970.52
776.481	2983.3
776.667	2991.83
776.853	2951.34
777.04	2928.09
777.226	2911.04
777.412	3001.13
777.598	2892.05
777.784	2911.42
777.97	2888.56
778.156	2918.79
778.342	2935.84
778.528	2879.65
778.715	2841.48
778.901	2856.4
779.087	2904.84
779.272	2805.44
779.458	2818.81
779.644	2873.64
779.83	2804.86
780.016	2930.8
780.202	2837.61
780.388	2843.03
780.574	2700.82
780.76	2796.73
780.946	2820.56
781.131	2781.81
781.317	2798.86
781.503	2770.57
781.689	2800.6
781.874	2869.57
782.06	2760.88
782.246	2800.21
782.432	2802.15
782.617	2785.49
782.803	2805.83
782.989	2702.18
783.174	2704.11
783.36	2695.59
783.545	2747.13
783.731	2705.86
783.916	2630.3
784.102	2751.39
784.288	2665.75
784.473	2670.98
784.659	2683.77
784.844	2725.62
785.029	2633.59
785.215	2683.19
785.4	2632.23
785.586	2700.63
785.771	2626.03
785.956	2690.75
786.142	2600.27
786.327	2617.7
786.512	2621.97
786.698	2556.67
786.883	2562.48
787.068	2560.35
787.254	2584.38
787.439	2573.33
787.624	2539.04
787.809	2524.9
787.994	2526.84
788.18	2609.95
788.365	2483.44
788.55	2521.99
788.735	2524.12
788.92	2482.66
789.105	2454.37
789.29	2482.27
789.475	2435.97
789.66	2435.97
789.845	2385.79
790.03	2413.88
790.215	2459.22
790.4	2435
790.585	2486.92
790.77	2447.4
790.955	2366.03
791.14	2389.47
791.325	2485.37
791.51	2326.31
791.695	2430.16
791.879	2413.3
792.064	2354.98
792.249	2426.28
792.434	2348.01
792.618	2388.89
792.803	2436.16
792.988	2355.37
793.173	2383.46
793.357	2425.51
793.542	2373.77
793.727	2413.3
793.911	2430.16
794.096	2401.09
794.281	2389.47
794.465	2524.7
794.65	2427.25
794.834	2469.49
795.019	2469.29
795.203	2486.54
795.388	2513.47
795.572	2507.85
795.757	2461.93
795.941	2480.53
796.126	2436.74
796.31	2371.26
796.494	2475.69
796.679	2394.31
796.863	2348.59
797.048	2423.18
797.232	2391.79
797.416	2417.95
797.601	2428.41
797.785	2484.4
797.969	2477.82
798.153	2409.04
798.338	2472.97
798.522	2474.33
798.706	2458.25
798.89	2493.12
799.074	2569.27
799.258	2517.34
799.443	2509.79
799.627	2500.1
799.811	2514.44
799.995	2429.77
800.179	2440.81
800.363	2411.17
800.547	2476.07
800.731	2491.96
800.915	2405.16
801.099	2424.15
801.283	2431.12
801.467	2423.57
801.651	2436.16
801.835	2482.85
802.019	2436.16
802.202	2452.24
802.386	2392.37
802.57	2392.96
802.754	2404.58
802.938	2407.29
803.121	2374.74
803.305	2470.65
803.489	2382.88
803.673	2387.72
803.856	2432.29
804.04	2406.71
804.224	2493.7
804.407	2398.57
804.591	2460.96
804.775	2430.16
804.958	2429.19
805.142	2523.15
805.326	2447.21
805.509	2474.91
805.693	2488.67
805.876	2505.52
806.06	2452.05
806.243	2470.65
806.427	2497.39
806.61	2484.6
806.794	2449.53
806.977	2519.47
807.16	2496.8
807.344	2495.84
807.527	2431.32
807.71	2440.04
807.894	2414.66
808.077	2488.09
808.26	2448.56
808.444	2394.12
808.627	2475.49
808.81	2415.43
808.993	2361.18
809.177	2329.6
809.36	2415.82
809.543	2361.18
809.726	2306.16
809.909	2314.88
810.092	2301.12
810.276	2299.38
810.459	2294.53
810.642	2265.86
810.825	2241.64
811.008	2279.81
811.191	2154.84
811.374	2150.58
811.557	2195.91
811.74	2242.03
811.923	2127.33
812.106	2119.19
812.289	2092.26
812.472	2106.6
812.654	2114.54
812.837	2083.15
813.02	2016.31
813.203	1964.97
813.386	1891.54
813.569	1873.71
813.751	1847.17
813.934	1838.65
814.117	1808.61
814.3	1818.5
814.482	1742.93
814.665	1693.53
814.848	1698.57
815.03	1634.24
815.213	1666.6
815.396	1651.29
815.578	1559.65
815.761	1538.53
815.943	1646.64
816.126	1512.96
816.309	1468.2
816.491	1439.14
816.674	1373.07
816.856	1451.15
817.039	1457.16
817.221	1510.24
817.403	1488.74
817.586	1471.11
817.768	1485.44
817.951	1402.33
818.133	1376.56
818.315	1434.68
818.498	1486.22
818.68	1492.03
818.862	1507.34
819.045	1506.95
819.227	1491.06
819.409	1506.76
819.591	1528.65
819.774	1463.94
819.956	1491.64
820.138	1532.14
820.32	1557.32
820.502	1593.36
820.684	1655.94
820.866	1669.5
821.048	1735.96
821.231	1737.7
821.413	1696.24
821.595	1671.05
821.777	1688.88
821.959	1693.14
822.141	1699.34
822.323	1640.83
822.505	1563.91
822.686	1533.11
822.868	1464.33
823.05	1341.49
823.232	1291.12
823.414	1283.75
823.596	1326.57
823.778	1315.72
823.96	1315.72
824.141	1349.05
824.323	1362.61
824.505	1451.93
824.687	1484.09
824.868	1513.54
825.05	1641.22
825.232	1649.74
825.413	1752.04
825.595	1637.15
825.777	1616.42
825.958	1645.87
826.14	1644.7
826.321	1688.88
826.503	1668.92
826.685	1682.68
826.866	1737.12
827.048	1709.8
827.229	1680.93
827.411	1599.37
827.592	1518.19
827.773	1547.25
827.955	1502.69
828.136	1487.38
828.318	1448.24
828.499	1526.71
828.68	1445.73
828.862	1451.93
829.043	1483.31
829.224	1473.24
829.406	1463.55
829.587	1448.05
829.768	1469.94
829.949	1493.97
830.131	1468.2
830.312	1546.67
830.493	1504.62
830.674	1514.89
830.855	1510.44
831.036	1481.76
831.218	1522.45
831.399	1544.15
831.58	1492.23
831.761	1509.08
831.942	1523.22
832.123	1502.3
832.304	1444.56
832.485	1457.16
832.666	1465.1
832.847	1535.24
833.028	1480.79
833.209	1511.41
833.389	1485.44
833.57	1418.02
833.751	1444.56
833.932	1535.24
834.113	1492.03
834.294	1487.38
834.475	1526.32
834.655	1536.4
834.836	1546.09
835.017	1507.92
835.198	1483.7
835.378	1506.76
835.559	1558.68
835.74	1488.35
835.92	1509.86
836.101	1490.48
836.281	1553.06
836.462	1539.5
836.643	1552.09
836.823	1567.98
837.004	1566.82
837.184	1618.16
837.365	1572.05
837.545	1587.35
837.726	1534.07
837.906	1600.72
838.087	1575.73
838.267	1544.92
838.448	1556.74
838.628	1588.71
838.808	1563.14
838.989	1629.79
839.169	1516.83
839.349	1590.26
839.53	1601.3
839.71	1632.69
839.89	1572.24
840.07	1638.89
840.251	1550.93
840.431	1630.17
840.611	1575.73
840.791	1530.2
840.971	1551.9
841.151	1565.46
841.332	1527.1
841.512	1594.33
841.692	1519.93
841.872	1549.38
842.052	1563.33
842.232	1583.09
842.412	1488.74
842.592	1580.19
842.772	1580.77
842.952	1591.42
843.132	1543.37
843.312	1514.12
843.492	1497.65
843.672	1570.69
843.851	1482.15
844.031	1536.59
844.211	1531.17
844.391	1501.91
844.571	1543.57
844.751	1539.5
844.93	1515.67
845.11	1508.5
845.29	1521.48
845.47	1553.06
845.649	1524
845.829	1567.4
846.009	1523.03
846.188	1568.37
846.368	1531.75
846.547	1515.47
846.727	1500.94
846.907	1476.53
847.086	1540.86
847.266	1578.06
847.445	1535.82
847.625	1511.21
847.804	1473.24
847.984	1495.32
848.163	1489.71
848.343	1437.01
848.522	1481.18
848.701	1518.57
848.881	1499.2
849.06	1468.98
849.239	1482.54
849.419	1470.14
849.598	1444.76
849.777	1416.66
849.957	1403.88
850.136	1364.35
850.315	1323.08
850.494	1346.14
850.674	1366.1
850.853	1388.38
851.032	1386.44
851.211	1456.38
851.39	1399.81
851.569	1347.3
851.748	1360.48
851.927	1352.73
852.107	1389.93
852.286	1338.39
852.465	1326.38
852.644	1413.56
852.823	1387.6
853.002	1358.93
853.181	1313.4
853.359	1381.6
853.538	1291.5
853.717	1391.28
853.896	1265.35
854.075	1203.54
854.254	1214.78
854.433	1150.65
854.611	1202.38
854.79	1158.98
854.969	1196.76
855.148	1231.63
855.327	1189.2
855.505	1200.25
855.684	1224.08
855.863	1250.04
856.041	1239
856.22	1264.96
856.399	1241.71
856.577	1316.88
856.756	1308.36
856.934	1418.41
857.113	1400.39
857.291	1325.6
857.47	1302.16
857.648	1289.37
857.827	1333.16
858.005	1344.78
858.184	1301.58
858.362	1374.62
858.541	1287.43
858.719	1321.53
858.898	1296.35
859.076	1298.09
859.254	1360.67
859.433	1280.85
859.611	1294.6
859.789	1266.9
859.967	1332
860.146	1343.04
860.324	1250.43
860.502	1282.78
860.68	1254.88
860.859	1251.78
861.037	1258.95
861.215	1273.68
861.393	1276.2
861.571	1267.09
861.749	1236.87
861.927	1288.98
862.105	1284.14
862.283	1247.52
862.461	1221.95
862.639	1217.49
862.817	1249.46
862.995	1221.75
863.173	1221.17
863.351	1234.35
863.529	1247.13
863.707	1279.3
863.885	1235.9
864.063	1177.77
864.241	1203.93
864.418	1291.31
864.596	1228.73
864.774	1162.08
864.952	1204.32
865.129	1241.52
865.307	1166.54
865.485	1118.87
865.663	1184.75
865.84	1174.29
866.018	1179.32
866.196	1031.49
866.373	1074.7
866.551	1041.38
866.728	973.56
866.906	1011.34
867.084	1057.46
867.261	1083.22
867.439	1075.28
867.616	1125.07
867.794	1080.12
867.971	1104.92
868.149	1105.51
868.326	1172.35
868.503	1172.93
868.681	1122.36
868.858	1125.27
869.035	1063.46
869.213	1169.05
869.39	1101.63
869.567	1146.19
869.745	1082.84
869.922	1118.49
870.099	1145.03
870.276	1172.35
870.454	1108.8
870.631	1152.39
870.808	1101.63
870.985	1134.96
871.162	1184.75
871.339	1142.12
871.517	1066.76
871.694	1095.24
871.871	1096.21
872.048	1093.11
872.225	1087.87
872.402	1088.46
872.579	1052.42
872.756	1112.48
872.933	1073.34
873.11	1072.96
873.287	1084.39
873.463	1043.51
873.64	1028.39
873.817	1061.33
873.994	1043.31
874.171	1015.8
874.348	1083.22
874.524	1013.09
874.701	1045.06
874.878	1003.59
875.055	1040.02
875.231	1034.98
875.408	1064.24
875.585	972.79
875.762	1017.54
875.938	1024.33
876.115	1048.74
876.291	1007.66
876.468	1025.1
876.645	957.48
876.821	1005.34
876.998	1020.84
877.174	1019.48
877.351	982.09
877.527	993.71
877.704	1021.81
877.88	998.56
878.057	970.66
878.233	1014.06
878.409	1001.85
878.586	986.16
878.762	962.91
878.938	983.06
879.115	918.54
879.291	952.06
879.467	928.03
879.644	966.98
879.82	959.23
879.996	961.94
880.172	921.06
880.349	929.39
880.525	964.85
880.701	941.79
880.877	922.41
881.053	977.44
881.229	935.2
881.405	997.59
881.581	911.56
881.757	917.18
881.933	928.42
882.109	965.04
882.285	952.06
882.461	862.35
882.637	946.83
882.813	915.63
882.989	921.06
883.165	966.98
883.341	902.65
883.517	970.08
883.693	950.12
883.869	966.01
884.044	900.13
884.22	949.93
884.396	939.27
884.572	950.9
884.747	958.84
884.923	949.73
885.099	960.39
885.275	971.24
885.45	919.7
885.626	946.25
885.801	905.17
885.977	923.19
886.153	869.72
886.328	945.08
886.504	901.1
886.679	941.01
886.855	893.16
887.03	946.05
887.206	948.96
887.381	948.18
887.557	930.75
887.732	947.41
887.908	928.42
888.083	952.45
888.258	921.25
888.434	905.36
888.609	931.71
888.784	952.64
888.96	895.87
889.135	908.46
889.31	929.97
889.485	938.88
889.661	907.5
889.836	955.35
890.011	923
890.186	923.19
890.361	902.65
890.537	910.4
890.712	952.25
890.887	918.15
891.062	901.3
891.237	981.31
891.412	923.38
891.587	923.96
891.762	967.75
891.937	957.68
892.112	873.01
892.287	912.15
892.462	870.3
892.637	831.35
892.812	848.98
892.987	856.93
893.161	832.71
893.336	820.12
893.511	860.61
893.686	856.35
893.861	845.3
894.035	816.82
894.21	805.78
894.385	808.68
894.56	832.13
894.734	750.75
894.909	754.82
895.084	749.59
895.258	701.74
895.433	757.54
895.608	717.82
895.782	681.2
895.957	717.62
896.131	681.59
896.306	629.66
896.48	642.06
896.655	614.36
896.829	575.41
897.004	590.14
897.178	591.3
897.353	597.89
897.527	626.37
897.701	603.51
897.876	573.67
898.05	670.35
898.224	625.01
898.399	634.7
898.573	580.26
898.747	510.9
898.921	579.48
899.096	474.28
899.27	473.7
899.444	469.43
899.618	537.24
899.792	552.36
899.967	532.4
900.141	544.99
900.315	496.56
900.489	527.75
900.663	533.37
900.837	534.92
901.011	486.68
901.185	542.67
901.359	503.73
901.533	499.08
901.707	505.66
901.881	513.8
902.055	476.21
902.229	500.63
902.403	563.79
902.576	480.09
902.75	542.48
902.924	661.05
903.098	584.91
903.272	606.22
903.446	664.15
903.619	615.13
903.793	643.61
903.967	632.18
904.14	682.94
904.314	657.37
904.488	644.19
904.661	669.77
904.835	681.78
905.009	689.14
905.182	712.59
905.356	662.79
905.529	660.66
905.703	645.74
905.876	619.01
906.05	581.42
906.223	588.78
906.397	543.83
906.57	513.61
906.744	515.16
906.917	503.34
907.09	511.48
907.264	508.18
907.437	508.57
907.61	442.12
907.784	480.86
907.957	495.01
908.13	465.75
908.304	527.17
908.477	458.97
908.65	449.28
908.823	406.27
908.996	515.74
909.17	449.28
909.343	442.89
909.516	463.43
909.689	453.93
909.862	438.24
910.035	457.42
910.208	394.26
910.381	435.33
910.554	509.35
910.727	425.84
910.9	428.94
911.073	384.96
911.246	509.15
911.419	473.7
911.592	495.2
911.765	457.03
911.938	435.72
912.11	443.28
912.283	456.26
912.456	492.1
912.629	444.63
912.802	411.12
912.974	367.13
913.147	365.78
913.32	325.29
913.493	368.3
913.665	371.4
913.838	407.63
914.01	403.17
914.183	392.9
914.356	394.65
914.528	444.83
914.701	454.13
914.873	458.97
915.046	386.12
915.218	341.37
915.391	323.54
915.563	342.53
915.736	340.79
915.908	389.61
916.081	389.22
916.253	374.69
916.425	401.04
916.598	413.44
916.77	380.5
916.942	358.8
917.115	299.52
917.287	369.46
917.459	329.74
917.632	294.87
917.804	295.06
917.976	351.44
918.148	352.22
918.32	344.08
918.493	396.97
918.665	420.22
918.837	372.75
919.009	440.76
919.181	434.75
919.353	389.42
919.525	420.03
919.697	423.9
919.869	414.22
920.041	443.28
920.213	510.31
920.385	466.91
920.557	431.07
920.729	447.35
920.901	433.78
921.073	404.53
921.244	374.5
921.416	420.61
921.588	405.11
921.76	395.42
921.932	477.96
922.103	393.29
922.275	425.84
922.447	439.79
922.619	333.81
922.79	390
922.962	378.18
923.134	444.25
923.305	388.64
923.477	341.95
923.648	354.74
923.82	367.13
923.991	319.47
924.163	295.84
924.335	357.25
924.506	322.77
924.677	383.6
924.849	335.55
925.02	378.76
925.192	369.85
925.363	335.17
925.535	351.64
925.706	362.87
925.877	385.93
926.049	323.54
926.22	352.6
926.391	380.5
926.562	371.59
926.734	314.44
926.905	396.97
927.076	325.87
927.247	334.39
927.419	279.17
927.59	275.88
927.761	295.84
927.932	283.05
928.103	293.7
928.274	230.54
928.445	237.91
928.616	266
928.787	232.87
928.958	266.19
929.129	231.51
929.3	222.6
929.471	185.4
929.642	157.11
929.813	131.73
929.984	202.26
930.155	126.11
930.326	169.51
930.496	171.26
930.667	126.31
930.838	149.36
931.009	111.58
931.18	128.44
931.35	117.2
931.521	111.19
931.692	90.85
931.863	51.33
932.033	92.21
932.204	121.27
932.374	96.47
932.545	34.66
932.716	105.58
932.886	92.4
933.057	31.37
933.227	36.41
933.398	119.53
933.568	21.3
933.739	-9.7
933.909	39.7
934.08	79.42
934.25	-9.51
934.421	-2.34
934.591	58.3
934.761	5.22
934.932	-0.79
935.102	28.46
935.272	18.78
935.443	23.04
935.613	43.96
935.783	26.53
935.953	6.18
936.123	141.03
936.294	0.37
936.464	-3.5
936.634	45.32
936.804	3.86
936.974	-19.78
937.144	57.91
937.314	26.14
937.484	17.61
937.655	-6.41
937.825	62.56
937.995	12.77
938.165	67.41
938.334	30.21
938.504	47.45
938.674	19.94
938.844	35.83
939.014	98.6
939.184	84.07
939.354	140.06
939.524	116.04
939.694	61.21
939.863	50.36
940.033	119.33
940.203	103.25
940.373	93.18
940.542	86.98
940.712	50.16
940.882	97.24
941.051	90.66
941.221	100.34
941.391	113.33
941.56	45.13
941.73	59.66
941.899	142.97
942.069	41.06
942.238	89.5
942.408	37.18
942.577	100.34
942.747	58.69
942.916	27.88
943.086	27.3
943.255	90.85
943.425	63.73
943.594	54.62
943.763	14.32
943.933	26.33
944.102	-23.27
944.271	29.43
944.441	67.21
944.61	39.12
944.779	59.27
944.948	123.98
945.117	25.17
945.287	46.48
945.456	-10.28
945.625	24.78
945.794	58.11
945.963	38.15
946.132	44.74
946.301	32.73
946.47	40.28
946.639	27.3
946.808	24.78
946.977	47.84
947.146	104.22
947.315	50.36
947.484	48.42
947.653	42.61
947.822	0.18
947.991	18
948.16	119.33
948.329	84.65
948.498	7.15
948.666	32.92
948.835	64.89
949.004	5.99
949.173	6.96
949.341	60.63
949.51	76.51
949.679	64.11
949.847	73.22
950.016	123.59
950.185	62.76
950.353	44.74
950.522	47.26
950.69	89.11
950.859	55.4
951.028	86.2
951.196	58.88
951.365	30.79
951.533	37.18
951.701	72.45
951.87	79.23
952.038	58.69
952.207	44.35
952.375	117.98
952.543	40.09
952.712	52.49
952.88	42.41
953.048	86.59
953.217	72.64
953.385	49.97
953.553	91.05
953.721	11.61
953.89	43.77
954.058	33.31
954.226	26.53
954.394	42.03
954.562	24.01
954.73	58.88
954.898	50.55
955.067	86.78
955.235	37.96
955.403	96.66
955.571	109.84
955.739	70.12
955.907	4.25
956.075	60.24
956.243	16.45
956.41	53.26
956.578	19.55
956.746	11.03
956.914	53.26
957.082	74
957.25	91.43
957.418	58.11
957.585	47.45
957.753	106.74
957.921	32.92
958.089	58.88
958.256	80
958.424	46.87
958.592	61.4
958.759	32.73
958.927	50.16
959.095	35.83
959.262	52.3
959.43	63.34
959.597	24.4
959.765	43.96
959.932	17.03
960.1	70.9
960.267	43.19
960.435	77.29
960.602	77.29
960.77	33.31
960.937	36.02
961.104	68.96
961.272	18.58
961.439	47.26
961.606	71.86
961.774	77.87
961.941	48.61
962.108	74.58
962.275	62.37
962.443	104.8
962.61	77.48
962.777	117.98
962.944	81.36
963.111	64.11
963.278	65.86
963.446	81.36
963.613	77.87
963.78	95.11
963.947	56.75
964.114	79.81
964.281	121.27
964.448	106.93
964.615	51.13
964.782	89.11
964.949	121.46
965.116	76.13
965.282	113.91
965.449	72.64
965.616	30.6
965.783	79.23
965.95	67.21
966.117	33.89
966.283	76.32
966.45	60.82
966.617	40.67
966.784	110.03
966.95	115.07
967.117	91.63
967.284	46.1
967.45	59.66
967.617	127.86
967.784	64.11
967.95	143.74
968.117	66.63
968.283	121.85
968.45	150.53
968.616	98.79
968.783	123.59
968.949	100.93
969.116	117.98
969.282	69.73
969.449	113.13
969.615	105.96
969.781	59.66
969.948	71.28
970.114	58.88
970.28	132.51
970.447	95.89
970.613	123.79
970.779	76.32
970.945	106.74
971.112	82.71
971.278	89.88
971.444	87.95
971.61	148.98
971.776	90.08
971.942	93.18
972.108	124.76
972.275	59.85
972.441	94.15
972.607	140.84
972.773	76.32
972.939	117.2
973.105	58.5
973.271	51.33
973.437	50.94
973.602	49.39
973.768	111.58
973.934	66.05
974.1	74
974.266	15.87
974.432	72.64
974.598	70.7
974.763	104.03
974.929	69.93
975.095	92.21
975.261	69.93
975.426	97.24
975.592	73.22
975.758	137.16
975.923	34.66
976.089	55.4
976.255	83.68
976.42	108.87
976.586	91.43
976.751	93.76
976.917	123.98
977.082	94.73
977.248	41.06
977.413	36.02
977.579	71.48
977.744	68.96
977.91	39.31
978.075	81.55
978.24	104.99
978.406	64.31
978.571	65.28
978.736	37.96
978.902	116.43
979.067	53.46
979.232	47.45
979.397	63.53
979.563	136.38
979.728	42.41
979.893	63.73
980.058	62.76
980.223	76.13
980.388	56.36
980.554	67.99
980.719	52.3
980.884	80
981.049	100.54
981.214	46.68
981.379	88.53
981.544	40.28
981.709	71.86
981.874	50.16
982.039	67.8
982.204	70.7
982.368	69.15
982.533	41.83
982.698	111.58
982.863	94.53
983.028	58.11
983.193	94.34
983.357	84.65
983.522	72.83
983.687	70.31
983.852	109.06
984.016	62.95
984.181	62.76
984.346	112.74
984.51	78.84
984.675	57.91
984.839	99.18
985.004	101.7
985.168	102.28
985.333	97.83
985.498	85.04
985.662	83.49
985.827	99.38
985.991	93.56
986.155	75.35
986.32	94.53
986.484	107.71
986.649	118.36
986.813	27.88
986.977	70.12
987.142	86.98
987.306	70.31
987.47	50.16
987.634	54.23
987.799	65.86
987.963	84.46
988.127	89.3
988.291	125.53
988.455	64.5
988.62	55.59
988.784	100.34
988.948	104.99
989.112	47.84
989.276	80.97
989.44	56.75
989.604	28.46
989.768	92.79
989.932	133.28
990.096	51.91
990.26	30.4
990.424	52.88
990.588	76.13
990.752	145.1
990.915	99.96
991.079	51.13
991.243	48.42
991.407	98.41
991.571	67.02
991.734	52.68
991.898	96.66
992.062	137.16
992.226	64.11
992.389	63.73
992.553	8.9
992.717	67.99
992.88	55.2
993.044	56.17
993.207	53.65
993.371	96.86
993.535	75.16
993.698	95.31
993.862	98.6
994.025	93.37
994.189	72.45
994.352	70.7
994.515	63.53
994.679	102.28
994.842	83.3
995.006	109.84
995.169	56.36
995.332	57.91
995.496	70.51
995.659	12.19
995.822	50.36
995.985	75.35
996.149	106.35
996.312	55.98
996.475	108.29
996.638	55.98
996.801	105.58
996.964	127.08
997.128	81.55
997.291	53.07
997.454	61.21
997.617	24.2
997.78	92.01
997.943	45.9
998.106	73.03
998.269	33.89
998.432	44.93
998.595	57.72
998.758	19.75
998.92	25.95
999.083	2.31
999.246	59.46
999.409	27.88
999.572	25.56
999.735	41.64
999.897	70.9
1000.06	36.6
1000.223	51.71
1000.386	44.35
1000.548	71.67
1000.711	76.9
1000.874	67.02
1001.036	14.13
1001.199	77.68
1001.361	15.1
1001.524	50.75
1001.687	75.35
1001.849	28.08
1002.012	51.52
1002.174	55.4
1002.337	62.37
1002.499	36.6
1002.661	75.35
1002.824	1.53
1002.986	43.58
1003.149	47.06
1003.311	0.95
1003.473	100.15
1003.636	35.63
1003.798	83.88
1003.96	51.91
1004.123	41.06
1004.285	40.48
1004.447	37.96
1004.609	34.08
1004.771	97.05
1004.933	18.39
1005.096	21.68
1005.258	15.29
1005.42	23.23
1005.582	76.9
1005.744	44.55
1005.906	2.31
1006.068	59.27
1006.23	26.33
1006.392	19.16
1006.554	29.63
1006.716	59.08
1006.878	37.57
1007.04	4.44
1007.202	9.28
1007.363	49.78
1007.525	32.15
1007.687	34.28
1007.849	74.19
1008.011	-23.46
1008.172	6.77
1008.334	51.71
1008.496	54.23
1008.658	-14.55
1008.819	-11.83
1008.981	-10.87
1009.143	9.67
1009.304	14.71
1009.466	53.65
1009.627	86.4
1009.789	118.75
1009.95	44.55
1010.112	11.61
1010.273	48.81
1010.435	13.55
1010.596	3.67
1010.758	16.65
1010.919	23.62
1011.081	-5.83
1011.242	36.02
1011.403	55.98
1011.565	34.86
1011.726	50.94
1011.887	-7.57
1012.049	22.07
1012.21	59.08
1012.371	85.04
1012.532	-37.02
1012.693	41.83
1012.855	-1.95
1013.016	17.03
1013.177	53.65
1013.338	24.4
1013.499	88.33
1013.66	35.44
1013.821	68.57
1013.982	65.28
1014.143	32.92
1014.304	40.48
1014.465	62.56
1014.626	65.86
1014.787	-0.6
1014.948	92.98
1015.109	-40.51
1015.27	81.36
1015.431	10.64
1015.592	22.26
1015.752	75.35
1015.913	32.34
1016.074	40.67
1016.235	18.2
1016.395	6.18
1016.556	38.35
1016.717	18.2
1016.877	85.81
1017.038	5.22
1017.199	16.45
1017.359	20.71
1017.52	27.88
1017.681	27.11
1017.841	17.42
1018.002	29.63
1018.162	2.5
1018.323	59.85
1018.483	4.25
1018.644	1.92
1018.804	-1.95
1018.964	-1.57
1019.125	-7.18
1019.285	31.37
1019.446	-0.98
1019.606	-19
1019.766	-34.89
1019.926	5.02
1020.087	26.91
1020.247	-28.5
1020.407	60.05
1020.567	72.06
1020.728	43.38
1020.888	2.12
1021.048	-5.44
1021.208	1.15
1021.368	8.9
1021.528	67.41
1021.688	53.07
1021.848	46.48
1022.008	25.56
1022.168	14.32
1022.328	21.68
1022.488	17.23
1022.648	-8.54
1022.808	4.44
1022.968	27.11
1023.128	-24.04
1023.288	-20.36
1023.448	10.06
1023.608	41.45
1023.767	12.38
1023.927	-11.45
1024.087	-22.1
1024.247	-27.92
1024.406	2.31
1024.566	-9.51
1024.726	-7.18
1024.885	13.93
1025.045	42.03
1025.205	22.65
1025.364	4.05
1025.524	24.2
1025.683	-7.96
1025.843	33.5
1026.003	1.53
1026.162	64.89
1026.321	34.47
1026.481	8.51
1026.64	-12.22
1026.8	24.98
1026.959	17.61
1027.119	12.58
1027.278	3.47
1027.437	-0.4
1027.597	5.6
1027.756	16.84
1027.915	39.12
1028.074	17.81
1028.234	0.76
1028.393	25.36
1028.552	19.16
1028.711	-69.96
1028.87	27.11
1029.03	-16.48
1029.189	12.96
1029.348	-59.11
1029.507	-10.09
1029.666	-0.98
1029.825	-22.49
1029.984	-4.47
1030.143	-5.63
1030.302	8.12
1030.461	-31.02
1030.62	-3.7
1030.779	44.16
1030.938	13.55
1031.097	-23.46
1031.255	33.7
1031.414	14.9
1031.573	30.98
1031.732	-49.62
1031.891	-1.57
1032.049	44.93
1032.208	31.76
1032.367	-15.52
1032.525	16.06
1032.684	8.7
1032.843	12
1033.001	-19.78
1033.16	111.78
1033.319	56.17
1033.477	30.21
1033.636	-7.96
1033.794	-31.98
1033.953	45.71
1034.111	14.13
1034.27	-11.83
1034.428	22.26
1034.587	-36.63
1034.745	18.78
1034.903	35.25
1035.062	22.46
1035.22	-36.63
1035.378	37.96
1035.537	-11.06
1035.695	31.56
1035.853	2.12
1036.011	53.46
1036.17	13.93
1036.328	-38.96
1036.486	5.41
1036.644	2.5
1036.802	-63.37
1036.96	-7.57
1037.119	-4.86
1037.277	-1.18
1037.435	-36.63
1037.593	-24.62
1037.751	7.54
1037.909	37.18
1038.067	37.18
