Data from gum_young_FLMT105791__130__17-40-58-040.txt Node

Date: Mon Mar 20 17:40:58 GMT 2023
User: antho
Spectrometer: FLMT10579
Trigger mode: 0
Integration Time (sec): 1.000000E-1
Scans to average: 10
Electric dark correction enabled: true
Nonlinearity correction enabled: false
Boxcar width: 0
XAxis mode: Wavelengths
Number of Pixels in Spectrum: 3648
>>>>>Begin Spectral Data<<<<<
345.248	-131.84
345.464	-131.84
345.681	-131.84
345.898	-148.31
346.114	-136.3
346.331	-6.68
346.548	27.61
346.764	-19.28
346.981	8.43
347.197	-6.3
347.414	19.67
347.631	-42.14
347.847	66.75
348.064	1.84
348.28	20.05
348.497	-62.48
348.713	-7.46
348.93	32.26
349.146	34.58
349.363	-7.07
349.579	26.45
349.796	2.62
350.012	15.21
350.229	45.05
350.445	19.86
350.661	-12.11
350.878	2.62
351.094	32.07
351.311	-0.48
351.527	36.33
351.743	-18.7
351.96	43.88
352.176	21.8
352.392	25.28
352.609	13.27
352.825	-4.75
353.041	-0.68
353.257	30.71
353.474	23.54
353.69	13.27
353.906	51.25
354.122	-26.06
354.339	45.24
354.555	10.95
354.771	10.17
354.987	40.98
355.203	71.78
355.42	2.42
355.636	3.58
355.852	-12.3
356.068	1.07
356.284	-9.4
356.5	57.64
356.716	23.73
356.932	-6.49
357.148	37.68
357.364	21.22
357.58	40.01
357.796	37.49
358.012	32.45
358.228	24.32
358.444	-74.88
358.66	64.61
358.876	38.27
359.092	-18.5
359.308	39.82
359.524	45.82
359.74	1.45
359.956	7.27
360.172	27.8
360.388	49.7
360.604	2.62
360.819	75.27
361.035	14.82
361.251	49.31
361.467	11.72
361.683	38.07
361.898	13.66
362.114	53.57
362.33	1.45
362.546	49.31
362.762	38.27
362.977	9.01
363.193	-0.1
363.409	65.78
363.624	-6.3
363.84	-11.92
364.056	3
364.271	24.12
364.487	34.58
364.703	32.07
364.918	-3
365.134	-3.39
365.35	2.62
365.565	102.4
365.781	8.43
365.996	36.52
366.212	82.83
366.427	20.83
366.643	2.62
366.858	14.63
367.074	-0.68
367.289	69.26
367.505	95.81
367.72	-4.55
367.936	-19.28
368.151	52.21
368.367	7.07
368.582	23.35
368.798	8.82
369.013	63.26
369.228	14.24
369.444	20.83
369.659	60.74
369.874	35.17
370.09	65
370.305	-37.3
370.52	-11.14
370.736	39.62
370.951	12.5
371.166	49.11
371.381	79.15
371.597	59.96
371.812	5.52
372.027	4.17
372.242	34.2
372.458	98.33
372.673	25.67
372.888	0.48
373.103	60.35
373.318	101.43
373.533	26.64
373.749	28.97
373.964	-20.05
374.179	68.88
374.394	27.61
374.609	74.3
374.824	-3.58
375.039	78.18
375.254	31.1
375.469	86.51
375.684	41.17
375.899	83.02
376.114	-9.4
376.329	34.97
376.544	67.91
376.759	55.12
376.974	22.96
377.189	26.83
377.404	34.58
377.619	62.68
377.834	-16.76
378.049	-15.4
378.264	3.97
378.478	47.18
378.693	-3.78
378.908	71.59
379.123	30.71
379.338	79.15
379.553	34
379.767	28.38
379.982	55.51
380.197	65.58
380.412	46.98
380.626	46.4
380.841	135.33
381.056	54.54
381.271	78.95
381.485	-2.62
381.7	-0.87
381.915	44.85
382.129	26.25
382.344	68.3
382.559	20.25
382.773	66.55
382.988	-15.79
383.202	55.31
383.417	20.05
383.632	107.82
383.846	29.93
384.061	45.24
384.275	23.15
384.49	69.26
384.704	60.35
384.919	57.06
385.133	40.98
385.348	59.77
385.562	18.5
385.777	73.33
385.991	17.73
386.206	20.44
386.42	18.5
386.634	80.5
386.849	74.11
387.063	54.73
387.277	15.6
387.492	43.69
387.706	17.73
387.92	26.06
388.135	43.3
388.349	46.01
388.563	40.78
388.778	20.44
388.992	43.88
389.206	65.58
389.42	75.08
389.635	42.33
389.849	64.23
390.063	80.7
390.277	60.93
390.491	99.68
390.706	65.2
390.92	68.1
391.134	40.01
391.348	82.44
391.562	-11.92
391.776	55.12
391.99	10.17
392.205	77.6
392.419	21.8
392.633	42.14
392.847	110.73
393.061	11.14
393.275	83.21
393.489	67.71
393.703	44.27
393.917	77.01
394.131	37.49
394.345	69.26
394.559	81.47
394.773	38.07
394.986	65.78
395.2	30.71
395.414	67.71
395.628	28.38
395.842	82.05
396.056	59.77
396.27	24.12
396.484	68.88
396.697	20.25
396.911	105.69
397.125	70.81
397.339	72.17
397.553	75.27
397.766	110.15
397.98	73.91
398.194	101.04
398.408	41.56
398.621	75.08
398.835	69.65
399.049	89.22
399.262	85.73
399.476	102.4
399.69	113.44
399.903	153.35
400.117	94.65
400.331	68.3
400.544	63.65
400.758	190.74
400.971	77.4
401.185	113.83
401.398	64.61
401.612	127.97
401.826	111.5
402.039	106.08
402.253	74.5
402.466	100.85
402.68	84.96
402.893	112.86
403.106	94.45
403.32	75.85
403.533	99.49
403.747	78.56
403.96	104.72
404.174	128.36
404.387	72.95
404.6	110.92
404.814	122.74
405.027	114.41
405.24	88.45
405.454	87.86
405.667	126.42
405.88	49.7
406.094	88.06
406.307	131.07
406.52	103.75
406.733	65
406.947	59.58
407.16	147.73
407.373	129.91
407.586	70.04
407.799	83.41
408.012	146.18
408.226	142.69
408.439	152.19
408.652	58.61
408.865	138.04
409.078	141.53
409.291	113.05
409.504	86.9
409.717	150.25
409.93	135.53
410.143	122.74
410.357	89.8
410.57	65.78
410.783	78.76
410.996	108.01
411.209	115.57
411.421	165.56
411.634	106.27
411.847	91.55
412.06	111.7
412.273	146.38
412.486	128.55
412.699	190.16
412.912	150.83
413.125	148.12
413.338	135.91
413.55	154.13
413.763	129.91
413.976	171.37
414.189	131.65
414.402	117.9
414.615	185.9
414.827	116.35
415.04	189.78
415.253	158.78
415.466	173.69
415.678	223.49
415.891	133.39
416.104	136.3
416.316	124.48
416.529	148.7
416.742	181.64
416.954	174.86
417.167	139.21
417.38	141.53
417.592	177.57
417.805	105.5
418.017	104.14
418.23	170.21
418.442	128.94
418.655	146.96
418.868	160.71
419.08	193.65
419.293	181.06
419.505	166.33
419.718	155.09
419.93	199.46
420.142	141.73
420.355	216.9
420.567	188.42
420.78	159.74
420.992	138.43
421.205	207.02
421.417	128.55
421.629	145.99
421.842	132.62
422.054	134.94
422.266	198.3
422.479	203.73
422.691	136.11
422.903	181.64
423.115	135.33
423.328	170.21
423.54	161.68
423.752	158
423.964	141.73
424.177	176.79
424.389	145.79
424.601	253.52
424.813	176.79
425.025	199.66
425.238	222.52
425.45	178.34
425.662	152.38
425.874	438.16
426.086	167.88
426.298	216.32
426.51	186.68
426.722	168.66
426.934	164.98
427.146	183.38
427.358	148.7
427.57	210.31
427.782	170.21
427.994	154.9
428.206	177.96
428.418	146.57
428.63	226.39
428.842	218.84
429.054	194.62
429.266	225.62
429.478	151.03
429.69	173.89
429.902	106.85
430.114	171.95
430.325	175.44
430.537	114.41
430.749	158.39
430.961	116.15
431.173	133.98
431.384	174.66
431.596	91.55
431.808	157.42
432.02	198.11
432.231	220
432.443	232.01
432.655	213.8
432.867	191.91
433.078	209.15
433.29	261.27
433.502	227.94
433.713	228.52
433.925	222.71
434.136	268.05
434.348	155.48
434.56	154.32
434.771	297.11
434.983	165.36
435.194	187.64
435.406	209.15
435.617	230.46
435.829	274.44
436.04	229.3
436.252	269.41
436.463	265.14
436.675	270.18
436.886	262.04
437.098	261.66
437.309	301.57
437.521	238.79
437.732	248.67
437.943	247.32
438.155	254.1
438.366	192.88
438.578	273.28
438.789	265.92
439	267.08
439.211	222.13
439.423	222.32
439.634	278.32
439.845	254.49
440.057	249.84
440.268	280.06
440.479	216.9
440.69	252.55
440.902	219.42
441.113	258.36
441.324	232.59
441.535	290.91
441.746	309.51
441.957	262.24
442.168	272.31
442.38	269.79
442.591	302.92
442.802	258.94
443.013	267.66
443.224	279.29
443.435	270.96
443.646	272.51
443.857	259.14
444.068	286.46
444.279	247.12
444.49	344.58
444.701	283.94
444.912	375.58
445.123	330.44
445.334	302.15
445.545	324.04
445.756	319.59
445.967	280.26
446.178	305.83
446.388	340.51
446.599	321.72
446.81	326.95
447.021	298.47
447.232	330.44
447.443	363.18
447.653	270.57
447.864	349.81
448.075	316.1
448.286	341.48
448.496	331.6
448.707	374.22
448.918	332.18
449.129	381
449.339	317.07
449.55	356.98
449.761	350.39
449.971	352.14
450.182	336.25
450.393	375
450.603	336.83
450.814	361.82
451.024	366.47
451.235	389.34
451.446	395.73
451.656	410.84
451.867	341.48
452.077	363.95
452.288	421.11
452.498	429.25
452.709	353.88
452.919	352.14
453.13	343.22
453.34	387.79
453.55	325.79
453.761	367.83
453.971	358.14
454.182	412.2
454.392	402.51
454.602	429.83
454.813	408.52
455.023	382.17
455.233	330.24
455.444	377.71
455.654	316.87
455.864	370.15
456.075	368.6
456.285	372.48
456.495	380.62
456.705	410.65
456.916	429.44
457.126	451.92
457.336	420.72
457.546	338.96
457.756	384.3
457.967	454.24
458.177	398.25
458.387	380.23
458.597	383.33
458.807	370.35
459.017	387.2
459.227	381.97
459.437	381.78
459.647	412
459.857	427.31
460.068	366.28
460.278	443
460.488	394.76
460.698	482.91
460.908	398.44
461.117	349.81
461.327	379.45
461.537	434.67
461.747	450.56
461.957	438.93
462.167	497.25
462.377	453.47
462.587	456.95
462.797	483.5
463.007	457.34
463.216	478.07
463.426	459.47
463.636	441.26
463.846	398.83
464.056	420.14
464.265	464.12
464.475	415.68
464.685	450.95
464.895	482.72
465.104	435.45
465.314	454.82
465.524	423.82
465.733	376.55
465.943	492.02
466.153	515.08
466.362	504.03
466.572	453.85
466.782	437.97
466.991	430.22
467.201	509.26
467.41	414.33
467.62	482.33
467.829	468.19
468.039	504.81
468.249	463.15
468.458	481.36
468.668	469.35
468.877	479.23
469.086	516.24
469.296	498.41
469.505	496.28
469.715	542.78
469.924	506.36
470.134	560.61
470.343	527.28
470.552	449.78
470.762	487.56
470.971	483.11
471.18	480.59
471.39	488.92
471.599	476.33
471.808	502.87
472.018	502.1
472.227	563.9
472.436	576.49
472.645	530.96
472.855	511.98
473.064	593.54
473.273	551.5
473.482	561.19
473.691	543.95
473.901	561
474.11	549.37
474.319	594.51
474.528	564.68
474.737	619.51
474.946	600.52
475.155	591.61
475.364	599.94
475.573	548.6
475.783	588.7
475.992	604.2
476.201	636.75
476.41	589.48
476.619	539.3
476.828	619.89
477.037	554.8
477.245	561.96
477.454	660.19
477.663	603.62
477.872	642.37
478.081	689.64
478.29	595.09
478.499	672.4
478.708	658.06
478.917	713.47
479.125	651.48
479.334	674.14
479.543	661.55
479.752	699.52
479.961	689.45
480.169	704.76
480.378	649.93
480.587	812.87
480.796	738.27
481.004	703.98
481.213	731.69
481.422	721.22
481.63	727.42
481.839	735.95
482.048	798.53
482.256	726.84
482.465	743.7
482.674	753.58
482.882	771.4
483.091	833.21
483.299	754.55
483.508	782.06
483.716	781.09
483.925	776.64
484.134	756.29
484.342	768.69
484.551	804.54
484.759	809.19
484.967	807.83
485.176	827.4
485.384	817.32
485.593	825.46
485.801	810.35
486.01	790.78
486.218	754.16
486.426	674.14
486.635	723.16
486.843	677.44
487.051	741.57
487.26	734.98
487.468	778.38
487.676	786.13
487.885	773.15
488.093	807.25
488.301	832.82
488.509	840.38
488.717	855.68
488.926	833.79
489.134	834.95
489.342	863.05
489.55	852.39
489.758	846.97
489.967	869.05
490.175	925.05
490.383	893.85
490.591	978.13
490.799	869.05
491.007	963.41
491.215	930.47
491.423	926.01
491.631	936.48
491.839	918.85
492.047	968.83
492.255	891.53
492.463	886.3
492.671	911.1
492.879	966.12
493.087	926.6
493.295	965.15
493.503	977.36
493.711	964.38
493.919	991.11
494.127	981.43
494.334	985.3
494.542	971.93
494.75	1004.87
494.958	976
495.166	1052.14
495.374	1027.34
495.581	1035.87
495.789	1000.03
495.997	1085.28
496.205	1022.69
496.412	1026.76
496.62	1026.18
496.828	1012.43
497.035	1027.54
497.243	1084.5
497.451	1054.86
497.658	1069
497.866	1038.58
498.074	1113.95
498.281	1040.13
498.489	1141.46
498.696	1076.94
498.904	1047.69
499.112	1064.93
499.319	1123.06
499.527	1091.86
499.734	1108.52
499.942	1055.44
500.149	1075.78
500.357	1081.21
500.564	1081.98
500.771	1140.3
500.979	1051.18
501.186	1097.09
501.394	1115.69
501.601	1096.12
501.808	1104.46
502.016	1098.64
502.223	1095.74
502.43	1110.27
502.638	1120.73
502.845	1081.21
503.052	1220.7
503.26	1130.42
503.467	1214.89
503.674	1153.28
503.881	1188.74
504.089	1236.4
504.296	1255.97
504.503	1146.31
504.71	1190.48
504.917	1146.69
505.125	1186.99
505.332	1235.43
505.539	1243.95
505.746	1278.63
505.953	1312.93
506.16	1290.65
506.367	1328.62
506.574	1367.76
506.781	1366.6
506.988	1313.51
507.195	1308.47
507.402	1314.48
507.609	1373.96
507.816	1318.93
508.023	1310.02
508.23	1317.77
508.437	1285.42
508.644	1338.89
508.851	1394.88
509.058	1421.43
509.265	1398.95
509.472	1473.16
509.679	1508.81
509.885	1424.33
510.092	1419.3
510.299	1443.9
510.506	1414.26
510.713	1463.66
510.92	1433.63
511.126	1500.48
511.333	1535.16
511.54	1530.89
511.746	1561.12
511.953	1583.01
512.16	1570.81
512.367	1559.18
512.573	1555.5
512.78	1614.59
512.987	1578.36
513.193	1571.39
513.4	1527.02
513.606	1601.81
513.813	1633.19
514.02	1587.47
514.226	1656.64
514.433	1610.14
514.639	1607.23
514.846	1634.55
515.052	1605.29
515.259	1636.1
515.465	1668.65
515.672	1664.77
515.878	1755.83
516.085	1736.65
516.291	1757.77
516.497	1720.18
516.704	1663.8
516.91	1633.97
517.117	1563.06
517.323	1560.34
517.529	1576.81
517.736	1590.96
517.942	1611.49
518.148	1624.47
518.354	1675.62
518.561	1695.58
518.767	1688.02
518.973	1752.35
519.179	1808.73
519.386	1792.84
519.592	1791.1
519.798	1793.42
520.004	1935.05
520.21	1876.35
520.417	1942.8
520.623	1983.29
520.829	2013.32
521.035	1985.04
521.241	1982.71
521.447	2037.54
521.653	2151.85
521.859	2076.87
522.065	2081.72
522.271	2180.33
522.477	2132.67
522.683	2203.58
522.889	2160.77
523.095	2127.64
523.301	2157.86
523.507	2117.17
523.713	2205.52
523.919	2169.29
524.125	2290
524.331	2239.04
524.537	2360.91
524.742	2338.04
524.948	2382.41
525.154	2358
525.36	2438.21
525.566	2361.29
525.772	2469.99
525.977	2333.59
526.183	2408.37
526.389	2413.22
526.595	2355.09
526.8	2343.66
527.006	2251.63
527.212	2215.02
527.417	2184.02
527.623	2209.78
527.829	2257.83
528.034	2368.08
528.24	2330.68
528.446	2359.16
528.651	2478.32
528.857	2457.2
529.062	2581.97
529.268	2541.48
529.473	2576.35
529.679	2570.35
529.884	2618.78
530.09	2638.16
530.295	2582.55
530.501	2617.43
530.706	2660.63
530.912	2614.13
531.117	2649.01
531.323	2673.23
531.528	2753.83
531.733	2728.83
531.939	2739.1
532.144	2740.26
532.35	2710.23
532.555	2749.56
532.76	2726.31
532.966	2669.16
533.171	2657.53
533.376	2616.85
533.581	2614.33
533.787	2668.58
533.992	2710.62
534.197	2705
534.402	2742.78
534.607	2762.54
534.813	2840.43
535.018	2716.82
535.223	2797.61
535.428	2813.69
535.633	2866.01
535.838	2899.33
536.043	2916.77
536.249	2972.37
536.454	2920.45
536.659	2895.65
536.864	2909.99
537.069	2876.66
537.274	2890.22
537.479	2853.41
537.684	2888.48
537.889	2819.12
538.094	2979.54
538.299	2880.73
538.504	2923.16
538.708	2908.05
538.913	2939.24
539.118	2933.62
539.323	2972.18
539.528	2913.47
539.733	2932.27
539.938	2960.75
540.142	2935.95
540.347	2894.29
540.552	2878.99
540.757	2817.18
540.962	2872.98
541.166	2832.68
541.371	2792.58
541.576	2888.29
541.781	2815.05
541.985	2916.96
542.19	2870.66
542.395	3011.32
542.599	3043.87
542.804	2953.39
543.008	3025.27
543.213	2945.44
543.418	2917.35
543.622	2959.2
543.827	2888.87
544.031	3014.8
544.236	3018.29
544.44	3036.12
544.645	3133.18
544.849	3032.82
545.054	3099.47
545.258	3157.79
545.463	3100.25
545.667	3017.13
545.872	3098.5
546.076	3063.24
546.281	3069.05
546.485	3062.66
546.689	3070.99
546.894	3135.7
547.098	3059.75
547.302	3028.75
547.507	3083.97
547.711	3110.71
547.915	3106.06
548.119	3001.63
548.324	3069.63
548.528	3136.09
548.732	3070.99
548.936	3144.81
549.141	3137.25
549.345	3103.54
549.549	3101.22
549.753	3159.73
549.957	3178.13
550.161	3183.36
550.366	3143.26
550.57	3154.3
550.774	3164.57
550.978	3167.09
551.182	3173.87
551.386	3104.9
551.59	3099.67
551.794	3148.68
551.998	3154.3
552.202	3151.2
552.406	3115.94
552.61	3170.58
552.814	3183.95
553.018	3234.51
553.222	3154.11
553.426	3144.42
553.63	3236.64
553.833	3165.73
554.037	3102.76
554.241	3150.62
554.445	3186.85
554.649	3164.18
554.853	3100.83
555.056	3212.43
555.26	3191.11
555.464	3177.55
555.668	3184.53
555.871	3181.62
556.075	3245.17
556.279	3145.58
556.483	3116.33
556.686	3156.05
556.89	3106.25
557.094	3123.11
557.297	3015.58
557.501	3113.42
557.704	2984.97
557.908	3093.27
558.112	3028.75
558.315	3122.33
558.519	3021.39
558.722	3034.37
558.926	3006.67
559.129	2941.57
559.333	2937.69
559.536	2923.94
559.74	2928.78
559.943	2889.84
560.147	2881.7
560.35	2895.84
560.553	2950.09
560.757	2918.71
560.96	2987.68
561.164	2963.07
561.367	3016.74
561.57	2951.64
561.774	2977.6
561.977	2895.84
562.18	2905.14
562.384	2986.52
562.587	2927.62
562.79	2907.47
562.993	2872.98
563.197	2924.13
563.4	2943.5
563.603	2942.92
563.806	2949.7
564.009	2863.68
564.212	2901.85
564.416	2828.81
564.619	2875.11
564.822	2810.79
565.025	2928.78
565.228	2836.94
565.431	2825.13
565.634	2720.31
565.837	2768.55
566.04	2740.65
566.243	2694.73
566.446	2645.72
566.649	2744.91
566.852	2644.17
567.055	2757.31
567.258	2763.51
567.461	2779.01
567.664	2747.63
567.867	2679.81
568.07	2740.46
568.273	2713.14
568.475	2765.45
568.678	2655.4
568.881	2624.4
569.084	2629.63
569.287	2500.79
569.489	2556.2
569.692	2564.54
569.895	2591.08
570.098	2533.73
570.3	2545.16
570.503	2434.14
570.706	2478.32
570.909	2436.86
571.111	2404.31
571.314	2368.85
571.516	2417.87
571.719	2424.46
571.922	2364.78
572.124	2427.56
572.327	2446.93
572.529	2334.75
572.732	2372.92
572.935	2441.12
573.137	2502.92
573.34	2381.83
573.542	2435.89
573.745	2388.81
573.947	2389.97
574.15	2369.04
574.352	2348.12
574.554	2367.49
574.757	2303.17
574.959	2239.23
575.162	2299.3
575.364	2238.26
575.566	2383.38
575.769	2242.91
575.971	2268.3
576.173	2107.49
576.376	2225.09
576.578	2274.11
576.78	2296.2
576.982	2164.25
577.185	2230.71
577.387	2216.76
577.589	2215.21
577.791	2264.81
577.993	2221.6
578.196	2230.9
578.398	2218.31
578.6	2172.39
578.802	2107.87
579.004	2121.82
579.206	2140.81
579.408	2172.58
579.61	2133.45
579.812	2203.78
580.014	2113.69
580.216	2138.68
580.418	2165.03
580.62	2145.46
580.822	2100.51
581.024	2155.53
581.226	2188.86
581.428	2113.69
581.63	2229.55
581.832	2149.33
582.034	2242.91
582.236	2127.64
582.438	2185.18
582.64	2232.84
582.841	2221.02
583.043	2254.73
583.245	2184.4
583.447	2219.86
583.649	2193.32
583.85	2202.81
584.052	2222.18
584.254	2141.39
584.456	2233.03
584.657	2158.05
584.859	2170.65
585.061	2145.85
585.262	2145.27
585.464	2091.02
585.666	2166
585.867	2099.74
586.069	2146.62
586.27	2107.1
586.472	2113.88
586.674	2042.39
586.875	2079.39
587.077	2058.27
587.278	2107.49
587.48	2053.43
587.681	2217.15
587.883	2071.84
588.084	2031.73
588.285	2025.53
588.487	2026.89
588.688	2026.89
588.89	1915.29
589.091	1883.71
589.292	1863.17
589.494	1818.41
589.695	1778.89
589.896	1721.35
590.098	1716.5
590.299	1754.67
590.5	1762.03
590.702	1804.08
590.903	1843.02
591.104	1887
591.305	1870.92
591.507	1919.74
591.708	1928.46
591.909	1873.05
592.11	1923.81
592.311	1916.45
592.512	1849.41
592.714	1810.47
592.915	1842.05
593.116	1885.26
593.317	1887.97
593.518	1908.89
593.719	1872.86
593.92	1902.89
594.121	1911.22
594.322	1862.2
594.523	1880.41
594.724	1867.05
594.925	1846.31
595.126	1823.06
595.327	1892.43
595.528	1880.22
595.729	1849.22
595.929	1868.79
596.13	1853.68
596.331	1929.43
596.532	1887.97
596.733	1949.78
596.934	1901.34
597.135	1957.33
597.335	1906.76
597.536	1861.62
597.737	1875.76
597.938	1857.36
598.138	1880.8
598.339	1871.31
598.54	1899.4
598.74	1863.95
598.941	1886.61
599.142	1902.5
599.342	1872.66
599.543	1854.06
599.744	1899.59
599.944	1900.37
600.145	1887.97
600.345	1883.9
600.546	1945.71
600.746	1906.38
600.947	1953.46
601.147	1883.9
601.348	1908.89
601.548	1828.1
601.749	1884.68
601.949	1835.66
602.15	1830.23
602.35	1840.31
602.551	1884.87
602.751	1793.42
602.951	1865.11
603.152	1751.18
603.352	1899.59
603.552	1861.04
603.753	1901.14
603.953	1903.28
604.153	1894.17
604.354	1882.54
604.554	1886.03
604.754	1831.01
604.954	1821.13
605.155	1882.54
605.355	1843.02
605.555	1894.94
605.755	1915.09
605.955	1858.91
606.155	1889.33
606.356	1857.16
606.556	1853.87
606.756	1860.85
606.956	1834.69
607.156	1888.55
607.356	1836.63
607.556	1856
607.756	1857.16
607.956	1849.61
608.156	1861.81
608.356	1796.91
608.556	1855.81
608.756	1809.89
608.956	1775.6
609.156	1826.16
609.356	1751.57
609.556	1764.94
609.755	1771.53
609.955	1754.28
610.155	1757.97
610.355	1795.94
610.555	1721.35
610.755	1743.05
610.954	1715.73
611.154	1740.72
611.354	1751.77
611.554	1727.93
611.753	1739.17
611.953	1665.74
612.153	1746.34
612.352	1748.86
612.552	1648.3
612.752	1644.62
612.951	1732
613.151	1673.1
613.351	1683.18
613.55	1698.49
613.75	1711.66
613.949	1704.3
614.149	1665.74
614.348	1666.52
614.548	1664.58
614.747	1597.54
614.947	1627.38
615.146	1597.74
615.346	1669.62
615.545	1662.64
615.745	1667.1
615.944	1670.2
616.144	1603.74
616.343	1637.07
616.542	1574.87
616.742	1580.49
616.941	1583.98
617.14	1520.63
617.34	1548.91
617.539	1595.61
617.738	1552.01
617.938	1625.25
618.137	1573.71
618.336	1533.8
618.535	1600.45
618.734	1600.84
618.934	1562.09
619.133	1575.46
619.332	1633.19
619.531	1582.24
619.73	1587.86
619.929	1609.56
620.128	1585.92
620.328	1600.84
620.527	1597.93
620.726	1568.67
620.925	1609.17
621.124	1566.54
621.323	1556.47
621.522	1471.99
621.721	1530.31
621.92	1501.44
622.119	1569.26
622.318	1493.31
622.517	1534.57
622.715	1556.08
622.914	1473.93
623.113	1529.34
623.312	1451.07
623.511	1533.8
623.71	1512.49
623.909	1469.67
624.107	1529.34
624.306	1430.92
624.505	1454.75
624.704	1472.96
624.902	1441
625.101	1501.64
625.3	1440.8
625.499	1429.76
625.697	1438.86
625.896	1403.02
626.095	1450.1
626.293	1387.52
626.492	1401.47
626.69	1455.53
626.889	1442.74
627.088	1449.91
627.286	1423.17
627.485	1384.61
627.683	1371.25
627.882	1374.93
628.08	1284.25
628.279	1351.87
628.477	1419.1
628.676	1312.93
628.874	1366.4
629.073	1312.15
629.271	1343.35
629.469	1395.27
629.668	1363.5
629.866	1334.05
630.065	1310.41
630.263	1358.26
630.461	1316.8
630.66	1345.87
630.858	1376.28
631.056	1375.51
631.254	1412.51
631.453	1346.83
631.651	1402.44
631.849	1382.1
632.047	1358.85
632.245	1336.95
632.444	1381.32
632.642	1351.87
632.84	1430.53
633.038	1384.81
633.236	1328.43
633.434	1344.51
633.632	1361.36
633.83	1387.33
634.028	1384.61
634.227	1362.72
634.425	1462.69
634.623	1395.46
634.821	1392.75
635.019	1385.78
635.216	1383.45
635.414	1408.64
635.612	1405.35
635.81	1354.97
636.008	1445.84
636.206	1378.41
636.404	1395.66
636.602	1337.92
636.8	1361.56
636.997	1409.61
637.195	1409.03
637.393	1354.2
637.591	1430.34
637.789	1358.46
637.986	1376.86
638.184	1377.45
638.382	1431.11
638.58	1381.9
638.777	1426.08
638.975	1381.71
639.173	1377.64
639.37	1378.8
639.568	1372.41
639.765	1401.86
639.963	1335.4
640.161	1379.96
640.358	1398.76
640.556	1329.59
640.753	1303.43
640.951	1312.93
641.148	1340.44
641.346	1318.55
641.543	1300.14
641.741	1331.72
641.938	1280.77
642.136	1286.58
642.333	1240.47
642.531	1304.79
642.728	1341.6
642.925	1263.91
643.123	1288.13
643.32	1256.35
643.517	1274.37
643.715	1283.67
643.912	1258.49
644.109	1236.2
644.306	1217.41
644.504	1237.37
644.701	1242.21
644.898	1238.34
645.095	1195.52
645.293	1236.59
645.49	1211.6
645.687	1224.77
645.884	1247.64
646.081	1146.69
646.278	1148.24
646.475	1133.71
646.672	1151.73
646.87	1152.31
647.067	1169.75
647.264	1139.33
647.461	1109.69
647.658	1093.02
647.855	1144.56
648.052	1088.96
648.249	1021.53
648.446	1069.19
648.642	1068.23
648.839	1032.77
649.036	1098.64
649.233	1035.68
649.43	1019.79
649.627	1033.93
649.824	1011.26
650.021	1026.57
650.217	999.06
650.414	1034.71
650.611	1073.84
650.808	1092.64
651.004	1060.48
651.201	1081.21
651.398	1147.27
651.595	1056.21
651.791	1053.89
651.988	1080.24
652.185	1031.22
652.381	1058.34
652.578	1004.87
652.775	1035.87
652.971	1045.56
653.168	1031.03
653.364	1068.61
653.561	1002.74
653.757	1024.24
653.954	1088.38
654.15	1019.01
654.347	1093.99
654.543	1038
654.74	985.5
654.936	996.54
655.133	1000.22
655.329	1025.02
655.525	991.89
655.722	1018.63
655.918	941.51
656.115	969.61
656.311	902.77
656.507	855.3
656.704	856.07
656.9	884.75
657.096	860.92
657.292	857.43
657.489	947.91
657.685	922.33
657.881	884.36
658.077	919.62
658.273	919.81
658.47	994.99
658.666	935.7
658.862	987.24
659.058	952.56
659.254	996.73
659.45	932.41
659.646	962.83
659.842	951.2
660.038	1024.63
660.234	973.1
660.43	938.61
660.626	1030.64
660.822	989.76
661.018	967.86
661.214	938.61
661.41	932.41
661.606	991.31
661.802	969.41
661.998	940.55
662.194	922.72
662.39	925.24
662.586	941.71
662.781	960.7
662.977	967.28
663.173	972.51
663.369	945.2
663.564	920.4
663.76	971.93
663.956	923.11
664.152	988.21
664.347	868.28
664.543	929.7
664.739	901.41
664.934	879.32
665.13	897.73
665.326	920.01
665.521	939.77
665.717	849.29
665.912	851.03
666.108	822.36
666.304	893.85
666.499	897.34
666.695	814.03
666.89	874.48
667.086	886.49
667.281	882.03
667.477	972.71
667.672	895.02
667.867	887.27
668.063	878.55
668.258	845.42
668.454	851.62
668.649	926.21
668.844	877.97
669.04	887.27
669.235	839.02
669.43	863.43
669.626	784.58
669.821	837.28
670.016	814.42
670.211	864.79
670.407	805.5
670.602	839.6
670.797	818.49
670.992	832.43
671.187	810.93
671.382	880.29
671.578	821.2
671.773	815.77
671.968	771.4
672.163	796.4
672.358	845.8
672.553	814.42
672.748	814.03
672.943	893.08
673.138	829.92
673.333	833.02
673.528	785.74
673.723	828.95
673.918	826.43
674.113	812.29
674.308	894.05
674.503	829.53
674.698	847.35
674.892	845.8
675.087	874.28
675.282	816.55
675.477	818.68
675.672	811.9
675.867	824.1
676.061	803.37
676.256	792.72
676.451	793.49
676.646	804.92
676.84	811.7
677.035	769.66
677.23	774.12
677.424	853.55
677.619	846.58
677.814	837.28
678.008	835.92
678.203	749.32
678.397	780.51
678.592	815.19
678.787	862.08
678.981	811.51
679.176	840.57
679.37	829.72
679.565	781.29
679.759	822.55
679.954	845.42
680.148	870.02
680.342	852.97
680.537	813.45
680.731	807.05
680.926	834.95
681.12	826.43
681.314	794.85
681.509	816.55
681.703	843.09
681.897	852.58
682.092	813.64
682.286	815
682.48	913.23
682.674	857.23
682.869	834.37
683.063	824.88
683.257	889.2
683.451	831.27
683.645	846.38
683.839	828.37
684.034	855.3
684.228	879.32
684.422	800.85
684.616	841.35
684.81	882.03
685.004	833.6
685.198	842.12
685.392	858.4
685.586	820.81
685.78	851.42
685.974	868.28
686.168	880.29
686.362	926.6
686.556	805.31
686.75	784.39
686.944	785.94
687.138	755.13
687.331	669.49
687.525	699.91
687.719	631.13
687.913	690.61
688.107	715.61
688.301	676.47
688.494	713.28
688.688	685.38
688.882	669.11
689.076	697.78
689.269	722.77
689.463	798.92
689.657	726.46
689.85	725.68
690.044	747.38
690.238	765.01
690.431	790.59
690.625	787.29
690.818	841.35
691.012	856.07
691.205	900.05
691.399	843.67
691.593	911.1
691.786	940.35
691.98	955.85
692.173	1009.13
692.366	1001.38
692.56	985.3
692.753	1044.39
692.947	992.28
693.14	1086.05
693.333	1065.13
693.527	999.06
693.72	1055.83
693.914	1051.18
694.107	1041.29
694.3	1082.56
694.493	1072.68
694.687	1173.43
694.88	1095.74
695.073	1207.72
695.266	1180.21
695.46	1186.02
695.653	1245.31
695.846	1230.59
696.039	1224
696.232	1256.35
696.425	1303.05
696.618	1335.02
696.812	1336.76
697.005	1409.22
697.198	1506.29
697.391	1462.69
697.584	1484.59
697.777	1536.51
697.97	1545.62
698.163	1562.67
698.356	1553.76
698.549	1625.44
698.742	1607.81
698.935	1581.27
699.127	1587.08
699.32	1570.61
699.513	1569.45
699.706	1635.9
699.899	1636.29
700.092	1628.93
700.285	1679.3
700.477	1639.97
700.67	1719.22
700.863	1703.52
701.056	1779.86
701.248	1785.87
701.441	1809.11
701.634	1764.17
701.826	1882.16
702.019	1788.58
702.212	1862.98
702.404	1813.57
702.597	1862.01
702.79	1880.03
702.982	1927.49
703.175	1961.01
703.367	1999.37
703.56	2005.19
703.752	2115.04
703.945	2052.85
704.137	2103.42
704.33	2141
704.522	2104
704.715	2161.93
704.907	2180.33
705.1	2186.73
705.292	2255.12
705.484	2227.61
705.677	2273.91
705.869	2273.53
706.061	2316.93
706.254	2351.61
706.446	2290
706.638	2338.04
706.831	2427.36
707.023	2341.92
707.215	2464.37
707.407	2474.25
707.599	2470.96
707.792	2535.86
707.984	2507.57
708.176	2560.08
708.368	2500.99
708.56	2545.74
708.752	2579.84
708.944	2598.44
709.136	2643.58
709.329	2604.45
709.521	2724.96
709.713	2679.04
709.905	2708.49
710.097	2744.33
710.289	2676.13
710.481	2756.73
710.672	2760.99
710.864	2793.93
711.056	2841.98
711.248	2818.93
711.44	2845.27
711.632	2896.81
711.824	2922.77
712.016	2909.79
712.207	2932.07
712.399	2953.77
712.591	3030.11
712.783	3006.67
712.975	2976.25
713.166	2968.3
713.358	3012.48
713.55	3085.33
713.741	3071.77
713.933	3075.25
714.125	3107.41
714.316	3013.84
714.508	3132.6
714.7	3119.81
714.891	3073.9
715.083	3151.4
715.274	3069.25
715.466	3144.23
715.657	3161.66
715.849	3031.47
716.04	3103.73
716.232	3064.4
716.423	3037.08
716.615	2982.45
716.806	2919.87
716.998	2836.56
717.189	2765.84
717.381	2637.77
717.572	2581
717.763	2550.97
717.955	2527.92
718.146	2496.53
718.337	2438.02
718.528	2410.31
718.72	2310.92
718.911	2328.74
719.102	2291.16
719.293	2315.38
719.485	2294.84
719.676	2273.91
719.867	2272.75
720.058	2229.35
720.249	2261.13
720.44	2280.7
720.632	2378.54
720.823	2398.88
721.014	2591.85
721.205	2633.12
721.396	2689.5
721.587	2840.62
721.778	2868.33
721.969	2965.59
722.16	3036.12
722.351	3054.13
722.542	3193.05
722.733	3205.84
722.924	3110.71
723.115	3178.13
723.305	3087.27
723.496	3093.85
723.687	2937.69
723.878	2977.6
724.069	2906.11
724.26	2939.44
724.45	2866.2
724.641	2846.24
724.832	2885.57
725.023	2829.19
725.213	2814.28
725.404	2793.74
725.595	2785.21
725.785	2841.4
725.976	2902.24
726.167	2869.49
726.357	2871.82
726.548	2968.69
726.739	2887.51
726.929	2979.74
727.12	3028.56
727.31	2983.42
727.501	2920.84
727.691	2974.12
727.882	2981.09
728.072	2991.75
728.263	3063.24
728.453	3111.68
728.644	3077.58
728.834	3021.39
729.024	2994.07
729.215	3017.13
729.405	3005.5
729.596	3121.95
729.786	3136.48
729.976	3122.33
730.167	3125.43
730.357	3124.08
730.547	3137.25
730.737	3200.03
730.928	3181.04
731.118	3250.4
731.308	3174.84
731.498	3180.26
731.688	3336.62
731.879	3358.51
732.069	3398.23
732.259	3392.8
732.449	3483.87
732.639	3590.04
732.829	3574.35
733.019	3643.9
733.209	3709.19
733.399	3743.49
733.589	3830.67
733.779	3883.76
733.969	3854.7
734.159	3961.45
734.349	3964.75
734.539	4041.08
734.729	4031.59
734.919	4062.98
735.109	4131.37
735.299	4012.41
735.488	4027.91
735.678	4074.02
735.868	4042.83
736.058	4057.75
736.248	4066.08
736.437	4011.25
736.627	4014.15
736.817	4109.28
737.007	4044.76
737.196	4153.07
737.386	4071.89
737.576	4054.45
737.765	4167.41
737.955	4092.81
738.144	4260.4
738.334	4198.99
738.524	4119.74
738.713	4245.68
738.903	4204.99
739.092	4203.64
739.282	4254.2
739.471	4267.96
739.661	4224.56
739.85	4292.18
740.04	4305.55
740.229	4294.89
740.419	4364.83
740.608	4346.23
740.797	4331.51
740.987	4371.42
741.176	4366.38
741.365	4334.61
741.555	4286.56
741.744	4421.99
741.933	4347.98
742.123	4409.2
742.312	4402.03
742.501	4460.93
742.69	4460.55
742.88	4373.55
743.069	4485.73
743.258	4459
743.447	4518.86
743.636	4486.51
743.825	4482.44
744.014	4508.01
744.204	4530.49
744.393	4438.07
744.582	4558.19
744.771	4551.41
744.96	4494.26
745.149	4515.38
745.338	4455.31
745.527	4502.2
745.716	4531.26
745.905	4448.53
746.094	4562.46
746.283	4575.63
746.471	4505.11
746.66	4586.87
746.849	4620.19
747.038	4637.63
747.227	4519.64
747.416	4572.73
747.604	4503.75
747.793	4528.94
747.982	4574.47
748.171	4558
748.359	4559.36
748.548	4539.21
748.737	4597.72
748.926	4508.79
749.114	4414.24
749.303	4537.27
749.491	4497.16
749.68	4450.47
749.869	4541.73
750.057	4489.61
750.246	4464.81
750.434	4471.01
750.623	4471.98
750.811	4447.56
751	4520.41
751.188	4467.71
751.377	4462.1
751.565	4431.87
751.754	4399.32
751.942	4347.2
752.131	4483.02
752.319	4373.55
752.507	4359.02
752.696	4421.99
752.884	4435.75
753.072	4373.75
753.261	4415.6
753.449	4418.5
753.637	4362.32
753.825	4471.01
754.014	4406.3
754.202	4385.37
754.39	4434.39
754.578	4422.57
754.766	4345.46
754.955	4340.03
755.143	4395.45
755.331	4358.05
755.519	4388.47
755.707	4357.86
755.895	4310.2
756.083	4343.13
756.271	4304.97
756.459	4279.97
756.647	4344.68
756.835	4259.82
757.023	4288.11
757.211	4261.18
757.399	4269.12
757.587	4278.81
757.775	4155.97
757.963	4193.76
758.151	4224.95
758.339	4148.23
758.526	4140.09
758.714	4192.21
758.902	4018.22
759.09	3956.8
759.278	3731.47
759.465	3397.65
759.653	2953.77
759.841	2692.99
760.028	2314.99
760.216	2037.35
760.404	1833.72
760.591	1509.19
760.779	1290.65
760.967	1119.18
761.154	961.28
761.342	934.35
761.529	927.56
761.717	971.35
761.905	964.18
762.092	1045.17
762.28	959.34
762.467	932.6
762.655	889.78
762.842	921.17
763.029	937.45
763.217	893.08
763.404	901.99
763.592	941.32
763.779	872.35
763.966	949.26
764.154	1003.9
764.341	1053.5
764.528	1088.18
764.716	1125.77
764.903	1195.71
765.09	1289.1
765.277	1345.28
765.465	1529.54
765.652	1580.3
765.839	1701
766.026	1845.54
766.213	1905.79
766.4	2050.91
766.588	2258.03
766.775	2333.78
766.962	2447.51
767.149	2573.84
767.336	2717.98
767.523	2735.42
767.71	2897.97
767.897	3009.77
768.084	3085.13
768.271	3168.25
768.458	3273.26
768.645	3325.57
768.832	3344.95
769.019	3377.3
769.206	3482.9
769.392	3517.77
769.579	3580.16
769.766	3572.02
769.953	3555.16
770.14	3630.14
770.327	3632.66
770.513	3705.9
770.7	3737.48
770.887	3697.18
771.073	3713.84
771.26	3737.67
771.447	3697.57
771.634	3658.24
771.82	3787.47
772.007	3693.11
772.193	3744.46
772.38	3756.47
772.567	3740.39
772.753	3742.91
772.94	3796.57
773.126	3787.08
773.313	3765.96
773.499	3724.11
773.686	3766.16
773.872	3694.66
774.059	3756.86
774.245	3695.44
774.432	3752.21
774.618	3669.86
774.804	3714.04
774.991	3672.77
775.177	3720.82
775.363	3713.84
775.55	3741.16
775.736	3690.21
775.922	3666.57
776.109	3656.49
776.295	3642.16
776.481	3688.46
776.667	3689.63
776.853	3674.9
777.04	3632.47
777.226	3658.82
777.412	3670.44
777.598	3623.75
777.784	3610.19
777.97	3618.71
778.156	3620.46
778.342	3627.43
778.528	3550.32
778.715	3537.53
778.901	3572.6
779.087	3583.45
779.272	3535.21
779.458	3536.37
779.644	3544.51
779.83	3537.73
780.016	3649.71
780.202	3502.66
780.388	3554
780.574	3464.68
780.76	3486
780.946	3535.98
781.131	3507.7
781.317	3457.32
781.503	3491.42
781.689	3480.96
781.874	3561.95
782.06	3473.98
782.246	3447.64
782.432	3446.47
782.617	3484.83
782.803	3525.33
782.989	3377.11
783.174	3430.2
783.36	3325.38
783.545	3400.75
783.731	3380.21
783.916	3305.42
784.102	3361.22
784.288	3300.19
784.473	3333.91
784.659	3346.89
784.844	3356.38
785.029	3328.29
785.215	3350.57
785.4	3264.54
785.586	3332.36
785.771	3241.29
785.956	3322.28
786.142	3251.76
786.327	3227.34
786.512	3228.12
786.698	3227.34
786.883	3137.64
787.068	3208.36
787.254	3233.16
787.439	3192.86
787.624	3169.61
787.809	3162.63
787.994	3161.66
788.18	3209.13
788.365	3115.55
788.55	3092.3
788.735	3107.22
788.92	3103.35
789.105	3089.59
789.29	3087.65
789.475	2998.34
789.66	3021.39
789.845	3006.86
790.03	2967.34
790.215	2994.46
790.4	3052.97
790.585	3080.87
790.77	2980.9
790.955	2974.5
791.14	2987.49
791.325	3076.61
791.51	2890.42
791.695	2970.82
791.879	2971.21
792.064	2903.21
792.249	3046.38
792.434	2933.43
792.618	2990.2
792.803	3032.43
792.988	2990.78
793.173	2977.8
793.357	3018.29
793.542	2949.51
793.727	3014.22
793.911	3030.3
794.096	2994.46
794.281	3021
794.465	3092.5
794.65	3003.76
794.834	3026.62
795.019	3059.75
795.203	3083.58
795.388	3084.75
795.572	3086.3
795.757	3061.11
795.941	3073.51
796.126	3033.98
796.31	2974.7
796.494	2997.37
796.679	3000.47
796.863	2934.4
797.048	3082.03
797.232	3022.36
797.416	3014.42
797.601	3001.63
797.785	3077.77
797.969	3064.21
798.153	2997.56
798.338	3070.22
798.522	3093.08
798.706	3105.28
798.89	3131.05
799.074	3165.93
799.258	3134.35
799.443	3074.28
799.627	3072.54
799.811	3110.32
799.995	3028.56
800.179	3027.01
800.363	3043.67
800.547	3086.88
800.731	3099.28
800.915	3015
801.099	3013.25
801.283	3001.63
801.467	3029.92
801.651	3062.85
801.835	3057.23
802.019	3075.25
802.202	3074.09
802.386	2961.72
802.57	2931.1
802.754	2975.86
802.938	2946.8
803.121	2982.84
803.305	3027.78
803.489	3008.99
803.673	3006.86
803.856	3040.18
804.04	2961.91
804.224	3036.89
804.407	2959.59
804.591	2992.72
804.775	2997.37
804.958	2979.74
805.142	3124.66
805.326	3018.1
805.509	3056.27
805.693	3054.52
805.876	3079.13
806.06	3079.71
806.243	3083.2
806.427	3116.33
806.61	3098.31
806.794	3044.64
806.977	3129.11
807.16	3081.84
807.344	3075.83
807.527	3086.1
807.71	3028.95
807.894	3065.37
808.077	3040.38
808.26	3037.28
808.444	3003.37
808.627	3073.7
808.81	2990.97
808.993	2934.01
809.177	2914.06
809.36	2995.04
809.543	2920.26
809.726	2854.57
809.909	2842.37
810.092	2885.38
810.276	2846.05
810.459	2856.9
810.642	2861.16
810.825	2765.26
811.008	2801.49
811.191	2705.58
811.374	2730.38
811.557	2697.64
811.74	2734.65
811.923	2682.14
812.106	2642.62
812.289	2596.31
812.472	2578.29
812.654	2567.83
812.837	2523.07
813.02	2513.19
813.203	2454.29
813.386	2341.34
813.569	2318.48
813.751	2278.56
813.934	2273.72
814.117	2258.22
814.3	2196.22
814.482	2159.99
814.665	2151.08
814.848	2081.72
815.03	2027.27
815.213	1990.27
815.396	1974.96
815.578	1979.22
815.761	1951.33
815.943	1982.13
816.126	1878.09
816.309	1873.44
816.491	1780.44
816.674	1721.54
816.856	1773.08
817.039	1761.45
817.221	1837.01
817.403	1822.68
817.586	1854.26
817.768	1818.61
817.951	1741.5
818.133	1737.62
818.315	1774.43
818.498	1793.81
818.68	1872.86
818.862	1845.73
819.045	1875.57
819.227	1849.8
819.409	1821.71
819.591	1854.45
819.774	1833.33
819.956	1801.56
820.138	1903.28
820.32	1871.5
820.502	1961.21
820.684	2043.16
820.866	2041.61
821.048	2101.29
821.231	2114.46
821.413	2125.7
821.595	2097.6
821.777	2120.47
821.959	2097.99
822.141	2190.8
822.323	1998.6
822.505	1951.71
822.686	1887
822.868	1769.2
823.05	1656.83
823.232	1615.56
823.414	1557.24
823.596	1626.41
823.778	1627.19
823.96	1651.4
824.141	1693.64
824.323	1719.8
824.505	1774.63
824.687	1852.51
824.868	1915.68
825.05	1993.76
825.232	2040.45
825.413	2110.97
825.595	2070.09
825.777	2029.02
825.958	2053.43
826.14	2048.78
826.321	2077.45
826.503	2068.54
826.685	2083.46
826.866	2099.74
827.048	2083.07
827.229	2035.61
827.411	1999.76
827.592	1881.38
827.773	1892.81
827.955	1860.65
828.136	1860.07
828.318	1783.54
828.499	1881.96
828.68	1754.87
828.862	1832.95
829.043	1854.65
829.224	1816.09
829.406	1797.1
829.587	1803.3
829.768	1832.17
829.949	1811.63
830.131	1834.3
830.312	1932.73
830.493	1811.05
830.674	1856.2
830.855	1859.3
831.036	1838.37
831.218	1942.22
831.399	1936.6
831.58	1847.67
831.761	1863.17
831.942	1829.65
832.123	1851.35
832.304	1807.95
832.485	1820.35
832.666	1851.55
832.847	1884.48
833.028	1839.92
833.209	1825.39
833.389	1841.47
833.57	1767.85
833.751	1808.53
833.932	1847.28
834.113	1834.69
834.294	1843.8
834.475	1885.64
834.655	1877.9
834.836	1884.87
835.017	1905.41
835.198	1856
835.378	1904.63
835.559	1945.51
835.74	1897.85
835.92	1866.08
836.101	1856.58
836.281	1911.99
836.462	1916.45
836.643	1948.42
836.823	1961.59
837.004	1950.36
837.184	1992.59
837.365	1949.39
837.545	1954.43
837.726	1935.63
837.906	1949
838.087	1928.27
838.267	1961.01
838.448	1909.48
838.628	1927.11
838.808	1962.95
838.989	1972.64
839.169	1918.19
839.349	1955.59
839.53	1996.08
839.71	1966.82
839.89	1939.89
840.07	1990.27
840.251	1938.34
840.431	1990.46
840.611	1943.19
840.791	1945.9
840.971	1939.12
841.151	1909.09
841.332	1924.39
841.512	1927.49
841.692	1886.61
841.872	1934.66
842.052	1948.81
842.232	1961.98
842.412	1884.29
842.592	1919.94
842.772	1942.03
842.952	1905.21
843.132	1917.23
843.312	1911.8
843.492	1887.19
843.672	1937.57
843.851	1852.71
844.031	1887
844.211	1879.83
844.391	1867.43
844.571	1887.97
844.751	1923.62
844.93	1884.87
845.11	1867.63
845.29	1915.09
845.47	1911.03
845.649	1895.14
845.829	1885.64
846.009	1865.3
846.188	1919.74
846.368	1868.79
846.547	1874.41
846.727	1915.09
846.907	1837.4
847.086	1873.05
847.266	1911.03
847.445	1872.47
847.625	1872.47
847.804	1829.07
847.984	1879.44
848.163	1834.69
848.343	1808.34
848.522	1837.21
848.701	1852.51
848.881	1801.36
849.06	1836.43
849.239	1819.96
849.419	1850
849.598	1795.94
849.777	1772.69
849.957	1727.35
850.136	1670.2
850.315	1658.19
850.494	1680.27
850.674	1685.5
850.853	1719.22
851.032	1699.26
851.211	1728.32
851.39	1732.2
851.569	1658.19
851.748	1646.17
851.927	1717.67
852.107	1679.89
852.286	1672.14
852.465	1639.78
852.644	1734.33
852.823	1702.55
853.002	1676.59
853.181	1680.47
853.359	1719.02
853.538	1664
853.717	1723.87
853.896	1585.34
854.075	1530.31
854.254	1492.73
854.433	1453.2
854.611	1485.36
854.79	1404.38
854.969	1494.08
855.148	1490.4
855.327	1488.85
855.505	1511.13
855.684	1540.58
855.863	1550.46
856.041	1511.13
856.22	1569.64
856.399	1558.79
856.577	1636.87
856.756	1633
856.934	1731.62
857.113	1730.45
857.291	1649.66
857.47	1607.81
857.648	1651.79
857.827	1628.93
858.005	1676.98
858.184	1573.71
858.362	1696.74
858.541	1612.27
858.719	1620.4
858.898	1608.59
859.076	1620.02
859.254	1663.42
859.433	1583.59
859.611	1577.97
859.789	1548.72
859.967	1628.93
860.146	1667.29
860.324	1563.64
860.502	1585.72
860.68	1531.09
860.859	1565.77
861.037	1562.09
861.215	1586.69
861.393	1593.86
861.571	1578.17
861.749	1526.44
861.927	1589.6
862.105	1553.95
862.283	1525.86
862.461	1553.37
862.639	1490.4
862.817	1553.95
862.995	1525.08
863.173	1527.41
863.351	1507.84
863.529	1589.21
863.707	1553.76
863.885	1534.77
864.063	1469.09
864.241	1481.49
864.418	1557.44
864.596	1491.18
864.774	1491.95
864.952	1518.49
865.129	1521.01
865.307	1485.36
865.485	1405.15
865.663	1503.58
865.84	1407.28
866.018	1429.95
866.196	1327.65
866.373	1331.92
866.551	1277.08
866.728	1228.45
866.906	1271.66
867.084	1316.8
867.261	1351.48
867.439	1329.98
867.616	1378.61
867.794	1351.68
867.971	1380.93
868.149	1376.48
868.326	1459.4
868.503	1427.82
868.681	1374.73
868.858	1396.24
869.035	1374.35
869.213	1379.77
869.39	1390.04
869.567	1448.74
869.745	1366.79
869.922	1428.21
870.099	1411.55
870.276	1419.1
870.454	1422.59
870.631	1418.13
870.808	1379.58
870.985	1440.03
871.162	1457.85
871.339	1409.41
871.517	1352.84
871.694	1315.25
871.871	1353.23
872.048	1335.02
872.225	1339.47
872.402	1340.25
872.579	1292
872.756	1377.06
872.933	1304.6
873.11	1335.6
873.287	1341.41
873.463	1316.22
873.64	1310.22
873.817	1362.53
873.994	1310.02
874.171	1286
874.348	1305.57
874.524	1280.96
874.701	1279.8
874.878	1262.75
875.055	1290.84
875.231	1286.38
875.408	1272.82
875.585	1242.99
875.762	1296.46
875.938	1249.57
876.115	1262.55
876.291	1272.24
876.468	1236.79
876.645	1243.37
876.821	1215.86
876.998	1229.23
877.174	1260.81
877.351	1231.36
877.527	1242.02
877.704	1230
877.88	1238.72
878.057	1205.98
878.233	1271.27
878.409	1218.57
878.586	1224.77
878.762	1267.98
878.938	1238.92
879.115	1154.25
879.291	1219.35
879.467	1141.27
879.644	1132.16
879.82	1200.36
879.996	1176.53
880.172	1112.98
880.349	1188.35
880.525	1222.25
880.701	1126.54
880.877	1133.91
881.053	1161.22
881.229	1159.67
881.405	1207.72
881.581	1144.76
881.757	1153.47
881.933	1161.61
882.109	1223.42
882.285	1155.02
882.461	1112.21
882.637	1187.38
882.813	1134.68
882.989	1173.62
883.165	1197.84
883.341	1142.24
883.517	1180.99
883.693	1153.86
883.869	1184.86
884.044	1148.24
884.22	1174.4
884.396	1210.82
884.572	1173.62
884.747	1200.17
884.923	1188.93
885.099	1174.98
885.275	1209.47
885.45	1136.62
885.626	1137.97
885.801	1160.06
885.977	1159.29
886.153	1105.81
886.328	1181.57
886.504	1134.87
886.679	1183.89
886.855	1103.68
887.03	1169.75
887.206	1166.07
887.381	1144.56
887.557	1155.61
887.732	1187.96
887.908	1151.34
888.083	1194.94
888.258	1136.42
888.434	1155.99
888.609	1167.62
888.784	1195.52
888.96	1097.48
889.135	1131.39
889.31	1102.71
889.485	1145.14
889.661	1115.31
889.836	1185.44
890.011	1139.91
890.186	1144.76
890.361	1116.66
890.537	1145.14
890.712	1148.05
890.887	1141.85
891.062	1177.89
891.237	1205.59
891.412	1128.48
891.587	1169.94
891.762	1151.34
891.937	1159.09
892.112	1090.7
892.287	1134.87
892.462	1071.13
892.637	1066.87
892.812	1059.31
892.987	1084.69
893.161	1007.97
893.336	1022.89
893.511	1039.36
893.686	1064.54
893.861	1027.73
894.035	1037.23
894.21	999.83
894.385	986.27
894.56	989.37
894.734	964.38
894.909	941.71
895.084	932.41
895.258	901.8
895.433	938.61
895.608	914
895.782	859.75
895.957	859.56
896.131	856.07
896.306	809.77
896.48	809.57
896.655	780.32
896.829	722.97
897.004	725.68
897.178	724.91
897.353	731.88
897.527	752.8
897.701	723.94
897.876	714.25
898.05	786.13
898.224	768.69
898.399	781.29
898.573	758.04
898.747	635.01
898.921	677.63
899.096	595.68
899.27	592.38
899.444	593.35
899.618	616.6
899.792	669.11
899.967	657.67
900.141	714.44
900.315	603.23
900.489	654.58
900.663	625.32
900.837	650.31
901.011	581.14
901.185	709.02
901.359	642.76
901.533	652.25
901.707	657.67
901.881	662.13
902.055	599.94
902.229	648.96
902.403	690.22
902.576	631.13
902.75	645.28
902.924	752.42
903.098	672.59
903.272	737.11
903.446	818.29
903.619	780.7
903.793	813.64
903.967	768.5
904.14	844.64
904.314	868.28
904.488	796.98
904.661	851.03
904.835	830.11
905.009	876.03
905.182	863.43
905.356	836.7
905.529	834.76
905.703	814.03
905.876	777.6
906.05	761.91
906.223	751.84
906.397	685.57
906.57	700.69
906.744	654.96
906.917	648.57
907.09	663.68
907.264	626.48
907.437	614.08
907.61	599.94
907.784	592.58
907.957	612.53
908.13	557.51
908.304	606.91
908.477	553.44
908.65	571.26
908.823	524.18
908.996	626.48
909.17	535.42
909.343	559.64
909.516	580.56
909.689	554.21
909.862	539.3
910.035	555.76
910.208	547.63
910.381	540.46
910.554	600.13
910.727	554.6
910.9	545.3
911.073	543.75
911.246	624.93
911.419	615.44
911.592	584.05
911.765	557.9
911.938	588.31
912.11	561.38
912.283	554.6
912.456	595.29
912.629	599.16
912.802	507.71
912.974	493.76
913.147	438.74
913.32	372.09
913.493	423.63
913.665	474.39
913.838	460.63
914.01	457.92
914.183	492.8
914.356	491.05
914.528	514.5
914.701	572.04
914.873	506.94
915.046	500.74
915.218	450.56
915.391	382.75
915.563	406.77
915.736	432.73
915.908	508.49
916.081	470.9
916.253	460.63
916.425	504.23
916.598	498.22
916.77	508.3
916.942	439.32
917.115	386.62
917.287	464.9
917.459	442.42
917.632	382.17
917.804	334.12
917.976	436.8
918.148	437.58
918.32	441.26
918.493	505
918.665	528.06
918.837	501.9
919.009	548.4
919.181	540.26
919.353	538.71
919.525	497.45
919.697	517.01
919.869	511.59
920.041	576.88
920.213	613.69
920.385	582.11
920.557	526.51
920.729	554.6
920.901	534.26
921.073	503.65
921.244	521.47
921.416	551.89
921.588	480.2
921.76	509.65
921.932	593.93
922.103	564.29
922.275	517.6
922.447	518.56
922.619	451.53
922.79	532.32
922.962	494.54
923.134	527.67
923.305	432.54
923.477	466.83
923.648	432.73
923.82	459.86
923.991	389.14
924.163	400.18
924.335	429.63
924.506	416.65
924.677	463.15
924.849	421.88
925.02	440.29
925.192	463.54
925.363	447.27
925.535	453.85
925.706	416.65
925.877	476.52
926.049	436.42
926.22	461.22
926.391	455.98
926.562	467.61
926.734	437.38
926.905	477.88
927.076	386.04
927.247	396.5
927.419	362.99
927.59	346.52
927.761	364.34
927.932	334.31
928.103	349.04
928.274	302.15
928.445	306.6
928.616	305.25
928.787	299.44
928.958	306.41
929.129	317.84
929.3	304.09
929.471	233.95
929.642	227.17
929.813	196.36
929.984	277.35
930.155	189
930.326	214.77
930.496	170.98
930.667	144.24
930.838	192.68
931.009	139.59
931.18	185.32
931.35	165.36
931.521	149.09
931.692	128.94
931.863	65.97
932.033	137.66
932.204	120.61
932.374	111.89
932.545	47.18
932.716	123.71
932.886	131.46
933.057	63.45
933.227	61.13
933.398	142.89
933.568	59.96
933.739	35.17
933.909	67.52
934.08	100.85
934.25	34.58
934.421	33.03
934.591	57.64
934.761	42.14
934.932	13.47
935.102	56.67
935.272	30.71
935.443	19.47
935.613	44.66
935.783	40.78
935.953	40.4
936.123	135.72
936.294	16.37
936.464	34
936.634	53.18
936.804	-24.12
936.974	-13.85
937.144	40.78
937.314	54.93
937.484	40.2
937.655	7.46
937.825	91.55
937.995	10.95
938.165	81.28
938.334	49.7
938.504	101.62
938.674	41.56
938.844	64.42
939.014	112.47
939.184	109.76
939.354	142.11
939.524	129.71
939.694	81.28
939.863	96.78
940.033	139.01
940.203	127.2
940.373	97.16
940.542	133.39
940.712	48.15
940.882	138.63
941.051	132.04
941.221	104.72
941.391	161.49
941.56	74.5
941.73	82.63
941.899	192.29
942.069	71.59
942.238	102.59
942.408	85.73
942.577	111.11
942.747	89.41
942.916	35.17
943.086	57.06
943.255	123.71
943.425	98.91
943.594	63.45
943.763	20.05
943.933	34.97
944.102	11.53
944.271	82.63
944.441	83.21
944.61	56.86
944.779	48.15
944.948	139.4
945.117	32.07
945.287	43.5
945.456	6.49
945.625	29.16
945.794	81.08
945.963	31.87
946.132	99.49
946.301	62.29
946.47	84.76
946.639	28.38
946.808	29.55
946.977	91.16
947.146	113.25
947.315	35.75
947.484	95.42
947.653	82.44
947.822	40.2
947.991	42.33
948.16	116.73
948.329	96.39
948.498	72.36
948.666	86.31
948.835	116.54
949.004	59.58
949.173	41.37
949.341	71.4
949.51	59.96
949.679	128.75
949.847	90.77
950.016	131.46
950.185	140.76
950.353	67.52
950.522	95.03
950.69	139.98
950.859	55.31
951.028	120.03
951.196	64.23
951.365	64.03
951.533	39.62
951.701	84.76
951.87	68.3
952.038	22.38
952.207	78.76
952.375	110.15
952.543	66.94
952.712	86.31
952.88	44.46
953.048	101.23
953.217	94.06
953.385	74.5
953.553	122.35
953.721	57.06
953.89	94.06
954.058	35.55
954.226	61.9
954.394	77.01
954.562	28.77
954.73	69.85
954.898	68.68
955.067	88.06
955.235	48.92
955.403	94.06
955.571	132.81
955.739	95.03
955.907	47.76
956.075	48.34
956.243	54.54
956.41	83.41
956.578	38.46
956.746	33.42
956.914	61.13
957.082	89.61
957.25	86.9
957.418	54.73
957.585	83.02
957.753	112.66
957.921	67.13
958.089	76.24
958.256	86.9
958.424	97.75
958.592	104.33
958.759	68.88
958.927	103.75
959.095	46.98
959.262	41.95
959.43	79.73
959.597	54.35
959.765	67.71
959.932	36.13
960.1	118.09
960.267	87.28
960.435	48.15
960.602	119.45
960.77	56.86
960.937	28.19
961.104	86.12
961.272	28.58
961.439	69.07
961.606	92.13
961.774	112.08
961.941	71.4
962.108	78.18
962.275	76.43
962.443	129.52
962.61	77.98
962.777	159.16
962.944	143.47
963.111	118.86
963.278	107.63
963.446	80.31
963.613	99.3
963.78	104.33
963.947	108.98
964.114	105.69
964.281	175.24
964.448	98.52
964.615	85.35
964.782	91.74
964.949	121.19
965.116	109.76
965.282	142.69
965.449	91.16
965.616	79.73
965.783	133.2
965.95	78.95
966.117	49.89
966.283	94.26
966.45	93.87
966.617	82.05
966.784	109.37
966.95	135.53
967.117	131.26
967.284	76.43
967.45	93.48
967.617	189
967.784	124.87
967.95	185.13
968.117	116.93
968.283	146.96
968.45	198.49
968.616	123.32
968.783	152.19
968.949	143.47
969.116	172.53
969.282	138.43
969.449	125.65
969.615	129.91
969.781	113.83
969.948	106.66
970.114	81.47
970.28	189.39
970.447	121.19
970.613	167.88
970.779	121.96
970.945	144.44
971.112	134.94
971.278	122.74
971.444	125.84
971.61	157.81
971.776	108.01
971.942	147.15
972.108	150.06
972.275	132.23
972.441	131.46
972.607	191.71
972.773	91.35
972.939	131.46
973.105	120.03
973.271	89.8
973.437	119.06
973.602	102.2
973.768	128.16
973.934	100.65
974.1	132.23
974.266	46.79
974.432	117.31
974.598	76.63
974.763	142.89
974.929	101.81
975.095	159.94
975.261	97.55
975.426	94.45
975.592	96
975.758	156.06
975.923	83.41
976.089	85.73
976.255	143.47
976.42	127.97
976.586	133.59
976.751	93.68
976.917	181.25
977.082	142.5
977.248	69.65
977.413	58.41
977.579	71.78
977.744	127.97
977.91	55.31
978.075	85.54
978.24	132.23
978.406	85.15
978.571	100.65
978.736	52.99
978.902	115.76
979.067	54.93
979.232	43.3
979.397	110.34
979.563	158.19
979.728	91.55
979.893	98.52
980.058	76.24
980.223	144.24
980.388	87.67
980.554	119.83
980.719	79.73
980.884	107.24
981.049	123.13
981.214	107.43
981.379	97.36
981.544	91.35
981.709	93.1
981.874	103.36
982.039	91.74
982.204	133.98
982.368	99.3
982.533	74.69
982.698	150.64
982.863	143.28
983.028	80.89
983.193	132.23
983.357	93.87
983.522	131.07
983.687	108.6
983.852	87.48
984.016	111.11
984.181	103.56
984.346	114.02
984.51	134.56
984.675	93.48
984.839	137.66
985.004	121.77
985.168	136.3
985.333	114.21
985.498	101.62
985.662	127
985.827	114.41
985.991	87.67
986.155	102.98
986.32	126.61
986.484	155.09
986.649	104.91
986.813	81.47
986.977	106.27
987.142	142.31
987.306	86.7
987.47	83.02
987.634	104.72
987.799	107.63
987.963	108.98
988.127	138.04
988.291	155.68
988.455	93.29
988.62	110.73
988.784	135.33
988.948	100.07
989.112	64.23
989.276	71.59
989.44	129.52
989.604	51.05
989.768	101.81
989.932	172.53
990.096	83.6
990.26	82.83
990.424	60.93
990.588	90.58
990.752	167.88
990.915	138.82
991.079	71.2
991.243	79.34
991.407	142.11
991.571	92.13
991.734	81.66
991.898	100.65
992.062	213.61
992.226	80.7
992.389	54.35
992.553	41.17
992.717	71.2
992.88	93.87
993.044	86.31
993.207	87.09
993.371	103.36
993.535	114.6
993.698	92.13
993.862	98.33
994.025	139.01
994.189	75.85
994.352	100.07
994.515	111.89
994.679	104.91
994.842	77.21
995.006	121.38
995.169	68.88
995.332	96
995.496	114.99
995.659	55.9
995.822	89.61
995.985	67.13
996.149	124.29
996.312	93.48
996.475	128.94
996.638	84.57
996.801	128.55
996.964	145.79
997.128	47.18
997.291	80.89
997.454	99.88
997.617	45.24
997.78	116.15
997.943	81.47
998.106	118.09
998.269	53.76
998.432	67.33
998.595	72.56
998.758	41.75
998.92	67.91
999.083	38.85
999.246	99.68
999.409	25.28
999.572	14.43
999.735	74.11
999.897	93.68
1000.06	66.75
1000.223	48.53
1000.386	78.76
1000.548	110.53
1000.711	77.6
1000.874	113.44
1001.036	39.23
1001.199	109.95
1001.361	49.11
1001.524	64.81
1001.687	80.11
1001.849	57.25
1002.012	81.08
1002.174	96.2
1002.337	100.26
1002.499	82.63
1002.661	106.08
1002.824	52.41
1002.986	68.1
1003.149	75.46
1003.311	32.07
1003.473	140.76
1003.636	39.82
1003.798	108.01
1003.96	82.25
1004.123	57.64
1004.285	69.26
1004.447	56.67
1004.609	75.08
1004.771	127.97
1004.933	34.39
1005.096	36.33
1005.258	46.01
1005.42	48.73
1005.582	90.19
1005.744	48.92
1005.906	15.4
1006.068	66.94
1006.23	14.05
1006.392	3.2
1006.554	18.7
1006.716	82.83
1006.878	105.11
1007.04	21.41
1007.202	39.82
1007.363	76.63
1007.525	43.3
1007.687	65.39
1007.849	108.4
1008.011	2.23
1008.172	56.09
1008.334	21.41
1008.496	69.46
1008.658	23.15
1008.819	41.17
1008.981	-10.56
1009.143	54.15
1009.304	49.7
1009.466	70.81
1009.627	97.55
1009.789	132.04
1009.95	58.61
1010.112	27.22
1010.273	66.36
1010.435	26.25
1010.596	51.05
1010.758	54.93
1010.919	29.16
1011.081	45.82
1011.242	53.76
1011.403	56.86
1011.565	33.62
1011.726	72.36
1011.887	16.37
1012.049	40.01
1012.21	48.34
1012.371	106.46
1012.532	2.42
1012.693	53.38
1012.855	20.83
1013.016	32.07
1013.177	62.29
1013.338	31.87
1013.499	107.82
1013.66	55.9
1013.821	65.97
1013.982	66.36
1014.143	39.62
1014.304	4.36
1014.465	69.85
1014.626	88.06
1014.787	43.69
1014.948	100.85
1015.109	-19.28
1015.27	71.98
1015.431	40.01
1015.592	38.46
1015.752	90.58
1015.913	39.23
1016.074	61.9
1016.235	39.43
1016.395	22.77
1016.556	14.43
1016.717	48.73
1016.877	57.45
1017.038	21.8
1017.199	38.07
1017.359	36.33
1017.52	50.66
1017.681	50.66
1017.841	39.82
1018.002	30.13
1018.162	42.14
1018.323	80.7
1018.483	16.95
1018.644	49.5
1018.804	3.39
1018.964	-3.97
1019.125	25.87
1019.285	39.04
1019.446	21.22
1019.606	14.43
1019.766	-31.48
1019.926	40.4
1020.087	46.21
1020.247	17.34
1020.407	44.27
1020.567	63.84
1020.728	24.12
1020.888	-8.04
1021.048	8.23
1021.208	-3.78
1021.368	26.64
1021.528	54.15
1021.688	52.6
1021.848	47.37
1022.008	40.98
1022.168	15.79
1022.328	37.68
1022.488	44.46
1022.648	0.29
1022.808	27.42
1022.968	17.73
1023.128	17.15
1023.288	4.55
1023.448	47.76
1023.608	39.82
1023.767	33.62
1023.927	14.63
1024.087	2.42
1024.247	4.75
1024.406	36.33
1024.566	-4.17
1024.726	2.23
1024.885	37.68
1025.045	61.71
1025.205	9.4
1025.364	-1.45
1025.524	30.52
1025.683	8.82
1025.843	57.25
1026.003	-2.81
1026.162	52.6
1026.321	49.7
1026.481	38.65
1026.64	20.63
1026.8	35.94
1026.959	29.93
1027.119	17.92
1027.278	1.84
1027.437	29.93
1027.597	37.68
1027.756	44.27
1027.915	39.82
1028.074	35.17
1028.234	1.26
1028.393	38.46
1028.552	-10.56
1028.711	-52.21
1028.87	52.99
1029.03	-18.89
1029.189	10.17
1029.348	-37.49
1029.507	-10.17
1029.666	16.18
1029.825	-20.05
1029.984	-5.13
1030.143	5.13
1030.302	-5.33
1030.461	-42.92
1030.62	16.18
1030.779	45.24
1030.938	-15.21
1031.097	-19.08
1031.255	42.33
1031.414	53.96
1031.573	23.73
1031.732	-39.62
1031.891	28
1032.049	56.09
1032.208	60.35
1032.367	-9.2
1032.525	-13.08
1032.684	2.62
1032.843	17.53
1033.001	-44.85
1033.16	153.93
1033.319	65.39
1033.477	22.77
1033.636	-1.45
1033.794	-16.76
1033.953	27.61
1034.111	44.27
1034.27	4.36
1034.428	33.81
1034.587	-10.95
1034.745	18.7
1034.903	2.81
1035.062	19.86
1035.22	-9.59
1035.378	59.58
1035.537	-8.82
1035.695	36.72
1035.853	24.32
1036.011	42.33
1036.17	59.19
1036.328	-25.67
1036.486	7.27
1036.644	3.58
1036.802	-71.98
1036.96	-2.23
1037.119	7.27
1037.277	-10.95
1037.435	-13.85
1037.593	-0.1
1037.751	0.48
1037.909	39.43
1038.067	39.43
