Data from gum_young_FLMT105791__107__17-40-35-041.txt Node

Date: Mon Mar 20 17:40:35 GMT 2023
User: antho
Spectrometer: FLMT10579
Trigger mode: 0
Integration Time (sec): 1.000000E-1
Scans to average: 10
Electric dark correction enabled: true
Nonlinearity correction enabled: false
Boxcar width: 0
XAxis mode: Wavelengths
Number of Pixels in Spectrum: 3648
>>>>>Begin Spectral Data<<<<<
345.248	-144.89
345.464	-144.89
345.681	-144.89
345.898	-157.1
346.114	-146.25
346.331	-39.49
346.548	19.6
346.764	-10.24
346.981	-13.14
347.197	-0.36
347.414	17.47
347.631	-28.64
347.847	63
348.064	18.63
348.28	29.29
348.497	-29.03
348.713	-27.09
348.93	14.56
349.146	23.28
349.363	-14.31
349.579	10.69
349.796	-15.27
350.012	-13.72
350.229	35.68
350.445	18.44
350.661	-21.47
350.878	0.81
351.094	6.04
351.311	11.08
351.527	23.86
351.743	-22.64
351.96	12.04
352.176	41.11
352.392	47.5
352.609	27.93
352.825	-6.75
353.041	27.54
353.257	-12.37
353.474	15.34
353.69	14.95
353.906	35.49
354.122	-15.66
354.339	37.43
354.555	3.52
354.771	-29.42
354.987	65.52
355.203	49.44
355.42	5.65
355.636	9.53
355.852	-4.81
356.068	2.94
356.284	-8.49
356.5	73.46
356.716	8.17
356.932	-14.69
357.148	22.31
357.364	-12.17
357.58	26.38
357.796	55.06
358.012	58.35
358.228	43.63
358.444	-53.44
358.66	43.04
358.876	39.75
359.092	-16.82
359.308	10.49
359.524	12.04
359.74	-9.27
359.956	-18.57
360.172	19.02
360.388	42.66
360.604	-9.85
360.819	60.68
361.035	1.58
361.251	33.55
361.467	-7.72
361.683	51.38
361.898	19.21
362.114	25.22
362.33	18.05
362.546	32.58
362.762	19.6
362.977	16.31
363.193	-10.24
363.409	31.81
363.624	18.83
363.84	-3.07
364.056	-4.04
364.271	11.27
364.487	16.69
364.703	-17.99
364.918	16.5
365.134	4.1
365.35	-3.84
365.565	81.79
365.781	14.18
365.996	54.86
366.212	62.03
366.427	40.33
366.643	26.58
366.858	31.61
367.074	-31.16
367.289	59.32
367.505	111.24
367.72	-14.31
367.936	-10.82
368.151	34.91
368.367	32.58
368.582	4.68
368.798	37.62
369.013	67.46
369.228	17.28
369.444	37.81
369.659	60.48
369.874	29.48
370.09	52.34
370.305	-48.02
370.52	0.61
370.736	41.49
370.951	9.53
371.166	63.97
371.381	80.05
371.597	31.81
371.812	6.23
372.027	-30.19
372.242	27.54
372.458	81.79
372.673	28.9
372.888	18.05
373.103	45.95
373.318	97.1
373.533	39.36
373.749	44.01
373.964	-48.4
374.179	53.89
374.394	-11.01
374.609	69.39
374.824	16.69
375.039	69.2
375.254	-6.56
375.469	69.2
375.684	13.59
375.899	64.36
376.114	37.62
376.329	29.87
376.544	60.68
376.759	64.74
376.974	22.31
377.189	3.33
377.404	-6.17
377.619	57.77
377.834	-3.84
378.049	-6.36
378.264	5.26
378.478	54.86
378.693	24.06
378.908	65.13
379.123	32
379.338	63.39
379.553	21.93
379.767	27.35
379.982	41.3
380.197	13.98
380.412	23.28
380.626	39.36
380.841	82.96
381.056	50.21
381.271	82.96
381.485	-9.07
381.7	4.68
381.915	26.96
382.129	17.66
382.344	17.08
382.559	44.98
382.773	55.06
382.988	-1.52
383.202	39.94
383.417	2.74
383.632	122.09
383.846	54.86
384.061	42.27
384.275	23.67
384.49	37.04
384.704	64.55
384.919	47.31
385.133	28.71
385.348	40.53
385.562	-2.1
385.777	75.59
385.991	32.58
386.206	23.67
386.42	16.69
386.634	50.41
386.849	30.84
387.063	43.24
387.277	7.39
387.492	20.18
387.706	24.25
387.92	14.56
388.135	51.38
388.349	36.65
388.563	-7.33
388.778	51.38
388.992	50.21
389.206	75.4
389.42	84.51
389.635	35.88
389.849	77.92
390.063	102.52
390.277	34.52
390.491	90.9
390.706	63.19
390.92	40.72
391.134	55.64
391.348	75.79
391.562	10.88
391.776	41.11
391.99	-0.94
392.205	73.27
392.419	11.85
392.633	42.66
392.847	86.83
393.061	34.71
393.275	67.84
393.489	50.6
393.703	32
393.917	76.37
394.131	29.48
394.345	68.43
394.559	75.21
394.773	42.27
394.986	60.48
395.2	62.42
395.414	76.76
395.628	43.24
395.842	45.56
396.056	27.54
396.27	0.61
396.484	86.44
396.697	76.17
396.911	94.77
397.125	43.04
397.339	99.62
397.553	76.17
397.766	91.67
397.98	79.66
398.194	105.82
398.408	66.49
398.621	87.8
398.835	106.59
399.049	55.25
399.262	121.51
399.476	104.46
399.69	98.46
399.903	147.09
400.117	56.8
400.331	113.57
400.544	53.51
400.758	173.82
400.971	96.32
401.185	115.12
401.398	59.32
401.612	130.81
401.826	104.85
402.039	114.34
402.253	53.31
402.466	92.64
402.68	70.17
402.893	98.46
403.106	95.16
403.32	79.66
403.533	95.94
403.747	89.35
403.96	118.41
404.174	126.74
404.387	65.52
404.6	87.02
404.814	103.3
405.027	99.04
405.24	91.87
405.454	84.7
405.667	123.26
405.88	47.5
406.094	99.62
406.307	150.57
406.52	85.67
406.733	75.01
406.947	59.9
407.16	143.41
407.373	124.22
407.586	77.92
407.799	64.36
408.012	132.17
408.226	139.92
408.439	142.05
408.652	80.44
408.865	140.31
409.078	135.27
409.291	140.5
409.504	109.31
409.717	136.43
409.93	148.06
410.143	119.96
410.357	41.49
410.57	74.82
410.783	101.94
410.996	102.72
411.209	125.97
411.421	138.37
411.634	139.34
411.847	110.27
412.06	119.57
412.273	131.78
412.486	119.96
412.699	208.89
412.912	109.89
413.125	132.94
413.338	129.07
413.55	157.16
413.763	114.73
413.976	145.15
414.189	107.95
414.402	128.87
414.615	156.58
414.827	91.09
415.04	146.7
415.253	120.35
415.466	155.42
415.678	194.75
415.891	117.64
416.104	140.11
416.316	128.68
416.529	102.33
416.742	183.7
416.954	168.59
417.167	121.51
417.38	136.43
417.592	173.63
417.805	122.87
418.017	116.09
418.23	175.37
418.442	128.1
418.655	100.78
418.868	145.15
419.08	189.52
419.293	163.17
419.505	180.22
419.718	160.65
419.93	182.54
420.142	150.96
420.355	193.2
420.567	176.54
420.78	162.78
420.992	151.16
421.205	229.82
421.417	100.78
421.629	140.5
421.842	132.17
422.054	126.55
422.266	187.39
422.479	193
422.691	143.41
422.903	171.3
423.115	149.61
423.328	135.66
423.54	158.32
423.752	135.66
423.964	159.1
424.177	168.59
424.389	125.97
424.601	255.97
424.813	178.67
425.025	200.17
425.238	199.59
425.45	164.72
425.662	143.79
425.874	409.23
426.086	147.47
426.298	223.23
426.51	169.56
426.722	157.36
426.934	150.96
427.146	185.45
427.358	161.62
427.57	207.73
427.782	152.51
427.994	158.71
428.206	160.84
428.418	141.66
428.63	175.95
428.842	222.45
429.054	181.96
429.266	190.87
429.478	158.71
429.69	136.43
429.902	140.69
430.114	205.6
430.325	148.83
430.537	147.47
430.749	144.18
430.961	106.01
431.173	134.49
431.384	160.45
431.596	58.93
431.808	134.3
432.02	206.37
432.231	207.73
432.443	229.62
432.655	213.54
432.867	170.34
433.078	204.05
433.29	268.18
433.502	227.3
433.713	228.85
433.925	237.57
434.136	240.28
434.348	180.6
434.56	155.42
434.771	262.56
434.983	171.5
435.194	194.94
435.406	196.1
435.617	273.99
435.829	256.94
436.04	220.71
436.252	243.77
436.463	261.59
436.675	254.62
436.886	238.15
437.098	257.13
437.309	265.85
437.521	227.49
437.732	232.72
437.943	222.65
438.155	240.47
438.366	190.1
438.578	266.82
438.789	229.82
439	255.39
439.211	203.66
439.423	243.77
439.634	242.6
439.845	277.28
440.057	248.03
440.268	295.3
440.479	219.55
440.69	279.8
440.902	223.42
441.113	251.71
441.324	227.49
441.535	284.84
441.746	298.4
441.957	231.17
442.168	249.58
442.38	288.13
442.591	285.23
442.802	217.42
443.013	255.97
443.224	292.78
443.435	249.19
443.646	270.5
443.857	283.87
444.068	267.98
444.279	244.35
444.49	335.8
444.701	270.31
444.912	363.31
445.123	305.57
445.334	291.23
445.545	288.33
445.756	305.18
445.967	265.66
446.178	295.3
446.388	310.42
446.599	308.09
446.81	300.53
447.021	271.67
447.232	318.17
447.443	366.8
447.653	255.97
447.864	323.98
448.075	309.06
448.286	333.28
448.496	346.65
448.707	354.2
448.918	301.12
449.129	374.93
449.339	272.25
449.55	327.66
449.761	312.93
449.971	361.76
450.182	315.45
450.393	374.55
450.603	297.82
450.814	356.72
451.024	344.13
451.235	379.39
451.446	385.2
451.656	371.06
451.867	317.58
452.077	366.02
452.288	392.18
452.498	408.26
452.709	336.96
452.919	362.73
453.13	336.38
453.34	368.54
453.55	288.13
453.761	354.01
453.971	362.73
454.182	370.48
454.392	351.3
454.602	414.07
454.813	385.59
455.023	395.86
455.233	337.35
455.444	387.53
455.654	299.18
455.864	348.39
456.075	359.63
456.285	363.11
456.495	352.26
456.705	351.1
456.916	411.94
457.126	401.28
457.336	365.63
457.546	303.25
457.756	353.04
457.967	436.74
458.177	341.41
458.387	366.6
458.597	358.27
458.807	372.41
459.017	388.88
459.227	380.94
459.437	369.51
459.647	402.06
459.857	392.76
460.068	367.57
460.278	422.01
460.488	397.6
460.698	451.66
460.908	401.67
461.117	359.82
461.327	354.4
461.537	410.58
461.747	400.31
461.957	393.34
462.167	494.09
462.377	428.6
462.587	394.89
462.797	427.05
463.007	417.17
463.216	451.46
463.426	453.98
463.636	458.44
463.846	371.64
464.056	383.26
464.265	459.79
464.475	382.49
464.685	443.52
464.895	465.41
465.104	412.33
465.314	452.82
465.524	412.33
465.733	394.11
465.943	501.64
466.153	476.46
466.362	464.25
466.572	451.46
466.782	421.63
466.991	424.14
467.201	439.64
467.41	374.16
467.62	447.98
467.829	428.41
468.039	441.39
468.249	422.79
468.458	445.07
468.668	451.46
468.877	490.99
469.086	499.71
469.296	508.43
469.505	428.99
469.715	512.49
469.924	510.94
470.134	516.37
470.343	519.08
470.552	479.17
470.762	487.11
470.971	431.12
471.18	486.73
471.39	472
471.599	461.93
471.808	503.39
472.018	466.19
472.227	552.99
472.436	543.49
472.645	503.78
472.855	491.18
473.064	573.33
473.273	501.26
473.482	555.12
473.691	572.17
473.901	576.82
474.11	517.92
474.319	601.62
474.528	521.21
474.737	571.2
474.946	598.9
475.155	559.38
475.364	611.89
475.573	565.58
475.783	592.12
475.992	608.2
476.201	588.64
476.41	540.39
476.619	555.12
476.828	575.66
477.037	548.72
477.245	551.24
477.454	641.34
477.663	590.38
477.872	599.1
478.081	645.79
478.29	588.83
478.499	656.64
478.708	636.1
478.917	678.73
479.125	612.66
479.334	620.8
479.543	643.08
479.752	676.21
479.961	639.98
480.169	660.9
480.378	662.65
480.587	759.13
480.796	670.4
481.004	682.8
481.213	725.23
481.422	699.46
481.63	692.87
481.839	724.45
482.048	783.93
482.256	726.97
482.465	764.56
482.674	751.38
482.882	758.94
483.091	815.32
483.299	727.55
483.508	779.86
483.716	754.48
483.925	756.03
484.134	741.12
484.342	749.25
484.551	774.63
484.759	772.5
484.967	798.85
485.176	750.61
485.384	781.22
485.593	808.15
485.801	807.18
486.01	753.9
486.218	698.88
486.426	649.28
486.635	691.52
486.843	683.77
487.051	714.57
487.26	702.75
487.468	746.73
487.676	752.35
487.885	714.18
488.093	755.84
488.301	790.71
488.509	818.03
488.717	843.41
488.926	826.56
489.134	808.54
489.342	814.35
489.55	808.15
489.758	834.11
489.967	825.78
490.175	939.51
490.383	851.16
490.591	934.28
490.799	871.31
491.007	894.37
491.215	897.66
491.423	884.1
491.631	876.16
491.839	889.91
492.047	896.69
492.255	844.77
492.463	843.22
492.671	861.82
492.879	933.7
493.087	898.83
493.295	933.31
493.503	916.46
493.711	951.72
493.919	987.95
494.127	983.11
494.334	984.46
494.542	923.82
494.75	982.52
494.958	951.14
495.166	990.66
495.374	990.66
495.581	1009.46
495.789	994.73
495.997	1063.51
496.205	985.62
496.412	1009.65
496.62	1014.88
496.828	1020.5
497.035	976.13
497.243	1063.12
497.451	1015.66
497.658	1065.64
497.866	1026.51
498.074	1093.15
498.281	1026.89
498.489	1091.02
498.696	1026.7
498.904	1042.39
499.112	1020.31
499.319	1109.04
499.527	1044.14
499.734	1120.67
499.942	1043.36
500.149	1059.44
500.357	1108.27
500.564	1036.39
500.771	1071.07
500.979	1049.75
501.186	1047.43
501.394	1063.12
501.601	1055.95
501.808	1072.23
502.016	1056.73
502.223	1057.7
502.43	1088.12
502.638	1076.69
502.845	1098.77
503.052	1124.54
503.26	1102.45
503.467	1171.62
503.674	1127.25
503.881	1160.97
504.089	1199.33
504.296	1183.63
504.503	1089.67
504.71	1126.48
504.917	1116.6
505.125	1168.13
505.332	1174.33
505.539	1194.48
505.746	1259.78
505.953	1207.47
506.16	1234.4
506.367	1295.62
506.574	1301.63
506.781	1293.49
506.988	1232.85
507.195	1259
507.402	1234.78
507.609	1336.69
507.816	1284.96
508.023	1242.53
508.23	1253
508.437	1239.43
508.644	1287.29
508.851	1330.69
509.058	1333.98
509.265	1345.99
509.472	1354.91
509.679	1436.09
509.885	1366.73
510.092	1368.08
510.299	1377.96
510.506	1384.55
510.713	1395.21
510.92	1370.99
511.126	1436.28
511.333	1477.55
511.54	1456.04
511.746	1508.74
511.953	1520.95
512.16	1527.73
512.367	1490.92
512.573	1496.34
512.78	1535.48
512.987	1488.01
513.193	1511.26
513.4	1458.95
513.606	1548.65
513.813	1577.13
514.02	1535.67
514.226	1568.22
514.433	1605.42
514.639	1528.89
514.846	1583.53
515.052	1552.14
515.259	1582.37
515.465	1636.23
515.672	1607.75
515.878	1710.05
516.085	1631.77
516.291	1730.39
516.497	1633.9
516.704	1614.14
516.91	1581.98
517.117	1552.34
517.323	1480.84
517.529	1556.21
517.736	1528.31
517.942	1546.14
518.148	1570.55
518.354	1648.24
518.561	1633.52
518.767	1627.51
518.973	1666.06
519.179	1728.26
519.386	1683.7
519.592	1722.45
519.798	1724.58
520.004	1864.46
520.21	1849.93
520.417	1904.96
520.623	1925.88
520.829	1951.45
521.035	1943.7
521.241	1962.3
521.447	1981.1
521.653	2068.09
521.859	1998.15
522.065	2021.59
522.271	2103.93
522.477	2095.6
522.683	2113.23
522.889	2078.55
523.095	2105.29
523.301	2115.95
523.507	2082.23
523.713	2118.08
523.919	2075.26
524.125	2225.8
524.331	2182.01
524.537	2260.67
524.742	2264.74
524.948	2280.05
525.154	2298.65
525.36	2398.04
525.566	2278.69
525.772	2341.08
525.977	2297.87
526.183	2315.12
526.389	2386.61
526.595	2276.56
526.8	2281.99
527.006	2227.35
527.212	2123.89
527.417	2142.1
527.623	2141.52
527.829	2257.38
528.034	2245.56
528.24	2325.58
528.446	2311.63
528.651	2430.01
528.857	2401.92
529.062	2489.3
529.268	2478.45
529.473	2539.48
529.679	2530.95
529.884	2583.26
530.09	2561.37
530.295	2554.4
530.501	2533.86
530.706	2618.53
530.912	2552.07
531.117	2599.54
531.323	2613.68
531.528	2644.88
531.733	2696.8
531.939	2641.78
532.144	2666.38
532.35	2612.52
532.555	2701.45
532.76	2637.51
532.966	2641
533.171	2620.46
533.376	2555.36
533.581	2541.61
533.787	2602.64
533.992	2658.05
534.197	2685.37
534.402	2647.39
534.607	2698.93
534.813	2793.09
535.018	2700.87
535.223	2728.38
535.428	2783.21
535.633	2778.37
535.838	2827.19
536.043	2830.29
536.249	2913.02
536.454	2823.7
536.659	2832.62
536.864	2794.64
537.069	2814.6
537.274	2795.8
537.479	2791.15
537.684	2779.34
537.889	2759.96
538.094	2906.63
538.299	2811.89
538.504	2893.26
538.708	2860.71
538.913	2926.78
539.118	2922.52
539.323	2915.35
539.528	2814.6
539.733	2847.92
539.938	2886.09
540.142	2867.69
540.347	2835.91
540.552	2830.68
540.757	2772.94
540.962	2809.56
541.166	2761.51
541.371	2750.86
541.576	2809.75
541.781	2746.4
541.985	2878.53
542.19	2852.19
542.395	2920.58
542.599	2960.3
542.804	2885.9
543.008	2930.07
543.213	2913.99
543.418	2867.49
543.622	2936.08
543.827	2866.91
544.031	2984.13
544.236	2969.79
544.44	2975.6
544.645	3025.78
544.849	2956.03
545.054	2995.56
545.258	3036.44
545.463	2997.88
545.667	2937.63
545.872	3042.45
546.076	3017.45
546.281	3007.18
546.485	2994.59
546.689	2993.81
546.894	3021.33
547.098	3003.7
547.302	2997.11
547.507	3025.98
547.711	3012.8
547.915	3036.44
548.119	2969.79
548.324	2989.55
548.528	3025.78
548.732	2998.66
548.936	3031.79
549.141	3058.14
549.345	3026.75
549.549	3061.24
549.753	3085.65
549.957	3144.74
550.161	3124.4
550.366	3125.56
550.57	3043.8
550.774	3073.25
550.978	3092.63
551.182	3114.91
551.386	3046.13
551.59	2991.49
551.794	3060.46
551.998	3105.61
552.202	3092.63
552.406	3034.11
552.61	3110.26
552.814	3079.26
553.018	3127.11
553.222	3044.96
553.426	3036.63
553.63	3119.75
553.833	3055.04
554.037	3011.06
554.241	3128.08
554.445	3074.8
554.649	3057.94
554.853	3056.39
555.056	3114.33
555.26	3083.13
555.464	3068.02
555.668	3095.73
555.871	3092.04
556.075	3115.29
556.279	3047.29
556.483	3014.74
556.686	3056.01
556.89	3052.91
557.094	3052.91
557.297	2932.59
557.501	3036.25
557.704	2910.12
557.908	2998.27
558.112	2943.25
558.315	3015.71
558.519	2966.5
558.722	2924.45
558.926	2916.9
559.129	2836.3
559.333	2821.96
559.536	2858.39
559.74	2843.27
559.943	2827.39
560.147	2830.87
560.35	2806.07
560.553	2887.06
560.757	2792.12
560.96	2871.37
561.164	2897.52
561.367	2930.65
561.57	2889.97
561.774	2887.64
561.977	2859.16
562.18	2818.67
562.384	2959.33
562.587	2828.55
562.79	2843.85
562.993	2794.06
563.197	2803.55
563.4	2858
563.603	2870.78
563.806	2866.33
564.009	2786.7
564.212	2806.46
564.416	2713.46
564.619	2780.5
564.822	2701.45
565.025	2803.36
565.228	2720.82
565.431	2801.62
565.634	2672
565.837	2688.86
566.04	2647.98
566.243	2634.22
566.446	2526.11
566.649	2646.81
566.852	2584.81
567.055	2643.71
567.258	2692.54
567.461	2668.71
567.664	2702.81
567.867	2588.5
568.07	2604.19
568.273	2662.31
568.475	2630.15
568.678	2569.31
568.881	2557.5
569.084	2494.14
569.287	2437.18
569.489	2479.42
569.692	2518.17
569.895	2523.4
570.098	2431.75
570.3	2458.68
570.503	2373.05
570.706	2383.9
570.909	2408.5
571.111	2320.93
571.314	2314.92
571.516	2325
571.719	2347.28
571.922	2326.16
572.124	2295.16
572.327	2325.77
572.529	2283.54
572.732	2307.56
572.935	2340.5
573.137	2386.42
573.34	2265.32
573.542	2363.94
573.745	2336.43
573.947	2361.04
574.15	2296.52
574.352	2263.39
574.554	2310.86
574.757	2228.51
574.959	2200.42
575.162	2230.84
575.364	2210.69
575.566	2289.35
575.769	2177.56
575.971	2181.24
576.173	2050.85
576.376	2184.14
576.578	2229.87
576.78	2252.54
576.982	2098.12
577.185	2167.1
577.387	2115.56
577.589	2121.18
577.791	2150.82
577.993	2178.14
578.196	2091.15
578.398	2120.6
578.6	2159.35
578.802	2054.53
579.004	2040.19
579.206	2082.43
579.408	2065.77
579.61	2054.92
579.812	2114.01
580.014	2038.64
580.216	2045.62
580.418	2120.6
580.62	2086.69
580.822	2031.08
581.024	2089.01
581.226	2132.03
581.428	2071.77
581.63	2185.69
581.832	2068.87
582.034	2144.81
582.236	2126.8
582.438	2142.49
582.64	2126.21
582.841	2184.14
583.043	2207.2
583.245	2119.24
583.447	2168.45
583.649	2122.34
583.85	2124.08
584.052	2176.39
584.254	2054.53
584.456	2180.27
584.657	2074.87
584.859	2097.35
585.061	2083.4
585.262	2079.72
585.464	2043.68
585.666	2104.71
585.867	2019.07
586.069	2113.81
586.27	2038.45
586.472	2054.92
586.674	2013.65
586.875	2018.68
587.077	2010.16
587.278	2077.2
587.48	2013.65
587.681	2127.18
587.883	2012.29
588.084	1967.92
588.285	1991.75
588.487	1956.88
588.688	1985.75
588.89	1840.82
589.091	1797.04
589.292	1788.32
589.494	1768.75
589.695	1727.48
589.896	1649.21
590.098	1672.26
590.299	1727.48
590.5	1704.04
590.702	1741.24
590.903	1769.33
591.104	1820.48
591.305	1822.22
591.507	1838.69
591.708	1837.72
591.909	1821.84
592.11	1862.14
592.311	1832.88
592.512	1776.5
592.714	1741.04
592.915	1775.73
593.116	1810.6
593.317	1851.87
593.518	1811.57
593.719	1834.43
593.92	1896.24
594.121	1867.76
594.322	1825.71
594.523	1815.64
594.724	1777.66
594.925	1761.19
595.126	1782.7
595.327	1799.75
595.528	1792.19
595.729	1778.05
595.929	1771.08
596.13	1801.11
596.331	1828.04
596.532	1841.41
596.733	1865.04
596.934	1865.62
597.135	1843.34
597.335	1849.54
597.536	1780.76
597.737	1831.52
597.938	1802.27
598.138	1848.38
598.339	1782.51
598.54	1849.74
598.74	1795.29
598.941	1834.24
599.142	1863.49
599.342	1832.88
599.543	1798.2
599.744	1786.58
599.944	1805.56
600.145	1809.44
600.345	1847.41
600.546	1856.32
600.746	1882.67
600.947	1886.74
601.147	1825.71
601.348	1854
601.548	1816.03
601.749	1825.71
601.949	1773.4
602.15	1798.78
602.35	1769.91
602.551	1806.14
602.751	1746.86
602.951	1804.98
603.152	1750.93
603.352	1819.32
603.552	1827.46
603.753	1832.69
603.953	1841.99
604.153	1836.37
604.354	1835.59
604.554	1805.18
604.754	1818.74
604.954	1759.45
605.155	1816.03
605.355	1778.63
605.555	1823
605.755	1831.91
605.955	1792.19
606.155	1791.61
606.356	1776.5
606.556	1773.59
606.756	1770.3
606.956	1737.94
607.156	1799.36
607.356	1754.99
607.556	1754.22
607.756	1749.76
607.956	1797.43
608.156	1770.69
608.356	1716.25
608.556	1777.28
608.756	1690.67
608.956	1703.26
609.156	1723.22
609.356	1672.07
609.556	1699.78
609.755	1713.15
609.955	1697.06
610.155	1705.59
610.355	1700.55
610.555	1672.65
610.755	1673.43
610.954	1602.52
611.154	1699.78
611.354	1709.27
611.554	1687.18
611.753	1678.66
611.953	1627.32
612.153	1685.05
612.352	1687.57
612.552	1634.87
612.752	1599.22
612.951	1628.09
613.151	1645.33
613.351	1572.87
613.55	1651.92
613.75	1636.62
613.949	1590.89
614.149	1623.83
614.348	1573.26
614.548	1564.54
614.747	1538.77
614.947	1573.84
615.146	1546.33
615.346	1615.69
615.545	1551.37
615.745	1586.82
615.944	1568.22
616.144	1587.98
616.343	1560.47
616.542	1532.57
616.742	1532.38
616.941	1522.11
617.14	1449.65
617.34	1515.14
617.539	1540.13
617.738	1504.48
617.938	1583.33
618.137	1525.99
618.336	1469.41
618.535	1535.67
618.734	1515.52
618.934	1538.97
619.133	1488.4
619.332	1530.25
619.531	1513.78
619.73	1507
619.929	1536.64
620.128	1536.84
620.328	1564.35
620.527	1488.4
620.726	1453.72
620.925	1502.54
621.124	1498.86
621.323	1465.34
621.522	1444.42
621.721	1433.76
621.92	1456.62
622.119	1472.51
622.318	1421.56
622.517	1430.66
622.715	1468.64
622.914	1426.21
623.113	1422.72
623.312	1360.14
623.511	1443.26
623.71	1449.07
623.909	1383.97
624.107	1482
624.306	1364.79
624.505	1366.34
624.704	1399.47
624.902	1365.95
625.101	1420.59
625.3	1393.46
625.499	1380.09
625.697	1356.84
625.896	1365.37
626.095	1357.62
626.293	1340.76
626.492	1378.74
626.69	1363.63
626.889	1360.33
627.088	1414.19
627.286	1312.67
627.485	1288.45
627.683	1318.09
627.882	1362.27
628.08	1225.1
628.279	1237.3
628.477	1324.68
628.676	1273.34
628.874	1309.38
629.073	1260.36
629.271	1258.81
629.469	1318.09
629.668	1247.76
629.866	1263.26
630.065	1261.71
630.263	1338.83
630.461	1264.23
630.66	1270.24
630.858	1301.24
631.056	1343.48
631.254	1329.53
631.453	1264.81
631.651	1368.28
631.849	1284.96
632.047	1308.79
632.245	1304.53
632.444	1314.03
632.642	1324.88
632.84	1342.89
633.038	1298.53
633.236	1296.39
633.434	1280.51
633.632	1272.95
633.83	1269.85
634.028	1331.46
634.227	1302.01
634.425	1411.29
634.623	1312.67
634.821	1288.45
635.019	1353.74
635.216	1299.88
635.414	1328.36
635.612	1310.34
635.81	1316.16
636.008	1390.17
636.206	1278.57
636.404	1332.63
636.602	1242.34
636.8	1303.37
636.997	1319.84
637.195	1325.46
637.393	1352.58
637.591	1378.74
637.789	1348.71
637.986	1293.68
638.184	1335.73
638.382	1381.84
638.58	1347.93
638.777	1387.07
638.975	1329.14
639.173	1326.23
639.37	1286.51
639.568	1296.39
639.765	1323.52
639.963	1273.92
640.161	1293.68
640.358	1315.96
640.556	1218.12
640.753	1241.18
640.951	1224.13
641.148	1275.08
641.346	1255.71
641.543	1230.71
641.741	1276.63
641.938	1231.3
642.136	1198.75
642.333	1215.02
642.531	1263.85
642.728	1276.44
642.925	1236.72
643.123	1222.58
643.32	1222.38
643.517	1202.62
643.715	1222.96
643.912	1189.25
644.109	1194.87
644.306	1180.73
644.504	1153.8
644.701	1212.89
644.898	1215.02
645.095	1136.17
645.293	1187.9
645.49	1178.98
645.687	1180.73
645.884	1212.31
646.081	1085.6
646.278	1135.2
646.475	1128.42
646.672	1120.86
646.87	1131.71
647.067	1152.44
647.264	1114.66
647.461	1040.07
647.658	1032.32
647.855	1072.04
648.052	1035.22
648.249	1009.07
648.446	1036.77
648.642	1024.76
648.839	1035.03
649.036	1024.96
649.233	993.96
649.43	972.64
649.627	990.86
649.824	984.07
650.021	985.62
650.217	993.37
650.414	994.92
650.611	1009.07
650.808	995.89
651.004	1037.16
651.201	1049.56
651.398	1076.3
651.595	1024.76
651.791	940.87
651.988	1047.62
652.185	970.9
652.381	1028.44
652.578	985.24
652.775	1030.96
652.971	991.05
653.168	1006.55
653.364	1010.23
653.561	946.29
653.757	995.7
653.954	1022.82
654.15	965.28
654.347	1073.39
654.543	995.51
654.74	945.71
654.936	936.99
655.133	966.06
655.329	962.37
655.525	949.39
655.722	964.51
655.918	913.94
656.115	919.17
656.311	862.4
656.507	800.01
656.704	812.8
656.9	812.8
657.096	827.53
657.292	817.26
657.489	890.69
657.685	909.09
657.881	880.03
658.077	881.39
658.273	867.63
658.47	986.79
658.666	894.37
658.862	930.41
659.058	925.76
659.254	947.65
659.45	883.33
659.646	951.52
659.842	887.59
660.038	954.24
660.234	911.23
660.43	905.8
660.626	991.24
660.822	933.7
661.018	950.17
661.214	929.83
661.41	871.7
661.606	960.24
661.802	920.14
661.998	902.51
662.194	883.33
662.39	930.6
662.586	927.89
662.781	915.68
662.977	930.02
663.173	942.23
663.369	900.96
663.564	922.27
663.76	932.34
663.956	858.33
664.152	929.05
664.347	815.9
664.543	876.35
664.739	854.26
664.934	828.88
665.13	836.44
665.326	903.28
665.521	873.44
665.717	848.45
665.912	824.04
666.108	816.29
666.304	812.22
666.499	830.82
666.695	799.24
666.89	831.21
667.086	844
667.281	828.88
667.477	906.19
667.672	881.78
667.867	828.3
668.063	840.51
668.258	786.06
668.454	818.03
668.649	880.03
668.844	842.83
669.04	856.98
669.235	842.83
669.43	806.99
669.626	826.95
669.821	855.43
670.016	803.5
670.211	793.62
670.407	776.18
670.602	818.81
670.797	822.3
670.992	841.48
671.187	806.99
671.382	824.81
671.578	792.46
671.773	837.02
671.968	778.12
672.163	799.82
672.358	807.57
672.553	800.79
672.748	792.07
672.943	868.21
673.138	776.96
673.333	844
673.528	761.65
673.723	842.45
673.918	817.65
674.113	780.45
674.308	855.81
674.503	827.53
674.698	808.73
674.892	792.07
675.087	828.69
675.282	826.95
675.477	782.77
675.672	842.06
675.867	800.6
676.061	782
676.256	745.18
676.451	753.13
676.646	796.14
676.84	776.96
677.035	756.23
677.23	761.85
677.424	807.96
677.619	837.99
677.814	836.83
678.008	852.71
678.203	744.6
678.397	794.78
678.592	807.96
678.787	837.41
678.981	782.96
679.176	816.87
679.37	806.6
679.565	770.57
679.759	766.3
679.954	823.46
680.148	856.98
680.342	868.99
680.537	836.05
680.731	787.42
680.926	819.2
681.12	801.56
681.314	792.26
681.509	802.53
681.703	824.04
681.897	849.23
682.092	817.65
682.286	840.51
682.48	889.91
682.674	870.73
682.869	816.48
683.063	853.68
683.257	881.97
683.451	805.05
683.645	835.47
683.839	825.2
684.034	840.9
684.228	904.44
684.422	814.35
684.616	822.1
684.81	850.2
685.004	841.28
685.198	831.98
685.392	878.68
685.586	842.45
685.78	846.51
685.974	881.78
686.168	867.05
686.362	929.83
686.556	830.43
686.75	807.76
686.944	796.91
687.138	770.18
687.331	681.64
687.525	711.28
687.719	640.17
687.913	678.34
688.107	685.12
688.301	668.07
688.494	743.83
688.688	688.42
688.882	682.02
689.076	673.69
689.269	723.1
689.463	781.22
689.657	754.48
689.85	735.69
690.044	779.67
690.238	803.5
690.431	788.58
690.625	793.43
690.818	802.92
691.012	849.23
691.205	874.03
691.399	831.21
691.593	888.56
691.786	959.27
691.98	949.39
692.173	993.96
692.366	992.41
692.56	1006.94
692.753	1040.65
692.947	962.57
693.14	1056.92
693.333	1049.17
693.527	995.51
693.72	1048.4
693.914	1066.8
694.107	1053.63
694.3	1073.97
694.493	1057.89
694.687	1155.15
694.88	1104.78
695.073	1154.77
695.266	1162.9
695.46	1196.81
695.653	1186.35
695.846	1199.72
696.039	1163.48
696.232	1209.98
696.425	1308.02
696.618	1324.88
696.812	1293.49
697.005	1384.16
697.198	1445.19
697.391	1414.97
697.584	1479.68
697.777	1511.07
697.97	1519.2
698.163	1510.87
698.356	1521.53
698.549	1616.08
698.742	1570.74
698.935	1544
699.127	1593.41
699.32	1514.94
699.513	1573.07
699.706	1610.46
699.899	1622.47
700.092	1599.42
700.285	1618.4
700.477	1573.07
700.67	1686.8
700.863	1691.45
701.056	1772.04
701.248	1746.86
701.441	1738.33
701.634	1732.13
701.826	1803.82
702.019	1739.69
702.212	1809.05
702.404	1810.41
702.597	1794.71
702.79	1827.26
702.982	1831.72
703.175	1907.86
703.367	1920.45
703.56	1944.29
703.752	2065.18
703.945	2042.71
704.137	2020.43
704.33	2060.15
704.522	2080.88
704.715	2097.93
704.907	2113.04
705.1	2143.26
705.292	2157.99
705.484	2122.53
705.677	2164.38
705.869	2241.49
706.061	2261.26
706.254	2299.81
706.446	2230.06
706.638	2278.31
706.831	2346.5
707.023	2320.54
707.215	2413.54
707.407	2430.59
707.599	2347.09
707.792	2515.26
707.984	2459.65
708.176	2477.67
708.368	2496.27
708.56	2494.14
708.752	2506.73
708.944	2503.83
709.136	2578.03
709.329	2564.28
709.521	2673.16
709.713	2614.84
709.905	2637.32
710.097	2708.62
710.289	2649.53
710.481	2673.74
710.672	2694.67
710.864	2723.54
711.056	2774.88
711.248	2732.26
711.44	2797.55
711.632	2752.21
711.824	2864.78
712.016	2865.17
712.207	2874.66
712.399	2885.51
712.591	2958.75
712.783	2902.17
712.975	2946.35
713.166	2913.99
713.358	2917.87
713.55	2998.46
713.741	3000.98
713.933	2998.27
714.125	2979.86
714.316	2973.28
714.508	3063.95
714.7	3088.94
714.891	2987.42
715.083	3106.77
715.274	3055.23
715.466	3092.04
715.657	3052.91
715.849	3005.05
716.04	3035.86
716.232	2986.06
716.423	3019.58
716.615	2954.68
716.806	2826.8
716.998	2704.94
717.189	2635.96
717.381	2595.47
717.572	2560.21
717.763	2567.18
717.955	2512.93
718.146	2473.02
718.337	2419.74
718.528	2347.86
718.72	2261.84
718.911	2315.7
719.102	2246.73
719.293	2296.32
719.485	2275.98
719.676	2263.58
719.867	2177.94
720.058	2207.98
720.249	2229.87
720.44	2254.48
720.632	2340.11
720.823	2363.36
721.014	2539.86
721.205	2581.33
721.396	2674.91
721.587	2765
721.778	2843.08
721.969	2863.62
722.16	2963.01
722.351	3041.28
722.542	3107.35
722.733	3126.92
722.924	3061.43
723.115	3072.09
723.305	3037.8
723.496	3059.88
723.687	2881.05
723.878	2925.62
724.069	2879.89
724.26	2910.89
724.45	2811.5
724.641	2818.28
724.832	2812.27
725.023	2831.45
725.213	2814.4
725.404	2759.38
725.595	2777.01
725.785	2790.96
725.976	2852.77
726.167	2827.39
726.357	2852.96
726.548	2943.83
726.739	2852.19
726.929	2951
727.12	2926.97
727.31	2957.2
727.501	2898.68
727.691	2916.9
727.882	2903.72
728.072	2988
728.263	2963.98
728.453	3097.86
728.644	3028.3
728.834	3019.2
729.024	2984.51
729.215	2994.59
729.405	3047.87
729.596	3089.14
729.786	3101.93
729.976	3092.63
730.167	3138.16
730.357	3120.33
730.547	3071.51
730.737	3100.18
730.928	3172.26
731.118	3246.65
731.308	3120.14
731.498	3186.59
731.688	3256.73
731.879	3276.88
732.069	3287.73
732.259	3403.4
732.449	3424.32
732.639	3505.5
732.829	3552.78
733.019	3592.11
733.209	3653.72
733.399	3702.35
733.589	3718.24
733.779	3818.98
733.969	3820.53
734.159	3877.3
734.349	3940.85
734.539	3981.93
734.729	3995.88
734.919	4007.69
735.109	4058.84
735.299	3958.48
735.488	3987.35
735.678	3994.52
735.868	3976.69
736.058	3973.4
736.248	3968.56
736.437	3954.03
736.627	3940.85
736.817	4063.11
737.007	3971.08
737.196	4072.02
737.386	4048.57
737.576	4023.97
737.765	4095.85
737.955	4060.59
738.144	4182.84
738.334	4153.97
738.524	4049.35
738.713	4116
738.903	4143.7
739.092	4138.47
739.282	4150.87
739.471	4158.24
739.661	4182.26
739.85	4215.78
740.04	4189.82
740.229	4259.18
740.419	4311.49
740.608	4294.25
740.797	4242.9
740.987	4317.3
741.176	4294.44
741.365	4295.02
741.555	4214.03
741.744	4363.22
741.933	4346.56
742.123	4314.59
742.312	4366.9
742.501	4379.3
742.69	4391.7
742.88	4327.57
743.069	4436.84
743.258	4395.19
743.447	4418.83
743.636	4467.46
743.825	4419.21
744.014	4425.99
744.204	4490.32
744.393	4437.23
744.582	4528.49
744.771	4523.64
744.96	4428.9
745.149	4506.4
745.338	4395.77
745.527	4501.17
745.716	4417.86
745.905	4420.57
746.094	4498.65
746.283	4487.22
746.471	4491.09
746.66	4511.24
746.849	4560.26
747.038	4500.78
747.227	4467.07
747.416	4478.89
747.604	4449.24
747.793	4449.05
747.982	4432
748.171	4531
748.359	4476.56
748.548	4493.81
748.737	4538.75
748.926	4452.54
749.114	4365.54
749.303	4471.14
749.491	4430.45
749.68	4371.36
749.869	4464.36
750.057	4401.78
750.246	4407.78
750.434	4419.99
750.623	4385.89
750.811	4362.06
751	4374.84
751.188	4375.43
751.377	4394.8
751.565	4366.9
751.754	4356.05
751.942	4358.96
752.131	4375.81
752.319	4288.24
752.507	4325.44
752.696	4308.2
752.884	4407.2
753.072	4305.29
753.261	4322.34
753.449	4332.61
753.637	4298.7
753.825	4385.5
754.014	4345.78
754.202	4309.94
754.39	4374.65
754.578	4375.23
754.766	4305.29
754.955	4270.03
755.143	4313.62
755.331	4277.78
755.519	4330.67
755.707	4281.46
755.895	4254.92
756.083	4273.71
756.271	4222.37
756.459	4238.64
756.647	4269.83
756.835	4169.86
757.023	4186.33
757.211	4179.74
757.399	4246.97
757.587	4165.6
757.775	4132.47
757.963	4152.23
758.151	4173.93
758.339	4106.89
758.526	4161.14
758.714	4111.54
758.902	3962.74
759.09	3893
759.278	3643.45
759.465	3381.12
759.653	2927.17
759.841	2632.48
760.028	2232.19
760.216	1987.69
760.404	1813.12
760.591	1516.49
760.779	1262.3
760.967	1064.09
761.154	923.24
761.342	919.17
761.529	913.94
761.717	962.18
761.905	966.64
762.092	1034.25
762.28	977.29
762.467	961.6
762.655	871.31
762.842	877.51
763.029	880.61
763.217	901.54
763.404	917.04
763.592	925.56
763.779	915.68
763.966	943.78
764.154	970.9
764.341	1035.03
764.528	1051.69
764.716	1120.86
764.903	1160.38
765.09	1246.8
765.277	1336.69
765.465	1495.37
765.652	1603.1
765.839	1653.08
766.026	1835.21
766.213	1903.79
766.4	2024.88
766.588	2237.23
766.775	2272.3
766.962	2444.73
767.149	2539.48
767.336	2681.69
767.523	2686.34
767.71	2847.15
767.897	2968.63
768.084	3045.16
768.271	3160.63
768.458	3193.57
768.645	3268.16
768.832	3287.73
769.019	3305.75
769.206	3387.9
769.392	3470.63
769.579	3576.99
769.766	3521.97
769.953	3511.12
770.14	3596.95
770.327	3569.44
770.513	3618.07
770.7	3707.58
770.887	3589.2
771.073	3661.47
771.26	3658.17
771.447	3649.07
771.634	3602.96
771.82	3719.4
772.007	3609.93
772.193	3709.32
772.38	3645
772.567	3648.29
772.753	3647.13
772.94	3736.06
773.126	3706.8
773.313	3710.87
773.499	3687.62
773.686	3711.65
773.872	3672.9
774.059	3656.04
774.245	3687.82
774.432	3638.99
774.618	3625.24
774.804	3631.24
774.991	3584.55
775.177	3640.74
775.363	3587.46
775.55	3615.74
775.736	3502.01
775.922	3615.16
776.109	3615.16
776.295	3576.61
776.481	3593.07
776.667	3615.94
776.853	3550.64
777.04	3571.37
777.226	3559.75
777.412	3625.82
777.598	3515.19
777.784	3572.34
777.97	3511.7
778.156	3559.17
778.342	3565.37
778.528	3482.83
778.715	3454.93
778.901	3477.21
779.087	3541.34
779.272	3492.33
779.458	3496.98
779.644	3497.94
779.83	3489.23
780.016	3532.82
780.202	3442.92
780.388	3477.41
780.574	3324.93
780.76	3412.11
780.946	3503.95
781.131	3428.78
781.317	3417.54
781.503	3396.61
781.689	3399.71
781.874	3478.18
782.06	3408.82
782.246	3413.86
782.432	3362.9
782.617	3422
782.803	3428.78
782.989	3329.77
783.174	3326.09
783.36	3280.95
783.545	3324.15
783.731	3340.82
783.916	3202.48
784.102	3324.73
784.288	3248.98
784.473	3313.11
784.659	3254.6
784.844	3302.65
785.029	3256.54
785.215	3239.68
785.4	3174.19
785.586	3269.13
785.771	3212.17
785.956	3263.9
786.142	3199.96
786.327	3213.91
786.512	3184.07
786.698	3174.19
786.883	3091.46
787.068	3111.61
787.254	3192.6
787.439	3077.13
787.624	3113.16
787.809	3090.88
787.994	3051.16
788.18	3096.11
788.365	3019.58
788.55	3024.81
788.735	3068.79
788.92	3016.29
789.105	3024.62
789.29	3045.74
789.475	2926.39
789.66	2946.15
789.845	2937.82
790.03	2944.22
790.215	2969.79
790.4	2996.14
790.585	3006.41
790.77	2959.71
790.955	2889.38
791.14	2914.96
791.325	2977.15
791.51	2869.62
791.695	2932.01
791.879	2901.59
792.064	2883.57
792.249	2970.37
792.434	2906.05
792.618	2899.46
792.803	2942.28
792.988	2898.88
793.173	2908.18
793.357	2922.9
793.542	2895.58
793.727	2936.85
793.911	2982.96
794.096	2921.16
794.281	2988.2
794.465	3043.8
794.65	2932.98
794.834	3033.53
795.019	3037.21
795.203	3050.19
795.388	3043.61
795.572	3009.9
795.757	2987.03
795.941	3018.81
796.126	2998.66
796.31	2920.38
796.494	2989.94
796.679	2910.31
796.863	2908.57
797.048	2989.16
797.232	2979.86
797.416	2982.38
797.601	2974.44
797.785	3008.35
797.969	3008.73
798.153	2961.46
798.338	2999.63
798.522	3080.42
798.706	3037.21
798.89	3021.91
799.074	3122.27
799.258	3095.73
799.443	3012.22
799.627	3029.08
799.811	3051.36
799.995	2971.53
800.179	2960.3
800.363	2979.28
800.547	3019.78
800.731	2990.91
800.915	2922.9
801.099	2961.46
801.283	2960.1
801.467	2964.75
801.651	2980.45
801.835	3022.49
802.019	2962.62
802.202	3015.13
802.386	2927.94
802.57	2919.61
802.754	2912.83
802.938	2957
803.121	2944.8
803.305	3008.35
803.489	2947.9
803.673	2975.21
803.856	2977.93
804.04	2908.76
804.224	2947.32
804.407	2945.18
804.591	2903.14
804.775	2921.93
804.958	2954.29
805.142	3036.05
805.326	2964.36
805.509	2966.5
805.693	3005.25
805.876	2987.81
806.06	3013.58
806.243	3029.85
806.427	3023.85
806.61	3040.51
806.794	3010.67
806.977	3041.28
807.16	2997.5
807.344	2982.96
807.527	3008.93
807.71	2981.8
807.894	2945.38
808.077	3027.72
808.26	2963.01
808.444	2940.34
808.627	3005.44
808.81	2934.92
808.993	2861.68
809.177	2864.2
809.36	2901.2
809.543	2903.53
809.726	2795.8
809.909	2803.94
810.092	2806.65
810.276	2823.32
810.459	2777.79
810.642	2796.19
810.825	2738.84
811.008	2740.2
811.191	2687.89
811.374	2670.26
811.557	2667.93
811.74	2697.38
811.923	2591.4
812.106	2597.02
812.289	2579.2
812.472	2545.68
812.654	2525.33
812.837	2506.35
813.02	2465.47
813.203	2399.79
813.386	2308.92
813.569	2267.84
813.751	2227.35
813.934	2295.36
814.117	2252.34
814.3	2163.61
814.482	2115.36
814.665	2088.05
814.848	2036.12
815.03	1997.76
815.213	1978.58
815.396	1943.51
815.578	1979.35
815.761	1877.44
815.943	1931.3
816.126	1821.84
816.309	1816.03
816.491	1786.58
816.674	1700.16
816.856	1746.28
817.039	1728.45
817.221	1824.16
817.403	1798.01
817.586	1764.49
817.768	1790.45
817.951	1710.63
818.133	1682.73
818.315	1703.46
818.498	1798.01
818.68	1859.81
818.862	1782.7
819.045	1848.38
819.227	1812.73
819.409	1778.05
819.591	1839.86
819.774	1811.38
819.956	1747.24
820.138	1840.63
820.32	1853.81
820.502	1905.34
820.684	1999.31
820.866	2035.35
821.048	2046.97
821.231	2102.77
821.413	2061.12
821.595	2065.57
821.777	2063.63
821.959	2059.18
822.141	2082.62
822.323	1962.3
822.505	1846.06
822.686	1804.01
822.868	1730.2
823.05	1607.17
823.232	1575.97
823.414	1504.09
823.596	1589.73
823.778	1609.68
823.96	1596.51
824.141	1645.53
824.323	1663.55
824.505	1755.19
824.687	1779.79
824.868	1876.67
825.05	1946.8
825.232	1990.4
825.413	2064.6
825.595	2010.16
825.777	1955.14
825.958	2040.38
826.14	1975.29
826.321	2028.57
826.503	1976.45
826.685	2069.06
826.866	2055.5
827.048	2054.14
827.229	1961.92
827.411	1929.37
827.592	1912.51
827.773	1825.71
827.955	1799.17
828.136	1793.55
828.318	1783.48
828.499	1794.52
828.68	1723.22
828.862	1804.01
829.043	1815.83
829.224	1773.59
829.406	1749.76
829.587	1799.17
829.768	1822.61
829.949	1816.22
830.131	1800.14
830.312	1837.92
830.493	1800.53
830.674	1828.81
830.855	1809.24
831.036	1823.58
831.218	1817.77
831.399	1876.28
831.58	1813.89
831.761	1824.74
831.942	1819.9
832.123	1797.43
832.304	1772.63
832.485	1763.33
832.666	1807.69
832.847	1836.95
833.028	1817.96
833.209	1824.55
833.389	1786.96
833.57	1724.19
833.751	1729.42
833.932	1832.88
834.113	1794.13
834.294	1779.02
834.475	1865.04
834.655	1862.52
834.836	1863.69
835.017	1845.67
835.198	1795.68
835.378	1857.49
835.559	1904.76
835.74	1875.7
835.92	1838.31
836.101	1831.33
836.281	1882.09
836.462	1886.16
836.643	1942.15
836.823	1890.42
837.004	1933.44
837.184	1958.43
837.365	1888.49
837.545	1927.24
837.726	1919.29
837.906	1959.2
838.087	1904.96
838.267	1891.97
838.448	1871.44
838.628	1902.24
838.808	1865.82
838.989	1971.8
839.169	1877.44
839.349	1933.82
839.53	1931.69
839.71	1920.45
839.89	1867.37
840.07	1953.78
840.251	1887.13
840.431	1976.64
840.611	1929.56
840.791	1887.91
840.971	1885.77
841.151	1914.06
841.332	1874.54
841.512	1924.14
841.692	1820.67
841.872	1909.22
842.052	1872.79
842.232	1927.43
842.412	1818.93
842.592	1884.61
842.772	1861.56
842.952	1853.61
843.132	1842.37
843.312	1812.34
843.492	1840.63
843.672	1872.99
843.851	1799.17
844.031	1852.84
844.211	1835.01
844.391	1831.52
844.571	1818.93
844.751	1856.71
844.93	1821.64
845.11	1832.3
845.29	1880.16
845.47	1880.74
845.649	1879.19
845.829	1908.83
846.009	1826.68
846.188	1890.62
846.368	1891.2
846.547	1855.36
846.727	1879.19
846.907	1782.89
847.086	1807.5
847.266	1836.17
847.445	1822.81
847.625	1803.63
847.804	1781.15
847.984	1836.37
848.163	1796.26
848.343	1779.41
848.522	1801.11
848.701	1795.1
848.881	1764.29
849.06	1795.29
849.239	1807.31
849.419	1758.87
849.598	1722.25
849.777	1716.44
849.957	1679.43
850.136	1625.18
850.315	1599.22
850.494	1623.83
850.674	1644.56
850.853	1702.3
851.032	1692.22
851.211	1710.24
851.39	1666.45
851.569	1612.98
851.748	1664.13
851.927	1705.2
852.107	1666.84
852.286	1617.82
852.465	1600.97
852.644	1716.83
852.823	1684.28
853.002	1684.28
853.181	1668.97
853.359	1652.5
853.538	1591.08
853.717	1677.11
853.896	1563.38
854.075	1516.69
854.254	1486.07
854.433	1396.95
854.611	1420.39
854.79	1364.59
854.969	1474.45
855.148	1467.09
855.327	1410.51
855.505	1474.06
855.684	1486.65
855.863	1519.2
856.041	1480.07
856.22	1512.04
856.399	1517.27
856.577	1595.54
856.756	1575.2
856.934	1703.65
857.113	1694.16
857.291	1638.17
857.47	1597.28
857.648	1583.53
857.827	1596.7
858.005	1688.93
858.184	1580.82
858.362	1625.96
858.541	1604.65
858.719	1583.33
858.898	1555.63
859.076	1549.24
859.254	1627.51
859.433	1548.27
859.611	1554.27
859.789	1515.14
859.967	1609.68
860.146	1628.28
860.324	1525.4
860.502	1518.82
860.68	1491.3
860.859	1540.52
861.037	1520.56
861.215	1527.54
861.393	1524.44
861.571	1523.27
861.749	1500.22
861.927	1563.96
862.105	1531.6
862.283	1495.76
862.461	1510.1
862.639	1482.2
862.817	1484.91
862.995	1502.93
863.173	1494.79
863.351	1498.28
863.529	1497.12
863.707	1548.65
863.885	1530.25
864.063	1451.39
864.241	1482.97
864.418	1513.97
864.596	1470.96
864.774	1444.42
864.952	1438.8
865.129	1465.92
865.307	1443.06
865.485	1368.86
865.663	1467.09
865.84	1388.62
866.018	1358.59
866.196	1265.59
866.373	1268.88
866.551	1269.46
866.728	1200.68
866.906	1274.89
867.084	1268.3
867.261	1304.73
867.439	1302.98
867.616	1330.88
867.794	1360.91
867.971	1344.83
868.149	1350.06
868.326	1408.77
868.503	1372.15
868.681	1349.29
868.858	1318.87
869.035	1344.83
869.213	1367.89
869.39	1319.84
869.567	1414.19
869.745	1324.1
869.922	1360.53
870.099	1346.77
870.276	1373.89
870.454	1370.02
870.631	1348.9
870.808	1343.09
870.985	1401.02
871.162	1409.35
871.339	1336.11
871.517	1315.19
871.694	1280.12
871.871	1355.68
872.048	1315.19
872.225	1295.81
872.402	1322.55
872.579	1292.91
872.756	1314.99
872.933	1278.38
873.11	1290.2
873.287	1284.19
873.463	1268.11
873.64	1285.55
873.817	1299.49
873.994	1280.9
874.171	1253.19
874.348	1288.06
874.524	1208.24
874.701	1270.63
874.878	1186.73
875.055	1240.98
875.231	1224.32
875.408	1256.29
875.585	1210.18
875.762	1241.95
875.938	1237.88
876.115	1229.55
876.291	1220.25
876.468	1216.38
876.645	1194.29
876.821	1189.45
876.998	1229.36
877.174	1196.62
877.351	1179.57
877.527	1165.03
877.704	1214.44
877.88	1251.83
878.057	1205.92
878.233	1243.89
878.409	1171.43
878.586	1234.78
878.762	1180.73
878.938	1173.75
879.115	1126.09
879.291	1191.19
879.467	1152.05
879.644	1148.95
879.82	1171.04
879.996	1122.41
880.172	1118.15
880.349	1136.55
880.525	1153.41
880.701	1144.69
880.877	1108.27
881.053	1139.46
881.229	1112.14
881.405	1176.27
881.581	1125.51
881.757	1115.24
881.933	1162.13
882.109	1153.41
882.285	1143.92
882.461	1061.38
882.637	1139.46
882.813	1089.09
882.989	1123.38
883.165	1213.08
883.341	1105.36
883.517	1160
883.693	1156.51
883.869	1145.85
884.044	1123.38
884.22	1159.22
884.396	1181.31
884.572	1167.94
884.747	1175.5
884.923	1147.21
885.099	1168.52
885.275	1182.28
885.45	1116.21
885.626	1099.55
885.801	1090.05
885.977	1106.52
886.153	1068.16
886.328	1109.62
886.504	1088.31
886.679	1122.22
886.855	1075.14
887.03	1109.24
887.206	1156.12
887.381	1155.93
887.557	1138.3
887.732	1127.25
887.908	1129.19
888.083	1172.78
888.258	1105.94
888.434	1091.8
888.609	1123.18
888.784	1198.36
888.96	1088.5
889.135	1117.95
889.31	1080.17
889.485	1126.67
889.661	1076.3
889.836	1160.38
890.011	1110.4
890.186	1095.87
890.361	1118.15
890.537	1142.37
890.712	1128.22
890.887	1130.93
891.062	1115.24
891.237	1190.03
891.412	1111.95
891.587	1124.15
891.762	1144.11
891.937	1146.82
892.112	1080.56
892.287	1083.85
892.462	1068.55
892.637	1034.64
892.812	996.28
892.987	1011.01
893.161	997.25
893.336	1019.92
893.511	983.49
893.686	1018.17
893.861	1033.67
894.035	1011.01
894.21	999.19
894.385	914.52
894.56	999.38
894.734	898.44
894.909	906.58
895.084	921.11
895.258	878.29
895.433	882.55
895.608	854.46
895.782	833.73
895.957	837.02
896.131	868.02
896.306	807.76
896.48	769.6
896.655	777.54
896.829	709.92
897.004	711.08
897.178	725.23
897.353	724.07
897.527	760.49
897.701	729.3
897.876	698.1
898.05	773.28
898.224	719.61
898.399	777.15
898.573	673.69
898.747	585.15
898.921	675.63
899.096	557.06
899.27	567.13
899.444	592.32
899.618	608.98
899.792	626.22
899.967	651.22
900.141	673.3
900.315	596.58
900.489	634.75
900.663	640.95
900.837	624.09
901.011	582.24
901.185	686.28
901.359	614.6
901.533	604.91
901.707	633.39
901.881	641.14
902.055	581.86
902.229	606.65
902.403	686.48
902.576	634.55
902.75	642.3
902.924	727.17
903.098	713.8
903.272	711.67
903.446	758.94
903.619	730.46
903.793	776.76
903.967	764.37
904.14	828.88
904.314	810.67
904.488	795.56
904.661	837.21
904.835	819.58
905.009	841.09
905.182	873.06
905.356	808.35
905.529	789.75
905.703	777.73
905.876	796.72
906.05	734.14
906.223	725.23
906.397	660.9
906.57	679.5
906.744	649.28
906.917	623.9
907.09	643.85
907.264	633.78
907.437	569.46
907.61	605.1
907.784	568.29
907.957	583.02
908.13	577.79
908.304	562.67
908.477	534.77
908.65	586.89
908.823	546.01
908.996	610.34
909.17	536.52
909.343	568.1
909.516	550.08
909.689	523.73
909.862	527.41
910.035	558.02
910.208	520.05
910.381	506.68
910.554	591.16
910.727	540.97
910.9	493.51
911.073	503.58
911.246	596.77
911.419	602.78
911.592	563.64
911.765	530.71
911.938	509.59
912.11	516.95
912.283	539.81
912.456	580.11
912.629	564.03
912.802	496.99
912.974	486.92
913.147	454.37
913.32	368.93
913.493	424.14
913.665	465.61
913.838	466.19
914.01	476.65
914.183	488.28
914.356	474.71
914.528	526.44
914.701	548.92
914.873	514.04
915.046	440.03
915.218	434.61
915.391	388.88
915.563	377.06
915.736	421.63
915.908	473.55
916.081	454.95
916.253	463.67
916.425	465.41
916.598	459.21
916.77	498.74
916.942	447.01
917.115	381.71
917.287	439.64
917.459	405.93
917.632	369.51
917.804	362.34
917.976	432.09
918.148	422.98
918.32	458.05
918.493	485.18
918.665	504.94
918.837	462.89
919.009	512.49
919.181	526.44
919.353	489.83
919.525	490.6
919.697	487.11
919.869	496.22
920.041	557.64
920.213	608.98
920.385	577.21
920.557	505.33
920.729	513.85
920.901	526.44
921.073	504.94
921.244	502.81
921.416	527.02
921.588	515.79
921.76	489.44
921.932	567.13
922.103	486.92
922.275	505.91
922.447	509.97
922.619	436.74
922.79	518.5
922.962	463.09
923.134	494.86
923.305	429.76
923.477	439.45
923.648	430.15
923.82	449.33
923.991	387.91
924.163	377.26
924.335	419.5
924.506	398.76
924.677	447.78
924.849	426.47
925.02	454.56
925.192	446.81
925.363	433.06
925.535	456.89
925.706	408.06
925.877	456.5
926.049	391.01
926.22	450.3
926.391	436.35
926.562	466.19
926.734	407.87
926.905	448.56
927.076	365.63
927.247	398.96
927.419	369.12
927.59	345.29
927.761	361.76
927.932	339.86
928.103	360.6
928.274	318.36
928.445	290.46
928.616	287.75
928.787	301.31
928.958	326.69
929.129	290.07
929.3	272.25
929.471	240.09
929.642	193.39
929.813	172.66
929.984	260.62
930.155	157.16
930.326	223.42
930.496	179.83
930.667	127.13
930.838	181.38
931.009	140.5
931.18	162.2
931.35	129.07
931.521	163.75
931.692	105.43
931.863	72.49
932.033	115.7
932.204	137.98
932.374	107.17
932.545	61.06
932.716	103.11
932.886	126.55
933.057	46.73
933.227	65.13
933.398	136.82
933.568	56.41
933.739	17.66
933.909	51.18
934.08	74.24
934.25	7.39
934.421	25.22
934.591	73.27
934.761	27.54
934.932	36.84
935.102	67.26
935.272	32
935.443	46.92
935.613	51.76
935.783	34.33
935.953	9.14
936.123	183.32
936.294	7.2
936.464	17.28
936.634	45.95
936.804	14.95
936.974	-8.69
937.144	54.28
937.314	42.08
937.484	60.48
937.655	4.49
937.825	63.78
937.995	-18.57
938.165	37.81
938.334	35.68
938.504	82.76
938.674	40.14
938.844	75.98
939.014	84.51
939.184	87.41
939.354	133.91
939.524	115.7
939.694	82.57
939.863	68.23
940.033	157.55
940.203	127.32
940.373	119.38
940.542	111.05
940.712	84.7
940.882	105.04
941.051	126.55
941.221	124.42
941.391	131.78
941.56	95.94
941.73	57.96
941.899	166.85
942.069	86.06
942.238	115.51
942.408	80.82
942.577	107.17
942.747	64.74
942.916	26.96
943.086	38.39
943.255	121.32
943.425	89.93
943.594	53.12
943.763	6.81
943.933	50.02
944.102	6.43
944.271	74.62
944.441	75.01
944.61	54.86
944.779	70.36
944.948	151.16
945.117	-11.4
945.287	44.79
945.456	11.27
945.625	26.38
945.794	101.17
945.963	14.76
946.132	73.46
946.301	60.09
946.47	77.72
946.639	8.75
946.808	53.51
946.977	93.61
947.146	98.84
947.315	40.53
947.484	87.61
947.653	66.1
947.822	27.54
947.991	38.59
948.16	108.53
948.329	106.79
948.498	60.68
948.666	85.67
948.835	91.67
949.004	11.08
949.173	-2.1
949.341	49.63
949.51	89.54
949.679	116.86
949.847	76.37
950.016	135.46
950.185	105.04
950.353	70.75
950.522	80.82
950.69	102.91
950.859	52.34
951.028	110.08
951.196	77.92
951.365	48.08
951.533	66.68
951.701	89.16
951.87	100.39
952.038	38.78
952.207	77.34
952.375	112.21
952.543	38.59
952.712	53.7
952.88	27.54
953.048	109.31
953.217	52.34
953.385	85.47
953.553	123.45
953.721	43.04
953.89	65.52
954.058	3.91
954.226	58.74
954.394	84.12
954.562	16.69
954.73	69.01
954.898	72.11
955.067	78.5
955.235	48.28
955.403	98.26
955.571	129.65
955.739	81.99
955.907	39.56
956.075	50.41
956.243	62.42
956.41	89.35
956.578	25.22
956.746	39.17
956.914	49.63
957.082	79.86
957.25	108.14
957.418	52.15
957.585	87.61
957.753	99.62
957.921	41.49
958.089	66.88
958.256	117.64
958.424	64.36
958.592	110.66
958.759	24.44
958.927	100.01
959.095	49.63
959.262	71.14
959.43	44.79
959.597	50.41
959.765	61.26
959.932	15.92
960.1	103.88
960.267	81.21
960.435	59.9
960.602	86.44
960.77	54.86
960.937	60.29
961.104	80.63
961.272	22.7
961.439	58.74
961.606	79.86
961.774	95.36
961.941	47.31
962.108	81.6
962.275	79.27
962.443	114.34
962.61	73.85
962.777	105.43
962.944	105.04
963.111	68.23
963.278	102.14
963.446	74.82
963.613	105.82
963.78	99.04
963.947	76.76
964.114	84.89
964.281	152.9
964.448	85.86
964.615	64.94
964.782	96.71
964.949	118.41
965.116	114.15
965.282	112.21
965.449	77.14
965.616	38.39
965.783	107.76
965.95	75.59
966.117	49.05
966.283	78.89
966.45	116.28
966.617	114.92
966.784	131.01
966.95	124.42
967.117	121.9
967.284	54.09
967.45	104.46
967.617	133.52
967.784	144.37
967.95	173.82
968.117	114.34
968.283	134.49
968.45	208.7
968.616	142.05
968.783	143.21
968.949	105.62
969.116	138.76
969.282	115.12
969.449	131.01
969.615	127.32
969.781	98.84
969.948	137.98
970.114	58.35
970.28	179.64
970.447	114.73
970.613	162.97
970.779	127.71
970.945	165.88
971.112	121.32
971.278	96.32
971.444	119.19
971.61	164.52
971.776	116.67
971.942	135.66
972.108	142.82
972.275	108.14
972.441	130.62
972.607	147.86
972.773	75.98
972.939	148.06
973.105	122.48
973.271	69.78
973.437	93.22
973.602	92.06
973.768	157.55
973.934	92.26
974.1	115.7
974.266	40.91
974.432	102.52
974.598	101.75
974.763	136.04
974.929	87.41
975.095	169.75
975.261	58.16
975.426	80.63
975.592	92.26
975.758	155.22
975.923	53.31
976.089	80.05
976.255	118.02
976.42	121.9
976.586	123.84
976.751	104.66
976.917	180.8
977.082	133.72
977.248	55.44
977.413	38.78
977.579	79.47
977.744	102.52
977.91	57.58
978.075	71.72
978.24	111.44
978.406	82.57
978.571	81.6
978.736	82.57
978.902	120.74
979.067	44.21
979.232	30.84
979.397	84.89
979.563	133.72
979.728	68.23
979.893	67.65
980.058	83.54
980.223	118.02
980.388	113.18
980.554	96.32
980.719	76.76
980.884	108.72
981.049	131.01
981.214	77.72
981.379	148.83
981.544	78.31
981.709	69.98
981.874	109.5
982.039	96.91
982.204	118.61
982.368	94.58
982.533	50.41
982.698	143.79
982.863	122.09
983.028	57.77
983.193	110.27
983.357	106.59
983.522	113.18
983.687	91.09
983.852	103.88
984.016	72.88
984.181	92.06
984.346	97.29
984.51	117.06
984.675	97.29
984.839	93.42
985.004	113.18
985.168	109.5
985.333	89.35
985.498	94.58
985.662	119.96
985.827	106.21
985.991	72.49
986.155	78.5
986.32	124.22
986.484	152.51
986.649	101.75
986.813	42.66
986.977	125.39
987.142	114.92
987.306	59.32
987.47	65.33
987.634	73.85
987.799	85.28
987.963	117.25
988.127	126.55
988.291	160.45
988.455	119.96
988.62	96.71
988.784	109.69
988.948	114.34
989.112	78.89
989.276	93.61
989.44	96.52
989.604	52.54
989.768	95.55
989.932	135.66
990.096	54.67
990.26	64.16
990.424	48.08
990.588	88.96
990.752	132.75
990.915	83.54
991.079	93.61
991.243	65.33
991.407	113.76
991.571	80.44
991.734	92.84
991.898	94.77
992.062	144.76
992.226	88.96
992.389	67.26
992.553	34.91
992.717	62.23
992.88	60.87
993.044	94.39
993.207	73.07
993.371	117.64
993.535	126.94
993.698	88.38
993.862	121.51
994.025	113.76
994.189	107.76
994.352	109.89
994.515	96.13
994.679	113.37
994.842	82.76
995.006	119.96
995.169	82.37
995.332	41.3
995.496	76.95
995.659	20.38
995.822	78.5
995.985	76.56
996.149	133.72
996.312	77.72
996.475	108.14
996.638	60.48
996.801	126.94
996.964	143.79
997.128	75.4
997.291	55.44
997.454	87.02
997.617	29.68
997.78	112.21
997.943	60.68
998.106	94.97
998.269	61.26
998.432	73.46
998.595	59.71
998.758	24.25
998.92	48.66
999.083	-4.42
999.246	51.38
999.409	28.51
999.572	13.4
999.735	44.59
999.897	58.35
1000.06	31.03
1000.223	23.86
1000.386	79.66
1000.548	82.37
1000.711	66.68
1000.874	78.69
1001.036	35.29
1001.199	86.64
1001.361	40.33
1001.524	70.75
1001.687	72.11
1001.849	35.29
1002.012	82.76
1002.174	81.6
1002.337	96.13
1002.499	73.46
1002.661	91.87
1002.824	14.56
1002.986	31.61
1003.149	50.99
1003.311	40.72
1003.473	97.1
1003.636	50.41
1003.798	66.29
1003.96	71.14
1004.123	82.18
1004.285	48.86
1004.447	29.09
1004.609	57.38
1004.771	110.47
1004.933	11.46
1005.096	45.37
1005.258	24.06
1005.42	37.43
1005.582	85.86
1005.744	55.06
1005.906	6.04
1006.068	78.11
1006.23	32.58
1006.392	15.92
1006.554	46.73
1006.716	86.06
1006.878	68.62
1007.04	-3.65
1007.202	44.21
1007.363	42.85
1007.525	55.25
1007.687	68.43
1007.849	73.07
1008.011	13.98
1008.172	13.4
1008.334	14.18
1008.496	55.83
1008.658	-6.75
1008.819	26.58
1008.981	21.54
1009.143	8.94
1009.304	20.76
1009.466	64.55
1009.627	89.35
1009.789	149.41
1009.95	74.43
1010.112	19.21
1010.273	34.71
1010.435	24.64
1010.596	20.76
1010.758	47.89
1010.919	3.52
1011.081	0.61
1011.242	45.37
1011.403	54.86
1011.565	61.64
1011.726	52.93
1011.887	3.33
1012.049	38.98
1012.21	55.64
1012.371	87.41
1012.532	-18.95
1012.693	28.71
1012.855	25.03
1013.016	32
1013.177	59.32
1013.338	37.81
1013.499	100.78
1013.66	44.79
1013.821	47.11
1013.982	46.92
1014.143	35.1
1014.304	45.95
1014.465	58.16
1014.626	83.92
1014.787	22.89
1014.948	99.62
1015.109	-18.95
1015.27	81.41
1015.431	40.14
1015.592	10.11
1015.752	99.04
1015.913	38.59
1016.074	40.33
1016.235	28.32
1016.395	33.55
1016.556	17.08
1016.717	3.33
1016.877	105.24
1017.038	25.22
1017.199	40.33
1017.359	26.19
1017.52	44.79
1017.681	14.18
1017.841	17.28
1018.002	35.88
1018.162	2.16
1018.323	61.64
1018.483	38.2
1018.644	10.11
1018.804	-19.15
1018.964	-18.95
1019.125	-2.1
1019.285	50.79
1019.446	-3.65
1019.606	6.81
1019.766	-6.94
1019.926	24.25
1020.087	48.66
1020.247	6.62
1020.407	75.79
1020.567	60.68
1020.728	31.03
1020.888	-15.66
1021.048	-0.36
1021.208	-11.98
1021.368	-9.85
1021.528	75.01
1021.688	75.79
1021.848	45.76
1022.008	41.69
1022.168	22.12
1022.328	30.26
1022.488	15.14
1022.648	21.73
1022.808	24.44
1022.968	13.59
1023.128	-0.94
1023.288	11.46
1023.448	21.93
1023.608	33.16
1023.767	44.4
1023.927	32
1024.087	-1.71
1024.247	-11.4
1024.406	22.7
1024.566	-18.57
1024.726	-18.76
1024.885	12.63
1025.045	46.92
1025.205	-2.29
1025.364	20.57
1025.524	37.81
1025.683	14.37
1025.843	0.61
1026.003	26.77
1026.162	75.79
1026.321	75.01
1026.481	24.25
1026.64	23.67
1026.8	44.98
1026.959	5.07
1027.119	9.14
1027.278	11.85
1027.437	-10.62
1027.597	22.31
1027.756	31.61
1027.915	18.83
1028.074	41.11
1028.234	-0.55
1028.393	40.91
1028.552	6.04
1028.711	-33.68
1028.87	48.86
1029.03	-5.39
1029.189	13.4
1029.348	-67.39
1029.507	3.91
1029.666	-9.27
1029.825	-24.96
1029.984	-5.39
1030.143	27.93
1030.302	1.19
1030.461	-48.4
1030.62	16.31
1030.779	52.34
1030.938	-27.09
1031.097	-19.15
1031.255	47.11
1031.414	58.74
1031.573	37.23
1031.732	-30
1031.891	2.94
1032.049	59.32
1032.208	24.44
1032.367	-0.74
1032.525	16.31
1032.684	0.03
1032.843	18.83
1033.001	-26.12
1033.16	144.57
1033.319	60.87
1033.477	20.38
1033.636	-10.24
1033.794	-25.54
1033.953	48.28
1034.111	53.31
1034.27	9.53
1034.428	9.53
1034.587	-2.68
1034.745	12.43
1034.903	12.04
1035.062	15.92
1035.22	-32.32
1035.378	38.98
1035.537	0.61
1035.695	39.94
1035.853	8.17
1036.011	48.28
1036.17	19.6
1036.328	-44.14
1036.486	19.41
1036.644	23.09
1036.802	-51.89
1036.96	0.23
1037.119	-21.67
1037.277	-7.91
1037.435	-12.95
1037.593	-15.66
1037.751	-1.52
1037.909	32.39
1038.067	32.39
