Data from gum_young_FLMT105791__64__17-39-22-043.txt Node

Date: Mon Mar 20 17:39:22 GMT 2023
User: antho
Spectrometer: FLMT10579
Trigger mode: 0
Integration Time (sec): 1.000000E-1
Scans to average: 10
Electric dark correction enabled: true
Nonlinearity correction enabled: false
Boxcar width: 0
XAxis mode: Wavelengths
Number of Pixels in Spectrum: 3648
>>>>>Begin Spectral Data<<<<<
345.248	-120.41
345.464	-120.41
345.681	-120.41
345.898	-135.33
346.114	-153.74
346.331	-36.33
346.548	23.35
346.764	-10.17
346.981	9.98
347.197	-8.43
347.414	5.33
347.631	-21.8
347.847	62.68
348.064	13.08
348.28	8.62
348.497	-32.07
348.713	-14.24
348.93	8.23
349.146	32.65
349.363	15.79
349.579	21.99
349.796	0.29
350.012	-5.72
350.229	24.9
350.445	16.95
350.661	-15.21
350.878	18.5
351.094	35.94
351.311	29.55
351.527	5.91
351.743	-4.94
351.96	28.97
352.176	47.95
352.392	40.98
352.609	39.62
352.825	29.74
353.041	0.48
353.257	14.82
353.474	26.06
353.69	27.42
353.906	6.49
354.122	-12.69
354.339	45.05
354.555	19.86
354.771	17.92
354.987	61.71
355.203	48.73
355.42	-7.27
355.636	12.5
355.852	10.37
356.068	31.48
356.284	-35.17
356.5	64.03
356.716	15.98
356.932	4.75
357.148	36.91
357.364	14.82
357.58	32.07
357.796	52.8
358.012	65.39
358.228	45.43
358.444	-43.3
358.66	75.66
358.876	4.55
359.092	-1.07
359.308	18.7
359.524	18.12
359.74	4.94
359.956	-24.7
360.172	6.1
360.388	54.15
360.604	-5.91
360.819	58.41
361.035	16.18
361.251	35.36
361.467	-12.88
361.683	39.43
361.898	24.7
362.114	48.34
362.33	30.71
362.546	37.49
362.762	18.31
362.977	6.68
363.193	-3.97
363.409	60.93
363.624	-16.18
363.84	-7.07
364.056	3.78
364.271	29.74
364.487	36.13
364.703	16.18
364.918	-12.88
365.134	-13.66
365.35	5.91
365.565	114.6
365.781	31.68
365.996	18.31
366.212	65
366.427	38.65
366.643	5.52
366.858	6.88
367.074	-12.69
367.289	66.16
367.505	118.28
367.72	-6.3
367.936	14.24
368.151	44.08
368.367	20.83
368.582	6.1
368.798	7.85
369.013	71.78
369.228	26.83
369.444	35.17
369.659	79.34
369.874	38.85
370.09	94.26
370.305	-30.71
370.52	11.92
370.736	39.43
370.951	38.27
371.166	68.1
371.381	69.65
371.597	46.01
371.812	-20.05
372.027	0.87
372.242	24.51
372.458	90.77
372.673	23.93
372.888	12.88
373.103	61.9
373.318	82.44
373.533	17.53
373.749	44.27
373.964	-16.95
374.179	52.41
374.394	-11.92
374.609	40.98
374.824	17.92
375.039	48.73
375.254	-10.75
375.469	66.36
375.684	34
375.899	71.59
376.114	15.4
376.329	31.68
376.544	55.9
376.759	67.91
376.974	9.78
377.189	24.32
377.404	7.85
377.619	75.46
377.834	-34
378.049	5.72
378.264	-1.65
378.478	45.82
378.693	17.53
378.908	51.83
379.123	43.69
379.338	67.91
379.553	49.89
379.767	46.98
379.982	34.58
380.197	52.99
380.412	25.48
380.626	36.91
380.841	96.2
381.056	22.77
381.271	72.95
381.485	29.16
381.7	8.62
381.915	46.98
382.129	27.03
382.344	17.15
382.559	35.36
382.773	37.68
382.988	-9.78
383.202	23.54
383.417	11.72
383.632	130.49
383.846	25.28
384.061	54.54
384.275	40.98
384.49	61.71
384.704	36.72
384.919	26.25
385.133	52.41
385.348	73.53
385.562	-9.59
385.777	73.91
385.991	21.6
386.206	3
386.42	31.87
386.634	61.51
386.849	36.13
387.063	44.08
387.277	32.84
387.492	20.63
387.706	2.03
387.92	4.36
388.135	60.74
388.349	57.25
388.563	37.68
388.778	32.26
388.992	57.64
389.206	50.28
389.42	112.28
389.635	32.45
389.849	46.4
390.063	71.98
390.277	45.05
390.491	91.55
390.706	50.66
390.92	66.75
391.134	43.11
391.348	72.75
391.562	5.52
391.776	46.6
391.99	46.01
392.205	65
392.419	36.52
392.633	35.75
392.847	78.76
393.061	44.27
393.275	97.55
393.489	59.38
393.703	41.37
393.917	79.53
394.131	15.21
394.345	47.95
394.559	86.7
394.773	51.44
394.986	62.1
395.2	33.81
395.414	74.69
395.628	16.57
395.842	56.48
396.056	40.2
396.27	20.05
396.484	68.49
396.697	46.01
396.911	121.38
397.125	49.11
397.339	72.17
397.553	66.36
397.766	108.01
397.98	97.36
398.194	82.83
398.408	48.92
398.621	92.71
398.835	98.71
399.049	65
399.262	93.1
399.476	93.87
399.69	101.23
399.903	119.06
400.117	78.56
400.331	114.8
400.544	26.06
400.758	195.98
400.971	100.65
401.185	134.36
401.398	50.28
401.612	120.22
401.826	118.48
402.039	95.42
402.253	82.83
402.466	115.38
402.68	78.95
402.893	83.02
403.106	105.88
403.32	79.73
403.533	74.69
403.747	84.57
403.96	87.09
404.174	103.95
404.387	41.95
404.6	98.33
404.814	121.38
405.027	92.13
405.24	61.9
405.454	79.73
405.667	100.85
405.88	33.81
406.094	127
406.307	126.81
406.52	89.03
406.733	57.83
406.947	36.91
407.16	147.54
407.373	123.32
407.586	57.06
407.799	76.82
408.012	120.41
408.226	120.61
408.439	140.18
408.652	48.34
408.865	130.3
409.078	136.69
409.291	100.65
409.504	60.35
409.717	109.76
409.93	103.75
410.143	106.66
410.357	24.12
410.57	58.22
410.783	89.03
410.996	100.65
411.209	97.75
411.421	142.69
411.634	126.23
411.847	70.43
412.06	106.08
412.273	87.48
412.486	109.76
412.699	158.58
412.912	80.89
413.125	140.76
413.338	91.74
413.55	153.74
413.763	105.69
413.976	133.59
414.189	87.28
414.402	96.97
414.615	170.79
414.827	98.52
415.04	125.84
415.253	133.39
415.466	148.51
415.678	162.07
415.891	111.5
416.104	108.21
416.316	114.21
416.529	114.8
416.742	136.11
416.954	165.75
417.167	107.82
417.38	118.28
417.592	172.73
417.805	109.56
418.017	85.35
418.23	133.2
418.442	101.23
418.655	119.64
418.868	125.26
419.08	159.36
419.293	170.01
419.505	120.03
419.718	146.18
419.93	152.77
420.142	114.99
420.355	139.21
420.567	159.36
420.78	152.96
420.992	121.38
421.205	166.33
421.417	88.64
421.629	132.04
421.842	112.66
422.054	102.2
422.266	133.59
422.479	178.34
422.691	81.28
422.903	168.46
423.115	147.73
423.328	110.92
423.54	142.69
423.752	122.74
423.964	144.44
424.177	156.64
424.389	119.64
424.601	211.28
424.813	156.06
425.025	144.05
425.238	168.85
425.45	121.96
425.662	129.71
425.874	410.65
426.086	133.59
426.298	138.43
426.51	153.54
426.722	135.91
426.934	131.26
427.146	160.52
427.358	104.14
427.57	173.11
427.782	137.08
427.994	139.21
428.206	134.17
428.418	124.1
428.63	161.29
428.842	188.23
429.054	141.73
429.266	136.11
429.478	114.02
429.69	153.74
429.902	130.3
430.114	178.93
430.325	175.05
430.537	118.48
430.749	116.15
430.961	79.15
431.173	101.23
431.384	140.56
431.596	69.46
431.808	117.31
432.02	171.95
432.231	172.73
432.443	197.33
432.655	147.34
432.867	123.32
433.078	171.76
433.29	232.4
433.502	189.58
433.713	191.13
433.925	187.84
434.136	192.29
434.348	135.14
434.56	109.18
434.771	242.67
434.983	120.03
435.194	144.63
435.406	140.56
435.617	219.81
435.829	234.92
436.04	187.45
436.252	204.89
436.463	223.68
436.675	213.8
436.886	176.41
437.098	208.18
437.309	227.56
437.521	200.82
437.732	180.48
437.943	167.11
438.155	212.25
438.366	162.26
438.578	225.04
438.789	203.34
439	197.72
439.211	194.43
439.423	203.73
439.634	185.13
439.845	228.72
440.057	206.63
440.268	233.76
440.479	173.5
440.69	199.46
440.902	170.21
441.113	178.15
441.324	199.08
441.535	229.11
441.746	251
441.957	191.91
442.168	207.99
442.38	221.74
442.591	236.66
442.802	202.76
443.013	206.44
443.224	208.18
443.435	226.97
443.646	186.48
443.857	234.34
444.068	197.91
444.279	189.97
444.49	274.44
444.701	232.98
444.912	315.13
445.123	247.71
445.334	244.61
445.545	252.94
445.756	228.91
445.967	175.44
446.178	235.89
446.388	261.07
446.599	259.72
446.81	230.27
447.021	211.28
447.232	267.08
447.443	274.44
447.653	240.73
447.864	253.52
448.075	249.26
448.286	261.66
448.496	276.77
448.707	261.46
448.918	231.62
449.129	330.63
449.339	230.66
449.55	263.01
449.761	262.24
449.971	292.85
450.182	259.33
450.393	296.14
450.603	255.84
450.814	309.9
451.024	282.39
451.235	294.98
451.446	321.72
451.656	297.31
451.867	245.19
452.077	278.51
452.288	369.96
452.498	350.2
452.709	266.89
452.919	285.1
453.13	266.11
453.34	280.26
453.55	224.07
453.761	283.16
453.971	312.42
454.182	303.7
454.392	307.77
454.602	345.35
454.813	275.61
455.023	336.44
455.233	285.68
455.444	287.62
455.654	240.34
455.864	304.86
456.075	295.76
456.285	250.03
456.495	273.28
456.705	305.06
456.916	318.23
457.126	323.46
457.336	310.29
457.546	237.82
457.756	275.8
457.967	321.72
458.177	295.76
458.387	303.7
458.597	284.71
458.807	310.48
459.017	282.58
459.227	273.47
459.437	283.74
459.647	332.37
459.857	331.21
460.068	266.5
460.278	349.42
460.488	311.64
460.698	358.34
460.908	316.1
461.117	271.34
461.327	304.47
461.537	317.26
461.747	313.97
461.957	327.14
462.167	414.33
462.377	329.66
462.587	327.92
462.797	377.9
463.007	328.5
463.216	352.33
463.426	361.05
463.636	350
463.846	275.41
464.056	319.97
464.265	382.55
464.475	312.22
464.685	327.53
464.895	354.07
465.104	323.27
465.314	359.11
465.524	333.54
465.733	300.21
465.943	439.32
466.153	410.26
466.362	384.69
466.572	350.39
466.782	320.55
466.991	336.44
467.201	412.97
467.41	285.87
467.62	342.84
467.829	333.15
468.039	358.14
468.249	353.88
468.458	360.47
468.668	400.18
468.877	381.2
469.086	412.2
469.296	397.67
469.505	348.45
469.715	415.88
469.924	393.4
470.134	406.38
470.343	410.45
470.552	378.1
470.762	367.64
470.971	344
471.18	369.77
471.39	389.53
471.599	338.77
471.808	418.98
472.018	370.54
472.227	437.97
472.436	431.96
472.645	418.2
472.855	381
473.064	430.99
473.273	413.94
473.482	430.22
473.691	447.65
473.901	440.68
474.11	399.22
474.319	506.16
474.528	432.35
474.737	477.88
474.946	442.03
475.155	420.92
475.364	494.35
475.573	423.24
475.783	463.15
475.992	443
476.201	503.45
476.41	462.57
476.619	432.35
476.828	458.7
477.037	477.1
477.245	444.75
477.454	481.95
477.663	468.97
477.872	478.46
478.081	510.62
478.29	465.28
478.499	574.56
478.708	488.15
478.917	552.86
479.125	492.99
479.334	517.21
479.543	496.48
479.752	518.95
479.961	508.88
480.169	562.35
480.378	527.28
480.587	620.48
480.796	569.52
481.004	554.99
481.213	542.98
481.422	526.7
481.63	551.5
481.839	589.28
482.048	603.23
482.256	557.51
482.465	600.91
482.674	576.11
482.882	588.31
483.091	640.04
483.299	566.03
483.508	649.34
483.716	594.51
483.925	602.46
484.134	571.26
484.342	576.49
484.551	617.76
484.759	619.51
484.967	615.44
485.176	609.43
485.384	615.44
485.593	613.11
485.801	605.94
486.01	621.25
486.218	557.51
486.426	500.74
486.635	544.14
486.843	539.88
487.051	567.58
487.26	545.11
487.468	590.25
487.676	622.61
487.885	571.84
488.093	620.09
488.301	627.84
488.509	651.28
488.717	659.22
488.926	647.6
489.134	635.2
489.342	640.63
489.55	614.28
489.758	660.39
489.967	624.74
490.175	767.92
490.383	659.03
490.591	748.15
490.799	629.78
491.007	762.69
491.215	722.97
491.423	680.54
491.631	705.34
491.839	668.52
492.047	699.72
492.255	674.92
492.463	658.26
492.671	676.08
492.879	736.34
493.087	715.22
493.295	726.07
493.503	735.76
493.711	757.65
493.919	758.23
494.127	762.88
494.334	771.4
494.542	703.59
494.75	752.61
494.958	729.75
495.166	809.19
495.374	766.95
495.581	798.34
495.789	814.42
495.997	839.6
496.205	774.12
496.412	786.32
496.62	754.94
496.828	790.59
497.035	801.44
497.243	817.52
497.451	814.61
497.658	831.08
497.866	790.78
498.074	888.62
498.281	801.82
498.489	881.84
498.696	819.45
498.904	806.09
499.112	793.1
499.319	904.12
499.527	839.8
499.734	879.71
499.942	829.53
500.149	814.03
500.357	835.15
500.564	818.1
500.771	857.23
500.979	808.41
501.186	818.87
501.394	838.63
501.601	797.37
501.808	874.28
502.016	819.84
502.223	829.72
502.43	864.02
502.638	858.98
502.845	812.67
503.052	944.61
503.26	870.41
503.467	936.09
503.674	901.22
503.881	865.76
504.089	948.49
504.296	929.7
504.503	875.83
504.71	878.93
504.917	865.18
505.125	897.53
505.332	904.9
505.539	941.9
505.746	1003.9
505.953	965.15
506.16	971.55
506.367	1015.14
506.574	1033.16
506.781	1012.23
506.988	960.31
507.195	1001.96
507.402	1011.26
507.609	1045.36
507.816	992.86
508.023	1019.59
508.23	981.81
508.437	982.59
508.644	1034.13
508.851	1076.17
509.058	1064.74
509.265	1051.76
509.472	1107.94
509.679	1162.77
509.885	1105.42
510.092	1098.45
510.299	1095.54
510.506	1085.47
510.713	1122.28
510.92	1121.31
511.126	1149.41
511.333	1168.97
511.54	1175.76
511.746	1206.75
511.953	1197.84
512.16	1236.98
512.367	1185.83
512.573	1192.8
512.78	1221.67
512.987	1192.8
513.193	1205.59
513.4	1122.28
513.606	1203.07
513.813	1203.65
514.02	1231.36
514.226	1292.58
514.433	1275.34
514.639	1207.92
514.846	1269.53
515.052	1245.12
515.259	1278.83
515.465	1275.73
515.672	1265.46
515.878	1368.34
516.085	1325.33
516.291	1375.51
516.497	1296.27
516.704	1289.1
516.91	1264.69
517.117	1209.66
517.323	1203.27
517.529	1236.4
517.736	1239.5
517.942	1259.45
518.148	1254.42
518.354	1336.37
518.561	1308.28
518.767	1306.53
518.973	1372.41
519.179	1372.6
519.386	1344.7
519.592	1369.7
519.798	1400.31
520.004	1516.17
520.21	1477.61
520.417	1521.59
520.623	1536.71
520.829	1537.48
521.035	1554.14
521.241	1569.84
521.447	1580.49
521.653	1686.47
521.859	1602.39
522.065	1585.92
522.271	1702.55
522.477	1657.99
522.683	1679.5
522.889	1650.63
523.095	1659.93
523.301	1643.07
523.507	1625.44
523.713	1668.84
523.919	1664
524.125	1766.1
524.331	1710.5
524.537	1816.67
524.742	1827.52
524.948	1836.24
525.154	1832.36
525.36	1928.66
525.566	1822.29
525.772	1879.83
525.977	1800.98
526.183	1865.88
526.389	1864.53
526.595	1804.08
526.8	1833.33
527.006	1765.52
527.212	1692.67
527.417	1701.39
527.623	1687.05
527.829	1790.52
528.034	1853.29
528.24	1846.31
528.446	1878.09
528.651	1966.05
528.857	1952.68
529.062	2012.16
529.268	1981.36
529.473	1986.39
529.679	2003.44
529.884	2107.1
530.09	2007.9
530.295	2067.38
530.501	2066.22
530.706	2088.3
530.912	2044.13
531.117	2083.46
531.323	2096.25
531.528	2122.02
531.733	2160.77
531.939	2105.35
532.144	2142.55
532.35	2104.19
532.555	2191.96
532.76	2121.44
532.966	2098.96
533.171	2101.29
533.376	2070.09
533.581	2020.3
533.787	2063.12
533.992	2127.64
534.197	2159.22
534.402	2124.73
534.607	2118.53
534.813	2232.26
535.018	2166.19
535.223	2192.93
535.428	2187.31
535.633	2240.98
535.838	2285.93
536.043	2302.01
536.249	2351.41
536.454	2296
536.659	2277.6
536.864	2312.47
537.069	2240.98
537.274	2271.59
537.479	2252.99
537.684	2232.26
537.889	2213.47
538.094	2341.14
538.299	2283.99
538.504	2321.58
538.708	2284.38
538.913	2371.37
539.118	2370.4
539.323	2316.93
539.528	2283.41
539.733	2302.01
539.938	2288.45
540.142	2312.86
540.347	2253.18
540.552	2260.16
540.757	2250.86
540.962	2254.73
541.166	2218.7
541.371	2232.84
541.576	2248.53
541.781	2187.89
541.985	2325.06
542.19	2298.71
542.395	2408.18
542.599	2399.08
542.804	2345.6
543.008	2414.38
543.213	2344.05
543.418	2295.23
543.622	2367.11
543.827	2326.03
544.031	2426.01
544.236	2417.29
544.44	2373.5
544.645	2493.82
544.849	2418.26
545.054	2484.13
545.258	2496.53
545.463	2473.67
545.667	2419.42
545.872	2407.21
546.076	2435.31
546.281	2444.8
546.485	2399.27
546.689	2450.61
546.894	2487.42
547.098	2485.29
547.302	2370.59
547.507	2437.24
547.711	2442.67
547.915	2472.89
548.119	2357.03
548.324	2404.89
548.528	2492.46
548.732	2421.16
548.936	2452.55
549.141	2475.61
549.345	2438.21
549.549	2519.2
549.753	2505.05
549.957	2550
550.161	2545.74
550.366	2534.31
550.57	2444.99
550.774	2480.84
550.978	2496.72
551.182	2507.57
551.386	2458.94
551.59	2505.05
551.794	2476.19
551.998	2514.94
552.202	2470.57
552.406	2524.04
552.61	2546.52
552.814	2507.57
553.018	2580.03
553.222	2494.4
553.426	2475.61
553.63	2549.04
553.833	2482.58
554.037	2441.51
554.241	2479.48
554.445	2510.29
554.649	2483.55
554.853	2475.8
555.056	2493.43
555.26	2557.56
555.464	2534.89
555.668	2546.32
555.871	2530.05
556.075	2563.76
556.279	2503.5
556.483	2487.04
556.686	2467.47
556.89	2488.59
557.094	2481.61
557.297	2401.79
557.501	2497.11
557.704	2377.38
557.908	2471.54
558.112	2457.01
558.315	2523.85
558.519	2412.83
558.722	2428.52
558.926	2390.55
559.129	2300.26
559.333	2313.44
559.536	2339.79
559.74	2311.31
559.943	2291.35
560.147	2281.28
560.35	2330.68
560.553	2320.03
560.757	2285.54
560.96	2400.43
561.164	2352.96
561.367	2428.52
561.57	2345.79
561.774	2367.3
561.977	2316.73
562.18	2298.52
562.384	2417.48
562.587	2301.04
562.79	2300.85
562.993	2314.99
563.197	2328.16
563.4	2314.41
563.603	2403.72
563.806	2402.37
564.009	2306.66
564.212	2317.7
564.416	2220.25
564.619	2304.33
564.822	2224.51
565.025	2307.82
565.228	2238.46
565.431	2244.66
565.634	2171.03
565.837	2181.88
566.04	2174.91
566.243	2157.86
566.446	2111.55
566.649	2183.82
566.852	2081.33
567.055	2143.33
567.258	2172.58
567.461	2249.89
567.664	2212.11
567.867	2110.97
568.07	2191.57
568.273	2136.74
568.475	2202.03
568.678	2068.35
568.881	2124.92
569.084	2080.75
569.287	1994.92
569.489	2065.25
569.692	2084.62
569.895	2049.36
570.098	2010.22
570.3	1999.37
570.503	1936.99
570.706	1942.03
570.909	1973.61
571.111	1872.66
571.314	1913.54
571.516	1895.14
571.719	1898.24
571.922	1895.91
572.124	1892.62
572.327	1924.59
572.529	1883.71
572.732	1904.63
572.935	1904.83
573.137	1967.6
573.34	1881.38
573.542	1941.25
573.745	1874.41
573.947	1923.43
574.15	1885.45
574.352	1874.8
574.554	1943.96
574.757	1817.64
574.959	1769.2
575.162	1837.01
575.364	1831.01
575.566	1865.69
575.769	1760.48
575.971	1817.83
576.173	1684.34
576.376	1764.75
576.578	1819.38
576.78	1817.25
576.982	1715.15
577.185	1777.73
577.387	1742.08
577.589	1724.06
577.791	1762.23
577.993	1761.07
578.196	1756.22
578.398	1721.73
578.6	1733.55
578.802	1686.28
579.004	1674.27
579.206	1677.37
579.408	1751.57
579.61	1719.99
579.812	1810.08
580.014	1678.92
580.216	1713.98
580.418	1707.2
580.62	1703.72
580.822	1676.98
581.024	1731.23
581.226	1719.99
581.428	1703.33
581.63	1789.93
581.832	1691.32
582.034	1740.14
582.236	1714.95
582.438	1734.72
582.64	1758.74
582.841	1820.16
583.043	1862.59
583.245	1810.47
583.447	1763.58
583.649	1749.05
583.85	1760.87
584.052	1756.8
584.254	1694.61
584.456	1788.77
584.657	1698.1
584.859	1747.7
585.061	1717.28
585.262	1665.16
585.464	1633.19
585.666	1708.37
585.867	1671.55
586.069	1726.38
586.27	1693.25
586.472	1692.87
586.674	1677.56
586.875	1656.44
587.077	1656.83
587.278	1689.96
587.48	1659.54
587.681	1740.33
587.883	1703.33
588.084	1605.68
588.285	1609.94
588.487	1606.26
588.688	1608.2
588.89	1514.62
589.091	1503.96
589.292	1518.11
589.494	1444.29
589.695	1427.43
589.896	1360.2
590.098	1393.72
590.299	1424.53
590.5	1395.08
590.702	1422.01
590.903	1451.07
591.104	1528.96
591.305	1520.04
591.507	1561.89
591.708	1525.47
591.909	1489.04
592.11	1540.77
592.311	1519.85
592.512	1474.32
592.714	1465.99
592.915	1495.05
593.116	1464.44
593.317	1504.54
593.518	1495.63
593.719	1518.3
593.92	1543.49
594.121	1542.71
594.322	1538.06
594.523	1485.75
594.724	1460.95
594.925	1468.12
595.126	1478.97
595.327	1498.15
595.528	1517.53
595.729	1505.71
595.929	1501.44
596.13	1486.72
596.331	1501.44
596.532	1488.08
596.733	1537.29
596.934	1544.84
597.135	1548.33
597.335	1506.87
597.536	1455.53
597.737	1507.45
597.938	1485.75
598.138	1466.57
598.339	1493.89
598.54	1491.56
598.74	1506.48
598.941	1482.07
599.142	1562.28
599.342	1509.78
599.543	1496.6
599.744	1496.41
599.944	1473.35
600.145	1492.53
600.345	1484.2
600.546	1573.71
600.746	1521.59
600.947	1561.31
601.147	1493.5
601.348	1545.23
601.548	1459.01
601.749	1510.55
601.949	1441.96
602.15	1463.66
602.35	1446.61
602.551	1505.51
602.751	1471.22
602.951	1451.46
603.152	1444.87
603.352	1517.53
603.552	1461.34
603.753	1479.55
603.953	1481.88
604.153	1474.32
604.354	1459.21
604.554	1465.6
604.754	1508.61
604.954	1438.28
605.155	1474.32
605.355	1473.16
605.555	1507.64
605.755	1518.11
605.955	1467.73
606.155	1496.41
606.356	1474.9
606.556	1488.66
606.756	1475.87
606.956	1414.65
607.156	1486.14
607.356	1433.44
607.556	1462.89
607.756	1418.33
607.956	1472.96
608.156	1457.46
608.356	1411.55
608.556	1491.95
608.756	1436.54
608.956	1391.4
609.156	1407.48
609.356	1364.66
609.556	1381.9
609.755	1403.6
609.955	1382.87
610.155	1389.46
610.355	1408.06
610.555	1351.1
610.755	1372.21
610.954	1348
611.154	1402.25
611.354	1388.49
611.554	1381.13
611.753	1354.78
611.953	1316.42
612.153	1368.92
612.352	1368.53
612.552	1302.66
612.752	1275.73
612.951	1379.77
613.151	1334.43
613.351	1320.87
613.55	1322.03
613.75	1331.14
613.949	1303.24
614.149	1290.65
614.348	1314.67
614.548	1272.24
614.747	1258.29
614.947	1276.31
615.146	1217.6
615.346	1286.38
615.545	1327.46
615.745	1270.88
615.944	1284.64
616.144	1269.14
616.343	1308.08
616.542	1252.48
616.742	1212.57
616.941	1196.29
617.14	1205.59
617.34	1230.97
617.539	1242.21
617.738	1236.2
617.938	1287.16
618.137	1248.22
618.336	1214.5
618.535	1262.75
618.734	1247.44
618.934	1258.49
619.133	1242.4
619.332	1242.21
619.531	1167.81
619.73	1218.38
619.929	1261.59
620.128	1239.3
620.328	1282.7
620.527	1204.43
620.726	1228.26
620.925	1251.12
621.124	1227.87
621.323	1216.44
621.522	1189.51
621.721	1176.92
621.92	1183.5
622.119	1213.54
622.318	1164.32
622.517	1181.95
622.715	1175.56
622.914	1109.69
623.113	1171.69
623.312	1131.19
623.511	1166.46
623.71	1152.12
623.909	1143.4
624.107	1198.04
624.306	1099.61
624.505	1117.63
624.704	1130.61
624.902	1116.47
625.101	1174.59
625.3	1139.72
625.499	1103.29
625.697	1090.51
625.896	1099.22
626.095	1131.97
626.293	1081.79
626.492	1111.24
626.69	1133.13
626.889	1110.46
627.088	1132.16
627.286	1118.6
627.485	1079.27
627.683	1041.68
627.882	1086.24
628.08	1013.39
628.279	1046.33
628.477	1109.88
628.676	1008.74
628.874	1101.74
629.073	1046.91
629.271	1055.24
629.469	1019.01
629.668	1043.23
629.866	1053.89
630.065	1030.25
630.263	1073.84
630.461	1030.64
630.66	1085.47
630.858	1077.53
631.056	1110.85
631.254	1091.09
631.453	1047.69
631.651	1114.53
631.849	1069.19
632.047	1068.81
632.245	1037.81
632.444	1068.61
632.642	1077.14
632.84	1092.64
633.038	1062.8
633.236	1018.63
633.434	997.9
633.632	1052.73
633.83	1054.47
634.028	1111.43
634.227	1052.92
634.425	1142.24
634.623	1069
634.821	1054.66
635.019	1066.48
635.216	1030.44
635.414	1113.17
635.612	1034.71
635.81	1074.43
636.008	1128.87
636.206	1055.24
636.404	1044.78
636.602	1059.7
636.8	1041.29
636.997	1070.36
637.195	1088.18
637.393	1048.08
637.591	1109.3
637.789	1060.67
637.986	1084.5
638.184	1048.27
638.382	1093.8
638.58	1066.48
638.777	1088.96
638.975	1087.41
639.173	1054.08
639.37	1054.86
639.568	1040.52
639.765	1055.83
639.963	1039.55
640.161	1077.33
640.358	1063.38
640.556	1031.03
640.753	980.85
640.951	989.76
641.148	1029.09
641.346	1011.26
641.543	984.33
641.741	1038.58
641.938	945.58
642.136	1009.33
642.333	976.39
642.531	1014.17
642.728	1059.51
642.925	982.4
643.123	983.75
643.32	996.35
643.517	950.81
643.715	987.63
643.912	972.13
644.109	952.17
644.306	961.47
644.504	916.72
644.701	923.88
644.898	944.61
645.095	899.67
645.293	913.62
645.49	946.94
645.687	955.27
645.884	931.83
646.081	861.5
646.278	885.13
646.475	878.55
646.672	912.65
646.87	887.27
647.067	875.83
647.264	916.91
647.461	822.75
647.658	817.13
647.855	892.11
648.052	823.33
648.249	790.2
648.446	836.31
648.642	825.07
648.839	786.9
649.036	803.18
649.233	792.52
649.43	777.22
649.627	789.42
649.824	777.6
650.021	817.71
650.217	765.59
650.414	809.57
650.611	829.14
650.808	814.61
651.004	799.3
651.201	827.4
651.398	843.87
651.595	822.17
651.791	811.12
651.988	853.75
652.185	771.02
652.381	818.1
652.578	750.29
652.775	771.02
652.971	799.89
653.168	808.02
653.364	802.21
653.561	766.75
653.757	788.45
653.954	764.24
654.15	755.71
654.347	827.01
654.543	759.59
654.74	745.25
654.936	715.8
655.133	798.34
655.329	765.4
655.525	751.06
655.722	811.51
655.918	724.91
656.115	765.98
656.311	693.71
656.507	641.98
656.704	630.74
656.9	648.96
657.096	663.68
657.292	654.77
657.489	707.08
657.685	720.84
657.881	670.07
658.077	695.65
658.273	724.52
658.47	773.92
658.666	725.49
658.862	754.35
659.058	697.01
659.254	776.44
659.45	721.03
659.646	741.57
659.842	744.28
660.038	782.64
660.234	725.49
660.43	724.71
660.626	755.13
660.822	734.59
661.018	768.3
661.214	762.3
661.41	690.81
661.606	769.47
661.802	761.72
661.998	743.7
662.194	677.05
662.39	716.96
662.586	739.44
662.781	728.78
662.977	752.03
663.173	723.74
663.369	698.36
663.564	726.65
663.76	750.87
663.956	705.92
664.152	738.86
664.347	643.14
664.543	684.41
664.739	696.81
664.934	630.36
665.13	622.8
665.326	692.94
665.521	676.27
665.717	659.03
665.912	660.97
666.108	614.28
666.304	675.89
666.499	637.53
666.695	596.06
666.89	664.84
667.086	694.1
667.281	671.62
667.477	681.31
667.672	659.61
667.867	620.86
668.063	629.58
668.258	607.3
668.454	663.49
668.649	681.51
668.844	636.75
669.04	642.56
669.235	614.47
669.43	630.74
669.626	589.28
669.821	622.8
670.016	595.29
670.211	641.01
670.407	610.98
670.602	631.33
670.797	617.38
670.992	689.26
671.187	605.75
671.382	629.97
671.578	607.88
671.773	616.99
671.968	577.27
672.163	631.91
672.358	642.56
672.553	611.37
672.748	614.08
672.943	665.23
673.138	612.14
673.333	636.17
673.528	590.44
673.723	599.55
673.918	601.88
674.113	569.33
674.308	659.22
674.503	623.19
674.698	630.94
674.892	621.06
675.087	658.26
675.282	626.87
675.477	564.87
675.672	615.44
675.867	611.76
676.061	576.49
676.256	580.37
676.451	597.81
676.646	599.74
676.84	583.08
677.035	559.45
677.23	575.53
677.424	634.62
677.619	620.67
677.814	628.81
678.008	639.85
678.203	536
678.397	573.2
678.592	595.48
678.787	638.11
678.981	580.37
679.176	590.64
679.37	620.09
679.565	567
679.759	591.99
679.954	611.95
680.148	674.53
680.342	636.56
680.537	629.78
680.731	608.27
680.926	631.13
681.12	621.06
681.314	586.57
681.509	585.99
681.703	614.86
681.897	609.43
682.092	604.98
682.286	583.28
682.48	672.01
682.674	624.74
682.869	583.28
683.063	633.26
683.257	666.97
683.451	601.49
683.645	630.94
683.839	621.64
684.034	614.66
684.228	648.18
684.422	585.21
684.616	588.51
684.81	625.71
685.004	597.03
685.198	627.26
685.392	656.9
685.586	603.23
685.78	644.5
685.974	668.33
686.168	609.04
686.362	693.91
686.556	600.33
686.75	573.2
686.944	566.81
687.138	559.45
687.331	488.15
687.525	512.56
687.719	456.37
687.913	538.91
688.107	541.23
688.301	493.96
688.494	566.23
688.688	525.73
688.882	505.39
689.076	508.3
689.269	544.91
689.463	592.38
689.657	559.64
689.85	560.22
690.044	602.65
690.238	596.06
690.431	575.72
690.625	619.31
690.818	616.99
691.012	604.98
691.205	684.61
691.399	666.97
691.593	689.06
691.786	730.33
691.98	729.17
692.173	782.64
692.366	757.07
692.56	779.54
692.753	827.79
692.947	767.14
693.14	831.27
693.333	800.27
693.527	788.26
693.72	826.24
693.914	829.72
694.107	849.87
694.3	839.02
694.493	844.64
694.687	925.63
694.88	851.23
695.073	934.15
695.266	958.37
695.46	930.86
695.653	994.6
695.846	1003.9
696.039	942.68
696.232	973.1
696.425	1024.63
696.618	1079.85
696.812	1069.39
697.005	1116.08
697.198	1210.05
697.391	1135.84
697.584	1178.27
697.777	1238.92
697.97	1205.4
698.163	1283.28
698.356	1232.52
698.549	1307.31
698.742	1304.4
698.935	1257.13
699.127	1300.53
699.32	1280.96
699.513	1277.67
699.706	1311.77
699.899	1360.78
700.092	1341.99
700.285	1350.9
700.477	1302.85
700.67	1338.12
700.863	1373.18
701.056	1474.51
701.248	1411.16
701.441	1452.23
701.634	1441.96
701.826	1522.18
702.019	1421.81
702.212	1525.28
702.404	1481.68
702.597	1476.84
702.79	1515.78
702.982	1559.76
703.175	1605.49
703.367	1616.72
703.56	1619.44
703.752	1721.93
703.945	1685.12
704.137	1693.64
704.33	1716.5
704.522	1759.9
704.715	1783.35
704.907	1826.16
705.1	1798.46
705.292	1831.59
705.484	1827.52
705.677	1861.43
705.869	1898.24
706.061	1916.26
706.254	1920.52
706.446	1909.86
706.638	1901.92
706.831	1978.84
707.023	1977.48
707.215	2076.29
707.407	2045.49
707.599	2029.41
707.792	2095.86
707.984	2073.19
708.176	2106.52
708.368	2122.4
708.56	2132.67
708.752	2168.32
708.944	2127.05
709.136	2215.6
709.329	2178.59
709.521	2299.49
709.713	2271.2
709.905	2283.99
710.097	2283.41
710.289	2263.65
710.481	2297.94
710.672	2299.3
710.864	2366.72
711.056	2363.81
711.248	2389.39
711.44	2400.04
711.632	2364.78
711.824	2418.64
712.016	2472.7
712.207	2508.35
712.399	2477.16
712.591	2527.72
712.783	2524.24
712.975	2488.59
713.166	2491.88
713.358	2508.93
713.55	2578.48
713.741	2596.89
713.933	2555.62
714.125	2565.12
714.316	2556.01
714.508	2635.06
714.7	2613.17
714.891	2607.74
715.083	2692.6
715.274	2592.24
715.466	2649.4
715.657	2661.6
715.849	2568.8
716.04	2607.55
716.232	2582.75
716.423	2614.91
716.615	2513.58
716.806	2494.59
716.998	2387.26
717.189	2271.2
717.381	2252.99
717.572	2161.93
717.763	2219.47
717.955	2158.63
718.146	2113.1
718.337	2081.72
718.528	2049.17
718.72	1945.9
718.911	1993.56
719.102	1964.31
719.293	2016.23
719.485	1991.62
719.676	1948.03
719.867	1918.78
720.058	1904.24
720.249	1947.06
720.44	1975.54
720.632	2011
720.823	2048.39
721.014	2198.35
721.205	2280.11
721.396	2379.31
721.587	2461.46
721.778	2503.7
721.969	2540.12
722.16	2587.01
722.351	2614.33
722.542	2704.03
722.733	2743.17
722.924	2650.56
723.115	2709.07
723.305	2666.25
723.496	2661.02
723.687	2508.54
723.878	2579.84
724.069	2550.97
724.26	2549.42
724.45	2476.96
724.641	2480.06
724.832	2497.5
725.023	2482.39
725.213	2480.64
725.404	2448.29
725.595	2457.78
725.785	2442.67
725.976	2505.05
726.167	2492.27
726.357	2532.57
726.548	2588.56
726.739	2565.5
726.929	2638.74
727.12	2601.35
727.31	2619.37
727.501	2548.26
727.691	2577.9
727.882	2608.32
728.072	2668.19
728.263	2665.09
728.453	2752.08
728.644	2720.31
728.834	2655.79
729.024	2683.69
729.215	2627.5
729.405	2675.36
729.596	2731.74
729.786	2778.43
729.976	2767
730.167	2799.74
730.357	2765.84
730.547	2798
730.737	2782.69
730.928	2860.39
731.118	2895.65
731.308	2851.09
731.498	2830.16
731.688	2926.84
731.879	2987.68
732.069	2979.15
732.259	2998.92
732.449	3060.72
732.639	3162.63
732.829	3206.61
733.019	3247.11
733.209	3292.64
733.399	3313.17
733.589	3405.4
733.779	3442.79
733.969	3464.68
734.159	3533.66
734.349	3586.36
734.539	3549.93
734.729	3590.04
734.919	3650.1
735.109	3632.66
735.299	3619.49
735.488	3627.82
735.678	3656.69
735.868	3619.3
736.058	3620.85
736.248	3622.78
736.437	3612.9
736.627	3589.85
736.817	3726.24
737.007	3629.56
737.196	3705.51
737.386	3713.46
737.576	3673.74
737.765	3735.93
737.955	3727.79
738.144	3815.95
738.334	3767.51
738.524	3724.31
738.713	3797.74
738.903	3744.46
739.092	3795.99
739.282	3825.05
739.471	3803.16
739.661	3785.53
739.85	3905.85
740.04	3849.08
740.229	3863.22
740.419	3919.22
740.608	3971.92
740.797	3879.11
740.987	3935.68
741.176	3940.33
741.365	3928.52
741.555	3872.52
741.744	3990.32
741.933	3958.74
742.123	3989.93
742.312	3998.46
742.501	4087.78
742.69	4050.38
742.88	3994.2
743.069	4058.71
743.258	4005.43
743.447	4086.61
743.636	4081.96
743.825	4034.88
744.014	4068.4
744.204	4130.4
744.393	4053.68
744.582	4119.55
744.771	4155.39
744.96	4087.19
745.149	4135.44
745.338	4112.96
745.527	4176.12
745.716	4114.71
745.905	4101.53
746.094	4173.99
746.283	4156.56
746.471	4122.84
746.66	4176.32
746.849	4184.84
747.038	4156.56
747.227	4115.87
747.416	4174.77
747.604	4140.48
747.793	4123.23
747.982	4159.66
748.171	4194.92
748.359	4173.99
748.548	4176.12
748.737	4104.24
748.926	4155.2
749.114	4036.63
749.303	4104.24
749.491	4157.14
749.68	4055.23
749.869	4150.55
750.057	4104.83
750.246	4095.14
750.434	4114.71
750.623	4070.53
750.811	4051.93
751	4099.21
751.188	4091.84
751.377	4078.67
751.565	4066.66
751.754	4057.94
751.942	4043.8
752.131	4134.08
752.319	4043.21
752.507	4017.06
752.696	4085.45
752.884	4073.63
753.072	4025.78
753.261	4079.06
753.449	4050.77
753.637	4021.32
753.825	4100.37
754.014	4075.76
754.202	4006.21
754.39	4051.93
754.578	4085.45
754.766	3963.78
754.955	3996.33
755.143	4057.36
755.331	4005.82
755.519	4013.57
755.707	4005.43
755.895	3939.37
756.083	3993.81
756.271	3906.23
756.459	3983.73
756.647	3941.5
756.835	3937.04
757.023	3938.2
757.211	3874.27
757.399	3885.5
757.587	3889.57
757.775	3868.84
757.963	3834.94
758.151	3875.43
758.339	3829.12
758.526	3858.96
758.714	3817.89
758.902	3709.19
759.09	3561.17
759.278	3338.36
759.465	3087.27
759.653	2710.23
759.841	2424.84
760.028	2088.3
760.216	1827.33
760.404	1694.42
760.591	1378.8
760.779	1167.81
760.967	1009.52
761.154	840.18
761.342	873.51
761.529	874.48
761.717	891.72
761.905	889.59
762.092	952.56
762.28	887.07
762.467	852.2
762.655	807.83
762.842	837.47
763.029	845.22
763.217	843.67
763.404	839.02
763.592	872.93
763.779	838.83
763.966	877
764.154	896.57
764.341	983.17
764.528	958.56
764.716	1072.49
764.903	1117.05
765.09	1193.58
765.277	1238.72
765.465	1426.08
765.652	1515.2
765.839	1556.08
766.026	1744.6
766.213	1805.82
766.4	1930.01
766.588	2127.83
766.775	2207.27
766.962	2304.72
767.149	2376.79
767.336	2562.99
767.523	2541.09
767.71	2693.96
767.897	2811.37
768.084	2875.89
768.271	2956.1
768.458	2984.97
768.645	3114
768.832	3126.21
769.019	3115.94
769.206	3172.9
769.392	3240.91
769.579	3350.76
769.766	3302.13
769.953	3315.69
770.14	3361.42
770.327	3352.89
770.513	3399
770.7	3457.52
770.887	3398.62
771.073	3404.82
771.26	3427.49
771.447	3401.72
771.634	3397.07
771.82	3530.95
772.007	3425.74
772.193	3464.88
772.38	3453.06
772.567	3436.2
772.753	3451.51
772.94	3466.82
773.126	3488.13
773.313	3477.67
773.499	3445.89
773.686	3500.92
773.872	3403.07
774.059	3466.04
774.245	3440.27
774.432	3436.2
774.618	3355.99
774.804	3384.28
774.991	3386.99
775.177	3458.29
775.363	3411.6
775.55	3427.29
775.736	3358.71
775.922	3407.53
776.109	3386.22
776.295	3391.25
776.481	3389.7
776.667	3377.3
776.853	3388.35
777.04	3279.07
777.226	3357.93
777.412	3430.59
777.598	3321.12
777.784	3353.28
777.97	3296.51
778.156	3361.81
778.342	3365.1
778.528	3311.24
778.715	3278.11
778.901	3294.96
779.087	3323.83
779.272	3280.04
779.458	3276.75
779.644	3288.57
779.83	3268.03
780.016	3341.85
780.202	3259.89
780.388	3267.64
780.574	3192.08
780.76	3208.36
780.946	3260.09
781.131	3227.93
781.317	3215.33
781.503	3199.06
781.689	3191.5
781.874	3270.36
782.06	3222.31
782.246	3197.12
782.432	3197.7
782.617	3132.02
782.803	3238.58
782.989	3132.8
783.174	3155.46
783.36	3110.71
783.545	3116.13
783.731	3091.33
783.916	3036.7
784.102	3115.75
784.288	3078.16
784.473	3111.87
784.659	3040.38
784.844	3152.17
785.029	3037.67
785.215	3047.35
785.4	3027.78
785.586	3126.4
785.771	3043.67
785.956	3067.7
786.142	3016.16
786.327	3047.35
786.512	2996.59
786.698	2997.17
786.883	2933.24
787.068	2977.6
787.254	2963.27
787.439	2919.67
787.624	2916.96
787.809	2884.61
787.994	2909.6
788.18	2940.21
788.365	2861.94
788.55	2852.64
788.735	2866.78
788.92	2854.19
789.105	2868.72
789.29	2848.76
789.475	2795.29
789.66	2794.9
789.845	2762.93
790.03	2798.78
790.215	2864.84
790.4	2788.12
790.585	2850.89
790.77	2779.79
790.955	2739.3
791.14	2775.91
791.325	2831.13
791.51	2669.74
791.695	2731.16
791.879	2777.08
792.064	2701.13
792.249	2796.45
792.434	2708.68
792.618	2782.11
792.803	2799.36
792.988	2763.9
793.173	2762.93
793.357	2810.98
793.542	2704.23
793.727	2756.34
793.911	2786.57
794.096	2742.2
794.281	2810.21
794.465	2863.1
794.65	2768.74
794.834	2868.33
795.019	2828.23
795.203	2878.41
795.388	2837.72
795.572	2887.32
795.757	2816.02
795.941	2814.47
796.126	2762.74
796.31	2733.48
796.494	2783.47
796.679	2808.85
796.863	2720.31
797.048	2868.33
797.232	2807.11
797.416	2827.84
797.601	2789.09
797.785	2884.8
797.969	2854.19
798.153	2768.94
798.338	2817.76
798.522	2884.22
798.706	2873.76
798.89	2870.07
799.074	2939.05
799.258	2880.15
799.443	2860.39
799.627	2863.68
799.811	2918.51
799.995	2825.9
800.179	2815.24
800.363	2804.98
800.547	2851.47
800.731	2832.49
800.915	2775.14
801.099	2763.13
801.283	2763.71
801.467	2815.24
801.651	2795.87
801.835	2848.18
802.019	2818.15
802.202	2839.85
802.386	2809.63
802.57	2761.38
802.754	2792.38
802.938	2744.14
803.121	2732.71
803.305	2831.13
803.489	2763.13
803.673	2787.73
803.856	2815.05
804.04	2771.65
804.224	2808.08
804.407	2798.78
804.591	2789.48
804.775	2775.33
804.958	2808.46
805.142	2895.26
805.326	2795.09
805.509	2836.56
805.693	2831.91
805.876	2844.89
806.06	2826.87
806.243	2864.84
806.427	2867.56
806.61	2884.22
806.794	2844.31
806.977	2866.59
807.16	2844.5
807.344	2857.29
807.527	2865.81
807.71	2830.94
807.894	2807.49
808.077	2858.06
808.26	2794.32
808.444	2754.99
808.627	2870.07
808.81	2796.64
808.993	2749.18
809.177	2724.76
809.36	2717.79
809.543	2721.47
809.726	2672.26
809.909	2657.92
810.092	2668.19
810.276	2646.88
810.459	2611.81
810.642	2603.48
810.825	2574.42
811.008	2590.88
811.191	2528.5
811.374	2523.85
811.557	2538.77
811.74	2577.13
811.923	2434.34
812.106	2451.19
812.289	2416.9
812.472	2401.01
812.654	2403.14
812.837	2350.06
813.02	2333.01
813.203	2312.86
813.386	2144.88
813.569	2153.02
813.751	2076.68
813.934	2168.52
814.117	2080.94
814.3	2063.5
814.482	1996.66
814.665	1921.88
814.848	1950.16
815.03	1859.1
815.213	1872.86
815.396	1829.85
815.578	1820.16
815.761	1817.45
815.943	1861.43
816.126	1765.33
816.309	1721.35
816.491	1680.85
816.674	1583.98
816.856	1637.26
817.039	1643.07
817.221	1725.8
817.403	1708.56
817.586	1679.89
817.768	1717.86
817.951	1640.55
818.133	1620.02
818.315	1663.8
818.498	1694.61
818.68	1766.68
818.862	1728.32
819.045	1748.67
819.227	1734.52
819.409	1709.72
819.591	1725.61
819.774	1711.47
819.956	1687.25
820.138	1779.08
820.32	1742.47
820.502	1846.31
820.684	1936.99
820.866	1914.13
821.048	1982.52
821.231	1947.45
821.413	1944.74
821.595	1936.6
821.777	1989.11
821.959	1972.83
822.141	2035.61
822.323	1884.48
822.505	1795.36
822.686	1703.52
822.868	1621.76
823.05	1538.84
823.232	1504.16
823.414	1448.36
823.596	1543.87
823.778	1483.81
823.96	1525.47
824.141	1578.94
824.323	1570.81
824.505	1668.26
824.687	1688.41
824.868	1774.24
825.05	1866.66
825.232	1924.59
825.413	1979.61
825.595	1894.56
825.777	1863.17
825.958	1873.25
826.14	1855.42
826.321	1936.6
826.503	1881.58
826.685	1925.36
826.866	1949.78
827.048	1925.36
827.229	1872.47
827.411	1857.36
827.592	1806.4
827.773	1786.83
827.955	1707.2
828.136	1757.38
828.318	1717.08
828.499	1713.98
828.68	1696.94
828.862	1695.97
829.043	1741.3
829.224	1700.04
829.406	1681.63
829.587	1691.32
829.768	1689.96
829.949	1722.12
830.131	1716.5
830.312	1746.53
830.493	1699.26
830.674	1754.28
830.855	1703.33
831.036	1733.94
831.218	1813.18
831.399	1789.16
831.58	1733.17
831.761	1738.59
831.942	1720.96
832.123	1718.25
832.304	1697.13
832.485	1691.9
832.666	1717.67
832.847	1747.31
833.028	1743.43
833.209	1713.02
833.389	1701
833.57	1638.62
833.751	1672.33
833.932	1723.28
834.113	1731.62
834.294	1697.52
834.475	1766.88
834.655	1785.67
834.836	1767.07
835.017	1817.06
835.198	1722.32
835.378	1791.48
835.559	1830.43
835.74	1777.53
835.92	1750.6
836.101	1739.17
836.281	1799.81
836.462	1779.67
836.643	1803.11
836.823	1796.13
837.004	1799.81
837.184	1867.24
837.365	1839.92
837.545	1819.38
837.726	1794.39
837.906	1865.88
838.087	1825
838.267	1812.6
838.448	1753.9
838.628	1785.28
838.808	1814.35
838.989	1840.7
839.169	1775.6
839.349	1837.01
839.53	1852.32
839.71	1857.36
839.89	1826.36
840.07	1855.42
840.251	1790.32
840.431	1835.85
840.611	1818.8
840.791	1808.53
840.971	1772.69
841.151	1800.78
841.332	1806.4
841.512	1844.57
841.692	1722.7
841.872	1807.18
842.052	1781.8
842.232	1834.3
842.412	1744.79
842.592	1798.85
842.772	1776.37
842.952	1824.23
843.132	1776.95
843.312	1786.06
843.492	1742.85
843.672	1821.13
843.851	1739.95
844.031	1768.43
844.211	1753.32
844.391	1755.06
844.571	1755.83
844.751	1733.17
844.93	1761.45
845.11	1766.68
845.29	1746.92
845.47	1793.42
845.649	1748.86
845.829	1786.64
846.009	1746.73
846.188	1769.2
846.368	1745.95
846.547	1761.84
846.727	1791.1
846.907	1669.62
847.086	1770.95
847.266	1799.43
847.445	1776.18
847.625	1713.02
847.804	1728.13
847.984	1741.69
848.163	1671.94
848.343	1693.64
848.522	1741.11
848.701	1768.43
848.881	1659.35
849.06	1719.6
849.239	1725.61
849.419	1700.04
849.598	1623.89
849.777	1616.72
849.957	1589.6
850.136	1553.95
850.315	1546.01
850.494	1569.64
850.674	1566.35
850.853	1600.64
851.032	1562.86
851.211	1632.61
851.39	1588.24
851.569	1516.75
851.748	1588.63
851.927	1626.99
852.107	1586.69
852.286	1575.84
852.465	1524.11
852.644	1617.69
852.823	1600.06
853.002	1605.49
853.181	1620.6
853.359	1594.44
853.538	1525.47
853.717	1579.33
853.896	1469.28
854.075	1399.34
854.254	1398.95
854.433	1323.39
854.611	1393.33
854.79	1323.2
854.969	1365.24
855.148	1390.62
855.327	1373.96
855.505	1440.61
855.684	1422.98
855.863	1420.07
856.041	1414.06
856.22	1465.02
856.399	1442.74
856.577	1559.96
856.756	1477.23
856.934	1631.25
857.113	1589.21
857.291	1501.25
857.47	1484.2
857.648	1537.29
857.827	1543.29
858.005	1554.34
858.184	1467.54
858.362	1587.66
858.541	1506.68
858.719	1505.51
858.898	1501.44
859.076	1488.27
859.254	1584.76
859.433	1497.76
859.611	1524.5
859.789	1451.07
859.967	1556.27
860.146	1560.54
860.324	1471.8
860.502	1469.48
860.68	1407.86
860.859	1455.53
861.037	1433.44
861.215	1494.08
861.393	1510.55
861.571	1440.61
861.749	1454.36
861.927	1465.79
862.105	1441
862.283	1451.65
862.461	1399.92
862.639	1418.13
862.817	1443.51
862.995	1422.2
863.173	1423.75
863.351	1448.55
863.529	1439.64
863.707	1482.07
863.885	1444.09
864.063	1403.8
864.241	1430.34
864.418	1463.86
864.596	1390.62
864.774	1352.65
864.952	1438.28
865.129	1434.21
865.307	1386.75
865.485	1320.68
865.663	1390.81
865.84	1340.83
866.018	1315.83
866.196	1225.16
866.373	1260.81
866.551	1168.59
866.728	1133.32
866.906	1219.93
867.084	1209.08
867.261	1242.6
867.439	1216.25
867.616	1309.83
867.794	1268.37
867.971	1313.32
868.149	1275.34
868.326	1339.47
868.503	1303.05
868.681	1310.6
868.858	1263.14
869.035	1248.99
869.213	1358.46
869.39	1245.5
869.567	1373.96
869.745	1288.9
869.922	1302.08
870.099	1299.75
870.276	1323.39
870.454	1306.15
870.631	1295.3
870.808	1292.39
870.985	1314.09
871.162	1342.18
871.339	1281.93
871.517	1246.47
871.694	1250.54
871.871	1288.13
872.048	1207.72
872.225	1233.1
872.402	1292
872.579	1191.45
872.756	1293.75
872.933	1212.57
873.11	1230
873.287	1277.28
873.463	1240.08
873.64	1202.1
873.817	1235.62
873.994	1205.98
874.171	1198.81
874.348	1256.35
874.524	1173.04
874.701	1207.72
874.878	1169.94
875.055	1186.8
875.231	1221.67
875.408	1212.57
875.585	1170.33
875.762	1189.12
875.938	1164.71
876.115	1182.15
876.291	1168.59
876.468	1155.02
876.645	1129.26
876.821	1151.92
876.998	1176.92
877.174	1164.91
877.351	1160.06
877.527	1155.02
877.704	1171.11
877.88	1168.2
878.057	1137.39
878.233	1190.87
878.409	1131.39
878.586	1185.25
878.762	1117.05
878.938	1135.07
879.115	1060.09
879.291	1153.09
879.467	1051.37
879.644	1114.34
879.82	1119.18
879.996	1123.06
880.172	1087.99
880.349	1089.93
880.525	1134.68
880.701	1038.39
880.877	1081.21
881.053	1120.15
881.229	1081.01
881.405	1135.84
881.581	1056.6
881.757	1093.8
881.933	1077.72
882.109	1127.12
882.285	1090.31
882.461	1057.18
882.637	1059.89
882.813	1043.62
882.989	1076.36
883.165	1121.7
883.341	1068.23
883.517	1109.69
883.693	1116.08
883.869	1108.52
884.044	1078.3
884.22	1112.59
884.396	1106.2
884.572	1102.71
884.747	1116.47
884.923	1119.18
885.099	1105.81
885.275	1129.45
885.45	1071.33
885.626	1045.75
885.801	1060.86
885.977	1101.94
886.153	1001.96
886.328	1087.99
886.504	1041.68
886.679	1044.78
886.855	1052.53
887.03	1084.31
887.206	1098.64
887.381	1079.46
887.557	1098.26
887.732	1086.05
887.908	1089.15
888.083	1106.59
888.258	1051.18
888.434	1056.21
888.609	1089.54
888.784	1110.27
888.96	1062.03
889.135	1069.97
889.31	1042.46
889.485	1091.86
889.661	1100.77
889.836	1085.28
890.011	1073.65
890.186	1054.66
890.361	1036.64
890.537	1081.59
890.712	1083.14
890.887	1071.71
891.062	1067.45
891.237	1115.69
891.412	1010.1
891.587	1062.99
891.762	1076.36
891.937	1092.83
892.112	1036.06
892.287	1041.49
892.462	983.75
892.637	990.53
892.812	983.75
892.987	972.32
893.161	955.08
893.336	968.64
893.511	961.08
893.686	969.22
893.861	958.56
894.035	995.38
894.21	972.32
894.385	930.47
894.56	939
894.734	843.28
894.909	872.35
895.084	879.52
895.258	859.37
895.433	901.02
895.608	843.28
895.782	783.22
895.957	796.4
896.131	790.39
896.306	739.82
896.48	728.2
896.655	717.93
896.829	675.89
897.004	663.1
897.178	692.36
897.353	704.37
897.527	728.59
897.701	712.89
897.876	662.32
898.05	746.99
898.224	716.57
898.399	749.12
898.573	696.23
898.747	591.99
898.921	625.9
899.096	530.19
899.27	552.86
899.444	563.13
899.618	594.9
899.792	608.66
899.967	615.44
900.141	649.34
900.315	589.28
900.489	573.78
900.663	635.39
900.837	612.14
901.011	557.51
901.185	651.09
901.359	612.53
901.533	632.29
901.707	634.04
901.881	622.03
902.055	548.79
902.229	592.38
902.403	643.92
902.576	595.29
902.75	621.83
902.924	723.55
903.098	657.48
903.272	721.03
903.446	743.89
903.619	729.94
903.793	756.29
903.967	749.51
904.14	803.18
904.314	808.02
904.488	779.15
904.661	790.39
904.835	755.52
905.009	817.32
905.182	836.12
905.356	797.75
905.529	798.14
905.703	746.02
905.876	720.06
906.05	719.67
906.223	704.17
906.397	671.04
906.57	642.37
906.744	584.44
906.917	577.08
907.09	601.29
907.264	613.5
907.437	587.34
907.61	526.51
907.784	572.43
907.957	561
908.13	548.4
908.304	560.03
908.477	539.3
908.65	542.59
908.823	522.83
908.996	583.08
909.17	537.36
909.343	514.3
909.516	541.04
909.689	510.04
909.862	494.15
910.035	545.5
910.208	492.99
910.381	491.44
910.554	572.23
910.727	508.49
910.9	519.15
911.073	517.98
911.246	580.56
911.419	603.23
911.592	562.55
911.765	530
911.938	542.2
912.11	532.71
912.283	543.17
912.456	587.73
912.629	528.45
912.802	465.28
912.974	456.95
913.147	412.2
913.32	382.94
913.493	415.1
913.665	422.27
913.838	426.34
914.01	457.53
914.183	484.66
914.356	483.11
914.528	488.53
914.701	518.95
914.873	509.07
915.046	402.51
915.218	415.3
915.391	357.17
915.563	373.25
915.736	416.65
915.908	485.82
916.081	451.33
916.253	460.83
916.425	456.76
916.598	485.05
916.77	455.4
916.942	445.91
917.115	379.84
917.287	443.58
917.459	394.37
917.632	371.51
917.804	347.68
917.976	397.47
918.148	437.19
918.32	463.73
918.493	458.89
918.665	500.93
918.837	487.76
919.009	518.56
919.181	497.45
919.353	486.01
919.525	470.9
919.697	478.46
919.869	484.46
920.041	541.23
920.213	593.93
920.385	531.93
920.557	500.16
920.729	542.4
920.901	509.65
921.073	486.01
921.244	468
921.416	523.99
921.588	481.36
921.76	471.1
921.932	558.48
922.103	497.25
922.275	508.1
922.447	503.45
922.619	442.81
922.79	463.73
922.962	465.28
923.134	528.25
923.305	434.67
923.477	415.3
923.648	425.37
923.82	418.2
923.991	370.35
924.163	386.82
924.335	409.1
924.506	371.51
924.677	440.29
924.849	391.85
925.02	429.25
925.192	426.53
925.363	454.82
925.535	407.93
925.706	405.22
925.877	433.9
926.049	377.9
926.22	419.17
926.391	379.07
926.562	432.15
926.734	389.14
926.905	441.45
927.076	385.46
927.247	393.6
927.419	335.28
927.59	334.5
927.761	349.81
927.932	303.12
928.103	345.74
928.274	281.61
928.445	283.16
928.616	293.43
928.787	275.8
928.958	301.57
929.129	272.89
929.3	274.64
929.471	237.44
929.642	207.21
929.813	172.14
929.984	254.49
930.155	162.46
930.326	207.21
930.496	205.08
930.667	136.3
930.838	176.02
931.009	126.03
931.18	145.21
931.35	145.41
931.521	156.45
931.692	91.35
931.863	85.93
932.033	107.24
932.204	115.96
932.374	99.88
932.545	83.99
932.716	134.17
932.886	118.86
933.057	53.38
933.227	108.21
933.398	135.33
933.568	61.32
933.739	16.57
933.909	35.36
934.08	116.73
934.25	14.05
934.421	25.67
934.591	79.53
934.761	35.94
934.932	20.44
935.102	49.5
935.272	47.76
935.443	45.63
935.613	62.48
935.783	68.88
935.953	8.62
936.123	139.4
936.294	48.73
936.464	27.42
936.634	47.18
936.804	12.3
936.974	12.69
937.144	60.93
937.314	22.96
937.484	35.75
937.655	3
937.825	70.81
937.995	41.95
938.165	87.48
938.334	38.27
938.504	72.95
938.674	22.96
938.844	72.95
939.014	108.6
939.184	93.29
939.354	157.03
939.524	137.27
939.694	78.37
939.863	89.22
940.033	135.14
940.203	119.83
940.373	101.81
940.542	142.11
940.712	70.04
940.882	101.23
941.051	138.43
941.221	119.06
941.391	139.98
941.56	101.23
941.73	56.86
941.899	175.05
942.069	99.49
942.238	109.18
942.408	99.3
942.577	107.05
942.747	90.58
942.916	41.95
943.086	65.39
943.255	121.96
943.425	77.21
943.594	45.63
943.763	11.33
943.933	39.82
944.102	-1.45
944.271	92.13
944.441	96.58
944.61	47.37
944.779	84.18
944.948	136.11
945.117	37.49
945.287	60.35
945.456	10.95
945.625	15.6
945.794	64.81
945.963	54.93
946.132	81.08
946.301	47.76
946.47	91.35
946.639	36.72
946.808	29.93
946.977	96.39
947.146	121.58
947.315	59.19
947.484	92.32
947.653	55.9
947.822	73.33
947.991	53.96
948.16	129.52
948.329	106.85
948.498	76.43
948.666	77.4
948.835	97.36
949.004	60.93
949.173	41.75
949.341	59.77
949.51	83.02
949.679	105.5
949.847	110.34
950.016	118.09
950.185	106.08
950.353	40.4
950.522	57.25
950.69	105.3
950.859	77.79
951.028	118.28
951.196	96.97
951.365	42.72
951.533	54.73
951.701	103.36
951.87	70.43
952.038	46.98
952.207	64.61
952.375	105.5
952.543	59
952.712	68.88
952.88	42.14
953.048	116.15
953.217	79.73
953.385	76.82
953.553	107.05
953.721	52.02
953.89	75.66
954.058	38.85
954.226	49.11
954.394	74.69
954.562	-2.23
954.73	38.85
954.898	68.3
955.067	82.63
955.235	75.85
955.403	106.66
955.571	109.37
955.739	92.13
955.907	43.3
956.075	63.26
956.243	56.86
956.41	108.79
956.578	34.97
956.746	46.98
956.914	63.84
957.082	88.83
957.25	105.11
957.418	67.91
957.585	87.86
957.753	133.59
957.921	49.31
958.089	69.85
958.256	77.79
958.424	77.98
958.592	69.85
958.759	40.98
958.927	82.25
959.095	50.28
959.262	59.19
959.43	73.91
959.597	53.96
959.765	69.26
959.932	45.24
960.1	96.39
960.267	107.63
960.435	74.5
960.602	111.5
960.77	77.79
960.937	22.77
961.104	71.78
961.272	53.57
961.439	67.91
961.606	136.69
961.774	92.71
961.941	84.38
962.108	102.2
962.275	96.39
962.443	126.23
962.61	89.8
962.777	169.82
962.944	83.6
963.111	84.96
963.278	111.31
963.446	100.65
963.613	96.78
963.78	90.38
963.947	101.81
964.114	102.4
964.281	136.3
964.448	134.75
964.615	88.06
964.782	103.17
964.949	125.65
965.116	107.43
965.282	122.93
965.449	99.49
965.616	54.73
965.783	105.69
965.95	98.52
966.117	56.09
966.283	73.53
966.45	106.27
966.617	106.08
966.784	133.78
966.95	121.96
967.117	139.79
967.284	72.17
967.45	120.41
967.617	129.33
967.784	136.49
967.95	152.77
968.117	125.84
968.283	139.4
968.45	216.71
968.616	123.71
968.783	155.29
968.949	117.31
969.116	155.87
969.282	139.79
969.449	140.76
969.615	116.73
969.781	62.87
969.948	104.91
970.114	75.46
970.28	147.93
970.447	109.37
970.613	134.94
970.779	130.1
970.945	139.4
971.112	130.1
971.278	109.56
971.444	121.19
971.61	157.42
971.776	126.61
971.942	139.98
972.108	121.96
972.275	84.96
972.441	123.13
972.607	160.91
972.773	97.55
972.939	101.04
973.105	102.4
973.271	68.1
973.437	97.36
973.602	98.91
973.768	122.93
973.934	96.58
974.1	134.56
974.266	41.17
974.432	99.1
974.598	79.15
974.763	125.26
974.929	73.91
975.095	160.33
975.261	96.58
975.426	95.23
975.592	100.85
975.758	164.39
975.923	73.72
976.089	91.55
976.255	138.43
976.42	145.79
976.586	92.13
976.751	120.8
976.917	190.55
977.082	119.06
977.248	59.96
977.413	46.98
977.579	104.53
977.744	92.9
977.91	73.91
978.075	80.31
978.24	123.13
978.406	100.65
978.571	87.09
978.736	49.7
978.902	92.9
979.067	47.95
979.232	76.05
979.397	89.8
979.563	136.88
979.728	40.2
979.893	95.23
980.058	81.66
980.223	119.06
980.388	98.13
980.554	82.63
980.719	85.73
980.884	102.59
981.049	112.86
981.214	114.41
981.379	122.35
981.544	66.36
981.709	99.3
981.874	77.01
982.039	119.25
982.204	118.67
982.368	103.56
982.533	66.55
982.698	128.94
982.863	120.41
983.028	81.28
983.193	110.53
983.357	118.28
983.522	102.2
983.687	90.38
983.852	98.52
984.016	82.63
984.181	111.7
984.346	125.06
984.51	119.06
984.675	85.54
984.839	110.73
985.004	107.24
985.168	129.33
985.333	123.13
985.498	97.94
985.662	141.14
985.827	113.05
985.991	74.88
986.155	66.55
986.32	115.96
986.484	180.67
986.649	122.35
986.813	59
986.977	88.06
987.142	113.83
987.306	69.26
987.47	99.1
987.634	112.47
987.799	104.14
987.963	102.01
988.127	104.53
988.291	181.83
988.455	99.49
988.62	71.4
988.784	126.61
988.948	123.51
989.112	88.25
989.276	103.95
989.44	113.44
989.604	89.61
989.768	83.02
989.932	174.86
990.096	61.13
990.26	70.81
990.424	65.78
990.588	90.19
990.752	154.51
990.915	128.36
991.079	67.52
991.243	83.41
991.407	125.06
991.571	89.61
991.734	90
991.898	105.5
992.062	153.93
992.226	67.91
992.389	69.46
992.553	40.59
992.717	53.18
992.88	66.36
993.044	94.45
993.207	83.41
993.371	90.58
993.535	109.37
993.698	83.8
993.862	138.82
994.025	113.63
994.189	87.48
994.352	84.38
994.515	107.43
994.679	124.87
994.842	65.2
995.006	118.28
995.169	51.83
995.332	58.8
995.496	98.13
995.659	20.44
995.822	89.41
995.985	77.01
996.149	119.45
996.312	94.45
996.475	134.75
996.638	77.79
996.801	149.09
996.964	122.16
997.128	83.8
997.291	85.93
997.454	89.61
997.617	59.58
997.78	138.43
997.943	60.93
998.106	139.79
998.269	47.37
998.432	95.03
998.595	77.79
998.758	26.45
998.92	35.36
999.083	58.41
999.246	70.04
999.409	17.34
999.572	17.15
999.735	50.08
999.897	91.35
1000.06	55.31
1000.223	40.4
1000.386	80.11
1000.548	91.93
1000.711	94.65
1000.874	94.06
1001.036	31.29
1001.199	100.85
1001.361	70.23
1001.524	56.48
1001.687	123.9
1001.849	54.93
1002.012	77.01
1002.174	89.03
1002.337	101.81
1002.499	71.98
1002.661	94.45
1002.824	34.97
1002.986	17.92
1003.149	56.67
1003.311	46.6
1003.473	128.55
1003.636	54.35
1003.798	104.53
1003.96	85.15
1004.123	43.11
1004.285	59.96
1004.447	72.36
1004.609	63.65
1004.771	129.71
1004.933	3.58
1005.096	33.23
1005.258	18.31
1005.42	36.91
1005.582	87.48
1005.744	59.96
1005.906	9.59
1006.068	69.65
1006.23	21.22
1006.392	17.15
1006.554	34.97
1006.716	102.78
1006.878	83.99
1007.04	15.6
1007.202	56.09
1007.363	61.32
1007.525	61.51
1007.687	74.69
1007.849	84.76
1008.011	21.6
1008.172	37.88
1008.334	53.76
1008.496	63.26
1008.658	3.2
1008.819	12.88
1008.981	2.62
1009.143	47.18
1009.304	50.08
1009.466	87.28
1009.627	86.7
1009.789	111.11
1009.95	54.73
1010.112	48.53
1010.273	70.23
1010.435	23.73
1010.596	41.75
1010.758	42.72
1010.919	49.7
1011.081	17.15
1011.242	48.73
1011.403	65.97
1011.565	59.96
1011.726	55.31
1011.887	11.14
1012.049	19.47
1012.21	55.51
1012.371	83.41
1012.532	-8.82
1012.693	38.46
1012.855	16.18
1013.016	60.55
1013.177	46.79
1013.338	40.01
1013.499	116.15
1013.66	77.21
1013.821	54.35
1013.982	64.23
1014.143	60.55
1014.304	34
1014.465	47.95
1014.626	57.83
1014.787	25.67
1014.948	108.4
1015.109	-37.88
1015.27	75.85
1015.431	39.23
1015.592	7.07
1015.752	74.5
1015.913	34.58
1016.074	55.31
1016.235	20.05
1016.395	34.58
1016.556	38.27
1016.717	38.46
1016.877	68.68
1017.038	-3.78
1017.199	46.21
1017.359	39.04
1017.52	45.24
1017.681	18.5
1017.841	27.22
1018.002	33.62
1018.162	24.32
1018.323	69.85
1018.483	34
1018.644	26.25
1018.804	11.33
1018.964	8.62
1019.125	32.45
1019.285	37.3
1019.446	22.77
1019.606	1.65
1019.766	-44.08
1019.926	61.51
1020.087	19.28
1020.247	-13.08
1020.407	28.58
1020.567	81.47
1020.728	27.42
1020.888	9.4
1021.048	5.13
1021.208	-4.17
1021.368	22.57
1021.528	69.26
1021.688	77.01
1021.848	39.43
1022.008	39.43
1022.168	24.7
1022.328	23.15
1022.488	58.61
1022.648	36.72
1022.808	37.49
1022.968	46.98
1023.128	1.26
1023.288	25.48
1023.448	30.13
1023.608	43.11
1023.767	52.21
1023.927	6.49
1024.087	-5.72
1024.247	-6.49
1024.406	28
1024.566	-12.88
1024.726	-10.75
1024.885	37.1
1025.045	34.97
1025.205	5.91
1025.364	23.73
1025.524	42.53
1025.683	21.22
1025.843	16.18
1026.003	11.72
1026.162	94.45
1026.321	57.64
1026.481	17.73
1026.64	-2.62
1026.8	64.23
1026.959	21.41
1027.119	17.34
1027.278	14.63
1027.437	-0.87
1027.597	13.08
1027.756	63.65
1027.915	54.35
1028.074	52.8
1028.234	21.6
1028.393	44.27
1028.552	15.21
1028.711	-48.92
1028.87	32.26
1029.03	-8.04
1029.189	7.07
1029.348	-36.33
1029.507	-1.45
1029.666	17.34
1029.825	5.33
1029.984	6.68
1030.143	20.25
1030.302	32.45
1030.461	-28.58
1030.62	40.01
1030.779	30.13
1030.938	3.2
1031.097	-33.03
1031.255	57.83
1031.414	72.17
1031.573	42.72
1031.732	-32.84
1031.891	26.64
1032.049	39.04
1032.208	38.27
1032.367	-9.78
1032.525	-17.92
1032.684	-1.84
1032.843	32.84
1033.001	-57.45
1033.16	165.94
1033.319	43.88
1033.477	54.15
1033.636	25.67
1033.794	-28.38
1033.953	47.56
1034.111	49.11
1034.27	20.83
1034.428	49.5
1034.587	-47.95
1034.745	-7.65
1034.903	16.57
1035.062	21.8
1035.22	-10.56
1035.378	65.2
1035.537	-7.65
1035.695	32.65
1035.853	16.57
1036.011	53.38
1036.17	62.1
1036.328	-28
1036.486	24.7
1036.644	26.64
1036.802	-55.7
1036.96	1.84
1037.119	23.93
1037.277	-15.02
1037.435	-24.9
1037.593	-1.07
1037.751	29.74
1037.909	37.1
1038.067	37.1
