Data from gum_young_FLMT105791__124__17-40-52-040.txt Node

Date: Mon Mar 20 17:40:52 GMT 2023
User: antho
Spectrometer: FLMT10579
Trigger mode: 0
Integration Time (sec): 1.000000E-1
Scans to average: 10
Electric dark correction enabled: true
Nonlinearity correction enabled: false
Boxcar width: 0
XAxis mode: Wavelengths
Number of Pixels in Spectrum: 3648
>>>>>Begin Spectral Data<<<<<
345.248	-161.84
345.464	-161.84
345.681	-161.84
345.898	-119.22
346.114	-111.08
346.331	-13.82
346.548	14.08
346.764	-16.92
346.981	6.91
347.197	-12.46
347.414	15.44
347.631	-26.22
347.847	26.09
348.064	17.37
348.28	23.96
348.497	-49.86
348.713	15.44
348.93	33.07
349.146	39.85
349.363	34.42
349.579	26.67
349.796	-5.3
350.012	2.84
350.229	51.86
350.445	9.43
350.661	10.4
350.878	26.48
351.094	11.37
351.311	21.83
351.527	36.94
351.743	4.59
351.96	17.37
352.176	25.9
352.392	41.78
352.609	49.53
352.825	35.78
353.041	35.97
353.257	2.07
353.474	37.33
353.69	52.25
353.906	36.75
354.122	-14.98
354.339	82.47
354.555	25.9
354.771	6.14
354.987	72.98
355.203	62.52
355.42	26.67
355.636	26.29
355.852	16.02
356.068	8.07
356.284	-48.31
356.5	72.4
356.716	20.86
356.932	27.06
357.148	21.83
357.364	43.53
357.58	53.41
357.796	74.14
358.012	56.12
358.228	36.55
358.444	-36.68
358.66	65.42
358.876	19.5
359.092	-0.65
359.308	31.9
359.524	15.44
359.74	1.49
359.956	4.97
360.172	14.08
360.388	63.48
360.604	0.52
360.819	73.75
361.035	42.95
361.251	41.4
361.467	26.09
361.683	52.63
361.898	28.61
362.114	60
362.33	36.94
362.546	37.33
362.762	34.03
362.977	20.86
363.193	20.67
363.409	60.58
363.624	8.65
363.84	-8.78
364.056	12.72
364.271	37.91
364.487	52.25
364.703	12.72
364.918	4.97
365.134	13.3
365.35	7.3
365.565	112.89
365.781	33.07
365.996	47.21
366.212	82.28
366.427	17.18
366.643	-6.46
366.858	-0.45
367.074	-6.26
367.289	84.8
367.505	119.09
367.72	-26.41
367.936	10.59
368.151	44.88
368.367	35.97
368.582	39.27
368.798	5.36
369.013	42.56
369.228	32.1
369.444	13.3
369.659	91.97
369.874	48.76
370.09	103.98
370.305	-14.01
370.52	35
370.736	77.24
370.951	38.1
371.166	80.73
371.381	79.37
371.597	59.61
371.812	-5.88
372.027	16.99
372.242	42.95
372.458	98.17
372.673	11.95
372.888	24.74
373.103	64.84
373.318	111.34
373.533	58.64
373.749	63.68
373.964	1.1
374.179	79.76
374.394	8.46
374.609	74.92
374.824	-13.82
375.039	61.55
375.254	14.27
375.469	100.88
375.684	51.08
375.899	67.17
376.114	30.93
376.329	30.55
376.544	57.28
376.759	70.65
376.974	14.85
377.189	43.72
377.404	24.93
377.619	94.29
377.834	-1.81
378.049	3.81
378.264	-2
378.478	40.04
378.693	33.65
378.908	51.86
379.123	43.33
379.338	44.5
379.553	52.25
379.767	43.92
379.982	65.42
380.197	70.65
380.412	51.28
380.626	54.18
380.841	87.9
381.056	56.7
381.271	81.7
381.485	29.38
381.7	-10.53
381.915	64.84
382.129	32.68
382.344	51.67
382.559	45.66
382.773	45.66
382.988	-9.75
383.202	44.69
383.417	10.59
383.632	134.98
383.846	70.07
384.061	48.95
384.275	50.89
384.49	68.52
384.704	48.95
384.919	47.98
385.133	44.69
385.348	69.1
385.562	21.64
385.777	93.13
385.991	50.89
386.206	43.14
386.42	38.3
386.634	86.73
386.849	65.42
387.063	38.68
387.277	1.49
387.492	39.46
387.706	22.41
387.92	8.46
388.135	84.02
388.349	68.13
388.563	65.03
388.778	60.58
388.992	94.68
389.206	87.7
389.42	118.31
389.635	48.76
389.849	83.63
390.063	75.69
390.277	62.13
390.491	122.19
390.706	72.2
390.92	82.08
391.134	73.56
391.348	75.11
391.562	-0.06
391.776	48.57
391.99	67.17
392.205	110.18
392.419	29.97
392.633	40.82
392.847	98.17
393.061	43.92
393.275	116.76
393.489	47.6
393.703	66.2
393.917	80.92
394.131	30.74
394.345	77.05
394.559	95.65
394.773	35
394.986	69.3
395.2	39.46
395.414	99.33
395.628	46.43
395.842	58.83
396.056	41.01
396.27	21.05
396.484	81.31
396.697	67.75
396.911	120.45
397.125	68.72
397.339	64.45
397.553	69.49
397.766	128.39
397.98	102.43
398.194	107.27
398.408	61.55
398.621	106.5
398.835	113.47
399.049	97.39
399.262	133.04
399.476	103.2
399.69	112.5
399.903	151.25
400.117	93.52
400.331	96.23
400.544	68.33
400.758	197.95
400.971	123.16
401.185	123.74
401.398	62.9
401.612	138.66
401.826	126.26
402.039	127.42
402.253	90.61
402.466	132.65
402.68	84.22
402.893	140.21
403.106	126.26
403.32	102.23
403.533	115.6
403.747	134.78
403.96	124.71
404.174	135.95
404.387	66.39
404.6	128
404.814	160.16
405.027	129.94
405.24	133.81
405.454	92.55
405.667	164.23
405.88	66.39
406.094	127.42
406.307	136.91
406.52	108.05
406.733	99.13
406.947	69.49
407.16	160.36
407.373	159.2
407.586	85.38
407.799	102.23
408.012	148.73
408.226	126.65
408.439	177.21
408.652	95.84
408.865	146.02
409.078	166.17
409.291	135.17
409.504	109.21
409.717	137.3
409.93	137.69
410.143	120.45
410.357	77.82
410.57	82.67
410.783	105.14
410.996	131.3
411.209	122.77
411.421	165.98
411.634	122.96
411.847	118.7
412.06	130.71
412.273	148.93
412.486	153.19
412.699	211.7
412.912	129.36
413.125	179.35
413.338	146.41
413.55	180.31
413.763	138.27
413.976	172.37
414.189	126.06
414.402	122
414.615	200.27
414.827	128.78
415.04	189.42
415.253	155.9
415.466	176.63
415.678	199.69
415.891	139.82
416.104	169.46
416.316	140.98
416.529	144.86
416.742	165.59
416.954	182.25
417.167	140.79
417.38	137.69
417.592	175.47
417.805	138.66
418.017	116.96
418.23	165.01
418.442	130.71
418.655	143.11
418.868	148.54
419.08	216.74
419.293	191.16
419.505	170.63
419.718	167.14
419.93	213.83
420.142	147.96
420.355	197.17
420.567	207.24
420.78	187.48
420.992	135.56
421.205	238.83
421.417	122.96
421.629	121.61
421.842	142.53
422.054	135.75
422.266	197.17
422.479	214.99
422.691	184
422.903	178.76
423.115	173.15
423.328	175.47
423.54	173.53
423.752	192.33
423.964	196.59
424.177	193.49
424.389	172.18
424.601	279.32
424.813	182.83
425.025	211.51
425.238	197.36
425.45	175.28
425.662	184.19
425.874	446.72
426.086	177.8
426.298	214.03
426.51	201.05
426.722	203.56
426.934	179.54
427.146	211.7
427.358	171.6
427.57	204.92
427.782	182.64
427.994	195.04
428.206	168.11
428.418	151.06
428.63	197.17
428.842	217.71
429.054	196.2
429.266	220.03
429.478	177.41
429.69	194.85
429.902	139.43
430.114	224.68
430.325	174.7
430.537	148.35
430.749	161.52
430.961	132.65
431.173	161.33
431.384	189.42
431.596	87.7
431.808	201.82
432.02	199.88
432.231	222.36
432.443	224.1
432.655	234.76
432.867	212.48
433.078	241.34
433.29	249.09
433.502	254.33
433.713	269.24
433.925	238.05
434.136	246.19
434.348	176.25
434.56	152.41
434.771	295.01
434.983	171.79
435.194	188.06
435.406	222.55
435.617	252.58
435.829	273.89
436.04	255.49
436.252	251.23
436.463	297.14
436.675	283.39
436.886	244.06
437.098	262.66
437.309	334.15
437.521	245.22
437.732	268.08
437.943	250.45
438.155	265.18
438.366	211.7
438.578	284.36
438.789	238.44
439	270.99
439.211	226.81
439.423	269.83
439.634	266.92
439.845	272.93
440.057	244.25
440.268	323.88
440.479	237.86
440.69	293.46
440.902	249.48
441.113	262.46
441.324	236.89
441.535	314.97
441.746	340.74
441.957	241.54
442.168	279.9
442.38	312.06
442.591	309.35
442.802	281.26
443.013	295.59
443.224	314.97
443.435	273.31
443.646	295.01
443.857	283.19
444.068	291.52
444.279	292.11
444.49	325.62
444.701	297.72
444.912	400.41
445.123	316.52
445.334	337.25
445.545	348.49
445.756	310.32
445.967	276.8
446.178	310.12
446.388	342.67
446.599	341.12
446.81	328.53
447.021	286.49
447.232	357.4
447.443	362.63
447.653	323.88
447.864	357.59
448.075	352.17
448.286	338.22
448.496	351.2
448.707	366.7
448.918	312.64
449.129	437.42
449.339	322.91
449.55	361.47
449.761	371.16
449.971	363.99
450.182	347.71
450.393	365.54
450.603	348.49
450.814	378.71
451.024	385.49
451.235	390.72
451.446	448.27
451.656	420.56
451.867	372.12
452.077	388.4
452.288	430.83
452.498	422.3
452.709	353.52
452.919	399.25
453.13	367.67
453.34	407.58
453.55	331.82
453.761	393.63
453.971	415.91
454.182	420.95
454.392	401.96
454.602	455.05
454.813	407.19
455.023	420.75
455.233	346.16
455.444	423.27
455.654	365.73
455.864	406.61
456.075	373.48
456.285	400.22
456.495	384.52
456.705	431.99
456.916	453.69
457.126	452.53
457.336	407.39
457.546	357.21
457.756	384.14
457.967	444.78
458.177	377.16
458.387	418.24
458.597	373.09
458.807	402.74
459.017	398.28
459.227	404.29
459.437	391.69
459.647	444.39
459.857	439.55
460.068	424.24
460.278	472.1
460.488	479.07
460.698	458.34
460.908	410.1
461.117	379.1
461.327	417.07
461.537	452.34
461.747	432.38
461.957	453.3
462.167	539.91
462.377	476.17
462.587	461.05
462.797	497.09
463.007	434.12
463.216	456.6
463.426	477.52
463.636	481.59
463.846	399.83
464.056	434.7
464.265	484.5
464.475	421.34
464.685	447.3
464.895	484.3
465.104	468.61
465.314	480.23
465.524	454.27
465.733	446.91
465.943	513.37
466.153	519.37
466.362	510.65
466.572	481.2
466.782	457.37
466.991	491.86
467.201	538.75
467.41	426.18
467.62	456.02
467.829	480.43
468.039	512.59
468.249	479.27
468.458	460.28
468.668	509.49
468.877	535.84
469.086	560.25
469.296	560.64
469.505	492.83
469.715	552.31
469.924	525.57
470.134	545.53
470.343	563.16
470.552	509.88
470.762	500
470.971	461.44
471.18	543.78
471.39	534.48
471.599	478.49
471.808	556.76
472.018	509.49
472.227	576.53
472.436	604.04
472.645	539.13
472.855	553.86
473.064	617.8
473.273	574.01
473.482	574.78
473.691	596.1
473.901	606.95
474.11	582.15
474.319	622.25
474.528	607.91
474.737	660.81
474.946	615.08
475.155	607.53
475.364	643.95
475.573	611.4
475.783	623.8
475.992	662.36
476.201	663.91
476.41	589.31
476.619	595.51
476.828	602.68
477.037	617.41
477.245	635.43
477.454	689.68
477.663	627.68
477.872	644.92
478.081	739.86
478.29	632.91
478.499	737.53
478.708	694.91
478.917	735.4
479.125	701.3
479.334	698.78
479.543	677.66
479.752	725.91
479.961	711.76
480.169	732.3
480.378	706.14
480.587	821.42
480.796	748.96
481.004	725.91
481.213	766.79
481.422	753.42
481.63	733.46
481.839	801.86
482.048	837.31
482.256	775.7
482.465	807.47
482.674	789.26
482.882	815.22
483.091	843.32
483.299	840.99
483.508	804.37
483.716	820.65
483.925	829.75
484.134	768.53
484.342	807.86
484.551	850.49
484.759	816.58
484.967	833.63
485.176	827.82
485.384	880.52
485.593	862.69
485.801	847.97
486.01	821.04
486.218	792.36
486.426	709.44
486.635	741.6
486.843	737.53
487.051	766.01
487.26	736.37
487.468	806.51
487.676	850.87
487.885	795.85
488.093	854.55
488.301	864.44
488.509	856.1
488.717	924.5
488.926	879.74
489.134	854.36
489.342	857.65
489.55	867.54
489.758	872.57
489.967	875.87
490.175	987.47
490.383	906.48
490.591	1008.2
490.799	909.77
491.007	970.22
491.215	959.95
491.423	945.42
491.631	956.47
491.839	966.35
492.047	1018.85
492.255	940.97
492.463	885.75
492.671	956.08
492.879	986.69
493.087	976.42
493.295	999.28
493.503	1020.98
493.711	1046.56
493.919	1042.68
494.127	1061.67
494.334	1066.13
494.542	995.99
494.75	1027.57
494.958	1017.5
495.166	1061.67
495.374	1083.76
495.581	1067.48
495.789	1067.48
495.997	1127.74
496.205	1058.57
496.412	1031.83
496.62	1081.43
496.828	1085.89
497.035	1086.66
497.243	1125.03
497.451	1071.94
497.658	1125.41
497.866	1123.67
498.074	1208.53
498.281	1085.5
498.489	1197.1
498.696	1118.83
498.904	1108.56
499.112	1089.57
499.319	1183.15
499.527	1124.06
499.734	1182.96
499.942	1148.66
500.149	1115.73
500.357	1176.17
500.564	1139.56
500.771	1147.5
500.979	1139.36
501.186	1141.88
501.394	1134.91
501.601	1125.61
501.808	1187.22
502.016	1146.73
502.223	1140.91
502.43	1163.19
502.638	1144.59
502.845	1170.75
503.052	1246.12
503.26	1189.93
503.467	1270.53
503.674	1194.58
503.881	1228.49
504.089	1301.72
504.296	1250.19
504.503	1173.07
504.71	1215.51
504.917	1191.48
505.125	1247.28
505.332	1260.26
505.539	1251.74
505.746	1326.52
505.953	1338.73
506.16	1337.18
506.367	1402.47
506.574	1397.63
506.781	1395.3
506.988	1360.23
507.195	1398.02
507.402	1385.42
507.609	1370.7
507.816	1374.18
508.023	1338.34
508.23	1353.26
508.437	1341.44
508.644	1385.62
508.851	1443.74
509.058	1457.88
509.265	1440.64
509.472	1486.75
509.679	1552.24
509.885	1467.38
510.092	1488.69
510.299	1521.63
510.506	1472.41
510.713	1516.2
510.92	1540.81
511.126	1525.31
511.333	1559.41
511.54	1584.21
511.746	1609.78
511.953	1640.97
512.16	1648.14
512.367	1613.85
512.573	1608.04
512.78	1647.37
512.987	1630.12
513.193	1630.71
513.4	1578.2
513.606	1650.27
513.813	1674.11
514.02	1671.78
514.226	1730.87
514.433	1750.83
514.639	1648.92
514.846	1683.02
515.052	1681.08
515.259	1714.79
515.465	1736.69
515.672	1745.6
515.878	1831.23
516.085	1769.04
516.291	1837.63
516.497	1768.85
516.704	1774.85
516.91	1735.14
517.117	1656.67
517.323	1620.24
517.529	1643.88
517.736	1657.64
517.942	1666.16
518.148	1729.13
518.354	1776.02
518.561	1807.98
518.767	1793.07
518.973	1836.47
519.179	1826.78
519.386	1828.52
519.592	1853.13
519.798	1899.63
520.004	1992.82
520.21	1977.32
520.417	2042.81
520.623	2066.06
520.829	2080.78
521.035	2054.62
521.241	2096.86
521.447	2089.31
521.653	2251.67
521.859	2128.25
522.065	2154.4
522.271	2272.59
522.477	2248.18
522.683	2311.92
522.889	2235.39
523.095	2249.15
523.301	2250.31
523.507	2220.86
523.713	2275.69
523.919	2223.38
524.125	2382.83
524.331	2339.05
524.537	2425.84
524.742	2468.28
524.948	2464.79
525.154	2448.71
525.36	2531.24
525.566	2437.28
525.772	2521.75
525.977	2475.83
526.183	2493.07
526.389	2486.29
526.595	2452.19
526.8	2423.91
527.006	2331.1
527.212	2302.43
527.417	2280.53
527.623	2271.04
527.829	2401.82
528.034	2454.33
528.24	2446.19
528.446	2471.38
528.651	2606.8
528.857	2565.15
529.062	2652.33
529.268	2628.7
529.473	2698.06
529.679	2695.93
529.884	2771.3
530.09	2725.38
530.295	2699.61
530.501	2729.25
530.706	2741.26
530.912	2712.78
531.117	2730.8
531.323	2813.53
531.528	2856.93
531.733	2835.23
531.939	2781.56
532.144	2791.25
532.35	2785.63
532.555	2809.27
532.76	2730.42
532.966	2751.92
533.171	2736.81
533.376	2709.49
533.581	2709.49
533.787	2786.02
533.992	2822.64
534.197	2784.86
534.402	2789.31
534.607	2851.89
534.813	2907.31
535.018	2844.14
535.223	2881.54
535.428	2924.55
535.633	2944.31
535.838	2969.31
536.043	2980.74
536.249	3065.02
536.454	2992.17
536.659	3002.63
536.864	2992.75
537.069	2982.48
537.274	2964.07
537.479	2983.45
537.684	2939.27
537.889	2914.47
538.094	3101.44
538.299	3005.92
538.504	3042.74
538.708	3042.54
538.913	3058.04
539.118	3056.1
539.323	3055.52
539.528	2997.59
539.733	3019.29
539.938	3042.93
540.142	3020.45
540.347	2974.34
540.552	2951.29
540.757	2943.73
540.962	2965.24
541.166	2929.01
541.371	2933.66
541.576	2966.79
541.781	2913.51
541.985	3018.32
542.19	2989.46
542.395	3108.61
542.599	3118.1
542.804	3078.39
543.008	3100.86
543.213	3066.37
543.418	2995.27
543.622	3124.69
543.827	3018.9
544.031	3111.32
544.236	3104.35
544.44	3121.98
544.645	3237.26
544.849	3113.26
545.054	3176.61
545.258	3194.63
545.463	3214.98
545.667	3131.67
545.872	3220.6
546.076	3172.16
546.281	3178.75
546.485	3129.34
546.689	3184.75
546.894	3220.79
547.098	3241.71
547.302	3183.59
547.507	3199.67
547.711	3209.94
547.915	3209.16
548.119	3133.6
548.324	3115
548.528	3216.91
548.732	3171.97
548.936	3260.51
549.141	3235.32
549.345	3230.67
549.549	3242.68
549.753	3240.75
549.957	3306.04
550.161	3339.94
550.366	3270.19
550.57	3195.6
550.774	3276.2
550.978	3267.29
551.182	3252.18
551.386	3272.33
551.59	3253.92
551.794	3234.55
551.998	3259.15
552.202	3291.12
552.406	3213.62
552.61	3290.54
552.814	3296.54
553.018	3351.96
553.222	3232.22
553.426	3275.81
553.63	3362.22
553.833	3230.09
554.037	3151.62
554.241	3302.74
554.445	3258.76
554.649	3298.87
554.853	3264.38
555.056	3341.11
555.26	3313.4
555.464	3248.69
555.668	3340.72
555.871	3343.82
556.075	3332.39
556.279	3255.66
556.483	3251.21
556.686	3214.78
556.89	3235.71
557.094	3222.15
557.297	3121.01
557.501	3242.3
557.704	3087.49
557.908	3204.13
558.112	3156.85
558.315	3215.75
558.519	3150.65
558.722	3109.58
558.926	3145.81
559.129	2980.35
559.333	3036.92
559.536	3041.38
559.74	3014.64
559.943	2978.99
560.147	2995.85
560.35	3009.99
560.553	3028.79
560.757	3007.67
560.96	3063.66
561.164	3032.08
561.367	3134.77
561.57	3114.03
561.774	3065.6
561.977	3014.45
562.18	2992.17
562.384	3075.09
562.587	3003.4
562.79	3001.66
562.993	3023.75
563.197	3046.61
563.4	3050.68
563.603	3042.15
563.806	3086.72
564.009	2987.52
564.212	3018.13
564.416	2915.06
564.619	2966.59
564.822	2901.3
565.025	2989.84
565.228	2919.32
565.431	2909.24
565.634	2818.57
565.837	2855.58
566.04	2796.68
566.243	2802.3
566.446	2743.01
566.649	2810.82
566.852	2743.78
567.055	2793.38
567.258	2787.18
567.461	2846.86
567.664	2821.67
567.867	2788.73
568.07	2805.01
568.273	2757.73
568.475	2840.85
568.678	2738.94
568.881	2719.95
569.084	2676.17
569.287	2609.71
569.489	2687.02
569.692	2651.37
569.895	2687.6
570.098	2600.6
570.3	2579.87
570.503	2525.24
570.706	2532.02
570.909	2509.74
571.111	2478.74
571.314	2473.51
571.516	2499.08
571.719	2514.97
571.922	2483.97
572.124	2486.29
572.327	2499.47
572.529	2426.62
572.732	2440.96
572.935	2470.21
573.137	2584.52
573.34	2455.88
573.542	2498.31
573.745	2539.57
573.947	2476.99
574.15	2439.79
574.352	2439.79
574.554	2490.56
574.757	2409.76
574.959	2367.72
575.162	2399.11
575.364	2366.95
575.566	2470.41
575.769	2306.5
575.971	2374.89
576.173	2260.58
576.376	2323.55
576.578	2352.61
576.78	2388.26
576.982	2264.65
577.185	2290.22
577.387	2257.48
577.589	2274.14
577.791	2322.58
577.993	2269.88
578.196	2280.53
578.398	2313.28
578.6	2302.62
578.802	2201.29
579.004	2199.16
579.206	2214.47
579.408	2298.75
579.61	2195.29
579.812	2268.33
580.014	2215.43
580.216	2217.37
580.418	2236.94
580.62	2248.57
580.822	2223.18
581.024	2261.74
581.226	2279.95
581.428	2216.21
581.63	2295.26
581.832	2240.04
582.034	2283.83
582.236	2263.68
582.438	2303.4
582.64	2319.48
582.841	2355.32
583.043	2367.91
583.245	2293.13
583.447	2302.43
583.649	2284.22
583.85	2289.64
584.052	2305.72
584.254	2264.26
584.456	2350.28
584.657	2264.65
584.859	2254.57
585.061	2204
585.262	2250.7
585.464	2179.4
585.666	2240.62
585.867	2182.89
586.069	2269.88
586.27	2206.91
586.472	2191.22
586.674	2176.88
586.875	2200.13
587.077	2197.61
587.278	2211.37
587.48	2180.37
587.681	2292.16
587.883	2203.62
588.084	2131.35
588.285	2103.45
588.487	2112.17
588.688	2117.21
588.89	2000.96
589.091	1927.53
589.292	1940.31
589.494	1885.87
589.695	1883.35
589.896	1808.18
590.098	1830.07
590.299	1884.13
590.5	1834.33
590.702	1894.59
590.903	1920.36
591.104	1963.95
591.305	1966.47
591.507	2037.77
591.708	2032.15
591.909	1978.68
592.11	1996.5
592.311	1980.23
592.512	1926.56
592.714	1911.25
592.915	1940.31
593.116	1943.22
593.317	1967.24
593.518	1942.06
593.719	1937.41
593.92	2068.19
594.121	2061.21
594.322	2001.15
594.523	1993.4
594.724	1892.65
594.925	1920.36
595.126	1938.18
595.327	1949.03
595.528	1945.55
595.729	1986.62
595.929	1888.78
596.13	1983.33
596.331	1964.92
596.532	1968.02
596.733	2027.5
596.934	2017.62
597.135	2025.95
597.335	2023.63
597.536	1953.1
597.737	1989.72
597.938	1941.67
598.138	2015.1
598.339	1979.26
598.54	2032.34
598.74	1976.93
598.941	1989.91
599.142	1995.34
599.342	1964.53
599.543	1933.53
599.744	1965.69
599.944	1956.59
600.145	1975.19
600.345	1973.83
600.546	2036.61
600.746	2000.38
600.947	2079.23
601.147	1937.6
601.348	2013.55
601.548	1973.06
601.749	1975.96
601.949	1925.4
602.15	1936.25
602.35	1925.01
602.551	1978.29
602.751	1934.89
602.951	1908.93
603.152	1883.93
603.352	1943.22
603.552	1957.56
603.753	1997.66
603.953	1990.88
604.153	1951.74
604.354	1960.27
604.554	1980.03
604.754	1925.59
604.954	1936.63
605.155	2001.93
605.355	1925.59
605.555	1998.24
605.755	2008.13
605.955	1914.74
606.155	1958.91
606.356	1947.87
606.556	1968.6
606.756	1940.9
606.956	1896.72
607.156	2006.38
607.356	1859.52
607.556	1921.52
607.756	1910.28
607.956	1966.86
608.156	1924.23
608.356	1877.54
608.556	1937.21
608.756	1878.51
608.956	1866.69
609.156	1853.71
609.356	1831.43
609.556	1848.28
609.755	1884.51
609.955	1803.53
610.155	1835.3
610.355	1853.9
610.555	1796.75
610.755	1793.65
610.954	1780.67
611.154	1834.72
611.354	1847.32
611.554	1816.51
611.753	1808.18
611.953	1733.78
612.153	1850.03
612.352	1796.94
612.552	1743.47
612.752	1711.5
612.951	1729.32
613.151	1758.19
613.351	1728.35
613.55	1762.65
613.75	1783.96
613.949	1728.16
614.149	1726.61
614.348	1746.18
614.548	1706.85
614.747	1688.44
614.947	1706.07
615.146	1653.37
615.346	1740.37
615.545	1726.8
615.745	1694.84
615.944	1721.57
616.144	1699.49
616.343	1677.21
616.542	1647.95
616.742	1643.11
616.941	1647.37
617.14	1596.41
617.34	1646.4
617.539	1643.88
617.738	1620.44
617.938	1698.52
618.137	1630.12
618.336	1617.34
618.535	1645.82
618.734	1657.64
618.934	1642.33
619.133	1645.62
619.332	1656.47
619.531	1602.81
619.73	1614.82
619.929	1678.56
620.128	1682.24
620.328	1698.32
620.527	1611.52
620.726	1633.61
620.925	1653.18
621.124	1640.97
621.323	1622.57
621.522	1597.77
621.721	1613.46
621.92	1574.13
622.119	1622.18
622.318	1555.34
622.517	1583.24
622.715	1564.44
622.914	1521.04
623.113	1588.08
623.312	1510.39
623.511	1553.79
623.71	1562.12
623.909	1528.41
624.107	1592.93
624.306	1495.86
624.505	1543.91
624.704	1539.84
624.902	1510.97
625.101	1556.11
625.3	1539.84
625.499	1462.53
625.697	1505.74
625.896	1470.67
626.095	1530.73
626.293	1431.15
626.492	1509.42
626.69	1526.08
626.889	1488.69
627.088	1538.09
627.286	1493.34
627.485	1431.73
627.683	1456.14
627.882	1453.04
628.08	1374.57
628.279	1415.07
628.477	1451.3
628.676	1368.37
628.874	1419.91
629.073	1372.63
629.271	1367.6
629.469	1422.43
629.668	1392.78
629.866	1405.96
630.065	1400.15
630.263	1434.83
630.461	1400.53
630.66	1423.59
630.858	1430.37
631.056	1450.91
631.254	1441.41
631.453	1394.72
631.651	1435.21
631.849	1425.72
632.047	1422.43
632.245	1409.83
632.444	1437.93
632.642	1482.3
632.84	1504.96
633.038	1417.97
633.236	1379.42
633.434	1402.86
633.632	1401.31
633.83	1420.88
634.028	1463.31
634.227	1428.43
634.425	1497.99
634.623	1440.25
634.821	1440.83
635.019	1461.18
635.216	1426.69
635.414	1440.83
635.612	1439.67
635.81	1418.75
636.008	1509.23
636.206	1434.83
636.404	1462.73
636.602	1396.47
636.8	1408.48
636.997	1458.46
637.195	1453.81
637.393	1455.75
637.591	1522.79
637.789	1466.6
637.986	1426.5
638.184	1438.9
638.382	1486.17
638.58	1455.17
638.777	1482.68
638.975	1411.19
639.173	1429.21
639.37	1417.97
639.568	1447.42
639.765	1447.42
639.963	1383.29
640.161	1404.99
640.358	1443.35
640.556	1389.88
640.753	1363.92
640.951	1324.97
641.148	1375.73
641.346	1332.34
641.543	1352.1
641.741	1370.31
641.938	1326.91
642.136	1369.15
642.333	1311.6
642.531	1362.37
642.728	1356.17
642.925	1343.18
643.123	1337.76
643.32	1353.07
643.517	1306.76
643.715	1341.25
643.912	1304.24
644.109	1321.1
644.306	1291.07
644.504	1267.04
644.701	1308.12
644.898	1321.87
645.095	1277.7
645.293	1254.25
645.49	1295.72
645.687	1259.29
645.884	1298.62
646.081	1207.17
646.278	1226.55
646.475	1223.06
646.672	1209.69
646.87	1224.42
647.067	1215.51
647.264	1210.08
647.461	1143.04
647.658	1117.28
647.855	1182.37
648.052	1189.35
648.249	1097.13
648.446	1116.5
648.642	1096.54
648.839	1100.61
649.036	1109.72
649.233	1098.87
649.43	1089.96
649.627	1043.65
649.824	1098.48
650.021	1108.17
650.217	1077.56
650.414	1101.19
650.611	1116.31
650.808	1107.98
651.004	1116.69
651.201	1108.17
651.398	1151.18
651.595	1125.41
651.791	1094.8
651.988	1096.54
652.185	1113.59
652.381	1136.84
652.578	1049.08
652.775	1101.78
652.971	1087.24
653.168	1090.15
653.364	1141.11
653.561	1089.38
653.757	1124.06
653.954	1120.57
654.15	1061.86
654.347	1180.82
654.543	1094.99
654.74	1040.16
654.936	1026.21
655.133	1069.81
655.329	1086.66
655.525	1047.53
655.722	1071.36
655.918	1014.4
656.115	1051.6
656.311	949.1
656.507	934.18
656.704	872.57
656.9	909.38
657.096	917.91
657.292	899.5
657.489	965.77
657.685	985.33
657.881	977.97
658.077	975.65
658.273	977.39
658.47	1075.43
658.666	1011.68
658.862	1048.3
659.058	977.39
659.254	1057.21
659.45	1026.21
659.646	1037.06
659.842	1052.95
660.038	1061.09
660.234	995.41
660.43	1055.86
660.626	1049.27
660.822	1023.5
661.018	1029.7
661.214	1031.83
661.41	959.95
661.606	1039.2
661.802	1082.59
661.998	954.53
662.194	991.92
662.39	991.53
662.586	1008.2
662.781	1025.63
662.977	1046.75
663.173	1040.16
663.369	1009.16
663.564	969.06
663.76	1030.86
663.956	976.62
664.152	995.99
664.347	934.77
664.543	973.32
664.739	957.82
664.934	878.77
665.13	886.91
665.326	957.05
665.521	942.13
665.717	928.18
665.912	905.51
666.108	877.42
666.304	915.78
666.499	918.88
666.695	895.24
666.89	920.23
667.086	923.53
667.281	946.97
667.477	963.25
667.672	940.77
667.867	912.87
668.063	933.99
668.258	895.63
668.454	926.43
668.649	945.23
668.844	898.54
669.04	889.62
669.235	886.52
669.43	882.45
669.626	863.47
669.821	890.4
670.016	839.25
670.211	897.57
670.407	836.73
670.602	884.39
670.797	852.04
670.992	893.69
671.187	845.45
671.382	918.49
671.578	852.42
671.773	864.24
671.968	839.25
672.163	870.83
672.358	891.95
672.553	850.87
672.748	837.5
672.943	902.6
673.138	852.81
673.333	897.57
673.528	863.66
673.723	862.89
673.918	847.39
674.113	853
674.308	931.08
674.503	854.94
674.698	901.64
674.892	853.59
675.087	894.66
675.282	882.84
675.477	832.66
675.672	846.61
675.867	842.35
676.061	806.7
676.256	804.37
676.451	844.67
676.646	864.44
676.84	839.83
677.035	799.53
677.23	810.96
677.424	855.72
677.619	857.27
677.814	872.96
678.008	896.79
678.203	802.05
678.397	802.05
678.592	868.12
678.787	903.96
678.981	872.96
679.176	839.44
679.37	814.84
679.565	843.9
679.759	831.69
679.954	890.2
680.148	888.07
680.342	884.78
680.537	877.42
680.731	820.45
680.926	865.02
681.12	881.1
681.314	852.42
681.509	862.69
681.703	848.74
681.897	882.45
682.092	843.7
682.286	859.98
682.48	896.21
682.674	886.33
682.869	832.85
683.063	889.04
683.257	912.68
683.451	857.65
683.645	893.3
683.839	886.33
684.034	866.95
684.228	907.83
684.422	851.07
684.616	836.73
684.81	888.65
685.004	875.67
685.198	865.79
685.392	893.11
685.586	863.27
685.78	906.48
685.974	961.31
686.168	899.31
686.362	964.6
686.556	849.52
686.75	834.99
686.944	800.31
687.138	794.11
687.331	686.58
687.525	723.97
687.719	639.11
687.913	731.33
688.107	709.24
688.301	706.92
688.494	787.71
688.688	724.36
688.882	673.21
689.076	724.16
689.269	741.99
689.463	845.25
689.657	788.1
689.85	799.92
690.044	818.9
690.238	808.44
690.431	804.18
690.625	849.52
690.818	867.92
691.012	894.08
691.205	911.13
691.399	875.48
691.593	914.23
691.786	995.21
691.98	1008
692.173	1033
692.366	1035.51
692.56	1070
692.753	1087.24
692.947	1066.9
693.14	1100.61
693.333	1120.76
693.527	1075.62
693.72	1120.38
693.914	1103.71
694.107	1121.34
694.3	1141.69
694.493	1096.93
694.687	1189.74
694.88	1142.46
695.073	1257.74
695.266	1245.54
695.46	1231.2
695.653	1281.38
695.846	1309.86
696.039	1252.51
696.232	1295.91
696.425	1365.47
696.618	1373.8
696.812	1382.32
697.005	1456.33
697.198	1552.43
697.391	1485.01
697.584	1523.18
697.777	1589.83
697.97	1565.61
698.163	1578.78
698.356	1592.73
698.549	1684.18
698.742	1657.64
698.935	1634.77
699.127	1660.93
699.32	1642.72
699.513	1625.28
699.706	1673.33
699.899	1740.37
700.092	1713.24
700.285	1733
700.477	1694.06
700.67	1735.14
700.863	1746.95
701.056	1868.24
701.248	1804.88
701.441	1862.43
701.634	1825.23
701.826	1941.28
702.019	1851.77
702.212	1894.98
702.404	1888.97
702.597	1869.6
702.79	1953.88
702.982	1946.32
703.175	2007.16
703.367	2003.48
703.56	2059.86
703.752	2109.84
703.945	2131.74
704.137	2149.17
704.33	2157.31
704.522	2190.64
704.715	2185.02
704.907	2243.53
705.1	2257.28
705.292	2270.27
705.484	2249.92
705.677	2316.57
705.869	2379.35
706.061	2338.66
706.254	2426.81
706.446	2354.93
706.638	2386.32
706.831	2455.29
707.023	2467.69
707.215	2573.87
707.407	2547.52
707.599	2534.73
707.792	2628.5
707.984	2565.73
708.176	2611.45
708.368	2590.34
708.56	2664.35
708.752	2654.85
708.944	2647.69
709.136	2717.43
709.329	2668.8
709.521	2800.94
709.713	2782.92
709.905	2802.49
710.097	2830.19
710.289	2786.6
710.481	2843.37
710.672	2847.05
710.864	2861
711.056	2901.88
711.248	2876.89
711.44	2940.05
711.632	2975.7
711.824	3019.49
712.016	3024.52
712.207	3053.97
712.399	2988.49
712.591	3125.08
712.783	3112.29
712.975	3089.23
713.166	3051.65
713.358	3065.21
713.55	3163.63
713.741	3191.73
713.933	3152.01
714.125	3161.31
714.316	3083.23
714.508	3233.19
714.7	3193.28
714.891	3154.14
715.083	3210.52
715.274	3176.03
715.466	3203.55
715.657	3221.37
715.849	3126.24
716.04	3143.48
716.232	3108.22
716.423	3144.26
716.615	3079.16
716.806	2934.82
716.998	2902.27
717.189	2810.24
717.381	2695.35
717.572	2604.29
717.763	2662.22
717.955	2570.19
718.146	2559.92
718.337	2513.81
718.528	2475.06
718.72	2328.39
718.911	2394.65
719.102	2306.88
719.293	2377.21
719.485	2355.13
719.676	2295.45
719.867	2304.56
720.058	2283.44
720.249	2328.2
720.44	2328.97
720.632	2389.61
720.823	2478.93
721.014	2545
721.205	2646.14
721.396	2721.12
721.587	2848.6
721.778	2923
721.969	2957.87
722.16	3071.41
722.351	3152.98
722.542	3242.68
722.733	3240.94
722.924	3171.97
723.115	3218.46
723.305	3141.16
723.496	3157.05
723.687	2987.71
723.878	2988.29
724.069	2999.53
724.26	2978.8
724.45	2912.73
724.641	2905.18
724.832	2919.51
725.023	2879.21
725.213	2882.12
725.404	2852.09
725.595	2845.5
725.785	2825.16
725.976	2907.69
726.167	2917.96
726.357	2914.09
726.548	2998.37
726.739	2933.46
726.929	3016.97
727.12	3023.75
727.31	3047.97
727.501	2975.89
727.691	2949.16
727.882	2973.57
728.072	3065.02
728.263	3047.19
728.453	3094.27
728.644	3158.6
728.834	3146.78
729.024	3048.94
729.215	3053.39
729.405	3093.3
729.596	3179.52
729.786	3151.62
729.976	3214.01
730.167	3211.1
730.357	3182.62
730.547	3142.9
730.737	3162.08
730.928	3224.86
731.118	3296.74
731.308	3231.25
731.498	3228.93
731.688	3341.11
731.879	3379.66
732.069	3360.87
732.259	3477.5
732.449	3548.42
732.639	3633.86
732.829	3624.95
733.019	3682.88
733.209	3734.03
733.399	3793.12
733.589	3857.25
733.779	3933.2
733.969	3868.29
734.159	3968.27
734.349	4029.49
734.539	4094.01
734.729	4042.67
734.919	4086.45
735.109	4178.87
735.299	4100.21
735.488	4103.89
735.678	4117.45
735.868	4107.76
736.058	4091.68
736.248	4082.58
736.437	4018.83
736.627	4010.89
736.817	4135.66
737.007	4061.65
737.196	4186.23
737.386	4167.05
737.576	4082.38
737.765	4241.64
737.955	4176.54
738.144	4320.3
738.334	4261.6
738.524	4160.46
738.713	4265.09
738.903	4234.67
739.092	4266.44
739.282	4254.43
739.471	4301.9
739.661	4238.16
739.85	4340.26
740.04	4340.26
740.229	4333.67
740.419	4376.49
740.608	4420.86
740.797	4364.29
740.987	4413.3
741.176	4382.5
741.365	4329.8
741.555	4317.59
741.744	4479.37
741.933	4388.89
742.123	4475.5
742.312	4446.24
742.501	4489.06
742.69	4476.66
742.88	4419.31
743.069	4537.5
743.258	4451.86
743.447	4546.8
743.636	4514.63
743.825	4502.81
744.014	4530.91
744.204	4590.78
744.393	4473.17
744.582	4621.58
744.771	4576.83
744.96	4543.5
745.149	4638.05
745.338	4588.84
745.527	4605.89
745.716	4552.03
745.905	4542.73
746.094	4606.08
746.283	4622.36
746.471	4580.51
746.66	4654.13
746.849	4667.89
747.038	4639.79
747.227	4605.11
747.416	4592.33
747.604	4547.76
747.793	4555.9
747.982	4595.62
748.171	4633.4
748.359	4572.76
748.548	4558.81
748.737	4553.58
748.926	4593.1
749.114	4453.02
749.303	4563.07
749.491	4567.91
749.68	4445.08
749.869	4615.96
750.057	4528.39
750.246	4485.18
750.434	4504.17
750.623	4494.1
750.811	4474.14
751	4523.16
751.188	4503.98
751.377	4508.05
751.565	4509.79
751.754	4497.58
751.942	4410.59
752.131	4492.93
752.319	4408.65
752.507	4403.03
752.696	4453.99
752.884	4477.63
753.072	4424.73
753.261	4470.65
753.449	4432.48
753.637	4410.2
753.825	4511.53
754.014	4413.5
754.202	4433.45
754.39	4460
754.578	4472.4
754.766	4361.19
754.955	4408.85
755.143	4431.9
755.331	4393.35
755.519	4398.77
755.707	4377.07
755.895	4360.8
756.083	4371.65
756.271	4318.17
756.459	4367.39
756.647	4373.59
756.835	4342.97
757.023	4287.37
757.211	4291.24
757.399	4248.62
757.587	4325.15
757.775	4260.44
757.963	4253.07
758.151	4298.22
758.339	4226.92
758.526	4206.38
758.714	4202.89
758.902	4086.84
759.09	3992.87
759.278	3741.97
759.465	3422.48
759.653	2995.85
759.841	2668.22
760.028	2311.53
760.216	2004.64
760.404	1876.38
760.591	1565.22
760.779	1286.22
760.967	1129.68
761.154	931.47
761.342	921.01
761.529	916.75
761.717	997.35
761.905	992.31
762.092	1050.82
762.28	989.21
762.467	952.78
762.655	880.71
762.842	919.27
763.029	922.56
763.217	921.59
763.404	929.92
763.592	927.6
763.779	910.35
763.966	960.73
764.154	1012.65
764.341	1080.46
764.528	1083.37
764.716	1170.36
764.903	1225
765.09	1285.06
765.277	1396.47
765.465	1551.85
765.652	1620.05
765.839	1714.02
766.026	1874.44
766.213	1971.7
766.4	2082.52
766.588	2293.32
766.775	2363.07
766.962	2477.57
767.149	2595.57
767.336	2746.5
767.523	2762.77
767.71	2914.47
767.897	3062.11
768.084	3128.57
768.271	3235.9
768.458	3291.51
768.645	3357.96
768.832	3375.98
769.019	3411.63
769.206	3467.24
769.392	3546.28
769.579	3636.18
769.766	3606.73
769.953	3639.67
770.14	3684.23
770.327	3648.97
770.513	3723.95
770.7	3784.4
770.887	3687.53
771.073	3741.58
771.26	3758.05
771.447	3725.69
771.634	3692.18
771.82	3789.82
772.007	3719.88
772.193	3770.45
772.38	3803.19
772.567	3796.41
772.753	3758.44
772.94	3831.48
773.126	3794.47
773.313	3819.27
773.499	3790.41
773.686	3840.39
773.872	3715.04
774.059	3827.41
774.245	3757.28
774.432	3797.96
774.618	3661.37
774.804	3739.26
774.991	3686.95
775.177	3751.66
775.363	3704.58
775.55	3726.08
775.736	3673.38
775.922	3782.46
776.109	3677.84
776.295	3717.36
776.481	3801.64
776.667	3730.34
776.853	3663.89
777.04	3665.44
777.226	3668.93
777.412	3725.5
777.598	3643.74
777.784	3694.7
777.97	3627.85
778.156	3631.92
778.342	3609.83
778.528	3623.59
778.715	3569.53
778.901	3586.58
779.087	3620.3
779.272	3579.42
779.458	3549.77
779.644	3572.05
779.83	3584.45
780.016	3639.09
780.202	3568.37
780.388	3534.66
780.574	3475.37
780.76	3517.61
780.946	3525.94
781.131	3572.25
781.317	3490.87
781.503	3430.62
781.689	3493
781.874	3619.13
782.06	3490.68
782.246	3521.49
782.432	3491.07
782.617	3480.99
782.803	3470.92
782.989	3446.12
783.174	3429.26
783.36	3368.81
783.545	3408.53
783.731	3396.32
783.916	3301.19
784.102	3405.24
784.288	3362.22
784.473	3389.74
784.659	3317.66
784.844	3357.38
785.029	3347.11
785.215	3334.52
785.4	3290.73
785.586	3421.32
785.771	3267.29
785.956	3337.62
786.142	3244.23
786.327	3256.44
786.512	3257.21
786.698	3264.38
786.883	3230.09
787.068	3217.11
787.254	3249.08
787.439	3190.95
787.624	3132.25
787.809	3174.1
787.994	3144.84
788.18	3254.11
788.365	3111.32
788.55	3125.08
788.735	3131.47
788.92	3092.53
789.105	3097.37
789.29	3116.55
789.475	3062.89
789.66	3057.27
789.845	2997.98
790.03	3021.42
790.215	3023.36
790.4	3052.04
790.585	3082.07
790.77	3009.02
790.955	2974.54
791.14	3033.63
791.325	3051.45
791.51	2950.9
791.695	2988.87
791.879	3033.63
792.064	2954.77
792.249	3062.69
792.434	3009.02
792.618	2971.44
792.803	3014.25
792.988	2992.56
793.173	2988.29
793.357	3035.57
793.542	2973.57
793.727	2989.84
793.911	3093.88
794.096	2991.2
794.281	3064.24
794.465	3122.75
794.65	3045.25
794.834	3076.06
795.019	3110.93
795.203	3137.28
795.388	3120.04
795.572	3141.16
795.757	3091.75
795.941	3063.66
796.126	3091.95
796.31	2981.71
796.494	3046.03
796.679	2985.77
796.863	2950.9
797.048	3058.82
797.232	3055.72
797.416	3077.22
797.601	3016
797.785	3101.25
797.969	3094.47
798.153	3044.87
798.338	3109.38
798.522	3140.58
798.706	3166.54
798.89	3115.78
799.074	3216.53
799.258	3132.44
799.443	3128.18
799.627	3126.05
799.811	3159.95
799.995	3080.13
800.179	3049.71
800.363	3055.91
800.547	3096.4
800.731	3150.85
800.915	3023.17
801.099	3059.4
801.283	2997.59
801.467	3024.91
801.651	3037.5
801.835	3094.47
802.019	3066.57
802.202	3059.98
802.386	2981.9
802.57	2997.01
802.754	3013.29
802.938	2997.21
803.121	3002.82
803.305	3055.14
803.489	3074.12
803.673	3026.65
803.856	3038.86
804.04	3009.41
804.224	3018.71
804.407	2980.54
804.591	3003.99
804.775	3021.04
804.958	3027.82
805.142	3100.67
805.326	3020.45
805.509	3041.38
805.693	3094.85
805.876	3098.15
806.06	3109.58
806.243	3129.15
806.427	3137.09
806.61	3169.64
806.794	3050.29
806.977	3130.12
807.16	3142.71
807.344	3112.1
807.527	3062.69
807.71	3075.09
807.894	3069.86
808.077	3109
808.26	3045.25
808.444	2991.78
808.627	3057.85
808.81	2968.34
808.993	2952.45
809.177	2977.06
809.36	2992.17
809.543	2967.56
809.726	2910.6
809.909	2900.33
810.092	2866.43
810.276	2853.44
810.459	2873.98
810.642	2858.29
810.825	2825.54
811.008	2832.33
811.191	2731
811.374	2736.81
811.557	2720.73
811.74	2786.8
811.923	2697.09
812.106	2666.67
812.289	2643.62
812.472	2596.15
812.654	2599.44
812.837	2563.21
813.02	2487.65
813.203	2486.87
813.386	2375.66
813.569	2316.57
813.751	2274.92
813.934	2312.31
814.117	2297.2
814.3	2241.98
814.482	2166.61
814.665	2142.97
814.848	2089.5
815.03	2074.97
815.213	2018.78
815.396	1993.4
815.578	1987.2
815.761	1937.6
815.943	1982.74
816.126	1889.75
816.309	1872.31
816.491	1811.47
816.674	1735.91
816.856	1784.35
817.039	1788.42
817.221	1871.92
817.403	1816.32
817.586	1851.77
817.768	1854.68
817.951	1763.42
818.133	1784.93
818.315	1797.33
818.498	1836.08
818.68	1831.82
818.862	1857.97
819.045	1887.03
819.227	1893.23
819.409	1860.49
819.591	1846.35
819.774	1826.2
819.956	1807.6
820.138	1924.23
820.32	1907.57
820.502	1965.89
820.684	2079.42
820.866	2085.24
821.048	2090.08
821.231	2155.37
821.413	2105.19
821.595	2098.22
821.777	2139.68
821.959	2127.67
822.141	2174.55
822.323	2056.95
822.505	1949.03
822.686	1898.46
822.868	1805.66
823.05	1640.59
823.232	1629.35
823.414	1565.41
823.596	1643.11
823.778	1645.04
823.96	1648.72
824.141	1686.12
824.323	1701.23
824.505	1781.25
824.687	1848.67
824.868	1938.96
825.05	1980.42
825.232	2037.19
825.413	2123.41
825.595	2068.96
825.777	2045.13
825.958	2080.97
826.14	2022.46
826.321	2093.18
826.503	2070.9
826.685	2123.79
826.866	2092.79
827.048	2087.95
827.229	2064.51
827.411	2015.1
827.592	1940.9
827.773	1972.28
827.955	1881.41
828.136	1869.79
828.318	1835.3
828.499	1875.99
828.68	1818.06
828.862	1822.71
829.043	1859.33
829.224	1850.61
829.406	1798.1
829.587	1835.5
829.768	1837.05
829.949	1809.53
830.131	1862.82
830.312	1911.25
830.493	1862.82
830.674	1883.93
830.855	1837.24
831.036	1867.08
831.218	1924.04
831.399	1945.55
831.58	1899.43
831.761	1867.46
831.942	1881.41
832.123	1930.43
832.304	1785.12
832.485	1852.35
832.666	1873.08
832.847	1869.98
833.028	1846.15
833.209	1854.68
833.389	1837.43
833.57	1814.96
833.751	1845.77
833.932	1911.45
834.113	1870.37
834.294	1858.75
834.475	1879.28
834.655	1917.26
834.836	1919.78
835.017	1922.88
835.198	1853.32
835.378	1900.98
835.559	1961.04
835.74	1920.16
835.92	1875.8
836.101	1855.07
836.281	1928.5
836.462	1916.29
836.643	1973.25
836.823	1976.35
837.004	1986.43
837.184	2019.94
837.365	1978.29
837.545	2003.67
837.726	1911.64
837.906	2046.87
838.087	1957.75
838.267	1984.29
838.448	1930.24
838.628	1943.8
838.808	1966.47
838.989	2012.58
839.169	1947.29
839.349	2000.18
839.53	1993.21
839.71	2019.56
839.89	1943.03
840.07	1994.37
840.251	1941.67
840.431	2015.29
840.611	1948.45
840.791	1941.67
840.971	1989.14
841.151	1974.22
841.332	1923.26
841.512	1982.36
841.692	1878.9
841.872	1960.85
842.052	1923.46
842.232	1970.73
842.412	1932.95
842.592	1924.04
842.772	1963.56
842.952	1945.16
843.132	1927.53
843.312	1894.2
843.492	1878.31
843.672	1949.42
843.851	1891.3
844.031	1903.5
844.211	1934.89
844.391	1892.07
844.571	1917.65
844.751	1902.34
844.93	1914.16
845.11	1873.86
845.29	1930.05
845.47	1939.35
845.649	1911.25
845.829	1967.05
846.009	1856.23
846.188	1922.1
846.368	1907.38
846.547	1888.97
846.727	1952.52
846.907	1862.23
847.086	1892.65
847.266	1968.21
847.445	1889.36
847.625	1852.55
847.804	1853.32
847.984	1899.63
848.163	1848.67
848.343	1869.01
848.522	1856.03
848.701	1840.73
848.881	1822.9
849.06	1843.05
849.239	1865.33
849.419	1831.43
849.598	1759.16
849.777	1774.27
849.957	1766.52
850.136	1714.79
850.315	1652.02
850.494	1695.22
850.674	1709.56
850.853	1733.2
851.032	1725.06
851.211	1785.51
851.39	1741.53
851.569	1665
851.748	1671.59
851.927	1769.62
852.107	1754.7
852.286	1686.7
852.465	1696.77
852.644	1730.1
852.823	1748.5
853.002	1693.29
853.181	1745.21
853.359	1748.12
853.538	1659.57
853.717	1743.08
853.896	1620.44
854.075	1545.26
854.254	1509.61
854.433	1440.45
854.611	1505.35
854.79	1437.54
854.969	1494.7
855.148	1520.66
855.327	1493.34
855.505	1542.36
855.684	1545.07
855.863	1557.28
856.041	1514.26
856.22	1585.76
856.399	1542.74
856.577	1645.24
856.756	1632.84
856.934	1692.7
857.113	1734.55
857.291	1638.07
857.47	1617.53
857.648	1652.99
857.827	1646.01
858.005	1673.33
858.184	1630.12
858.362	1730.49
858.541	1655.89
858.719	1641.17
858.898	1624.12
859.076	1618.11
859.254	1671.01
859.433	1612.11
859.611	1598.54
859.789	1571.81
859.967	1675.07
860.146	1650.47
860.324	1560.38
860.502	1580.72
860.68	1543.33
860.859	1583.04
861.037	1580.14
861.215	1589.83
861.393	1568.32
861.571	1571.23
861.749	1581.3
861.927	1617.92
862.105	1608.62
862.283	1574.91
862.461	1524.53
862.639	1546.04
862.817	1542.16
862.995	1561.93
863.173	1535.38
863.351	1526.47
863.529	1565.8
863.707	1573.74
863.885	1544.1
864.063	1495.47
864.241	1527.05
864.418	1576.26
864.596	1527.83
864.774	1484.81
864.952	1511.94
865.129	1528.41
865.307	1502.83
865.485	1436.96
865.663	1490.82
865.84	1409.83
866.018	1410.03
866.196	1349.19
866.373	1319.94
866.551	1280.22
866.728	1253.48
866.906	1302.3
867.084	1315.48
867.261	1368.95
867.439	1376.51
867.616	1395.5
867.794	1394.14
867.971	1395.69
868.149	1390.65
868.326	1438.51
868.503	1434.05
868.681	1413.32
868.858	1395.11
869.035	1405.38
869.213	1433.28
869.39	1384.45
869.567	1453.23
869.745	1363.33
869.922	1399.57
870.099	1411.58
870.276	1444.71
870.454	1437.73
870.631	1410.61
870.808	1405.38
870.985	1400.92
871.162	1449.36
871.339	1399.57
871.517	1344.15
871.694	1336.6
871.871	1361.59
872.048	1382.52
872.225	1352.68
872.402	1372.63
872.579	1343.38
872.756	1354.03
872.933	1319.94
873.11	1353.84
873.287	1397.63
873.463	1340.67
873.64	1297.65
873.817	1366.05
873.994	1359.27
874.171	1313.35
874.348	1336.02
874.524	1267.04
874.701	1315.87
874.878	1245.92
875.055	1319.94
875.231	1290.87
875.408	1308.5
875.585	1264.91
875.762	1307.92
875.938	1276.15
876.115	1271.69
876.291	1249.99
876.468	1271.89
876.645	1249.61
876.821	1246.31
876.998	1247.47
877.174	1232.94
877.351	1229.46
877.527	1262.2
877.704	1239.53
877.88	1274.99
878.057	1236.04
878.233	1253.09
878.409	1210.27
878.586	1259.68
878.762	1234.88
878.938	1201.94
879.115	1161.64
879.291	1243.02
879.467	1171.14
879.644	1230.81
879.82	1217.06
879.996	1201.94
880.172	1151.96
880.349	1188.57
880.525	1221.51
880.701	1148.08
880.877	1139.75
881.053	1184.31
881.229	1175.98
881.405	1228.49
881.581	1156.03
881.757	1168.62
881.933	1210.47
882.109	1214.92
882.285	1190.51
882.461	1103.33
882.637	1206.79
882.813	1177.92
882.989	1157.96
883.165	1230.81
883.341	1163.19
883.517	1206.59
883.693	1167.26
883.869	1231.01
884.044	1148.47
884.22	1205.43
884.396	1230.62
884.572	1200.2
884.747	1197.87
884.923	1225.39
885.099	1202.14
885.275	1218.41
885.45	1175.01
885.626	1190.12
885.801	1146.14
885.977	1174.62
886.153	1093.06
886.328	1170.94
886.504	1109.91
886.679	1167.46
886.855	1142.46
887.03	1186.25
887.206	1206.01
887.381	1183.34
887.557	1181.21
887.732	1168.04
887.908	1186.25
888.083	1205.43
888.258	1145.95
888.434	1167.84
888.609	1142.66
888.784	1246.89
888.96	1171.91
889.135	1142.08
889.31	1114.56
889.485	1171.14
889.661	1152.34
889.836	1207.56
890.011	1161.26
890.186	1169.2
890.361	1153.31
890.537	1173.85
890.712	1181.02
890.887	1158.35
891.062	1187.61
891.237	1220.16
891.412	1132.39
891.587	1157.58
891.762	1176.76
891.937	1209.31
892.112	1095.58
892.287	1106.62
892.462	1114.18
892.637	1107.78
892.812	1064.38
892.987	1093.83
893.161	1053.15
893.336	1051.01
893.511	1078.72
893.686	1069.23
893.861	1060.51
894.035	1042.3
894.21	1054.89
894.385	977.58
894.56	1006.65
894.734	952.2
894.909	936.12
895.084	948.72
895.258	883.62
895.433	925.66
895.608	897.57
895.782	834.99
895.957	871.6
896.131	871.6
896.306	786.94
896.48	811.74
896.655	811.54
896.829	743.92
897.004	743.34
897.178	769.11
897.353	726.68
897.527	804.76
897.701	767.95
897.876	748.77
898.05	802.63
898.224	751.09
898.399	776.28
898.573	775.89
898.747	642.98
898.921	676.11
899.096	582.53
899.27	594.55
899.444	616.63
899.618	646.66
899.792	693.94
899.967	665.84
900.141	701.49
900.315	621.09
900.489	633.68
900.663	646.86
900.837	645.89
901.011	606.75
901.185	705.18
901.359	638.14
901.533	660.42
901.707	672.04
901.881	638.14
902.055	600.16
902.229	637.17
902.403	697.23
902.576	613.53
902.75	676.5
902.924	777.83
903.098	716.61
903.272	778.02
903.446	802.44
903.619	785
903.793	866.95
903.967	808.25
904.14	852.23
904.314	881.68
904.488	808.44
904.661	842.54
904.835	841.57
905.009	892.34
905.182	915.39
905.356	865.21
905.529	839.64
905.703	812.32
905.876	828.4
906.05	780.54
906.223	761.36
906.397	701.3
906.57	680.38
906.744	673.21
906.917	671.27
907.09	656.93
907.264	654.03
907.437	639.69
907.61	579.24
907.784	581.37
907.957	649.76
908.13	602.3
908.304	640.85
908.477	555.41
908.65	583.89
908.823	550.57
908.996	645.69
909.17	578.66
909.343	567.42
909.516	586.8
909.689	567.42
909.862	544.75
910.035	597.84
910.208	538.36
910.381	524.99
910.554	618.76
910.727	548.63
910.9	551.34
911.073	549.4
911.246	623.8
911.419	620.31
911.592	580.01
911.765	572.07
911.938	571.88
912.11	569.55
912.283	577.3
912.456	616.05
912.629	604.23
912.802	544.17
912.974	495.15
913.147	472.68
913.32	422.89
913.493	447.3
913.665	490.89
913.838	507.17
914.01	463.96
914.183	519.76
914.356	507.36
914.528	545.14
914.701	567.81
914.873	520.15
915.046	488.37
915.218	458.15
915.391	416.3
915.563	389.75
915.736	460.86
915.908	509.3
916.081	517.24
916.253	493.02
916.425	494.77
916.598	490.12
916.77	478.3
916.942	428.12
917.115	400.8
917.287	473.45
917.459	443.04
917.632	412.62
917.804	369.02
917.976	444.78
918.148	433.93
918.32	482.75
918.493	505.42
918.665	522.47
918.837	514.53
919.009	553.08
919.181	552.7
919.353	557.15
919.525	536.42
919.697	530.22
919.869	536.03
920.041	597.26
920.213	635.43
920.385	576.33
920.557	535.26
920.729	562.77
920.901	557.15
921.073	513.37
921.244	549.02
921.416	577.3
921.588	546.69
921.76	514.53
921.932	606.95
922.103	521.89
922.275	521.12
922.447	557.93
922.619	493.8
922.79	537.2
922.962	509.68
923.134	528.67
923.305	483.33
923.477	448.85
923.648	460.28
923.82	473.65
923.991	418.43
924.163	427.92
924.335	453.11
924.506	426.57
924.677	497.09
924.849	425.4
925.02	473.84
925.192	486.05
925.363	436.06
925.535	468.22
925.706	421.53
925.877	471.32
926.049	416.69
926.22	463.77
926.391	471.9
926.562	502.52
926.734	444.39
926.905	480.23
927.076	400.8
927.247	397.7
927.419	357.59
927.59	370.96
927.761	354.88
927.932	359.92
928.103	352.75
928.274	318.26
928.445	279.32
928.616	320.39
928.787	308.19
928.958	310.32
929.129	294.82
929.3	323.11
929.471	266.92
929.642	238.44
929.813	181.86
929.984	268.66
930.155	196.01
930.326	221.97
930.496	212.48
930.667	134.01
930.838	214.61
931.009	176.63
931.18	175.47
931.35	169.85
931.521	159.97
931.692	103.59
931.863	72.2
932.033	126.65
932.204	140.79
932.374	143.31
932.545	71.82
932.716	148.54
932.886	129.94
933.057	60.38
933.227	70.27
933.398	144.08
933.568	76.27
933.739	23.57
933.909	63.87
934.08	91
934.25	11.37
934.421	47.4
934.591	84.6
934.761	39.07
934.932	18.73
935.102	66.97
935.272	70.65
935.443	77.43
935.613	76.47
935.783	53.22
935.953	23.77
936.123	150.67
936.294	34.03
936.464	32.68
936.634	49.53
936.804	4.59
936.974	1.68
937.144	67.36
937.314	68.72
937.484	35.97
937.655	15.63
937.825	82.67
937.995	43.33
938.165	66.97
938.334	58.83
938.504	49.92
938.674	53.99
938.844	63.48
939.014	128.58
939.184	120.06
939.354	142.53
939.524	159.39
939.694	106.5
939.863	122.38
940.033	162.3
940.203	167.14
940.373	130.71
940.542	156.68
940.712	108.63
940.882	142.34
941.051	140.98
941.221	125.1
941.391	170.82
941.56	109.79
941.73	78.02
941.899	163.46
942.069	90.22
942.238	122.96
942.408	72.01
942.577	126.06
942.747	92.74
942.916	32.1
943.086	61.35
943.255	137.11
943.425	111.34
943.594	67.55
943.763	34.03
943.933	26.29
944.102	8.46
944.271	87.51
944.441	108.24
944.61	57.87
944.779	58.06
944.948	150.67
945.117	58.83
945.287	65.81
945.456	6.52
945.625	33.45
945.794	91.38
945.963	33.07
946.132	119.09
946.301	42.95
946.47	95.07
946.639	22.6
946.808	48.57
946.977	113.86
947.146	129.36
947.315	51.28
947.484	76.08
947.653	83.25
947.822	71.62
947.991	50.5
948.16	141.37
948.329	122
948.498	79.18
948.666	93.71
948.835	115.41
949.004	51.28
949.173	56.7
949.341	77.82
949.51	82.28
949.679	104.56
949.847	78.79
950.016	160.16
950.185	118.31
950.353	70.27
950.522	77.82
950.69	133.62
950.859	78.98
951.028	122.96
951.196	104.56
951.365	50.5
951.533	81.7
951.701	124.9
951.87	126.45
952.038	55.93
952.207	105.92
952.375	134.59
952.543	74.14
952.712	78.79
952.88	54.18
953.048	136.53
953.217	80.73
953.385	76.66
953.553	97.58
953.721	58.64
953.89	68.52
954.058	24.93
954.226	41.78
954.394	75.88
954.562	33.26
954.73	73.17
954.898	81.89
955.067	114.25
955.235	70.46
955.403	124.32
955.571	124.51
955.739	96.03
955.907	56.7
956.075	93.52
956.243	52.05
956.41	90.03
956.578	55.35
956.746	73.37
956.914	43.14
957.082	129.16
957.25	108.43
957.418	52.83
957.585	102.04
957.753	146.8
957.921	72.4
958.089	102.43
958.256	114.63
958.424	78.02
958.592	101.46
958.759	50.5
958.927	135.36
959.095	47.21
959.262	95.26
959.43	111.34
959.597	59.61
959.765	79.18
959.932	43.72
960.1	103.98
960.267	83.25
960.435	69.49
960.602	110.57
960.77	85.57
960.937	39.07
961.104	80.34
961.272	65.62
961.439	72.98
961.606	103.01
961.774	128.78
961.941	99.72
962.108	92.93
962.275	120.45
962.443	134.4
962.61	121.8
962.777	147.38
962.944	108.05
963.111	137.3
963.278	125.29
963.446	134.78
963.613	99.13
963.78	113.86
963.947	111.15
964.114	118.51
964.281	175.66
964.448	138.85
964.615	79.37
964.782	112.5
964.949	147.57
965.116	146.02
965.282	137.11
965.449	83.44
965.616	75.69
965.783	116.76
965.95	116.18
966.117	58.83
966.283	106.88
966.45	84.02
966.617	126.45
966.784	152.03
966.95	160.16
967.117	138.85
967.284	85.96
967.45	89.06
967.617	162.49
967.784	141.18
967.95	163.46
968.117	130.91
968.283	166.75
968.45	200.46
968.616	152.22
968.783	149.31
968.949	161.52
969.116	172.76
969.282	139.05
969.449	156.48
969.615	134.78
969.781	97.97
969.948	136.72
970.114	99.33
970.28	196.01
970.447	142.92
970.613	201.05
970.779	122.19
970.945	155.32
971.112	131.68
971.278	130.33
971.444	135.56
971.61	158.61
971.776	95.65
971.942	140.79
972.108	181.28
972.275	127.23
972.441	161.33
972.607	201.82
972.773	119.86
972.939	159.97
973.105	136.53
973.271	66
973.437	109.4
973.602	108.24
973.768	122
973.934	98.94
974.1	134.98
974.266	76.27
974.432	142.92
974.598	116.38
974.763	145.44
974.929	111.34
975.095	168.3
975.261	88.28
975.426	62.32
975.592	84.8
975.758	150.28
975.923	103.01
976.089	91.97
976.255	134.59
976.42	119.09
976.586	138.27
976.751	118.12
976.917	198.53
977.082	161.13
977.248	85.38
977.413	61.93
977.579	79.18
977.744	140.79
977.91	97.78
978.075	80.92
978.24	147.76
978.406	116.18
978.571	90.61
978.736	106.69
978.902	137.88
979.067	72.78
979.232	52.63
979.397	120.25
979.563	167.53
979.728	89.06
979.893	119.67
980.058	83.63
980.223	158.03
980.388	107.66
980.554	132.26
980.719	93.9
980.884	113.08
981.049	153
981.214	123.16
981.379	126.84
981.544	101.07
981.709	94.1
981.874	110.95
982.039	135.17
982.204	132.65
982.368	130.33
982.533	62.13
982.698	162.88
982.863	142.53
983.028	106.5
983.193	132.07
983.357	120.25
983.522	113.08
983.687	103.4
983.852	136.14
984.016	95.84
984.181	137.88
984.346	128.2
984.51	145.05
984.675	108.82
984.839	147.57
985.004	117.73
985.168	145.05
985.333	124.9
985.498	126.45
985.662	131.88
985.827	126.65
985.991	128.39
986.155	104.56
986.32	145.44
986.484	159.97
986.649	122.38
986.813	90.61
986.977	116.57
987.142	131.88
987.306	96.62
987.47	102.82
987.634	111.15
987.799	110.95
987.963	126.65
988.127	121.8
988.291	184.19
988.455	132.65
988.62	120.83
988.784	135.95
988.948	149.51
989.112	106.5
989.276	124.51
989.44	109.98
989.604	90.03
989.768	118.51
989.932	182.45
990.096	72.78
990.26	79.18
990.424	89.83
990.588	71.82
990.752	160.36
990.915	109.6
991.079	118.9
991.243	88.28
991.407	131.88
991.571	119.67
991.734	127.03
991.898	131.1
992.062	202.21
992.226	92.16
992.389	100.3
992.553	85.18
992.717	89.25
992.88	101.07
993.044	98.17
993.207	88.28
993.371	127.81
993.535	91.97
993.698	108.82
993.862	128.2
994.025	162.1
994.189	110.37
994.352	113.86
994.515	132.65
994.679	134.4
994.842	90.8
995.006	120.45
995.169	71.82
995.332	103.98
995.496	138.85
995.659	61.35
995.822	70.65
995.985	58.45
996.149	136.14
996.312	100.3
996.475	129.16
996.638	76.27
996.801	149.12
996.964	147.38
997.128	92.74
997.291	126.45
997.454	128
997.617	45.08
997.78	133.81
997.943	67.17
998.106	129.16
998.269	59.03
998.432	97.58
998.595	86.35
998.758	66.97
998.92	63.68
999.083	56.12
999.246	82.28
999.409	49.73
999.572	31.32
999.735	91.58
999.897	97.58
1000.06	72.4
1000.223	61.55
1000.386	121.03
1000.548	108.63
1000.711	102.23
1000.874	90.22
1001.036	50.5
1001.199	112.89
1001.361	72.2
1001.524	105.92
1001.687	107.47
1001.849	45.85
1002.012	87.12
1002.174	114.63
1002.337	104.95
1002.499	63.1
1002.661	113.28
1002.824	44.5
1002.986	64.84
1003.149	92.35
1003.311	54.38
1003.473	127.81
1003.636	67.17
1003.798	93.71
1003.96	103.01
1004.123	76.27
1004.285	70.27
1004.447	69.68
1004.609	94.29
1004.771	119.67
1004.933	35.97
1005.096	56.7
1005.258	0.52
1005.42	42.75
1005.582	118.12
1005.744	77.82
1005.906	44.11
1006.068	76.47
1006.23	19.7
1006.392	29.58
1006.554	45.66
1006.716	76.08
1006.878	97.58
1007.04	34.42
1007.202	64.84
1007.363	79.37
1007.525	64.07
1007.687	89.83
1007.849	139.43
1008.011	14.47
1008.172	42.56
1008.334	61.93
1008.496	94.68
1008.658	18.73
1008.819	69.3
1008.981	49.15
1009.143	29.38
1009.304	63.48
1009.466	85.96
1009.627	105.33
1009.789	145.05
1009.95	65.03
1010.112	41.78
1010.273	50.7
1010.435	33.26
1010.596	59.42
1010.758	54.38
1010.919	48.18
1011.081	6.14
1011.242	21.25
1011.403	62.52
1011.565	44.69
1011.726	41.2
1011.887	62.52
1012.049	69.49
1012.21	70.07
1012.371	116.38
1012.532	0.32
1012.693	53.8
1012.855	46.63
1013.016	50.12
1013.177	90.42
1013.338	60.38
1013.499	108.24
1013.66	76.08
1013.821	94.1
1013.982	71.04
1014.143	50.7
1014.304	32.87
1014.465	94.87
1014.626	81.7
1014.787	31.71
1014.948	133.43
1015.109	-5.1
1015.27	92.16
1015.431	41.59
1015.592	42.37
1015.752	99.52
1015.913	54.77
1016.074	65.03
1016.235	48.57
1016.395	19.12
1016.556	66.97
1016.717	28.22
1016.877	100.68
1017.038	14.08
1017.199	46.24
1017.359	66.39
1017.52	76.47
1017.681	18.15
1017.841	44.3
1018.002	25.9
1018.162	40.82
1018.323	91.97
1018.483	46.82
1018.644	39.65
1018.804	15.24
1018.964	10.59
1019.125	24.74
1019.285	52.83
1019.446	5.94
1019.606	21.64
1019.766	15.44
1019.926	36.94
1020.087	47.79
1020.247	-5.1
1020.407	75.11
1020.567	72.01
1020.728	49.53
1020.888	11.17
1021.048	21.44
1021.208	1.1
1021.368	11.37
1021.528	82.08
1021.688	73.56
1021.848	68.33
1022.008	59.42
1022.168	52.83
1022.328	47.02
1022.488	52.63
1022.648	33.26
1022.808	34.62
1022.968	76.47
1023.128	24.54
1023.288	5.36
1023.448	21.44
1023.608	32.48
1023.767	64.07
1023.927	11.56
1024.087	11.56
1024.247	-4.13
1024.406	23.38
1024.566	-17.11
1024.726	-3.36
1024.885	26.67
1025.045	82.86
1025.205	19.12
1025.364	-2.58
1025.524	28.61
1025.683	38.68
1025.843	29.58
1026.003	30.93
1026.162	78.98
1026.321	65.23
1026.481	47.21
1026.64	34.81
1026.8	33.26
1026.959	32.29
1027.119	27.84
1027.278	30.16
1027.437	28.61
1027.597	42.37
1027.756	47.4
1027.915	57.67
1028.074	60.19
1028.234	-4.13
1028.393	25.9
1028.552	35.39
1028.711	-49.08
1028.87	72.78
1029.03	-0.65
1029.189	25.51
1029.348	-25.83
1029.507	14.85
1029.666	26.09
1029.825	7.49
1029.984	9.04
1030.143	45.47
1030.302	46.43
1030.461	-22.54
1030.62	26.48
1030.779	56.32
1030.938	1.49
1031.097	14.27
1031.255	52.25
1031.414	59.03
1031.573	56.32
1031.732	-15.76
1031.891	19.89
1032.049	86.93
1032.208	48.95
1032.367	33.84
1032.525	-23.51
1032.684	14.66
1032.843	29.38
1033.001	-25.83
1033.16	165.4
1033.319	57.09
1033.477	47.79
1033.636	-2.97
1033.794	-3.16
1033.953	46.82
1034.111	48.57
1034.27	13.89
1034.428	31.52
1034.587	-11.3
1034.745	41.78
1034.903	32.87
1035.062	49.92
1035.22	-19.83
1035.378	46.63
1035.537	4
1035.695	49.73
1035.853	9.04
1036.011	53.22
1036.17	21.64
1036.328	-20.21
1036.486	46.24
1036.644	34.62
1036.802	-61.68
1036.96	16.4
1037.119	22.41
1037.277	-2.78
1037.435	-9.36
1037.593	4.78
1037.751	48.18
1037.909	66.2
1038.067	66.2
