Data from gum_young_FLMT105791__55__17-39-13-043.txt Node

Date: Mon Mar 20 17:39:13 GMT 2023
User: antho
Spectrometer: FLMT10579
Trigger mode: 0
Integration Time (sec): 1.000000E-1
Scans to average: 10
Electric dark correction enabled: true
Nonlinearity correction enabled: false
Boxcar width: 0
XAxis mode: Wavelengths
Number of Pixels in Spectrum: 3648
>>>>>Begin Spectral Data<<<<<
345.248	-144.71
345.464	-144.71
345.681	-144.71
345.898	-130.76
346.114	-161.18
346.331	-18.78
346.548	25.01
346.764	0.02
346.981	9.9
347.197	-14.9
347.414	2.15
347.631	-1.73
347.847	40.51
348.064	12.03
348.28	40.51
348.497	-50.94
348.713	-43.77
348.93	47.87
349.146	28.11
349.363	2.34
349.579	-12.58
349.796	0.6
350.012	9.7
350.229	21.91
350.445	7.38
350.661	-9.86
350.878	6.8
351.094	-9.28
351.311	45.35
351.527	25.59
351.743	0.02
351.96	34.5
352.176	36.25
352.392	43.03
352.609	40.7
352.825	-9.09
353.041	1.95
353.257	-15.48
353.474	24.43
353.69	29.85
353.906	10.87
354.122	-12.77
354.339	40.7
354.555	-18.97
354.771	24.82
354.987	45.35
355.203	35.47
355.42	-4.05
355.636	-7.73
355.852	-5.02
356.068	1.37
356.284	-14.13
356.5	60.85
356.716	16.68
356.932	13.38
357.148	13.97
357.364	-13.55
357.58	30.24
357.796	71.7
358.012	40.32
358.228	16.1
358.444	-55.78
358.66	62.02
358.876	33.34
359.092	-11.22
359.308	20.55
359.524	54.27
359.74	15.13
359.956	9.9
360.172	25.4
360.388	56.98
360.604	-8.7
360.819	91.46
361.035	29.27
361.251	41.09
361.467	-4.44
361.683	39.15
361.898	27.14
362.114	48.07
362.33	23.85
362.546	46.9
362.762	-9.28
362.977	24.23
363.193	-1.15
363.409	27.14
363.624	-30.4
363.84	-23.23
364.056	3.5
364.271	23.27
364.487	43.42
364.703	-7.93
364.918	-10.64
365.134	7.38
365.35	10.09
365.565	107.93
365.781	21.91
365.996	28.11
366.212	73.83
366.427	33.53
366.643	13.97
366.858	19.97
367.074	-7.54
367.289	67.44
367.505	64.73
367.72	-18.58
367.936	1.18
368.151	15.9
368.367	41.48
368.582	29.08
368.798	5.44
369.013	61.82
369.228	31.02
369.444	32.37
369.659	52.91
369.874	51.94
370.09	73.45
370.305	-41.83
370.52	-11.8
370.736	75.77
370.951	29.47
371.166	72.87
371.381	71.9
371.597	50.39
371.812	1.95
372.027	-6.96
372.242	31.98
372.458	76.93
372.673	31.02
372.888	41.09
373.103	32.57
373.318	87.98
373.533	28.3
373.749	41.28
373.964	-17.42
374.179	82.75
374.394	-7.35
374.609	55.82
374.824	-6.96
375.039	60.66
375.254	5.63
375.469	85.26
375.684	41.48
375.899	62.21
376.114	37.6
376.329	34.5
376.544	69.77
376.759	54.07
376.974	-0.95
377.189	7.96
377.404	12.8
377.619	42.06
377.834	-32.34
378.049	-8.51
378.264	3.89
378.478	85.07
378.693	21.33
378.908	45.16
379.123	18.03
379.338	70.15
379.553	24.62
379.767	49.81
379.982	45.55
380.197	51.17
380.412	-5.22
380.626	32.57
380.841	113.55
381.056	59.3
381.271	75
381.485	4.08
381.7	-10.64
381.915	13.77
382.129	4.86
382.344	42.25
382.559	33.34
382.773	54.27
382.988	-1.73
383.202	24.43
383.417	-22.46
383.632	100.18
383.846	6.22
384.061	40.32
384.275	9.7
384.49	41.48
384.704	52.13
384.919	48.65
385.133	36.44
385.348	32.37
385.562	13.97
385.777	52.52
385.991	42.06
386.206	43.61
386.42	6.8
386.634	80.23
386.849	57.37
387.063	54.46
387.277	15.32
387.492	9.51
387.706	27.72
387.92	-32.92
388.135	55.04
388.349	26.75
388.563	39.93
388.778	40.32
388.992	68.8
389.206	53.1
389.42	94.37
389.635	20.75
389.849	51.94
390.063	66.67
390.277	30.82
390.491	88.95
390.706	39.93
390.92	65.7
391.134	30.24
391.348	67.63
391.562	-8.7
391.776	15.9
391.99	-0.95
392.205	76.93
392.419	17.07
392.633	42.83
392.847	102.51
393.061	3.31
393.275	90.69
393.489	34.5
393.703	24.62
393.917	50.78
394.131	-11.8
394.345	55.82
394.559	55.43
394.773	50.97
394.986	50.39
395.2	30.82
395.414	74.42
395.628	31.02
395.842	63.76
396.056	14.16
396.27	-10.06
396.484	67.44
396.697	51.94
396.911	79.84
397.125	70.93
397.339	74.8
397.553	49.23
397.766	92.05
397.98	64.15
398.194	83.91
398.408	42.64
398.621	78.29
398.835	56.4
399.049	74.22
399.262	110.84
399.476	87.98
399.69	86.43
399.903	123.82
400.117	49.81
400.331	93.79
400.544	44.19
400.758	156.76
400.971	79.45
401.185	109.87
401.398	39.35
401.612	91.85
401.826	86.81
402.039	96.89
402.253	91.46
402.466	90.5
402.68	52.13
402.893	99.41
403.106	82.75
403.32	75.77
403.533	87.98
403.747	72.67
403.96	97.28
404.174	85.85
404.387	28.88
404.6	103.28
404.814	126.53
405.027	92.63
405.24	84.68
405.454	57.75
405.667	115.1
405.88	44
406.094	109.29
406.307	118.98
406.52	95.53
406.733	53.3
406.947	38.38
407.16	137
407.373	97.08
407.586	56.78
407.799	53.88
408.012	104.25
408.226	77.32
408.439	145.33
408.652	39.73
408.865	87.78
409.078	106.58
409.291	105.22
409.504	64.34
409.717	96.31
409.93	91.85
410.143	102.9
410.357	64.34
410.57	37.22
410.783	70.93
410.996	98.05
411.209	74.03
411.421	142.03
411.634	94.56
411.847	55.82
412.06	100.38
412.273	105.61
412.486	78.48
412.699	190.08
412.912	114.71
413.125	116.65
413.338	88.17
413.55	106.58
413.763	72.48
413.976	119.75
414.189	78.87
414.402	55.23
414.615	153.27
414.827	70.35
415.04	140.87
415.253	101.54
415.466	97.47
415.678	164.7
415.891	104.25
416.104	97.08
416.316	75.97
416.529	98.83
416.742	147.46
416.954	151.72
417.167	106
417.38	110.26
417.592	122.66
417.805	78.48
418.017	63.57
418.23	125.18
418.442	110.45
418.655	86.62
418.868	135.45
419.08	138.93
419.293	169.93
419.505	93.79
419.718	128.28
419.93	155.98
420.142	103.09
420.355	158.7
420.567	145.71
420.78	160.44
420.992	124.01
421.205	155.79
421.417	69.77
421.629	92.43
421.842	88.95
422.054	78.29
422.266	146.1
422.479	163.93
422.691	107.55
422.903	142.42
423.115	102.9
423.328	132.73
423.54	140.48
423.752	100.96
423.964	102.31
424.177	161.02
424.389	126.15
424.601	221.28
424.813	126.73
425.025	162.18
425.238	162.18
425.45	114.33
425.662	111.42
425.874	375.11
426.086	113.94
426.298	134.67
426.51	119.56
426.722	134.86
426.934	119.17
427.146	161.8
427.358	100.57
427.57	171.48
427.782	121.11
427.994	157.34
428.206	136.03
428.418	93.01
428.63	142.81
428.842	156.56
429.054	141.84
429.266	151.53
429.478	73.06
429.69	138.74
429.902	88.17
430.114	120.53
430.325	146.88
430.537	87.01
430.749	108.13
430.961	57.37
431.173	118.4
431.384	118.59
431.596	59.69
431.808	120.14
432.02	137.77
432.231	159.66
432.443	184.08
432.655	141.26
432.867	113.75
433.078	157.92
433.29	195.12
433.502	164.7
433.713	190.66
433.925	164.51
434.136	178.46
434.348	117.81
434.56	78.48
434.771	239.29
434.983	110.45
435.194	154.63
435.406	148.43
435.617	183.69
435.829	220.11
436.04	165.48
436.252	175.94
436.463	233.48
436.675	186.59
436.886	188.73
437.098	197.64
437.309	230.19
437.521	158.7
437.732	163.73
437.943	183.69
438.155	168.38
438.366	113.36
438.578	223.21
438.789	166.06
439	194.93
439.211	170.13
439.423	180.2
439.634	192.21
439.845	183.49
440.057	210.62
440.268	205.78
440.479	136.03
440.69	184.85
440.902	182.53
441.113	190.47
441.324	209.07
441.535	220.89
441.746	269.13
441.957	169.93
442.168	178.84
442.38	213.33
442.591	222.83
442.802	198.8
443.013	199.19
443.224	215.46
443.435	201.13
443.646	201.32
443.857	213.53
444.068	186.98
444.279	187.95
444.49	255.96
444.701	237.74
444.912	265.84
445.123	250.14
445.334	248.98
445.545	202.29
445.756	221.86
445.967	165.28
446.178	229.8
446.388	250.73
446.599	257.31
446.81	249.76
447.021	206.94
447.232	262.16
447.443	277.66
447.653	193.18
447.864	254.6
448.075	268.16
448.286	244.72
448.496	255.37
448.707	260.22
448.918	219.92
449.129	296.64
449.339	221.28
449.55	276.3
449.761	244.91
449.971	289.09
450.182	245.69
450.393	269.71
450.603	224.76
450.814	297.61
451.024	250.53
451.235	303.62
451.446	296.26
451.656	325.51
451.867	273.78
452.077	273.97
452.288	323.77
452.498	312.92
452.709	260.99
452.919	291.8
453.13	244.53
453.34	298.19
453.55	242.2
453.761	288.12
453.971	277.27
454.182	314.47
454.392	291.99
454.602	334.04
454.813	299.94
455.023	332.1
455.233	223.21
455.444	291.41
455.654	223.41
455.864	243.56
456.075	272.23
456.285	274.17
456.495	287.92
456.705	295.09
456.916	316.79
457.126	344.11
457.336	299.36
457.546	243.56
457.756	251.31
457.967	325.12
458.177	290.25
458.387	314.47
458.597	267.39
458.807	283.86
459.017	287.54
459.227	287.73
459.437	281.53
459.647	321.44
459.857	301.87
460.068	281.72
460.278	342.37
460.488	287.73
460.698	355.15
460.908	302.26
461.117	256.73
461.327	287.92
461.537	323.96
461.747	308.85
461.957	332.49
462.167	388.67
462.377	350.5
462.587	312.92
462.797	346.24
463.007	301.87
463.216	344.89
463.426	365.62
463.636	360.19
463.846	296.26
464.056	293.35
464.265	338.49
464.475	302.46
464.685	321.44
464.895	340.24
465.104	312.92
465.314	349.34
465.524	328.42
465.733	293.74
465.943	375.3
466.153	373.17
466.362	387.7
466.572	344.11
466.782	322.41
466.991	347.79
467.201	385.38
467.41	294.71
467.62	368.72
467.829	347.4
468.039	356.12
468.249	310.21
468.458	341.98
468.668	378.4
468.877	381.7
469.086	409.21
469.296	411.34
469.505	343.14
469.715	441.76
469.924	375.5
470.134	423.74
470.343	419.09
470.552	349.15
470.762	367.17
470.971	328.81
471.18	373.37
471.39	365.81
471.599	319.31
471.808	398.17
472.018	362.52
472.227	397.59
472.436	418.12
472.645	385.77
472.855	349.54
473.064	434.4
473.273	410.95
473.482	440.4
473.691	451.64
473.901	427.81
474.11	418.32
474.319	503.76
474.528	443.12
474.737	471.6
474.946	443.89
475.155	440.6
475.364	473.92
475.573	433.23
475.783	444.28
475.992	444.67
476.201	475.28
476.41	444.47
476.619	401.27
476.828	462.68
477.037	448.15
477.245	436.33
477.454	468.5
477.663	452.22
477.872	460.75
478.081	517.13
478.29	455.9
478.499	542.31
478.708	477.8
478.917	527.98
479.125	462.1
479.334	495.43
479.543	476.83
479.752	522.16
479.961	519.65
480.169	544.64
480.378	495.04
480.587	606.64
480.796	538.05
481.004	553.94
481.213	551.03
481.422	516.35
481.63	508.22
481.839	539.99
482.048	592.88
482.256	558.2
482.465	578.16
482.674	585.33
482.882	600.83
483.091	649.65
483.299	562.85
483.508	583.58
483.716	561.11
483.925	578.35
484.134	557.62
484.342	539.41
484.551	602.38
484.759	605.28
484.967	589.78
485.176	600.44
485.384	636.28
485.593	632.02
485.801	584.16
486.01	566.15
486.218	571.57
486.426	496.59
486.635	535.34
486.843	528.95
487.051	562.08
487.26	528.36
487.468	571.57
487.676	634.15
487.885	568.08
488.093	620.59
488.301	608.96
488.509	623.88
488.717	652.56
488.926	623.49
489.134	632.79
489.342	645.58
489.55	594.05
489.758	652.56
489.967	637.44
490.175	733.54
490.383	649.84
490.591	731.99
490.799	637.06
491.007	694.02
491.215	688.01
491.423	647.52
491.631	701.77
491.839	696.34
492.047	708.74
492.255	632.02
492.463	612.84
492.671	653.14
492.879	754.08
493.087	691.69
493.295	694.21
493.503	721.34
493.711	739.74
493.919	768.81
494.127	722.31
494.334	753.31
494.542	695.18
494.75	733.16
494.958	713.01
495.166	790.89
495.374	780.43
495.581	762.99
495.789	786.82
495.997	826.93
496.205	759.89
496.412	742.26
496.62	764.54
496.828	775.78
497.035	763.96
497.243	818.6
497.451	784.69
497.658	804.65
497.866	789.73
498.074	856.96
498.281	737.42
498.489	874.01
498.696	800
498.904	775.39
499.112	767.26
499.319	856.77
499.527	838.94
499.734	856.77
499.942	782.75
500.149	806.78
500.357	804.26
500.564	822.28
500.771	818.4
500.979	801.35
501.186	793.99
501.394	812.2
501.601	818.79
501.808	845.34
502.016	831.19
502.223	793.99
502.43	844.17
502.638	861.22
502.845	797.29
503.052	878.27
503.26	828.48
503.467	917.22
503.674	865.87
503.881	906.17
504.089	944.73
504.296	916.44
504.503	854.44
504.71	865.29
504.917	886.02
505.125	916.83
505.332	912.18
505.539	933.68
505.746	974.18
505.953	962.16
506.16	959.06
506.367	997.23
506.574	1033.08
506.781	1031.14
506.988	974.18
507.195	989.1
507.402	1004.21
507.609	1037.34
507.816	954.22
508.023	1010.02
508.23	986.96
508.437	989.48
508.644	1020.29
508.851	1057.29
509.058	1065.43
509.265	1055.94
509.472	1077.44
509.679	1129.95
509.885	1063.3
510.092	1109.03
510.299	1072.6
510.506	1100.11
510.713	1102.24
510.92	1110.38
511.126	1091.98
511.333	1142.74
511.54	1109.99
511.746	1202.22
511.953	1166.96
512.16	1202.02
512.367	1143.51
512.573	1161.72
512.78	1157.46
512.987	1184.97
513.193	1155.72
513.4	1101.47
513.606	1167.92
513.813	1188.07
514.02	1172.19
514.226	1264.22
514.433	1240.77
514.639	1189.04
514.846	1234.19
515.052	1193.89
515.259	1233.6
515.465	1262.28
515.672	1241.16
515.878	1366.9
516.085	1277.59
516.291	1313.04
516.497	1249.1
516.704	1250.27
516.91	1226.63
517.117	1155.72
517.323	1143.9
517.529	1182.26
517.736	1184.01
517.942	1243.29
518.148	1234.19
518.354	1254.53
518.561	1283.59
518.767	1298.7
518.973	1299.29
519.179	1345.2
519.386	1329.7
519.592	1333
519.798	1349.66
520.004	1440.53
520.21	1397.71
520.417	1457.77
520.623	1517.25
520.829	1518.03
521.035	1497.68
521.241	1494
521.447	1548.44
521.653	1618.58
521.859	1527.71
522.065	1547.86
522.271	1613.54
522.477	1614.12
522.683	1644.16
522.889	1581.77
523.095	1596.11
523.301	1598.24
523.507	1584.67
523.713	1648.81
523.919	1589.52
524.125	1688.33
524.331	1627.3
524.537	1772.8
524.742	1732.89
524.948	1727.85
525.154	1730.18
525.36	1836.55
525.566	1761.95
525.772	1842.55
525.977	1758.27
526.183	1770.48
526.389	1794.89
526.595	1712.55
526.8	1725.14
527.006	1658.1
527.212	1632.72
527.417	1589.91
527.623	1630.4
527.829	1698.6
528.034	1741.22
528.24	1751.88
528.446	1769.9
528.651	1857.86
528.857	1848.95
529.062	1892.54
529.268	1887.5
529.473	1915.98
529.679	1887.11
529.884	1986.51
530.09	1953.38
530.295	1978.18
530.501	2005.3
530.706	1926.64
530.912	1945.24
531.117	1947.95
531.323	2007.24
531.528	2022.35
531.733	2011.5
531.939	1989.8
532.144	1997.74
532.35	1986.31
532.555	2021.38
532.76	1986.51
532.966	2014.99
533.171	1980.11
533.376	1905.13
533.581	1922.57
533.787	1974.49
533.992	2030.49
534.197	2003.36
534.402	2034.17
534.607	2062.46
534.813	2099.07
535.018	2046.18
535.223	2043.66
535.428	2085.9
535.633	2123.49
535.838	2152.94
536.043	2162.24
536.249	2209.51
536.454	2130.07
536.659	2166.69
536.864	2126.97
537.069	2111.67
537.274	2116.12
537.479	2137.82
537.684	2134.92
537.889	2080.86
538.094	2232.18
538.299	2155.84
538.504	2171.34
538.708	2202.34
538.913	2251.36
539.118	2206.22
539.323	2175.8
539.528	2142.09
539.733	2173.67
539.938	2206.41
540.142	2201.57
540.347	2118.84
540.552	2125.81
540.757	2105.66
540.962	2144.41
541.166	2081.44
541.371	2084.74
541.576	2121.35
541.781	2070.59
541.985	2195.56
542.19	2162.24
542.395	2236.25
542.599	2270.93
542.804	2201.37
543.008	2270.54
543.213	2190.91
543.418	2115.54
543.622	2202.15
543.827	2149.64
544.031	2245.16
544.236	2314.13
544.44	2230.05
544.645	2312.78
544.849	2243.8
545.054	2266.08
545.258	2375.16
545.463	2352.11
545.667	2262.79
545.872	2259.5
546.076	2268.99
546.281	2300.18
546.485	2260.66
546.689	2343.39
546.894	2304.64
547.098	2290.69
547.302	2228.11
547.507	2275.19
547.711	2312.39
547.915	2370.51
548.119	2251.17
548.324	2308.51
548.528	2338.35
548.732	2311.81
548.936	2342.61
549.141	2363.93
549.345	2293.01
549.549	2325.37
549.753	2324.6
549.957	2407.33
550.161	2401.9
550.366	2365.48
550.57	2335.25
550.774	2332.93
550.978	2319.95
551.182	2370.71
551.386	2311.23
551.59	2349.2
551.794	2333.31
551.998	2343.2
552.202	2323.43
552.406	2318.2
552.61	2376.91
552.814	2401.32
553.018	2384.27
553.222	2358.5
553.426	2311.03
553.63	2424.18
553.833	2319.75
554.037	2300.38
554.241	2401.51
554.445	2371.87
554.649	2326.34
554.853	2326.73
555.056	2395.89
555.26	2404.81
555.464	2359.28
555.668	2352.3
555.871	2352.49
556.075	2387.95
556.279	2339.13
556.483	2327.89
556.686	2299.6
556.89	2323.43
557.094	2300.57
557.297	2264.15
557.501	2325.56
557.704	2217.45
557.908	2306.38
558.112	2232.76
558.315	2330.02
558.519	2248.45
558.722	2256.98
558.926	2253.1
559.129	2161.46
559.333	2153.71
559.536	2180.45
559.74	2173.28
559.943	2154.1
560.147	2164.37
560.35	2199.43
560.553	2165.34
560.757	2166.89
560.96	2245.74
561.164	2156.04
561.367	2263.95
561.57	2187.23
561.774	2205.44
561.977	2200.4
562.18	2176.77
562.384	2260.27
562.587	2159.33
562.79	2162.04
562.993	2112.05
563.197	2198.85
563.4	2244.97
563.603	2206.99
563.806	2255.82
564.009	2119.8
564.212	2151.58
564.416	2102.56
564.619	2146.54
564.822	2069.04
565.025	2171.54
565.228	2122.9
565.431	2144.99
565.634	2036.69
565.837	2089.19
566.04	2035.14
566.243	2024.87
566.446	1980.11
566.649	2070.01
566.852	1977.98
567.055	2047.92
567.258	2045.6
567.461	2113.6
567.664	2082.8
567.867	1986.31
568.07	2050.64
568.273	2054.51
568.475	2080.86
568.678	2018.86
568.881	1965.19
569.084	1941.36
569.287	1853.79
569.489	1931.68
569.692	1969.65
569.895	1911.53
570.098	1879.36
570.3	1897.58
570.503	1855.15
570.706	1865.22
570.909	1868.32
571.111	1801.09
571.314	1816.2
571.516	1800.7
571.719	1790.63
571.922	1783.65
572.124	1779.39
572.327	1857.66
572.529	1784.23
572.732	1765.44
572.935	1811.17
573.137	1909.59
573.34	1770.28
573.542	1862.31
573.745	1822.79
573.947	1825.31
574.15	1807.68
574.352	1761.18
574.554	1844.49
574.757	1794.89
574.959	1731.54
575.162	1738.51
575.364	1729.99
575.566	1791.6
575.769	1718.75
575.971	1728.82
576.173	1621.29
576.376	1711.58
576.578	1737.93
576.78	1771.25
576.982	1626.52
577.185	1703.44
577.387	1641.06
577.589	1632.72
577.791	1683.1
577.993	1725.92
578.196	1670.89
578.398	1682.9
578.6	1713.52
578.802	1652.29
579.004	1620.32
579.206	1633.31
579.408	1674.57
579.61	1611.41
579.812	1670.31
580.014	1631.37
580.216	1622.84
580.418	1608.89
580.62	1653.26
580.822	1593.2
581.024	1618
581.226	1702.67
581.428	1631.56
581.63	1739.87
581.832	1637.96
582.034	1707.7
582.236	1645.9
582.438	1707.32
582.64	1730.37
582.841	1743.55
583.043	1736.38
583.245	1694.14
583.447	1700.15
583.649	1670.89
583.85	1686.59
584.052	1709.25
584.254	1660.24
584.456	1714.49
584.657	1616.45
584.859	1652.49
585.061	1653.65
585.262	1624.59
585.464	1592.04
585.666	1654.81
585.867	1631.37
586.069	1682.32
586.27	1629.82
586.472	1605.99
586.674	1585.84
586.875	1595.33
587.077	1590.1
587.278	1633.69
587.48	1596.88
587.681	1683.87
587.883	1634.08
588.084	1501.17
588.285	1570.34
588.487	1530.04
588.688	1576.15
588.89	1486.06
589.091	1486.64
589.292	1474.05
589.494	1417.86
589.695	1407.78
589.896	1323.7
590.098	1334.16
590.299	1378.92
590.5	1325.63
590.702	1357.6
590.903	1411.08
591.104	1460.1
591.305	1427.55
591.507	1482.96
591.708	1485.48
591.909	1428.32
592.11	1486.83
592.311	1486.83
592.512	1415.53
592.714	1416.7
592.915	1442.85
593.116	1431.23
593.317	1440.53
593.518	1454.28
593.719	1445.18
593.92	1503.49
594.121	1480.83
594.322	1436.85
594.523	1452.35
594.724	1382.4
594.925	1412.82
595.126	1432.39
595.327	1420.96
595.528	1436.07
595.729	1439.36
595.929	1406.43
596.13	1405.26
596.331	1442.66
596.532	1441.5
596.733	1523.45
596.934	1461.65
597.135	1461.65
597.335	1466.1
597.536	1399.06
597.737	1452.54
597.938	1396.74
598.138	1414.76
598.339	1426.19
598.54	1441.69
598.74	1443.24
598.941	1442.27
599.142	1486.44
599.342	1463.2
599.543	1428.51
599.744	1453.31
599.944	1424.83
600.145	1441.11
600.345	1448.28
600.546	1526.16
600.746	1459.51
600.947	1496.71
601.147	1419.8
601.348	1484.51
601.548	1402.36
601.749	1442.27
601.949	1381.24
602.15	1400.23
602.35	1401.97
602.551	1463.78
602.751	1406.62
602.951	1394.22
603.152	1330.09
603.352	1438.98
603.552	1409.91
603.753	1447.5
603.953	1457.19
604.153	1413.4
604.354	1400.03
604.554	1440.91
604.754	1449.63
604.954	1372.33
605.155	1476.18
605.355	1392.28
605.555	1473.85
605.755	1488.96
605.955	1414.56
606.155	1401.97
606.356	1402.16
606.556	1411.85
606.756	1400.03
606.956	1379.11
607.156	1463
607.356	1393.45
607.556	1388.8
607.756	1393.64
607.956	1407.98
608.156	1403.91
608.356	1329.51
608.556	1436.85
608.756	1380.85
608.956	1367.1
609.156	1366.9
609.356	1377.37
609.556	1323.7
609.755	1357.41
609.955	1310.91
610.155	1363.22
610.355	1320.4
610.555	1319.24
610.755	1312.46
610.954	1258.6
611.154	1337.26
611.354	1329.7
611.554	1301.61
611.753	1313.23
611.953	1288.05
612.153	1360.12
612.352	1317.3
612.552	1262.09
612.752	1259.95
612.951	1287.47
613.151	1307.62
613.351	1244.65
613.55	1274.68
613.75	1273.32
613.949	1236.9
614.149	1256.08
614.348	1259.57
614.548	1231.09
614.747	1159.21
614.947	1228.95
615.146	1186.52
615.346	1290.95
615.545	1266.15
615.745	1223.14
615.944	1272.55
616.144	1269.45
616.343	1255.69
616.542	1199.7
616.742	1195.63
616.941	1211.32
617.14	1154.17
617.34	1207.84
617.539	1204.93
617.738	1170.44
617.938	1278.75
618.137	1196.79
618.336	1199.7
618.535	1195.05
618.734	1217.72
618.934	1216.36
619.133	1203.57
619.332	1183.42
619.531	1199.31
619.73	1224.11
619.929	1231.09
620.128	1218.1
620.328	1256.85
620.527	1206.87
620.726	1175.29
620.925	1207.06
621.124	1192.92
621.323	1195.63
621.522	1162.69
621.721	1135.57
621.92	1148.36
622.119	1196.21
622.318	1105.54
622.517	1152.81
622.715	1134.02
622.914	1113.68
623.113	1141.96
623.312	1091.2
623.511	1136.92
623.71	1125.49
623.909	1120.65
624.107	1189.62
624.306	1069.11
624.505	1096.82
624.704	1083.64
624.902	1076.28
625.101	1147.19
625.3	1113.87
625.499	1095.85
625.697	1109.99
625.896	1049.16
626.095	1083.06
626.293	1044.31
626.492	1049.93
626.69	1118.52
626.889	1068.53
627.088	1085.58
627.286	1081.51
627.485	1043.54
627.683	1055.36
627.882	1076.86
628.08	1009.63
628.279	1013.7
628.477	1076.09
628.676	999.95
628.874	1063.11
629.073	989.1
629.271	997.23
629.469	1054
629.668	1037.73
629.866	986.38
630.065	994.33
630.263	1024.94
630.461	992.39
630.66	1033.27
630.858	1022.23
631.056	1094.11
631.254	1041.79
631.453	985.41
631.651	1065.04
631.849	1015.83
632.047	1062.14
632.245	1028.04
632.444	1023.58
632.642	1064.27
632.84	1055.94
633.038	1035.01
633.236	1011.18
633.434	1019.32
633.632	1003.24
633.83	1035.6
634.028	1042.57
634.227	1055.16
634.425	1098.95
634.623	1054.39
634.821	1049.54
635.019	1045.67
635.216	1041.6
635.414	1065.43
635.612	1052.84
635.81	1030.75
636.008	1098.95
636.206	1029.2
636.404	1066.79
636.602	1012.35
636.8	1069.11
636.997	1055.36
637.195	1068.73
637.393	1015.83
637.591	1077.64
637.789	1056.52
637.986	1009.05
638.184	1045.86
638.382	1064.08
638.58	1036.56
638.777	1086.74
638.975	1011.96
639.173	1021.26
639.37	999.17
639.568	1033.08
639.765	1049.74
639.963	1023.58
640.161	1072.6
640.358	1062.33
640.556	974.18
640.753	1005.95
640.951	975.53
641.148	1011.38
641.346	946.47
641.543	966.62
641.741	1009.25
641.938	957.71
642.136	968.17
642.333	951.51
642.531	1029.2
642.728	1039.08
642.925	975.73
643.123	960.03
643.32	960.42
643.517	965.85
643.715	951.7
643.912	948.02
644.109	940.66
644.306	936.98
644.504	900.94
644.701	952.67
644.898	962.36
645.095	914.89
645.293	918.38
645.49	938.92
645.687	918.96
645.884	935.82
646.081	859.67
646.278	902.49
646.475	883.12
646.672	875.75
646.87	908.11
647.067	883.89
647.264	867.42
647.461	831
647.658	803.68
647.855	880.21
648.052	813.17
648.249	765.71
648.446	833.9
648.642	823.05
648.839	805.81
649.036	809.1
649.233	748.85
649.43	787.4
649.627	739.16
649.824	778.3
650.021	766.29
650.217	780.43
650.414	775.59
650.611	807.75
650.808	799.03
651.004	824.41
651.201	819.76
651.398	857.93
651.595	797.67
651.791	778.88
651.988	822.67
652.185	788.57
652.381	811.82
652.578	747.49
652.775	770.55
652.971	776.36
653.168	790.7
653.364	795.15
653.561	743.04
653.757	769.39
653.954	786.82
654.15	736.64
654.347	839.52
654.543	778.69
654.74	755.63
654.936	722.31
655.133	781.59
655.329	772.29
655.525	747.49
655.722	781.2
655.918	704.87
656.115	754.66
656.311	652.56
656.507	625.63
656.704	620.39
656.9	682.78
657.096	652.75
657.292	652.36
657.489	694.6
657.685	721.34
657.881	684.72
658.077	723.86
658.273	704.67
658.47	770.94
658.666	721.92
658.862	746.33
659.058	718.04
659.254	758.54
659.45	710.87
659.646	728.51
659.842	740.91
660.038	749.43
660.234	706.03
660.43	723.66
660.626	764.93
660.822	766.67
661.018	724.05
661.214	739.74
661.41	713.01
661.606	731.41
661.802	760.09
661.998	706.81
662.194	723.27
662.39	725.6
662.586	712.62
662.781	732.57
662.977	730.44
663.173	756.99
663.369	729.86
663.564	732.19
663.76	723.66
663.956	690.53
664.152	712.42
664.347	671.35
664.543	669.99
664.739	674.84
664.934	611.48
665.13	610.51
665.326	695.18
665.521	673.87
665.717	638.03
665.912	626.59
666.108	595.79
666.304	623.49
666.499	652.17
666.695	616.52
666.89	625.04
667.086	654.88
667.281	664.76
667.477	672.13
667.672	643.26
667.867	643.45
668.063	628.92
668.258	595.01
668.454	613.03
668.649	692.86
668.844	644.81
669.04	655.27
669.235	632.6
669.43	641.13
669.626	579.13
669.821	597.53
670.016	599.47
670.211	618.84
670.407	577.96
670.602	645.39
670.797	616.13
670.992	641.9
671.187	579.32
671.382	635.51
671.578	577.96
671.773	595.4
671.968	546.77
672.163	600.25
672.358	635.31
672.553	570.21
672.748	593.08
672.943	621.17
673.138	557.81
673.333	588.23
673.528	572.15
673.723	610.9
673.918	613.61
674.113	527.98
674.308	635.7
674.503	607.03
674.698	624.85
674.892	580.29
675.087	607.61
675.282	604.89
675.477	595.79
675.672	605.28
675.867	563.05
676.061	529.53
676.256	538.63
676.451	540.38
676.646	620.78
676.84	546.96
677.035	563.63
677.23	529.14
677.424	573.9
677.619	611.29
677.814	617.1
678.008	583.2
678.203	527.98
678.397	539.8
678.592	583.97
678.787	599.86
678.981	583.97
679.176	569.25
679.37	550.06
679.565	544.64
679.759	564.6
679.954	597.15
680.148	621.94
680.342	623.88
680.537	585.13
680.731	593.46
680.926	575.25
681.12	601.99
681.314	581.65
681.509	570.6
681.703	574.09
681.897	587.46
682.092	558.4
682.286	555.68
682.48	656.04
682.674	619.43
682.869	572.73
683.063	584.55
683.257	654.11
683.451	554.13
683.645	595.01
683.839	574.86
684.034	585.52
684.228	631.05
684.422	557.43
684.616	563.82
684.81	622.33
685.004	606.25
685.198	578.74
685.392	632.99
685.586	589.2
685.78	611.48
685.974	628.53
686.168	630.86
686.362	653.53
686.556	568.66
686.75	535.92
686.944	556.26
687.138	571.57
687.331	468.69
687.525	479.54
687.719	437.11
687.913	507.25
688.107	505.5
688.301	524.3
688.494	509.57
688.688	520.81
688.882	485.16
689.076	496.98
689.269	537.86
689.463	592.3
689.657	533.4
689.85	561.88
690.044	553.16
690.238	580.68
690.431	577.58
690.625	549.68
690.818	598.11
691.012	616.91
691.205	677.74
691.399	615.55
691.593	678.33
691.786	699.44
691.98	720.76
692.173	753.5
692.366	750.21
692.56	752.14
692.753	788.18
692.947	710.87
693.14	815.3
693.333	773.65
693.527	750.21
693.72	789.54
693.914	775.39
694.107	781.2
694.3	806
694.493	809.1
694.687	880.21
694.88	806.39
695.073	871.49
695.266	906.95
695.46	889.12
695.653	926.9
695.846	957.32
696.039	900.55
696.232	932.91
696.425	988.13
696.618	1015.64
696.812	1025.33
697.005	1100.31
697.198	1158.04
697.391	1102.05
697.584	1155.33
697.777	1178.97
697.97	1170.44
698.163	1191.37
698.356	1158.62
698.549	1232.44
698.742	1226.44
698.935	1178.19
699.127	1174.9
699.32	1179.55
699.513	1219.07
699.706	1283.98
699.899	1277.2
700.092	1228.76
700.285	1267.7
700.477	1176.64
700.67	1291.34
700.863	1286.5
701.056	1363.03
701.248	1330.48
701.441	1412.63
701.634	1342.3
701.826	1471.72
702.019	1351.6
702.212	1442.85
702.404	1398.87
702.597	1385.89
702.79	1428.71
702.982	1464.55
703.175	1502.91
703.367	1474.24
703.56	1505.43
703.752	1649
703.945	1540.11
704.137	1580.99
704.33	1619.74
704.522	1632.14
704.715	1638.54
704.907	1686.97
705.1	1687.36
705.292	1689.88
705.484	1677.48
705.677	1712.55
705.869	1771.45
706.061	1783.85
706.254	1815.62
706.446	1757.5
706.638	1775.52
706.831	1848.95
707.023	1832.67
707.215	1894.28
707.407	1897.19
707.599	1888.86
707.792	1948.92
707.984	1927.8
708.176	1974.69
708.368	1966.16
708.56	1973.72
708.752	1991.54
708.944	1979.53
709.136	2009.37
709.329	1994.64
709.521	2123.68
709.713	2067.49
709.905	2095.2
710.097	2126.39
710.289	2101.98
710.481	2114.57
710.672	2152.94
710.864	2142.28
711.056	2205.63
711.248	2220.36
711.44	2169.79
711.632	2201.57
711.824	2199.05
712.016	2290.11
712.207	2263.76
712.399	2270.54
712.591	2287.98
712.783	2318.59
712.975	2354.24
713.166	2267.05
713.358	2326.53
713.55	2384.66
713.741	2380.39
713.933	2366.06
714.125	2387.56
714.316	2365.28
714.508	2450.14
714.7	2405.19
714.891	2412.36
715.083	2430.77
715.274	2369.16
715.466	2405.58
715.657	2420.69
715.849	2374
716.04	2394.34
716.232	2359.28
716.423	2386.79
716.615	2303.48
716.806	2246.13
716.998	2194.2
717.189	2109.92
717.381	2031.26
717.572	1999.68
717.763	2027.97
717.955	1981.86
718.146	1932.84
718.337	1915.59
718.528	1850.3
718.72	1774.74
718.911	1836.16
719.102	1751.3
719.293	1878.98
719.485	1808.07
719.676	1806.32
719.867	1760.79
720.058	1764.08
720.249	1737.93
720.44	1800.12
720.632	1905.33
720.823	1886.53
721.014	2065.75
721.205	2083.57
721.396	2138.02
721.587	2213.97
721.778	2246.32
721.969	2329.44
722.16	2430.96
722.351	2393.38
722.542	2505.17
722.733	2561.94
722.924	2442.39
723.115	2498.19
723.305	2408.49
723.496	2466.81
723.687	2313.16
723.878	2330.41
724.069	2328.86
724.26	2336.41
724.45	2277.51
724.641	2246.13
724.832	2279.84
725.023	2261.63
725.213	2252.33
725.404	2220.36
725.595	2221.13
725.785	2239.93
725.976	2286.23
726.167	2289.72
726.357	2271.9
726.548	2394.54
726.739	2288.75
726.929	2375.36
727.12	2412.36
727.31	2395.12
727.501	2349.01
727.691	2376.13
727.882	2382.14
728.072	2417.4
728.263	2409.84
728.453	2476.88
728.644	2490.25
728.834	2441.81
729.024	2433.09
729.215	2423.79
729.405	2478.43
729.596	2554.19
729.786	2517.37
729.976	2557.87
730.167	2563.68
730.357	2540.04
730.547	2537.52
730.737	2549.15
730.928	2605.72
731.118	2650.48
731.308	2597.39
731.498	2601.85
731.688	2639.63
731.879	2662.68
732.069	2778.16
732.259	2789.01
732.449	2812.45
732.639	2919.21
732.829	2905.06
733.019	2954.86
733.209	3032.94
733.399	3009.1
733.589	3133.88
733.779	3123.42
733.969	3159.45
734.159	3231.72
734.349	3212.93
734.539	3266.79
734.729	3291.2
734.919	3352.42
735.109	3357.07
735.299	3270.28
735.488	3337.7
735.678	3311.93
735.868	3271.24
736.058	3302.05
736.248	3293.72
736.437	3264.85
736.627	3205.56
736.817	3415
737.007	3336.92
737.196	3398.54
737.386	3309.03
737.576	3308.64
737.765	3417.72
737.955	3351.65
738.144	3522.73
738.334	3422.95
738.524	3368.89
738.713	3446.78
738.903	3462.47
739.092	3446
739.282	3433.6
739.471	3475.45
739.661	3486.69
739.85	3541.13
740.04	3516.33
740.229	3538.62
740.419	3541.33
740.608	3593.06
740.797	3538.23
740.987	3646.73
741.176	3585.5
741.365	3564.19
741.555	3580.27
741.744	3663.39
741.933	3620.96
742.123	3663
742.312	3631.03
742.501	3654.28
742.69	3682.57
742.88	3642.46
743.069	3707.18
743.258	3675.01
743.447	3749.03
743.636	3689.54
743.825	3656.03
744.014	3722.48
744.204	3786.81
744.393	3695.55
744.582	3757.74
744.771	3805.99
744.96	3733.53
745.149	3762.59
745.338	3732.56
745.527	3804.05
745.716	3748.83
745.905	3746.7
746.094	3777.51
746.283	3829.04
746.471	3780.61
746.66	3833.5
746.849	3785.64
747.038	3812.38
747.227	3791.07
747.416	3825.17
747.604	3729.65
747.793	3779.83
747.982	3802.11
748.171	3833.31
748.359	3773.82
748.548	3782.74
748.737	3827.69
748.926	3779.06
749.114	3685.09
749.303	3754.26
749.491	3767.82
749.68	3685.09
749.869	3839.89
750.057	3717.06
750.246	3715.51
750.434	3754.06
750.623	3684.12
750.811	3752.71
751	3752.12
751.188	3722.68
751.377	3711.63
751.565	3700.59
751.754	3679.08
751.942	3690.13
752.131	3757.36
752.319	3693.81
752.507	3640.72
752.696	3700.2
752.884	3730.23
753.072	3690.32
753.261	3705.63
753.449	3722.09
753.637	3665.33
753.825	3747.09
754.014	3667.65
754.202	3647.89
754.39	3743.02
754.578	3636.46
754.766	3650.21
754.955	3597.9
755.143	3687.8
755.331	3640.72
755.519	3609.91
755.707	3668.43
755.895	3636.85
756.083	3649.63
756.271	3540.36
756.459	3588.21
756.647	3634.13
756.835	3567.1
757.023	3600.23
757.211	3605.65
757.399	3551.4
757.587	3565.74
757.775	3529.12
757.963	3518.85
758.151	3551.6
758.339	3480.49
758.526	3548.5
758.714	3565.93
758.902	3418.1
759.09	3259.81
759.278	3071.88
759.465	2809.93
759.653	2494.32
759.841	2206.8
760.028	1881.69
760.216	1652.1
760.404	1541.66
760.591	1262.67
760.779	1069.11
760.967	933.49
761.154	755.63
761.342	767.06
761.529	773.65
761.717	843.59
761.905	817.82
762.092	905.98
762.28	823.25
762.467	812.4
762.655	732.57
762.842	747.11
763.029	764.54
763.217	772.68
763.404	770.36
763.592	806.97
763.779	758.54
763.966	825.57
764.154	848.82
764.341	911.6
764.528	919.73
764.716	984.83
764.903	1010.02
765.09	1135.57
765.277	1161.92
765.465	1337.84
765.652	1364.19
765.839	1461.26
766.026	1578.28
766.213	1649
766.4	1785.78
766.588	1941.75
766.775	1948.53
766.962	2087.64
767.149	2209.7
767.336	2321.3
767.523	2306.77
767.71	2468.55
767.897	2577.82
768.084	2637.5
768.271	2673.34
768.458	2763.63
768.645	2820.2
768.832	2760.53
769.019	2862.05
769.206	2823.69
769.392	2994.96
769.579	3049.99
769.766	3017.44
769.953	2968.8
770.14	3061.42
770.327	3066.26
770.513	3120.7
770.7	3156.16
770.887	3115.08
771.073	3134.46
771.26	3132.72
771.447	3118.18
771.634	3092.03
771.82	3181.73
772.007	3087.18
772.193	3120.32
772.38	3186.58
772.567	3089.7
772.753	3141.24
772.94	3186
773.126	3196.07
773.313	3163.13
773.499	3127.87
773.686	3194.52
773.872	3113.53
774.059	3172.24
774.245	3106.37
774.432	3130.58
774.618	3066.26
774.804	3123.8
774.991	3067.42
775.177	3145.11
775.363	3086.22
775.55	3129.42
775.736	3091.25
775.922	3093.19
776.109	3093.77
776.295	3073.23
776.481	3106.75
776.667	3093.58
776.853	3069.36
777.04	3046.3
777.226	3081.18
777.412	3152.86
777.598	3012.01
777.784	3041.85
777.97	3035.65
778.156	3084.67
778.342	3042.43
778.528	3046.89
778.715	2963.38
778.901	2988.76
779.087	2999.61
779.272	2989.34
779.458	2942.65
779.644	2993.41
779.83	2978.3
780.016	3044.17
780.202	3015.5
780.388	2957.57
780.574	2929.86
780.76	2943.23
780.946	3009.3
781.131	2953.89
781.317	2944.97
781.503	2896.73
781.689	2902.54
781.874	3027.7
782.06	2898.28
782.246	2933.16
782.432	2901.38
782.617	2957.37
782.803	2969
782.989	2865.73
783.174	2893.44
783.36	2839.58
783.545	2846.55
783.731	2822.53
783.916	2779.32
784.102	2842.68
784.288	2800.05
784.473	2825.04
784.659	2762.08
784.844	2845.97
785.029	2789.01
785.215	2803.93
785.4	2743.28
785.586	2829.31
785.771	2720.42
785.956	2812.64
786.142	2765.95
786.327	2717.51
786.512	2742.31
786.698	2751.03
786.883	2665.01
787.068	2692.72
787.254	2709.38
787.439	2683.42
787.624	2676.63
787.809	2680.7
787.994	2639.43
788.18	2739.6
788.365	2622.58
788.55	2660.17
788.735	2650.87
788.92	2609.6
789.105	2618.7
789.29	2613.67
789.475	2538.88
789.66	2569.49
789.845	2544.89
790.03	2489.28
790.215	2566.2
790.4	2581.31
790.585	2629.36
790.77	2560.39
790.955	2459.64
791.14	2512.53
791.325	2597.97
791.51	2458.09
791.695	2524.74
791.879	2503.62
792.064	2505.36
792.249	2558.06
792.434	2502.07
792.618	2513.11
792.803	2547.4
792.988	2496.06
793.173	2513.31
793.357	2540.82
793.542	2481.72
793.727	2536.94
793.911	2560
794.096	2524.54
794.281	2527.84
794.465	2624.52
794.65	2568.14
794.834	2600.1
795.019	2615.6
795.203	2610.76
795.388	2601.65
795.572	2589.25
795.757	2582.47
795.941	2560
796.126	2578.4
796.31	2500.13
796.494	2533.07
796.679	2520.67
796.863	2477.07
797.048	2579.76
797.232	2564.26
797.416	2584.99
797.601	2573.37
797.785	2603.2
797.969	2592.16
798.153	2516.6
798.338	2561.94
798.522	2615.41
798.706	2620.45
798.89	2655.32
799.074	2686.52
799.258	2663.27
799.443	2621.8
799.627	2590.03
799.811	2652.42
799.995	2596.04
800.179	2584.6
800.363	2594.1
800.547	2592.16
800.731	2586.15
800.915	2505.36
801.099	2498.77
801.283	2491.02
801.467	2531.32
801.651	2536.36
801.835	2589.84
802.019	2561.16
802.202	2568.14
802.386	2543.34
802.57	2496.26
802.754	2523.77
802.938	2499.74
803.121	2521.25
803.305	2573.56
803.489	2534.04
803.673	2589.25
803.856	2567.17
804.04	2563.87
804.224	2575.3
804.407	2501.49
804.591	2513.31
804.775	2544.69
804.958	2541.98
805.142	2644.28
805.326	2568.91
805.509	2572.59
805.693	2584.22
805.876	2625.68
806.06	2597
806.243	2593.52
806.427	2598.17
806.61	2643.7
806.794	2599.91
806.977	2598.36
807.16	2584.41
807.344	2587.12
807.527	2583.64
807.71	2557.29
807.894	2582.86
808.077	2582.67
808.26	2545.47
808.444	2515.82
808.627	2595.26
808.81	2533.45
808.993	2470.87
809.177	2472.62
809.36	2490.25
809.543	2524.93
809.726	2438.91
809.909	2430.96
810.092	2432.32
810.276	2416.82
810.459	2414.88
810.642	2361.21
810.825	2359.66
811.008	2376.71
811.191	2272.28
811.374	2306.38
811.557	2308.32
811.74	2373.42
811.923	2252.13
812.106	2235.28
812.289	2199.24
812.472	2193.23
812.654	2200.79
812.837	2159.14
813.02	2112.64
813.203	2114.77
813.386	1961.32
813.569	1990.38
813.751	1953.38
813.934	1969.65
814.117	1952.99
814.3	1863.86
814.482	1835.77
814.665	1795.08
814.848	1745.48
815.03	1738.9
815.213	1703.25
815.396	1697.44
815.578	1694.34
815.761	1661.59
815.943	1717.78
816.126	1578.09
816.309	1592.42
816.491	1522.48
816.674	1471.33
816.856	1556.39
817.039	1521.32
817.221	1580.22
817.403	1530.81
817.586	1542.05
817.768	1530.43
817.951	1467.26
818.133	1496.33
818.315	1495.74
818.498	1530.04
818.68	1594.36
818.862	1583.9
819.045	1609.28
819.227	1562.78
819.409	1575.57
819.591	1581.77
819.774	1605.6
819.956	1550.58
820.138	1614.32
820.32	1625.36
820.502	1689.88
820.684	1767.18
820.866	1742.58
821.048	1812.33
821.231	1802.25
821.413	1832.48
821.595	1745.1
821.777	1797.02
821.959	1772.42
822.141	1841.39
822.323	1696.66
822.505	1651.91
822.686	1589.91
822.868	1519.58
823.05	1413.4
823.232	1405.65
823.414	1318.08
823.596	1382.21
823.778	1361.09
823.96	1434.33
824.141	1393.06
824.323	1420.57
824.505	1556.78
824.687	1573.05
824.868	1629.62
825.05	1679.8
825.232	1759.43
825.413	1828.6
825.595	1750.52
825.777	1718.75
825.958	1729.4
826.14	1722.62
826.321	1782.1
826.503	1738.7
826.685	1764.28
826.866	1786.75
827.048	1748.97
827.229	1695.89
827.411	1704.22
827.592	1606.76
827.773	1633.69
827.955	1555.42
828.136	1601.92
828.318	1581.19
828.499	1577.12
828.68	1554.84
828.862	1556
829.043	1554.06
829.224	1538.37
829.406	1548.64
829.587	1556.78
829.768	1545.73
829.949	1583.71
830.131	1561.62
830.312	1575.76
830.493	1562.78
830.674	1571.11
830.855	1550.38
831.036	1536.24
831.218	1627.3
831.399	1638.34
831.58	1581.77
831.761	1573.82
831.942	1568.98
832.123	1556
832.304	1530.81
832.485	1536.43
832.666	1580.02
832.847	1590.29
833.028	1573.44
833.209	1562.59
833.389	1561.23
833.57	1492.64
833.751	1545.34
833.932	1586.61
834.113	1569.17
834.294	1578.47
834.475	1609.67
834.655	1631.56
834.836	1618
835.017	1612.57
835.198	1575.18
835.378	1587.97
835.559	1655.97
835.74	1606.57
835.92	1591.46
836.101	1587
836.281	1624.01
836.462	1598.82
836.643	1652.29
836.823	1667.6
837.004	1666.05
837.184	1683.29
837.365	1677.87
837.545	1644.35
837.726	1637.76
837.906	1709.45
838.087	1634.27
838.267	1669.92
838.448	1647.06
838.628	1659.65
838.808	1633.31
838.989	1704.41
839.169	1623.04
839.349	1677.29
839.53	1670.89
839.71	1662.37
839.89	1670.12
840.07	1674.38
840.251	1640.28
840.431	1681.35
840.611	1679.61
840.791	1633.5
840.971	1665.27
841.151	1657.33
841.332	1593.59
841.512	1694.92
841.692	1600.95
841.872	1664.11
842.052	1631.37
842.232	1653.45
842.412	1586.42
842.592	1653.26
842.772	1654.81
842.952	1648.42
843.132	1619.94
843.312	1579.64
843.492	1608.31
843.672	1667.99
843.851	1583.12
844.031	1621.29
844.211	1590.29
844.391	1581.77
844.571	1638.92
844.751	1596.3
844.93	1602.11
845.11	1592.42
845.29	1602.69
845.47	1604.82
845.649	1600.56
845.829	1655.39
846.009	1569.76
846.188	1632.34
846.368	1609.86
846.547	1593.97
846.727	1660.24
846.907	1579.44
847.086	1600.76
847.266	1617.81
847.445	1586.22
847.625	1557.74
847.804	1537.21
847.984	1587.77
848.163	1561.04
848.343	1554.45
848.522	1577.31
848.701	1594.36
848.881	1526.94
849.06	1562.78
849.239	1563.36
849.419	1570.92
849.598	1462.81
849.777	1497.29
849.957	1469.2
850.136	1391.51
850.315	1397.9
850.494	1415.34
850.674	1426
850.853	1472.3
851.032	1427.35
851.211	1493.61
851.39	1451.76
851.569	1385.7
851.748	1420.96
851.927	1486.83
852.107	1447.11
852.286	1416.11
852.465	1421.35
852.644	1422.12
852.823	1428.32
853.002	1421.93
853.181	1454.67
853.359	1466.88
853.538	1379.88
853.717	1460.29
853.896	1351.4
854.075	1320.98
854.254	1296.38
854.433	1222.56
854.611	1238.84
854.79	1231.09
854.969	1284.17
855.148	1308
855.327	1261.31
855.505	1326.22
855.684	1295.22
855.863	1293.28
856.041	1282.82
856.22	1312.27
856.399	1279.52
856.577	1387.05
856.756	1363.8
856.934	1509.89
857.113	1486.06
857.291	1395.19
857.47	1406.43
857.648	1399.06
857.827	1380.66
858.005	1412.05
858.184	1343.85
858.362	1454.86
858.541	1421.35
858.719	1401
858.898	1372.52
859.076	1368.45
859.254	1445.37
859.433	1382.02
859.611	1320.21
859.789	1310.72
859.967	1376.4
860.146	1407.4
860.324	1309.17
860.502	1372.91
860.68	1345.4
860.859	1335.9
861.037	1332.42
861.215	1386.86
861.393	1348.5
861.571	1357.99
861.749	1271.58
861.927	1347.53
862.105	1334.35
862.283	1329.7
862.461	1326.02
862.639	1291.73
862.817	1340.17
862.995	1319.63
863.173	1291.34
863.351	1290.18
863.529	1316.53
863.707	1315.37
863.885	1315.75
864.063	1277.2
864.241	1271.39
864.418	1339.97
864.596	1296.96
864.774	1254.72
864.952	1294.83
865.129	1288.05
865.307	1253.37
865.485	1245.04
865.663	1261.89
865.84	1192.53
866.018	1202.8
866.196	1110.58
866.373	1071.24
866.551	1093.53
866.728	1024.94
866.906	1088.68
867.084	1104.38
867.261	1149.71
867.439	1132.66
867.616	1165.99
867.794	1179.16
867.971	1185.56
868.149	1154.17
868.326	1197.18
868.503	1209.77
868.681	1183.42
868.858	1184.01
869.035	1153.59
869.213	1204.54
869.39	1139.44
869.567	1242.9
869.745	1143.51
869.922	1151.65
870.099	1183.23
870.276	1190.01
870.454	1190.4
870.631	1223.34
870.808	1178
870.985	1187.3
871.162	1254.34
871.339	1222.75
871.517	1150.1
871.694	1165.99
871.871	1158.04
872.048	1160.37
872.225	1134.41
872.402	1190.59
872.579	1139.44
872.756	1154.75
872.933	1100.11
873.11	1139.06
873.287	1172.57
873.463	1130.14
873.64	1118.13
873.817	1134.41
873.994	1122.59
874.171	1079.96
874.348	1088.88
874.524	1079.77
874.701	1083.84
874.878	1061.75
875.055	1134.6
875.231	1101.08
875.408	1096.63
875.585	1021.45
875.762	1103.99
875.938	1099.53
876.115	1055.36
876.291	1049.74
876.468	1103.99
876.645	1029.4
876.821	1092.94
876.998	1050.51
877.174	1098.56
877.351	1066.98
877.527	1058.65
877.704	1057.29
877.88	1070.47
878.057	1049.54
878.233	1081.71
878.409	1009.25
878.586	1070.28
878.762	1023.78
878.938	1037.15
879.115	978.25
879.291	1047.8
879.467	987.35
879.644	986.77
879.82	1063.88
879.996	1022.81
880.172	952.48
880.349	995.68
880.525	1012.93
880.701	944.53
880.877	953.25
881.053	996.46
881.229	990.06
881.405	1024.16
881.581	988.71
881.757	1009.44
881.933	992.2
882.109	1019.9
882.285	996.65
882.461	958.48
882.637	989.1
882.813	969.14
882.989	995.3
883.165	1028.04
883.341	959.26
883.517	1014.09
883.693	1022.03
883.869	1036.37
884.044	973.98
884.22	1000.91
884.396	1033.27
884.572	1013.12
884.747	1018.16
884.923	994.91
885.099	986
885.275	1036.18
885.45	978.05
885.626	999.75
885.801	960.81
885.977	954.61
886.153	948.99
886.328	980.76
886.504	940.27
886.679	1012.54
886.855	949.38
887.03	982.12
887.206	1005.76
887.381	989.1
887.557	1006.53
887.732	1029.59
887.908	987.93
888.083	990.65
888.258	945.12
888.434	978.83
888.609	998.4
888.784	1015.25
888.96	925.74
889.135	974.37
889.31	932.91
889.485	956.93
889.661	954.61
889.836	1030.17
890.011	976.11
890.186	986
890.361	936.2
890.537	1009.44
890.712	974.95
890.887	1003.24
891.062	965.85
891.237	1023.2
891.412	954.03
891.587	986.77
891.762	1020.68
891.937	996.65
892.112	928.07
892.287	961.58
892.462	907.14
892.637	912.95
892.812	857.93
892.987	878.85
893.161	883.7
893.336	898.42
893.511	901.72
893.686	896.68
893.861	866.26
894.035	881.57
894.21	847.66
894.385	831.19
894.56	846.5
894.734	814.14
894.909	789.54
895.084	801.16
895.258	799.8
895.433	768.81
895.608	763.96
895.782	738.19
895.957	737.61
896.131	738.77
896.306	702.16
896.48	678.91
896.655	657.01
896.829	607.99
897.004	617.1
897.178	649.65
897.353	621.56
897.527	670.58
897.701	637.83
897.876	614.97
898.05	688.4
898.224	658.18
898.399	691.5
898.573	629.89
898.747	515.58
898.921	580.48
899.096	488.26
899.27	503.95
899.444	526.23
899.618	537.08
899.792	553.94
899.967	546.77
900.141	611.09
900.315	524.49
900.489	539.02
900.663	542.12
900.837	546.96
901.011	506.47
901.185	593.27
901.359	521.97
901.533	605.86
901.707	549.1
901.881	548.71
902.055	502.4
902.229	509.77
902.403	596.37
902.576	585.13
902.75	555.49
902.924	643.84
903.098	611.87
903.272	621.56
903.446	684.33
903.619	647.13
903.793	687.82
903.967	684.33
904.14	714.17
904.314	720.76
904.488	691.69
904.661	729.28
904.835	704.48
905.009	748.66
905.182	775.97
905.356	747.3
905.529	737.81
905.703	680.07
905.876	672.71
906.05	629.11
906.223	607.99
906.397	572.15
906.57	549.48
906.744	576.41
906.917	540.96
907.09	538.44
907.264	568.28
907.437	515.38
907.61	501.05
907.784	518.48
907.957	508.41
908.13	492.13
908.304	552.2
908.477	494.85
908.65	523.52
908.823	447.18
908.996	526.04
909.17	496.2
909.343	481.28
909.516	478.77
909.689	484.97
909.862	473.34
910.035	482.83
910.208	443.12
910.381	457.07
910.554	544.64
910.727	482.64
910.9	441.57
911.073	465.78
911.246	530.11
911.419	531.08
911.592	509.38
911.765	454.16
911.938	471.6
912.11	495.62
912.283	478.96
912.456	524.3
912.629	477.02
912.802	468.3
912.974	417.15
913.147	387.12
913.32	341.4
913.493	370.07
913.665	379.95
913.838	438.08
914.01	445.25
914.183	421.22
914.356	383.05
914.528	461.52
914.701	502.21
914.873	447.77
915.046	378.79
915.218	393.71
915.391	322.22
915.563	329.77
915.736	395.84
915.908	393.9
916.081	389.06
916.253	394.87
916.425	446.41
916.598	436.92
916.77	414.44
916.942	358.45
917.115	329.97
917.287	404.37
917.459	370.27
917.632	317.57
917.804	316.21
917.976	429.17
918.148	353.8
918.32	390.22
918.493	414.64
918.665	450.67
918.837	446.99
919.009	467.33
919.181	453
919.353	452.42
919.525	405.92
919.697	440.98
919.869	430.13
920.041	491.94
920.213	569.05
920.385	467.92
920.557	424.9
920.729	460.75
920.901	471.21
921.073	459.2
921.244	447.77
921.416	481.28
921.588	467.53
921.76	416.19
921.932	495.43
922.103	456.48
922.275	452.8
922.447	449.9
922.619	372.98
922.79	429.75
922.962	434.01
923.134	434.4
923.305	370.27
923.477	394.49
923.648	393.9
923.82	386.35
923.991	366
924.163	338.49
924.335	397.59
924.506	345.85
924.677	425.29
924.849	363.29
925.02	388.48
925.192	399.52
925.363	384.22
925.535	371.04
925.706	350.5
925.877	412.12
926.049	348.57
926.22	366.78
926.391	376.85
926.562	391.19
926.734	373.17
926.905	383.83
927.076	309.82
927.247	369.69
927.419	300.91
927.59	304.78
927.761	307.49
927.932	274.36
928.103	331.71
928.274	272.42
928.445	258.47
928.616	252.86
928.787	263.51
928.958	275.33
929.129	263.9
929.3	241.43
929.471	207.91
929.642	165.09
929.813	158.89
929.984	246.85
930.155	149.2
930.326	184.85
930.496	173.81
930.667	118.98
930.838	161.6
931.009	133.7
931.18	148.43
931.35	131.76
931.521	159.47
931.692	88.95
931.863	61.82
932.033	110.26
932.204	122.46
932.374	120.72
932.545	71.32
932.716	119.95
932.886	111.03
933.057	32.57
933.227	36.44
933.398	119.36
933.568	38.77
933.739	34.7
933.909	21.33
934.08	86.81
934.25	-1.34
934.421	33.73
934.591	65.5
934.761	37.02
934.932	-22.46
935.102	42.25
935.272	19.58
935.443	65.7
935.613	10.28
935.783	59.3
935.953	31.21
936.123	182.53
936.294	-11.8
936.464	32.37
936.634	59.69
936.804	-20.52
936.974	-9.09
937.144	42.83
937.314	40.32
937.484	33.15
937.655	21.33
937.825	66.67
937.995	13.19
938.165	82.94
938.334	21.33
938.504	70.93
938.674	42.25
938.844	47.29
939.014	79.84
939.184	87.78
939.354	146.68
939.524	127.31
939.694	68.22
939.863	80.81
940.033	148.62
940.203	140.29
940.373	86.43
940.542	102.12
940.712	80.61
940.882	102.9
941.051	125.95
941.221	122.85
941.391	83.13
941.56	48.84
941.73	97.86
941.899	189.11
942.069	68.6
942.238	92.63
942.408	82.55
942.577	73.64
942.747	50
942.916	45.16
943.086	55.23
943.255	121.5
943.425	74.22
943.594	62.02
943.763	1.95
943.933	31.4
944.102	-5.99
944.271	51.55
944.441	74.8
944.61	31.6
944.779	64.92
944.948	117.04
945.117	19.39
945.287	44.58
945.456	-4.05
945.625	47.87
945.794	82.16
945.963	35.47
946.132	74.03
946.301	60.85
946.47	60.85
946.639	19.2
946.808	25.4
946.977	75
947.146	95.73
947.315	30.43
947.484	68.02
947.653	47.87
947.822	37.02
947.991	36.44
948.16	135.64
948.329	107.35
948.498	47.48
948.666	43.03
948.835	69.57
949.004	31.21
949.173	19.2
949.341	80.42
949.51	46.9
949.679	115.49
949.847	99.8
950.016	149.59
950.185	108.32
950.353	47.87
950.522	49.81
950.69	117.62
950.859	51.75
951.028	103.09
951.196	84.49
951.365	54.07
951.533	56.59
951.701	107.16
951.87	78.48
952.038	35.86
952.207	52.13
952.375	122.85
952.543	57.95
952.712	59.69
952.88	44.38
953.048	116.65
953.217	81.58
953.385	71.9
953.553	102.31
953.721	39.93
953.89	45.55
954.058	32.95
954.226	16.48
954.394	96.89
954.562	32.57
954.73	81.2
954.898	42.83
955.067	95.34
955.235	48.45
955.403	90.5
955.571	109.29
955.739	69.96
955.907	30.63
956.075	31.6
956.243	50
956.41	66.08
956.578	9.12
956.746	20.36
956.914	30.82
957.082	99.21
957.25	70.93
957.418	33.92
957.585	60.85
957.753	75.58
957.921	47.87
958.089	81.58
958.256	75.58
958.424	63.18
958.592	40.9
958.759	44.58
958.927	95.92
959.095	43.03
959.262	48.84
959.43	61.43
959.597	23.07
959.765	50.58
959.932	55.23
960.1	81.58
960.267	100.76
960.435	55.62
960.602	94.56
960.77	65.31
960.937	16.87
961.104	67.44
961.272	30.63
961.439	39.54
961.606	72.09
961.774	83.13
961.941	60.08
962.108	58.33
962.275	63.95
962.443	112.39
962.61	95.15
962.777	149.01
962.944	110.84
963.111	79.45
963.278	78.48
963.446	85.07
963.613	94.95
963.78	96.11
963.947	115.3
964.114	60.08
964.281	145.91
964.448	81.58
964.615	63.57
964.782	79.07
964.949	95.15
965.116	125.37
965.282	131.76
965.449	67.25
965.616	53.88
965.783	106.77
965.95	75.77
966.117	47.29
966.283	67.44
966.45	76.93
966.617	89.14
966.784	127.31
966.95	121.69
967.117	110.26
967.284	59.69
967.45	84.3
967.617	137.19
967.784	105.41
967.95	139.32
968.117	108.13
968.283	148.81
968.45	189.69
968.616	127.5
968.783	129.63
968.949	88.75
969.116	129.83
969.282	88.56
969.449	115.68
969.615	102.31
969.781	55.04
969.948	99.8
970.114	56.2
970.28	161.99
970.447	92.43
970.613	148.23
970.779	99.02
970.945	121.11
971.112	102.51
971.278	109.48
971.444	118.2
971.61	129.05
971.776	96.5
971.942	126.73
972.108	134.48
972.275	94.18
972.441	97.08
972.607	146.3
972.773	110.84
972.939	119.36
973.105	113.75
973.271	54.65
973.437	92.43
973.602	63.18
973.768	117.04
973.934	99.6
974.1	99.99
974.266	31.98
974.432	97.47
974.598	56.59
974.763	131.76
974.929	62.79
975.095	133.12
975.261	75
975.426	38.18
975.592	109.29
975.758	175.94
975.923	22.88
976.089	47.48
976.255	100.18
976.42	84.88
976.586	96.31
976.751	93.4
976.917	179.04
977.082	134.67
977.248	54.85
977.413	35.67
977.579	83.52
977.744	98.05
977.91	44.38
978.075	62.98
978.24	87.59
978.406	89.72
978.571	68.41
978.736	72.67
978.902	88.17
979.067	47.48
979.232	27.72
979.397	87.01
979.563	125.76
979.728	78.48
979.893	79.26
980.058	57.75
980.223	134.86
980.388	90.88
980.554	94.18
980.719	76.35
980.884	104.06
981.049	133.7
981.214	69.77
981.379	90.88
981.544	81.97
981.709	75.97
981.874	59.69
982.039	99.6
982.204	94.18
982.368	94.37
982.533	71.7
982.698	110.84
982.863	119.75
983.028	61.63
983.193	90.3
983.357	123.24
983.522	96.89
983.687	77.32
983.852	98.25
984.016	87.98
984.181	103.48
984.346	50.78
984.51	79.45
984.675	96.89
984.839	98.44
985.004	120.91
985.168	138.55
985.333	74.8
985.498	97.86
985.662	121.11
985.827	101.93
985.991	100.57
986.155	86.43
986.32	99.99
986.484	141.26
986.649	107.74
986.813	53.1
986.977	90.69
987.142	111.23
987.306	44
987.47	68.02
987.634	93.79
987.799	79.65
987.963	95.15
988.127	89.91
988.291	150.75
988.455	86.43
988.62	89.53
988.784	85.85
988.948	120.91
989.112	81.2
989.276	112.78
989.44	109.68
989.604	89.53
989.768	76.93
989.932	164.7
990.096	81.78
990.26	62.4
990.424	24.04
990.588	80.81
990.752	144.55
990.915	119.95
991.079	75
991.243	48.07
991.407	103.48
991.571	62.79
991.734	120.14
991.898	83.91
992.062	163.35
992.226	65.5
992.389	60.27
992.553	44.58
992.717	92.43
992.88	70.73
993.044	91.46
993.207	75.38
993.371	92.05
993.535	100.38
993.698	81.78
993.862	95.92
994.025	101.54
994.189	93.6
994.352	108.9
994.515	99.8
994.679	100.76
994.842	72.48
995.006	107.93
995.169	50.58
995.332	63.18
995.496	115.3
995.659	42.83
995.822	68.99
995.985	61.24
996.149	111.42
996.312	42.83
996.475	120.53
996.638	81.78
996.801	126.34
996.964	132.54
997.128	55.04
997.291	52.91
997.454	81
997.617	26.75
997.78	102.12
997.943	82.36
998.106	116.85
998.269	86.23
998.432	67.44
998.595	73.64
998.758	-2.89
998.92	46.9
999.083	29.47
999.246	55.43
999.409	19.78
999.572	27.72
999.735	47.68
999.897	70.35
1000.06	39.93
1000.223	37.02
1000.386	65.7
1000.548	76.74
1000.711	64.73
1000.874	104.45
1001.036	41.09
1001.199	69.38
1001.361	69.77
1001.524	45.16
1001.687	65.31
1001.849	53.88
1002.012	79.26
1002.174	48.65
1002.337	84.49
1002.499	41.09
1002.661	105.03
1002.824	38.96
1002.986	40.7
1003.149	75.38
1003.311	60.47
1003.473	124.21
1003.636	42.45
1003.798	90.5
1003.96	54.27
1004.123	30.63
1004.285	59.88
1004.447	68.22
1004.609	46.13
1004.771	99.6
1004.933	23.46
1005.096	18.03
1005.258	19.58
1005.42	38.38
1005.582	66.67
1005.744	62.02
1005.906	12.03
1006.068	44
1006.23	21.13
1006.392	20.36
1006.554	17.07
1006.716	95.92
1006.878	65.7
1007.04	5.25
1007.202	46.13
1007.363	28.5
1007.525	48.26
1007.687	66.86
1007.849	98.83
1008.011	18.23
1008.172	-12.77
1008.334	29.66
1008.496	65.31
1008.658	19.2
1008.819	25.01
1008.981	13.77
1009.143	37.8
1009.304	34.7
1009.466	56.98
1009.627	89.72
1009.789	142.03
1009.95	76.93
1010.112	23.07
1010.273	53.49
1010.435	10.48
1010.596	31.98
1010.758	28.88
1010.919	45.74
1011.081	-8.9
1011.242	45.55
1011.403	49.42
1011.565	15.71
1011.726	45.93
1011.887	18.81
1012.049	29.66
1012.21	41.28
1012.371	108.9
1012.532	-56.56
1012.693	62.02
1012.855	-6.96
1013.016	33.92
1013.177	62.4
1013.338	37.6
1013.499	104.06
1013.66	50
1013.821	85.85
1013.982	43.61
1014.143	23.65
1014.304	42.06
1014.465	46.9
1014.626	51.36
1014.787	30.63
1014.948	92.43
1015.109	-42.41
1015.27	100.76
1015.431	25.59
1015.592	14.74
1015.752	75.97
1015.913	38.18
1016.074	62.21
1016.235	43.22
1016.395	40.7
1016.556	35.86
1016.717	17.45
1016.877	55.82
1017.038	20.55
1017.199	33.34
1017.359	14.55
1017.52	36.83
1017.681	37.22
1017.841	18.23
1018.002	12.61
1018.162	16.1
1018.323	89.72
1018.483	11.45
1018.644	11.25
1018.804	-9.67
1018.964	4.08
1019.125	26.17
1019.285	44.19
1019.446	-30.4
1019.606	-9.09
1019.766	7.57
1019.926	23.07
1020.087	47.68
1020.247	10.28
1020.407	60.47
1020.567	55.23
1020.728	13.58
1020.888	6.41
1021.048	-7.35
1021.208	-20.52
1021.368	0.21
1021.528	75
1021.688	52.13
1021.848	35.86
1022.008	27.53
1022.168	31.6
1022.328	17.26
1022.488	44.97
1022.648	13.77
1022.808	17.84
1022.968	48.07
1023.128	12.8
1023.288	-13.35
1023.448	11.64
1023.608	54.46
1023.767	41.09
1023.927	25.01
1024.087	-23.81
1024.247	-1.73
1024.406	0.98
1024.566	15.71
1024.726	18.23
1024.885	27.14
1025.045	63.37
1025.205	4.08
1025.364	9.7
1025.524	31.6
1025.683	14.74
1025.843	38.77
1026.003	38.77
1026.162	65.89
1026.321	42.06
1026.481	36.05
1026.64	14.93
1026.8	51.36
1026.959	17.84
1027.119	34.31
1027.278	11.45
1027.437	12.61
1027.597	19
1027.756	34.31
1027.915	29.47
1028.074	15.52
1028.234	-7.54
1028.393	31.6
1028.552	14.74
1028.711	-58.69
1028.87	33.73
1029.03	-25.95
1029.189	16.1
1029.348	-31.76
1029.507	4.08
1029.666	-12.77
1029.825	-27.69
1029.984	2.73
1030.143	15.71
1030.302	-11.22
1030.461	-21.3
1030.62	28.69
1030.779	37.99
1030.938	-12.96
1031.097	-10.25
1031.255	44.58
1031.414	56.01
1031.573	50.39
1031.732	-17.03
1031.891	19.58
1032.049	36.83
1032.208	45.35
1032.367	-36.99
1032.525	12.42
1032.684	2.34
1032.843	38.77
1033.001	-52.1
1033.16	130.8
1033.319	55.23
1033.477	30.05
1033.636	-24.98
1033.794	-19.94
1033.953	42.64
1034.111	42.83
1034.27	19.39
1034.428	13
1034.587	-15.29
1034.745	17.07
1034.903	12.8
1035.062	10.28
1035.22	-27.5
1035.378	50.39
1035.537	-22.85
1035.695	42.64
1035.853	11.25
1036.011	28.69
1036.17	1.57
1036.328	-44.74
1036.486	20.75
1036.644	26.56
1036.802	-54.43
1036.96	-30.6
1037.119	20.94
1037.277	-2.31
1037.435	-9.86
1037.593	0.02
1037.751	4.08
1037.909	28.5
1038.067	28.5
