Data from gum_young_FLMT105791__73__17-39-31-043.txt Node

Date: Mon Mar 20 17:39:31 GMT 2023
User: antho
Spectrometer: FLMT10579
Trigger mode: 0
Integration Time (sec): 1.000000E-1
Scans to average: 10
Electric dark correction enabled: true
Nonlinearity correction enabled: false
Boxcar width: 0
XAxis mode: Wavelengths
Number of Pixels in Spectrum: 3648
>>>>>Begin Spectral Data<<<<<
345.248	-168.82
345.464	-168.82
345.681	-168.82
345.898	-164.75
346.114	-139.37
346.331	-15.95
346.548	23.96
346.764	7.88
346.981	-3.55
347.197	-26.22
347.414	-4.52
347.631	-6.07
347.847	53.8
348.064	-22.93
348.28	26.67
348.497	-32.42
348.713	-0.65
348.93	15.05
349.146	12.34
349.363	-18.28
349.579	5.94
349.796	-9.56
350.012	0.13
350.229	20.86
350.445	5.17
350.661	-22.73
350.878	-27.58
351.094	22.99
351.311	11.17
351.527	12.72
351.743	-28.35
351.96	35.39
352.176	27.06
352.392	17.95
352.609	43.14
352.825	-8.4
353.041	-12.27
353.257	22.6
353.474	4.78
353.69	16.6
353.906	-1.42
354.122	-33.97
354.339	37.72
354.555	22.99
354.771	-12.27
354.987	62.9
355.203	46.43
355.42	-11.69
355.636	-19.05
355.852	-3.16
356.068	-1.81
356.284	-21.38
356.5	47.02
356.716	14.47
356.932	-9.36
357.148	-0.26
357.364	23.96
357.58	34.23
357.796	54.96
358.012	22.8
358.228	7.69
358.444	-50.25
358.66	33.65
358.876	29.38
359.092	-30.87
359.308	13.89
359.524	20.47
359.74	-9.75
359.956	5.94
360.172	11.37
360.388	50.5
360.604	8.07
360.819	54.77
361.035	37.13
361.251	28.8
361.467	-17.11
361.683	17.37
361.898	6.91
362.114	43.53
362.33	4
362.546	50.5
362.762	27.45
362.977	2.07
363.193	-19.25
363.409	17.37
363.624	-2.78
363.84	-1.61
364.056	4.2
364.271	4.59
364.487	-4.91
364.703	-14.21
364.918	5.17
365.134	-6.07
365.35	28.42
365.565	92.93
365.781	15.24
365.996	46.24
366.212	79.95
366.427	-6.65
366.643	-1.03
366.858	-21.96
367.074	-32.03
367.289	55.54
367.505	87.7
367.72	-6.26
367.936	9.24
368.151	48.37
368.367	36.55
368.582	21.83
368.798	1.49
369.013	35.97
369.228	12.14
369.444	8.27
369.659	75.3
369.874	19.7
370.09	59.22
370.305	-27.38
370.52	11.17
370.736	58.45
370.951	14.08
371.166	80.73
371.381	54.57
371.597	10.4
371.812	-13.05
372.027	-13.24
372.242	14.27
372.458	64.84
372.673	-7.23
372.888	8.27
373.103	21.05
373.318	96.62
373.533	42.17
373.749	5.94
373.964	-5.88
374.179	74.53
374.394	-18.86
374.609	78.79
374.824	-10.33
375.039	46.43
375.254	-14.79
375.469	83.25
375.684	33.26
375.899	47.02
376.114	16.6
376.329	17.95
376.544	39.85
376.759	15.82
376.974	-4.33
377.189	8.85
377.404	17.95
377.619	35
377.834	-26.41
378.049	-0.45
378.264	-4.91
378.478	34.81
378.693	5.55
378.908	49.73
379.123	-6.26
379.338	56.32
379.553	8.46
379.767	38.49
379.982	39.65
380.197	36.55
380.412	25.9
380.626	73.75
380.841	88.28
381.056	60.97
381.271	84.99
381.485	-2.39
381.7	-3.75
381.915	39.85
382.129	-8.4
382.344	15.63
382.559	3.81
382.773	60.19
382.988	-10.53
383.202	23.19
383.417	7.88
383.632	113.08
383.846	2.65
384.061	17.37
384.275	19.12
384.49	51.67
384.704	47.98
384.919	52.44
385.133	32.68
385.348	35.58
385.562	-4.91
385.777	73.75
385.991	32.48
386.206	6.91
386.42	20.09
386.634	57.87
386.849	35.39
387.063	64.26
387.277	10.4
387.492	20.86
387.706	5.94
387.92	-14.79
388.135	28.61
388.349	44.5
388.563	49.53
388.778	46.63
388.992	48.95
389.206	32.29
389.42	93.71
389.635	16.6
389.849	42.95
390.063	67.36
390.277	35.58
390.491	92.55
390.706	52.63
390.92	79.57
391.134	31.13
391.348	78.79
391.562	-4.13
391.776	39.46
391.99	7.88
392.205	43.53
392.419	5.17
392.633	30.16
392.847	88.67
393.061	9.43
393.275	75.11
393.489	32.29
393.703	44.3
393.917	70.27
394.131	22.99
394.345	38.49
394.559	61.74
394.773	21.64
394.986	36.75
395.2	65.81
395.414	42.17
395.628	9.82
395.842	40.82
396.056	52.44
396.27	-3.16
396.484	51.67
396.697	41.01
396.911	85.96
397.125	44.3
397.339	70.65
397.553	54.38
397.766	95.26
397.98	78.6
398.194	74.14
398.408	37.13
398.621	78.02
398.835	73.95
399.049	75.5
399.262	90.22
399.476	71.04
399.69	83.05
399.903	118.7
400.117	55.73
400.331	96.62
400.544	36.94
400.758	171.79
400.971	67.94
401.185	113.47
401.398	33.84
401.612	108.05
401.826	99.13
402.039	103.2
402.253	76.08
402.466	96.23
402.68	71.43
402.893	73.56
403.106	66.2
403.32	90.03
403.533	103.98
403.747	66.97
403.96	80.73
404.174	103.2
404.387	48.18
404.6	72.59
404.814	84.22
405.027	71.23
405.24	81.7
405.454	69.88
405.667	99.91
405.88	6.33
406.094	78.6
406.307	132.26
406.52	97.58
406.733	64.65
406.947	16.4
407.16	118.7
407.373	106.5
407.586	55.54
407.799	45.47
408.012	106.11
408.226	67.17
408.439	130.13
408.652	44.88
408.865	99.91
409.078	129.94
409.291	90.61
409.504	57.67
409.717	89.64
409.93	91.58
410.143	63.48
410.357	35.2
410.57	48.57
410.783	89.25
410.996	100.1
411.209	67.55
411.421	123.16
411.634	76.66
411.847	74.92
412.06	111.92
412.273	113.86
412.486	94.1
412.699	169.66
412.912	107.66
413.125	152.03
413.338	72.78
413.55	115.6
413.763	102.82
413.976	125.48
414.189	62.32
414.402	71.62
414.615	134.59
414.827	58.06
415.04	109.4
415.253	112.31
415.466	140.4
415.678	166.75
415.891	120.06
416.104	93.52
416.316	97.39
416.529	103.78
416.742	109.21
416.954	143.7
417.167	112.5
417.38	103.4
417.592	130.52
417.805	99.72
418.017	47.98
418.23	143.5
418.442	94.1
418.655	99.91
418.868	113.28
419.08	120.25
419.293	160.16
419.505	116.96
419.718	95.84
419.93	150.48
420.142	108.24
420.355	144.86
420.567	166.17
420.78	145.25
420.992	111.15
421.205	149.9
421.417	96.62
421.629	115.6
421.842	97
422.054	99.52
422.266	130.13
422.479	157.65
422.691	109.6
422.903	156.29
423.115	113.28
423.328	100.3
423.54	139.05
423.752	133.81
423.964	86.54
424.177	134.98
424.389	109.6
424.601	194.07
424.813	128.39
425.025	143.89
425.238	156.29
425.45	119.86
425.662	114.25
425.874	392.85
426.086	121.8
426.298	156.29
426.51	128.39
426.722	132.65
426.934	109.79
427.146	160.55
427.358	121.22
427.57	164.81
427.782	146.6
427.994	150.67
428.206	108.63
428.418	77.43
428.63	139.63
428.842	170.63
429.054	145.44
429.266	148.54
429.478	101.85
429.69	129.55
429.902	96.62
430.114	113.47
430.325	154.35
430.537	105.14
430.749	104.17
430.961	64.07
431.173	125.29
431.384	130.52
431.596	66.58
431.808	119.67
432.02	138.08
432.231	164.62
432.443	177.8
432.655	154.55
432.867	123.93
433.078	161.71
433.29	210.54
433.502	187.87
433.713	165.98
433.925	154.55
434.136	208.6
434.348	120.83
434.56	85.57
434.771	231.27
434.983	132.85
435.194	111.53
435.406	164.62
435.617	206.47
435.829	211.51
436.04	184
436.252	195.43
436.463	201.24
436.675	206.28
436.886	181.67
437.098	175.08
437.309	212.86
437.521	154.55
437.732	217.9
437.943	182.64
438.155	173.53
438.366	136.33
438.578	227.2
438.789	171.79
439	195.81
439.211	166.17
439.423	198.53
439.634	198.72
439.845	193.3
440.057	210.34
440.268	209.57
440.479	149.9
440.69	200.66
440.902	186.13
441.113	170.24
441.324	181.48
441.535	222.94
441.746	241.93
441.957	155.32
442.168	202.98
442.38	203.18
442.591	214.22
442.802	184.77
443.013	174.11
443.224	196.78
443.435	192.71
443.646	196.2
443.857	199.69
444.068	191.75
444.279	195.81
444.49	261.88
444.701	218.68
444.912	307.22
445.123	235.53
445.334	230.11
445.545	217.9
445.756	224.88
445.967	186.51
446.178	229.33
446.388	241.34
446.599	253.94
446.81	253.16
447.021	204.92
447.232	255.29
447.443	273.89
447.653	199.11
447.864	269.24
448.075	240.38
448.286	264.21
448.496	227.59
448.707	265.56
448.918	242.51
449.129	337.64
449.339	209.76
449.55	262.08
449.761	227.78
449.971	291.52
450.182	219.84
450.393	278.74
450.603	229.14
450.814	318.26
451.024	305.09
451.235	278.54
451.446	308.57
451.656	305.67
451.867	228.75
452.077	241.93
452.288	316.13
452.498	325.04
452.709	250.84
452.919	268.08
453.13	261.69
453.34	283.97
453.55	234.76
453.761	313.81
453.971	282.03
454.182	311.67
454.392	287.65
454.602	337.44
454.813	294.04
455.023	307.02
455.233	239.41
455.444	288.62
455.654	213.83
455.864	278.35
456.075	247.16
456.285	253.94
456.495	282.61
456.705	282.03
456.916	322.33
457.126	317.87
457.336	252.58
457.546	252.19
457.756	247.74
457.967	328.72
458.177	287.07
458.387	260.14
458.597	279.71
458.807	286.88
459.017	275.25
459.227	275.06
459.437	287.65
459.647	313.81
459.857	331.63
460.068	266.14
460.278	347.71
460.488	318.65
460.698	338.61
460.908	306.25
461.117	267.69
461.327	256.46
461.537	310.9
461.747	319.62
461.957	317.29
462.167	406.03
462.377	342.87
462.587	306.25
462.797	341.71
463.007	329.69
463.216	331.82
463.426	363.99
463.636	344.42
463.846	271.18
464.056	294.82
464.265	343.84
464.475	273.89
464.685	322.14
464.895	334.54
465.104	313.61
465.314	364.96
465.524	317.68
465.733	297.72
465.943	392.47
466.153	371.54
466.362	354.49
466.572	328.14
466.782	313.22
466.991	316.52
467.201	360.5
467.41	294.82
467.62	338.99
467.829	338.61
468.039	367.09
468.249	347.13
468.458	344.22
468.668	345.77
468.877	370.57
469.086	388.59
469.296	394.6
469.505	328.92
469.715	397.31
469.924	352.75
470.134	384.14
470.343	393.63
470.552	357.98
470.762	381.23
470.971	321.36
471.18	392.08
471.39	359.72
471.599	332.79
471.808	386.07
472.018	324.85
472.227	439.35
472.436	408.55
472.645	381.42
472.855	356.43
473.064	429.86
473.273	400.99
473.482	435.67
473.691	446.52
473.901	428.12
474.11	385.69
474.319	503.48
474.528	406.8
474.737	474.81
474.946	404.67
475.155	429.47
475.364	477.52
475.573	438.39
475.783	461.83
475.992	434.12
476.201	481.01
476.41	412.81
476.619	384.33
476.828	435.09
477.037	436.25
477.245	431.6
477.454	505.23
477.663	423.85
477.872	442.26
478.081	510.46
478.29	426.18
478.499	531.97
478.708	475
478.917	534.29
479.125	477.72
479.334	479.27
479.543	437.03
479.752	489.15
479.961	487.79
480.169	509.88
480.378	491.86
480.587	602.49
480.796	546.3
481.004	541.07
481.213	556.96
481.422	515.5
481.63	511.62
481.839	539.72
482.048	603.26
482.256	520.34
482.465	582.15
482.674	542.23
482.882	578.46
483.091	627.48
483.299	579.82
483.508	601.71
483.716	547.85
483.925	577.69
484.134	509.49
484.342	541.07
484.551	576.91
484.759	581.95
484.967	597.06
485.176	601.71
485.384	604.43
485.593	631.55
485.801	602.68
486.01	573.62
486.218	576.14
486.426	513.95
486.635	537.58
486.843	545.72
487.051	567.42
487.26	547.27
487.468	594.35
487.676	621.09
487.885	599
488.093	592.8
488.301	623.61
488.509	621.28
488.717	649.38
488.926	612.37
489.134	583.11
489.342	646.28
489.55	605.01
489.758	650.54
489.967	604.43
490.175	688.13
490.383	642.98
490.591	713.12
490.799	617.6
491.007	716.03
491.215	676.89
491.423	659.64
491.631	655.19
491.839	675.73
492.047	704.59
492.255	654.22
492.463	613.53
492.671	636.59
492.879	716.61
493.087	655.77
493.295	683.86
493.503	712.15
493.711	722.42
493.919	734.62
494.127	712.54
494.334	742.37
494.542	682.7
494.75	750.71
494.958	689.48
495.166	763.11
495.374	730.36
495.581	740.24
495.789	760.01
495.997	792.94
496.205	766.79
496.412	741.21
496.62	744.7
496.828	808.44
497.035	760.01
497.243	796.82
497.451	772.99
497.658	766.79
497.866	768.72
498.074	843.7
498.281	734.24
498.489	857.85
498.696	806.7
498.904	777.44
499.112	783.06
499.319	871.99
499.527	806.89
499.734	828.59
499.942	754.19
500.149	777.25
500.357	811.35
500.564	808.83
500.771	825.1
500.979	771.24
501.186	762.33
501.394	787.91
501.601	789.07
501.808	856.88
502.016	820.07
502.223	830.53
502.43	828.98
502.638	816.58
502.845	822.2
503.052	862.5
503.26	826.65
503.467	921.59
503.674	864.05
503.881	848.74
504.089	950.85
504.296	915
504.503	819.87
504.71	893.3
504.917	842.93
505.125	881.87
505.332	915.78
505.539	889.43
505.746	973.71
505.953	973.32
506.16	948.13
506.367	1027.96
506.574	1003.16
506.781	1034.16
506.988	962.47
507.195	988.82
507.402	997.93
507.609	1037.84
507.816	941.16
508.023	969.64
508.23	1000.45
508.437	946.58
508.644	1021.18
508.851	1052.56
509.058	1071.55
509.265	1025.05
509.472	1052.76
509.679	1163.97
509.885	1057.02
510.092	1080.66
510.299	1107.01
510.506	1082.79
510.713	1128.9
510.92	1103.52
511.126	1118.24
511.333	1151.96
511.54	1155.44
511.746	1200.39
511.953	1204.85
512.16	1167.65
512.367	1159.71
512.573	1170.17
512.78	1177.34
512.987	1191.09
513.193	1182.18
513.4	1139.36
513.606	1173.07
513.813	1234.11
514.02	1221.9
514.226	1255.22
514.433	1258.32
514.639	1189.16
514.846	1208.92
515.052	1225
515.259	1228.1
515.465	1279.44
515.672	1277.31
515.878	1335.44
516.085	1295.72
516.291	1346.87
516.497	1293.97
516.704	1297.46
516.91	1261.62
517.117	1206.4
517.323	1167.07
517.529	1201.56
517.736	1188.77
517.942	1236.43
518.148	1266.46
518.354	1285.25
518.561	1289.13
518.767	1305.02
518.973	1355.58
519.179	1388.52
519.386	1349.77
519.592	1346.87
519.798	1397.82
520.004	1439.48
520.21	1450.33
520.417	1479.78
520.623	1529.38
520.829	1534.99
521.035	1531.7
521.241	1531.12
521.447	1574.33
521.653	1674.3
521.859	1578.78
522.065	1598.74
522.271	1698.13
522.477	1684.76
522.683	1697.35
522.889	1659.57
523.095	1648.72
523.301	1665.19
523.507	1602.03
523.713	1689.22
523.919	1647.76
524.125	1776.79
524.331	1752.19
524.537	1848.09
524.742	1801.78
524.948	1828.72
525.154	1805.27
525.36	1893.43
525.566	1843.25
525.772	1910.48
525.977	1816.7
526.183	1845.57
526.389	1890.52
526.595	1792.1
526.8	1813.99
527.006	1728.74
527.212	1693.48
527.417	1729.52
527.623	1695.22
527.829	1823.87
528.034	1832.98
528.24	1861.27
528.446	1863.01
528.651	1937.41
528.857	1939.15
529.062	1997.86
529.268	1979.45
529.473	2017.81
529.679	2007.35
529.884	2076.71
530.09	2046.49
530.295	2057.72
530.501	2061.41
530.706	2056.76
530.912	2028.28
531.117	2100.35
531.323	2091.44
531.528	2146.07
531.733	2154.6
531.939	2100.54
532.144	2120.89
532.35	2142.97
532.555	2171.84
532.76	2140.26
532.966	2132.32
533.171	2065.09
533.376	2062.96
533.581	2056.76
533.787	2084.85
533.992	2135.8
534.197	2130.19
534.402	2141.23
534.607	2156.34
534.813	2237.72
535.018	2136
535.223	2206.52
535.428	2225.32
535.633	2227.06
535.838	2299.91
536.043	2277.63
536.249	2341.18
536.454	2276.66
536.659	2299.33
536.864	2263.68
537.069	2269.1
537.274	2247.79
537.479	2304.95
537.684	2285.57
537.889	2202.26
538.094	2379.54
538.299	2266.39
538.504	2348.15
538.708	2317.35
538.913	2359.97
539.118	2314.83
539.323	2353.38
539.528	2273.17
539.733	2305.72
539.938	2315.21
540.142	2329.16
540.347	2309.79
540.552	2279.18
540.757	2285.96
540.962	2286.15
541.166	2217.18
541.371	2231.13
541.576	2283.25
541.781	2203.62
541.985	2327.81
542.19	2303.78
542.395	2421.97
542.599	2413.44
542.804	2339.82
543.008	2407.24
543.213	2356.87
543.418	2302.23
543.622	2407.83
543.827	2328
544.031	2433.4
544.236	2430.11
544.44	2439.02
544.645	2503.73
544.849	2379.73
545.054	2445.8
545.258	2509.93
545.463	2442.31
545.667	2432.63
545.872	2463.82
546.076	2425.07
546.281	2501.99
546.485	2394.07
546.689	2468.28
546.894	2468.86
547.098	2479.9
547.302	2405.5
547.507	2450.84
547.711	2487.26
547.915	2493.07
548.119	2466.14
548.324	2436.31
548.528	2517.68
548.732	2459.94
548.936	2489.78
549.141	2512.26
549.345	2495.01
549.549	2502.18
549.753	2539.57
549.957	2570.77
550.161	2572.12
550.366	2546.16
550.57	2501.41
550.774	2522.52
550.978	2510.51
551.182	2571.15
551.386	2524.27
551.59	2543.26
551.794	2484.55
551.998	2551.78
552.202	2477.96
552.406	2471.38
552.61	2564.57
552.814	2544.03
553.018	2583.55
553.222	2484.16
553.426	2528.72
553.63	2630.25
553.833	2541.32
554.037	2460.91
554.241	2565.34
554.445	2533.57
554.649	2541.32
554.853	2526.01
555.056	2555.07
555.26	2586.46
555.464	2552.36
555.668	2568.64
555.871	2595.18
556.075	2561.86
556.279	2522.72
556.483	2478.74
556.686	2525.04
556.89	2534.15
557.094	2543.84
557.297	2419.26
557.501	2517.29
557.704	2412.28
557.908	2482.81
558.112	2395.23
558.315	2544.03
558.519	2453.16
558.722	2442.89
558.926	2428.75
559.129	2357.26
559.333	2381.28
559.536	2349.9
559.74	2353.38
559.943	2340.01
560.147	2323.35
560.35	2309.6
560.553	2376.63
560.757	2322.38
560.96	2434.37
561.164	2389.61
561.367	2444.44
561.57	2352.03
561.774	2427.59
561.977	2356.48
562.18	2342.53
562.384	2426.81
562.587	2345.44
562.79	2358.23
562.993	2325.48
563.197	2362.49
563.4	2414.99
563.603	2360.36
563.806	2404.73
564.009	2328.58
564.212	2355.51
564.416	2277.05
564.619	2310.76
564.822	2241.98
565.025	2330.52
565.228	2247.6
565.431	2298.17
565.634	2181.34
565.837	2200.9
566.04	2219.7
566.243	2153.24
566.446	2156.73
566.649	2228.61
566.852	2133.48
567.055	2130.19
567.258	2208.07
567.461	2249.92
567.664	2259.03
567.867	2102.29
568.07	2141.62
568.273	2179.59
568.475	2207.49
568.678	2128.64
568.881	2099.57
569.084	2083.88
569.287	2021.11
569.489	2053.27
569.692	2068.38
569.895	2066.06
570.098	1995.53
570.3	2024.79
570.503	1954.26
570.706	1993.4
570.909	1960.27
571.111	1904.47
571.314	1907.18
571.516	1912.03
571.719	1933.53
571.922	1900.01
572.124	1943.41
572.327	1968.02
572.529	1899.63
572.732	1933.53
572.935	1936.44
573.137	1981.78
573.34	1890.33
573.542	1947.48
573.745	1931.4
573.947	1934.5
574.15	1905.25
574.352	1847.9
574.554	1945.55
574.757	1839.95
574.959	1859.33
575.162	1851.19
575.364	1853.9
575.566	1934.11
575.769	1782.22
575.971	1812.44
576.173	1720.02
576.376	1808.18
576.578	1837.82
576.78	1891.68
576.982	1728.16
577.185	1786.48
577.387	1735.72
577.589	1762.26
577.791	1809.73
577.993	1796.94
578.196	1745.6
578.398	1771.17
578.6	1773.89
578.802	1733.78
579.004	1695.8
579.206	1690.77
579.408	1771.75
579.61	1710.53
579.812	1750.25
580.014	1716.54
580.216	1736.3
580.418	1730.1
580.62	1705.49
580.822	1682.82
581.024	1740.37
581.226	1731.65
581.428	1696.97
581.63	1828.33
581.832	1704.33
582.034	1784.35
582.236	1740.95
582.438	1780.86
582.64	1785.12
582.841	1807.4
583.043	1837.24
583.245	1780.67
583.447	1763.62
583.649	1767.49
583.85	1769.24
584.052	1820.77
584.254	1717.12
584.456	1796.17
584.657	1694.64
584.859	1768.46
585.061	1731.45
585.262	1723.12
585.464	1672.56
585.666	1707.04
585.867	1674.88
586.069	1751.8
586.27	1664.42
586.472	1698.52
586.674	1649.69
586.875	1672.94
587.077	1698.32
587.278	1686.89
587.48	1655.51
587.681	1745.4
587.883	1694.45
588.084	1601.45
588.285	1636.13
588.487	1571.81
588.688	1664.61
588.89	1557.86
589.091	1496.63
589.292	1520.27
589.494	1476.29
589.695	1421.46
589.896	1399.37
590.098	1368.95
590.299	1467.57
590.5	1418.36
590.702	1456.91
590.903	1474.74
591.104	1530.73
591.305	1499.54
591.507	1555.92
591.708	1504.96
591.909	1499.15
592.11	1557.08
592.311	1538.09
592.512	1495.47
592.714	1472.41
592.915	1491.98
593.116	1500.31
593.317	1529.38
593.518	1489.85
593.719	1464.08
593.92	1531.89
594.121	1542.55
594.322	1513.49
594.523	1517.36
594.724	1446.06
594.925	1466.99
595.126	1478.23
595.327	1495.47
595.528	1485.59
595.729	1486.75
595.929	1469.12
596.13	1471.06
596.331	1509.23
596.532	1499.15
596.733	1542.36
596.934	1534.99
597.135	1538.48
597.335	1537.51
597.536	1515.62
597.737	1479.78
597.938	1489.27
598.138	1526.86
598.339	1497.02
598.54	1509.61
598.74	1486.17
598.941	1477.65
599.142	1562.31
599.342	1526.28
599.543	1496.83
599.744	1499.73
599.944	1492.18
600.145	1518.53
600.345	1478.61
600.546	1560.96
600.746	1508.06
600.947	1573.74
601.147	1478.23
601.348	1524.53
601.548	1461.37
601.749	1487.33
601.949	1412.74
602.15	1477.26
602.35	1467.96
602.551	1525.89
602.751	1454.4
602.951	1464.08
603.152	1443.35
603.352	1496.83
603.552	1487.91
603.753	1550.49
603.953	1507.87
604.153	1503.61
604.354	1477.06
604.554	1501.09
604.754	1470.28
604.954	1451.68
605.155	1513.88
605.355	1498.18
605.555	1500.12
605.755	1532.67
605.955	1470.09
606.155	1505.55
606.356	1481.52
606.556	1494.89
606.756	1480.94
606.956	1426.3
607.156	1492.18
607.356	1432.5
607.556	1451.49
607.756	1462.15
607.956	1486.17
608.156	1471.06
608.356	1404.02
608.556	1448.58
608.756	1408.28
608.956	1417.97
609.156	1451.49
609.356	1399.37
609.556	1375.54
609.755	1446.45
609.955	1358.1
610.155	1416.03
610.355	1430.37
610.555	1380.19
610.755	1374.77
610.954	1324
611.154	1397.43
611.354	1412.16
611.554	1338.34
611.753	1402.67
611.953	1328.65
612.153	1376.9
612.352	1373.02
612.552	1309.09
612.752	1285.64
612.951	1349.97
613.151	1330.59
613.351	1299.98
613.55	1321.49
613.75	1343.38
613.949	1307.15
614.149	1319.74
614.348	1306.37
614.548	1293.2
614.747	1244.76
614.947	1286.8
615.146	1225
615.346	1315.29
615.545	1300.95
615.745	1288.55
615.944	1326.33
616.144	1288.55
616.343	1288.16
616.542	1240.11
616.742	1265.3
616.941	1273.44
617.14	1192.06
617.34	1228.1
617.539	1220.74
617.738	1232.17
617.938	1304.44
618.137	1275.95
618.336	1210.66
618.535	1258.71
618.734	1271.5
618.934	1234.49
619.133	1250.57
619.332	1253.67
619.531	1224.42
619.73	1245.34
619.929	1238.17
620.128	1257.35
620.328	1273.82
620.527	1199.23
620.726	1210.08
620.925	1254.84
621.124	1200.39
621.323	1238.37
621.522	1161.26
621.721	1167.07
621.92	1149.63
622.119	1200.97
622.318	1167.07
622.517	1197.49
622.715	1199.42
622.914	1149.24
623.113	1172.69
623.312	1133.16
623.511	1176.76
623.71	1160.09
623.909	1125.99
624.107	1194.77
624.306	1131.03
624.505	1124.83
624.704	1111.08
624.902	1133.16
625.101	1177.92
625.3	1100.42
625.499	1127.54
625.697	1112.04
625.896	1119.99
626.095	1149.63
626.293	1091.89
626.492	1130.45
626.69	1127.93
626.889	1102.16
627.088	1146.53
627.286	1063.61
627.485	1063.61
627.683	1065.16
627.882	1098.87
628.08	1014.2
628.279	1039
628.477	1114.95
628.676	1020.21
628.874	1063.22
629.073	1050.05
629.271	1049.08
629.469	1060.12
629.668	1051.01
629.866	1061.09
630.065	1055.08
630.263	1056.05
630.461	1031.45
630.66	1063.22
630.858	1062.83
631.056	1086.47
631.254	1106.43
631.453	1021.95
631.651	1100.42
631.849	1051.79
632.047	1060.51
632.245	1051.21
632.444	1084.34
632.642	1086.66
632.84	1088.21
633.038	1075.81
633.236	1057.21
633.434	1066.13
633.632	1055.66
633.83	1050.82
634.028	1079.3
634.227	1086.47
634.425	1103.52
634.623	1077.94
634.821	1084.34
635.019	1090.73
635.216	1074.26
635.414	1105.46
635.612	1054.5
635.81	1047.14
636.008	1157.77
636.206	1062.06
636.404	1092.48
636.602	1015.17
636.8	1064.38
636.997	1102.55
637.195	1095.19
637.393	1064
637.591	1089.57
637.789	1061.67
637.986	1041.13
638.184	1056.83
638.382	1086.86
638.58	1109.91
638.777	1112.43
638.975	1060.7
639.173	1092.48
639.37	1065.16
639.568	1080.46
639.765	1061.09
639.963	1032.8
640.161	1071.36
640.358	1045.01
640.556	1002.58
640.753	985.33
640.951	997.35
641.148	1017.11
641.346	993.47
641.543	990.95
641.741	1026.8
641.938	945.62
642.136	997.54
642.333	970.22
642.531	1039
642.728	1018.66
642.925	983.2
643.123	986.69
643.32	982.43
643.517	938.45
643.715	981.85
643.912	960.53
644.109	983.01
644.306	962.28
644.504	913.07
644.701	970.03
644.898	944.26
645.095	937.67
645.293	913.26
645.49	935.93
645.687	951.62
645.884	934.38
646.081	860.56
646.278	893.3
646.475	879.94
646.672	875.29
646.87	883.04
647.067	852.23
647.264	842.54
647.461	840.41
647.658	820.84
647.855	889.43
648.052	826.27
648.249	770.86
648.446	824.91
648.642	793.72
648.839	752.26
649.036	797.59
649.233	784.42
649.43	751.87
649.627	747.61
649.824	776.28
650.021	793.52
650.217	754.58
650.414	792.17
650.611	817.74
650.808	826.65
651.004	799.72
651.201	835.57
651.398	873.54
651.595	832.47
651.791	777.64
651.988	826.07
652.185	766.79
652.381	770.47
652.578	751.29
652.775	788.68
652.971	764.07
653.168	801.27
653.364	800.31
653.561	744.7
653.757	779.57
653.954	783.45
654.15	738.5
654.347	835.95
654.543	756.32
654.74	730.75
654.936	716.61
655.133	756.32
655.329	782.87
655.525	731.91
655.722	765.24
655.918	728.62
656.115	749.16
656.311	649.57
656.507	634.07
656.704	636.01
656.9	663.33
657.096	660.81
657.292	641.82
657.489	681.54
657.685	710.6
657.881	686.96
658.077	682.31
658.273	705.37
658.47	761.75
658.666	686.77
658.862	739.27
659.058	695.1
659.254	759.04
659.45	701.69
659.646	711.57
659.842	703.04
660.038	734.24
660.234	700.53
660.43	725.91
660.626	751.09
660.822	740.05
661.018	741.6
661.214	698.78
661.41	664.49
661.606	725.71
661.802	730.36
661.998	708.47
662.194	682.51
662.39	707.89
662.586	696.84
662.781	707.89
662.977	735.59
663.173	721.26
663.369	697.04
663.564	680.96
663.76	739.27
663.956	669.33
664.152	719.71
664.347	650.54
664.543	683.67
664.739	648.99
664.934	614.7
665.13	623.8
665.326	698.39
665.521	695.49
665.717	613.34
665.912	609.08
666.108	571.68
666.304	613.53
666.499	614.31
666.695	591.64
666.89	637.36
667.086	690.64
667.281	666.62
667.477	691.61
667.672	630.78
667.867	624.96
668.063	632.52
668.258	610.05
668.454	633.49
668.649	667.59
668.844	607.14
669.04	668.94
669.235	618.57
669.43	604.62
669.626	579.05
669.821	625.55
670.016	588.54
670.211	576.72
670.407	565.1
670.602	599.2
670.797	615.47
670.992	639.5
671.187	573.23
671.382	646.66
671.578	571.3
671.773	603.65
671.968	567.03
672.163	611.6
672.358	612.37
672.553	569.36
672.748	571.49
672.943	646.08
673.138	582.92
673.333	612.76
673.528	570.52
673.723	588.73
673.918	593.96
674.113	556.38
674.308	654.22
674.503	592.03
674.698	639.3
674.892	581.76
675.087	646.28
675.282	595.51
675.477	588.54
675.672	621.28
675.867	568.39
676.061	557.35
676.256	555.8
676.451	543.98
676.646	601.52
676.84	553.66
677.035	543.01
677.23	537
677.424	586.99
677.619	592.22
677.814	615.28
678.008	619.54
678.203	554.25
678.397	555.8
678.592	598.61
678.787	635.81
678.981	555.99
679.176	593.19
679.37	588.15
679.565	562.58
679.759	585.63
679.954	612.76
680.148	626.51
680.342	605.4
680.537	588.54
680.731	560.25
680.926	599
681.12	598.03
681.314	559.67
681.509	582.53
681.703	581.95
681.897	602.1
682.092	571.1
682.286	581.95
682.48	629.23
682.674	617.02
682.869	567.61
683.063	590.67
683.257	644.14
683.451	566.45
683.645	609.85
683.839	614.11
684.034	593.77
684.228	630.97
684.422	552.12
684.616	577.3
684.81	627.1
685.004	604.04
685.198	578.27
685.392	610.82
685.586	587.18
685.78	598.81
685.974	610.82
686.168	634.07
686.362	682.12
686.556	561.8
686.75	554.44
686.944	551.92
687.138	570.71
687.331	459.31
687.525	517.63
687.719	453.69
687.913	479.07
688.107	498.45
688.301	491.08
688.494	529.06
688.688	495.15
688.882	469
689.076	483.53
689.269	534.29
689.463	571.68
689.657	538.55
689.85	584.47
690.044	568
690.238	557.54
690.431	572.65
690.625	580.4
690.818	606.95
691.012	644.92
691.205	630.78
691.399	629.23
691.593	667.01
691.786	730.94
691.98	735.79
692.173	761.36
692.366	757.29
692.56	794.88
692.753	851.65
692.947	720.09
693.14	837.31
693.333	827.43
693.527	754.77
693.72	830.34
693.914	802.82
694.107	818.13
694.3	862.3
694.493	854.36
694.687	949.1
694.88	860.56
695.073	960.34
695.266	963.83
695.46	938.83
695.653	996.38
695.846	983.01
696.039	966.15
696.232	1005.1
696.425	1033.96
696.618	1065.55
696.812	1083.95
697.005	1135.29
697.198	1224.42
697.391	1174.62
697.584	1190.51
697.777	1274.99
697.97	1231.39
698.163	1260.65
698.356	1244.37
698.549	1339.31
698.742	1307.34
698.935	1282.54
699.127	1327.3
699.32	1299.01
699.513	1301.53
699.706	1349.58
699.899	1378.64
700.092	1324.97
700.285	1364.5
700.477	1334.27
700.67	1405.57
700.863	1415.26
701.056	1476.48
701.248	1489.27
701.441	1463.11
701.634	1441.8
701.826	1570.64
702.019	1464.08
702.212	1576.07
702.404	1484.04
702.597	1522.4
702.79	1530.34
702.982	1587.69
703.175	1623.73
703.367	1642.91
703.56	1642.33
703.752	1748.31
703.945	1689.99
704.137	1712.47
704.33	1739.2
704.522	1789.58
704.715	1798.88
704.907	1838.21
705.1	1853.71
705.292	1873.08
705.484	1859.13
705.677	1871.34
705.869	1937.99
706.061	1932.76
706.254	1980.23
706.446	1905.83
706.638	1980.23
706.831	2043.39
707.023	1986.62
707.215	2116.62
707.407	2090.27
707.599	2049.2
707.792	2124.18
707.984	2122.05
708.176	2164.29
708.368	2100.16
708.56	2166.22
708.752	2160.6
708.944	2143.94
709.136	2215.05
709.329	2216.6
709.521	2320.45
709.713	2290.42
709.905	2301.07
710.097	2344.86
710.289	2284.22
710.481	2319.48
710.672	2341.95
710.864	2371.6
711.056	2404.34
711.248	2421.97
711.44	2449.68
711.632	2434.95
711.824	2458.78
712.016	2487.84
712.207	2510.51
712.399	2514.39
712.591	2526.79
712.783	2581.81
712.975	2544.81
713.166	2520.2
713.358	2558.17
713.55	2580.84
713.741	2647.1
713.933	2642.07
714.125	2597.31
714.316	2584.91
714.508	2682.56
714.7	2652.14
714.891	2645.55
715.083	2706.39
715.274	2641.87
715.466	2683.14
715.657	2687.02
715.849	2650.01
716.04	2636.84
716.232	2640.13
716.423	2627.54
716.615	2569.22
716.806	2482.03
716.998	2428.36
717.189	2335.17
717.381	2269.1
717.572	2194.32
717.763	2221.44
717.955	2175.52
718.146	2152.27
718.337	2090.27
718.528	2037.58
718.72	1959.3
718.911	2015.88
719.102	1961.63
719.293	2016.26
719.485	2021.3
719.676	1995.53
719.867	1962.98
720.058	1966.86
720.249	1945.74
720.44	1998.63
720.632	2078.07
720.823	2102.29
721.014	2225.7
721.205	2295.84
721.396	2383.41
721.587	2441.73
721.778	2524.46
721.969	2587.82
722.16	2627.73
722.351	2698.25
722.542	2787.76
722.733	2778.66
722.924	2701.55
723.115	2770.13
723.305	2733.32
723.496	2732.55
723.687	2578.32
723.878	2582
724.069	2576.58
724.26	2592.08
724.45	2496.76
724.641	2476.41
724.832	2505.47
725.023	2524.46
725.213	2483.77
725.404	2460.91
725.595	2475.06
725.785	2486.68
725.976	2595.76
726.167	2488.62
726.357	2541.12
726.548	2652.92
726.739	2557.4
726.929	2623.08
727.12	2639.74
727.31	2655.24
727.501	2617.85
727.691	2593.44
727.882	2600.8
728.072	2644.78
728.263	2668.42
728.453	2738.55
728.644	2724.02
728.834	2709.88
729.024	2668.42
729.215	2645.17
729.405	2707.75
729.596	2756.96
729.786	2764.51
729.976	2836.2
730.167	2830.58
730.357	2781.76
730.547	2791.64
730.737	2819.54
730.928	2888.13
731.118	2869.53
731.308	2833.29
731.498	2909.44
731.688	2952.45
731.879	2999.72
732.069	3043.12
732.259	3110.93
732.449	3107.06
732.639	3208.97
732.829	3242.3
733.019	3285.89
733.209	3341.69
733.399	3351.57
733.589	3426.74
733.779	3469.75
733.969	3452.9
734.159	3533.3
734.349	3572.25
734.539	3616.61
734.729	3573.41
734.919	3652.26
735.109	3676.68
735.299	3618.75
735.488	3660.01
735.678	3698.96
735.868	3682.68
736.058	3670.48
736.248	3643.55
736.437	3583.48
736.627	3576.51
736.817	3710.58
737.007	3650.52
737.196	3734.41
737.386	3728.6
737.576	3719.11
737.765	3789.05
737.955	3740.23
738.144	3892.51
738.334	3819.08
738.524	3768.9
738.713	3829.74
738.903	3792.92
739.092	3849.11
739.282	3845.04
739.471	3840.01
739.661	3840.01
739.85	3929.71
740.04	3878.37
740.229	3921.77
740.419	3986.87
740.608	3998.1
740.797	3931.65
740.987	4032.59
741.176	3999.27
741.365	3959.55
741.555	3942.11
741.744	4014.77
741.933	3978.34
742.123	4035.3
742.312	4057.58
742.501	4047.12
742.69	4096.91
742.88	4028.72
743.069	4133.15
743.258	4072.5
743.447	4135.08
743.636	4114.16
743.825	4087.03
744.014	4158.72
744.204	4146.9
744.393	4104.28
744.582	4181.58
744.771	4179.84
744.96	4172.67
745.149	4124.81
745.338	4129.08
745.527	4190.69
745.716	4143.99
745.905	4150
746.094	4216.46
746.283	4207.93
746.471	4172.28
746.66	4261.02
746.849	4204.64
747.038	4281.17
747.227	4151.16
747.416	4235.25
747.604	4125.4
747.793	4154.65
747.982	4163.37
748.171	4197.28
748.359	4202.89
748.548	4221.88
748.737	4129.46
748.926	4196.11
749.114	4109.9
749.303	4209.09
749.491	4181.78
749.68	4072.7
749.869	4178.48
750.057	4129.46
750.246	4125.01
750.434	4125.2
750.623	4106.8
750.811	4117.06
751	4161.04
751.188	4142.64
751.377	4111.06
751.565	4083.35
751.754	4099.24
751.942	4083.35
752.131	4107.57
752.319	4023.1
752.507	4022.32
752.696	4079.86
752.884	4101.56
753.072	4075.41
753.261	4082.58
753.449	4062.62
753.637	4068.24
753.825	4141.09
754.014	4100.01
754.202	4036.47
754.39	4144.19
754.578	4107.57
754.766	4059.52
754.955	4003.72
755.143	4129.27
755.331	4067.66
755.519	4030.46
755.707	4027.36
755.895	4049.25
756.083	4024.26
756.271	4032.4
756.459	4015.73
756.647	3989.38
756.835	3936.3
757.023	3966.13
757.211	3959.35
757.399	3968.27
757.587	3961.87
757.775	3933.2
757.963	3922.54
758.151	3927
758.339	3879.92
758.526	3882.63
758.714	3907.62
758.902	3770.45
759.09	3617
759.278	3437.4
759.465	3161.12
759.653	2717.43
759.841	2476.02
760.028	2092.21
760.216	1820.77
760.404	1678.17
760.591	1388.91
760.779	1185.67
760.967	1015.56
761.154	833.44
761.342	862.69
761.529	838.28
761.717	907.06
761.905	897.18
762.092	956.66
762.28	914.42
762.467	873.15
762.655	786.94
762.842	818.32
763.029	835.57
763.217	871.22
763.404	850.29
763.592	859.59
763.779	824.33
763.966	875.29
764.154	890.98
764.341	980.68
764.528	993.08
764.716	1070.58
764.903	1140.33
765.09	1226.36
765.277	1265.69
765.465	1414.48
765.652	1479.2
765.839	1547.59
766.026	1770.4
766.213	1790.74
766.4	1879.28
766.588	2120.31
766.775	2163.7
766.962	2279.57
767.149	2406.28
767.336	2558.76
767.523	2526.21
767.71	2703.1
767.897	2863.91
768.084	2911.76
768.271	2969.69
768.458	3044.67
768.645	3085.94
768.832	3115.97
769.019	3138.64
769.206	3183.59
769.392	3257.02
769.579	3350.79
769.766	3344.59
769.953	3296.54
770.14	3359.32
770.327	3395.55
770.513	3462.2
770.7	3452.51
770.887	3451.93
771.073	3479.25
771.26	3496.3
771.447	3453.87
771.634	3421.32
771.82	3538.53
772.007	3448.83
772.193	3481.57
772.38	3522.65
772.567	3460.84
772.753	3502.3
772.94	3532.92
773.126	3501.92
773.313	3512.96
773.499	3536.98
773.686	3527.1
773.872	3460.07
774.059	3469.95
774.245	3481.57
774.432	3466.65
774.618	3417.44
774.804	3451.93
774.991	3396.13
775.177	3483.9
775.363	3428.87
775.55	3487
775.736	3396.52
775.922	3456.77
776.109	3455.22
776.295	3458.9
776.481	3463.75
776.667	3463.75
776.853	3410.47
777.04	3384.89
777.226	3417.25
777.412	3446.12
777.598	3385.28
777.784	3389.35
777.97	3334.13
778.156	3391.67
778.342	3354.67
778.528	3356.02
778.715	3293.44
778.901	3327.54
779.087	3324.25
779.272	3296.93
779.458	3309.72
779.644	3302.36
779.83	3299.64
780.016	3368.81
780.202	3289.76
780.388	3295.96
780.574	3204.9
780.76	3274.26
780.946	3316.11
781.131	3269.81
781.317	3236.68
781.503	3227.38
781.689	3236.68
781.874	3319.21
782.06	3230.09
782.246	3272.13
782.432	3196.57
782.617	3223.31
782.803	3246.56
782.989	3161.5
783.174	3156.85
783.36	3096.02
783.545	3160.34
783.731	3166.73
783.916	3068.89
784.102	3160.15
784.288	3119.07
784.473	3095.05
784.659	3133.99
784.844	3156.47
785.029	3069.28
785.215	3056.3
785.4	3065.79
785.586	3135.15
785.771	3037.31
785.956	3105.32
786.142	3056.49
786.327	3048.94
786.512	3052.04
786.698	3038.09
786.883	2949.93
787.068	2983.45
787.254	3013.29
787.439	2974.92
787.624	2933.66
787.809	2936.17
787.994	2941.02
788.18	2949.74
788.365	2944.89
788.55	2922.61
788.735	2892
788.92	2860.23
789.105	2906.34
789.29	2852.86
789.475	2808.11
789.66	2807.72
789.845	2777.5
790.03	2794.93
790.215	2820.9
790.4	2870.49
790.585	2841.24
790.77	2844.73
790.955	2773.43
791.14	2800.36
791.325	2878.63
791.51	2724.22
791.695	2779.24
791.879	2775.95
792.064	2734.29
792.249	2816.83
792.434	2795.51
792.618	2772.65
792.803	2794.55
792.988	2781.56
793.173	2744.56
793.357	2814.31
793.542	2741.65
793.727	2788.54
793.911	2812.95
794.096	2793
794.281	2834.84
794.465	2894.52
794.65	2828.06
794.834	2886.96
795.019	2869.53
795.203	2881.15
795.388	2894.33
795.572	2878.24
795.757	2885.8
795.941	2834.07
796.126	2805.78
796.31	2760.45
796.494	2844.34
796.679	2805.78
796.863	2745.91
797.048	2877.08
797.232	2809.08
797.416	2819.35
797.601	2832.13
797.785	2867.2
797.969	2871.85
798.153	2835.81
798.338	2882.7
798.522	2901.69
798.706	2884.25
798.89	2912.92
799.074	2963.69
799.258	2926.29
799.443	2911.18
799.627	2894.71
799.811	2891.03
799.995	2837.36
800.179	2846.86
800.363	2859.45
800.547	2870.3
800.731	2876.69
800.915	2773.81
801.099	2799
801.283	2843.95
801.467	2860.61
801.651	2782.92
801.835	2880.57
802.019	2820.7
802.202	2832.71
802.386	2809.27
802.57	2759.28
802.754	2774.4
802.938	2751.92
803.121	2791.83
803.305	2864.88
803.489	2790.09
803.673	2806.56
803.856	2858.87
804.04	2821.86
804.224	2826.9
804.407	2814.5
804.591	2771.68
804.775	2811.21
804.958	2803.07
805.142	2881.34
805.326	2823.8
805.509	2854.22
805.693	2886.96
805.876	2867.2
806.06	2841.04
806.243	2890.84
806.427	2911.18
806.61	2892
806.794	2858.68
806.977	2903.04
807.16	2854.61
807.344	2890.84
807.527	2850.93
807.71	2888.71
807.894	2869.53
808.077	2888.32
808.26	2822.25
808.444	2819.15
808.627	2836.2
808.81	2812.95
808.993	2734.29
809.177	2746.88
809.36	2737.39
809.543	2758.12
809.726	2675
809.909	2687.98
810.092	2663.18
810.276	2665.51
810.459	2653.3
810.642	2641.29
810.825	2603.12
811.008	2617.46
811.191	2499.47
811.374	2586.85
811.557	2555.27
811.74	2560.89
811.923	2491.91
812.106	2494.04
812.289	2442.89
812.472	2453.55
812.654	2399.88
812.837	2410.15
813.02	2388.45
813.203	2290.22
813.386	2217.57
813.569	2181.34
813.751	2139.49
813.934	2141.81
814.117	2146.65
814.3	2022.08
814.482	2034.48
814.665	1971.7
814.848	1989.72
815.03	1900.79
815.213	1915.32
815.396	1875.8
815.578	1845.77
815.761	1836.08
815.943	1852.55
816.126	1806.05
816.309	1750.83
816.491	1714.99
816.674	1617.72
816.856	1705.49
817.039	1672.36
817.221	1740.17
817.403	1703.36
817.586	1739.2
817.768	1731.26
817.951	1681.08
818.133	1608.23
818.315	1685.15
818.498	1692.9
818.68	1755.09
818.862	1725.25
819.045	1768.07
819.227	1746.95
819.409	1719.64
819.591	1727
819.774	1722.15
819.956	1661.51
820.138	1789.58
820.32	1791.32
820.502	1837.43
820.684	1923.85
820.866	1916.48
821.048	2019.56
821.231	2003.28
821.413	1986.43
821.595	1982.16
821.777	1959.49
821.959	1999.6
822.141	2039.32
822.323	1908.73
822.505	1793.07
822.686	1774.66
822.868	1660.93
823.05	1543.33
823.232	1534.03
823.414	1481.13
823.596	1535.58
823.778	1531.7
823.96	1544.88
824.141	1556.69
824.323	1591.18
824.505	1673.91
824.687	1705.88
824.868	1785.12
825.05	1903.7
825.232	1894.78
825.413	1951.94
825.595	1921.71
825.777	1846.73
825.958	1913.38
826.14	1909.7
826.321	1959.11
826.503	1911.06
826.685	1915.32
826.866	1943.03
827.048	1948.06
827.229	1919.2
827.411	1866.11
827.592	1772.34
827.773	1830.46
827.955	1752.38
828.136	1735.33
828.318	1712.47
828.499	1761.87
828.68	1711.11
828.862	1746.57
829.043	1749.47
829.224	1707.82
829.406	1676.82
829.587	1698.52
829.768	1737.07
829.949	1718.67
830.131	1711.5
830.312	1787.06
830.493	1734.36
830.674	1734.17
830.855	1727.19
831.036	1758.97
831.218	1763.81
831.399	1783.38
831.58	1736.1
831.761	1783.96
831.942	1750.83
832.123	1728.74
832.304	1685.73
832.485	1726.42
832.666	1709.75
832.847	1723.51
833.028	1754.12
833.209	1731.07
833.389	1727.77
833.57	1677.59
833.751	1681.47
833.932	1752.96
834.113	1737.65
834.294	1725.06
834.475	1742.69
834.655	1786.09
834.836	1801.2
835.017	1787.64
835.198	1744.63
835.378	1764.59
835.559	1832.01
835.74	1758
835.92	1781.25
836.101	1747.54
836.281	1803.14
836.462	1774.66
836.643	1843.63
836.823	1838.4
837.004	1853.13
837.184	1838.98
837.365	1849.45
837.545	1863.2
837.726	1808.37
837.906	1863.01
838.087	1811.86
838.267	1835.3
838.448	1797.72
838.628	1806.82
838.808	1799.65
838.989	1871.15
839.169	1783.18
839.349	1844.99
839.53	1850.42
839.71	1844.6
839.89	1811.47
840.07	1877.35
840.251	1785.32
840.431	1874.25
840.611	1828.52
840.791	1795.58
840.971	1831.82
841.151	1791.71
841.332	1799.27
841.512	1863.4
841.692	1787.06
841.872	1835.5
842.052	1830.65
842.232	1818.64
842.412	1780.67
842.592	1808.37
842.772	1794.42
842.952	1817.48
843.132	1772.72
843.312	1804.5
843.492	1792.29
843.672	1870.95
843.851	1767.49
844.031	1785.7
844.211	1761.1
844.391	1751.8
844.571	1816.12
844.751	1774.47
844.93	1790.74
845.11	1735.91
845.29	1780.28
845.47	1804.69
845.649	1752.57
845.829	1819.03
846.009	1784.54
846.188	1784.93
846.368	1761.68
846.547	1784.93
846.727	1770.2
846.907	1708.79
847.086	1779.31
847.266	1783.96
847.445	1750.25
847.625	1714.79
847.804	1749.67
847.984	1754.51
848.163	1705.88
848.343	1750.05
848.522	1724.48
848.701	1745.79
848.881	1715.57
849.06	1717.31
849.239	1707.62
849.419	1742.11
849.598	1628.19
849.777	1651.82
849.957	1583.63
850.136	1590.41
850.315	1556.89
850.494	1571.61
850.674	1592.93
850.853	1652.79
851.032	1596.61
851.211	1624.12
851.39	1601.84
851.569	1569.09
851.748	1552.43
851.927	1628.96
852.107	1595.64
852.286	1565.03
852.465	1547.39
852.644	1615.01
852.823	1600.68
853.002	1578.39
853.181	1581.88
853.359	1604.74
853.538	1561.93
853.717	1582.46
853.896	1501.48
854.075	1392.01
854.254	1415.84
854.433	1318.19
854.611	1394.33
854.79	1334.66
854.969	1397.82
855.148	1400.92
855.327	1386.2
855.505	1425.53
855.684	1399.95
855.863	1436.38
856.041	1434.25
856.22	1501.67
856.399	1442
856.577	1596.41
856.756	1494.89
856.934	1635.55
857.113	1604.36
857.291	1518.33
857.47	1507.1
857.648	1538.48
857.827	1539.26
858.005	1579.17
858.184	1510.78
858.362	1605.71
858.541	1534.41
858.719	1510.58
858.898	1499.73
859.076	1487.14
859.254	1559.6
859.433	1496.63
859.611	1496.63
859.789	1450.91
859.967	1547.39
860.146	1555.14
860.324	1419.91
860.502	1494.31
860.68	1451.3
860.859	1450.52
861.037	1475.71
861.215	1477.26
861.393	1483.85
861.571	1453.43
861.749	1442.58
861.927	1498.76
862.105	1476.48
862.283	1429.98
862.461	1415.65
862.639	1436.96
862.817	1424.56
862.995	1477.06
863.173	1414.1
863.351	1467.38
863.529	1434.63
863.707	1477.65
863.885	1445.29
864.063	1384.45
864.241	1387.55
864.418	1470.48
864.596	1425.92
864.774	1342.6
864.952	1404.99
865.129	1397.24
865.307	1384.84
865.485	1322.65
865.663	1413.32
865.84	1312.57
866.018	1326.91
866.196	1197.1
866.373	1256
866.551	1220.54
866.728	1172.11
866.906	1234.69
867.084	1224.03
867.261	1271.11
867.439	1260.65
867.616	1267.04
867.794	1265.1
867.971	1307.15
868.149	1293.97
868.326	1349.58
868.503	1338.73
868.681	1307.73
868.858	1310.05
869.035	1295.33
869.213	1310.05
869.39	1315.29
869.567	1357.13
869.745	1300.56
869.922	1327.49
870.099	1327.1
870.276	1327.49
870.454	1346.67
870.631	1342.02
870.808	1299.98
870.985	1311.6
871.162	1345.51
871.339	1288.74
871.517	1232.17
871.694	1267.24
871.871	1278.67
872.048	1242.05
872.225	1263.17
872.402	1297.07
872.579	1230.81
872.756	1284.09
872.933	1242.63
873.11	1239.53
873.287	1280.41
873.463	1280.02
873.64	1244.37
873.817	1268.01
873.994	1257.94
874.171	1214.15
874.348	1234.69
874.524	1204.85
874.701	1225.19
874.878	1159.13
875.055	1253.87
875.231	1191.09
875.408	1211.24
875.585	1151.96
875.762	1204.27
875.938	1186.25
876.115	1185.09
876.291	1183.92
876.468	1170.94
876.645	1112.43
876.821	1177.72
876.998	1152.54
877.174	1165.71
877.351	1144.79
877.527	1137.43
877.704	1153.12
877.88	1165.91
878.057	1169.78
878.233	1207.37
878.409	1140.72
878.586	1147.5
878.762	1156.22
878.938	1167.65
879.115	1078.72
879.291	1121.54
879.467	1093.06
879.644	1103.91
879.82	1153.7
879.996	1130.45
880.172	1085.11
880.349	1092.09
880.525	1143.63
880.701	1055.08
880.877	1066.9
881.053	1106.04
881.229	1103.13
881.405	1147.31
881.581	1031.25
881.757	1118.05
881.933	1104.1
882.109	1112.43
882.285	1108.56
882.461	1040.16
882.637	1078.72
882.813	1064.19
882.989	1097.51
883.165	1119.21
883.341	1073.1
883.517	1103.91
883.693	1112.43
883.869	1139.36
884.044	1078.91
884.22	1113.59
884.396	1124.44
884.572	1130.06
884.747	1127.93
884.923	1117.47
885.099	1114.37
885.275	1125.03
885.45	1061.28
885.626	1075.43
885.801	1052.95
885.977	1060.31
886.153	1031.25
886.328	1092.28
886.504	1037.26
886.679	1088.99
886.855	1058.57
887.03	1090.93
887.206	1098.87
887.381	1071.55
887.557	1108.75
887.732	1074.85
887.908	1082.4
888.083	1099.64
888.258	1049.85
888.434	1055.86
888.609	1068.26
888.784	1114.76
888.96	1070.78
889.135	1056.05
889.31	1057.02
889.485	1050.24
889.661	1047.72
889.836	1123.86
890.011	1121.34
890.186	1052.18
890.361	1046.75
890.537	1091.89
890.712	1075.23
890.887	1082.4
891.062	1076.59
891.237	1138.2
891.412	1033.38
891.587	1081.82
891.762	1095.38
891.937	1122.7
892.112	1021.95
892.287	1073.1
892.462	1010.52
892.637	1005.29
892.812	983.59
892.987	976.62
893.161	966.35
893.336	966.35
893.511	976.23
893.686	975.07
893.861	955.69
894.035	949.49
894.21	973.32
894.385	920.23
894.56	955.3
894.734	879.94
894.909	886.33
895.084	878.19
895.258	835.18
895.433	868.89
895.608	835.57
895.782	803.02
895.957	813.48
896.131	821.23
896.306	723.58
896.48	729.59
896.655	750.51
896.829	677.08
897.004	670.11
897.178	689.87
897.353	686.96
897.527	750.32
897.701	725.52
897.876	672.24
898.05	751.87
898.224	722.03
898.399	732.3
898.573	704.01
898.747	568.58
898.921	615.28
899.096	533.71
899.27	556.76
899.444	581.95
899.618	593.96
899.792	629.61
899.967	621.86
900.141	632.33
900.315	596.1
900.489	585.25
900.663	622.64
900.837	614.31
901.011	564.32
901.185	675.14
901.359	603.26
901.533	628.06
901.707	595.13
901.881	588.93
902.055	560.64
902.229	588.15
902.403	657.71
902.576	609.08
902.75	614.89
902.924	689.48
903.098	699.17
903.272	716.03
903.446	736.37
903.619	735.4
903.793	779.96
903.967	754.39
904.14	798.76
904.314	804.57
904.488	757.1
904.661	805.92
904.835	765.62
905.009	834.02
905.182	820.84
905.356	803.02
905.529	782.87
905.703	728.04
905.876	728.42
906.05	707.11
906.223	695.29
906.397	652.86
906.57	652.48
906.744	599
906.917	594.55
907.09	588.54
907.264	580.01
907.437	590.28
907.61	520.34
907.784	563.55
907.957	575.17
908.13	504.65
908.304	574.2
908.477	532.16
908.65	559.28
908.823	484.5
908.996	588.35
909.17	512.78
909.343	538.17
909.516	540.68
909.689	511.62
909.862	482.56
910.035	509.68
910.208	491.28
910.381	487.79
910.554	581.37
910.727	527.9
910.9	513.75
911.073	505.62
911.246	600.16
911.419	617.21
911.592	560.45
911.765	507.55
911.938	511.23
912.11	523.25
912.283	521.12
912.456	568
912.629	569.75
912.802	499.8
912.974	461.44
913.147	401.19
913.32	360.69
913.493	405.25
913.665	449.62
913.838	452.92
914.01	437.22
914.183	482.17
914.356	462.22
914.528	485.27
914.701	550.57
914.873	499.61
915.046	417.85
915.218	420.75
915.391	335.31
915.563	393.63
915.736	421.72
915.908	442.45
916.081	443.62
916.253	455.44
916.425	470.35
916.598	488.18
916.77	464.54
916.942	428.5
917.115	369.61
917.287	450.98
917.459	399.05
917.632	365.34
917.804	370.19
917.976	404.48
918.148	413.39
918.32	442.84
918.493	483.33
918.665	505.42
918.837	460.28
919.009	504.84
919.181	497.09
919.353	487.98
919.525	479.85
919.697	466.28
919.869	472.68
920.041	543.59
920.213	595.13
920.385	534.68
920.557	494.57
920.729	534.29
920.901	512.59
921.073	494.38
921.244	485.85
921.416	519.18
921.588	464.74
921.76	494.38
921.932	525.38
922.103	496.51
922.275	483.33
922.447	497.67
922.619	436.64
922.79	465.51
922.962	453.11
923.134	541.07
923.305	410.49
923.477	408.16
923.648	418.62
923.82	408.94
923.991	395.37
924.163	373.09
924.335	414.36
924.506	374.26
924.677	445.94
924.849	392.27
925.02	417.27
925.192	449.43
925.363	396.92
925.535	419.98
925.706	407.58
925.877	452.92
926.049	408.94
926.22	414.36
926.391	419.01
926.562	448.27
926.734	353.72
926.905	403.9
927.076	363.41
927.247	421.92
927.419	354.11
927.59	345.19
927.761	331.24
927.932	310.51
928.103	329.69
928.274	303.15
928.445	299.08
928.616	289.39
928.787	276.61
928.958	317.68
929.129	288.62
929.3	276.22
929.471	235.14
929.642	210.15
929.813	161.71
929.984	226.43
930.155	146.21
930.326	206.66
930.496	158.61
930.667	128.97
930.838	150.28
931.009	148.35
931.18	148.54
931.35	120.06
931.521	132.85
931.692	101.65
931.863	49.92
932.033	107.47
932.204	125.68
932.374	117.35
932.545	59.03
932.716	125.48
932.886	123.93
933.057	32.1
933.227	83.25
933.398	119.86
933.568	51.67
933.739	36.94
933.909	31.71
934.08	72.78
934.25	-24.86
934.421	8.27
934.591	43.14
934.761	15.24
934.932	28.42
935.102	41.78
935.272	43.72
935.443	41.78
935.613	50.7
935.783	83.44
935.953	-1.23
936.123	144.47
936.294	33.65
936.464	27.25
936.634	40.62
936.804	12.53
936.974	-19.44
937.144	21.83
937.314	41.98
937.484	1.29
937.655	-0.26
937.825	60.97
937.995	19.12
938.165	75.3
938.334	56.7
938.504	62.13
938.674	29.38
938.844	48.18
939.014	127.23
939.184	136.53
939.354	135.56
939.524	126.06
939.694	92.55
939.863	77.05
940.033	148.93
940.203	130.71
940.373	91.77
940.542	116.38
940.712	95.07
940.882	112.89
941.051	128.2
941.221	121.41
941.391	139.05
941.56	76.27
941.73	61.55
941.899	165.78
942.069	57.28
942.238	100.3
942.408	59.8
942.577	115.41
942.747	92.55
942.916	21.83
943.086	52.44
943.255	89.06
943.425	96.62
943.594	65.81
943.763	39.85
943.933	29.58
944.102	-12.46
944.271	53.8
944.441	85.18
944.61	50.89
944.779	75.3
944.948	140.98
945.117	50.12
945.287	24.35
945.456	14.85
945.625	29.77
945.794	73.56
945.963	50.7
946.132	79.18
946.301	39.07
946.47	68.52
946.639	13.5
946.808	63.68
946.977	70.07
947.146	91.77
947.315	45.08
947.484	73.17
947.653	59.22
947.822	55.35
947.991	29
948.16	115.99
948.329	94.68
948.498	40.43
948.666	36.75
948.835	74.72
949.004	48.57
949.173	40.04
949.341	59.42
949.51	81.7
949.679	112.5
949.847	90.42
950.016	129.75
950.185	115.8
950.353	65.23
950.522	56.32
950.69	106.88
950.859	42.17
951.028	97.2
951.196	56.9
951.365	27.84
951.533	28.42
951.701	113.47
951.87	83.44
952.038	31.13
952.207	66.78
952.375	109.02
952.543	67.55
952.712	39.46
952.88	34.23
953.048	126.84
953.217	60.19
953.385	68.13
953.553	107.27
953.721	15.82
953.89	55.93
954.058	19.7
954.226	21.44
954.394	59.22
954.562	1.68
954.73	73.37
954.898	37.52
955.067	94.48
955.235	51.67
955.403	93.32
955.571	126.06
955.739	71.23
955.907	56.7
956.075	49.92
956.243	37.52
956.41	75.3
956.578	33.26
956.746	16.6
956.914	43.53
957.082	52.05
957.25	104.37
957.418	52.05
957.585	58.25
957.753	123.16
957.921	52.44
958.089	70.27
958.256	84.22
958.424	58.83
958.592	72.78
958.759	41.59
958.927	85.96
959.095	51.08
959.262	38.49
959.43	78.02
959.597	44.3
959.765	59.03
959.932	29
960.1	108.05
960.267	79.37
960.435	69.68
960.602	89.06
960.77	37.33
960.937	35.39
961.104	57.67
961.272	10.79
961.439	41.59
961.606	63.87
961.774	80.15
961.941	63.29
962.108	85.77
962.275	52.44
962.443	111.53
962.61	77.82
962.777	144.86
962.944	82.47
963.111	72.98
963.278	107.47
963.446	91
963.613	69.88
963.78	97.78
963.947	88.87
964.114	93.32
964.281	168.11
964.448	94.68
964.615	70.65
964.782	86.35
964.949	128
965.116	91.77
965.282	156.1
965.449	61.55
965.616	55.35
965.783	100.1
965.95	92.74
966.117	50.5
966.283	84.22
966.45	87.32
966.617	76.27
966.784	107.47
966.95	117.54
967.117	129.75
967.284	98.75
967.45	70.46
967.617	113.28
967.784	115.22
967.95	136.14
968.117	115.8
968.283	122.19
968.45	165.78
968.616	120.45
968.783	145.44
968.949	103.4
969.116	159
969.282	111.15
969.449	114.05
969.615	114.44
969.781	71.43
969.948	101.46
970.114	62.32
970.28	162.49
970.447	127.03
970.613	149.51
970.779	112.7
970.945	129.55
971.112	118.7
971.278	98.17
971.444	124.9
971.61	135.36
971.776	119.86
971.942	126.26
972.108	139.24
972.275	84.8
972.441	119.28
972.607	163.85
972.773	100.1
972.939	143.89
973.105	95.07
973.271	87.9
973.437	117.15
973.602	69.1
973.768	132.26
973.934	96.81
974.1	134.4
974.266	30.55
974.432	102.04
974.598	76.85
974.763	129.94
974.929	89.25
975.095	144.47
975.261	52.25
975.426	49.15
975.592	84.22
975.758	159.58
975.923	62.52
976.089	71.23
976.255	123.35
976.42	124.51
976.586	126.84
976.751	80.73
976.917	171.01
977.082	94.87
977.248	76.27
977.413	38.1
977.579	98.55
977.744	102.82
977.91	47.79
978.075	69.88
978.24	125.68
978.406	88.87
978.571	75.88
978.736	86.54
978.902	103.2
979.067	75.3
979.232	47.02
979.397	75.11
979.563	145.83
979.728	74.53
979.893	76.85
980.058	66.58
980.223	122.96
980.388	94.87
980.554	124.32
980.719	79.95
980.884	89.25
981.049	116.57
981.214	73.75
981.379	99.33
981.544	56.51
981.709	96.42
981.874	77.05
982.039	105.33
982.204	100.88
982.368	101.85
982.533	64.26
982.698	138.08
982.863	116.57
983.028	82.67
983.193	94.48
983.357	96.81
983.522	93.9
983.687	95.84
983.852	98.75
984.016	66.39
984.181	123.16
984.346	91.77
984.51	106.3
984.675	92.55
984.839	128.97
985.004	92.55
985.168	137.11
985.333	93.52
985.498	83.05
985.662	89.45
985.827	114.83
985.991	88.67
986.155	74.72
986.32	120.06
986.484	116.18
986.649	113.28
986.813	44.3
986.977	113.08
987.142	107.27
987.306	64.84
987.47	78.98
987.634	83.25
987.799	101.27
987.963	104.95
988.127	104.95
988.291	170.82
988.455	80.92
988.62	76.08
988.784	99.91
988.948	116.38
989.112	73.75
989.276	73.95
989.44	112.31
989.604	66
989.768	68.13
989.932	128.39
990.096	76.27
990.26	57.87
990.424	49.34
990.588	73.17
990.752	138.46
990.915	98.36
991.079	39.07
991.243	57.67
991.407	117.35
991.571	82.47
991.734	92.93
991.898	103.2
992.062	144.47
992.226	87.32
992.389	73.56
992.553	28.42
992.717	74.33
992.88	54.96
993.044	89.25
993.207	72.01
993.371	99.52
993.535	109.4
993.698	49.34
993.862	98.94
994.025	104.95
994.189	95.65
994.352	96.03
994.515	90.42
994.679	131.3
994.842	76.08
995.006	99.91
995.169	76.66
995.332	66.2
995.496	107.08
995.659	46.43
995.822	80.34
995.985	70.27
996.149	103.98
996.312	76.85
996.475	131.3
996.638	25.9
996.801	111.92
996.964	126.26
997.128	70.46
997.291	71.82
997.454	67.17
997.617	44.69
997.78	124.13
997.943	67.17
998.106	105.92
998.269	68.13
998.432	40.43
998.595	50.5
998.758	40.62
998.92	50.5
999.083	34.23
999.246	65.42
999.409	-1.81
999.572	29.77
999.735	33.45
999.897	79.76
1000.06	61.35
1000.223	44.3
1000.386	101.65
1000.548	85.57
1000.711	71.23
1000.874	77.63
1001.036	40.04
1001.199	109.79
1001.361	63.1
1001.524	79.76
1001.687	77.82
1001.849	40.04
1002.012	71.23
1002.174	70.85
1002.337	84.8
1002.499	46.82
1002.661	80.15
1002.824	24.35
1002.986	39.07
1003.149	43.14
1003.311	52.44
1003.473	104.37
1003.636	71.82
1003.798	71.62
1003.96	79.95
1004.123	68.72
1004.285	52.05
1004.447	36.75
1004.609	49.34
1004.771	101.65
1004.933	38.49
1005.096	57.48
1005.258	29.58
1005.42	50.5
1005.582	79.76
1005.744	25.51
1005.906	-11.5
1006.068	54.96
1006.23	0.32
1006.392	-12.08
1006.554	22.41
1006.716	75.69
1006.878	62.52
1007.04	28.8
1007.202	44.5
1007.363	43.92
1007.525	64.65
1007.687	57.28
1007.849	75.69
1008.011	4.39
1008.172	19.7
1008.334	43.72
1008.496	69.49
1008.658	6.14
1008.819	8.07
1008.981	3.04
1009.143	32.68
1009.304	26.48
1009.466	52.25
1009.627	99.91
1009.789	131.3
1009.95	52.05
1010.112	37.91
1010.273	62.52
1010.435	31.13
1010.596	28.8
1010.758	43.92
1010.919	37.52
1011.081	10.98
1011.242	21.64
1011.403	84.02
1011.565	29.58
1011.726	59.61
1011.887	-4.52
1012.049	23.57
1012.21	66.58
1012.371	86.35
1012.532	-31.26
1012.693	8.27
1012.855	31.52
1013.016	17.37
1013.177	48.95
1013.338	43.53
1013.499	81.12
1013.66	68.91
1013.821	12.53
1013.982	43.72
1014.143	36.55
1014.304	26.67
1014.465	48.57
1014.626	50.31
1014.787	36.94
1014.948	74.33
1015.109	-43.08
1015.27	75.11
1015.431	11.37
1015.592	20.28
1015.752	90.61
1015.913	43.53
1016.074	39.65
1016.235	28.03
1016.395	22.99
1016.556	16.02
1016.717	23.96
1016.877	56.12
1017.038	18.73
1017.199	50.5
1017.359	27.06
1017.52	31.9
1017.681	12.92
1017.841	44.69
1018.002	27.25
1018.162	1.29
1018.323	75.69
1018.483	-3.36
1018.644	52.25
1018.804	-4.52
1018.964	-3.75
1019.125	29.19
1019.285	34.42
1019.446	-11.69
1019.606	-14.4
1019.766	-29.71
1019.926	62.71
1020.087	44.88
1020.247	-10.72
1020.407	41.98
1020.567	80.15
1020.728	17.57
1020.888	-5.88
1021.048	11.56
1021.208	-3.55
1021.368	21.05
1021.528	58.45
1021.688	27.06
1021.848	37.91
1022.008	30.93
1022.168	4.39
1022.328	25.51
1022.488	23.19
1022.648	-21.57
1022.808	12.14
1022.968	51.67
1023.128	1.68
1023.288	-10.33
1023.448	7.69
1023.608	39.07
1023.767	21.25
1023.927	-2.97
1024.087	21.64
1024.247	0.71
1024.406	15.24
1024.566	-5.88
1024.726	-21.96
1024.885	39.65
1025.045	37.52
1025.205	1.87
1025.364	16.02
1025.524	19.7
1025.683	20.28
1025.843	13.11
1026.003	15.82
1026.162	49.15
1026.321	17.95
1026.481	27.25
1026.64	3.04
1026.8	27.06
1026.959	41.2
1027.119	22.22
1027.278	15.24
1027.437	12.92
1027.597	26.29
1027.756	24.74
1027.915	25.12
1028.074	32.87
1028.234	-13.82
1028.393	15.05
1028.552	-17.11
1028.711	-52.57
1028.87	23.19
1029.03	-14.01
1029.189	12.92
1029.348	-25.45
1029.507	2.26
1029.666	9.43
1029.825	-4.91
1029.984	-38.23
1030.143	13.89
1030.302	19.12
1030.461	-24.48
1030.62	-8.78
1030.779	41.59
1030.938	-0.06
1031.097	1.29
1031.255	33.84
1031.414	48.18
1031.573	73.95
1031.732	-39.4
1031.891	4.2
1032.049	52.25
1032.208	32.1
1032.367	-14.4
1032.525	13.5
1032.684	-1.61
1032.843	26.09
1033.001	-31.06
1033.16	141.76
1033.319	69.3
1033.477	17.57
1033.636	-13.43
1033.794	-29.9
1033.953	21.05
1034.111	57.48
1034.27	-17.11
1034.428	12.72
1034.587	-20.99
1034.745	13.11
1034.903	17.95
1035.062	17.57
1035.22	-15.95
1035.378	17.57
1035.537	-6.65
1035.695	20.67
1035.853	23.57
1036.011	43.33
1036.17	16.6
1036.328	-50.63
1036.486	-5.88
1036.644	22.02
1036.802	-56.06
1036.96	-28.55
1037.119	4.39
1037.277	-27.58
1037.435	-42.3
1037.593	-25.25
1037.751	-20.6
1037.909	45.47
1038.067	45.47
