Data from gum_young_FLMT105791__39__17-38-38-044.txt Node

Date: Mon Mar 20 17:38:38 GMT 2023
User: antho
Spectrometer: FLMT10579
Trigger mode: 0
Integration Time (sec): 1.000000E-1
Scans to average: 10
Electric dark correction enabled: true
Nonlinearity correction enabled: false
Boxcar width: 0
XAxis mode: Wavelengths
Number of Pixels in Spectrum: 3648
>>>>>Begin Spectral Data<<<<<
345.248	-140.03
345.464	-140.03
345.681	-140.03
345.898	-161.34
346.114	-140.22
346.331	-24.17
346.548	32.6
346.764	-3.05
346.981	9.93
347.197	-26.88
347.414	10.32
347.631	-17
347.847	24.65
348.064	23.88
348.28	-1.7
348.497	-32.31
348.713	3.73
348.93	24.27
349.146	34.15
349.363	-19.52
349.579	26.2
349.796	22.72
350.012	7.41
350.229	53.72
350.445	24.85
350.661	-5.18
350.878	19.81
351.094	20.97
351.311	7.6
351.527	8.96
351.743	-4.21
351.96	42.48
352.176	44.8
352.392	42.87
352.609	55.07
352.825	18.65
353.041	26.2
353.257	-27.85
353.474	0.05
353.69	17.87
353.906	33.18
354.122	-16.23
354.339	81.42
354.555	-12.55
354.771	0.63
354.987	53.52
355.203	82.39
355.42	5.28
355.636	-4.41
355.852	-10.8
356.068	5.09
356.284	-30.95
356.5	55.07
356.716	-7.7
356.932	29.3
357.148	61.47
357.364	0.63
357.58	42.48
357.796	69.41
358.012	72.51
358.228	33.37
358.444	-31.14
358.66	36.67
358.876	30.27
359.092	-3.05
359.308	6.25
359.524	27.37
359.74	0.05
359.956	-26.3
360.172	5.09
360.388	79.68
360.604	12.25
360.819	80.84
361.035	33.57
361.251	51.97
361.467	-12.74
361.683	40.93
361.898	26.98
362.114	18.45
362.33	-3.05
362.546	33.57
362.762	16.13
362.977	21.17
363.193	-16.42
363.409	45.97
363.624	-11.96
363.84	1.02
364.056	-6.73
364.271	-5.96
364.487	24.46
364.703	-14.68
364.918	-23.78
365.134	17.29
365.35	26.59
365.565	75.42
365.781	29.5
365.996	32.79
366.212	76.19
366.427	5.09
366.643	10.7
366.858	-11.38
367.074	13.03
367.289	64.76
367.505	134.9
367.72	4.5
367.936	10.12
368.151	61.27
368.367	36.67
368.582	15.94
368.798	9.74
369.013	68.83
369.228	17.68
369.444	9.54
369.659	58.56
369.874	18.45
370.09	40.15
370.305	-36.38
370.52	4.89
370.736	75.61
370.951	34.15
371.166	38.02
371.381	79.48
371.597	44.61
371.812	-6.73
372.027	-7.51
372.242	11.09
372.458	82.97
372.673	15.94
372.888	19.04
373.103	60.89
373.318	93.82
373.533	39.57
373.749	28.72
373.964	-31.14
374.179	58.37
374.394	-3.63
374.609	54.3
374.824	-13.9
375.039	66.31
375.254	-8.86
375.469	71.54
375.684	36.09
375.899	37.44
376.114	4.31
376.329	41.9
376.544	63.4
376.759	47.13
376.974	11.48
377.189	12.64
377.404	22.72
377.619	53.33
377.834	-23.2
378.049	1.21
378.264	12.84
378.478	38.02
378.693	-5.57
378.908	41.7
379.123	27.37
379.338	71.93
379.553	33.57
379.767	-6.73
379.982	56.62
380.197	34.34
380.412	24.07
380.626	45.97
380.841	100.22
381.056	38.41
381.271	90.72
381.485	7.99
381.7	-7.9
381.915	26.01
382.129	7.02
382.344	37.25
382.559	23.1
382.773	53.33
382.988	-34.24
383.202	40.74
383.417	6.83
383.632	101.77
383.846	8.38
384.061	55.85
384.275	-5.76
384.49	39.57
384.704	37.05
384.919	37.25
385.133	40.15
385.348	63.79
385.562	5.09
385.777	39.19
385.991	44.42
386.206	31.82
386.42	6.05
386.634	86.07
386.849	30.08
387.063	59.92
387.277	1.4
387.492	4.12
387.706	-16.42
387.92	-3.63
388.135	26.01
388.349	57.79
388.563	21.94
388.778	49.45
388.992	58.37
389.206	47.52
389.42	78.9
389.635	44.22
389.849	52.55
390.063	69.8
390.277	31.44
390.491	112.62
390.706	76.77
390.92	53.91
391.134	56.43
391.348	75.8
391.562	0.24
391.776	48.49
391.99	2.95
392.205	50.81
392.419	8.57
392.633	41.12
392.847	88.2
393.061	-2.47
393.275	102.35
393.489	32.02
393.703	68.05
393.917	61.66
394.131	-1.89
394.345	71.15
394.559	49.26
394.773	32.4
394.986	54.69
395.2	35.31
395.414	96.53
395.628	47.71
395.842	33.37
396.056	40.93
396.27	9.93
396.484	58.37
396.697	53.91
396.911	59.14
397.125	47.71
397.339	64.57
397.553	74.25
397.766	83.17
397.98	94.98
398.194	86.46
398.408	36.09
398.621	66.7
398.835	71.15
399.049	77.93
399.262	91.11
399.476	82
399.69	56.82
399.903	106.22
400.117	56.82
400.331	81.81
400.544	37.25
400.758	142.45
400.971	81.62
401.185	54.1
401.398	61.08
401.612	91.11
401.826	104.48
402.039	90.53
402.253	79.1
402.466	80.84
402.68	74.64
402.893	88.59
403.106	58.75
403.32	58.17
403.533	89.37
403.747	72.12
403.96	77.55
404.174	119.4
404.387	45.19
404.6	60.11
404.814	97.7
405.027	88.98
405.24	58.95
405.454	64.37
405.667	116.1
405.88	28.92
406.094	73.28
406.307	106.8
406.52	86.85
406.733	60.11
406.947	57.01
407.16	148.07
407.373	139.93
407.586	79.68
407.799	60.11
408.012	97.12
408.226	74.06
408.439	148.65
408.652	50.81
408.865	113
409.078	114.55
409.291	90.33
409.504	62.44
409.717	107.38
409.93	114.36
410.143	114.75
410.357	55.46
410.57	62.63
410.783	79.87
410.996	101.18
411.209	79.29
411.421	125.98
411.634	115.72
411.847	77.93
412.06	98.86
412.273	68.44
412.486	115.13
412.699	204.45
412.912	80.84
413.125	92.47
413.338	109.13
413.55	150.98
413.763	94.21
413.976	119.78
414.189	87.82
414.402	87.43
414.615	156.98
414.827	75.22
415.04	126.37
415.253	116.49
415.466	153.11
415.678	183.72
415.891	119.01
416.104	116.3
416.316	86.27
416.529	83.55
416.742	129.47
416.954	140.71
417.167	99.63
417.38	96.73
417.592	140.71
417.805	96.34
418.017	80.65
418.23	141.48
418.442	113.78
418.655	108.35
418.868	141.87
419.08	153.3
419.293	174.81
419.505	109.52
419.718	142.45
419.93	120.37
420.142	105.45
420.355	154.66
420.567	165.31
420.78	127.53
420.992	110.29
421.205	150.2
421.417	114.36
421.629	131.6
421.842	94.4
422.054	103.32
422.266	165.9
422.479	169.58
422.691	109.9
422.903	155.43
423.115	110.48
423.328	116.49
423.54	143.03
423.752	134.51
423.964	105.64
424.177	139.35
424.389	139.55
424.601	205.23
424.813	157.18
425.025	167.25
425.238	165.12
425.45	125.21
425.662	134.7
425.874	399.94
426.086	155.82
426.298	149.23
426.51	141.1
426.722	133.54
426.934	141.68
427.146	139.55
427.358	114.36
427.57	174.81
427.782	120.75
427.994	140.32
428.206	112.03
428.418	114.75
428.63	158.53
428.842	153.69
429.054	156.21
429.266	155.05
429.478	120.56
429.69	145.17
429.902	89.75
430.114	167.25
430.325	148.85
430.537	125.6
430.749	101.57
430.961	59.14
431.173	123.66
431.384	137.03
431.596	65.73
431.808	131.41
432.02	166.86
432.231	159.11
432.443	186.63
432.655	149.62
432.867	138.77
433.078	162.6
433.29	223.63
433.502	201.35
433.713	208.91
433.925	163.18
434.136	206.39
434.348	148.65
434.56	101.38
434.771	248.63
434.983	115.33
435.194	130.05
435.406	170.74
435.617	197.86
435.829	213.17
436.04	202.13
436.252	215.11
436.463	229.45
436.675	205.42
436.886	183.33
437.098	202.51
437.309	238.55
437.521	199.8
437.732	227.9
437.943	170.93
438.155	224.21
438.366	131.22
438.578	236.81
438.789	164.35
439	185.85
439.211	171.9
439.423	212.78
439.634	216.66
439.845	191.08
440.057	172.87
440.268	225.18
440.479	180.81
440.69	192.25
440.902	209.1
441.113	207.36
441.324	216.85
441.535	211.23
441.746	277.69
441.957	177.71
442.168	205.61
442.38	237
442.591	219.18
442.802	194.96
443.013	213.36
443.224	230.22
443.435	221.5
443.646	218.6
443.857	213.36
444.068	217.43
444.279	218.4
444.49	270.33
444.701	224.8
444.912	311.98
445.123	260.25
445.334	256.96
445.545	238.16
445.756	231.58
445.967	190.5
446.178	249.4
446.388	246.3
446.599	268.97
446.81	246.69
447.021	237.97
447.232	255.02
447.443	289.7
447.653	233.32
447.864	273.04
448.075	278.08
448.286	293.19
448.496	283.89
448.707	270.33
448.918	254.05
449.129	325.54
449.339	248.04
449.55	293.58
449.761	250.76
449.971	319.73
450.182	254.83
450.393	286.79
450.603	247.85
450.814	324.38
451.024	279.43
451.235	302.49
451.446	303.07
451.656	339.3
451.867	297.64
452.077	305.39
452.288	341.04
452.498	348.21
452.709	300.74
452.919	317.6
453.13	283.69
453.34	321.28
453.55	245.33
453.761	319.93
453.971	310.63
454.182	330.97
454.392	309.66
454.602	377.08
454.813	318.18
455.023	342.59
455.233	275.36
455.444	330.39
455.654	267.42
455.864	326.71
456.075	285.24
456.285	301.33
456.495	299.78
456.705	343.37
456.916	343.17
457.126	376.89
457.336	330.19
457.546	254.05
457.756	320.31
457.967	357.32
458.177	333.1
458.387	331.94
458.597	297.06
458.807	310.43
459.017	318.76
459.227	314.89
459.437	302.68
459.647	373.98
459.857	333.87
460.068	300.55
460.278	356.54
460.488	367.97
460.698	374.56
460.908	342.01
461.117	284.66
461.327	316.63
461.537	337.56
461.747	341.82
461.957	336.01
462.167	417.38
462.377	382.51
462.587	335.62
462.797	393.36
463.007	349.18
463.216	398.2
463.426	423.77
463.636	380.57
463.846	332.52
464.056	320.89
464.265	402.46
464.475	349.57
464.685	366.04
464.895	406.53
465.104	372.43
465.314	404.59
465.524	361
465.733	326.71
465.943	447.41
466.153	410.6
466.362	409.44
466.572	365.07
466.782	373.21
466.991	384.44
467.201	422.03
467.41	311.98
467.62	380.96
467.829	367.97
468.039	427.26
468.249	344.14
468.458	377.27
468.668	402.85
468.877	422.22
469.086	448.77
469.296	437.34
469.505	381.54
469.715	440.24
469.924	401.69
470.134	430.36
470.343	451.48
470.552	408.66
470.762	409.63
470.971	413.7
471.18	415.64
471.39	415.25
471.599	359.45
471.808	433.65
472.018	423.58
472.227	461.17
472.436	464.85
472.645	445.09
472.855	400.33
473.064	490.23
473.273	442.57
473.482	466.79
473.691	485.39
473.901	482.48
474.11	429.78
474.319	521.62
474.528	464.27
474.737	505.34
474.946	474.73
475.155	474.34
475.364	528.78
475.573	497.4
475.783	482.48
475.992	523.36
476.201	532.85
476.41	489.65
476.619	489.65
476.828	481.12
477.037	476.86
477.245	489.26
477.454	532.85
477.663	511.73
477.872	501.27
478.081	583.42
478.29	509.41
478.499	600.28
478.708	573.35
478.917	591.95
479.125	542.15
479.334	565.02
479.543	561.14
479.752	583.23
479.961	564.05
480.169	588.46
480.378	559.2
480.587	701.03
480.796	607.83
481.004	596.98
481.213	598.73
481.422	607.83
481.63	609.19
481.839	614.61
482.048	663.25
482.256	616.55
482.465	647.16
482.674	634.18
482.882	665.38
483.091	689.21
483.299	649.1
483.508	681.65
483.716	651.04
483.925	631.86
484.134	637.28
484.342	650.26
484.551	686.11
484.759	689.59
484.967	690.56
485.176	696.57
485.384	694.05
485.593	685.72
485.801	676.61
486.01	643.68
486.218	626.05
486.426	593.3
486.635	579.35
486.843	589.81
487.051	625.46
487.26	650.65
487.468	676.61
487.676	693.47
487.885	649.3
488.093	686.3
488.301	720.98
488.509	715.17
488.717	762.44
488.926	695.99
489.134	714.2
489.342	709.16
489.55	713.43
489.758	730.86
489.967	731.44
490.175	800.81
490.383	751.98
490.591	836.26
490.799	746.75
491.007	818.44
491.215	788.6
491.423	787.24
491.631	792.09
491.839	769.61
492.047	801.39
492.255	743.46
492.463	755.86
492.671	780.46
492.879	824.64
493.087	770.77
493.295	823.28
493.503	815.53
493.711	835.68
493.919	860.09
494.127	837.04
494.334	878.5
494.542	829.48
494.75	851.57
494.958	847.31
495.166	897.68
495.374	887.99
495.581	856.22
495.789	864.16
495.997	925.97
496.205	864.94
496.412	850.6
496.62	898.45
496.828	901.94
497.035	888.38
497.243	906.01
497.451	911.24
497.658	887.99
497.866	898.07
498.074	928.29
498.281	909.3
498.489	985.06
498.696	897.29
498.904	884.5
499.112	891.67
499.319	974.02
499.527	958.52
499.734	991.65
499.942	918.41
500.149	947.86
500.357	939.14
500.564	925.77
500.771	972.47
500.979	914.54
501.186	915.7
501.394	971.69
501.601	923.25
501.808	987.97
502.016	970.72
502.223	947.08
502.43	956.19
502.638	977.7
502.845	936.24
503.052	1032.91
503.26	983.51
503.467	1086.97
503.674	1007.53
503.881	1054.42
504.089	1077.28
504.296	1050.55
504.503	974.02
504.71	1008.12
504.917	994.55
505.125	1030.01
505.332	1080.58
505.539	1080.58
505.746	1139.67
505.953	1112.55
506.16	1135.6
506.367	1173.19
506.574	1165.05
506.781	1160.4
506.988	1112.55
507.195	1162.92
507.402	1181.52
507.609	1166.79
507.816	1099.76
508.023	1153.23
508.23	1161.56
508.437	1119.52
508.644	1170.67
508.851	1237.71
509.058	1208.84
509.265	1230.54
509.472	1230.15
509.679	1328.19
509.885	1237.71
510.092	1297.38
510.299	1230.73
510.506	1270.45
510.713	1234.61
510.92	1261.15
511.126	1290.99
511.333	1337.68
511.54	1353.37
511.746	1372.75
511.953	1395.61
512.16	1408.59
512.367	1366.35
512.573	1352.02
512.78	1364.61
512.987	1371.78
513.193	1371
513.4	1320.82
513.606	1354.54
513.813	1367.71
514.02	1372.75
514.226	1442.69
514.433	1426.61
514.639	1337.1
514.846	1416.15
515.052	1395.61
515.259	1419.83
515.465	1426.22
515.672	1418.67
515.878	1530.65
516.085	1488.8
516.291	1505.46
516.497	1505.66
516.704	1442.5
516.91	1397.16
517.117	1327.8
517.323	1334.77
517.529	1363.25
517.736	1338.07
517.942	1409.37
518.148	1451.8
518.354	1461.48
518.561	1466.71
518.767	1438.23
518.973	1508.95
519.179	1530.26
519.386	1505.27
519.592	1509.73
519.798	1499.07
520.004	1618.23
520.21	1620.74
520.417	1635.28
520.623	1678.48
520.829	1678.29
521.035	1726.14
521.241	1689.33
521.447	1717.62
521.653	1831.35
521.859	1739.9
522.065	1757.92
522.271	1854.4
522.477	1817.2
522.683	1808.29
522.889	1835.03
523.095	1824.76
523.301	1840.26
523.507	1819.14
523.713	1861.18
523.919	1803.45
524.125	1922.02
524.331	1854.4
524.537	1971.43
524.742	1981.89
524.948	1937.71
525.154	1974.14
525.36	2068.69
525.566	1989.25
525.772	2028.19
525.977	1990.41
526.183	2033.43
526.389	2038.85
526.595	1953.8
526.8	1952.83
527.006	1859.44
527.212	1847.62
527.417	1844.91
527.623	1831.54
527.829	1940.81
528.034	1965.03
528.24	1947.98
528.446	1987.51
528.651	2053.96
528.857	2107.05
529.062	2116.74
529.268	2127.2
529.473	2101.82
529.679	2168.85
529.884	2211.09
530.09	2221.55
530.295	2200.05
530.501	2194.04
530.706	2246.74
530.912	2186.87
531.117	2232.6
531.323	2204.89
531.528	2265.34
531.733	2269.22
531.939	2226.79
532.144	2271.93
532.35	2269.41
532.555	2289.75
532.76	2201.99
532.966	2215.16
533.171	2232.99
533.376	2170.99
533.581	2204.7
533.787	2197.53
533.992	2276
534.197	2279.87
534.402	2261.66
534.607	2266.12
534.813	2344.97
535.018	2259.53
535.223	2297.12
535.428	2350.98
535.633	2415.11
535.838	2409.1
536.043	2391.86
536.249	2472.46
536.454	2408.52
536.659	2404.45
536.864	2354.66
537.069	2358.15
537.274	2363.57
537.479	2341.68
537.684	2374.42
537.889	2349.04
538.094	2476.14
538.299	2386.43
538.504	2430.8
538.708	2404.06
538.913	2451.14
539.118	2430.61
539.323	2492.03
539.528	2393.41
539.733	2427.31
539.938	2427.12
540.142	2413.56
540.347	2394.38
540.552	2369
540.757	2333.93
540.962	2390.31
541.166	2284.91
541.371	2323.85
541.576	2387.4
541.781	2304.28
541.985	2413.17
542.19	2417.63
542.395	2474.78
542.599	2490.48
542.804	2459.86
543.008	2495.9
543.213	2436.23
543.418	2403.68
543.622	2468.58
543.827	2412.98
544.031	2488.15
544.236	2505.78
544.44	2554.22
544.645	2569.52
544.849	2503.65
545.054	2508.3
545.258	2620.48
545.463	2604.59
545.667	2497.45
545.872	2550.54
546.076	2550.34
546.281	2536.2
546.485	2493.77
546.689	2533.49
546.894	2526.51
547.098	2542.59
547.302	2522.25
547.507	2509.66
547.711	2576.5
547.915	2573.01
548.119	2479.04
548.324	2507.53
548.528	2573.79
548.732	2548.21
548.936	2591.42
549.141	2573.79
549.345	2547.24
549.549	2609.24
549.753	2589.09
549.957	2685.19
550.161	2658.26
550.366	2614.28
550.57	2567.2
550.774	2585.02
550.978	2598.78
551.182	2613.89
551.386	2589.67
551.59	2569.91
551.794	2552.09
551.998	2632.88
552.202	2574.76
552.406	2555.57
552.61	2648.96
552.814	2600.91
553.018	2641.21
553.222	2569.33
553.426	2592.58
553.63	2666.01
553.833	2615.05
554.037	2533.87
554.241	2625.13
554.445	2652.06
554.649	2607.3
554.853	2592.77
555.056	2637.92
555.26	2659.81
555.464	2609.82
555.668	2617.38
555.871	2640.44
556.075	2655.35
556.279	2610.79
556.483	2550.73
556.686	2597.23
556.89	2566.42
557.094	2550.34
557.297	2510.43
557.501	2582.7
557.704	2489.51
557.908	2551.12
558.112	2497.06
558.315	2562.94
558.519	2484.08
558.722	2474.39
558.926	2481.76
559.129	2420.15
559.333	2416.27
559.536	2419.37
559.74	2407.75
559.943	2370.35
560.147	2387.4
560.35	2414.14
560.553	2413.17
560.757	2402.9
560.96	2510.82
561.164	2467.61
561.367	2551.12
561.57	2448.63
561.774	2449.79
561.977	2418.79
562.18	2416.85
562.384	2478.85
562.587	2382.75
562.79	2450.37
562.993	2420.34
563.197	2464.71
563.4	2477.49
563.603	2480.01
563.806	2467.61
564.009	2344.39
564.212	2431.96
564.416	2354.66
564.619	2403.48
564.822	2356.98
565.025	2408.52
565.228	2335.48
565.431	2384.11
565.634	2267.47
565.837	2298.47
566.04	2266.31
566.243	2245.97
566.446	2201.21
566.649	2308.35
566.852	2218.84
567.055	2248.68
567.258	2286.46
567.461	2342.84
567.664	2288.78
567.867	2185.52
568.07	2230.85
568.273	2262.05
568.475	2272.51
568.678	2193.65
568.881	2207.8
569.084	2197.72
569.287	2117.12
569.489	2155.68
569.692	2145.8
569.895	2174.28
570.098	2072.76
570.3	2105.89
570.503	2071.59
570.706	2070.63
570.909	2032.84
571.111	2029.94
571.314	1991.77
571.516	2019.09
571.719	2032.26
571.922	1997.97
572.124	2065.98
572.327	2034.98
572.529	1999.91
572.732	2010.37
572.935	2066.36
573.137	2096.39
573.34	2025.09
573.542	2068.88
573.745	2031.88
573.947	2019.09
574.15	2001.07
574.352	1981.89
574.554	2071.59
574.757	1946.05
574.959	1949.92
575.162	1928.03
575.364	1947.01
575.566	2022.19
575.769	1919.5
575.971	1933.06
576.173	1846.07
576.376	1918.53
576.578	1932.87
576.78	1971.23
576.982	1864.67
577.185	1904
577.387	1889.86
577.589	1877.07
577.791	1879.4
577.993	1936.94
578.196	1891.6
578.398	1862.15
578.6	1884.05
578.802	1833.28
579.004	1826.12
579.206	1839.48
579.408	1873.78
579.61	1832.32
579.812	1897.8
580.014	1826.89
580.216	1827.47
580.418	1851.11
580.62	1824.95
580.822	1813.33
581.024	1847.04
581.226	1890.25
581.428	1853.43
581.63	1928.41
581.832	1828.63
582.034	1922.41
582.236	1853.63
582.438	1896.64
582.64	1897.03
582.841	1935
583.043	2014.05
583.245	1893.54
583.447	1935.58
583.649	1858.47
583.85	1909.04
584.052	1930.93
584.254	1845.49
584.456	1910.78
584.657	1853.24
584.859	1890.44
585.061	1840.26
585.262	1854.4
585.464	1830.77
585.666	1896.25
585.867	1793.18
586.069	1879.01
586.27	1840.65
586.472	1817.4
586.674	1827.08
586.875	1776.13
587.077	1825.73
587.278	1812.75
587.48	1806.16
587.681	1887.53
587.883	1798.6
588.084	1739.32
588.285	1784.46
588.487	1724.01
588.688	1752.49
588.89	1686.62
589.091	1645.16
589.292	1620.55
589.494	1565.53
589.695	1577.54
589.896	1503.91
590.098	1543.63
590.299	1571.73
590.5	1549.83
590.702	1580.44
590.903	1615.32
591.104	1685.65
591.305	1645.16
591.507	1714.13
591.708	1667.05
591.909	1650.19
592.11	1673.06
592.311	1707.54
592.512	1638.96
592.714	1600.4
592.915	1611.83
593.116	1637.21
593.317	1655.62
593.518	1639.34
593.719	1643.22
593.92	1677.32
594.121	1714.13
594.322	1682.55
594.523	1635.86
594.724	1601.95
594.925	1618.81
595.126	1618.61
595.327	1617.64
595.528	1654.46
595.729	1646.51
595.929	1622.1
596.13	1613.19
596.331	1652.32
596.532	1650.39
596.733	1694.76
596.934	1690.69
597.135	1677.32
597.335	1671.7
597.536	1620.74
597.737	1662.98
597.938	1629.85
598.138	1705.99
598.339	1647.29
598.54	1666.27
598.74	1572.31
598.941	1648.84
599.142	1700.96
599.342	1668.02
599.543	1628.88
599.744	1659.88
599.944	1660.46
600.145	1647.29
600.345	1673.83
600.546	1726.53
600.746	1705.41
600.947	1722.46
601.147	1656.78
601.348	1701.54
601.548	1646.71
601.749	1667.24
601.949	1603.31
602.15	1612.8
602.35	1608.15
602.551	1700.37
602.751	1614.16
602.951	1632.56
603.152	1543.05
603.352	1675.57
603.552	1638.96
603.753	1671.7
603.953	1675.38
604.153	1656.2
604.354	1643.99
604.554	1665.69
604.754	1636.44
604.954	1585.48
605.155	1644.19
605.355	1632.76
605.555	1705.41
605.755	1705.41
605.955	1621.52
606.155	1637.6
606.356	1636.63
606.556	1648.64
606.756	1652.13
606.956	1581.61
607.156	1681.58
607.356	1629.46
607.556	1657.75
607.756	1611.44
607.956	1649.42
608.156	1626.75
608.356	1582.77
608.556	1617.64
608.756	1591.29
608.956	1574.05
609.156	1606.21
609.356	1568.63
609.556	1540.92
609.755	1591.68
609.955	1538.98
610.155	1543.44
610.355	1582.96
610.555	1557
610.755	1551.77
610.954	1500.43
611.154	1567.27
611.354	1598.08
611.554	1515.54
611.753	1513.41
611.953	1492.1
612.153	1566.69
612.352	1561.46
612.552	1489.58
612.752	1477.95
612.951	1529.88
613.151	1516.9
613.351	1485.51
613.55	1508.37
613.75	1504.5
613.949	1499.46
614.149	1514.96
614.348	1475.82
614.548	1459.55
614.747	1442.11
614.947	1423.51
615.146	1406.46
615.346	1520.96
615.545	1462.65
615.745	1464.2
615.944	1454.7
616.144	1445.4
616.343	1456.45
616.542	1432.62
616.742	1438.82
616.941	1425.83
617.14	1355.89
617.34	1411.5
617.539	1390.18
617.738	1387.86
617.938	1488.61
618.137	1408.2
618.336	1428.35
618.535	1422.93
618.734	1402.39
618.934	1438.82
619.133	1416.73
619.332	1453.93
619.531	1395.03
619.73	1419.25
619.929	1443.85
620.128	1444.63
620.328	1440.37
620.527	1402.2
620.726	1383.02
620.925	1398.13
621.124	1415.57
621.323	1430.29
621.522	1374.49
621.721	1380.5
621.92	1337.29
622.119	1407.62
622.318	1381.08
622.517	1367.71
622.715	1334
622.914	1301.06
623.113	1379.53
623.312	1292.34
623.511	1379.14
623.71	1320.63
623.909	1281.11
624.107	1389.02
624.306	1313.65
624.505	1318.69
624.704	1281.69
624.902	1290.21
625.101	1324.12
625.3	1288.86
625.499	1290.6
625.697	1280.33
625.896	1242.74
626.095	1287.11
626.293	1227.24
626.492	1254.56
626.69	1305.32
626.889	1289.44
627.088	1327.99
627.286	1286.34
627.485	1282.85
627.683	1251.07
627.882	1282.46
628.08	1171.06
628.279	1213.68
628.477	1270.06
628.676	1185.78
628.874	1264.83
629.073	1176.48
629.271	1187.91
629.469	1226.47
629.668	1208.06
629.866	1214.07
630.065	1169.89
630.263	1225.69
630.461	1194.69
630.66	1221.04
630.858	1246.81
631.056	1246.62
631.254	1247.59
631.453	1215.42
631.651	1212.52
631.849	1229.57
632.047	1289.44
632.245	1166.79
632.444	1223.17
632.642	1232.86
632.84	1268.71
633.038	1199.73
633.236	1200.51
633.434	1178.61
633.632	1217.75
633.83	1214.84
634.028	1268.9
634.227	1233.64
634.425	1293.12
634.623	1220.07
634.821	1249.33
635.019	1255.53
635.216	1229.37
635.414	1236.16
635.612	1243.71
635.81	1215.62
636.008	1275.68
636.206	1245.26
636.404	1252.04
636.602	1217.56
636.8	1215.42
636.997	1236.16
637.195	1285.76
637.393	1248.36
637.591	1315.79
637.789	1242.94
637.986	1210
638.184	1210.58
638.382	1250.49
638.58	1244.29
638.777	1298.54
638.975	1253.21
639.173	1220.07
639.37	1209.03
639.568	1244.29
639.765	1238.09
639.963	1187.53
640.161	1274.71
640.358	1234.22
640.556	1195.47
640.753	1181.91
640.951	1165.63
641.148	1188.49
641.346	1150.91
641.543	1188.11
641.741	1165.63
641.938	1121.26
642.136	1163.89
642.333	1092.01
642.531	1194.5
642.728	1213.87
642.925	1141.8
643.123	1148.97
643.32	1159.82
643.517	1128.24
643.715	1126.49
643.912	1117.58
644.109	1131.34
644.306	1115.45
644.504	1081.74
644.701	1096.27
644.898	1160.79
645.095	1090.65
645.293	1107.12
645.49	1097.82
645.687	1093.17
645.884	1135.41
646.081	1014.51
646.278	1064.3
646.475	1021.29
646.672	1057.13
646.87	1062.95
647.067	1061.01
647.264	1061.2
647.461	984.48
647.658	975.57
647.855	1050.16
648.052	977.31
648.249	908.72
648.446	1000.56
648.642	984.87
648.839	955.42
649.036	944.95
649.233	956.38
649.43	940.88
649.627	909.5
649.824	928.68
650.021	934.88
650.217	966.07
650.414	964.13
650.611	965.1
650.808	1006.95
651.004	966.85
651.201	994.55
651.398	1012.38
651.595	934.1
651.791	930.23
651.988	953.09
652.185	959.29
652.381	948.44
652.578	897.29
652.775	919.96
652.971	928.68
653.168	938.75
653.364	968.2
653.561	869.39
653.757	950.77
653.954	970.14
654.15	903.88
654.347	994.17
654.543	943.6
654.74	892.25
654.936	895.16
655.133	919.38
655.329	936.24
655.525	905.24
655.722	948.25
655.918	877.92
656.115	863.39
656.311	819.99
656.507	781.24
656.704	730.86
656.9	775.81
657.096	770.58
657.292	793.64
657.489	834.71
657.685	860.09
657.881	826.19
658.077	828.51
658.273	861.06
658.47	881.99
658.666	835.1
658.862	879.47
659.058	847.5
659.254	894.58
659.45	837.62
659.646	889.93
659.842	876.17
660.038	891.48
660.234	840.33
660.43	857.57
660.626	923.84
660.822	903.49
661.018	907.56
661.214	840.91
661.41	822.51
661.606	904.85
661.802	861.84
661.998	854.47
662.194	816.5
662.39	807.97
662.586	850.02
662.781	856.02
662.977	842.07
663.173	865.52
663.369	820.76
663.564	832.19
663.76	850.21
663.956	838.78
664.152	832.19
664.347	804.87
664.543	822.31
664.739	824.64
664.934	755.86
665.13	744.81
665.326	817.27
665.521	810.3
665.717	784.72
665.912	777.75
666.108	720.79
666.304	767.48
666.499	792.86
666.695	709.55
666.89	759.34
667.086	764.57
667.281	770.77
667.477	820.76
667.672	766.12
667.867	746.17
668.063	773.68
668.258	743.84
668.454	742.88
668.649	820.37
668.844	740.74
669.04	786.86
669.235	745.78
669.43	733.19
669.626	693.28
669.821	725.63
670.016	730.09
670.211	740.55
670.407	679.71
670.602	755.86
670.797	711.1
670.992	739
671.187	722.73
671.382	717.3
671.578	701.41
671.773	755.47
671.968	675.45
672.163	712.84
672.358	723.69
672.553	660.15
672.748	710.91
672.943	793.83
673.138	704.13
673.333	734.16
673.528	683.01
673.723	721.76
673.918	688.43
674.113	678.94
674.308	791.31
674.503	722.73
674.698	715.17
674.892	720.59
675.087	736.68
675.282	739.78
675.477	677.58
675.672	714.2
675.867	699.48
676.061	658.6
676.256	651.43
676.451	661.31
676.646	672.35
676.84	669.45
677.035	636.31
677.23	629.73
677.424	682.62
677.619	706.45
677.814	724.28
678.008	718.27
678.203	641.74
678.397	645.42
678.592	697.73
678.787	734.93
678.981	681.84
679.176	680.29
679.37	700.25
679.565	628.76
679.759	658.79
679.954	702.96
680.148	723.89
680.342	719.24
680.537	713.81
680.731	653.95
680.926	727.96
681.12	693.47
681.314	660.92
681.509	704.51
681.703	670.03
681.897	723.5
682.092	687.46
682.286	696.38
682.48	780.46
682.674	717.49
682.869	685.14
683.063	689.59
683.257	776.97
683.451	673.51
683.645	721.76
683.839	706.84
684.034	686.88
684.228	717.3
684.422	648.52
684.616	695.21
684.81	718.85
685.004	715.94
685.198	734.54
685.392	731.44
685.586	701.8
685.78	757.41
685.974	769.42
686.168	764.38
686.362	772.32
686.556	697.15
686.75	647.94
686.944	684.56
687.138	665.76
687.331	555.91
687.525	583.03
687.719	535.57
687.913	623.53
688.107	626.24
688.301	585.75
688.494	670.22
688.688	561.33
688.882	584.97
689.076	594.85
689.269	622.36
689.463	729.51
689.657	653.17
689.85	667.51
690.044	688.24
690.238	718.85
690.431	704.32
690.625	698.89
690.818	749.27
691.012	747.72
691.205	793.44
691.399	803.32
691.593	824.83
691.786	847.11
691.98	870.75
692.173	898.07
692.366	891.09
692.56	943.02
692.753	960.07
692.947	886.05
693.14	984.67
693.333	966.65
693.527	942.24
693.72	1010.25
693.914	982.93
694.107	967.43
694.3	1015.48
694.493	968.59
694.687	1029.23
694.88	998.43
695.073	1084.84
695.266	1080.77
695.46	1067.21
695.653	1134.83
695.846	1130.76
696.039	1080.19
696.232	1116.81
696.425	1193.14
696.618	1208.84
696.812	1214.65
697.005	1291.95
697.198	1346.59
697.391	1327.41
697.584	1297.77
697.777	1370.23
697.97	1359.38
698.163	1380.3
698.356	1376.82
698.549	1456.83
698.742	1439.59
698.935	1399.1
699.127	1412.08
699.32	1401.23
699.513	1411.3
699.706	1463.42
699.899	1492.29
700.092	1429.9
700.285	1479.31
700.477	1423.9
700.67	1485.7
700.863	1514.76
701.056	1560.29
701.248	1572.5
701.441	1588.19
701.634	1566.69
701.826	1650.39
702.019	1526.78
702.212	1621.91
702.404	1565.91
702.597	1571.34
702.79	1557.58
702.982	1646.51
703.175	1669.18
703.367	1714.91
703.56	1738.35
703.752	1784.27
703.945	1750.94
704.137	1774
704.33	1860.41
704.522	1859.63
704.715	1868.35
704.907	1856.92
705.1	1919.11
705.292	1877.07
705.484	1896.83
705.677	1935.78
705.869	1957.86
706.061	1953.02
706.254	1980.73
706.446	1964.84
706.638	1975.5
706.831	2037.49
707.023	2025.48
707.215	2138.63
707.407	2076.82
707.599	2087.48
707.792	2138.63
707.984	2114.99
708.176	2142.12
708.368	2115.38
708.56	2165.17
708.752	2169.05
708.944	2181.45
709.136	2178.15
709.329	2193.46
709.521	2239.57
709.713	2262.24
709.905	2275.03
710.097	2291.5
710.289	2272.7
710.481	2299.83
710.672	2351.75
710.864	2329.67
711.056	2381.4
711.248	2355.82
711.44	2361.05
711.632	2355.43
711.824	2387.79
712.016	2466.84
712.207	2444.17
712.399	2440.49
712.591	2469.94
712.783	2479.82
712.975	2487.96
713.166	2425.96
713.358	2466.64
713.55	2525.35
713.741	2529.61
713.933	2521.86
714.125	2547.24
714.316	2501.71
714.508	2581.54
714.7	2588.9
714.891	2575.53
715.083	2612.15
715.274	2515.08
715.466	2592.58
715.657	2615.25
715.849	2509.85
716.04	2516.63
716.232	2502.49
716.423	2537.36
716.615	2448.24
716.806	2354.85
716.998	2319.59
717.189	2232.21
717.381	2101.62
717.572	2109.96
717.763	2108.6
717.955	2050.48
718.146	2062.1
718.337	2017.93
718.528	1943.72
718.72	1878.62
718.911	1936.16
719.102	1867.97
719.293	1931.71
719.485	1855.18
719.676	1862.73
719.867	1853.05
720.058	1863.7
720.249	1849.17
720.44	1882.88
720.632	1931.71
720.823	1988.48
721.014	2121.97
721.205	2191.72
721.396	2271.35
721.587	2356.6
721.778	2399.41
721.969	2440.88
722.16	2466.45
722.351	2497.64
722.542	2616.02
722.733	2607.69
722.924	2565.46
723.115	2581.54
723.305	2548.41
723.496	2527.67
723.687	2402.51
723.878	2467.03
724.069	2408.71
724.26	2422.66
724.45	2360.28
724.641	2361.44
724.832	2375.58
725.023	2360.86
725.213	2360.28
725.404	2305.64
725.595	2323.85
725.785	2331.41
725.976	2359.5
726.167	2371.32
726.357	2385.66
726.548	2472.07
726.739	2395.15
726.929	2518.57
727.12	2507.91
727.31	2493.58
727.501	2426.93
727.691	2445.72
727.882	2439.33
728.072	2502.1
728.263	2490.86
728.453	2574.56
728.644	2550.73
728.834	2530.39
729.024	2523.99
729.215	2466.26
729.405	2527.29
729.596	2623.97
729.786	2580.57
729.976	2660.39
730.167	2650.12
730.357	2619.32
730.547	2598.2
730.737	2655.35
730.928	2705.34
731.118	2727.62
731.308	2677.44
731.498	2649.35
731.688	2769.67
731.879	2785.55
732.069	2824.11
732.259	2852.78
732.449	2892.89
732.639	2951.98
732.829	3018.44
733.019	3022.51
733.209	3135.85
733.399	3105.43
733.589	3203.08
733.779	3210.83
733.969	3184.09
734.159	3288.91
734.349	3340.44
734.539	3356.53
734.729	3353.62
734.919	3388.88
735.109	3452.62
735.299	3337.93
735.488	3379
735.678	3401.67
735.868	3384.62
736.058	3348.78
736.248	3385.2
736.437	3326.88
736.627	3348.39
736.817	3449.91
737.007	3428.02
737.196	3452.43
737.386	3469.48
737.576	3428.41
737.765	3508.04
737.955	3411.74
738.144	3576.62
738.334	3510.17
738.524	3470.64
738.713	3530.12
738.903	3486.34
739.092	3532.84
739.282	3550.27
739.471	3577.59
739.661	3568.68
739.85	3611.69
740.04	3615.57
740.229	3656.45
740.419	3651.6
740.608	3646.37
740.797	3593.67
740.987	3696.36
741.176	3720.77
741.365	3667.49
741.555	3608.98
741.744	3740.14
741.933	3711.28
742.123	3699.85
742.312	3719.8
742.501	3772.5
742.69	3808.73
742.88	3712.63
743.069	3860.85
743.258	3748.09
743.447	3821.91
743.636	3822.1
743.825	3830.62
744.014	3808.54
744.204	3818.03
744.393	3785.29
744.582	3877.71
744.771	3844.19
744.96	3845.16
745.149	3890.69
745.338	3801.76
745.527	3914.32
745.716	3806.99
745.905	3824.23
746.094	3883.52
746.283	3889.52
746.471	3840.7
746.66	3926.92
746.849	3865.69
747.038	3900.37
747.227	3863.37
747.416	3908.9
747.604	3866.08
747.793	3811.44
747.982	3872.28
748.171	3844.96
748.359	3891.46
748.548	3843.99
748.737	3891.46
748.926	3873.25
749.114	3778.31
749.303	3854.26
749.491	3863.56
749.68	3771.73
749.869	3860.66
750.057	3785.48
750.246	3829.46
750.434	3804.47
750.623	3792.65
750.811	3760.68
751	3857.36
751.188	3790.91
751.377	3790.52
751.565	3733.75
751.754	3774.44
751.942	3745.96
752.131	3817.06
752.319	3755.06
752.507	3702.36
752.696	3773.08
752.884	3803.31
753.072	3739.37
753.261	3767.46
753.449	3776.57
753.637	3746.73
753.825	3809.89
754.014	3722.51
754.202	3717.86
754.39	3802.53
754.578	3773.86
754.766	3691.9
754.955	3688.41
755.143	3800.79
755.331	3732.98
755.519	3717.28
755.707	3696.36
755.895	3693.84
756.083	3715.73
756.271	3685.9
756.459	3663.81
756.647	3710.11
756.835	3674.46
757.023	3634.55
757.211	3634.17
757.399	3619.05
757.587	3675.43
757.775	3600.26
757.963	3644.24
758.151	3620.99
758.339	3547.37
758.526	3613.43
758.714	3623.7
758.902	3477.42
759.09	3371.83
759.278	3164.91
759.465	2886.49
759.653	2467.42
759.841	2268.25
760.028	1937.13
760.216	1682.16
760.404	1585.29
760.591	1298.74
760.779	1106.54
760.967	950.38
761.154	793.06
761.342	802.16
761.529	802.55
761.717	835.68
761.905	856.99
762.092	884.31
762.28	821.34
762.467	815.92
762.655	766.32
762.842	766.9
763.029	794.61
763.217	818.63
763.404	806.04
763.592	813.4
763.779	795.57
763.966	814.56
764.154	851.76
764.341	921.32
764.528	905.04
764.716	983.7
764.903	1079.41
765.09	1130.95
765.277	1190.04
765.465	1353.76
765.652	1420.8
765.839	1511.66
766.026	1673.83
766.213	1715.49
766.4	1789.11
766.588	2005.72
766.775	2007.46
766.962	2150.06
767.149	2214.19
767.336	2396.31
767.523	2375.78
767.71	2498.03
767.897	2605.37
768.084	2700.11
768.271	2781.87
768.458	2820.43
768.645	2901.41
768.832	2884.36
769.019	2901.99
769.206	2904.71
769.392	3048.27
769.579	3110.47
769.766	3077.92
769.953	3093.42
770.14	3117.83
770.327	3133.52
770.513	3217.41
770.7	3236.6
770.887	3155.61
771.073	3181.18
771.26	3181.38
771.447	3205.6
771.634	3174.6
771.82	3265.66
772.007	3175.37
772.193	3229.04
772.38	3247.06
772.567	3204.63
772.753	3190.1
772.94	3274.96
773.126	3231.17
773.313	3261.01
773.499	3242.99
773.686	3258.49
773.872	3162
774.059	3255.58
774.245	3209.28
774.432	3197.07
774.618	3127.13
774.804	3192.81
774.991	3144.18
775.177	3226.91
775.363	3163.36
775.55	3202.3
775.736	3132.94
775.922	3177.7
776.109	3174.4
776.295	3154.83
776.481	3190.29
776.667	3170.72
776.853	3126.55
777.04	3148.05
777.226	3166.07
777.412	3218.19
777.598	3111.05
777.784	3132.75
777.97	3060.29
778.156	3143.98
778.342	3107.37
778.528	3100.59
778.715	3032.77
778.901	3097.87
779.087	3090.9
779.272	3073.46
779.458	3043.04
779.644	3071.33
779.83	3088.57
780.016	3104.27
780.202	3059.7
780.388	2974.65
780.574	2979.69
780.76	2987.05
780.946	3049.24
781.131	3021.73
781.317	3003.13
781.503	2986.27
781.689	2966.51
781.874	3125.97
782.06	2918.08
782.246	2967.87
782.432	2987.44
782.617	2979.88
782.803	3024.44
782.989	2910.71
783.174	2926.02
783.36	2907.81
783.545	2919.63
783.731	2906.45
783.916	2868.67
784.102	2944.62
784.288	2874.87
784.473	2936.09
784.659	2868.48
784.844	2877.39
785.029	2902.96
785.215	2858.79
785.4	2831.28
785.586	2907.61
785.771	2801.05
785.956	2847.75
786.142	2829.53
786.327	2796.79
786.512	2843.29
786.698	2816.16
786.883	2748.93
787.068	2784.58
787.254	2771.8
787.439	2753.97
787.624	2731.88
787.809	2725.1
787.994	2724.13
788.18	2789.81
788.365	2680.15
788.55	2684.22
788.735	2714.64
788.92	2695.65
789.105	2646.44
789.29	2717.55
789.475	2629.97
789.66	2641.99
789.845	2578.44
790.03	2619.32
790.215	2691.39
790.4	2624.94
790.585	2628.62
790.77	2608.08
790.955	2573.21
791.14	2603.43
791.325	2664.65
791.51	2516.05
791.695	2583.09
791.879	2608.85
792.064	2559.06
792.249	2613.5
792.434	2550.15
792.618	2553.25
792.803	2600.52
792.988	2572.62
793.173	2561.97
793.357	2600.72
793.542	2551.89
793.727	2596.07
793.911	2598.2
794.096	2604.59
794.281	2587.93
794.465	2697.78
794.65	2583.47
794.834	2672.21
795.019	2630.94
795.203	2665.62
795.388	2662.14
795.572	2665.04
795.757	2641.4
795.941	2638.11
796.126	2602.46
796.31	2556.93
796.494	2603.82
796.679	2572.24
796.863	2565.07
797.048	2691.58
797.232	2641.02
797.416	2628.23
797.601	2601.88
797.785	2657.1
797.969	2653.03
798.153	2607.5
798.338	2643.92
798.522	2667.17
798.706	2691
798.89	2666.59
799.074	2731.69
799.258	2657.87
799.443	2669.89
799.627	2630.36
799.811	2719.68
799.995	2673.76
800.179	2623.58
800.363	2650.12
800.547	2661.94
800.731	2679.19
800.915	2569.91
801.099	2588.32
801.283	2625.9
801.467	2639.27
801.651	2617.38
801.835	2692.17
802.019	2640.82
802.202	2632.1
802.386	2578.82
802.57	2560.42
802.754	2572.43
802.938	2592.97
803.121	2598.78
803.305	2652.25
803.489	2627.84
803.673	2619.7
803.856	2627.45
804.04	2577.27
804.224	2620.48
804.407	2581.34
804.591	2562.36
804.775	2605.75
804.958	2624.94
805.142	2713.28
805.326	2618.15
805.509	2637.72
805.693	2634.62
805.876	2672.21
806.06	2642.76
806.243	2659.42
806.427	2691
806.61	2706.12
806.794	2632.69
806.977	2700.3
807.16	2656.32
807.344	2700.11
807.527	2664.07
807.71	2660.97
807.894	2647.8
808.077	2670.85
808.26	2584.64
808.444	2599.36
808.627	2635.59
808.81	2570.69
808.993	2532.52
809.177	2545.69
809.36	2559.06
809.543	2590.84
809.726	2463.35
809.909	2518.57
810.092	2463.74
810.276	2453.66
810.459	2445.72
810.642	2410.46
810.825	2391.28
811.008	2425.76
811.191	2335.28
811.374	2356.01
811.557	2388.76
811.74	2421.89
811.923	2277.74
812.106	2313.97
812.289	2287.04
812.472	2313
812.654	2275.42
812.837	2218.45
813.02	2162.85
813.203	2109.18
813.386	2064.62
813.569	2032.26
813.751	2012.89
813.934	2009.01
814.117	2004.17
814.3	1939.85
814.482	1889.08
814.665	1859.05
814.848	1851.5
815.03	1771.48
815.213	1767.41
815.396	1716.26
815.578	1749.78
815.761	1700.18
815.943	1750.36
816.126	1635.28
816.309	1618.61
816.491	1551.19
816.674	1531.62
816.856	1550.41
817.039	1576.96
817.221	1627.53
817.403	1572.89
817.586	1586.45
817.768	1606.79
817.951	1513.02
818.133	1511.47
818.315	1569.98
818.498	1578.12
818.68	1659.88
818.862	1644.96
819.045	1654.84
819.227	1639.34
819.409	1619.78
819.591	1630.24
819.774	1635.08
819.956	1583.74
820.138	1650.97
820.32	1638.18
820.502	1732.15
820.684	1792.02
820.866	1780.59
821.048	1840.84
821.231	1878.82
821.413	1846.07
821.595	1818.37
821.777	1824.57
821.959	1836.58
822.141	1858.28
822.323	1768.96
822.505	1682.94
822.686	1653.1
822.868	1552.16
823.05	1451.22
823.232	1416.73
823.414	1379.14
823.596	1447.53
823.778	1417.89
823.96	1456.25
824.141	1434.36
824.323	1485.31
824.505	1587.23
824.687	1619.78
824.868	1672.67
825.05	1751.72
825.232	1817.78
825.413	1846.85
825.595	1786.01
825.777	1771.29
825.958	1797.05
826.14	1753.07
826.321	1808.29
826.503	1769.15
826.685	1823.4
826.866	1843.55
827.048	1803.06
827.229	1738.74
827.411	1717.23
827.592	1675.77
827.773	1665.89
827.955	1625.98
828.136	1613.96
828.318	1608.15
828.499	1644.57
828.68	1571.14
828.862	1603.69
829.043	1643.61
829.224	1581.03
829.406	1565.72
829.587	1602.14
829.768	1562.43
829.949	1606.02
830.131	1648.84
830.312	1647.09
830.493	1625.2
830.674	1611.44
830.855	1640.31
831.036	1590.52
831.218	1642.44
831.399	1699.6
831.58	1635.86
831.761	1613.96
831.942	1606.41
832.123	1599.82
832.304	1570.18
832.485	1553.9
832.666	1597.88
832.847	1646.32
833.028	1599.82
833.209	1632.76
833.389	1577.54
833.57	1545.76
833.751	1560.88
833.932	1627.53
834.113	1616.87
834.294	1563.01
834.475	1607.18
834.655	1639.34
834.836	1695.92
835.017	1649.03
835.198	1619.39
835.378	1624.04
835.559	1662.4
835.74	1637.41
835.92	1634.31
836.101	1602.73
836.281	1630.63
836.462	1657.56
836.643	1693.79
836.823	1720.72
837.004	1704.83
837.184	1730.21
837.365	1733.5
837.545	1736.99
837.726	1684.29
837.906	1718.59
838.087	1742.8
838.267	1705.22
838.448	1629.27
838.628	1709.67
838.808	1667.05
838.989	1755.79
839.169	1687.78
839.349	1726.92
839.53	1718.01
839.71	1733.12
839.89	1664.53
840.07	1727.11
840.251	1704.44
840.431	1747.26
840.611	1667.82
840.791	1660.27
840.971	1704.64
841.151	1664.72
841.332	1630.24
841.512	1696.89
841.692	1647.09
841.872	1659.11
842.052	1691.85
842.232	1678.67
842.412	1606.79
842.592	1662.21
842.772	1674.99
842.952	1677.32
843.132	1649.42
843.312	1637.41
843.492	1653.29
843.672	1667.44
843.851	1607.76
844.031	1627.72
844.211	1650.39
844.391	1626.94
844.571	1660.07
844.751	1662.01
844.93	1655.81
845.11	1650.39
845.29	1617.26
845.47	1678.29
845.649	1640.89
845.829	1670.34
846.009	1606.99
846.188	1674.22
846.368	1658.14
846.547	1614.16
846.727	1665.69
846.907	1607.76
847.086	1608.54
847.266	1665.89
847.445	1628.3
847.625	1621.91
847.804	1599.43
847.984	1619
848.163	1579.86
848.343	1600.98
848.522	1609.12
848.701	1605.44
848.881	1560.29
849.06	1604.66
849.239	1585.87
849.419	1576.76
849.598	1529.3
849.777	1483.38
849.957	1517.09
850.136	1477.18
850.315	1446.76
850.494	1436.68
850.674	1469.81
850.853	1503.53
851.032	1485.12
851.211	1523.1
851.39	1487.64
851.569	1451.02
851.748	1475.82
851.927	1532.59
852.107	1498.68
852.286	1453.15
852.465	1431.65
852.644	1509.34
852.823	1498.1
853.002	1495.2
853.181	1474.27
853.359	1495.58
853.538	1390.18
853.717	1492.48
853.896	1387.67
854.075	1356.09
854.254	1298.74
854.433	1233.64
854.611	1309.78
854.79	1243.71
854.969	1311.33
855.148	1321.21
855.327	1284.98
855.505	1303.19
855.684	1322.57
855.863	1356.67
856.041	1358.6
856.22	1378.56
856.399	1345.62
856.577	1431.26
856.756	1432.23
856.934	1524.45
857.113	1530.07
857.291	1389.8
857.47	1399.29
857.648	1433
857.827	1415.76
858.005	1455.87
858.184	1395.8
858.362	1508.76
858.541	1407.23
858.719	1415.57
858.898	1370.04
859.076	1415.76
859.254	1465.75
859.433	1390.77
859.611	1380.88
859.789	1365.58
859.967	1412.47
860.146	1457.61
860.324	1378.56
860.502	1361.9
860.68	1359.57
860.859	1363.45
861.037	1378.75
861.215	1340.2
861.393	1358.6
861.571	1347.56
861.749	1336.9
861.927	1342.33
862.105	1339.23
862.283	1350.08
862.461	1323.92
862.639	1300.87
862.817	1324.5
862.995	1325.67
863.173	1336.32
863.351	1315.79
863.529	1311.72
863.707	1367.32
863.885	1343.49
864.063	1275.29
864.241	1336.71
864.418	1368.49
864.596	1281.11
864.774	1243.91
864.952	1295.25
865.129	1319.08
865.307	1263.86
865.485	1260.37
865.663	1305.32
865.84	1204.38
866.018	1250.3
866.196	1107.51
866.373	1136.38
866.551	1137.34
866.728	1057.91
866.906	1116.23
867.084	1179.78
867.261	1154.2
867.439	1174.54
867.616	1200.89
867.794	1197.99
867.971	1176.87
868.149	1190.04
868.326	1230.54
868.503	1249.33
868.681	1232.86
868.858	1210.58
869.035	1165.63
869.213	1229.76
869.39	1211.74
869.567	1251.46
869.745	1207.67
869.922	1212.52
870.099	1213.49
870.276	1222.4
870.454	1210.39
870.631	1215.23
870.808	1192.37
870.985	1213.87
871.162	1261.54
871.339	1228.99
871.517	1145.68
871.694	1157.88
871.871	1197.02
872.048	1164.86
872.225	1173.38
872.402	1184.62
872.579	1161.18
872.756	1175.9
872.933	1143.16
873.11	1200.12
873.287	1210.58
873.463	1148
873.64	1141.22
873.817	1160.21
873.994	1139.28
874.171	1129.98
874.348	1143.74
874.524	1112.35
874.701	1156.91
874.878	1073.41
875.055	1125.53
875.231	1104.6
875.408	1162.92
875.585	1075.54
875.762	1123.98
875.938	1099.56
876.115	1070.31
876.291	1078.45
876.468	1097.63
876.645	1064.3
876.821	1078.83
876.998	1075.93
877.174	1107.31
877.351	1055.78
877.527	1068.37
877.704	1083.48
877.88	1077.48
878.057	1073.02
878.233	1114.68
878.409	1064.69
878.586	1078.25
878.762	1080.96
878.938	1049
879.115	982.73
879.291	1056.75
879.467	986.61
879.644	1015.67
879.82	1073.21
879.996	1022.45
880.172	983.32
880.349	1014.12
880.525	1032.53
880.701	1018
880.877	999.78
881.053	1032.72
881.229	1048.03
881.405	1054.23
881.581	969.75
881.757	1012.18
881.933	1030.4
882.109	1031.36
882.285	1014.12
882.461	977.12
882.637	1005.98
882.813	971.69
882.989	1006.95
883.165	1050.35
883.341	987.77
883.517	1022.26
883.693	1006.57
883.869	1041.83
884.044	987.97
884.22	1050.35
884.396	1037.37
884.572	1042.99
884.747	1045.51
884.923	1034.85
885.099	1025.94
885.275	1026.33
885.45	975.18
885.626	982.15
885.801	967.43
885.977	977.7
886.153	966.46
886.328	1003.08
886.504	963.55
886.679	990.68
886.855	975.37
887.03	986.03
887.206	1013.15
887.381	1010.83
887.557	996.68
887.732	1011.6
887.908	1021.68
888.083	1009.86
888.258	1006.95
888.434	987.77
888.609	1009.67
888.784	1013.15
888.96	1014.9
889.135	960.07
889.31	1005.21
889.485	988.16
889.661	971.5
889.836	997.65
890.011	1031.36
890.186	981.96
890.361	972.47
890.537	994.17
890.712	967.82
890.887	1025.36
891.062	1005.21
891.237	1041.05
891.412	980.99
891.587	961.03
891.762	1026.52
891.937	1041.25
892.112	956.77
892.287	939.53
892.462	940.3
892.637	945.92
892.812	909.89
892.987	930.04
893.161	875.59
893.336	900.2
893.511	900.39
893.686	924.03
893.861	909.69
894.035	907.56
894.21	909.89
894.385	865.32
894.56	886.05
894.734	824.06
894.909	803.91
895.084	802.94
895.258	814.76
895.433	801
895.608	770.97
895.782	731.83
895.957	754.5
896.131	746.17
896.306	698.51
896.48	694.44
896.655	702.77
896.829	630.31
897.004	634.57
897.178	639.41
897.353	632.63
897.527	677.78
897.701	621.78
897.876	610.16
898.05	707.03
898.224	667.12
898.399	695.79
898.573	658.98
898.747	522.58
898.921	587.3
899.096	521.23
899.27	542.35
899.444	517.16
899.618	568.5
899.792	578.19
899.967	571.99
900.141	606.48
900.315	533.63
900.489	540.6
900.663	544.09
900.837	558.23
901.011	520.26
901.185	608.41
901.359	583.03
901.533	578
901.707	559.98
901.881	560.56
902.055	535.57
902.229	548.74
902.403	578.97
902.576	549.13
902.75	580.9
902.924	672.16
903.098	639.03
903.272	659.56
903.446	713.81
903.619	679.52
903.793	753.53
903.967	673.51
904.14	745.98
904.314	729.7
904.488	714.59
904.661	701.61
904.835	711.68
905.009	763.8
905.182	783.56
905.356	729.31
905.529	723.5
905.703	689.79
905.876	700.83
906.05	658.01
906.223	665.57
906.397	589.43
906.57	585.94
906.744	542.35
906.917	580.9
907.09	575.48
907.264	560.95
907.437	524.91
907.61	525.3
907.784	520.07
907.957	552.42
908.13	522.2
908.304	548.74
908.477	506.7
908.65	513.67
908.823	467.37
908.996	541.57
909.17	476.86
909.343	508.44
909.516	515.03
909.689	489.65
909.862	471.63
910.035	471.82
910.208	467.17
910.381	439.85
910.554	541.38
910.727	508.83
910.9	502.24
911.073	497.2
911.246	526.07
911.419	539.25
911.592	481.51
911.765	498.37
911.938	439.08
912.11	486.35
912.283	481.32
912.456	540.22
912.629	508.44
912.802	462.33
912.974	437.92
913.147	379.02
913.32	351.7
913.493	384.44
913.665	406.92
913.838	425.32
914.01	415.83
914.183	444.89
914.356	427.65
914.528	450.51
914.701	485.97
914.873	480.15
915.046	420.67
915.218	403.62
915.391	331.55
915.563	358.67
915.736	417.57
915.908	445.86
916.081	416.6
916.253	407.31
916.425	432.49
916.598	437.14
916.77	442.57
916.942	379.02
917.115	347.44
917.287	420.48
917.459	359.64
917.632	361.19
917.804	339.49
917.976	384.06
918.148	415.05
918.32	385.8
918.493	410.02
918.665	459.81
918.837	412.34
919.009	496.24
919.181	473.76
919.353	421.25
919.525	458.84
919.697	449.15
919.869	457.87
920.041	535.37
920.213	541.18
920.385	505.34
920.557	465.43
920.729	513.48
920.901	460.97
921.073	463.49
921.244	449.15
921.416	493.91
921.588	432.1
921.76	458.45
921.932	515.42
922.103	460.97
922.275	451.48
922.447	473.76
922.619	383.86
922.79	428.81
922.962	412.73
923.134	468.53
923.305	404.79
923.477	355.19
923.648	411.37
923.82	407.11
923.991	360.22
924.163	347.82
924.335	387.35
924.506	372.62
924.677	405.56
924.849	355.38
925.02	398.01
925.192	449.93
925.363	400.33
925.535	408.86
925.706	350.54
925.877	418.74
926.049	363.52
926.22	385.41
926.391	376.69
926.562	397.42
926.734	358.67
926.905	414.09
927.076	334.07
927.247	359.84
927.419	306.75
927.59	276.72
927.761	313.14
927.932	299.58
928.103	277.88
928.274	256.57
928.445	257.34
928.616	262.58
928.787	256.38
928.958	304.81
929.129	277.49
929.3	245.72
929.471	232.35
929.642	164.15
929.813	155.82
929.984	239.52
930.155	148.65
930.326	206.78
930.496	160.47
930.667	112.62
930.838	159.11
931.009	117.85
931.18	143.03
931.35	133.35
931.521	156.4
931.692	83.55
931.863	70.96
932.033	106.61
932.204	110.48
932.374	112.23
932.545	63.4
932.716	120.37
932.886	131.99
933.057	45.97
933.227	67.47
933.398	124.63
933.568	40.74
933.739	12.25
933.909	30.66
934.08	86.65
934.25	28.72
934.421	43.45
934.591	63.6
934.761	38.8
934.932	-5.96
935.102	57.59
935.272	56.82
935.443	40.54
935.613	29.89
935.783	41.32
935.953	5.28
936.123	154.85
936.294	1.02
936.464	5.67
936.634	34.54
936.804	-8.86
936.974	1.4
937.144	42.67
937.314	50.23
937.484	36.67
937.655	14.97
937.825	77.74
937.995	15.74
938.165	69.02
938.334	25.43
938.504	61.66
938.674	37.05
938.844	59.92
939.014	116.49
939.184	56.62
939.354	143.23
939.524	112.81
939.694	47.32
939.863	68.44
940.033	107
940.203	122.5
940.373	105.25
940.542	122.3
940.712	67.08
940.882	93.05
941.051	109.13
941.221	117.46
941.391	152.14
941.56	83.36
941.73	82.97
941.899	158.73
942.069	70.18
942.238	80.84
942.408	89.75
942.577	81.42
942.747	58.37
942.916	45.97
943.086	58.56
943.255	85.1
943.425	84.52
943.594	60.5
943.763	7.41
943.933	36.86
944.102	23.3
944.271	90.53
944.441	63.21
944.61	52.17
944.779	63.99
944.948	134.12
945.117	18.45
945.287	42.09
945.456	7.8
945.625	34.15
945.794	65.92
945.963	43.25
946.132	46.55
946.301	32.21
946.47	83.36
946.639	10.51
946.808	46.94
946.977	76
947.146	88.59
947.315	60.5
947.484	85.1
947.653	61.27
947.822	43.84
947.991	26.2
948.16	147.68
948.329	85.49
948.498	72.32
948.666	62.05
948.835	105.06
949.004	25.43
949.173	20.2
949.341	83.94
949.51	71.93
949.679	111.45
949.847	91.5
950.016	146.91
950.185	88.59
950.353	62.44
950.522	51.2
950.69	104.67
950.859	53.33
951.028	82.97
951.196	49.84
951.365	47.13
951.533	77.55
951.701	99.25
951.87	101.96
952.038	51
952.207	41.12
952.375	100.02
952.543	37.44
952.712	58.95
952.88	35.7
953.048	125.02
953.217	86.46
953.385	40.54
953.553	119.59
953.721	28.92
953.89	74.06
954.058	29.11
954.226	49.65
954.394	86.65
954.562	6.05
954.73	78.32
954.898	48.29
955.067	83.75
955.235	36.47
955.403	94.02
955.571	105.64
955.739	75.42
955.907	36.47
956.075	65.53
956.243	46.16
956.41	91.88
956.578	35.31
956.746	22.52
956.914	46.55
957.082	85.49
957.25	83.75
957.418	20
957.585	61.47
957.753	119.59
957.921	23.88
958.089	38.99
958.256	100.99
958.424	89.17
958.592	86.85
958.759	22.72
958.927	86.07
959.095	38.41
959.262	83.94
959.43	69.22
959.597	70.77
959.765	55.27
959.932	38.99
960.1	100.41
960.267	60.5
960.435	72.51
960.602	93.05
960.77	63.79
960.937	63.21
961.104	64.57
961.272	36.09
961.439	40.93
961.606	84.91
961.774	79.48
961.941	62.44
962.108	83.55
962.275	82.39
962.443	133.35
962.61	75.22
962.777	128.31
962.944	86.46
963.111	104.87
963.278	101.77
963.446	81.42
963.613	87.23
963.78	66.5
963.947	104.48
964.114	85.49
964.281	146.13
964.448	78.13
964.615	70.96
964.782	102.93
964.949	118.04
965.116	80.45
965.282	113.78
965.449	53.91
965.616	40.54
965.783	125.79
965.95	81.62
966.117	38.02
966.283	70.77
966.45	71.54
966.617	92.27
966.784	123.08
966.95	109.52
967.117	130.63
967.284	74.64
967.45	62.44
967.617	145.17
967.784	100.99
967.95	122.3
968.117	70.57
968.283	155.24
968.45	190.5
968.616	119.01
968.783	146.33
968.949	115.13
969.116	120.75
969.282	90.72
969.449	126.37
969.615	102.93
969.781	66.5
969.948	82.58
970.114	53.52
970.28	156.21
970.447	113.58
970.613	146.13
970.779	89.56
970.945	154.27
971.112	123.47
971.278	92.08
971.444	109.32
971.61	139.74
971.776	73.87
971.942	138.77
972.108	124.82
972.275	95.37
972.441	106.61
972.607	138.19
972.773	64.57
972.939	118.43
973.105	114.36
973.271	65.53
973.437	92.85
973.602	80.26
973.768	106.42
973.934	90.14
974.1	113.97
974.266	32.99
974.432	118.23
974.598	96.53
974.763	132.38
974.929	73.48
975.095	141.48
975.261	58.17
975.426	57.79
975.592	117.85
975.758	126.95
975.923	58.37
976.089	61.66
976.255	121.53
976.42	98.28
976.586	116.49
976.751	115.33
976.917	178.49
977.082	93.82
977.248	53.91
977.413	57.2
977.579	74.45
977.744	82.58
977.91	72.7
978.075	81.62
978.24	126.37
978.406	107.19
978.571	65.34
978.736	52.36
978.902	126.18
979.067	58.37
979.232	44.22
979.397	81.23
979.563	139.35
979.728	62.05
979.893	85.3
980.058	80.65
980.223	136.25
980.388	68.63
980.554	82.97
980.719	63.4
980.884	92.47
981.049	104.67
981.214	60.11
981.379	101.57
981.544	66.31
981.709	97.89
981.874	58.17
982.039	76.77
982.204	97.7
982.368	51.2
982.533	56.24
982.698	96.92
982.863	100.02
983.028	60.11
983.193	101.57
983.357	112.03
983.522	88.98
983.687	95.57
983.852	67.67
984.016	75.22
984.181	93.43
984.346	67.47
984.51	92.47
984.675	104.28
984.839	96.34
985.004	90.92
985.168	90.72
985.333	118.82
985.498	71.73
985.662	124.82
985.827	91.69
985.991	81.81
986.155	81.81
986.32	115.13
986.484	145.75
986.649	95.76
986.813	43.45
986.977	81.03
987.142	99.44
987.306	59.53
987.47	64.57
987.634	99.83
987.799	100.22
987.963	75.03
988.127	97.89
988.291	173.26
988.455	94.79
988.62	67.86
988.784	81.81
988.948	109.71
989.112	58.37
989.276	80.65
989.44	76.77
989.604	69.41
989.768	43.06
989.932	167.25
990.096	41.9
990.26	16.32
990.424	59.34
990.588	77.55
990.752	140.9
990.915	95.95
991.079	57.98
991.243	60.89
991.407	123.27
991.571	75.61
991.734	104.28
991.898	86.27
992.062	172.87
992.226	73.48
992.389	56.62
992.553	35.5
992.717	59.92
992.88	74.06
993.044	78.32
993.207	58.37
993.371	115.91
993.535	111.07
993.698	85.68
993.862	98.08
994.025	92.85
994.189	98.47
994.352	79.68
994.515	99.44
994.679	115.72
994.842	43.64
995.006	101.38
995.169	71.15
995.332	67.08
995.496	90.53
995.659	51.59
995.822	92.85
995.985	82.39
996.149	105.64
996.312	67.86
996.475	133.73
996.638	51.39
996.801	127.15
996.964	140.32
997.128	71.54
997.291	66.12
997.454	72.12
997.617	31.05
997.78	94.98
997.943	50.23
998.106	102.35
998.269	38.6
998.432	75.22
998.595	64.37
998.758	24.07
998.92	65.73
999.083	32.6
999.246	76.97
999.409	26.59
999.572	15.55
999.735	84.33
999.897	73.87
1000.06	53.33
1000.223	38.8
1000.386	89.56
1000.548	83.75
1000.711	66.7
1000.874	76.97
1001.036	20.97
1001.199	117.27
1001.361	48.68
1001.524	62.24
1001.687	74.83
1001.849	45.19
1002.012	48.29
1002.174	48.49
1002.337	75.42
1002.499	69.99
1002.661	107
1002.824	1.79
1002.986	44.22
1003.149	39.96
1003.311	50.04
1003.473	98.08
1003.636	28.92
1003.798	67.28
1003.96	59.53
1004.123	61.08
1004.285	41.51
1004.447	40.93
1004.609	41.12
1004.771	123.47
1004.933	20.59
1005.096	22.33
1005.258	42.09
1005.42	45.39
1005.582	95.76
1005.744	55.85
1005.906	18.65
1006.068	61.66
1006.23	35.31
1006.392	-16.23
1006.554	38.6
1006.716	87.23
1006.878	56.82
1007.04	29.5
1007.202	32.02
1007.363	48.29
1007.525	44.03
1007.687	66.31
1007.849	90.14
1008.011	14.77
1008.172	18.07
1008.334	43.64
1008.496	69.6
1008.658	-14.48
1008.819	43.45
1008.981	8.19
1009.143	20.78
1009.304	20
1009.466	69.41
1009.627	71.73
1009.789	128.7
1009.95	30.66
1010.112	23.1
1010.273	41.9
1010.435	22.33
1010.596	46.74
1010.758	21.94
1010.919	27.56
1011.081	12.64
1011.242	22.33
1011.403	70.57
1011.565	37.83
1011.726	59.92
1011.887	24.46
1012.049	43.64
1012.21	55.46
1012.371	85.1
1012.532	-29.21
1012.693	37.25
1012.855	18.45
1013.016	54.3
1013.177	94.79
1013.338	35.5
1013.499	70.57
1013.66	68.05
1013.821	78.71
1013.982	54.1
1014.143	41.9
1014.304	25.82
1014.465	37.05
1014.626	64.37
1014.787	17.1
1014.948	102.35
1015.109	-10.41
1015.27	65.15
1015.431	34.15
1015.592	28.34
1015.752	64.18
1015.913	35.5
1016.074	50.81
1016.235	27.56
1016.395	31.82
1016.556	7.99
1016.717	27.37
1016.877	82.97
1017.038	-14.29
1017.199	65.15
1017.359	37.44
1017.52	30.47
1017.681	25.82
1017.841	35.5
1018.002	38.41
1018.162	26.79
1018.323	69.22
1018.483	30.08
1018.644	15.55
1018.804	-23.98
1018.964	6.25
1019.125	32.6
1019.285	37.44
1019.446	10.32
1019.606	15.94
1019.766	-2.86
1019.926	36.28
1020.087	59.14
1020.247	-9.83
1020.407	18.65
1020.567	81.23
1020.728	29.69
1020.888	2.57
1021.048	17.68
1021.208	-19.13
1021.368	7.8
1021.528	51.39
1021.688	81.62
1021.848	42.29
1022.008	25.82
1022.168	33.37
1022.328	17.68
1022.488	65.73
1022.648	19.04
1022.808	23.1
1022.968	42.48
1023.128	-8.48
1023.288	19.81
1023.448	26.79
1023.608	39.77
1023.767	35.7
1023.927	-11.77
1024.087	1.21
1024.247	-26.69
1024.406	7.22
1024.566	-6.54
1024.726	2.37
1024.885	7.22
1025.045	41.9
1025.205	33.76
1025.364	10.12
1025.524	46.16
1025.683	-4.02
1025.843	43.64
1026.003	21.36
1026.162	60.11
1026.321	62.05
1026.481	36.86
1026.64	19.42
1026.8	39.77
1026.959	8.38
1027.119	40.15
1027.278	-4.21
1027.437	-0.15
1027.597	-0.15
1027.756	36.09
1027.915	25.24
1028.074	32.99
1028.234	-7.31
1028.393	20.97
1028.552	2.76
1028.711	-59.24
1028.87	39.77
1029.03	-30.18
1029.189	19.23
1029.348	-35.02
1029.507	-4.6
1029.666	-2.47
1029.825	-22.23
1029.984	-0.73
1030.143	29.11
1030.302	-9.06
1030.461	-25.72
1030.62	16.52
1030.779	39.77
1030.938	7.41
1031.097	-17.78
1031.255	38.8
1031.414	32.02
1031.573	28.53
1031.732	-15.45
1031.891	5.47
1032.049	55.85
1032.208	19.42
1032.367	-8.67
1032.525	-22.04
1032.684	21.55
1032.843	19.42
1033.001	-24.75
1033.16	129.86
1033.319	49.26
1033.477	41.9
1033.636	1.79
1033.794	-5.76
1033.953	37.05
1034.111	42.87
1034.27	8.57
1034.428	37.05
1034.587	-15.65
1034.745	15.74
1034.903	23.1
1035.062	49.45
1035.22	-13.51
1035.378	17.68
1035.537	-35.79
1035.695	32.99
1035.853	33.95
1036.011	21.36
1036.17	48.29
1036.328	-24.94
1036.486	25.62
1036.644	33.95
1036.802	-35.99
1036.96	6.64
1037.119	-5.18
1037.277	3.54
1037.435	-31.53
1037.593	-26.3
1037.751	29.89
1037.909	40.74
1038.067	40.74
