Data from calibration4_FLMT105791__1__17-36-35-048.txt Node

Date: Mon Mar 20 17:36:35 GMT 2023
User: antho
Spectrometer: FLMT10579
Trigger mode: 0
Integration Time (sec): 1.000000E-1
Scans to average: 10
Electric dark correction enabled: true
Nonlinearity correction enabled: false
Boxcar width: 0
XAxis mode: Wavelengths
Number of Pixels in Spectrum: 3648
>>>>>Begin Spectral Data<<<<<
345.248	-130.26
345.464	-130.26
345.681	-130.26
345.898	-152.35
346.114	-150.22
346.331	-47.73
346.548	14.27
346.764	-11.88
346.981	-1.61
347.197	-9.36
347.414	19.12
347.631	-1.23
347.847	48.76
348.064	-15.18
348.28	37.91
348.497	-50.63
348.713	17.57
348.93	21.44
349.146	90.22
349.363	93.52
349.579	89.25
349.796	80.15
350.012	113.67
350.229	128.39
350.445	102.62
350.661	95.65
350.878	105.53
351.094	126.84
351.311	137.3
351.527	153.58
351.743	115.99
351.96	148.15
352.176	142.34
352.392	135.75
352.609	146.99
352.825	117.35
353.041	113.28
353.257	132.07
353.474	131.3
353.69	143.7
353.906	153.38
354.122	119.48
354.339	206.28
354.555	157.84
354.771	165.98
354.987	190
355.203	208.21
355.42	164.23
355.636	138.08
355.852	128.58
356.068	161.13
356.284	132.65
356.5	198.91
356.716	174.11
356.932	153.96
357.148	174.89
357.364	140.4
357.58	165.01
357.796	180.7
358.012	196.78
358.228	175.66
358.444	84.8
358.66	203.18
358.876	158.42
359.092	150.67
359.308	186.32
359.524	174.11
359.74	175.28
359.956	194.26
360.172	209.57
360.388	257.04
360.604	179.73
360.819	249.29
361.035	205.5
361.251	233.21
361.467	156.1
361.683	254.71
361.898	224.49
362.114	231.08
362.33	251.42
362.546	239.99
362.762	224.29
362.977	247.16
363.193	223.13
363.409	311.09
363.624	240.57
363.84	219.06
364.056	221.58
364.271	279.32
364.487	264.59
364.703	250.64
364.918	256.84
365.134	267.89
365.35	276.22
365.565	375.81
365.781	323.3
365.996	360.5
366.212	382
366.427	356.62
366.643	348.29
366.858	331.24
367.074	325.82
367.289	378.71
367.505	419.98
367.72	315.16
367.936	328.92
368.151	379.49
368.367	388.01
368.582	354.49
368.798	313.22
369.013	403.51
369.228	362.24
369.444	377.94
369.659	405.45
369.874	395.18
370.09	438.77
370.305	366.7
370.52	387.24
370.736	435.87
370.951	382.59
371.166	406.61
371.381	438.97
371.597	422.89
371.812	397.89
372.027	370.38
372.242	387.62
372.458	425.79
372.673	369.61
372.888	392.47
373.103	405.06
373.318	457.76
373.533	393.44
373.749	380.26
373.964	274.86
374.179	361.66
374.394	302.37
374.609	423.66
374.824	330.66
375.039	385.3
375.254	327.76
375.469	438.97
375.684	406.22
375.899	481.01
376.114	433.35
376.329	465.51
376.544	472.68
376.759	423.66
376.974	415.52
377.189	447.69
377.404	450.01
377.619	496.32
377.834	452.14
378.049	490.5
378.264	521.5
378.478	577.88
378.693	562.77
378.908	599.2
379.123	518.6
379.338	556.57
379.553	483.72
379.767	485.66
379.982	502.52
380.197	510.27
380.412	495.35
380.626	560.64
380.841	633.1
381.056	608.11
381.271	671.08
381.485	584.86
381.7	541.46
381.915	559.48
382.129	474.03
382.344	485.85
382.559	475.78
382.773	494.77
382.988	424.44
383.202	442.07
383.417	399.44
383.632	497.87
383.846	399.25
384.061	454.27
384.275	455.44
384.49	497.67
384.704	559.09
384.919	619.54
385.133	641.82
385.348	677.47
385.562	581.37
385.777	659.64
385.991	614.7
386.206	609.46
386.42	575.56
386.634	615.86
386.849	656.93
387.063	696.65
387.277	651.89
387.492	644.73
387.706	627.68
387.92	636.78
388.135	686.77
388.349	697.81
388.563	679.21
388.778	711.38
388.992	682.7
389.206	723.58
389.42	808.64
389.635	766.4
389.849	873.15
390.063	907.83
390.277	890.79
390.491	937.87
390.706	918.49
390.92	892.72
391.134	934.38
391.348	951.82
391.562	967.51
391.776	1017.88
391.99	993.66
392.205	1005.48
392.419	944.45
392.633	865.4
392.847	859.4
393.061	750.71
393.275	718.35
393.489	592.03
393.703	537.97
393.917	552.89
394.131	558.12
394.345	678.24
394.559	818.52
394.773	861.53
394.986	997.93
395.2	1029.31
395.414	1143.43
395.628	1123.48
395.842	1161.84
396.056	1140.53
396.27	1053.34
396.484	1024.47
396.697	921.2
396.911	807.67
397.125	728.04
397.339	716.22
397.553	739.47
397.766	905.7
397.98	1024.08
398.194	1221.9
398.408	1266.85
398.621	1394.72
398.835	1438.7
399.049	1500.9
399.262	1583.24
399.476	1622.57
399.69	1652.02
399.903	1696.58
400.117	1622.76
400.331	1711.3
400.544	1655.51
400.758	1810.7
400.971	1709.37
401.185	1766.91
401.398	1719.44
401.612	1828.72
401.826	1865.14
402.039	1912.41
402.253	1900.79
402.466	1938.18
402.68	1941.67
402.893	2011.61
403.106	1944.96
403.32	1916.1
403.533	1929.66
403.747	1875.99
403.96	1938.57
404.174	1993.98
404.387	1992.24
404.6	2007.16
404.814	2005.61
405.027	1931.01
405.24	1920.94
405.454	1965.89
405.667	2060.44
405.88	2035.06
406.094	2025.37
406.307	2049.97
406.52	1968.41
406.733	1919
406.947	1969.76
407.16	2043.19
407.373	2136.19
407.586	2070.9
407.799	2097.83
408.012	2132.12
408.226	2104.42
408.439	2286.35
408.652	2219.31
408.865	2363.46
409.078	2403.37
409.291	2369.66
409.504	2342.92
409.717	2397.56
409.93	2364.04
410.143	2181.14
410.357	2110.04
410.57	2017.62
410.783	2085.04
410.996	2141.81
411.209	2303.4
411.421	2471.38
411.634	2522.33
411.847	2509.16
412.06	2555.46
412.273	2583.94
412.486	2607.97
412.699	2611.26
412.912	2624.82
413.125	2615.14
413.338	2533.57
413.55	2545
413.763	2537.06
413.976	2584.33
414.189	2566.12
414.402	2654.47
414.615	2764.71
414.827	2655.05
415.04	2675
415.253	2664.15
415.466	2729.25
415.678	2759.48
415.891	2695.73
416.104	2682.37
416.316	2726.15
416.529	2789.7
416.742	2929.59
416.954	2945.09
417.167	2849.76
417.38	2804.81
417.592	2785.25
417.805	2714.72
418.017	2710.07
418.23	2763.35
418.442	2717.82
418.655	2785.05
418.868	2758.12
419.08	2816.44
419.293	2841.04
419.505	2894.91
419.718	2884.64
419.93	2936.37
420.142	2846.47
420.355	2852.86
420.567	2818.57
420.78	2976.86
420.992	2972.21
421.205	3094.85
421.417	3166.35
421.629	3178.75
421.842	3149.3
422.054	3150.07
422.266	3166.93
422.479	3141.74
422.691	2962.72
422.903	3046.8
423.115	2918.35
423.328	2894.91
423.54	2989.07
423.752	3001.08
423.964	3085.55
424.177	3167.12
424.389	3161.7
424.601	3289.96
424.813	3235.71
425.025	3212.85
425.238	3239.2
425.45	3218.85
425.662	3201.61
425.874	3493.39
426.086	3178.75
426.298	3292.28
426.51	3252.18
426.722	3250.43
426.934	3301.39
427.146	3304.88
427.358	3231.64
427.57	3265.16
427.782	3162.28
427.994	3161.31
428.206	3178.36
428.418	3418.41
428.63	3476.34
428.842	3466.85
429.054	3325.41
429.266	3265.74
429.478	3202
429.69	3202
429.902	3079.55
430.114	3123.53
430.325	2928.81
430.537	2766.84
430.749	2675.58
430.961	2549.07
431.173	2635.29
431.384	2716.85
431.596	2789.9
431.808	3273.29
432.02	3626.11
432.231	3856.28
432.443	4031.62
432.655	3903.55
432.867	3782.08
433.078	3821.99
433.29	3892.12
433.502	4013.22
433.713	4106.8
433.925	4158.91
434.136	3954.32
434.348	3726.08
434.56	3669.9
434.771	3856.67
434.983	3735.96
435.194	4083.55
435.406	4143.99
435.617	4236.22
435.829	4346.46
436.04	4403.81
436.252	4297.25
436.463	4532.85
436.675	4653.36
436.886	4714.77
437.098	4787.62
437.309	4729.89
437.521	4697.14
437.732	4518.31
437.943	4512.31
438.155	4484.02
438.366	4414.47
438.578	4464.26
438.789	4297.06
439	4220.14
439.211	4278.07
439.423	4369.9
439.634	4523.16
439.845	4657.23
440.057	4727.76
440.268	4926.73
440.479	4870.35
440.69	4841.68
440.902	4698.69
441.113	4710.9
441.324	4893.8
441.535	5025.74
441.746	5193.91
441.957	5124.16
442.168	5261.72
442.38	5262.3
442.591	5303.57
442.802	5229.75
443.013	5456.83
443.224	5423.11
443.435	5413.23
443.646	5280.32
443.857	5299.7
444.068	5354.53
444.279	5305.7
444.49	5604.27
444.701	5465.16
444.912	5780.58
445.123	5659.1
445.334	5499.45
445.545	5571.72
445.756	5429.12
445.967	5346.58
446.178	5269.67
446.388	5281.48
446.599	5322.56
446.81	5419.24
447.021	5428.35
447.232	5548.66
447.443	5717.8
447.653	5893.14
447.864	5977.81
448.075	5950.3
448.286	5926.66
448.496	5821.26
448.707	5952.24
448.918	5806.54
449.129	5921.43
449.339	5920.46
449.55	6020.05
449.761	6052.99
449.971	5940.23
450.182	6150.44
450.393	6153.35
450.603	6118.47
450.814	6480.78
451.024	6387.98
451.235	6597.61
451.446	6571.65
451.656	6536.39
451.867	6475.74
452.077	6281.22
452.288	6459.47
452.498	6256.42
452.709	6344.58
452.919	6103.75
453.13	5996.61
453.34	5962.51
453.55	5790.85
453.761	6063.06
453.971	6062.09
454.182	6200.82
454.392	6283.55
454.602	6507.71
454.813	6546.65
455.023	6346.13
455.233	6284.51
455.444	6352.91
455.654	6179.31
455.864	6409.48
456.075	6478.07
456.285	6489.5
456.495	6539.29
456.705	6556.73
456.916	6784.96
457.126	6818.87
457.336	6748.15
457.546	6616.6
457.756	6788.84
457.967	6876.61
458.177	6612.53
458.387	6719.48
458.597	6589.08
458.807	6727.42
459.017	6560.02
459.227	6605.36
459.437	6631.52
459.647	6748.54
459.857	6723.55
460.068	6837.86
460.278	6865.95
460.488	6836.89
460.698	6897.53
460.908	6937.25
461.117	7083.53
461.327	7145.53
461.537	7272.04
461.747	7253.44
461.957	7239.3
462.167	7403.4
462.377	7368.92
462.587	7230.19
462.797	7502.99
463.007	7363.3
463.216	7581.85
463.426	7710.69
463.636	7599.48
463.846	7386.94
464.056	7368.92
464.265	7384.03
464.475	7460.56
464.685	7623.11
464.895	7491.56
465.104	7377.83
465.314	7583.4
465.524	7511.71
465.733	7502.22
465.943	7719.41
466.153	7825.58
466.362	7885.45
466.572	7856.97
466.782	7690.73
466.991	7812.79
467.201	7692.09
467.41	7609.75
467.62	7860.26
467.829	7878.47
468.039	8025.14
468.249	7976.51
468.458	8081.71
468.668	8105.35
468.877	8221.99
469.086	8284.76
469.296	8530.04
469.505	8579.84
469.715	8436.46
469.924	8428.71
470.134	8559.49
470.343	8266.94
470.552	8338.23
470.762	8274.69
470.971	8414.96
471.18	8493.23
471.39	8605.61
471.599	8520.55
471.808	8726.31
472.018	8997.36
472.227	9213.78
472.436	9449.57
472.645	9423.99
472.855	9343.4
473.064	9607.09
473.273	9654.17
473.482	9373.81
473.691	9513.89
473.901	9379.82
474.11	9339.33
474.319	9684.97
474.528	9598.95
474.737	10158.88
474.946	10010.08
475.155	10127.1
475.364	10193.95
475.573	10123.03
475.783	10385.76
475.992	10209.83
476.201	10170.11
476.41	10296.05
476.619	10127.3
476.828	10158.3
477.037	10203.05
477.245	10282.29
477.454	10409.2
477.663	10736.24
477.872	11035.2
478.081	11181.48
478.29	11064.06
478.499	11257.23
478.708	11434.7
478.917	11362.05
479.125	11148.93
479.334	11280.48
479.543	11617.6
479.752	11687.35
479.961	11686.38
480.169	11979.71
480.378	12008
480.587	12246.12
480.796	12156.8
481.004	12218.8
481.213	12379.41
481.422	12579.56
481.63	12754.9
481.839	12795.2
482.048	12936.05
482.256	12937.02
482.465	13265.23
482.674	13088.92
482.882	13136.19
483.091	13322.96
483.299	13094.92
483.508	13479.12
483.716	13603.32
483.925	13616.68
484.134	13257.28
484.342	13560.3
484.551	13606.42
484.759	13454.13
484.967	14071.41
485.176	13838.14
485.384	13892.97
485.593	13604.67
485.801	13471.76
486.01	13024.59
486.218	12381.55
486.426	11905.51
486.635	11686.19
486.843	11854.36
487.051	12255.03
487.26	12503.99
487.468	12817.67
487.676	13196.25
487.885	13602.15
488.093	13956.9
488.301	14425.58
488.509	14368.62
488.717	14667.38
488.926	14638.89
489.134	14412.02
489.342	14491.26
489.55	14460.65
489.758	14741.58
489.967	15313.33
490.175	15074.24
490.383	15690.75
490.591	15976.14
490.799	15823.66
491.007	15725.04
491.215	15864.93
491.423	15707.02
491.631	15760.69
491.839	15490.41
492.047	15579.34
492.255	15129.08
492.463	15220.52
492.671	14950.44
492.879	15485.38
493.087	15684.35
493.295	15803.12
493.503	16040.66
493.711	16394.24
493.919	16268.89
494.127	16198.17
494.334	16171.24
494.542	16310.74
494.75	16771.86
494.958	16508.36
495.166	16931.89
495.374	17118.08
495.581	17167.49
495.789	17120.41
495.997	17065
496.205	16631.39
496.412	16825.33
496.62	17228.71
496.828	17018.11
497.035	17239.18
497.243	17295.94
497.451	17391.46
497.658	17422.65
497.866	17338.76
498.074	17504.8
498.281	17104.13
498.489	17187.06
498.696	16929.18
498.904	16747.83
499.112	16814.68
499.319	17236.08
499.527	17314.16
499.734	17543.17
499.942	17325.59
500.149	17396.69
500.357	17479.42
500.564	17113.82
500.771	17015.2
500.979	16817.97
501.186	16610.66
501.394	17083.6
501.601	16578.3
501.808	16616.09
502.016	16740.47
502.223	16601.36
502.43	16821.07
502.638	16761.4
502.845	17107.23
503.052	17342.25
503.26	17304.66
503.467	17399.21
503.674	17487.37
503.881	17405.22
504.089	17148.5
504.296	17094.83
504.503	16951.46
504.71	16868.54
504.917	17186.86
505.125	17282.19
505.332	17562.73
505.539	17559.83
505.746	18080.81
505.953	18236.2
506.16	18255.19
506.367	18318.54
506.574	18608.58
506.781	18577.19
506.988	18313.5
507.195	18225.93
507.402	18314.86
507.609	18265.46
507.816	17973.67
508.023	17956.43
508.23	17856.07
508.437	17556.53
508.644	17759.39
508.851	17938.02
509.058	18357.29
509.265	18366.79
509.472	18552.4
509.679	18702.36
509.885	18670.97
510.092	18555.88
510.299	18515.39
510.506	18204.23
510.713	18465.98
510.92	18386.55
511.126	18545.23
511.333	18699.45
511.54	18880.02
511.746	18911.21
511.953	19049.36
512.16	19128.41
512.367	19045.09
512.573	18830.81
512.78	18714.76
512.987	18705.07
513.193	18394.68
513.4	18299.36
513.606	18478.38
513.813	18470.25
514.02	18255.96
514.226	18248.21
514.433	18421.62
514.639	18252.67
514.846	18340.82
515.052	18257.9
515.259	18388.29
515.465	18486.91
515.672	18462.69
515.878	18602.77
516.085	18836.43
516.291	18702.36
516.497	18613.81
516.704	17998.47
516.91	17549.17
517.117	16747.25
517.323	16375.45
517.529	16408.39
517.736	16263.47
517.942	16535.29
518.148	16991.37
518.354	17149.47
518.561	17059.19
518.767	16928.99
518.973	17170.98
519.179	17468.57
519.386	17681.89
519.592	17735.94
519.798	17772.56
520.004	18537.86
520.21	18544.26
520.417	18576.42
520.623	18712.62
520.829	18724.06
521.035	18826.74
521.241	18720.57
521.447	18937.76
521.653	19201.64
521.859	18980.96
522.065	19146.62
522.271	19306.85
522.477	19160.76
522.683	19444.02
522.889	18973.6
523.095	18750.6
523.301	18861.42
523.507	18653.14
523.713	18843.02
523.919	18825
524.125	19365.55
524.331	19564.53
524.537	19838.68
524.742	19895.64
524.948	19813.69
525.154	19927.81
525.36	19804.2
525.566	19501.18
525.772	19759.44
525.977	19609.48
526.183	19469.21
526.389	19561.24
526.595	18810.27
526.8	18650.04
527.006	18043.42
527.212	17695.64
527.417	17635.78
527.623	17679.76
527.829	17976.19
528.034	18423.94
528.24	18488.07
528.446	18973.02
528.651	19358.38
528.857	19446.15
529.062	19616.26
529.268	19820.47
529.473	20027.01
529.679	20098.3
529.884	20140.15
530.09	19980.7
530.295	19574.61
530.501	19926.06
530.706	19959
530.912	20184.13
531.117	20111.67
531.323	20089
531.528	20474.56
531.733	20520.87
531.939	20250.01
532.144	20150.03
532.35	20061.1
532.555	20019.64
532.76	19504.66
532.966	19305.3
533.171	19323.51
533.376	19075.51
533.581	19216.37
533.787	19507.57
533.992	19812.33
534.197	19375.63
534.402	19820.08
534.607	19907.46
534.813	19813.69
535.018	19919.48
535.223	20190.53
535.428	20060.72
535.633	20368.78
535.838	20602.24
536.043	20719.26
536.249	20899.26
536.454	20532.1
536.659	20698.73
536.864	20524.74
537.069	20344.17
537.274	20167.47
537.479	20130.66
537.684	20136.08
537.889	20029.91
538.094	20535.2
538.299	20281.2
538.504	20682.06
538.708	20453.64
538.913	20740.96
539.118	20726.24
539.323	20632.85
539.528	20276.75
539.733	20195.37
539.938	20194.21
540.142	20126.4
540.347	20028.75
540.552	19934.2
540.757	19517.84
540.962	19823.96
541.166	19513.19
541.371	19618
541.576	19711.2
541.781	19804.97
541.985	20241.29
542.19	19961.13
542.395	20534.24
542.599	20508.66
542.804	20221.33
543.008	20420.31
543.213	20443.76
543.418	20040.76
543.622	20411.79
543.827	20052.77
544.031	20490.84
544.236	20630.33
544.44	20851.59
544.645	20843.84
544.849	20631.88
545.054	20783.78
545.258	20860.31
545.463	20878.52
545.667	20541.4
545.872	20875.81
546.076	20735.35
546.281	20724.5
546.485	20668.89
546.689	20729.92
546.894	20692.33
547.098	20918.24
547.302	20714.23
547.507	20713.65
547.711	20820.01
547.915	20649.32
548.119	20478.82
548.324	20413.34
548.528	20531.72
548.732	20522.61
548.936	20851.01
549.141	20701.63
549.345	20803.54
549.549	20871.36
549.753	21154.03
549.957	20858.76
550.161	21106.37
550.366	21081.77
550.57	20964.55
550.774	20947.5
550.978	20970.94
551.182	20899.26
551.386	20710.16
551.59	20838.61
551.794	20736.31
551.998	20941.49
552.202	20994.39
552.406	20958.35
552.61	21220.49
552.814	21036.62
553.018	20926.57
553.222	20636.15
553.426	20759.18
553.63	21038.95
553.833	20911.27
554.037	20786.3
554.241	20762.66
554.445	21099.78
554.649	20958.74
554.853	20837.06
555.056	20996.52
555.26	21155.39
555.464	20898.87
555.668	21035.07
555.871	20983.54
556.075	21156.36
556.279	20872.32
556.483	20746.19
556.686	20658.23
556.89	20736.9
557.094	20690.4
557.297	20337.39
557.501	20430.39
557.704	20177.74
557.908	20350.56
558.112	20483.09
558.315	20480.76
558.519	20441.24
558.722	20111.48
558.926	20091.91
559.129	19599.99
559.333	19881.31
559.536	19774.17
559.74	19735.42
559.943	19484.32
560.147	19732.32
560.35	19612.58
560.553	20082.61
560.757	20003.76
560.96	20115.55
561.164	20151.58
561.367	20372.46
561.57	20330.8
561.774	20055.29
561.977	20054.13
562.18	19960.74
562.384	20014.22
562.587	19881.69
562.79	20068.08
562.993	19946.79
563.197	19837.52
563.4	20169.8
563.603	20169.6
563.806	20197.12
564.009	20229.66
564.212	20132.98
564.416	19805.94
564.619	19800.32
564.822	19674.77
565.025	20048.7
565.228	19901.65
565.431	20054.9
565.634	19670.9
565.837	19640.48
566.04	19393.65
566.243	19250.66
566.446	19070.09
566.649	19434.14
566.852	19248.14
567.055	19541.09
567.258	19418.64
567.461	19687.95
567.664	19667.41
567.867	19606.38
568.07	19454.29
568.273	19588.36
568.475	19649.39
568.678	19182.07
568.881	19159.21
569.084	18915.67
569.287	18681.82
569.489	18920.9
569.692	19008.48
569.895	19051.29
570.098	18897.85
570.3	18911.8
570.503	18749.63
570.706	18678.33
570.909	18626.99
571.111	18297.81
571.314	18302.85
571.516	18340.05
571.719	18490.2
571.922	18385.97
572.124	18595.6
572.327	18693.06
572.529	18689.37
572.732	18840.11
572.935	18881.18
573.137	19179.36
573.34	18888.35
573.542	19050.33
573.745	18869.95
573.947	18959.85
574.15	18835.65
574.352	18874.02
574.554	19035.99
574.757	18746.14
574.959	18435.76
575.162	18812.4
575.364	18484
575.566	18645.59
575.769	18395.27
575.971	18586.88
576.173	18036.25
576.376	18354.39
576.578	18614.39
576.78	18394.3
576.982	18458.43
577.185	18560.34
577.387	18441.96
577.589	18665.93
577.791	18466.37
577.993	18517.91
578.196	18525.27
578.398	18204.04
578.6	18198.03
578.802	18171.49
579.004	17987.82
579.206	18255.38
579.408	18440.22
579.61	18222.44
579.812	18610.13
580.014	18336.56
580.216	18349.35
580.418	18741.88
580.62	18730.25
580.822	18815.12
581.024	18784.31
581.226	18888.93
581.428	18839.53
581.63	19159.21
581.832	19032.69
582.034	19264.22
582.236	19206.1
582.438	19401.59
582.64	19493.04
582.841	19479.09
583.043	19695.12
583.245	19428.71
583.447	19597.27
583.649	19671.67
583.85	19712.55
584.052	19626.53
584.254	19537.02
584.456	19532.37
584.657	19511.44
584.859	19728.25
585.061	19489.55
585.262	19473.28
585.464	19356.83
585.666	19439.76
585.867	19133.06
586.069	19111.16
586.27	19062.53
586.472	19112.13
586.674	19026.88
586.875	19036.57
587.077	19110
587.278	19191.76
587.48	19126.66
587.681	19366.33
587.883	19202.8
588.084	18849.6
588.285	18857.74
588.487	18455.52
588.688	18486.13
588.89	17810.15
589.091	17403.28
589.292	17093.09
589.494	16613.76
589.695	16372.74
589.896	16230.14
590.098	16428.54
590.299	16458.57
590.5	16675.18
590.702	17105.49
590.903	17334.31
591.104	17463.54
591.305	17794.26
591.507	17743.69
591.708	17752.22
591.909	17737.49
592.11	17701.07
592.311	17941.7
592.512	17628.03
592.714	17641.78
592.915	17890.17
593.116	17903.54
593.317	18161.41
593.518	18101.35
593.719	18161.22
593.92	18142.81
594.121	18145.91
594.322	18057.76
594.523	17891.91
594.724	17668.52
594.925	17678.6
595.126	17548.59
595.327	17606.33
595.528	17820.03
595.729	17835.92
595.929	17859.94
596.13	17904.31
596.331	18179.24
596.532	18097.67
596.733	18316.22
596.934	18279.6
597.135	18334.04
597.335	18239.88
597.536	18249.18
597.737	18129.83
597.938	18050.4
598.138	18089.15
598.339	18175.56
598.54	18215.47
598.74	17898.5
598.941	18062.99
599.142	18345.28
599.342	18262.16
599.543	18129.44
599.744	18174.98
599.944	18283.28
600.145	18417.55
600.345	18340.44
600.546	18317.57
600.746	18282.51
600.947	18531.86
601.147	18139.91
601.348	18448.35
601.548	18170.91
601.749	18168.58
601.949	18021.14
602.15	18130.99
602.35	17847.35
602.551	17988.78
602.751	18140.29
602.951	18188.73
603.152	18171.68
603.352	18344.31
603.552	18325.13
603.753	18487.68
603.953	18615.94
604.153	18551.62
604.354	18629.51
604.554	18591.14
604.754	18549.1
604.954	18554.72
605.155	18660.51
605.355	18568.86
605.555	18607.42
605.755	18527.01
605.955	18470.63
606.155	18407.28
606.356	18505.9
606.556	18426.27
606.756	18532.83
606.956	18445.45
607.156	18591.34
607.356	18452.62
607.556	18470.83
607.756	18456.3
607.956	18564.6
608.156	18454.75
608.356	18213.14
608.556	18454.75
608.756	18266.62
608.956	18329.78
609.156	18230.39
609.356	18289.09
609.556	18172.07
609.755	18299.94
609.955	18121.31
610.155	18162.19
610.355	18223.8
610.555	17894.43
610.755	17783.99
610.954	17944.42
611.154	18015.13
611.354	18058.53
611.554	17945.77
611.753	18157.73
611.953	17972.7
612.153	18040.51
612.352	17965.15
612.552	17836.69
612.752	17874.28
612.951	18066.09
613.151	17788.26
613.351	17918.26
613.55	17839.21
613.75	17820.61
613.949	17523.79
614.149	17624.35
614.348	17649.73
614.548	17662.71
614.747	17637.52
614.947	17640.62
615.146	17593.54
615.346	17852.77
615.545	17840.57
615.745	17752.22
615.944	17605.75
616.144	17652.44
616.343	17378.67
616.542	17422.46
616.742	17141.33
616.941	17230.46
617.14	17059.19
617.34	17340.31
617.539	17330.04
617.738	17366.27
617.938	17507.71
618.137	17416.65
618.336	17505.19
618.535	17677.05
618.734	17639.26
618.934	17581.72
619.133	17534.25
619.332	17847.16
619.531	17425.95
619.73	17802.21
619.929	17719.09
620.128	17754.93
620.328	17728.19
620.527	17739.04
620.726	17787.29
620.925	17731.49
621.124	17847.74
621.323	17648.37
621.522	17415.49
621.721	17690.22
621.92	17385.84
622.119	17467.41
622.318	17361.04
622.517	17310.09
622.715	17355.81
622.914	17308.34
623.113	17456.17
623.312	16926.86
623.511	17265.14
623.71	17170.2
623.909	16868.93
624.107	17191.13
624.306	17010.94
624.505	16975.87
624.704	16885.59
624.902	16707.92
625.101	16917.94
625.3	16723.81
625.499	16612.99
625.697	16759.85
625.896	16583.54
626.095	16457.99
626.293	16418.46
626.492	16594.97
626.69	16557.57
626.889	16769.92
627.088	16611.24
627.286	16617.44
627.485	16321.78
627.683	16228.78
627.882	15866.67
628.08	15675.05
628.279	15493.13
628.477	15573.53
628.676	15412.33
628.874	15569.27
629.073	15517.15
629.271	15635.14
629.469	15705.09
629.668	15658.59
629.866	15560.36
630.065	15627.78
630.263	15632.82
630.461	15539.82
630.66	15820.75
630.858	15742.67
631.056	15835.09
631.254	16082.31
631.453	15717.68
631.651	15841.48
631.849	15779.48
632.047	15745.97
632.245	15771.35
632.444	15868.41
632.642	16032.13
632.84	16306.86
633.038	16055.96
633.236	15906.58
633.434	16114.67
633.632	16160.2
633.83	16003.07
634.028	16324.88
634.227	16129.97
634.425	16413.04
634.623	16144.5
634.821	16321.78
635.019	16325.27
635.216	16504.1
635.414	16365.96
635.612	16348.13
635.81	16309.96
636.008	16366.15
636.206	16351.04
636.404	16210.96
636.602	16407.03
636.8	16161.55
636.997	16433.96
637.195	16427.57
637.393	16477.94
637.591	16679.83
637.789	16572.88
637.986	16627.52
638.184	16669.75
638.382	16730.4
638.58	16686.03
638.777	16732.53
638.975	16588.19
639.173	16681.77
639.37	16571.52
639.568	16606.98
639.765	16537.23
639.963	16480.27
640.161	16296.6
640.358	16573.85
640.556	16246.8
640.753	16486.66
640.951	16275.09
641.148	16357.82
641.346	16345.23
641.543	16238.08
641.741	16300.28
641.938	16076.31
642.136	16379.52
642.333	16163.69
642.531	16388.43
642.728	16355.3
642.925	16545.75
643.123	16485.69
643.32	16404.32
643.517	16292.72
643.715	16262.3
643.912	16426.21
644.109	16342.32
644.306	16361.5
644.504	16318.3
644.701	16324.3
644.898	16404.9
645.095	16207.28
645.293	16279.16
645.49	16180.93
645.687	16089.29
645.884	16234.02
646.081	15818.62
646.278	15907.16
646.475	15801.38
646.672	15700.44
646.87	15528.39
647.067	15488.48
647.264	15437.91
647.461	15413.11
647.658	15146.32
647.855	15308.49
648.052	15147.09
648.249	14946.37
648.446	15070.56
648.642	15280.97
648.839	14984.35
649.036	15044.02
649.233	14997.71
649.43	14930.48
649.627	14673.96
649.824	14846.98
650.021	14630.18
650.217	15050.61
650.414	15129.08
650.611	15163.17
650.808	15473.75
651.004	15393.35
651.201	15380.37
651.398	15408.65
651.595	15249.78
651.791	15127.72
651.988	15195.34
652.185	14917.89
652.381	15299.77
652.578	15083.74
652.775	15246.87
652.971	15450.89
653.168	15168.6
653.364	15469.1
653.561	15290.27
653.757	15406.13
653.954	15589.42
654.15	15200.76
654.347	15469.3
654.543	15454.18
654.74	15188.75
654.936	15112.61
655.133	15012.44
655.329	15025.23
655.525	14707.29
655.722	14642.77
655.918	14285.69
656.115	13839.11
656.311	13518.84
656.507	13047.26
656.704	12897.88
656.9	13092.4
657.096	13351.25
657.292	13357.06
657.489	13603.51
657.685	13902.46
657.881	13959.04
658.077	14215.75
658.273	14428.68
658.47	14656.33
658.666	14623.78
658.862	14845.04
659.058	14926.03
659.254	14950.63
659.45	15104.66
659.646	14953.15
659.842	15057.39
660.038	15210.45
660.234	15047.51
660.43	15052.16
660.626	15215.29
660.822	15244.55
661.018	15361.18
661.214	15263.34
661.41	15264.5
661.606	15341.81
661.802	15464.26
661.998	15463.29
662.194	15394.32
662.39	15450.7
662.586	15356.53
662.781	15413.3
662.977	15543.69
663.173	15293.18
663.369	15361.18
663.564	15334.64
663.76	15316.62
663.956	15308.1
664.152	15161.04
664.347	15096.53
664.543	15248.62
664.739	15210.64
664.934	15008.37
665.13	15367.97
665.326	15294.73
665.521	15299.96
665.717	15157.94
665.912	15269.35
666.108	15005.27
666.304	15358.08
666.499	15103.31
666.695	14935.33
666.89	15108.34
667.086	15191.85
667.281	15070.56
667.477	15193.98
667.672	15086.26
667.867	14937.07
668.063	15026.97
668.258	14880.3
668.454	15027.55
668.649	15012.83
668.844	15109.89
669.04	15082.58
669.235	15034.33
669.43	15082.96
669.626	14819.08
669.821	14988.22
670.016	14957.42
670.211	15076.18
670.407	14779.36
670.602	15047.12
670.797	14811.14
670.992	15041.7
671.187	14773.94
671.382	14922.73
671.578	14692.37
671.773	14750.88
671.968	14547.25
672.163	14776.26
672.358	14618.36
672.553	14502.3
672.748	14734.41
672.943	14735.19
673.138	14710.77
673.333	14794.67
673.528	14553.84
673.723	14789.05
673.918	14551.71
674.113	14519.93
674.308	14703.22
674.503	14512.77
674.698	14714.07
674.892	14450.38
675.087	14481.57
675.282	14447.08
675.477	14513.35
675.672	14628.43
675.867	14462
676.061	14485.25
676.256	14352.54
676.451	14532.92
676.646	14495.13
676.84	14369.97
677.035	14363.77
677.23	14447.67
677.424	14354.47
677.619	14317.08
677.814	14484.67
678.008	14355.64
678.203	14343.24
678.397	14316.69
678.592	14272.91
678.787	14418.22
678.981	14253.73
679.176	14327.54
679.37	14279.49
679.565	14254.11
679.759	14301.97
679.954	14266.51
680.148	14160.15
680.342	14328.71
680.537	14121.98
680.731	14085.94
680.926	14158.21
681.12	14076.25
681.314	14095.82
681.509	14125.27
681.703	14063.08
681.897	13888.9
682.092	13985.77
682.286	14133.6
682.48	13970.27
682.674	13890.84
682.869	13828.45
683.063	14029.95
683.257	13916.02
683.451	13818.57
683.645	13916.61
683.839	13766.26
684.034	13692.25
684.228	13597.5
684.422	13466.14
684.616	13625.21
684.81	13524.85
685.004	13465.76
685.198	13530.66
685.392	13448.12
685.586	13526.59
685.78	13379.54
685.974	13414.41
686.168	13333.43
686.362	13193.93
686.556	12410.41
686.75	11914.03
686.944	11105.72
687.138	10231.34
687.331	9708.8
687.525	9283.72
687.719	9123.1
687.913	9177.35
688.107	9333.9
688.301	9388.73
688.494	9578.8
688.688	9466.42
688.882	9343.4
689.076	9398.61
689.269	9387.18
689.463	9523.58
689.657	9560
689.85	9622
690.044	9804.13
690.238	9942.85
690.431	9969.78
690.625	10023.06
690.818	10381.49
691.012	10357.08
691.205	10554.32
691.399	10598.68
691.593	10699.63
691.786	10751.16
691.98	11036.36
692.173	11021.83
692.366	11072.98
692.56	11216.74
692.753	11104.95
692.947	11130.91
693.14	11013.88
693.333	11113.47
693.527	11045.85
693.72	11134.01
693.914	10992.38
694.107	10818.97
694.3	10875.16
694.493	10676.38
694.687	10983.85
694.88	10837.57
695.073	10986.37
695.266	11004
695.46	10999.93
695.653	10976.49
695.846	11008.85
696.039	11054.57
696.232	11067.55
696.425	11366.31
696.618	11461.25
696.812	11720.48
697.005	11586.02
697.198	11848.35
697.391	11735.98
697.584	11959.37
697.777	11920.04
697.97	11805.54
698.163	11883.62
698.356	11737.14
698.549	11757.49
698.742	11758.84
698.935	11501.55
699.127	11388.98
699.32	11327.75
699.513	11346.35
699.706	11220.03
699.899	11308.57
700.092	11184.96
700.285	11146.41
700.477	10984.43
700.67	11047.79
700.863	10952.47
701.056	11127.03
701.248	10993.35
701.441	11071.23
701.634	10915.07
701.826	11009.43
702.019	10742.25
702.212	10928.83
702.404	10802.12
702.597	10822.85
702.79	10858.5
702.982	10858.11
703.175	11028.61
703.367	11065.81
703.56	11052.83
703.752	11178.38
703.945	11101.07
704.137	11048.18
704.33	11168.3
704.522	11183.99
704.715	11229.91
704.907	11166.17
705.1	11301.99
705.292	11184.77
705.484	11175.28
705.677	11188.84
705.869	11213.83
706.061	11214.02
706.254	11219.26
706.446	11090.8
706.638	11167.33
706.831	11205.31
707.023	11156.29
707.215	11366.7
707.407	11346.74
707.599	11100.68
707.792	11356.62
707.984	11276.41
708.176	11313.8
708.368	11187.87
708.56	11299.86
708.752	11249.87
708.944	11140.21
709.136	11206.66
709.329	11189.61
709.521	11294.24
709.713	11138.08
709.905	11187.87
710.097	11344.8
710.289	11151.06
710.481	11177.21
710.672	11136.91
710.864	11232.24
711.056	11139.82
711.248	11093.32
711.44	11100.49
711.632	11137.88
711.824	11129.16
712.016	11074.33
712.207	11035
712.399	11000.32
712.591	11008.65
712.783	11115.6
712.975	10951.11
713.166	10972.03
713.358	11003.23
713.55	10979.98
713.741	10899.38
713.933	10948.4
714.125	10832.34
714.316	10714.93
714.508	10893.18
714.7	10644.41
714.891	10682
715.083	10616.12
715.274	10548.7
715.466	10654.87
715.657	10539.2
715.849	10320.27
716.04	10250.71
716.232	10128.27
716.423	9902.74
716.615	9638.47
716.806	9270.74
716.998	8983.8
717.189	8645.13
717.381	8408.57
717.572	8196.02
717.763	8010.22
717.955	7835.46
718.146	7628.54
718.337	7494.66
718.528	7355.16
718.72	7025.6
718.911	6988.2
719.102	6880.09
719.293	6868.47
719.485	6791.36
719.676	6623.18
719.867	6600.52
720.058	6590.05
720.249	6561.57
720.44	6580.75
720.632	6834.18
720.823	6901.41
721.014	7256.35
721.205	7470.44
721.396	7738.59
721.587	7886.8
721.778	8085.59
721.969	8199.32
722.16	8308.4
722.351	8567.05
722.542	8575.96
722.733	8556.59
722.924	8451.38
723.115	8378.92
723.305	8195.25
723.496	8221.41
723.687	7768.23
723.878	7817.05
724.069	7701.39
724.26	7693.64
724.45	7432.27
724.641	7421.42
724.832	7424.91
725.023	7312.15
725.213	7335.98
725.404	7152.11
725.595	7122.47
725.785	7128.48
725.976	7285.99
726.167	7175.36
726.357	7230.78
726.548	7394.88
726.739	7183.5
726.929	7343.34
727.12	7298.01
727.31	7310.41
727.501	7149.21
727.691	7082.56
727.882	7178.46
728.072	7228.84
728.263	7288.51
728.453	7345.28
728.644	7371.05
728.834	7218.96
729.024	7126.73
729.215	7143.2
729.405	7132.55
729.596	7259.45
729.786	7243.37
729.976	7312.34
730.167	7267.39
730.357	7248.79
730.547	7217.21
730.737	7306.72
730.928	7319.12
731.118	7349.54
731.308	7171.1
731.498	7250.73
731.688	7423.75
731.879	7489.62
732.069	7563.44
732.259	7679.69
732.449	7820.74
732.639	7896.3
732.829	7920.9
733.019	8069.51
733.209	8215.79
733.399	8171.61
733.589	8385.51
733.779	8456.61
733.969	8482.19
734.159	8587.39
734.349	8597.27
734.539	8693.18
734.729	8708.87
734.919	8680.59
735.109	8744.52
735.299	8563.56
735.488	8589.33
735.678	8648.04
735.868	8572.48
736.058	8509.12
736.248	8499.43
736.437	8470.18
736.627	8446.15
736.817	8581.19
737.007	8457.78
737.196	8576.54
737.386	8597.27
737.576	8533.53
737.765	8636.02
737.955	8526.36
738.144	8751.11
738.334	8673.42
738.524	8518.42
738.713	8580.23
738.903	8539.93
739.092	8577.71
739.282	8566.66
739.471	8591.66
739.661	8564.34
739.85	8679.62
740.04	8588.56
740.229	8662.57
740.419	8672.06
740.608	8680.39
740.797	8596.89
740.987	8690.85
741.176	8642.03
741.365	8683.3
741.555	8488.39
741.744	8684.85
741.933	8606.57
742.123	8691.63
742.312	8622.07
742.501	8697.25
742.69	8752.27
742.88	8599.02
743.069	8775.52
743.258	8760.22
743.447	8749.75
743.636	8712.36
743.825	8748.79
744.014	8685.62
744.204	8770.68
744.393	8639.9
744.582	8845.66
744.771	8806.33
744.96	8722.82
745.149	8746.85
745.338	8637.38
745.527	8816.4
745.716	8718.56
745.905	8614.71
746.094	8762.15
746.283	8680.2
746.471	8618.39
746.66	8740.07
746.849	8692.6
747.038	8657.72
747.227	8673.03
747.416	8655.79
747.604	8601.34
747.793	8599.79
747.982	8610.06
748.171	8671.29
748.359	8537.21
748.548	8590.88
748.737	8577.32
748.926	8637.77
749.114	8343.27
749.303	8492.85
749.491	8507.18
749.68	8371.75
749.869	8433.95
750.057	8398.88
750.246	8349.47
750.434	8410.31
750.623	8371.37
750.811	8310.72
751	8343.27
751.188	8326.03
751.377	8298.71
751.565	8299.1
751.754	8227.99
751.942	8204.16
752.131	8306.85
752.319	8213.27
752.507	8184.21
752.696	8212.88
752.884	8210.56
753.072	8105.93
753.261	8208.81
753.449	8188.66
753.637	8134.03
753.825	8234.97
754.014	8166.57
754.202	8132.28
754.39	8162.12
754.578	8174.32
754.766	8044.13
754.955	7965.47
755.143	8112.33
755.331	8051.49
755.519	8088.69
755.707	8020.88
755.895	7927.49
756.083	7992.59
756.271	7851.15
756.459	7902.3
756.647	7932.33
756.835	7766.49
757.023	7919.74
757.211	7798.84
757.399	7761.06
757.587	7733.55
757.775	7695.19
757.963	7746.72
758.151	7706.62
758.339	7603.74
758.526	7669.81
758.714	7602
758.902	7344.12
759.09	7095.35
759.278	6649.92
759.465	6059.38
759.653	5341.35
759.841	4730.27
760.028	4119.2
760.216	3563.53
760.404	3222.15
760.591	2684.69
760.779	2260.97
760.967	1934.7
761.154	1728.74
761.342	1656.09
761.529	1680.69
761.717	1741.34
761.905	1797.13
762.092	1882.96
762.28	1772.34
762.467	1729.52
762.655	1622.37
762.842	1619.47
763.029	1683.41
763.217	1687.47
763.404	1660.54
763.592	1735.91
763.779	1660.74
763.966	1762.84
764.154	1804.3
764.341	1933.34
764.528	1943.8
764.716	2134.06
764.903	2217.95
765.09	2382.64
765.277	2494.43
765.465	2795.9
765.652	2941.41
765.839	3130.12
766.026	3372.88
766.213	3531.75
766.4	3769.29
766.588	4112.41
766.775	4242.61
766.962	4539.43
767.149	4690.36
767.336	4953.86
767.523	5011.21
767.71	5249.71
767.897	5471.55
768.084	5653.29
768.271	5761.98
768.458	5885.2
768.645	6048.53
768.832	6065.97
769.019	6176.98
769.206	6193.65
769.392	6339.93
769.579	6474.19
769.766	6379.84
769.953	6409.48
770.14	6536
770.327	6575.33
770.513	6645.47
770.7	6746.21
770.887	6597.8
771.073	6696.61
771.26	6688.86
771.447	6629.19
771.634	6639.65
771.82	6820.23
772.007	6604.58
772.193	6691
772.38	6749.12
772.567	6680.34
772.753	6629.77
772.94	6762.1
773.126	6728.97
773.313	6774.5
773.499	6726.65
773.686	6772.37
773.872	6651.67
774.059	6740.79
774.245	6612.14
774.432	6642.75
774.618	6556.15
774.804	6633.45
774.991	6655.73
775.177	6580.17
775.363	6574.75
775.55	6623.57
775.736	6522.44
775.922	6590.25
776.109	6614.47
776.295	6561.38
776.481	6609.43
776.667	6561.38
776.853	6504.22
777.04	6454.43
777.226	6561.38
777.412	6587.73
777.598	6410.64
777.784	6490.27
777.97	6387.98
778.156	6441.26
778.342	6454.43
778.528	6421.3
778.715	6362.21
778.901	6348.45
779.087	6405.61
779.272	6361.63
779.458	6331.98
779.644	6270.56
779.83	6284.13
780.016	6431.37
780.202	6299.43
780.388	6330.82
780.574	6150.63
780.76	6206.63
780.946	6301.37
781.131	6223.68
781.317	6179.5
781.503	6151.02
781.689	6148.5
781.874	6294.4
782.06	6140.56
782.246	6225.62
782.432	6176.98
782.617	6131.07
782.803	6184.15
782.989	6089.8
783.174	6036.71
783.36	6001.45
783.545	5975.1
783.731	6009.59
783.916	5880.75
784.102	6048.72
784.288	5968.51
784.473	5971.22
784.659	5890.63
784.844	5929.38
785.029	5920.66
785.215	5863.5
785.4	5843.55
785.586	5926.08
785.771	5810.61
785.956	5881.33
786.142	5822.23
786.327	5835.8
786.512	5787.75
786.698	5779.8
786.883	5626.55
787.068	5770.31
787.254	5691.45
787.439	5653.48
787.624	5655.22
787.809	5616.09
787.994	5582.18
788.18	5632.75
788.365	5532.39
788.55	5517.47
788.735	5536.65
788.92	5528.13
789.105	5442.3
789.29	5505.65
789.475	5406.26
789.66	5423.5
789.845	5300.86
790.03	5308.61
790.215	5382.43
790.4	5363.44
790.585	5383.4
790.77	5333.41
790.955	5228.59
791.14	5287.1
791.325	5415.75
791.51	5198.17
791.695	5339.03
791.879	5313.26
792.064	5242.54
792.249	5368.86
792.434	5307.25
792.618	5313.84
792.803	5364.99
792.988	5288.27
793.173	5333.6
793.357	5328.18
793.542	5271.8
793.727	5348.13
793.911	5363.63
794.096	5350.27
794.281	5404.13
794.465	5462.44
794.65	5338.25
794.834	5437.26
795.019	5444.04
795.203	5494.61
795.388	5460.89
795.572	5470.19
795.757	5441.71
795.941	5396.57
796.126	5329.53
796.31	5310.74
796.494	5324.88
796.679	5282.84
796.863	5274.7
797.048	5390.18
797.232	5316.94
797.416	5436.29
797.601	5413.23
797.785	5449.66
797.969	5495.77
798.153	5380.3
798.338	5470.97
798.522	5546.34
798.706	5538.2
798.89	5511.27
799.074	5585.67
799.258	5565.52
799.443	5459.93
799.627	5495.77
799.811	5509.72
799.995	5442.1
800.179	5427.38
800.363	5352.59
800.547	5413.81
800.731	5448.11
800.915	5301.83
801.099	5336.51
801.283	5370.03
801.467	5408.78
801.651	5367.12
801.835	5400.06
802.019	5408.58
802.202	5392.11
802.386	5290.98
802.57	5289.62
802.754	5307.83
802.938	5265.79
803.121	5305.51
803.305	5395.02
803.489	5329.15
803.673	5330.89
803.856	5408
804.04	5277.42
804.224	5382.62
804.407	5317.52
804.591	5299.5
804.775	5310.55
804.958	5337.09
805.142	5496.16
805.326	5340.38
805.509	5396.38
805.693	5454.89
805.876	5414.01
806.06	5401.22
806.243	5484.53
806.427	5503.52
806.61	5509.14
806.794	5407.81
806.977	5481.24
807.16	5440.16
807.344	5410.33
807.527	5365.57
807.71	5428.73
807.894	5410.13
808.077	5411.68
808.26	5362.47
808.444	5284.2
808.627	5373.13
808.81	5254.55
808.993	5192.36
809.177	5240.02
809.36	5186.35
809.543	5199.92
809.726	5095.49
809.909	5108.86
810.092	5039.3
810.276	5087.35
810.459	5044.53
810.642	5011.4
810.825	4962.77
811.008	4996.68
811.191	4780.65
811.374	4781.62
811.557	4789.75
811.74	4871.9
811.923	4728.92
812.106	4681.45
812.289	4655.49
812.472	4623.71
812.654	4582.06
812.837	4530.13
813.02	4453.6
813.203	4339.87
813.386	4205.99
813.569	4186.81
813.751	4072.7
813.934	4086.65
814.117	4026.39
814.3	3920.41
814.482	3846.4
814.665	3728.99
814.848	3688.88
815.03	3627.27
815.213	3552.87
815.396	3583.87
815.578	3530.59
815.761	3428.87
815.943	3494.55
816.126	3372.69
816.309	3342.46
816.491	3178.55
816.674	3151.43
816.856	3176.23
817.039	3271.74
817.221	3272.52
817.403	3236.68
817.586	3244.04
817.768	3176.23
817.951	3104.35
818.133	3124.11
818.315	3118.68
818.498	3241.91
818.68	3267.68
818.862	3305.26
819.045	3298.29
819.227	3321.15
819.409	3277.94
819.591	3302.16
819.774	3277.17
819.956	3272.33
820.138	3405.24
820.32	3382.96
820.502	3544.73
820.684	3666.6
820.866	3647.23
821.048	3769.48
821.231	3763.28
821.413	3765.41
821.595	3726.08
821.777	3778.39
821.959	3762.12
822.141	3773.74
822.323	3595.88
822.505	3457.74
822.686	3280.46
822.868	3129.73
823.05	2954.19
823.232	2896.65
823.414	2791.06
823.596	2873.01
823.778	2910.41
823.96	2968.53
824.141	3007.47
824.323	3060.56
824.505	3186.88
824.687	3294.8
824.868	3414.34
825.05	3565.85
825.232	3642.38
825.413	3667.76
825.595	3655.36
825.777	3564.69
825.958	3652.46
826.14	3613.51
826.321	3655.75
826.503	3630.37
826.685	3714.65
826.866	3690.63
827.048	3650.91
827.229	3581.93
827.411	3487.19
827.592	3440.11
827.773	3407.95
827.955	3323.67
828.136	3276.39
828.318	3310.69
828.499	3310.69
828.68	3277.36
828.862	3257.8
829.043	3247.72
829.224	3213.23
829.406	3233
829.587	3239.97
829.768	3231.64
829.949	3268.45
830.131	3223.31
830.312	3300.42
830.493	3287.24
830.674	3274.07
830.855	3250.43
831.036	3284.92
831.218	3359.9
831.399	3393.81
831.58	3322.12
831.761	3260.9
831.942	3329.09
832.123	3308.36
832.304	3211.68
832.485	3230.48
832.666	3290.54
832.847	3317.28
833.028	3248.69
833.209	3273.88
833.389	3210.13
833.57	3169.45
833.751	3166.15
833.932	3272.71
834.113	3316.69
834.294	3237.84
834.475	3326.19
834.655	3371.72
834.836	3349.63
835.017	3360.09
835.198	3306.04
835.378	3336.46
835.559	3424.42
835.74	3376.95
835.92	3339.94
836.101	3362.61
836.281	3450.77
836.462	3402.52
836.643	3444.18
836.823	3433.52
837.004	3506.18
837.184	3481.38
837.365	3427.32
837.545	3397.87
837.726	3414.34
837.906	3542.02
838.087	3482.93
838.267	3449.6
838.448	3385.28
838.628	3444.95
838.808	3439.72
838.989	3456.77
839.169	3364.16
839.349	3448.83
839.53	3477.5
839.71	3509.67
839.89	3433.33
840.07	3505.6
840.251	3425
840.431	3460.26
840.611	3455.22
840.791	3410.66
840.971	3441.66
841.151	3445.34
841.332	3381.41
841.512	3473.82
841.692	3384.12
841.872	3422.87
842.052	3404.07
842.232	3407.37
842.412	3328.13
842.592	3360.09
842.772	3449.02
842.952	3462.59
843.132	3341.3
843.312	3340.14
843.492	3381.6
843.672	3422.29
843.851	3278.33
844.031	3338.59
844.211	3373.85
844.391	3259.15
844.571	3340.72
844.751	3348.86
844.93	3320.96
845.11	3336.65
845.29	3337.04
845.47	3357.38
845.649	3333.36
845.829	3410.47
846.009	3310.88
846.188	3358.54
846.368	3392.06
846.547	3330.45
846.727	3345.56
846.907	3238.03
847.086	3285.5
847.266	3340.72
847.445	3346.14
847.625	3289.57
847.804	3247.14
847.984	3284.14
848.163	3286.47
848.343	3214.2
848.522	3249.85
848.701	3204.9
848.881	3181.65
849.06	3250.24
849.239	3194.05
849.419	3166.73
849.598	3127.4
849.777	3056.88
849.957	3010.96
850.136	2985.77
850.315	2973.18
850.494	2970.08
850.674	2983.26
850.853	3047.19
851.032	2971.05
851.211	3036.73
851.39	3010.96
851.569	2958.46
851.748	2974.34
851.927	3062.11
852.107	3014.45
852.286	2979.96
852.465	2955.74
852.644	3047.97
852.823	2998.17
853.002	3028.4
853.181	2997.79
853.359	3000.69
853.538	2928.04
853.717	2944.31
853.896	2789.31
854.075	2662.8
854.254	2625.4
854.433	2528.34
854.611	2586.46
854.79	2512.26
854.969	2623.27
855.148	2665.32
855.327	2587.62
855.505	2687.6
855.684	2659.89
855.863	2747.85
856.041	2743.01
856.22	2800.75
856.399	2780.6
856.577	2894.13
856.756	2841.63
856.934	2986.74
857.113	2993.33
857.291	2891.81
857.47	2812.56
857.648	2901.3
857.827	2848.79
858.005	2897.62
858.184	2871.08
858.362	2932.49
858.541	2845.5
858.719	2884.25
858.898	2845.5
859.076	2855.77
859.254	2924.36
859.433	2803.65
859.611	2836.2
859.789	2782.92
859.967	2854.03
860.146	2880.57
860.324	2739.91
860.502	2774.2
860.68	2760.83
860.859	2807.91
861.037	2786.6
861.215	2754.63
861.393	2778.27
861.571	2734.48
861.749	2706.78
861.927	2753.47
862.105	2795.9
862.283	2748.63
862.461	2698.45
862.639	2726.15
862.817	2722.47
862.995	2738.75
863.173	2684.88
863.351	2706.39
863.529	2725.96
863.707	2741.26
863.885	2742.43
864.063	2633.74
864.241	2653.3
864.418	2699.42
864.596	2671.52
864.774	2579.87
864.952	2658.73
865.129	2657.57
865.307	2601.96
865.485	2531.44
865.663	2582.2
865.84	2492.11
866.018	2479.9
866.196	2299.52
866.373	2279.76
866.551	2260.77
866.728	2224.54
866.906	2260
867.084	2310.95
867.261	2354.35
867.439	2352.22
867.616	2425.65
867.794	2432.04
867.971	2429.72
868.149	2408.02
868.326	2481.26
868.503	2461.69
868.681	2451.23
868.858	2423.91
869.035	2383.61
869.213	2463.43
869.39	2425.26
869.567	2501.99
869.745	2399.3
869.922	2458.39
870.099	2452
870.276	2443.67
870.454	2470.6
870.631	2465.18
870.808	2439.41
870.985	2448.9
871.162	2445.61
871.339	2444.44
871.517	2356.48
871.694	2375.28
871.871	2400.27
872.048	2352.41
872.225	2389.03
872.402	2379.54
872.579	2354.35
872.756	2404.53
872.933	2346.21
873.11	2367.53
873.287	2376.83
873.463	2303.59
873.64	2319.09
873.817	2330.33
873.994	2327.81
874.171	2264.84
874.348	2293.13
874.524	2279.76
874.701	2286.73
874.878	2228.61
875.055	2297
875.231	2246.82
875.408	2253.6
875.585	2231.13
875.762	2220.08
875.938	2232.68
876.115	2236.17
876.291	2236.17
876.468	2227.06
876.645	2159.25
876.821	2207.3
876.998	2182.5
877.174	2184.24
877.351	2178.62
877.527	2139.87
877.704	2176.3
877.88	2159.44
878.057	2186.76
878.233	2186.76
878.409	2136.39
878.586	2152.08
878.762	2151.69
878.938	2155.18
879.115	2055.01
879.291	2134.64
879.467	2075.94
879.644	2077.87
879.82	2120.11
879.996	2085.62
880.172	2060.63
880.349	2061.41
880.525	2070.32
880.701	2042.03
880.877	2039.51
881.053	2057.53
881.229	2037.96
881.405	2088.34
881.581	2034.28
881.757	2054.82
881.933	2062.37
882.109	2037.96
882.285	2071.48
882.461	2014.52
882.637	2080.78
882.813	2023.43
882.989	2065.67
883.165	2067.41
883.341	2014.52
883.517	2087.17
883.693	2036.61
883.869	2102.67
884.044	2026.53
884.22	2050.17
884.396	2106.36
884.572	2020.14
884.747	2071.87
884.923	2053.85
885.099	2051.33
885.275	2053.46
885.45	2020.53
885.626	2006.77
885.801	1982.94
885.977	1992.43
886.153	1972.09
886.328	2044.74
886.504	1973.06
886.679	2041.45
886.855	2006.58
887.03	2016.07
887.206	2014.33
887.381	2017.62
887.557	2029.24
887.732	2050.56
887.908	1998.24
888.083	2085.24
888.258	2028.08
888.434	1985.07
888.609	2010.84
888.784	2055.98
888.96	2018.01
889.135	2000.96
889.31	2025.56
889.485	2033.7
889.661	1982.55
889.836	2047.84
890.011	2050.56
890.186	1983.52
890.361	1961.24
890.537	2029.44
890.712	2021.49
890.887	2008.51
891.062	2015.49
891.237	2101.32
891.412	1998.83
891.587	2004.44
891.762	2011.23
891.937	2019.17
892.112	1997.28
892.287	1968.21
892.462	1951.94
892.637	1926.75
892.812	1890.71
892.987	1871.92
893.161	1830.46
893.336	1824.26
893.511	1882
893.686	1868.05
893.861	1840.53
894.035	1837.43
894.21	1828.91
894.385	1781.25
894.56	1777.18
894.734	1724.48
894.909	1648.14
895.084	1649.31
895.258	1611.33
895.433	1580.91
895.608	1589.83
895.782	1514.26
895.957	1506.13
896.131	1516.39
896.306	1411.58
896.48	1395.5
896.655	1410.61
896.829	1304.63
897.004	1334.47
897.178	1338.73
897.353	1335.82
897.527	1357.13
897.701	1348.61
897.876	1290.49
898.05	1373.8
898.224	1349
898.399	1368.57
898.573	1264.72
898.747	1154.28
898.921	1163.78
899.096	1050.63
899.27	1068.65
899.444	1080.66
899.618	1149.63
899.792	1203.3
899.967	1187.22
900.141	1243.21
900.315	1144.59
900.489	1153.7
900.663	1144.4
900.837	1132.19
901.011	1103.52
901.185	1158.54
901.359	1116.69
901.533	1151.96
901.707	1163.39
901.881	1150.99
902.055	1085.89
902.229	1127.16
902.403	1196.13
902.576	1136.46
902.75	1170.56
902.924	1290.68
903.098	1250.19
903.272	1343.38
903.446	1380.58
903.619	1422.43
903.793	1440.45
903.967	1435.99
904.14	1499.15
904.314	1467.38
904.488	1469.51
904.661	1491.98
904.835	1460.79
905.009	1524.73
905.182	1538.09
905.356	1471.45
905.529	1490.63
905.703	1460.79
905.876	1421.65
906.05	1336.79
906.223	1358.49
906.397	1264.72
906.57	1182.37
906.744	1161.84
906.917	1185.28
907.09	1148.66
907.264	1117.28
907.437	1088.79
907.61	1069.81
907.784	1045.59
907.957	1104.1
908.13	1040.75
908.304	1066.71
908.477	1015.56
908.65	1012.65
908.823	967.51
908.996	1080.85
909.17	984.56
909.343	1004.51
909.516	980.68
909.689	993.47
909.862	964.6
910.035	994.05
910.208	947.17
910.381	921.4
910.554	1057.02
910.727	1011.1
910.9	972.35
911.073	1015.75
911.246	1072.71
911.419	1082.21
911.592	1066.51
911.765	997.35
911.938	990.18
912.11	999.67
912.283	1002.77
912.456	1067.48
912.629	989.4
912.802	958.21
912.974	849.71
913.147	841.19
913.32	770.66
913.493	829.37
913.665	835.57
913.838	851.65
914.01	892.72
914.183	899.7
914.356	921.4
914.528	969.25
914.701	993.47
914.873	919.46
915.046	851.45
915.218	766.01
915.391	740.63
915.563	713.31
915.736	787.32
915.908	855.91
916.081	864.63
916.253	890.4
916.425	866.37
916.598	886.33
916.77	864.63
916.942	807.09
917.115	735.59
917.287	797.01
917.459	752.06
917.632	711.18
917.804	735.79
917.976	803.21
918.148	816.19
918.32	841.57
918.493	899.5
918.665	916.55
918.837	899.12
919.009	968.09
919.181	975.26
919.353	934.96
919.525	919.65
919.697	940.77
919.869	951.62
920.041	1034.35
920.213	1083.18
920.385	1035.13
920.557	976.81
920.729	993.66
920.901	985.14
921.073	926.05
921.244	916.17
921.416	949.88
921.588	968.09
921.76	935.15
921.932	990.95
922.103	944.84
922.275	975.65
922.447	959.18
922.619	888.85
922.79	931.67
922.962	873.35
923.134	925.27
923.305	840.6
923.477	822.39
923.648	820.45
923.82	823.55
923.991	776.86
924.163	765.62
924.335	816
924.506	806.51
924.677	811.54
924.849	791.39
925.02	832.08
925.192	829.75
925.363	810.57
925.535	798.37
925.706	754.97
925.877	837.89
926.049	772.6
926.22	784.81
926.391	807.09
926.562	833.82
926.734	810.19
926.905	815.8
927.076	732.88
927.247	745.09
927.419	667.98
927.59	661.97
927.761	655.96
927.932	630
928.103	630.78
928.274	568.39
928.445	565.68
928.616	575.36
928.787	552.31
928.958	553.86
929.129	555.6
929.3	506.97
929.471	454.66
929.642	417.27
929.813	359.53
929.984	434.9
930.155	356.82
930.326	405.06
930.496	368.06
930.667	317.68
930.838	330.08
931.009	269.83
931.18	293.66
931.35	279.13
931.521	298.89
931.692	191.94
931.863	165.01
932.033	199.69
932.204	214.8
932.374	211.7
932.545	182.45
932.716	218.48
932.886	184.96
933.057	142.73
933.227	116.76
933.398	192.71
933.568	106.88
933.739	68.33
933.909	84.6
934.08	147.57
934.25	61.16
934.421	82.67
934.591	118.12
934.761	91.38
934.932	96.62
935.102	135.56
935.272	107.85
935.443	108.43
935.613	92.93
935.783	115.6
935.953	48.18
936.123	220.03
936.294	86.35
936.464	92.93
936.634	105.53
936.804	84.41
936.974	56.12
937.144	110.57
937.314	89.06
937.484	88.87
937.655	71.43
937.825	119.09
937.995	72.78
938.165	172.18
938.334	107.85
938.504	145.44
938.674	125.68
938.844	152.41
939.014	227.01
939.184	227.39
939.354	286.1
939.524	264.4
939.694	173.15
939.863	195.81
940.033	259.17
940.203	243.67
940.373	216.54
940.542	222.16
940.712	154.74
940.882	219.06
941.051	211.31
941.221	198.72
941.391	269.83
941.56	219.26
941.73	151.06
941.899	279.13
942.069	165.98
942.238	207.24
942.408	171.4
942.577	196.59
942.747	154.55
942.916	138.27
943.086	148.15
943.255	228.94
943.425	181.48
943.594	149.31
943.763	71.62
943.933	130.71
944.102	60.77
944.271	148.73
944.441	182.83
944.61	127.03
944.779	157.45
944.948	219.26
945.117	108.24
945.287	127.81
945.456	86.93
945.625	102.43
945.794	154.55
945.963	117.54
946.132	169.08
946.301	99.72
946.47	158.61
946.639	102.23
946.808	141.18
946.977	159.39
947.146	198.33
947.315	129.94
947.484	163.26
947.653	135.75
947.822	153.77
947.991	85.38
948.16	195.23
948.329	186.13
948.498	158.42
948.666	165.59
948.835	195.23
949.004	141.76
949.173	121.22
949.341	136.53
949.51	118.7
949.679	157.45
949.847	157.84
950.016	192.52
950.185	195.04
950.353	123.93
950.522	159
950.69	211.7
950.859	156.29
951.028	187.29
951.196	163.65
951.365	124.32
951.533	159.97
951.701	162.1
951.87	132.46
952.038	114.25
952.207	144.47
952.375	183.61
952.543	111.53
952.712	139.24
952.88	106.88
953.048	208.79
953.217	184
953.385	139.82
953.553	211.7
953.721	115.41
953.89	149.7
954.058	108.43
954.226	101.85
954.394	186.13
954.562	87.12
954.73	139.63
954.898	111.73
955.067	190.2
955.235	151.45
955.403	162.88
955.571	195.43
955.739	165.59
955.907	142.92
956.075	128.39
956.243	113.28
956.41	158.03
956.578	111.34
956.746	112.89
956.914	143.7
957.082	186.13
957.25	172.37
957.418	136.53
957.585	156.48
957.753	213.06
957.921	127.61
958.089	168.3
958.256	154.74
958.424	178.57
958.592	184.19
958.759	118.31
958.927	177.41
959.095	130.33
959.262	130.91
959.43	173.92
959.597	132.85
959.765	146.21
959.932	120.64
960.1	195.04
960.267	155.13
960.435	160.16
960.602	197.36
960.77	136.14
960.937	158.42
961.104	177.8
961.272	101.46
961.439	147.38
961.606	177.6
961.774	151.45
961.941	143.31
962.108	162.68
962.275	172.95
962.443	199.3
962.61	188.84
962.777	221
962.944	213.44
963.111	190.78
963.278	212.67
963.446	197.95
963.613	168.88
963.78	188.65
963.947	208.99
964.114	186.9
964.281	272.54
964.448	192.33
964.615	170.43
964.782	194.46
964.949	220.03
965.116	213.83
965.282	232.04
965.449	202.01
965.616	137.11
965.783	207.24
965.95	204.92
966.117	135.17
966.283	164.23
966.45	205.5
966.617	209.18
966.784	229.53
966.95	238.63
967.117	250.06
967.284	187.1
967.45	220.23
967.617	272.34
967.784	229.33
967.95	279.32
968.117	225.26
968.283	261.11
968.45	333.18
968.616	244.83
968.783	275.25
968.949	272.15
969.116	282.03
969.282	255.88
969.449	277.96
969.615	255.68
969.781	200.08
969.948	240.38
970.114	189.03
970.28	326.4
970.447	247.93
970.613	313.03
970.779	246.38
970.945	290.17
971.112	280.48
971.278	264.21
971.444	264.4
971.61	284.74
971.776	230.49
971.942	277.19
972.108	274.09
972.275	237.08
972.441	263.04
972.607	289.78
972.773	222.16
972.939	241.54
973.105	234.95
973.271	186.51
973.437	223.71
973.602	211.31
973.768	241.15
973.934	221.39
974.1	234.37
974.266	155.9
974.432	226.23
974.598	211.31
974.763	222.94
974.929	193.49
975.095	247.54
975.261	188.06
975.426	141.95
975.592	210.15
975.758	255.68
975.923	139.63
976.089	174.7
976.255	221.97
976.42	204.53
976.586	228.56
976.751	228.94
976.917	265.95
977.082	244.64
977.248	160.16
977.413	173.73
977.579	211.31
977.744	251.03
977.91	169.46
978.075	166.17
978.24	244.83
978.406	181.09
978.571	178.57
978.736	193.3
978.902	184.96
979.067	185.35
979.232	144.86
979.397	192.91
979.563	243.09
979.728	190.58
979.893	205.89
980.058	189.03
980.223	241.15
980.388	202.01
980.554	213.83
980.719	187.48
980.884	218.09
981.049	224.88
981.214	175.28
981.379	218.48
981.544	195.81
981.709	194.46
981.874	194.65
982.039	174.89
982.204	211.31
982.368	200.08
982.533	182.25
982.698	242.12
982.863	232.63
983.028	169.27
983.193	207.05
983.357	198.14
983.522	211.51
983.687	224.29
983.852	204.53
984.016	196.98
984.181	250.06
984.346	228.56
984.51	200.66
984.675	223.13
984.839	208.02
985.004	229.91
985.168	240.38
985.333	215.38
985.498	178.57
985.662	247.74
985.827	238.63
985.991	192.33
986.155	191.55
986.32	244.06
986.484	263.63
986.649	208.79
986.813	171.6
986.977	213.64
987.142	217.51
987.306	149.9
987.47	176.63
987.634	204.92
987.799	213.44
987.963	206.66
988.127	231.27
988.291	261.49
988.455	191.16
988.62	203.76
988.784	206.08
988.948	222.94
989.112	189.03
989.276	207.05
989.44	196.2
989.604	185.93
989.768	216.74
989.932	257.81
990.096	165.2
990.26	182.83
990.424	142.34
990.588	182.64
990.752	250.64
990.915	220.61
991.079	182.83
991.243	184.77
991.407	215.58
991.571	174.31
991.734	211.31
991.898	207.83
992.062	264.01
992.226	179.15
992.389	172.18
992.553	152.41
992.717	165.2
992.88	173.92
993.044	184.58
993.207	186.51
993.371	200.85
993.535	211.31
993.698	186.71
993.862	223.91
994.025	245.03
994.189	189.61
994.352	193.1
994.515	181.09
994.679	194.46
994.842	182.64
995.006	184.96
995.169	136.53
995.332	166.17
995.496	208.6
995.659	139.82
995.822	176.05
995.985	171.79
996.149	219.45
996.312	161.71
996.475	211.89
996.638	165.2
996.801	220.23
996.964	209.18
997.128	148.93
997.291	148.35
997.454	159.97
997.617	116.38
997.78	202.98
997.943	126.65
998.106	195.43
998.269	127.03
998.432	141.56
998.595	171.01
998.758	101.85
998.92	137.5
999.083	105.53
999.246	160.36
999.409	115.8
999.572	83.83
999.735	148.35
999.897	167.14
1000.06	125.48
1000.223	126.45
1000.386	174.11
1000.548	150.86
1000.711	135.36
1000.874	159.97
1001.036	98.94
1001.199	184.58
1001.361	119.09
1001.524	150.86
1001.687	171.79
1001.849	126.45
1002.012	134.78
1002.174	148.93
1002.337	167.91
1002.499	145.63
1002.661	170.63
1002.824	98.94
1002.986	104.37
1003.149	129.16
1003.311	116.76
1003.473	185.55
1003.636	102.62
1003.798	159.58
1003.96	138.46
1004.123	134.4
1004.285	130.71
1004.447	127.03
1004.609	133.04
1004.771	160.55
1004.933	95.26
1005.096	106.69
1005.258	89.25
1005.42	88.09
1005.582	149.12
1005.744	127.61
1005.906	105.92
1006.068	127.23
1006.23	84.22
1006.392	60.19
1006.554	90.61
1006.716	158.23
1006.878	133.43
1007.04	72.4
1007.202	121.22
1007.363	117.35
1007.525	125.1
1007.687	105.92
1007.849	145.63
1008.011	71.62
1008.172	76.66
1008.334	83.83
1008.496	113.28
1008.658	60.19
1008.819	88.09
1008.981	65.42
1009.143	67.36
1009.304	118.31
1009.466	111.34
1009.627	153.38
1009.789	168.69
1009.95	108.24
1010.112	59.61
1010.273	131.1
1010.435	73.75
1010.596	85.38
1010.758	97.97
1010.919	73.95
1011.081	79.57
1011.242	104.95
1011.403	89.64
1011.565	99.72
1011.726	123.55
1011.887	60.38
1012.049	79.37
1012.21	118.12
1012.371	144.28
1012.532	27.45
1012.693	84.8
1012.855	75.69
1013.016	77.43
1013.177	107.08
1013.338	76.08
1013.499	157.84
1013.66	94.68
1013.821	114.44
1013.982	114.44
1014.143	97.2
1014.304	83.63
1014.465	110.76
1014.626	106.69
1014.787	67.55
1014.948	159.58
1015.109	21.83
1015.27	120.64
1015.431	58.83
1015.592	39.46
1015.752	121.41
1015.913	89.83
1016.074	90.8
1016.235	85.38
1016.395	52.44
1016.556	83.44
1016.717	86.73
1016.877	105.14
1017.038	57.28
1017.199	93.52
1017.359	75.69
1017.52	64.45
1017.681	50.7
1017.841	95.65
1018.002	64.26
1018.162	55.35
1018.323	134.01
1018.483	71.82
1018.644	64.84
1018.804	33.45
1018.964	65.62
1019.125	68.91
1019.285	80.73
1019.446	26.48
1019.606	49.15
1019.766	0.13
1019.926	73.56
1020.087	76.08
1020.247	11.95
1020.407	107.08
1020.567	101.85
1020.728	81.7
1020.888	10.59
1021.048	53.41
1021.208	34.03
1021.368	33.65
1021.528	97.58
1021.688	110.57
1021.848	75.3
1022.008	70.85
1022.168	72.4
1022.328	64.26
1022.488	60.19
1022.648	23.57
1022.808	65.62
1022.968	62.13
1023.128	50.12
1023.288	45.47
1023.448	56.9
1023.608	78.21
1023.767	68.52
1023.927	42.95
1024.087	27.06
1024.247	26.48
1024.406	37.72
1024.566	10.59
1024.726	23.77
1024.885	44.5
1025.045	86.15
1025.205	51.86
1025.364	46.43
1025.524	45.08
1025.683	51.47
1025.843	58.83
1026.003	28.61
1026.162	93.52
1026.321	58.06
1026.481	40.43
1026.64	34.81
1026.8	52.44
1026.959	31.71
1027.119	20.47
1027.278	34.42
1027.437	53.6
1027.597	68.72
1027.756	62.32
1027.915	70.07
1028.074	60
1028.234	21.44
1028.393	68.91
1028.552	30.74
1028.711	-7.43
1028.87	81.89
1029.03	-2.2
1029.189	32.68
1029.348	-18.08
1029.507	17.76
1029.666	35.97
1029.825	2.84
1029.984	15.05
1030.143	73.17
1030.302	20.09
1030.461	8.46
1030.62	41.59
1030.779	70.85
1030.938	35.58
1031.097	3.42
1031.255	53.6
1031.414	89.83
1031.573	69.3
1031.732	-25.25
1031.891	29.19
1032.049	81.7
1032.208	40.23
1032.367	30.55
1032.525	18.73
1032.684	31.71
1032.843	53.22
1033.001	-10.14
1033.16	162.68
1033.319	77.63
1033.477	47.02
1033.636	8.65
1033.794	15.44
1033.953	71.04
1034.111	54.96
1034.27	18.34
1034.428	41.2
1034.587	16.99
1034.745	22.8
1034.903	30.35
1035.062	48.18
1035.22	5.36
1035.378	35.2
1035.537	-16.15
1035.695	60.19
1035.853	30.55
1036.011	52.63
1036.17	47.02
1036.328	3.04
1036.486	47.6
1036.644	34.62
1036.802	-47.92
1036.96	21.64
1037.119	32.1
1037.277	-11.69
1037.435	5.94
1037.593	-0.06
1037.751	34.42
1037.909	40.82
1038.067	40.82
