Data from calibration4_FLMT105791__5__17-36-39-048.txt Node

Date: Mon Mar 20 17:36:39 GMT 2023
User: antho
Spectrometer: FLMT10579
Trigger mode: 0
Integration Time (sec): 1.000000E-1
Scans to average: 10
Electric dark correction enabled: true
Nonlinearity correction enabled: false
Boxcar width: 0
XAxis mode: Wavelengths
Number of Pixels in Spectrum: 3648
>>>>>Begin Spectral Data<<<<<
345.248	-138.45
345.464	-138.45
345.681	-138.45
345.898	-156.66
346.114	-128.95
346.331	-40.99
346.548	22.17
346.764	-6.89
346.981	1.44
347.197	-14.06
347.414	22.17
347.631	-39.44
347.847	37.47
348.064	3.37
348.28	35.54
348.497	-8.64
348.713	-12.13
348.93	19.46
349.146	75.45
349.363	91.34
349.579	108.39
349.796	108.19
350.012	105.67
350.229	128.34
350.445	129.7
350.661	86.49
350.878	127.76
351.094	133.19
351.311	113.42
351.527	128.73
351.743	87.46
351.96	160.31
352.176	149.65
352.392	156.43
352.609	147.72
352.825	110.71
353.041	139.77
353.257	136.09
353.474	138.8
353.69	145.58
353.906	137.25
354.122	130.28
354.339	187.05
354.555	149.85
354.771	158.18
354.987	210.3
355.203	187.82
355.42	145.97
355.636	154.5
355.852	154.69
356.068	151.4
356.284	120.79
356.5	228.7
356.716	177.17
356.932	158.57
357.148	187.24
357.364	160.31
357.58	176.2
357.796	215.14
358.012	191.89
358.228	192.47
358.444	111.29
358.66	190.73
358.876	189.18
359.092	139.97
359.308	177.75
359.524	214.75
359.74	197.7
359.956	191.5
360.172	234.71
360.388	260.86
360.604	208.75
360.819	284.11
361.035	215.53
361.251	240.71
361.467	196.73
361.683	236.26
361.898	197.32
362.114	239.75
362.33	217.27
362.546	275.98
362.762	240.91
362.977	251.56
363.193	223.67
363.409	282.95
363.624	231.61
363.84	236.84
364.056	242.46
364.271	316.66
364.487	283.73
364.703	259.9
364.918	280.43
365.134	266.68
365.35	298.26
365.565	392.42
365.781	318.21
365.996	338.56
366.212	391.26
366.427	373.82
366.643	326.35
366.858	347.66
367.074	308.14
367.289	388.74
367.505	440.27
367.72	337.01
367.936	334.88
368.151	388.54
368.367	365.29
368.582	349.99
368.798	338.56
369.013	401.72
369.228	354.25
369.444	365.49
369.659	399.78
369.874	393.39
370.09	439.89
370.305	358.13
370.52	378.66
370.736	454.61
370.951	372.08
371.166	408.69
371.381	422.26
371.597	440.47
371.812	395.52
372.027	389.9
372.242	394.16
372.458	455.97
372.673	381.38
372.888	363.74
373.103	380.21
373.318	445.7
373.533	377.11
373.749	381.76
373.964	287.21
374.179	385.44
374.394	290.31
374.609	401.91
374.824	325.19
375.039	415.28
375.254	330.61
375.469	396.88
375.684	403.07
375.899	433.49
376.114	447.83
376.329	468.37
376.544	433.69
376.759	431.17
376.974	414.12
377.189	436.79
377.404	464.3
377.619	540.44
377.834	483.09
378.049	498.79
378.264	533.47
378.478	578.22
378.693	559.62
378.908	574.54
379.123	553.04
379.338	573.19
379.553	513.7
379.767	508.67
379.982	526.69
380.197	511.96
380.412	505.57
380.626	562.53
380.841	655.14
381.056	635.38
381.271	625.3
381.485	580.93
381.7	542.57
381.915	566.99
382.129	513.32
382.344	501.5
382.559	478.83
382.773	494.91
382.988	419.35
383.202	436.59
383.417	388.74
383.632	506.15
383.846	439.89
384.061	429.81
384.275	435.24
384.49	486.58
384.704	541.8
384.919	610.97
385.133	600.7
385.348	657.85
385.562	590.82
385.777	651.46
385.991	606.51
386.206	583.45
386.42	595.08
386.634	653.98
386.849	681.1
387.063	681.68
387.277	603.99
387.492	645.45
387.706	638.28
387.92	647.97
388.135	694.86
388.349	706.87
388.563	690.4
388.778	697.96
388.992	718.11
389.206	701.25
389.42	808.39
389.635	787.66
389.849	860.51
390.063	916.31
390.277	885.89
390.491	949.44
390.706	894.22
390.92	917.28
391.134	906.24
391.348	932.2
391.562	957.97
391.776	1017.45
391.99	982.77
392.205	993.62
392.419	925.03
392.633	894.61
392.847	848.89
393.061	759.18
393.275	760.15
393.489	604.96
393.703	504.21
393.917	560.79
394.131	544.9
394.345	679.94
394.559	809.17
394.773	848.11
394.986	982.19
395.2	1017.83
395.414	1138.15
395.628	1103.28
395.842	1204.22
396.056	1139.7
396.27	1045.93
396.484	1045.15
396.697	902.36
396.911	788.63
397.125	701.64
397.339	676.45
397.553	727.21
397.766	896.74
397.98	1034.3
398.194	1176.32
398.408	1269.9
398.621	1412.3
398.835	1455.9
399.049	1488.64
399.262	1569.43
399.476	1617.68
399.69	1628.72
399.903	1683.55
400.117	1616.9
400.331	1708.35
400.544	1639.96
400.758	1800.38
400.971	1725.98
401.185	1758.34
401.398	1720.36
401.612	1829.05
401.826	1874.97
402.039	1889.12
402.253	1891.63
402.466	1957.51
402.68	1938.13
402.893	1977.85
403.106	1891.83
403.32	1903.65
403.533	1901.71
403.747	1867.22
403.96	1950.15
404.174	1996.65
404.387	1971.46
404.6	1976.5
404.814	1999.55
405.027	1948.6
405.24	1943.56
405.454	1971.85
405.667	2056.32
405.88	2025.71
406.094	2075.69
406.307	2078.6
406.52	1960.8
406.733	1929.61
406.947	1966.03
407.16	2030.16
407.373	2066.78
407.586	2082.28
407.799	2062.91
408.012	2089.06
408.226	2131.88
408.439	2244.64
408.652	2207.25
408.865	2337.45
409.078	2399.06
409.291	2339.77
409.504	2359.34
409.717	2414.95
409.93	2325.82
410.143	2191.94
410.357	2090.61
410.57	2053.8
410.783	2109.6
410.996	2167.14
411.209	2270.6
411.421	2473.46
411.634	2492.64
411.847	2519.57
412.06	2557.54
412.273	2605.98
412.486	2576.34
412.699	2637.56
412.912	2605.98
413.125	2585.44
413.338	2555.22
413.55	2564.33
413.763	2549.99
413.976	2593.19
414.189	2557.35
414.402	2603.27
414.615	2737.73
414.827	2614.89
415.04	2644.34
415.253	2657.13
415.466	2727.07
415.678	2751.87
415.891	2700.72
416.104	2673.02
416.316	2719.9
416.529	2804.18
416.742	2913.26
416.954	2869.28
417.167	2832.08
417.38	2748.39
417.592	2764.85
417.805	2715.84
418.017	2686.39
418.23	2745.29
418.442	2698.79
418.655	2792.75
418.868	2735.4
419.08	2783.65
419.293	2901.64
419.505	2911.52
419.718	2852.81
419.93	2930.7
420.142	2843.32
420.355	2873.93
420.567	2830.92
420.78	2925.08
420.992	2921.6
421.205	3080.66
421.417	3124.45
421.629	3148.67
421.842	3104.69
422.054	3148.67
422.266	3175.79
422.479	3128.71
422.691	2983.4
422.903	3011.49
423.115	2857.85
423.328	2901.45
423.54	3019.24
423.752	2979.14
423.964	3117.09
424.177	3114.95
424.389	3124.64
424.601	3272.86
424.813	3239.53
425.025	3205.63
425.238	3224.23
425.45	3191.49
425.662	3175.6
425.874	3414.88
426.086	3177.34
426.298	3248.06
426.51	3258.91
426.722	3224.23
426.934	3301.92
427.146	3277.9
427.358	3243.6
427.57	3223.26
427.782	3117.86
427.994	3136.27
428.206	3208.92
428.418	3338.73
428.63	3437.74
428.842	3441.81
429.054	3311.8
429.266	3274.41
429.478	3238.18
429.69	3140.34
429.902	3101.39
430.114	3086.09
430.325	2889.82
430.537	2731.14
430.749	2675.54
430.961	2566.46
431.173	2629.42
431.384	2746.64
431.596	2789.27
431.808	3213.96
432.02	3586.34
432.231	3842.86
432.443	3989.72
432.655	3827.36
432.867	3787.45
433.078	3798.3
433.29	3866.5
433.502	4031.57
433.713	4090.67
433.925	4134.45
434.136	3960.08
434.348	3703.95
434.56	3705.88
434.771	3867.08
434.983	3766.72
435.194	4065.48
435.406	4190.64
435.617	4235.98
435.829	4372.76
436.04	4322.78
436.252	4316.38
436.463	4559.92
436.675	4630.25
436.886	4730.61
437.098	4736.43
437.309	4786.41
437.521	4631.41
437.732	4565.93
437.943	4472.15
438.155	4482.62
438.366	4376.25
438.578	4462.27
438.789	4218.54
439	4260.58
439.211	4272.98
439.423	4328.01
439.634	4540.35
439.845	4711.24
440.057	4669.78
440.268	4836.01
440.479	4843.37
440.69	4810.44
440.902	4707.56
441.113	4695.35
441.324	4907.12
441.535	5001.08
441.746	5160.93
441.957	5145.23
442.168	5246.37
442.38	5242.88
442.591	5336.27
442.802	5204.91
443.013	5377.92
443.224	5453.48
443.435	5381.8
443.646	5344.21
443.857	5280.27
444.068	5370.95
444.279	5312.63
444.49	5611.78
444.701	5497.46
444.912	5697.8
445.123	5697.02
445.334	5488.16
445.545	5618.56
445.756	5391.68
445.967	5330.26
446.178	5284.92
446.388	5255.47
446.599	5332.2
446.81	5440.12
447.021	5444.57
447.232	5555.98
447.443	5705.94
447.653	5856.48
447.864	5940.95
448.075	5929.33
448.286	5883.41
448.496	5849.7
448.707	5909.76
448.918	5817.34
449.129	5868.88
449.339	5896
449.55	6014.77
449.761	5981.45
449.971	5943.47
450.182	6072.7
450.393	6182.94
450.603	6108.35
450.814	6401.49
451.024	6364.1
451.235	6583.22
451.446	6603.57
451.656	6503.79
451.867	6479.57
452.077	6277.1
452.288	6433.26
452.498	6306.75
452.709	6334.65
452.919	6059.14
453.13	5998.3
453.34	5971.95
453.55	5770.07
453.761	6069.6
453.971	6035.89
454.182	6192.05
454.392	6242.04
454.602	6511.34
454.813	6541.57
455.023	6347.24
455.233	6223.82
455.444	6385.8
455.654	6129.66
455.864	6336.58
456.075	6431.52
456.285	6483.83
456.495	6521.42
456.705	6534.59
456.916	6737.06
457.126	6809.52
457.336	6716.33
457.546	6593.11
457.756	6735.9
457.967	6863
458.177	6620.81
458.387	6655.3
458.597	6516.19
458.807	6740.55
459.017	6533.24
459.227	6563.07
459.437	6581.67
459.647	6768.25
459.857	6759.92
460.068	6877.72
460.278	6838
460.488	6814.17
460.698	6886.24
460.908	6957.16
461.117	7107.12
461.327	7124.94
461.537	7306.87
461.747	7245.65
461.957	7233.05
462.167	7434.74
462.377	7365.96
462.587	7310.74
462.797	7523.48
463.007	7393.09
463.216	7569.01
463.426	7754.23
463.636	7531.04
463.846	7368.68
464.056	7346.2
464.265	7310.36
464.475	7330.31
464.685	7592.26
464.895	7454.7
465.104	7334.58
465.314	7518.64
465.524	7447.92
465.733	7415.17
465.943	7718.2
466.153	7835.41
466.362	7853.62
466.572	7830.96
466.782	7641.47
466.991	7797.83
467.201	7708.31
467.41	7574.82
467.62	7821.27
467.829	7836.96
468.039	8053.96
468.249	7960.77
468.458	8171.56
468.668	8099.49
468.877	8182.99
469.086	8278.51
469.296	8495.12
469.505	8539.49
469.715	8431.57
469.924	8400.19
470.134	8480.98
470.343	8286.26
470.552	8306.02
470.762	8307.19
470.971	8477.49
471.18	8518.37
471.39	8608.85
471.599	8526.51
471.808	8675.89
472.018	8925.24
472.227	9083.92
472.436	9507.26
472.645	9350.9
472.855	9296.85
473.064	9588.82
473.273	9637.65
473.482	9305.95
473.691	9527.79
473.901	9447.97
474.11	9325.13
474.319	9626.22
474.528	9608.78
474.737	10073
474.946	10004.03
475.155	10094.31
475.364	10193.32
475.573	10029.79
475.783	10298.52
475.992	10274.69
476.201	10199.9
476.41	10332.04
476.619	10155.73
476.828	10155.73
477.037	10142.17
477.245	10244.47
477.454	10431.24
477.663	10689.31
477.872	10961.14
478.081	11163.21
478.29	11024.49
478.499	11198.48
478.708	11404.62
478.917	11387.77
479.125	11114.58
479.334	11238.58
479.543	11507.12
479.752	11727.21
479.961	11632.86
480.169	11933.55
480.378	12066.66
480.587	12333.64
480.796	12229.02
481.004	12262.92
481.213	12377.04
481.422	12473.14
481.63	12725.01
481.839	12793.99
482.048	12962.93
482.256	12907.52
482.465	13257.62
482.674	13185.35
482.882	13208.22
483.091	13246
483.299	13055.16
483.508	13518.79
483.716	13620.7
483.925	13554.44
484.134	13252.78
484.342	13523.25
484.551	13490.51
484.759	13435.87
484.967	14009.17
485.176	13793.91
485.384	13857.85
485.593	13687.35
485.801	13486.05
486.01	12926.12
486.218	12374.52
486.426	11933.75
486.635	11616.78
486.843	11779.91
487.051	12212.16
487.26	12475.08
487.468	12779.26
487.676	13117.54
487.885	13609.66
488.093	13918.69
488.301	14394.72
488.509	14304.63
488.717	14597.97
488.926	14612.3
489.134	14397.05
489.342	14517.75
489.55	14417.97
489.758	14678.37
489.967	15236.36
490.175	15117.98
490.383	15661.25
490.591	15963.11
490.799	15766.46
491.007	15762.58
491.215	15837.75
491.423	15601.58
491.631	15601.19
491.839	15473.51
492.047	15480.48
492.255	15096.67
492.463	15214.28
492.671	15048.62
492.879	15415.39
493.087	15686.05
493.295	15795.9
493.503	15986.75
493.711	16385.09
493.919	16284.15
494.127	16249.47
494.334	16241.52
494.542	16259.15
494.75	16722.6
494.958	16557.53
495.166	16989.58
495.374	17094.2
495.581	17113.97
495.789	17139.93
495.997	17183.33
496.205	16557.53
496.412	16816.57
496.62	17271.29
496.828	17005.66
497.035	17239.71
497.243	17246.1
497.451	17334.06
497.658	17366.23
497.866	17229.83
498.074	17460.39
498.281	17075.02
498.489	17174.22
498.696	16860.74
498.904	16685.79
499.112	16787.7
499.319	17184.3
499.527	17291.83
499.734	17522.58
499.942	17359.44
500.149	17320.31
500.357	17351.7
500.564	17016.9
500.771	17037.82
500.979	16748.56
501.186	16672.03
501.394	16992.29
501.601	16490.68
501.808	16550.74
502.016	16678.04
502.223	16624.56
502.43	16737.13
502.638	16713.88
502.845	17098.47
503.052	17260.44
503.26	17195.73
503.467	17391.03
503.674	17419.31
503.881	17341.62
504.089	17196.7
504.296	17070.96
504.503	16930.88
504.71	16851.63
504.917	17193.98
505.125	17332.71
505.332	17478.41
505.539	17567.72
505.746	18031.36
505.953	18236.93
506.16	18301.64
506.367	18270.06
506.574	18615.31
506.781	18477.95
506.988	18289.43
507.195	18210.96
507.402	18267.73
507.609	18183.45
507.816	17986.22
508.023	17891.47
508.23	17798.48
508.437	17558.04
508.644	17729.31
508.851	17936.81
509.058	18363.83
509.265	18364.02
509.472	18552.73
509.679	18653.68
509.885	18658.13
510.092	18538.01
510.299	18495.58
510.506	18274.9
510.713	18313.46
510.92	18377.78
511.126	18503.52
511.333	18663.36
511.54	18780
511.746	18848
511.953	19037.1
512.16	19176.6
512.367	18998.16
512.573	18817.2
512.78	18743.38
512.987	18666.08
513.193	18397.35
513.4	18310.74
513.606	18530.65
513.813	18517.28
514.02	18351.24
514.226	18272.38
514.433	18366.93
514.639	18220.85
514.846	18218.52
515.052	18292.92
515.259	18354.34
515.465	18428.93
515.672	18493.64
515.878	18517.28
516.085	18838.12
516.291	18797.82
516.497	18582.57
516.704	18017.99
516.91	17464.26
517.117	16828.77
517.323	16368.23
517.529	16378.7
517.736	16297.13
517.942	16575.35
518.148	16975.63
518.354	17036.86
518.561	17035.31
518.767	16893.87
518.973	17111.45
519.179	17511.54
519.386	17713.61
519.592	17707.8
519.798	17688.23
520.004	18439
520.21	18428.93
520.417	18589.16
520.623	18654.84
520.829	18767.99
521.035	18842.97
521.241	18644.57
521.447	18892.57
521.653	19081.08
521.859	18978.59
522.065	19066.55
522.271	19222.13
522.477	19186.68
522.683	19357.95
522.889	18908.65
523.095	18637.4
523.301	18846.26
523.507	18708.12
523.713	18783.1
523.919	18761.21
524.125	19294.59
524.331	19533.68
524.537	19713.47
524.742	19816.93
524.948	19837.47
525.154	19891.72
525.36	19765.79
525.566	19541.43
525.772	19765.59
525.977	19640.04
526.183	19350.59
526.389	19486.01
526.595	18799.76
526.8	18627.33
527.006	18022.84
527.212	17671.77
527.417	17617.9
527.623	17739.38
527.829	18009.85
528.034	18486.86
528.24	18589.35
528.446	19000.29
528.651	19354.46
528.857	19408.13
529.062	19575.33
529.268	19861.11
529.473	20000.22
529.679	20210.63
529.884	20141.66
530.09	19949.85
530.295	19574.17
530.501	19873.7
530.706	19921.75
530.912	20164.71
531.117	20088.37
531.323	20134.49
531.528	20419.88
531.733	20394.3
531.939	20298.2
532.144	20127.9
532.35	20088.76
532.555	19948.1
532.76	19537.36
532.966	19353.1
533.171	19128.74
533.376	19132.23
533.581	19165.17
533.787	19437
533.992	19706.89
534.197	19386.23
534.402	19751.45
534.607	19901.02
534.813	19777.6
535.018	19771.79
535.223	20237.95
535.428	20057.96
535.633	20295.1
535.838	20549.69
536.043	20800.59
536.249	20882.74
536.454	20496.79
536.659	20661.48
536.864	20491.76
537.069	20240.27
537.274	20093.99
537.479	20068.22
537.684	20008.94
537.889	20060.09
538.094	20452.81
538.299	20278.25
538.504	20600.45
538.708	20376.67
538.913	20833.14
539.118	20672.14
539.323	20494.66
539.528	20317.38
539.733	20139.52
539.938	20203.85
540.142	20104.65
540.347	19871.77
540.552	19756.29
540.757	19489.7
540.962	19771.02
541.166	19592.58
541.371	19558.09
541.576	19511.2
541.781	19804.34
541.985	20221.87
542.19	19887.07
542.395	20570.42
542.599	20496.41
542.804	20162.58
543.008	20431.69
543.213	20359.62
543.418	20053.69
543.622	20421.81
543.827	20051.95
544.031	20343.54
544.236	20447.19
544.44	20733.17
544.645	20762.03
544.849	20625.25
545.054	20750.8
545.258	20908.89
545.463	20872.86
545.667	20499.89
545.872	20897.46
546.076	20716.89
546.281	20677.37
546.485	20613.24
546.689	20686.86
546.894	20669.42
547.098	20850.19
547.302	20767.07
547.507	20689.18
547.711	20811.25
547.915	20664
548.119	20284.06
548.324	20403.21
548.528	20517.91
548.732	20454.56
548.936	20805.43
549.141	20691.9
549.345	20799.04
549.549	20802.14
549.753	21010.03
549.957	20934.08
550.161	20963.72
550.366	20988.14
550.57	20887.39
550.774	20869.37
550.978	20938.15
551.182	20817.25
551.386	20688.6
551.59	20819.96
551.794	20790.32
551.998	20899.21
552.202	20978.06
552.406	20908.12
552.61	21188.47
552.814	20997.24
553.018	20923.62
553.222	20645.4
553.426	20714.76
553.63	20921.29
553.833	20922.46
554.037	20662.64
554.241	20707.4
554.445	20995.11
554.649	20962.37
554.853	20827.33
555.056	21087.72
555.26	21240.4
555.464	20957.33
555.668	21111.94
555.871	21016.04
556.075	21123.57
556.279	20877.7
556.483	20766.88
556.686	20674.07
556.89	20692.67
557.094	20630.09
557.297	20255.38
557.501	20379.96
557.704	20107.36
557.908	20364.08
558.112	20293.55
558.315	20506.67
558.519	20357.3
558.722	19984.33
558.926	20071.32
559.129	19531.16
559.333	19941.13
559.536	19784.77
559.74	19629.58
559.943	19543.56
560.147	19709.02
560.35	19502.29
560.553	19994.79
560.757	19882.23
560.96	19989.37
561.164	20107.56
561.367	20339.08
561.57	20250.15
561.774	19960.89
561.977	19926.98
562.18	19928.15
562.384	20047.3
562.587	19974.26
562.79	20165.1
562.993	19879.13
563.197	19882.03
563.4	20075.2
563.603	20146.31
563.806	20175.56
564.009	20155.41
564.212	20126.54
564.416	19835.53
564.619	19861.3
564.822	19859.37
565.025	19990.34
565.228	19853.75
565.431	19934.35
565.634	19670.07
565.837	19604.2
566.04	19368.6
566.243	19244.41
566.446	19197.52
566.649	19466.25
566.852	19322.1
567.055	19446.88
567.258	19376.16
567.461	19585.21
567.664	19710.37
567.867	19621.25
568.07	19352.52
568.273	19544.33
568.475	19610.4
568.678	19100.84
568.881	19156.84
569.084	18954.37
569.287	18723.62
569.489	18919.3
569.692	19010.75
569.895	19032.06
570.098	18811.58
570.3	18858.27
570.503	18781.55
570.706	18768.18
570.909	18578.7
571.111	18346.78
571.314	18281.1
571.516	18365.57
571.719	18447.34
571.922	18300.28
572.124	18534.72
572.327	18673.63
572.529	18604.66
572.732	18826.69
572.935	18816.04
573.137	19136.69
573.34	18766.44
573.542	19091.93
573.745	18942.55
573.947	18999.71
574.15	18839.87
574.352	18921.82
574.554	18982.27
574.757	18756.94
574.959	18574.05
575.162	18783.49
575.364	18392.7
575.566	18566.88
575.769	18327.79
575.971	18453.34
576.173	18067.98
576.376	18295.05
576.578	18493.45
576.78	18454.5
576.982	18350.85
577.185	18470.59
577.387	18432.22
577.589	18625
577.791	18508.95
577.993	18468.84
578.196	18504.1
578.398	18215.81
578.6	18121.07
578.802	18089.68
579.004	18065.07
579.206	18188.3
579.408	18377.2
579.61	18237.12
579.812	18582.76
580.014	18341.94
580.216	18446.75
580.418	18683.71
580.62	18702.31
580.822	18825.14
581.024	18798.41
581.226	18831.73
581.428	18927.25
581.63	19181.83
581.832	18975.1
582.034	19145.6
582.236	19119.44
582.438	19342.84
582.64	19301.95
582.841	19450.17
583.043	19688.87
583.245	19383.13
583.447	19560.8
583.649	19609.04
583.85	19556.15
584.052	19536.39
584.254	19384.88
584.456	19515.08
584.657	19443.39
584.859	19735.75
585.061	19372.48
585.262	19529.22
585.464	19255.46
585.666	19365.89
585.867	19178.15
586.069	19221.16
586.27	19012.88
586.472	19028.58
586.674	19055.9
586.875	19090.77
587.077	19162.26
587.278	19123.9
587.48	19138.82
587.681	19251.77
587.883	19174.66
588.084	18923.76
588.285	18807.32
588.487	18421.57
588.688	18422.54
588.89	17821.34
589.091	17382.69
589.292	16965.94
589.494	16569.73
589.695	16443.99
589.896	16195.99
590.098	16327.16
590.299	16403.88
590.5	16638.51
590.702	17081.22
590.903	17211.03
591.104	17466.97
591.305	17651.62
591.507	17743.45
591.708	17607.25
591.909	17738.03
592.11	17641.54
592.311	17885.27
592.512	17642.32
592.714	17688.04
592.915	17895.93
593.116	17742.48
593.317	18047.05
593.518	18034.85
593.719	18149.16
593.92	18109.25
594.121	18050.54
594.322	17971.69
594.523	17909.69
594.724	17693.27
594.925	17733.38
595.126	17530.72
595.327	17596.98
595.528	17788.4
595.729	17682.62
595.929	17830.25
596.13	17934.1
596.331	18259.21
596.532	18064.3
596.733	18365.96
596.934	18224.33
597.135	18309.97
597.335	18203.6
597.536	18172.21
597.737	18138.5
597.938	18024.19
598.138	18127.65
598.339	18166.01
598.54	18288.46
598.74	18001.91
598.941	18045.7
599.142	18324.69
599.342	18222.01
599.543	18114.67
599.744	18270.64
599.944	18223.17
600.145	18339.03
600.345	18250.68
600.546	18239.06
600.746	18255.33
600.947	18514.95
601.147	18017.6
601.348	18370.03
601.548	18227.82
601.749	18163.5
601.949	17964.13
602.15	18050.15
602.35	17848.46
602.551	18063.52
602.751	18092.2
602.951	18177.45
603.152	18170.28
603.352	18284.2
603.552	18212.51
603.753	18430.87
603.953	18526.58
604.153	18448.5
604.354	18524.64
604.554	18474.27
604.754	18572.11
604.954	18481.63
605.155	18611.05
605.355	18495.19
605.555	18489.57
605.755	18533.55
605.955	18451.79
606.155	18481.05
606.356	18445.79
606.556	18403.16
606.756	18493.25
606.956	18466.71
607.156	18558.55
607.356	18412.65
607.556	18419.44
607.756	18381.85
607.956	18522.12
608.156	18445.01
608.356	18160.2
608.556	18460.7
608.756	18235.18
608.956	18371.97
609.156	18207.28
609.356	18190.62
609.556	18118.93
609.755	18252.04
609.955	18064.49
610.155	18037.56
610.355	18206.9
610.555	17959.29
610.755	17784.33
610.954	17902.91
611.154	18123.78
611.354	18072.05
611.554	17880.24
611.753	18108.08
611.953	18040.27
612.153	18113.12
612.352	18032.33
612.552	17749.65
612.752	17839.16
612.951	18111.77
613.151	17774.65
613.351	17962.97
613.55	17924.8
613.75	17877.52
613.949	17552.8
614.149	17666.15
614.348	17634.37
614.548	17588.07
614.747	17679.32
614.947	17812.23
615.146	17592.52
615.346	17879.27
615.545	17828.89
615.745	17748.3
615.944	17677.38
616.144	17675.83
616.343	17281.56
616.542	17417.18
616.742	17217.04
616.941	17206.77
617.14	17042.09
617.34	17319.53
617.539	17334.06
617.738	17381.73
617.938	17545.25
618.137	17445.66
618.336	17564.62
618.535	17697.53
618.734	17683.2
618.934	17569.08
619.133	17707.03
619.332	17796.54
619.531	17441.01
619.73	17734.93
619.929	17597.75
620.128	17727.56
620.328	17759.34
620.527	17612.09
620.726	17703.73
620.925	17683.58
621.124	17839.94
621.323	17655.49
621.522	17383.47
621.721	17660.33
621.92	17359.25
622.119	17582.84
622.318	17382.89
622.517	17356.73
622.715	17299.77
622.914	17278.85
623.113	17382.69
623.312	16989.97
623.511	17217.04
623.71	17055.07
623.909	16828.38
624.107	17182.36
624.306	16923.9
624.505	16888.83
624.704	16863.45
624.902	16621.66
625.101	16808.62
625.3	16596.66
625.499	16632.12
625.697	16698.96
625.896	16485.45
626.095	16426.16
626.293	16374.24
626.492	16562.56
626.69	16506.18
626.889	16868.3
627.088	16665.25
627.286	16695.09
627.485	16357.77
627.683	16182.43
627.882	15906.53
628.08	15689.54
628.279	15471.96
628.477	15548.88
628.676	15413.25
628.874	15636.26
629.073	15477
629.271	15638.97
629.469	15705.62
629.668	15631.41
629.866	15470.02
630.065	15552.56
630.263	15618.04
630.461	15557.4
630.66	15659.12
630.858	15657.18
631.056	15876.7
631.254	15900.92
631.453	15737.01
631.651	15870.88
631.849	15760.45
632.047	15697.48
632.245	15720.73
632.444	15853.84
632.642	16042.54
632.84	16238.81
633.038	16050.49
633.236	15919.52
633.434	16117.33
633.632	16180.49
633.83	16002.05
634.028	16339.75
634.227	16114.43
634.425	16404.27
634.623	16183.59
634.821	16337.82
635.019	16354.67
635.216	16477.51
635.414	16487.19
635.612	16317.47
635.81	16282.99
636.008	16421.32
636.206	16426.55
636.404	16225.25
636.602	16411.05
636.8	16200.06
636.997	16366.49
637.195	16432.56
637.393	16440.11
637.591	16521.1
637.789	16543.96
637.986	16632.7
638.184	16576.32
638.382	16788.28
638.58	16641.61
638.777	16865.78
638.975	16674.74
639.173	16733.06
639.37	16540.67
639.568	16604.02
639.765	16573.41
639.963	16524.78
640.161	16281.82
640.358	16582.52
640.556	16352.54
640.753	16441.86
640.951	16319.99
641.148	16340.92
641.346	16323.48
641.543	16223.5
641.741	16276.2
641.938	16139.22
642.136	16341.3
642.333	16178.36
642.531	16471.5
642.728	16319.22
642.925	16476.73
643.123	16363.2
643.32	16350.8
643.517	16258.96
643.715	16215.56
643.912	16425.39
644.109	16221.37
644.306	16351.18
644.504	16293.64
644.701	16362.62
644.898	16387.03
645.095	16239.2
645.293	16159.57
645.49	16110.16
645.687	16112.29
645.884	16162.09
646.081	15793.19
646.278	15877.47
646.475	15658.73
646.672	15725.19
646.87	15507.8
647.067	15519.62
647.264	15442.12
647.461	15384.58
647.658	15127.67
647.855	15250.31
648.052	15130.58
648.249	15106.36
648.446	15109.26
648.642	15278.21
648.839	14886.46
649.036	15045.52
649.233	14961.44
649.43	14963.37
649.627	14615.21
649.824	14879.29
650.021	14751.8
650.217	15021.5
650.414	15113.91
650.611	15116.63
650.808	15353.77
651.004	15437.67
651.201	15377.8
651.398	15444.06
651.595	15216.79
651.791	15072.84
651.988	15193.16
652.185	14811.28
652.381	15228.42
652.578	15079.04
652.775	15189.09
652.971	15367.72
653.168	15238.49
653.364	15518.26
653.561	15301.66
653.757	15424.49
653.954	15594.21
654.15	15146.85
654.347	15314.25
654.543	15394.65
654.74	15124.18
654.936	15058.31
655.133	15021.5
655.329	15036.22
655.525	14684.18
655.722	14679.53
655.918	14312.19
656.115	13746.06
656.311	13533.13
656.507	13086.35
656.704	12913.14
656.9	13085.19
657.096	13387.24
657.292	13309.16
657.489	13688.13
657.685	13847.39
657.881	13957.44
658.077	14123.09
658.273	14435.8
658.47	14618.5
658.666	14551.47
658.862	14906.6
659.058	14883.94
659.254	14997.08
659.45	15125.54
659.646	14888.39
659.842	15064.12
660.038	15228.03
660.234	15019.56
660.43	15142.2
660.626	15269.49
660.822	15267.94
661.018	15286.54
661.214	15373.92
661.41	15221.44
661.606	15379.35
661.802	15565.73
661.998	15405.89
662.194	15379.74
662.39	15419.45
662.586	15448.13
662.781	15394.46
662.977	15598.09
663.173	15300.69
663.369	15357.65
663.564	15299.91
663.76	15365.01
663.956	15383.8
664.152	15141.81
664.347	15116.05
664.543	15254.77
664.739	15190.06
664.934	15082.53
665.13	15228.23
665.326	15200.52
665.521	15264.07
665.717	15136
665.912	15244.69
666.108	15005.8
666.304	15291
666.499	15084.85
666.695	14878.51
666.89	15156.15
667.086	15111.59
667.281	15041.84
667.477	15277.63
667.672	15098.03
667.867	14982.36
668.063	15047.27
668.258	14936.64
668.454	15097.64
668.649	14975.39
668.844	15137.16
669.04	15190.06
669.235	14962.21
669.43	15058.31
669.626	14906.6
669.821	14923.85
670.016	14952.72
670.211	15040.29
670.407	14767.69
670.602	14983.33
670.797	14762.65
670.992	15058.7
671.187	14836.86
671.382	14945.35
671.578	14656.09
671.773	14725.06
671.968	14579.56
672.163	14697.16
672.358	14692.13
672.553	14583.24
672.748	14735.14
672.943	14741.73
673.138	14680.11
673.333	14756.06
673.528	14518.34
673.723	14713.44
673.918	14597.97
674.113	14537.32
674.308	14754.13
674.503	14618.31
674.698	14598.93
674.892	14381.55
675.087	14539.45
675.282	14536.94
675.477	14522.21
675.672	14656.86
675.867	14415.26
676.061	14567.74
676.256	14380
676.451	14516.01
676.646	14482.69
676.84	14404.61
677.035	14250.19
677.23	14403.25
677.424	14379.23
677.619	14395.11
677.814	14500.32
678.008	14358.69
678.203	14287.39
678.397	14207.95
678.592	14211.44
678.787	14406.54
678.981	14282.35
679.176	14219.77
679.37	14185.67
679.565	14245.54
679.759	14243.21
679.954	14179.28
680.148	14155.25
680.342	14271.31
680.537	14065.16
680.731	13994.06
680.926	14224.03
681.12	14029.9
681.314	14109.14
681.509	14018.47
681.703	14013.62
681.897	13945.62
682.092	13945.04
682.286	13978.17
682.48	13933.99
682.674	13890.01
682.869	13839.45
683.063	14057.41
683.257	13888.27
683.451	13752.45
683.645	13863.86
683.839	13756.91
684.034	13664.1
684.228	13593.19
684.422	13405.84
684.616	13616.83
684.81	13523.06
685.004	13499.23
685.198	13538.75
685.392	13428.7
685.586	13541.85
685.78	13350.23
685.974	13426.76
686.168	13373.29
686.362	13156.49
686.556	12351.27
686.75	11915.15
686.944	11129.7
687.138	10166.39
687.331	9626.8
687.525	9207.92
687.719	9093.99
687.913	9155.22
688.107	9418.13
688.301	9451.07
688.494	9514.04
688.688	9482.46
688.882	9323.2
689.076	9390.62
689.269	9401.86
689.463	9567.51
689.657	9590.76
689.85	9634.36
690.044	9836.82
690.238	9880.41
690.431	9993.95
690.625	10045.87
690.818	10362.65
691.012	10379.89
691.205	10611.04
691.399	10673.42
691.593	10676.52
691.786	10831.91
691.98	11102.38
692.173	11102.96
692.366	11135.7
692.56	11231.41
692.753	11075.06
692.947	11073.9
693.14	11046.77
693.333	11137.64
693.527	11087.07
693.72	11104.7
693.914	10974.12
694.107	10867.36
694.3	10916.57
694.493	10689.31
694.687	11031.27
694.88	10823.38
695.073	10971.41
695.266	10959.97
695.46	11010.15
695.653	11051.42
695.846	11037.67
696.039	11133.18
696.232	11090.17
696.425	11406.17
696.618	11457.52
696.812	11673.74
697.005	11709.78
697.198	11868.45
697.391	11744.46
697.584	11918.83
697.777	11940.72
697.97	11776.23
698.163	11812.46
698.356	11693.5
698.549	11890.15
698.742	11755.11
698.935	11585.78
699.127	11510.8
699.32	11353.67
699.513	11373.04
699.706	11181.62
699.899	11399.2
700.092	11182.59
700.285	11144.23
700.477	10980.9
700.67	11023.91
700.863	11000.27
701.056	11048.32
701.248	11097.73
701.441	11056.27
701.634	10907.86
701.826	10941.57
702.019	10778.82
702.212	10912.7
702.404	10837.33
702.597	10748.01
702.79	10816.99
702.982	10807.69
703.175	10943.31
703.367	10938.27
703.56	11041.74
703.752	11085.13
703.945	11097.73
704.137	11083
704.33	11212.04
704.522	11240.71
704.715	11195.76
704.907	11255.44
705.1	11310.08
705.292	11212.23
705.484	11153.14
705.677	11237.23
705.869	11269
706.061	11260.67
706.254	11271.91
706.446	11079.52
706.638	11118.07
706.831	11193.83
707.023	11149.85
707.215	11287.6
707.407	11360.26
707.599	11173.1
707.792	11284.31
707.984	11263.77
708.176	11260.09
708.368	11246.53
708.56	11255.83
708.752	11210.68
708.944	11125.82
709.136	11219.98
709.329	11146.36
709.521	11291.86
709.713	11135.51
709.905	11238.58
710.097	11273.65
710.289	11131.44
710.481	11164.38
710.672	11068.47
710.864	11154.11
711.056	11175.61
711.248	11091.92
711.44	11094.63
711.632	11127.57
711.824	11200.22
712.016	11024.88
712.207	11099.47
712.399	11037.28
712.591	11024.88
712.783	11137.64
712.975	10987.29
713.166	10941.18
713.358	10965.98
713.55	10985.16
713.741	10898.17
713.933	10940.21
714.125	10855.35
714.316	10684.85
714.508	10816.02
714.7	10621.11
714.891	10625.76
715.083	10567.64
715.274	10470.18
715.466	10651.72
715.657	10523.07
715.849	10320.61
716.04	10309.95
716.232	10128.8
716.423	9885.65
716.615	9625.64
716.806	9244.54
716.998	8998.67
717.189	8700.11
717.381	8439.32
717.572	8213.8
717.763	8044.66
717.955	7850.72
718.146	7584.32
718.337	7537.24
718.528	7320.43
718.72	7052.67
718.911	7003.07
719.102	6868.23
719.293	6916.08
719.485	6814.36
719.676	6654.14
719.867	6645.61
720.058	6590.2
720.249	6565.4
720.44	6567.92
720.632	6817.46
720.823	6896.32
721.014	7202.83
721.205	7400.84
721.396	7685.45
721.587	7912.72
721.778	7998.16
721.969	8170.98
722.16	8356.01
722.351	8537.16
722.542	8589.09
722.733	8581.73
722.924	8451.33
723.115	8449.2
723.305	8145.21
723.496	8181.83
723.687	7813.13
723.878	7812.16
724.069	7722.46
724.26	7708.7
724.45	7507.01
724.641	7449.86
724.832	7403.36
725.023	7309.39
725.213	7323.53
725.404	7188.68
725.595	7081.74
725.785	7167.57
725.976	7253.01
726.167	7173.38
726.357	7215.23
726.548	7332.25
726.739	7204.38
726.929	7374.29
727.12	7306.87
727.31	7344.26
727.501	7136.76
727.691	7045.7
727.882	7182.48
728.072	7229.37
728.263	7200.7
728.453	7325.08
728.644	7342.52
728.834	7247.58
729.024	7131.14
729.215	7162.14
729.405	7151.29
729.596	7253.59
729.786	7266.18
729.976	7309.19
730.167	7287.3
730.357	7232.47
730.547	7249.71
730.737	7273.93
730.928	7248.16
731.118	7377.78
731.308	7238.67
731.498	7267.54
731.688	7397.74
731.879	7501.59
732.069	7550.22
732.259	7667.43
732.449	7764.69
732.639	7878.62
732.829	7880.56
733.019	8006.1
733.209	8157.81
733.399	8201.59
733.589	8356.98
733.779	8390.11
733.969	8486.02
734.159	8643.73
734.349	8558.28
734.539	8649.34
734.729	8712.31
734.919	8609.63
735.109	8754.16
735.299	8529.41
735.488	8601.68
735.678	8535.81
735.868	8544.91
736.058	8467.03
736.248	8522.44
736.437	8471.1
736.627	8389.72
736.817	8531.74
737.007	8433.12
737.196	8548.21
737.386	8575.14
737.576	8485.63
737.765	8611.56
737.955	8466.64
738.144	8727.62
738.334	8582.7
738.524	8488.92
738.713	8561.96
738.903	8504.81
739.092	8591.03
739.282	8548.01
739.471	8600.91
739.661	8533.68
739.85	8658.84
740.04	8645.08
740.229	8621.25
740.419	8629.39
740.608	8667.75
740.797	8613.5
740.987	8706.31
741.176	8601.68
741.365	8618.34
741.555	8496.67
741.744	8747.57
741.933	8647.99
742.123	8668.33
742.312	8653.8
742.501	8693.71
742.69	8677.05
742.88	8637.14
743.069	8779.54
743.258	8790.97
743.447	8745.83
743.636	8721.03
743.825	8731.49
744.014	8751.26
744.204	8760.56
744.393	8681.12
744.582	8847.35
744.771	8771.99
744.96	8765.21
745.149	8657.68
745.338	8680.93
745.527	8772.37
745.716	8688.87
745.905	8617.76
746.094	8797.17
746.283	8745.83
746.471	8688.48
746.66	8712.12
746.849	8699.53
747.038	8685.77
747.227	8637.14
747.416	8672.59
747.604	8587.54
747.793	8598.58
747.982	8580.95
748.171	8695.84
748.359	8540.07
748.548	8604.78
748.737	8571.07
748.926	8529.03
749.114	8386.62
749.303	8478.27
749.491	8461.02
749.68	8374.8
749.869	8479.04
750.057	8462.57
750.246	8366.47
750.434	8333.15
750.623	8360.47
750.811	8243.44
751	8377.9
751.188	8290.14
751.377	8254.29
751.565	8233.76
751.754	8258.94
751.942	8147.73
752.131	8252.36
752.319	8197.33
752.507	8164.2
752.696	8168.66
752.884	8235.11
753.072	8136.11
753.261	8226.2
753.449	8122.16
753.637	8073.72
753.825	8180.28
754.014	8137.08
754.202	8166.14
754.39	8161.68
754.578	8115.18
754.766	8039.62
754.955	7997.77
755.143	8107.82
755.331	8019.08
755.519	8046.79
755.707	8006.88
755.895	7988.09
756.083	7975.88
756.271	7844.91
756.459	7968.9
756.647	7899.74
756.835	7896.06
757.023	7837.35
757.211	7823.79
757.399	7762.18
757.587	7794.73
757.775	7749.97
757.963	7725.75
758.151	7733.89
758.339	7647.09
758.526	7612.02
758.714	7576.95
758.902	7371.19
759.09	7065.27
759.278	6613.45
759.465	6050.42
759.653	5330.26
759.841	4680.43
760.028	4154.8
760.216	3549.53
760.404	3201.56
760.591	2705.37
760.779	2290.75
760.967	1967.78
761.154	1669.21
761.342	1684.13
761.529	1648.68
761.717	1762.02
761.905	1791.66
762.092	1884.47
762.28	1755.04
762.467	1694.4
762.655	1654.1
762.842	1667.47
763.029	1655.84
763.217	1665.92
763.404	1674.64
763.592	1735.09
763.779	1687.81
763.966	1745.16
764.154	1830.99
764.341	1907.91
764.528	1979.21
764.716	2127.62
764.903	2224.11
765.09	2395.18
765.277	2520.73
765.465	2813.87
765.652	2941.74
765.839	3119.6
766.026	3414.1
766.213	3537.32
766.4	3768.46
766.588	4047.46
766.775	4241.79
766.962	4467.89
767.149	4667.65
767.336	4937.73
767.523	5035.38
767.71	5273.3
767.897	5472.08
768.084	5673.77
768.271	5718.92
768.458	5881.47
768.645	6005.47
768.832	6034.34
769.019	6156.21
769.206	6185.46
769.392	6352.86
769.579	6429.78
769.766	6388.9
769.953	6452.44
770.14	6541.37
770.327	6546.41
770.513	6622.55
770.7	6741.52
770.887	6625.46
771.073	6629.34
771.26	6727.57
771.447	6645.22
771.634	6615.97
771.82	6748.68
772.007	6664.99
772.193	6733.38
772.38	6741.71
772.567	6706.64
772.753	6637.47
772.94	6765.35
773.126	6740.16
773.313	6773.29
773.499	6718.85
773.686	6790.53
773.872	6618.49
774.059	6719.23
774.245	6689.79
774.432	6660.14
774.618	6516.19
774.804	6633.4
774.991	6595.62
775.177	6570.63
775.363	6586.71
775.55	6660.34
775.736	6559.78
775.922	6593.49
776.109	6558.81
776.295	6535.56
776.481	6622.36
776.667	6624.49
776.853	6510.96
777.04	6461.94
777.226	6533.04
777.412	6567.92
777.598	6403.81
777.784	6530.91
777.97	6398.58
778.156	6420.86
778.342	6458.06
778.528	6376.11
778.715	6380.95
778.901	6380.76
779.087	6344.72
779.272	6345.88
779.458	6315.27
779.644	6346.46
779.83	6339.49
780.016	6385.8
780.202	6284.08
780.388	6311.78
780.574	6162.99
780.76	6258.31
780.946	6273.81
781.131	6260.05
781.317	6184.88
781.503	6175.58
781.689	6155.04
781.874	6367.97
782.06	6110.48
782.246	6237.58
782.432	6171.7
782.617	6150.01
782.803	6139.16
782.989	6058.36
783.174	6014.77
783.36	5999.08
783.545	6077.54
783.731	5985.9
783.916	5889.8
784.102	6005.86
784.288	5917.9
784.473	5986.68
784.659	5871.01
784.844	5938.24
785.029	5902.4
785.215	5832.45
785.4	5819.67
785.586	5913.83
785.771	5823.73
785.956	5894.07
786.142	5766.39
786.327	5803.2
786.512	5797.97
786.698	5786.15
786.883	5682.69
787.068	5729.77
787.254	5690.05
787.439	5680.56
787.624	5620.49
787.809	5637.93
787.994	5557.14
788.18	5708.26
788.365	5567.02
788.55	5520.33
788.735	5585.43
788.92	5505.8
789.105	5495.33
789.29	5488.75
789.475	5323.87
789.66	5354.67
789.845	5386.83
790.03	5367.27
790.215	5338.79
790.4	5383.54
790.585	5374.63
790.77	5319.22
790.955	5314.57
791.14	5313.02
791.325	5382.38
791.51	5224.47
791.695	5326.58
791.879	5300.42
792.064	5227.57
792.249	5380.64
792.434	5297.13
792.618	5281.24
792.803	5391.29
792.988	5291.71
793.173	5319.8
793.357	5366.69
793.542	5260.12
793.727	5333.17
793.911	5372.3
794.096	5351.77
794.281	5437.02
794.465	5446.12
794.65	5332.39
794.834	5449.61
795.019	5418.8
795.203	5446.7
795.388	5427.33
795.572	5484.48
795.757	5419.58
795.941	5430.23
796.126	5351.77
796.31	5291.9
796.494	5303.14
796.679	5308.95
796.863	5315.15
797.048	5449.8
797.232	5319.8
797.416	5408.15
797.601	5410.47
797.785	5451.55
797.969	5493.4
798.153	5384.9
798.338	5510.64
798.522	5545.71
798.706	5552.1
798.89	5503.08
799.074	5632.12
799.258	5574.58
799.443	5510.45
799.627	5460.07
799.811	5504.44
799.995	5431.4
800.179	5363.97
800.363	5369.79
800.547	5425.78
800.731	5479.06
800.915	5361.07
801.099	5339.95
801.283	5363
801.467	5387.42
801.651	5350.02
801.835	5395.55
802.019	5369.59
802.202	5361.84
802.386	5328.32
802.57	5255.67
802.754	5341.89
802.938	5272.14
803.121	5331.23
803.305	5395.55
803.489	5343.24
803.673	5359.52
803.856	5353.7
804.04	5325.03
804.224	5355.64
804.407	5323.29
804.591	5300.42
804.775	5355.64
804.958	5310.5
805.142	5470.92
805.326	5358.94
805.509	5373.47
805.693	5422.68
805.876	5418.8
806.06	5446.7
806.243	5454.65
806.427	5455.03
806.61	5485.06
806.794	5413.57
806.977	5498.63
807.16	5430.04
807.344	5498.05
807.527	5404.27
807.71	5433.53
807.894	5419.58
808.077	5428.88
808.26	5305.27
808.444	5308.95
808.627	5377.92
808.81	5304.1
808.993	5226.22
809.177	5221.57
809.36	5188.44
809.543	5177.2
809.726	5089.24
809.909	5105.51
810.092	5064.63
810.276	5041.58
810.459	5000.5
810.642	5008.45
810.825	4930.56
811.008	4949.35
811.191	4823.61
811.374	4790.29
811.557	4800.94
811.74	4801.52
811.923	4767.23
812.106	4688.18
812.289	4647.3
812.472	4657.96
812.654	4552.17
812.837	4563.6
813.02	4416.94
813.203	4381.29
813.386	4210.79
813.569	4180.18
813.751	4039.13
813.934	4092.8
814.117	3975.19
814.3	3936.64
814.482	3859.91
814.665	3768.85
814.848	3697.75
815.03	3618.12
815.213	3598.35
815.396	3566.58
815.578	3496.44
815.761	3434.83
815.943	3486.17
816.126	3343.77
816.309	3326.33
816.491	3158.16
816.674	3117.47
816.856	3201.17
817.039	3243.02
817.221	3298.05
817.403	3227.72
817.586	3268.6
817.768	3217.45
817.951	3119.6
818.133	3096.55
818.315	3172.3
818.498	3236.43
818.68	3265.3
818.862	3254.45
819.045	3319.36
819.227	3306.57
819.409	3230.82
819.591	3280.61
819.774	3319.36
819.956	3232.37
820.138	3387.94
820.32	3378.26
820.502	3544.69
820.684	3642.14
820.866	3663.45
821.048	3770.01
821.231	3763.43
821.413	3788.42
821.595	3711.12
821.777	3818.45
821.959	3758.78
822.141	3797.14
822.323	3589.64
822.505	3430.38
822.686	3306.76
822.868	3123.29
823.05	2945.81
823.232	2858.05
823.414	2786.94
823.596	2891.18
823.778	2923.73
823.96	2950.85
824.141	3010.14
824.323	3071.75
824.505	3199.23
824.687	3257.75
824.868	3457.31
825.05	3504.39
825.232	3604.55
825.413	3675.27
825.595	3642.92
825.777	3585.57
825.958	3648.53
826.14	3612.3
826.321	3681.08
826.503	3651.25
826.685	3704.72
826.866	3730.3
827.048	3692.32
827.229	3539.84
827.411	3527.44
827.592	3434.44
827.773	3391.24
827.955	3286.42
828.136	3331.76
828.318	3284.1
828.499	3315.1
828.68	3232.56
828.862	3260.46
829.043	3268.02
829.224	3182.96
829.406	3197.1
829.587	3183.15
829.768	3241.86
829.949	3244.96
830.131	3298.05
830.312	3317.61
830.493	3326.33
830.674	3298.24
830.855	3278.28
831.036	3250.77
831.218	3352.88
831.399	3383.1
831.58	3312.58
831.761	3268.4
831.942	3263.95
832.123	3273.25
832.304	3159.13
832.485	3266.66
832.666	3302.7
832.847	3302.7
833.028	3263.75
833.209	3270.15
833.389	3283.13
833.57	3200.78
833.751	3190.32
833.932	3276.15
834.113	3280.03
834.294	3258.33
834.475	3343
834.655	3348.23
834.836	3362.95
835.017	3366.63
835.198	3341.06
835.378	3343.96
835.559	3417.98
835.74	3384.46
835.92	3367.6
836.101	3359.85
836.281	3441.42
836.462	3406.54
836.643	3406.93
836.823	3453.24
837.004	3447.81
837.184	3449.17
837.365	3477.26
837.545	3486.95
837.726	3392.59
837.906	3513.88
838.087	3414.88
838.267	3437.74
838.448	3412.55
838.628	3439.87
838.808	3441.03
838.989	3475.91
839.169	3417.98
839.349	3489.86
839.53	3512.14
839.71	3536.36
839.89	3413.91
840.07	3497.22
840.251	3469.71
840.431	3466.8
840.611	3425.34
840.791	3397.83
840.971	3417.59
841.151	3430.96
841.332	3410.81
841.512	3454.98
841.692	3384.84
841.872	3446.26
842.052	3391.43
842.232	3424.18
842.412	3375.74
842.592	3431.93
842.772	3402.09
842.952	3455.95
843.132	3400.15
843.312	3377.87
843.492	3372.64
843.672	3438.13
843.851	3310.45
844.031	3336.99
844.211	3337.96
844.391	3352.88
844.571	3385.04
844.751	3378.84
844.93	3322.46
845.11	3337.38
845.29	3370.7
845.47	3375.35
845.649	3364.7
845.829	3377.68
846.009	3349.2
846.188	3376.13
846.368	3429.02
846.547	3321.49
846.727	3371.67
846.907	3281
847.086	3325.95
847.266	3379.61
847.445	3291.46
847.625	3275.96
847.804	3231.01
847.984	3302.7
848.163	3223.45
848.343	3210.28
848.522	3295.33
848.701	3254.84
848.881	3237.4
849.06	3270.15
849.239	3221.32
849.419	3183.93
849.598	3147.5
849.777	3067.1
849.957	3024.67
850.136	2989.41
850.315	2942.52
850.494	2920.05
850.674	3020.41
850.853	3031.06
851.032	2991.73
851.211	3019.63
851.39	3025.25
851.569	2953.56
851.748	2952.59
851.927	3060.51
852.107	2979.72
852.286	3009.17
852.465	2998.9
852.644	3086.09
852.823	2981.46
853.002	3002.78
853.181	2984.76
853.359	2979.91
853.538	2912.68
853.717	2972.55
853.896	2817.94
854.075	2724.94
854.254	2612.76
854.433	2495.93
854.611	2590.48
854.79	2500.39
854.969	2586.99
855.148	2609.86
855.327	2626.13
855.505	2666.24
855.684	2707.12
855.863	2696.27
856.041	2697.62
856.22	2822.59
856.399	2827.24
856.577	2891.37
856.756	2900.67
856.934	2959.76
857.113	2928.96
857.291	2895.05
857.47	2862.31
857.648	2863.47
857.827	2889.24
858.005	2958.02
858.184	2828.6
858.362	2943.88
858.541	2853.2
858.719	2855.91
858.898	2853.98
859.076	2832.28
859.254	2921.21
859.433	2823.56
859.611	2838.09
859.789	2726.49
859.967	2874.13
860.146	2843.13
860.324	2745.09
860.502	2808.64
860.68	2746.84
860.859	2782.68
861.037	2755.55
861.215	2772.41
861.393	2768.53
861.571	2736.57
861.749	2734.63
861.927	2784.62
862.105	2752.45
862.283	2707.5
862.461	2699.17
862.639	2713.51
862.817	2721.07
862.995	2731.92
863.173	2707.31
863.351	2695.69
863.529	2681.54
863.707	2722.42
863.885	2717.77
864.063	2658.29
864.241	2624.19
864.418	2739.67
864.596	2690.26
864.774	2644.73
864.952	2643.57
865.129	2640.08
865.307	2625.94
865.485	2538.56
865.663	2580.21
865.84	2504.26
866.018	2466.1
866.196	2333.96
866.373	2310.52
866.551	2255.49
866.728	2170.44
866.906	2301.6
867.084	2341.32
867.261	2365.93
867.439	2338.22
867.616	2406.03
867.794	2388.98
867.971	2450.6
868.149	2467.06
868.326	2479.46
868.503	2438.39
868.681	2427.35
868.858	2431.61
869.035	2432.58
869.213	2437.23
869.39	2455.25
869.567	2526.74
869.745	2420.76
869.922	2491.67
870.099	2439.94
870.276	2469.2
870.454	2473.26
870.631	2452.15
870.808	2440.13
870.985	2478.3
871.162	2462.8
871.339	2491.48
871.517	2402.93
871.694	2405.45
871.871	2437.81
872.048	2362.44
872.225	2380.27
872.402	2402.74
872.579	2323.69
872.756	2401.58
872.933	2318.85
873.11	2369.8
873.287	2334.73
873.463	2328.53
873.64	2329.89
873.817	2345.58
873.994	2302.19
874.171	2225.07
874.348	2315.17
874.524	2277.97
874.701	2290.56
874.878	2199.89
875.055	2267.89
875.231	2289.2
875.408	2290.75
875.585	2189.04
875.762	2234.57
875.938	2238.05
876.115	2225.46
876.291	2179.16
876.468	2216.16
876.645	2177.02
876.821	2174.89
876.998	2196.4
877.174	2210.54
877.351	2162.3
877.527	2105.73
877.704	2223.91
877.88	2193.3
878.057	2143.89
878.233	2207.83
878.409	2141.57
878.586	2151.45
878.762	2110.57
878.938	2158.04
879.115	2055.55
879.291	2175.28
879.467	2045.08
879.644	2086.35
879.82	2129.75
879.996	2120.84
880.172	2038.3
880.349	2106.69
880.525	2057.68
880.701	2018.54
880.877	2051.86
881.053	2072.21
881.229	2039.66
881.405	2088.68
881.581	2045.47
881.757	2065.43
881.933	2071.82
882.109	2064.07
882.285	2045.47
882.461	2021.83
882.637	2052.25
882.813	1991.22
882.989	2023
883.165	2098.75
883.341	2040.05
883.517	2099.72
883.693	2102.43
883.869	2057.87
884.044	2006.53
884.22	2070.66
884.396	2089.45
884.572	2058.06
884.747	2076.08
884.923	2055.16
885.099	2063.68
885.275	2083.64
885.45	2024.35
885.626	2008.66
885.801	2007.5
885.977	2025.13
886.153	1969.13
886.328	2015.83
886.504	1984.25
886.679	1983.28
886.855	1968.94
887.03	1995.68
887.206	2074.34
887.381	2028.23
887.557	2041.21
887.732	2053.41
887.908	2022.22
888.083	2046.05
888.258	2018.35
888.434	2010.4
888.609	2030.94
888.784	2084.99
888.96	1995.48
889.135	2029.97
889.31	2024.16
889.485	2027.84
889.661	2027.65
889.836	2071.24
890.011	2030.94
890.186	2012.15
890.361	2000.52
890.537	2038.11
890.712	2032.88
890.887	2059.42
891.062	2012.73
891.237	2045.28
891.412	1955.57
891.587	2035.2
891.762	2010.98
891.937	2083.83
892.112	1942.4
892.287	1979.98
892.462	1937.17
892.637	1897.64
892.812	1862.96
892.987	1879.24
893.161	1845.33
893.336	1824.21
893.511	1860.44
893.686	1849.4
893.861	1801.93
894.035	1844.94
894.21	1821.5
894.385	1726.56
894.56	1747.87
894.734	1690.33
894.909	1650.23
895.084	1656.62
895.258	1619.42
895.433	1616.32
895.608	1594.81
895.782	1536.5
895.957	1515.38
896.131	1504.33
896.306	1430.9
896.48	1444.47
896.655	1373.36
896.829	1319.69
897.004	1301.29
897.178	1352.05
897.353	1332.87
897.527	1339.84
897.701	1312.72
897.876	1293.54
898.05	1378.4
898.224	1363.09
898.399	1389.05
898.573	1262.34
898.747	1143.96
898.921	1212.36
899.096	1040.5
899.27	1059.68
899.444	1084.48
899.618	1156.36
899.792	1195.31
899.967	1203.06
900.141	1238.32
900.315	1167.6
900.489	1144.35
900.663	1164.11
900.837	1150.75
901.011	1094.75
901.185	1188.14
901.359	1136.8
901.533	1170.51
901.707	1170.51
901.881	1146.87
902.055	1099.79
902.229	1144.55
902.403	1245.29
902.576	1171.28
902.75	1154.81
902.924	1245.68
903.098	1304.19
903.272	1340.42
903.446	1412.89
903.619	1404.36
903.793	1438.46
903.967	1452.22
904.14	1496
904.314	1481.28
904.488	1467.33
904.661	1483.6
904.835	1483.8
905.009	1534.17
905.182	1527.58
905.356	1492.9
905.529	1475.47
905.703	1429.94
905.876	1410.75
906.05	1366
906.223	1329.96
906.397	1240.64
906.57	1195.69
906.744	1180.78
906.917	1162.56
907.09	1130.79
907.264	1148.03
907.437	1078.28
907.61	1050.58
907.784	1062.78
907.957	1101.15
908.13	1042.25
908.304	1052.13
908.477	1023.84
908.65	1069.37
908.823	985.29
908.996	1043.41
909.17	997.69
909.343	995.36
909.516	1011.44
909.689	973.85
909.862	977.54
910.035	994.78
910.208	950.99
910.381	963.2
910.554	1052.9
910.727	980.25
910.9	995.75
911.073	1034.11
911.246	1070.15
911.419	1085.45
911.592	1080.42
911.765	983.54
911.938	985.29
912.11	1024.81
912.283	995.75
912.456	1067.24
912.629	1006.99
912.802	927.94
912.974	890.54
913.147	854.51
913.32	769.45
913.493	814.01
913.665	840.56
913.838	856.06
914.01	865.74
914.183	947.5
914.356	907.59
914.528	961.65
914.701	981.22
914.873	928.71
915.046	877.37
915.218	799.68
915.391	730.7
915.563	719.46
915.736	817.89
915.908	850.82
916.081	864
916.253	862.45
916.425	890.16
916.598	864.97
916.77	891.32
916.942	820.21
917.115	728.57
917.287	795.03
917.459	762.67
917.632	758.21
917.804	690.79
917.976	774.29
918.148	834.74
918.32	831.45
918.493	879.69
918.665	900.42
918.837	893.84
919.009	926
919.181	947.12
919.353	959.71
919.525	931.62
919.697	952.93
919.869	937.43
920.041	1037.79
920.213	1046.9
920.385	1004.66
920.557	1008.15
920.729	989.55
920.901	983.54
921.073	951.96
921.244	940.34
921.416	1006.99
921.588	948.28
921.76	931.23
921.932	985.67
922.103	952.54
922.275	964.55
922.447	951.57
922.619	892.87
922.79	915.92
922.962	913.6
923.134	950.22
923.305	843.85
923.477	797.16
923.648	817.11
923.82	833.19
923.991	761.7
924.163	771
924.335	826.8
924.506	770.42
924.677	837.65
924.849	780.49
925.02	797.16
925.192	816.73
925.363	829.51
925.535	810.91
925.706	776.23
925.877	850.63
926.049	778.17
926.22	787.47
926.391	808.01
926.562	838.42
926.734	758.02
926.905	813.82
927.076	730.9
927.247	742.71
927.419	680.33
927.59	676.84
927.761	658.24
927.932	625.88
928.103	604.38
928.274	562.53
928.445	548
928.616	558.27
928.787	530.95
928.958	552.65
929.129	537.34
929.3	511.77
929.471	463.72
929.642	410.24
929.813	382.73
929.984	455.39
930.155	350.38
930.326	409.08
930.496	344.18
930.667	310.85
930.838	337.78
931.009	273.07
931.18	321.12
931.35	263
931.521	286.83
931.692	202.55
931.863	160.12
932.033	244.2
932.204	197.7
932.374	238
932.545	158.76
932.716	197.7
932.886	200.42
933.057	121.17
933.227	163.02
933.398	218.63
933.568	107.03
933.739	51.04
933.909	77.39
934.08	132.22
934.25	56.65
934.421	98.89
934.591	139.58
934.761	102.19
934.932	59.95
935.102	143.84
935.272	108.77
935.443	107.03
935.613	104.12
935.783	116.33
935.953	48.32
936.123	223.67
936.294	82.42
936.464	77.19
936.634	72.15
936.804	54.72
936.974	63.44
937.144	103.54
937.314	130.86
937.484	112.84
937.655	69.64
937.825	142.29
937.995	71.57
938.165	125.44
938.334	115.94
938.504	153.72
938.674	135.51
938.844	175.62
939.014	231.41
939.184	226.18
939.354	279.27
939.524	242.85
939.694	201
939.863	217.27
940.033	237.42
940.203	211.85
940.373	182.2
940.542	215.33
940.712	182.4
940.882	230.64
941.051	220.37
941.221	212.23
941.391	245.17
941.56	213.4
941.73	201
941.899	282.95
942.069	213.59
942.238	208.94
942.408	165.93
942.577	202.74
942.747	170.38
942.916	121.75
943.086	139.77
943.255	213.4
943.425	167.09
943.594	157.79
943.763	86.1
943.933	95.79
944.102	80.1
944.271	119.82
944.441	161.67
944.61	136.09
944.779	139.19
944.948	208.55
945.117	130.09
945.287	118.27
945.456	96.95
945.625	108.39
945.794	166.9
945.963	101.41
946.132	159.73
946.301	90.37
946.47	151.4
946.639	121.37
946.808	109.94
946.977	185.3
947.146	198.87
947.315	137.06
947.484	159.15
947.653	147.72
947.822	146.75
947.991	132.99
948.16	228.7
948.329	194.41
948.498	141.52
948.666	170.97
948.835	165.73
949.004	106.25
949.173	120.59
949.341	115.17
949.51	139.38
949.679	165.35
949.847	146.75
950.016	214.95
950.185	173.29
950.353	155.08
950.522	164.18
950.69	224.63
950.859	188.02
951.028	198.87
951.196	159.15
951.365	136.48
951.533	142.68
951.701	167.28
951.87	151.2
952.038	102.77
952.207	117.88
952.375	196.93
952.543	128.73
952.712	174.45
952.88	145.39
953.048	184.33
953.217	162.25
953.385	180.85
953.553	194.41
953.721	131.83
953.89	160.31
954.058	118.46
954.226	131.05
954.394	156.82
954.562	97.73
954.73	154.11
954.898	140.35
955.067	178.72
955.235	145.39
955.403	183.75
955.571	205.07
955.739	174.45
955.907	95.99
956.075	137.64
956.243	123.3
956.41	148.1
956.578	84.55
956.746	139
956.914	140.16
957.082	183.95
957.25	213.2
957.418	157.6
957.585	181.04
957.753	215.53
957.921	146.17
958.089	169.42
958.256	163.02
958.424	161.86
958.592	150.62
958.759	113.23
958.927	159.53
959.095	116.72
959.262	154.3
959.43	147.72
959.597	121.56
959.765	144.23
959.932	121.37
960.1	209.52
960.267	166.7
960.435	179.3
960.602	188.6
960.77	168.45
960.937	123.11
961.104	193.05
961.272	140.16
961.439	138.8
961.606	185.88
961.774	211.27
961.941	154.5
962.108	180.07
962.275	172.32
962.443	211.46
962.61	179.1
962.777	250.6
962.944	192.28
963.111	206.81
963.278	219.98
963.446	168.64
963.613	169.03
963.78	215.92
963.947	182.59
964.114	205.26
964.281	255.05
964.448	218.43
964.615	183.75
964.782	188.6
964.949	208.17
965.116	228.12
965.282	248.66
965.449	196.73
965.616	153.33
965.783	195.77
965.95	189.76
966.117	143.45
966.283	190.53
966.45	195.38
966.617	206.03
966.784	255.63
966.95	232.96
967.117	255.05
967.284	211.85
967.45	232.38
967.617	289.54
967.784	248.27
967.95	272.49
968.117	213.4
968.283	277.33
968.45	349.02
968.616	259.12
968.783	288.96
968.949	266.68
969.116	291.28
969.282	262.41
969.449	271.13
969.615	266.68
969.781	216.88
969.948	213.78
970.114	226.57
970.28	307.17
970.447	220.95
970.613	300
970.779	257.96
970.945	296.9
971.112	262.61
971.278	265.9
971.444	248.46
971.61	283.92
971.776	240.13
971.942	296.13
972.108	259.9
972.275	248.46
972.441	271.71
972.607	312.98
972.773	215.14
972.939	263
973.105	226.18
973.271	188.6
973.437	232.38
973.602	203.9
973.768	220.37
973.934	206.62
974.1	251.37
974.266	161.86
974.432	221.73
974.598	171.35
974.763	240.52
974.929	185.88
975.095	250.01
975.261	184.53
975.426	180.46
975.592	208.94
975.758	259.7
975.923	149.07
976.089	201.97
976.255	233.74
976.42	212.82
976.586	214.95
976.751	229.09
976.917	253.7
977.082	232.96
977.248	170
977.413	176.78
977.579	203.32
977.744	197.51
977.91	184.14
978.075	167.09
978.24	224.63
978.406	200.03
978.571	181.62
978.736	169.42
978.902	220.76
979.067	177.94
979.232	154.3
979.397	208.55
979.563	241.1
979.728	184.14
979.893	196.93
980.058	179.3
980.223	227.35
980.388	213.98
980.554	197.9
980.719	198.67
980.884	205.65
981.049	241.68
981.214	174.65
981.379	236.06
981.544	207.39
981.709	204.48
981.874	172.9
982.039	205.07
982.204	230.45
982.368	203.32
982.533	197.12
982.698	229.67
982.863	244.98
983.028	188.98
983.193	201.19
983.357	234.9
983.522	225.22
983.687	214.17
983.852	196.35
984.016	199.64
984.181	199.25
984.346	225.6
984.51	219.21
984.675	198.48
984.839	224.05
985.004	225.02
985.168	247.11
985.333	241.88
985.498	212.04
985.662	240.33
985.827	194.99
985.991	206.81
986.155	188.98
986.32	251.56
986.484	283.92
986.649	207.39
986.813	148.3
986.977	221.34
987.142	222.7
987.306	168.06
987.47	182.01
987.634	195.38
987.799	204.48
987.963	192.08
988.127	192.86
988.291	261.25
988.455	212.04
988.62	196.54
988.784	198.28
988.948	221.73
989.112	167.28
989.276	206.81
989.44	204.68
989.604	163.8
989.768	157.6
989.932	257.76
990.096	160.5
990.26	191.31
990.424	149.46
990.588	183.56
990.752	251.76
990.915	221.73
991.079	183.56
991.243	183.56
991.407	205.45
991.571	182.98
991.734	214.95
991.898	212.62
992.062	263.38
992.226	170.38
992.389	183.56
992.553	142.68
992.717	178.13
992.88	183.37
993.044	180.27
993.207	172.52
993.371	234.13
993.535	195.77
993.698	191.31
993.862	199.64
994.025	218.05
994.189	195.96
994.352	196.54
994.515	180.85
994.679	216.69
994.842	148.49
995.006	209.33
995.169	170.77
995.332	155.85
995.496	208.75
995.659	115.75
995.822	150.43
995.985	143.84
996.149	213.01
996.312	167.87
996.475	254.08
996.638	163.22
996.801	200.61
996.964	229.48
997.128	186.85
997.291	191.7
997.454	178.72
997.617	132.02
997.78	210.49
997.943	144.23
998.106	165.93
998.269	97.15
998.432	153.14
998.595	156.43
998.758	123.89
998.92	150.43
999.083	104.51
999.246	178.33
999.409	139.97
999.572	112.65
999.735	142.68
999.897	163.6
1000.06	118.07
1000.223	128.92
1000.386	152.17
1000.548	162.63
1000.711	164.77
1000.874	168.25
1001.036	102.38
1001.199	166.9
1001.361	111.1
1001.524	129.89
1001.687	167.67
1001.849	109.55
1002.012	157.02
1002.174	183.95
1002.337	146.17
1002.499	128.73
1002.661	198.87
1002.824	102.19
1002.986	126.4
1003.149	138.42
1003.311	116.72
1003.473	184.53
1003.636	71.38
1003.798	151.78
1003.96	130.09
1004.123	103.54
1004.285	123.11
1004.447	124.66
1004.609	126.6
1004.771	174.26
1004.933	74.29
1005.096	99.67
1005.258	74.87
1005.42	104.32
1005.582	128.34
1005.744	142.29
1005.906	86.3
1006.068	112.45
1006.23	101.02
1006.392	87.46
1006.554	100.83
1006.716	139.58
1006.878	140.16
1007.04	72.93
1007.202	107.8
1007.363	133.19
1007.525	103.74
1007.687	122.92
1007.849	136.48
1008.011	85.72
1008.172	71.19
1008.334	98.12
1008.496	125.24
1008.658	64.21
1008.819	105.67
1008.981	79.71
1009.143	74.48
1009.304	103.93
1009.466	139.38
1009.627	138.42
1009.789	203.32
1009.95	128.73
1010.112	94.24
1010.273	125.44
1010.435	67.89
1010.596	79.9
1010.758	105.48
1010.919	102.77
1011.081	78.55
1011.242	91.14
1011.403	107.22
1011.565	85.14
1011.726	108
1011.887	52.39
1012.049	87.27
1012.21	123.69
1012.371	156.43
1012.532	25.46
1012.693	80.87
1012.855	82.04
1013.016	74.09
1013.177	110.9
1013.338	91.34
1013.499	187.43
1013.66	93.47
1013.821	100.83
1013.982	88.82
1014.143	103.15
1014.304	65.76
1014.465	105.87
1014.626	114.59
1014.787	88.82
1014.948	157.21
1015.109	35.34
1015.27	109.94
1015.431	49.87
1015.592	51.04
1015.752	125.05
1015.913	61.11
1016.074	75.45
1016.235	70.02
1016.395	87.27
1016.556	72.74
1016.717	79.71
1016.877	123.3
1017.038	54.14
1017.199	107.8
1017.359	79.32
1017.52	94.44
1017.681	63.24
1017.841	106.84
1018.002	55.49
1018.162	52.59
1018.323	128.92
1018.483	74.67
1018.644	61.5
1018.804	52.2
1018.964	26.43
1019.125	92.11
1019.285	75.25
1019.446	68.28
1019.606	56.27
1019.766	32.24
1019.926	114.97
1020.087	80.68
1020.247	48.52
1020.407	99.28
1020.567	134.54
1020.728	81.26
1020.888	42.12
1021.048	65.95
1021.208	22.17
1021.368	59.37
1021.528	102.96
1021.688	92.11
1021.848	93.08
1022.008	77.39
1022.168	61.69
1022.328	70.99
1022.488	54.91
1022.648	34.57
1022.808	49.1
1022.968	68.67
1023.128	21.97
1023.288	45.03
1023.448	66.15
1023.608	115.94
1023.767	69.83
1023.927	45.61
1024.087	34.18
1024.247	27.01
1024.406	54.52
1024.566	43.87
1024.726	38.25
1024.885	73.12
1025.045	70.41
1025.205	59.56
1025.364	45.42
1025.524	84.55
1025.683	55.69
1025.843	67.5
1026.003	67.89
1026.162	96.18
1026.321	104.12
1026.481	63.05
1026.64	35.92
1026.8	60.34
1026.959	37.47
1027.119	70.02
1027.278	53.55
1027.437	5.89
1027.597	58.2
1027.756	59.56
1027.915	56.65
1028.074	67.5
1028.234	16.74
1028.393	47.74
1028.552	33.21
1028.711	-33.63
1028.87	80.49
1029.03	27.79
1029.189	59.75
1029.348	-11.16
1029.507	39.22
1029.666	39.8
1029.825	6.47
1029.984	21.59
1030.143	83.59
1030.302	40.38
1030.461	-13.87
1030.62	40.77
1030.779	77.39
1030.938	20.42
1031.097	-15.61
1031.255	77.39
1031.414	89.2
1031.573	58.59
1031.732	-3.99
1031.891	28.76
1032.049	69.64
1032.208	63.63
1032.367	15.77
1032.525	28.37
1032.684	49.68
1032.843	47.55
1033.001	-13.68
1033.16	167.28
1033.319	52.2
1033.477	53.36
1033.636	33.79
1033.794	-17.94
1033.953	53.75
1034.111	74.29
1034.27	14.22
1034.428	51.04
1034.587	32.44
1034.745	50.84
1034.903	11.12
1035.062	40.57
1035.22	-20.07
1035.378	59.75
1035.537	1.82
1035.695	59.56
1035.853	21.59
1036.011	87.85
1036.17	44.26
1036.328	3.96
1036.486	42.9
1036.644	49.87
1036.802	-22.78
1036.96	-0.31
1037.119	29.34
1037.277	-1.47
1037.435	-9.22
1037.593	21.97
1037.751	29.92
1037.909	24.11
1038.067	24.11
