Data from oakcork_FLMT105791__275__17-34-21-052.txt Node

Date: Mon Mar 20 17:34:21 GMT 2023
User: antho
Spectrometer: FLMT10579
Trigger mode: 0
Integration Time (sec): 1.000000E-1
Scans to average: 10
Electric dark correction enabled: true
Nonlinearity correction enabled: false
Boxcar width: 0
XAxis mode: Wavelengths
Number of Pixels in Spectrum: 3648
>>>>>Begin Spectral Data<<<<<
345.248	-152.66
345.464	-152.66
345.681	-152.66
345.898	-164.86
346.114	-167.96
346.331	-47.26
346.548	15.32
346.764	4.28
346.981	-7.73
347.197	-5.41
347.414	35.08
347.631	-26.72
347.847	54.65
348.064	6.99
348.28	14.35
348.497	-13.74
348.713	-29.82
348.93	13.77
349.146	20.75
349.363	16.68
349.579	8.15
349.796	8.54
350.012	-2.89
350.229	10.48
350.445	17.45
350.661	-12
350.878	6.22
351.094	18.81
351.311	28.5
351.527	20.94
351.743	2.92
351.96	-1.15
352.176	53.1
352.392	38.57
352.609	22.68
352.825	-27.5
353.041	15.32
353.257	32.57
353.474	6.8
353.69	17.07
353.906	-9.48
354.122	6.41
354.339	33.34
354.555	-8.9
354.771	5.05
354.987	43.22
355.203	61.82
355.42	-0.76
355.636	-4.83
355.852	-6.57
356.068	10.87
356.284	-53.65
356.5	22.3
356.716	24.04
356.932	-12.19
357.148	19.58
357.364	4.28
357.58	56.4
357.796	50.58
358.012	63.57
358.228	2.34
358.444	-61.21
358.66	51.55
358.876	20.36
359.092	-13.35
359.308	7.77
359.524	35.67
359.74	1.57
359.956	-5.8
360.172	4.08
360.388	37.02
360.604	1.95
360.819	81.58
361.035	18.42
361.251	27.53
361.467	-22.65
361.683	46.71
361.898	-17.23
362.114	29.66
362.33	25.4
362.546	38.96
362.762	15.71
362.977	31.79
363.193	-11.61
363.409	11.45
363.624	-28.66
363.84	-20.13
364.056	-4.83
364.271	8.15
364.487	25.2
364.703	7.57
364.918	-2.7
365.134	15.13
365.35	9.12
365.565	113.75
365.781	8.35
365.996	10.67
366.212	67.63
366.427	33.15
366.643	-15.48
366.858	3.31
367.074	-10.25
367.289	82.36
367.505	85.07
367.72	-43.77
367.936	-4.25
368.151	48.65
368.367	44.77
368.582	17.65
368.798	0.6
369.013	48.26
369.228	6.8
369.444	10.28
369.659	52.52
369.874	37.02
370.09	37.02
370.305	-23.23
370.52	-11.61
370.736	76.55
370.951	17.65
371.166	59.11
371.381	82.16
371.597	31.6
371.812	0.6
372.027	-3.08
372.242	9.12
372.458	85.65
372.673	1.18
372.888	27.33
373.103	24.04
373.318	75.19
373.533	50.2
373.749	21.52
373.964	-9.48
374.179	39.73
374.394	-22.65
374.609	81.58
374.824	-28.08
375.039	71.7
375.254	-16.26
375.469	78.1
375.684	19.39
375.899	60.47
376.114	4.67
376.329	18.42
376.544	62.6
376.759	15.71
376.974	-11.8
377.189	24.43
377.404	10.67
377.619	49.03
377.834	-27.3
378.049	-5.22
378.264	-28.08
378.478	21.72
378.693	-17.42
378.908	53.68
379.123	13.38
379.338	52.13
379.553	42.83
379.767	39.15
379.982	31.02
380.197	46.71
380.412	21.13
380.626	37.02
380.841	102.31
381.056	18.23
381.271	71.7
381.485	4.67
381.7	-11.03
381.915	25.59
382.129	16.48
382.344	27.72
382.559	22.88
382.773	44
382.988	-27.3
383.202	10.09
383.417	13.97
383.632	106.38
383.846	25.59
384.061	31.79
384.275	10.67
384.49	56.2
384.704	43.8
384.919	20.36
385.133	38.38
385.348	42.64
385.562	-10.45
385.777	50.39
385.991	20.17
386.206	21.13
386.42	2.73
386.634	80.81
386.849	30.63
387.063	45.16
387.277	-6.77
387.492	4.86
387.706	-6.38
387.92	-19.55
388.135	58.53
388.349	12.22
388.563	-0.57
388.778	32.76
388.992	41.28
389.206	59.88
389.42	102.51
389.635	44.77
389.849	37.8
390.063	52.91
390.277	64.34
390.491	95.15
390.706	38.18
390.92	51.94
391.134	39.35
391.348	67.05
391.562	-14.32
391.776	38.38
391.99	4.86
392.205	48.07
392.419	-4.83
392.633	5.63
392.847	63.18
393.061	10.28
393.275	66.47
393.489	39.54
393.703	45.55
393.917	60.27
394.131	28.11
394.345	38.18
394.559	66.86
394.773	26.95
394.986	27.92
395.2	1.37
395.414	40.12
395.628	-7.54
395.842	61.82
396.056	30.63
396.27	-4.83
396.484	51.55
396.697	27.92
396.911	78.48
397.125	62.79
397.339	56.78
397.553	57.95
397.766	93.6
397.98	70.73
398.194	84.68
398.408	40.51
398.621	78.1
398.835	38.77
399.049	45.55
399.262	72.28
399.476	88.56
399.69	65.5
399.903	131.57
400.117	57.95
400.331	67.44
400.544	21.91
400.758	150.36
400.971	48.65
401.185	83.33
401.398	23.07
401.612	110.26
401.826	61.05
402.039	91.08
402.253	36.63
402.466	90.69
402.68	32.37
402.893	65.31
403.106	59.88
403.32	52.52
403.533	85.65
403.747	60.27
403.96	78.87
404.174	88.36
404.387	42.64
404.6	59.88
404.814	85.46
405.027	64.92
405.24	57.95
405.454	54.27
405.667	84.88
405.88	-8.12
406.094	69.77
406.307	107.55
406.52	79.84
406.733	31.4
406.947	31.21
407.16	122.08
407.373	93.01
407.586	42.45
407.799	52.33
408.012	90.11
408.226	67.44
408.439	120.72
408.652	6.02
408.865	71.9
409.078	95.34
409.291	76.93
409.504	48.84
409.717	81.39
409.93	84.3
410.143	77.9
410.357	42.64
410.57	35.67
410.783	46.32
410.996	59.69
411.209	44.77
411.421	102.51
411.634	90.5
411.847	48.26
412.06	53.3
412.273	80.81
412.486	76.16
412.699	162.38
412.912	78.68
413.125	109.68
413.338	60.27
413.55	96.11
413.763	73.25
413.976	79.65
414.189	57.37
414.402	76.93
414.615	118.4
414.827	41.28
415.04	97.08
415.253	89.91
415.466	112.78
415.678	126.92
415.891	91.08
416.104	70.73
416.316	86.04
416.529	48.26
416.742	83.13
416.954	135.83
417.167	56.01
417.38	74.8
417.592	106.19
417.805	46.13
418.017	60.85
418.23	114.91
418.442	39.35
418.655	66.86
418.868	58.33
419.08	119.36
419.293	104.06
419.505	71.32
419.718	98.63
419.93	96.89
420.142	68.99
420.355	121.5
420.567	124.98
420.78	138.74
420.992	77.13
421.205	149.98
421.417	62.6
421.629	94.95
421.842	93.98
422.054	59.69
422.266	113.94
422.479	112
422.691	58.72
422.903	101.54
423.115	72.09
423.328	82.55
423.54	75
423.752	84.1
423.964	40.51
424.177	86.43
424.389	75.97
424.601	178.26
424.813	92.05
425.025	100.57
425.238	93.79
425.45	73.83
425.662	63.18
425.874	362.32
426.086	125.95
426.298	111.42
426.51	113.94
426.722	87.98
426.934	90.11
427.146	101.93
427.358	45.35
427.57	128.08
427.782	68.02
427.994	101.93
428.206	77.13
428.418	68.41
428.63	114.71
428.842	135.64
429.054	95.15
429.266	103.48
429.478	65.89
429.69	55.04
429.902	51.75
430.114	139.32
430.325	116.26
430.537	67.25
430.749	86.81
430.961	53.1
431.173	77.71
431.384	118.78
431.596	27.33
431.808	61.05
432.02	102.51
432.231	111.81
432.443	129.44
432.655	106
432.867	48.84
433.078	109.48
433.29	137.77
433.502	126.92
433.713	137.38
433.925	124.6
434.136	146.3
434.348	53.49
434.56	56.59
434.771	172.06
434.983	47.48
435.194	73.06
435.406	72.09
435.617	135.83
435.829	161.41
436.04	160.05
436.252	155.79
436.463	157.15
436.675	164.51
436.886	97.47
437.098	139.51
437.309	176.13
437.521	100.76
437.732	126.34
437.943	114.52
438.155	127.89
438.366	70.73
438.578	154.43
438.789	118.01
439	139.13
439.211	106.96
439.423	107.35
439.634	167.8
439.845	133.7
440.057	139.71
440.268	145.52
440.479	103.67
440.69	117.62
440.902	100.76
441.113	122.66
441.324	115.49
441.535	136.41
441.746	175.94
441.957	82.75
442.168	106.19
442.38	158.31
442.591	152.11
442.802	104.83
443.013	129.44
443.224	136.22
443.435	101.54
443.646	124.4
443.857	149.98
444.068	127.89
444.279	111.42
444.49	202.09
444.701	127.11
444.912	229.41
445.123	169.35
445.334	162.18
445.545	137.19
445.756	118.4
445.967	126.34
446.178	168.77
446.388	165.86
446.599	181.75
446.81	159.08
447.021	120.91
447.232	168.77
447.443	171.29
447.653	138.74
447.864	160.25
448.075	146.1
448.286	166.06
448.496	174
448.707	174.97
448.918	146.88
449.129	209.26
449.339	121.11
449.55	179.81
449.761	136.03
449.971	194.93
450.182	141.65
450.393	175.16
450.603	152.69
450.814	194.54
451.024	163.15
451.235	200.16
451.446	198.22
451.656	209.84
451.867	136.41
452.077	184.08
452.288	229.99
452.498	214.88
452.709	131.57
452.919	203.45
453.13	148.04
453.34	191.44
453.55	110.84
453.761	185.43
453.971	153.66
454.182	186.21
454.392	179.62
454.602	230.19
454.813	179.81
455.023	189.69
455.233	126.92
455.444	166.64
455.654	92.82
455.864	177.88
456.075	171.68
456.285	172.06
456.495	181.36
456.705	172.06
456.916	227.67
457.126	247.63
457.336	187.18
457.546	132.15
457.756	174
457.967	217.4
458.177	165.28
458.387	170.51
458.597	164.31
458.807	159.28
459.017	193.57
459.227	151.53
459.437	175.94
459.647	211.78
459.857	192.99
460.068	181.17
460.278	209.46
460.488	200.74
460.698	242.39
460.908	197.25
461.117	159.08
461.327	155.21
461.537	194.15
461.747	151.33
461.957	191.24
462.167	281.34
462.377	233.87
462.587	202.09
462.797	207.33
463.007	177.29
463.216	186.21
463.426	246.85
463.636	228.25
463.846	185.04
464.056	148.23
464.265	227.28
464.475	167.61
464.685	185.24
464.895	192.02
465.104	186.98
465.314	217.98
465.524	210.43
465.733	180.2
465.943	291.61
466.153	254.79
466.362	234.64
466.572	214.88
466.782	213.72
466.991	209.46
467.201	252.86
467.41	175.74
467.62	208.29
467.829	201.71
468.039	214.88
468.249	186.4
468.458	199.77
468.668	217.4
468.877	244.14
469.086	241.23
469.296	234.45
469.505	199.38
469.715	276.49
469.924	237.16
470.134	256.92
470.343	274.36
470.552	197.83
470.762	210.04
470.971	178.65
471.18	223.41
471.39	223.41
471.599	200.93
471.808	215.27
472.018	178.46
472.227	230.38
472.436	262.93
472.645	211.78
472.855	207.33
473.064	291.61
473.273	251.89
473.482	257.51
473.691	255.18
473.901	254.79
474.11	242.98
474.319	298.58
474.528	244.33
474.737	262.35
474.946	254.99
475.155	252.66
475.364	273.01
475.573	248.59
475.783	230.38
475.992	294.51
476.201	309.24
476.41	254.02
476.619	224.96
476.828	246.27
477.037	239.68
477.245	255.96
477.454	291.8
477.663	236.58
477.872	256.54
478.081	302.65
478.29	238.91
478.499	321.25
478.708	291.8
478.917	340.82
479.125	263.32
479.334	295.87
479.543	261.96
479.752	292.96
479.961	266.22
480.169	314.66
480.378	259.25
480.587	384.8
480.796	300.32
481.004	289.67
481.213	317.76
481.422	306.52
481.63	296.26
481.839	306.33
482.048	349.92
482.256	312.53
482.465	268.94
482.674	355.15
482.882	314.47
483.091	350.5
483.299	312.53
483.508	326.48
483.716	298.39
483.925	339.07
484.134	304.59
484.342	309.62
484.551	364.65
484.759	335.78
484.967	346.63
485.176	372.59
485.384	348.57
485.593	391
485.801	331.13
486.01	322.22
486.218	343.14
486.426	287.92
486.635	331.52
486.843	328.42
487.051	318.15
487.26	305.36
487.468	327.26
487.676	371.62
487.885	329.58
488.093	329.97
488.301	325.9
488.509	349.54
488.717	384.41
488.926	339.66
489.134	336.94
489.342	368.14
489.55	321.25
489.758	347.21
489.967	325.32
490.175	425.87
490.383	349.73
490.591	421.42
490.799	320.47
491.007	369.69
491.215	369.88
491.423	355.93
491.631	367.55
491.839	380.92
492.047	423.74
492.255	352.44
492.463	310.01
492.671	336.17
492.879	400.88
493.087	360.77
493.295	369.69
493.503	397.97
493.711	372.79
493.919	415.6
494.127	418.9
494.334	433.23
494.542	337.52
494.75	381.89
494.958	359.61
495.166	415.22
495.374	397.78
495.581	406.5
495.789	412.12
495.997	450.28
496.205	397.97
496.412	405.72
496.62	370.65
496.828	425.29
497.035	386.93
497.243	417.93
497.451	407.47
497.658	410.18
497.866	412.31
498.074	461.13
498.281	395.84
498.489	472.76
498.696	409.02
498.904	422.58
499.112	400.69
499.319	463.07
499.527	416.38
499.734	484.77
499.942	373.75
500.149	378.02
500.357	400.88
500.564	367.36
500.771	439.63
500.979	404.95
501.186	402.62
501.394	454.16
501.601	420.06
501.808	439.63
502.016	406.69
502.223	422.58
502.43	416.57
502.638	418.51
502.845	381.12
503.052	463.65
503.26	396.42
503.467	471.02
503.674	404.75
503.881	453
504.089	500.47
504.296	468.3
504.503	404.56
504.71	416.77
504.917	399.14
505.125	435.56
505.332	425.68
505.539	430.13
505.746	514.8
505.953	467.72
506.16	451.64
506.367	477.8
506.574	481.28
506.781	485.93
506.988	422
507.195	451.45
507.402	444.28
507.609	490.2
507.816	439.63
508.023	438.08
508.23	441.18
508.437	407.47
508.644	436.92
508.851	502.79
509.058	504.73
509.265	459.78
509.472	486.71
509.679	577.19
509.885	459.78
510.092	476.05
510.299	459.58
510.506	484.77
510.713	467.72
510.92	500.27
511.126	487.68
511.333	515
511.54	520.23
511.746	521.39
511.953	534.76
512.16	512.09
512.367	500.27
512.573	479.54
512.78	490.97
512.987	495.04
513.193	514.42
513.4	439.63
513.606	503.95
513.813	477.6
514.02	504.15
514.226	543.48
514.433	537.28
514.639	449.9
514.846	493.68
515.052	471.98
515.259	485.93
515.465	510.15
515.672	496.4
515.878	571.76
516.085	495.62
516.291	534.18
516.497	495.04
516.704	475.67
516.91	471.6
517.117	458.81
517.323	452.22
517.529	490.2
517.736	502.79
517.942	499.5
518.148	466.37
518.354	530.69
518.561	503.37
518.767	511.32
518.973	553.16
519.179	527.2
519.386	482.83
519.592	509.57
519.798	486.9
520.004	570.02
520.21	510.93
520.417	543.67
520.623	558.4
520.829	572.35
521.035	533.79
521.241	561.88
521.447	573.51
521.653	659.53
521.859	548.71
522.065	564.4
522.271	661.47
522.477	625.24
522.683	655.27
522.889	596.18
523.095	611.68
523.301	586.1
523.507	600.05
523.713	608.77
523.919	579.32
524.125	627.37
524.331	583.78
524.537	646.94
524.742	619.62
524.948	624.27
525.154	651.2
525.36	726.96
525.566	638.22
525.772	682.2
525.977	590.36
526.183	633.96
526.389	678.33
526.595	635.89
526.8	635.7
527.006	583.97
527.212	583.58
527.417	590.56
527.623	599.28
527.829	631.24
528.034	657.4
528.24	639.77
528.446	636.67
528.651	701.38
528.857	667.67
529.062	721.92
529.268	653.53
529.473	630.86
529.679	654.69
529.884	708.55
530.09	701.96
530.295	731.41
530.501	714.56
530.706	658.18
530.912	654.3
531.117	695.18
531.323	685.11
531.528	704.09
531.733	705.06
531.939	698.67
532.144	707.19
532.35	712.42
532.555	744.01
532.76	750.98
532.966	756.6
533.171	694.41
533.376	701.57
533.581	661.28
533.787	688.98
533.992	727.15
534.197	742.46
534.402	708.55
534.607	703.71
534.813	788.76
535.018	716.11
535.223	719.01
535.428	737.61
535.633	765.9
535.838	756.02
536.043	726.57
536.249	799.03
536.454	725.6
536.659	715.14
536.864	734.12
537.069	726.37
537.274	741.49
537.479	752.34
537.684	762.8
537.889	712.23
538.094	791.86
538.299	725.99
538.504	766.67
538.708	736.26
538.913	799.42
539.118	734.32
539.323	769.97
539.528	733.93
539.733	738.58
539.938	781.01
540.142	766.09
540.347	761.83
540.552	707.19
540.757	756.41
540.962	742.07
541.166	703.32
541.371	707.58
541.576	757.37
541.781	639.58
541.985	743.42
542.19	749.62
542.395	781.59
542.599	817.44
542.804	806.59
543.008	829.64
543.213	738.19
543.418	742.07
543.622	774.62
543.827	729.47
544.031	831
544.236	837.59
544.44	778.88
544.645	843.4
544.849	759.7
545.054	804.84
545.258	851.92
545.463	808.52
545.667	761.64
545.872	807.36
546.076	822.28
546.281	797.87
546.485	755.63
546.689	817.44
546.894	812.98
547.098	799.22
547.302	783.72
547.507	803.87
547.711	788.57
547.915	842.82
548.119	766.29
548.324	783.53
548.528	873.82
548.732	802.52
548.936	826.54
549.141	820.54
549.345	792.64
549.549	828.29
549.753	798.06
549.957	856.19
550.161	874.98
550.366	805.42
550.57	803.29
550.774	807.17
550.978	800.58
551.182	819.18
551.386	788.76
551.59	793.6
551.794	777.91
551.998	809.49
552.202	799.8
552.406	787.79
552.61	815.89
552.814	843.01
553.018	882.92
553.222	819.95
553.426	791.47
553.63	871.1
553.833	817.24
554.037	772.68
554.241	858.51
554.445	808.14
554.649	813.37
554.853	778.69
555.056	842.82
555.26	824.02
555.464	824.22
555.668	817.44
555.871	863.35
556.075	857.74
556.279	794.38
556.483	783.53
556.686	798.45
556.89	816.47
557.094	825.77
557.297	759.12
557.501	833.9
557.704	741.68
557.908	846.11
558.112	776.56
558.315	839.91
558.519	769.97
558.722	795.93
558.926	790.12
559.129	759.31
559.333	739.55
559.536	750.59
559.74	759.12
559.943	746.33
560.147	740.13
560.35	771.52
560.553	752.14
560.757	728.12
560.96	824.41
561.164	752.72
561.367	825.19
561.57	787.21
561.774	753.69
561.977	748.85
562.18	763.19
562.384	834.29
562.587	762.02
562.79	742.84
562.993	731.22
563.197	815.11
563.4	789.73
563.603	793.22
563.806	808.33
564.009	733.35
564.212	775.01
564.416	706.81
564.619	744.2
564.822	721.72
565.025	787.99
565.228	750.4
565.431	767.64
565.634	691.69
565.837	701.77
566.04	720.17
566.243	720.37
566.446	652.75
566.649	737.61
566.852	676.39
567.055	686.08
567.258	743.23
567.461	786.05
567.664	750.01
567.867	637.64
568.07	731.8
568.273	695.18
568.475	736.64
568.678	688.01
568.881	684.53
569.084	709.71
569.287	623.11
569.489	660.69
569.692	729.86
569.895	703.32
570.098	623.49
570.3	668.06
570.503	630.47
570.706	639.58
570.909	644.42
571.111	613.23
571.314	582.42
571.516	648.88
571.719	641.71
571.922	641.51
572.124	608.58
572.327	647.52
572.529	590.36
572.732	582.03
572.935	631.24
573.137	663.6
573.34	618.46
573.542	669.22
573.745	661.47
573.947	662.24
574.15	635.7
574.352	600.44
574.554	685.69
574.757	581.65
574.959	607.03
575.162	597.92
575.364	602.76
575.566	716.49
575.769	590.95
575.971	611.48
576.173	541.73
576.376	614.97
576.578	633.38
576.78	659.34
576.982	545.8
577.185	603.35
577.387	556.26
577.589	567.89
577.791	589.2
577.993	593.85
578.196	586.68
578.398	607.8
578.6	632.41
578.802	561.88
579.004	552.97
579.206	575.83
579.408	592.3
579.61	560.72
579.812	611.09
580.014	589.4
580.216	576.8
580.418	582.03
580.62	548.51
580.822	541.93
581.024	558.4
581.226	616.13
581.428	552.58
581.63	633.18
581.832	547.74
582.034	612.06
582.236	575.83
582.438	606.64
582.64	606.83
582.841	623.3
583.043	664.57
583.245	579.51
583.447	609.93
583.649	583.39
583.85	583.97
584.052	629.11
584.254	570.21
584.456	630.47
584.657	563.05
584.859	572.54
585.061	564.98
585.262	572.93
585.464	548.9
585.666	599.08
585.867	553.36
586.069	628.34
586.27	592.5
586.472	570.8
586.674	551.23
586.875	568.28
587.077	528.95
587.278	590.17
587.48	561.11
587.681	659.53
587.883	591.33
588.084	547.55
588.285	579.71
588.487	534.37
588.688	583.39
588.89	506.28
589.091	502.6
589.292	555.49
589.494	510.93
589.695	493.3
589.896	434.2
590.098	471.79
590.299	504.53
590.5	505.89
590.702	468.3
590.903	519.45
591.104	561.69
591.305	521.58
591.507	571.38
591.708	535.92
591.909	533.6
592.11	589.2
592.311	533.79
592.512	522.16
592.714	474.89
592.915	502.79
593.116	508.8
593.317	494.85
593.518	505.5
593.719	531.46
593.92	555.88
594.121	558.2
594.322	524.1
594.523	516.74
594.724	482.25
594.925	491.94
595.126	526.04
595.327	509.96
595.528	511.32
595.729	543.28
595.929	504.73
596.13	497.17
596.331	507.83
596.532	527.59
596.733	570.41
596.934	555.68
597.135	558.98
597.335	515.19
597.536	500.66
597.737	522.75
597.938	486.9
598.138	544.45
598.339	497.17
598.54	519.84
598.74	514.8
598.941	514.8
599.142	543.48
599.342	527.98
599.543	509.38
599.744	499.11
599.944	504.73
600.145	494.07
600.345	491.36
600.546	587.46
600.746	521.97
600.947	571.76
601.147	530.69
601.348	559.17
601.548	482.64
601.749	518.87
601.949	484.97
602.15	497.17
602.35	524.1
602.551	553.55
602.751	484.58
602.951	472.18
603.152	448.35
603.352	547.16
603.552	508.22
603.753	534.56
603.953	546.96
604.153	534.37
604.354	501.63
604.554	512.67
604.754	490
604.954	477.41
605.155	532.24
605.355	531.66
605.555	574.67
605.755	566.34
605.955	507.05
606.155	533.98
606.356	510.35
606.556	545.22
606.756	533.21
606.956	476.05
607.156	574.67
607.356	459
607.556	533.21
607.756	509.96
607.956	510.93
608.156	519.26
608.356	461.52
608.556	546.77
608.756	515.97
608.956	479.35
609.156	547.93
609.356	483.61
609.556	463.85
609.755	528.17
609.955	471.02
610.155	514.03
610.355	483.22
610.555	455.9
610.755	503.37
610.954	457.26
611.154	510.54
611.354	526.62
611.554	484.58
611.753	483.22
611.953	434.01
612.153	496.98
612.352	507.44
612.552	459.39
612.752	428
612.951	466.56
613.151	498.33
613.351	446.6
613.55	452.03
613.75	475.47
613.949	475.67
614.149	504.73
614.348	471.6
614.548	471.6
614.747	445.05
614.947	453.58
615.146	398.36
615.346	488.84
615.545	445.05
615.745	462.88
615.944	489.81
616.144	467.72
616.343	484.97
616.542	450.09
616.742	456.48
616.941	474.31
617.14	410.95
617.34	443.31
617.539	440.21
617.738	452.42
617.938	491.36
618.137	472.57
618.336	377.24
618.535	441.95
618.734	457.84
618.934	490.58
619.133	445.83
619.332	447.96
619.531	419.48
619.73	438.08
619.929	474.89
620.128	460.36
620.328	501.43
620.527	389.84
620.726	425.29
620.925	468.11
621.124	419.48
621.323	470.43
621.522	386.54
621.721	394.29
621.92	389.64
622.119	470.24
622.318	420.25
622.517	418.51
622.715	434.98
622.914	397.97
623.113	405.53
623.312	404.56
623.511	452.8
623.71	403.01
623.909	423.55
624.107	475.28
624.306	405.72
624.505	386.74
624.704	406.89
624.902	420.84
625.101	479.73
625.3	433.82
625.499	403.01
625.697	369.69
625.896	389.84
626.095	429.55
626.293	356.51
626.492	386.93
626.69	419.48
626.889	377.05
627.088	428.78
627.286	393.32
627.485	383.64
627.683	390.22
627.882	430.52
628.08	351.47
628.279	383.83
628.477	439.24
628.676	380.73
628.874	414.83
629.073	334.04
629.271	360.58
629.469	406.69
629.668	396.42
629.866	387.7
630.065	363.68
630.263	400.3
630.461	355.35
630.66	407.85
630.858	399.52
631.056	415.99
631.254	411.73
631.453	382.28
631.651	424.71
631.849	382.28
632.047	401.85
632.245	395.45
632.444	378.4
632.642	431.68
632.84	402.24
633.038	384.8
633.236	335.78
633.434	360
633.632	343.14
633.83	363.68
634.028	407.08
634.227	381.89
634.425	443.12
634.623	394.68
634.821	382.86
635.019	384.99
635.216	377.63
635.414	434.01
635.612	378.79
635.81	375.89
636.008	453
636.206	394.29
636.404	423.94
636.602	344.11
636.8	392.74
636.997	394.68
637.195	388.67
637.393	403.79
637.591	456.87
637.789	374.92
637.986	380.92
638.184	399.72
638.382	413.47
638.58	394.29
638.777	406.3
638.975	403.59
639.173	403.01
639.37	372.2
639.568	390.8
639.765	415.22
639.963	366
640.161	418.51
640.358	396.23
640.556	357.87
640.753	362.52
640.951	346.24
641.148	403.98
641.346	381.7
641.543	363.29
641.741	383.64
641.938	353.02
642.136	377.05
642.333	358.64
642.531	397.2
642.728	420.45
642.925	342.17
643.123	376.47
643.32	395.65
643.517	376.66
643.715	383.05
643.912	338.49
644.109	387.9
644.306	361.35
644.504	364.65
644.701	357.87
644.898	373.75
645.095	351.09
645.293	382.67
645.49	384.99
645.687	366.97
645.884	382.28
646.081	324.74
646.278	343.53
646.475	335.2
646.672	331.71
646.87	393.9
647.067	378.02
647.264	358.84
647.461	306.52
647.658	298.19
647.855	398.94
648.052	314.08
648.249	297.22
648.446	362.9
648.642	340.04
648.839	305.75
649.036	322.8
649.233	303.23
649.43	329.97
649.627	294.71
649.824	297.03
650.021	311.76
650.217	327.64
650.414	316.21
650.611	360
650.808	342.56
651.004	354.77
651.201	360.19
651.398	381.7
651.595	348.18
651.791	315.05
651.988	356.32
652.185	306.52
652.381	344.5
652.578	287.92
652.775	340.43
652.971	318.34
653.168	313.69
653.364	355.35
653.561	302.46
653.757	289.09
653.954	332.49
654.15	306.33
654.347	383.05
654.543	288.51
654.74	289.86
654.936	298
655.133	311.56
655.329	342.56
655.525	310.01
655.722	337.33
655.918	260.22
656.115	320.86
656.311	259.64
656.507	246.85
656.704	250.53
656.9	287.15
657.096	259.25
657.292	254.6
657.489	335.2
657.685	301.49
657.881	291.61
658.077	252.66
658.273	285.41
658.47	324.16
658.666	292.57
658.862	323.19
659.058	299.55
659.254	337.14
659.45	276.69
659.646	302.84
659.842	312.14
660.038	362.71
660.234	289.09
660.43	327.64
660.626	355.35
660.822	311.17
661.018	342.17
661.214	335.01
661.41	261.38
661.606	347.21
661.802	353.22
661.998	290.44
662.194	263.51
662.39	314.47
662.586	306.91
662.781	316.79
662.977	299.36
663.173	333.65
663.369	294.12
663.564	309.43
663.76	316.41
663.956	294.9
664.152	335.97
664.347	272.23
664.543	306.52
664.739	286.96
664.934	255.18
665.13	234.64
665.326	322.8
665.521	295.67
665.717	257.31
665.912	286.57
666.108	220.31
666.304	277.66
666.499	290.44
666.695	221.08
666.89	276.69
667.086	327.45
667.281	301.68
667.477	299.36
667.672	299.55
667.867	291.61
668.063	308.07
668.258	261.38
668.454	293.74
668.649	339.27
668.844	279.98
669.04	308.46
669.235	293.54
669.43	279.4
669.626	244.53
669.821	267.39
670.016	257.7
670.211	288.31
670.407	239.88
670.602	260.41
670.797	262.93
670.992	283.86
671.187	246.08
671.382	305.36
671.578	269.52
671.773	320.86
671.968	262.93
672.163	255.96
672.358	292.96
672.553	247.63
672.748	250.73
672.943	337.14
673.138	281.53
673.333	273.78
673.528	233.09
673.723	289.86
673.918	278.04
674.113	231.35
674.308	325.71
674.503	307.49
674.698	296.64
674.892	288.12
675.087	305.75
675.282	289.86
675.477	210.23
675.672	284.82
675.867	256.34
676.061	230.77
676.256	258.09
676.451	276.88
676.646	292.38
676.84	249.18
677.035	223.6
677.23	207.52
677.424	280.17
677.619	290.25
677.814	305.36
678.008	311.17
678.203	200.54
678.397	237.16
678.592	258.47
678.787	309.82
678.981	242.2
679.176	285.79
679.37	246.85
679.565	266.22
679.759	271.07
679.954	285.02
680.148	292.57
680.342	320.67
680.537	289.28
680.731	257.89
680.926	276.49
681.12	278.43
681.314	242.2
681.509	265.26
681.703	252.86
681.897	295.09
682.092	267.39
682.286	247.43
682.48	310.4
682.674	289.28
682.869	254.41
683.063	233.87
683.257	319.51
683.451	243.75
683.645	286.37
683.839	257.89
684.034	269.52
684.228	289.47
684.422	257.51
684.616	252.08
684.81	274.56
685.004	272.42
685.198	266.42
685.392	298.19
685.586	252.66
685.78	288.51
685.974	278.82
686.168	299.55
686.362	325.9
686.556	259.83
686.75	232.9
686.944	229.03
687.138	276.11
687.331	187.95
687.525	193.18
687.719	173.61
687.913	228.64
688.107	236.58
688.301	198.03
688.494	235.42
688.688	199.77
688.882	176.52
689.076	178.26
689.269	212.75
689.463	274.94
689.657	224.57
689.85	213.72
690.044	198.99
690.238	195.51
690.431	210.23
690.625	219.73
690.818	240.84
691.012	248.59
691.205	281.53
691.399	203.64
691.593	236.97
691.786	283.66
691.98	303.42
692.173	303.62
692.366	285.02
692.56	265.64
692.753	321.64
692.947	212.17
693.14	326.67
693.333	297.61
693.527	210.43
693.72	291.22
693.914	254.6
694.107	267.39
694.3	290.83
694.493	299.36
694.687	308.66
694.88	252.28
695.073	321.83
695.266	314.08
695.46	283.27
695.653	364.45
695.846	317.96
696.039	233.68
696.232	292.96
696.425	291.99
696.618	316.99
696.812	318.54
697.005	370.85
697.198	418.32
697.391	346.82
697.584	367.94
697.777	397.59
697.97	372.4
698.163	386.93
698.356	336.94
698.549	460.17
698.742	403.4
698.935	384.02
699.127	413.86
699.32	384.99
699.513	345.08
699.706	388.48
699.899	417.15
700.092	359.42
700.285	419.48
700.477	400.3
700.67	422.97
700.863	416.38
701.056	508.6
701.248	463.85
701.441	483.22
701.634	437.69
701.826	530.11
702.019	410.76
702.212	463.65
702.404	417.15
702.597	444.86
702.79	469.27
702.982	455.32
703.175	473.92
703.367	518.1
703.56	500.66
703.752	564.21
703.945	513.06
704.137	515.19
704.33	559.75
704.522	535.73
704.715	561.88
704.907	553.16
705.1	552
705.292	583.2
705.484	539.02
705.677	584.75
705.869	625.63
706.061	638.41
706.254	637.25
706.446	581.06
706.638	599.86
706.831	649.65
707.023	604.89
707.215	680.07
707.407	681.43
707.599	671.35
707.792	695.76
707.984	667.86
708.176	671.74
708.368	666.51
708.56	697.12
708.752	675.81
708.944	666.12
709.136	730.25
709.329	695.76
709.521	807.75
709.713	725.79
709.905	759.51
710.097	769.58
710.289	725.02
710.481	743.23
710.672	763.19
710.864	762.61
711.056	820.54
711.248	779.27
711.44	798.06
711.632	785.66
711.824	831.97
712.016	868.39
712.207	863.94
712.399	875.17
712.591	926.13
712.783	862.97
712.975	886.22
713.166	836.42
713.358	846.69
713.55	925.35
713.741	930.78
713.933	919.93
714.125	895.52
714.316	883.12
714.508	941.82
714.7	983.28
714.891	920.32
715.083	1004.6
715.274	953.64
715.466	961.39
715.657	996.26
715.849	903.07
716.04	954.61
716.232	890.09
716.423	968.95
716.615	912.57
716.806	903.07
716.998	916.83
717.189	883.5
717.381	809.49
717.572	805.42
717.763	854.25
717.955	817.63
718.146	813.17
718.337	800
718.528	771.32
718.72	734.32
718.911	784.69
719.102	792.25
719.293	816.27
719.485	785.85
719.676	782.56
719.867	758.34
720.058	765.32
720.249	780.82
720.44	791.86
720.632	831
720.823	867.62
721.014	921.87
721.205	899.78
721.396	961.2
721.587	1025.71
721.778	1006.73
721.969	1035.79
722.16	1078.22
722.351	1027.46
722.542	1159.21
722.733	1169.86
722.924	1065.63
723.115	1120.65
723.305	1157.27
723.496	1134.99
723.687	1041.79
723.878	1069.69
724.069	1086.55
724.26	1096.04
724.45	1032.3
724.641	1038.5
724.832	1077.64
725.023	1083.26
725.213	1060.2
725.404	1052.84
725.595	1064.46
725.785	1060.78
725.976	1125.49
726.167	1109.41
726.357	1093.53
726.548	1178
726.739	1113.29
726.929	1137.31
727.12	1169.09
727.31	1224.11
727.501	1160.17
727.691	1171.61
727.882	1172.96
728.072	1185.94
728.263	1184.78
728.453	1208.81
728.644	1201.64
728.834	1211.13
729.024	1197.76
729.215	1214.81
729.405	1221.59
729.596	1297.93
729.786	1283.4
729.976	1309.75
730.167	1313.23
730.357	1275.45
730.547	1264.02
730.737	1323.31
730.928	1354.12
731.118	1357.6
731.308	1302.97
731.498	1339
731.688	1393.64
731.879	1404.3
732.069	1425.8
732.259	1442.27
732.449	1444.01
732.639	1539.92
732.829	1520.54
733.019	1537.4
733.209	1609.67
733.399	1579.64
733.589	1642.02
733.779	1641.83
733.969	1664.89
734.159	1668.95
734.349	1703.83
734.539	1742.58
734.729	1738.12
734.919	1763.31
735.109	1776.87
735.299	1735.99
735.488	1770.09
735.678	1773.77
735.868	1724.56
736.058	1768.15
736.248	1753.23
736.437	1711.58
736.627	1750.72
736.817	1811.17
737.007	1780.75
737.196	1819.88
737.386	1805.16
737.576	1792.57
737.765	1818.72
737.955	1836.93
738.144	1894.28
738.334	1865.8
738.524	1805.16
738.713	1846.81
738.903	1825.5
739.092	1901.06
739.282	1890.21
739.471	1918.5
739.661	1891.76
739.85	1915.21
740.04	1915.01
740.229	1956.67
740.419	1957.44
740.608	2008.4
740.797	1947.76
740.987	2039.4
741.176	2006.85
741.365	1937.49
741.555	1954.54
741.744	1993.29
741.933	1990.38
742.123	2046.18
742.312	2057.61
742.501	2073.11
742.69	2076.41
742.88	1983.99
743.069	2105.08
743.258	2055.67
743.447	2077.96
743.636	2117.09
743.825	2010.53
744.014	2085.12
744.204	2094.62
744.393	2039.4
744.582	2127.17
744.771	2118.64
744.96	2105.85
745.149	2130.46
745.338	2058.97
745.527	2119.22
745.716	2109.34
745.905	2092.29
746.094	2138.21
746.283	2115.35
746.471	2175.99
746.66	2194.01
746.849	2136.08
747.038	2199.24
747.227	2121.16
747.416	2166.89
747.604	2134.72
747.793	2120.58
747.982	2151.39
748.171	2166.5
748.359	2173.67
748.548	2153.32
748.737	2176.57
748.926	2138.4
749.114	2087.84
749.303	2165.34
749.491	2114.77
749.68	2130.85
749.869	2177.73
750.057	2113.99
750.246	2148.87
750.434	2115.35
750.623	2115.15
750.811	2120.19
751	2125.42
751.188	2126.39
751.377	2134.53
751.565	2091.32
751.754	2102.17
751.942	2097.52
752.131	2138.79
752.319	2108.18
752.507	2078.34
752.696	2130.65
752.884	2188
753.072	2109.73
753.261	2126.39
753.449	2123.68
753.637	2091.9
753.825	2199.24
754.014	2112.83
754.202	2120.19
754.39	2156.81
754.578	2161.65
754.766	2097.72
754.955	2080.28
755.143	2186.84
755.331	2094.23
755.519	2094.62
755.707	2121.35
755.895	2079.31
756.083	2114.57
756.271	2066.52
756.459	2086.29
756.647	2138.6
756.835	2077.96
757.023	2098.1
757.211	2053.54
757.399	2085.32
757.587	2081.83
757.775	2010.14
757.963	2048.12
758.151	2050.44
758.339	2017.89
758.526	1968.88
758.714	2056.64
758.902	1958.22
759.09	1930.9
759.278	1789.66
759.465	1638.15
759.653	1401.78
759.841	1309.55
760.028	1054.78
760.216	943.57
760.404	931.17
760.591	738
760.779	607.41
760.967	556.07
761.154	435.17
761.342	497.56
761.529	489.62
761.717	519.06
761.905	481.09
762.092	562.85
762.28	480.7
762.467	516.74
762.655	442.15
762.842	457.84
763.029	466.37
763.217	484.19
763.404	481.48
763.592	514.42
763.779	471.6
763.966	508.22
764.154	492.52
764.341	576.61
764.528	556.46
764.716	593.27
764.903	629.31
765.09	676.39
765.277	659.53
765.465	850.18
765.652	825.38
765.839	882.34
766.026	971.46
766.213	972.43
766.4	1036.37
766.588	1184.78
766.775	1160.17
766.962	1250.27
767.149	1280.88
767.336	1377.95
767.523	1365.35
767.71	1449.44
767.897	1505.43
768.084	1604.44
768.271	1576.34
768.458	1630.01
768.645	1675.54
768.832	1611.02
769.019	1655.97
769.206	1704.22
769.392	1750.52
769.579	1820.27
769.766	1771.25
769.953	1755.95
770.14	1826.47
770.327	1810
770.513	1826.67
770.7	1879.36
770.887	1839.06
771.073	1874.52
771.26	1832.28
771.447	1795.08
771.634	1819.5
771.82	1860.57
772.007	1827.25
772.193	1849.33
772.38	1873.55
772.567	1860.38
772.753	1826.67
772.94	1866.19
773.126	1862.12
773.313	1894.67
773.499	1877.62
773.686	1896.61
773.872	1813.68
774.059	1826.08
774.245	1821.82
774.432	1820.27
774.618	1776.29
774.804	1846.43
774.991	1800.51
775.177	1896.03
775.363	1800.7
775.55	1835.58
775.736	1797.8
775.922	1795.08
776.109	1831.9
776.295	1818.72
776.481	1827.83
776.667	1877.43
776.853	1823.95
777.04	1789.27
777.226	1794.5
777.412	1869.68
777.598	1782.49
777.784	1784.23
777.97	1790.43
778.156	1821.43
778.342	1794.31
778.528	1763.7
778.715	1744.52
778.901	1776.29
779.087	1777.65
779.272	1760.98
779.458	1721.85
779.644	1784.43
779.83	1718.94
780.016	1823.95
780.202	1762.34
780.388	1687.75
780.574	1670.89
780.76	1688.33
780.946	1778.23
781.131	1732.5
781.317	1726.11
781.503	1707.51
781.689	1711.58
781.874	1760.79
782.06	1700.34
782.246	1694.92
782.432	1695.89
782.617	1712.55
782.803	1778.62
782.989	1649.97
783.174	1697.82
783.36	1625.17
783.545	1660.43
783.731	1671.28
783.916	1604.24
784.102	1703.05
784.288	1634.27
784.473	1636.41
784.659	1647.45
784.844	1697.05
785.029	1640.28
785.215	1606.37
785.4	1594.56
785.586	1671.67
785.771	1614.9
785.956	1641.06
786.142	1585.26
786.327	1599.01
786.512	1613.16
786.698	1597.27
786.883	1540.5
787.068	1568.59
787.254	1618.39
787.439	1572.27
787.624	1574.99
787.809	1535.66
787.994	1560.65
788.18	1621.1
788.365	1545.73
788.55	1545.54
788.735	1527.52
788.92	1544.76
789.105	1526.55
789.29	1520.74
789.475	1496.91
789.66	1545.15
789.845	1512.99
790.03	1494.78
790.215	1532.75
790.4	1532.36
790.585	1581.19
790.77	1490.9
790.955	1430.45
791.14	1475.01
791.325	1521.71
791.51	1409.53
791.695	1489.54
791.879	1450.8
792.064	1425.41
792.249	1549.8
792.434	1448.28
792.618	1442.46
792.803	1476.37
792.988	1475.21
793.173	1460.29
793.357	1536.04
793.542	1450.41
793.727	1475.4
793.911	1529.26
794.096	1451.96
794.281	1495.55
794.465	1568.79
794.65	1478.11
794.834	1526.94
795.019	1517.25
795.203	1519.19
795.388	1545.73
795.572	1528.49
795.757	1514.34
795.941	1510.28
796.126	1488.96
796.31	1470.17
796.494	1493.03
796.679	1462.23
796.863	1436.07
797.048	1504.27
797.232	1504.46
797.416	1481.6
797.601	1489.74
797.785	1526.16
797.969	1549.22
798.153	1473.46
798.338	1527.71
798.522	1549.8
798.706	1537.59
798.89	1547.86
799.074	1611.8
799.258	1568.4
799.443	1522.48
799.627	1533.91
799.811	1540.31
799.995	1492.26
800.179	1475.79
800.363	1477.73
800.547	1509.69
800.731	1565.69
800.915	1434.71
801.099	1496.71
801.283	1495.16
801.467	1538.37
801.651	1523.64
801.835	1556.39
802.019	1491.09
802.202	1511.44
802.386	1445.56
802.57	1462.42
802.754	1503.11
802.938	1413.79
803.121	1483.15
803.305	1531.78
803.489	1508.53
803.673	1484.31
803.856	1515.89
804.04	1491.68
804.224	1463.78
804.407	1494.97
804.591	1468.43
804.775	1497.1
804.958	1495.16
805.142	1590.29
805.326	1465.71
805.509	1528.68
805.693	1502.33
805.876	1527.71
806.06	1533.53
806.243	1510.47
806.427	1572.66
806.61	1554.45
806.794	1532.17
806.977	1542.83
807.16	1492.26
807.344	1506.01
807.527	1510.08
807.71	1486.25
807.894	1504.85
808.077	1511.63
808.26	1485.09
808.444	1497.49
808.627	1498.65
808.81	1472.3
808.993	1456.22
809.177	1460.87
809.36	1432.39
809.543	1474.82
809.726	1394.03
809.909	1441.69
810.092	1381.82
810.276	1409.91
810.459	1403.33
810.642	1406.43
810.825	1368.07
811.008	1386.28
811.191	1303.55
811.374	1312.46
811.557	1341.13
811.74	1381.82
811.923	1322.34
812.106	1286.3
812.289	1269.25
812.472	1294.05
812.654	1315.56
812.837	1273.9
813.02	1248.14
813.203	1234.96
813.386	1154.56
813.569	1154.17
813.751	1106.7
813.934	1175.87
814.117	1143.32
814.3	1108.83
814.482	1053.81
814.665	1061.75
814.848	1051.87
815.03	1011.57
815.213	1005.95
815.396	998.2
815.578	998.98
815.761	959.26
815.943	1019.13
816.126	988.9
816.309	918.77
816.491	885.25
816.674	879.63
816.856	905.4
817.039	881.95
817.221	949.57
817.403	900.75
817.586	905.98
817.768	917.8
817.951	848.05
818.133	862
818.315	929.23
818.498	939.11
818.68	994.71
818.862	956.55
819.045	967.01
819.227	923.22
819.409	929.23
819.591	953.25
819.774	922.25
819.956	914.7
820.138	957.71
820.32	960.61
820.502	972.63
820.684	1062.33
820.866	1034.63
821.048	1038.5
821.231	1091.98
821.413	1049.54
821.595	1011.96
821.777	1022.03
821.959	1024.36
822.141	1096.24
822.323	993.94
822.505	977.47
822.686	981.15
822.868	899
823.05	855.8
823.232	862.58
823.414	799.42
823.596	838.94
823.778	826.54
823.96	865.29
824.141	811.43
824.323	829.45
824.505	886.6
824.687	914.31
824.868	963.13
825.05	1032.88
825.232	1004.4
825.413	1090.43
825.595	1047.41
825.777	982.7
825.958	1011.57
826.14	1009.44
826.321	1027.26
826.503	1040.63
826.685	1019.32
826.866	1053.81
827.048	1053.81
827.229	973.6
827.411	994.13
827.592	937.75
827.773	955
827.955	944.53
828.136	929.03
828.318	876.92
828.499	936.78
828.68	872.65
828.862	927.1
829.043	967.98
829.224	909.47
829.406	920.32
829.587	912.95
829.768	895.32
829.949	912.95
830.131	926.32
830.312	977.86
830.493	918.57
830.674	946.28
830.855	907.92
831.036	891.45
831.218	941.43
831.399	961.97
831.58	928.84
831.761	941.05
831.942	939.11
832.123	917.6
832.304	891.64
832.485	869.36
832.666	922.64
832.847	919.93
833.028	931.17
833.209	905.4
833.389	937.75
833.57	910.05
833.751	867.62
833.932	958.48
834.113	945.12
834.294	906.56
834.475	951.32
834.655	957.9
834.836	985.8
835.017	955.38
835.198	917.99
835.378	929.23
835.559	945.12
835.74	929.03
835.92	890.67
836.101	897.26
836.281	957.9
836.462	944.15
836.643	979.8
836.823	961.58
837.004	988.9
837.184	1015.64
837.365	992.2
837.545	963.33
837.726	958.29
837.906	999.75
838.087	976.89
838.267	957.51
838.448	956.35
838.628	968.95
838.808	993.16
838.989	1024.94
839.169	926.32
839.349	987.55
839.53	981.93
839.71	1020.68
839.89	947.44
840.07	1019.51
840.251	957.9
840.431	970.5
840.611	953.45
840.791	934.65
840.971	977.28
841.151	940.85
841.332	941.43
841.512	987.93
841.692	895.32
841.872	975.73
842.052	940.27
842.232	997.23
842.412	952.28
842.592	947.44
842.772	981.35
842.952	979.02
843.132	965.46
843.312	953.25
843.492	926.71
843.672	957.13
843.851	880.79
844.031	969.72
844.211	924
844.391	936.98
844.571	935.43
844.751	956.93
844.93	941.63
845.11	928.84
845.29	937.75
845.47	978.44
845.649	918.38
845.829	960.61
846.009	886.02
846.188	941.43
846.368	948.22
846.547	905.98
846.727	940.27
846.907	889.12
847.086	915.67
847.266	945.5
847.445	942.6
847.625	928.84
847.804	933.68
847.984	920.12
848.163	887.38
848.343	929.42
848.522	950.93
848.701	912.37
848.881	897.65
849.06	906.95
849.239	922.25
849.419	896.87
849.598	865.1
849.777	864.32
849.957	877.3
850.136	845.14
850.315	844.17
850.494	809.88
850.674	829.06
850.853	886.99
851.032	872.07
851.211	880.02
851.39	837.97
851.569	845.72
851.748	819.18
851.927	888.35
852.107	848.82
852.286	811.24
852.465	829.25
852.644	852.5
852.823	859.29
853.002	836.23
853.181	826.15
853.359	818.21
853.538	818.6
853.717	881.18
853.896	810.65
854.075	765.71
854.254	758.92
854.433	718.24
854.611	737.42
854.79	721.92
854.969	780.82
855.148	771.52
855.327	737.81
855.505	756.6
855.684	748.46
855.863	796.51
856.041	751.56
856.22	783.14
856.399	729.67
856.577	830.8
856.756	800
856.934	892.22
857.113	919.73
857.291	811.62
857.47	793.6
857.648	817.05
857.827	837
858.005	825.38
858.184	769.97
858.362	883.5
858.541	828.67
858.719	782.75
858.898	797.09
859.076	779.07
859.254	830.61
859.433	821.5
859.611	799.42
859.789	749.43
859.967	824.41
860.146	862.97
860.324	761.83
860.502	769.19
860.68	745.17
860.859	768.81
861.037	796.32
861.215	781.01
861.393	790.89
861.571	771.71
861.749	754.47
861.927	796.12
862.105	793.22
862.283	761.25
862.461	749.04
862.639	707.39
862.817	781.01
862.995	753.89
863.173	731.61
863.351	736.06
863.529	776.17
863.707	799.8
863.885	788.18
864.063	705.45
864.241	734.51
864.418	783.92
864.596	751.56
864.774	704.29
864.952	724.82
865.129	757.96
865.307	710.1
865.485	689.37
865.663	759.89
865.84	676.58
866.018	703.32
866.196	620.01
866.373	669.61
866.551	602.57
866.728	610.13
866.906	640.54
867.084	647.13
867.261	668.64
867.439	709.91
867.616	707.39
867.794	690.14
867.971	689.76
868.149	688.98
868.326	740.71
868.503	722.89
868.681	679.88
868.858	686.27
869.035	654.49
869.213	707.39
869.39	658.37
869.567	763.57
869.745	677.74
869.922	707.39
870.099	707.39
870.276	751.56
870.454	672.13
870.631	710.29
870.808	668.25
870.985	714.36
871.162	738
871.339	714.36
871.517	669.61
871.694	668.06
871.871	704.29
872.048	685.88
872.225	682.01
872.402	679.68
872.579	637.44
872.756	671.93
872.933	646.74
873.11	676
873.287	698.86
873.463	666.12
873.64	615.36
873.817	706.42
873.994	651.98
874.171	642.87
874.348	668.64
874.524	614.19
874.701	654.69
874.878	610.13
875.055	650.62
875.231	651.59
875.408	647.52
875.585	602.57
875.762	649.26
875.938	604.31
876.115	607.41
876.291	638.99
876.468	635.7
876.645	610.9
876.821	591.14
876.998	633.18
877.174	625.04
877.351	647.33
877.527	597.92
877.704	631.63
877.88	627.37
878.057	595.01
878.233	673.48
878.409	617.29
878.586	640.16
878.762	588.43
878.938	615.94
879.115	531.85
879.291	586.3
879.467	569.05
879.644	574.09
879.82	620.39
879.996	565.76
880.172	567.31
880.349	596.56
880.525	630.28
880.701	572.73
880.877	559.95
881.053	587.46
881.229	616.71
881.405	614
881.581	570.99
881.757	592.5
881.933	588.23
882.109	588.43
882.285	574.86
882.461	550.26
882.637	590.56
882.813	562.27
882.989	602.96
883.165	615.36
883.341	535.34
883.517	609.74
883.693	580.68
883.869	587.85
884.044	546.38
884.22	590.56
884.396	606.06
884.572	592.69
884.747	604.89
884.923	574.67
885.099	604.51
885.275	628.14
885.45	563.43
885.626	540.96
885.801	559.95
885.977	557.04
886.153	509.96
886.328	569.83
886.504	563.05
886.679	600.25
886.855	564.4
887.03	606.64
887.206	581.65
887.381	595.6
887.557	594.43
887.732	563.43
887.908	604.89
888.083	605.28
888.258	577.96
888.434	558.01
888.609	553.94
888.784	641.13
888.96	557.23
889.135	546.96
889.31	529.53
889.485	555.49
889.661	557.04
889.836	598.7
890.011	574.48
890.186	575.06
890.361	573.51
890.537	546.96
890.712	569.83
890.887	589.78
891.062	570.99
891.237	628.92
891.412	563.43
891.587	579.13
891.762	614
891.937	577.96
892.112	529.33
892.287	578.74
892.462	547.93
892.637	494.65
892.812	505.12
892.987	521
893.161	495.82
893.336	508.41
893.511	546.96
893.686	513.45
893.861	504.73
894.035	532.05
894.21	508.22
894.385	493.49
894.56	513.83
894.734	467.53
894.909	483.42
895.084	526.62
895.258	470.63
895.433	469.85
895.608	458.42
895.782	432.85
895.957	428.97
896.131	436.14
896.306	384.02
896.48	386.35
896.655	391.97
896.829	360.77
897.004	391.97
897.178	380.15
897.353	368.72
897.527	411.92
897.701	373.56
897.876	351.47
898.05	428.97
898.224	400.88
898.399	443.5
898.573	387.7
898.747	298.97
898.921	347.79
899.096	279.98
899.27	314.47
899.444	302.46
899.618	303.42
899.792	308.46
899.967	334.81
900.141	348.57
900.315	295.87
900.489	319.89
900.663	328.03
900.837	351.09
901.011	271.65
901.185	365.04
901.359	341.4
901.533	331.13
901.707	353.02
901.881	319.51
902.055	287.54
902.229	302.26
902.403	375.11
902.576	325.71
902.75	332.68
902.924	445.44
903.098	364.84
903.272	397.78
903.446	407.66
903.619	370.85
903.793	435.95
903.967	378.99
904.14	445.25
904.314	426.26
904.488	421.8
904.661	428.97
904.835	418.51
905.009	440.98
905.182	475.28
905.356	430.13
905.529	424.13
905.703	381.31
905.876	404.56
906.05	359.03
906.223	397.97
906.397	332.49
906.57	300.71
906.744	301.87
906.917	322.99
907.09	313.69
907.264	319.31
907.437	306.14
907.61	261.96
907.784	305.17
907.957	309.04
908.13	268.74
908.304	335.59
908.477	277.66
908.65	329.58
908.823	265.45
908.996	333.26
909.17	290.44
909.343	299.55
909.516	299.55
909.689	290.44
909.862	273.01
910.035	286.18
910.208	266.03
910.381	256.54
910.554	343.92
910.727	278.24
910.9	265.45
911.073	274.94
911.246	325.9
911.419	345.27
911.592	323.57
911.765	273.2
911.938	250.73
912.11	303.42
912.283	271.84
912.456	333.07
912.629	288.51
912.802	260.02
912.974	252.08
913.147	235.81
913.32	192.02
913.493	232.32
913.665	254.99
913.838	265.84
914.01	234.26
914.183	268.94
914.356	214.11
914.528	278.24
914.701	309.43
914.873	281.14
915.046	238.52
915.218	227.67
915.391	170.9
915.563	198.61
915.736	224.96
915.908	264.09
916.081	268.16
916.253	223.21
916.425	258.47
916.598	260.8
916.77	237.74
916.942	225.34
917.115	163.93
917.287	227.28
917.459	221.28
917.632	215.46
917.804	167.22
917.976	253.24
918.148	211.2
918.32	230.19
918.493	261.19
918.665	274.17
918.837	269.32
919.009	281.53
919.181	291.8
919.353	255.18
919.525	261.77
919.697	256.15
919.869	264.67
920.041	293.74
920.213	357.67
920.385	285.41
920.557	260.02
920.729	263.9
920.901	281.14
921.073	249.37
921.244	234.06
921.416	311.76
921.588	255.57
921.76	243.36
921.932	319.12
922.103	249.95
922.275	252.66
922.447	275.91
922.619	211.01
922.79	238.71
922.962	235.61
923.134	274.75
923.305	202.48
923.477	183.49
923.648	229.41
923.82	232.9
923.991	182.33
924.163	161.99
924.335	235.81
924.506	188.14
924.677	264.48
924.849	182.14
925.02	224.57
925.192	256.34
925.363	232.71
925.535	238.91
925.706	207.91
925.877	255.37
926.049	204.81
926.22	218.56
926.391	221.66
926.562	227.67
926.734	176.52
926.905	229.8
927.076	182.91
927.247	204.61
927.419	173.42
927.59	166.25
927.761	189.69
927.932	161.8
928.103	168.96
928.274	155.6
928.445	136.03
928.616	179.43
928.787	160.25
928.958	165.67
929.129	178.65
929.3	158.31
929.471	121.11
929.642	90.3
929.813	77.32
929.984	165.09
930.155	68.02
930.326	137
930.496	106.19
930.667	43.61
930.838	92.24
931.009	58.14
931.18	60.85
931.35	77.32
931.521	79.45
931.692	66.47
931.863	8.73
932.033	65.31
932.204	85.65
932.374	71.12
932.545	11.45
932.716	81.39
932.886	83.52
933.057	10.28
933.227	52.13
933.398	119.56
933.568	-2.5
933.739	14.35
933.909	24.43
934.08	61.05
934.25	-23.43
934.421	-7.15
934.591	1.95
934.761	3.7
934.932	-32.53
935.102	29.08
935.272	-15.29
935.443	31.02
935.613	0.6
935.783	22.88
935.953	16.29
936.123	136.61
936.294	-9.48
936.464	14.93
936.634	11.83
936.804	5.63
936.974	1.57
937.144	44.77
937.314	21.52
937.484	-1.53
937.655	-22.07
937.825	42.06
937.995	-3.08
938.165	50
938.334	12.03
938.504	10.28
938.674	8.15
938.844	9.12
939.014	62.21
939.184	60.66
939.354	56.2
939.524	50
939.694	-0.18
939.863	27.33
940.033	57.37
940.203	62.4
940.373	63.76
940.542	69.57
940.712	44.97
940.882	73.45
941.051	84.3
941.221	72.28
941.391	100.76
941.56	25.4
941.73	7.96
941.899	133.51
942.069	30.24
942.238	60.08
942.408	29.27
942.577	57.75
942.747	23.85
942.916	5.44
943.086	9.7
943.255	70.93
943.425	40.12
943.594	25.2
943.763	-19.94
943.933	27.92
944.102	-35.83
944.271	23.27
944.441	50.2
944.61	14.93
944.779	14.16
944.948	123.63
945.117	0.79
945.287	28.5
945.456	-10.25
945.625	3.5
945.794	25.98
945.963	5.44
946.132	40.9
946.301	6.41
946.47	43.8
946.639	-26.33
946.808	-14.51
946.977	57.75
947.146	60.08
947.315	18.03
947.484	58.53
947.653	19.78
947.822	18.23
947.991	27.92
948.16	72.09
948.329	66.86
948.498	24.04
948.666	9.32
948.835	55.82
949.004	-18.78
949.173	-17.42
949.341	40.12
949.51	51.55
949.679	81.78
949.847	42.25
950.016	111.23
950.185	81.58
950.353	4.67
950.522	26.17
950.69	73.83
950.859	-6.77
951.028	63.76
951.196	28.88
951.365	40.9
951.533	39.93
951.701	41.28
951.87	65.7
952.038	5.44
952.207	32.37
952.375	116.85
952.543	4.28
952.712	18.62
952.88	-9.86
953.048	79.45
953.217	47.68
953.385	17.26
953.553	93.01
953.721	18.81
953.89	40.32
954.058	17.26
954.226	5.44
954.394	38.96
954.562	-18.2
954.73	33.15
954.898	13
955.067	54.07
955.235	8.93
955.403	45.16
955.571	87.01
955.739	34.7
955.907	-28.08
956.075	18.42
956.243	11.06
956.41	60.47
956.578	4.08
956.746	-25.75
956.914	16.1
957.082	49.42
957.25	43.61
957.418	-11.61
957.585	54.27
957.753	96.5
957.921	11.64
958.089	42.25
958.256	73.64
958.424	47.68
958.592	16.48
958.759	33.34
958.927	46.52
959.095	16.48
959.262	19.2
959.43	50.78
959.597	21.52
959.765	43.61
959.932	-2.5
960.1	57.75
960.267	2.15
960.435	23.07
960.602	54.27
960.77	26.17
960.937	-5.99
961.104	24.43
961.272	-24.4
961.439	27.92
961.606	25.4
961.774	72.28
961.941	19.2
962.108	64.53
962.275	31.79
962.443	28.5
962.61	39.73
962.777	117.23
962.944	55.04
963.111	53.68
963.278	27.72
963.446	36.63
963.613	26.37
963.78	58.92
963.947	52.91
964.114	31.6
964.281	107.55
964.448	56.4
964.615	21.91
964.782	55.62
964.949	82.16
965.116	34.89
965.282	87.2
965.449	26.75
965.616	20.55
965.783	59.5
965.95	47.29
966.117	40.9
966.283	61.43
966.45	48.07
966.617	29.85
966.784	63.76
966.95	46.71
967.117	59.3
967.284	32.18
967.45	24.82
967.617	64.92
967.784	64.73
967.95	101.54
968.117	32.76
968.283	77.71
968.45	148.23
968.616	63.95
968.783	101.15
968.949	61.24
969.116	59.11
969.282	58.72
969.449	86.04
969.615	49.81
969.781	23.27
969.948	45.16
970.114	35.08
970.28	87.2
970.447	50.97
970.613	87.98
970.779	44.77
970.945	86.04
971.112	68.99
971.278	32.95
971.444	45.16
971.61	96.7
971.776	38.18
971.942	55.82
972.108	68.22
972.275	41.87
972.441	73.25
972.607	120.91
972.773	19.78
972.939	90.3
973.105	80.42
973.271	34.7
973.437	24.82
973.602	13.97
973.768	78.1
973.934	35.86
974.1	78.87
974.266	-4.25
974.432	60.08
974.598	34.5
974.763	71.51
974.929	46.9
975.095	109.68
975.261	36.83
975.426	23.27
975.592	47.29
975.758	104.25
975.923	15.52
976.089	34.31
976.255	47.1
976.42	49.03
976.586	68.41
976.751	54.65
976.917	121.3
977.082	52.91
977.248	31.02
977.413	7.18
977.579	52.33
977.744	55.82
977.91	19
978.075	14.35
978.24	72.09
978.406	49.23
978.571	37.41
978.736	45.16
978.902	54.27
979.067	19.2
979.232	-16.45
979.397	59.88
979.563	106
979.728	22.1
979.893	38.38
980.058	21.33
980.223	93.21
980.388	40.7
980.554	31.02
980.719	24.23
980.884	42.83
981.049	78.68
981.214	17.45
981.379	34.31
981.544	21.72
981.709	53.3
981.874	49.03
982.039	45.16
982.204	69.77
982.368	44.97
982.533	14.55
982.698	69.96
982.863	87.4
983.028	16.29
983.193	58.33
983.357	57.75
983.522	34.89
983.687	41.09
983.852	23.65
984.016	28.5
984.181	69.18
984.346	51.36
984.51	53.1
984.675	42.45
984.839	60.47
985.004	54.46
985.168	83.91
985.333	55.43
985.498	40.12
985.662	79.84
985.827	50.78
985.991	31.79
986.155	35.08
986.32	48.07
986.484	87.98
986.649	58.92
986.813	-0.18
986.977	37.99
987.142	59.88
987.306	15.9
987.47	11.45
987.634	29.08
987.799	41.09
987.963	48.45
988.127	81.39
988.291	108.71
988.455	51.55
988.62	48.45
988.784	56.01
988.948	74.61
989.112	37.02
989.276	52.72
989.44	47.87
989.604	40.7
989.768	34.12
989.932	81.58
990.096	10.28
990.26	-3.47
990.424	-4.25
990.588	19.2
990.752	105.8
990.915	80.23
991.079	60.85
991.243	1.18
991.407	77.71
991.571	46.13
991.734	72.28
991.898	91.46
992.062	122.66
992.226	40.12
992.389	-8.31
992.553	0.79
992.717	27.53
992.88	12.03
993.044	27.72
993.207	55.43
993.371	50.58
993.535	66.47
993.698	37.22
993.862	51.75
994.025	75.19
994.189	45.16
994.352	47.87
994.515	52.91
994.679	48.84
994.842	42.06
995.006	54.65
995.169	33.15
995.332	16.68
995.496	58.92
995.659	-0.76
995.822	23.85
995.985	24.04
996.149	54.27
996.312	52.72
996.475	69.38
996.638	-13.16
996.801	89.33
996.964	108.51
997.128	29.66
997.291	5.63
997.454	33.53
997.617	-36.8
997.78	82.94
997.943	18.03
998.106	88.75
998.269	32.95
998.432	7.57
998.595	43.03
998.758	2.73
998.92	15.9
999.083	4.47
999.246	10.87
999.409	6.99
999.572	-31.18
999.735	-4.05
999.897	38.38
1000.06	21.91
1000.223	20.36
1000.386	68.22
1000.548	41.67
1000.711	50.78
1000.874	47.1
1001.036	5.05
1001.199	68.99
1001.361	5.44
1001.524	-0.18
1001.687	36.63
1001.849	35.47
1002.012	47.1
1002.174	21.91
1002.337	52.91
1002.499	5.83
1002.661	75.58
1002.824	-13.35
1002.986	6.41
1003.149	9.9
1003.311	10.87
1003.473	98.25
1003.636	1.76
1003.798	49.42
1003.96	42.83
1004.123	28.11
1004.285	10.48
1004.447	34.12
1004.609	42.64
1004.771	93.98
1004.933	-19.75
1005.096	-1.92
1005.258	-13.16
1005.42	12.42
1005.582	62.98
1005.744	73.45
1005.906	-30.01
1006.068	31.4
1006.23	0.4
1006.392	-14.9
1006.554	11.25
1006.716	58.14
1006.878	52.72
1007.04	-5.6
1007.202	6.02
1007.363	53.49
1007.525	19.97
1007.687	59.11
1007.849	59.69
1008.011	-26.33
1008.172	9.32
1008.334	1.57
1008.496	25.4
1008.658	-33.89
1008.819	5.83
1008.981	-19.55
1009.143	-18.58
1009.304	6.6
1009.466	49.23
1009.627	72.48
1009.789	102.31
1009.95	30.43
1010.112	17.26
1010.273	11.83
1010.435	9.7
1010.596	-1.92
1010.758	6.99
1010.919	9.9
1011.081	3.7
1011.242	-0.57
1011.403	19.58
1011.565	3.89
1011.726	42.25
1011.887	6.8
1012.049	-12.38
1012.21	39.54
1012.371	49.42
1012.532	-24.2
1012.693	8.54
1012.855	-42.41
1013.016	7.38
1013.177	57.56
1013.338	0.6
1013.499	52.72
1013.66	68.6
1013.821	31.4
1013.982	17.84
1014.143	18.62
1014.304	-1.53
1014.465	18.62
1014.626	42.64
1014.787	-9.67
1014.948	86.62
1015.109	-52.3
1015.27	45.35
1015.431	-3.67
1015.592	-7.15
1015.752	51.75
1015.913	11.06
1016.074	20.94
1016.235	39.73
1016.395	1.37
1016.556	15.52
1016.717	11.64
1016.877	73.06
1017.038	-0.57
1017.199	34.5
1017.359	5.44
1017.52	16.48
1017.681	16.87
1017.841	20.75
1018.002	18.42
1018.162	29.66
1018.323	66.47
1018.483	7.77
1018.644	-5.22
1018.804	-2.89
1018.964	-17.23
1019.125	30.63
1019.285	20.94
1019.446	-16.84
1019.606	3.12
1019.766	-35.44
1019.926	33.92
1020.087	43.61
1020.247	-42.61
1020.407	47.48
1020.567	58.14
1020.728	0.6
1020.888	0.4
1021.048	-0.18
1021.208	-10.83
1021.368	1.18
1021.528	53.68
1021.688	47.1
1021.848	49.03
1022.008	5.05
1022.168	13
1022.328	23.07
1022.488	25.98
1022.648	-0.37
1022.808	0.79
1022.968	16.48
1023.128	-23.04
1023.288	0.79
1023.448	-2.5
1023.608	46.52
1023.767	31.4
1023.927	-12.58
1024.087	-15.1
1024.247	-18.58
1024.406	-1.92
1024.566	-21.3
1024.726	-24.4
1024.885	9.9
1025.045	18.42
1025.205	8.54
1025.364	27.14
1025.524	19.39
1025.683	-9.09
1025.843	6.41
1026.003	-15.29
1026.162	64.34
1026.321	44.97
1026.481	-5.8
1026.64	6.22
1026.8	-7.15
1026.959	6.41
1027.119	20.55
1027.278	-7.54
1027.437	-2.89
1027.597	-4.44
1027.756	23.85
1027.915	18.23
1028.074	14.55
1028.234	-16.45
1028.393	24.43
1028.552	3.89
1028.711	-62.56
1028.87	49.62
1029.03	-3.08
1029.189	0.79
1029.348	-49.2
1029.507	-4.63
1029.666	-8.9
1029.825	-27.88
1029.984	-20.13
1030.143	6.8
1030.302	-17.03
1030.461	-49.2
1030.62	21.13
1030.779	42.45
1030.938	-15.29
1031.097	-18.2
1031.255	7.18
1031.414	51.55
1031.573	65.31
1031.732	-46.68
1031.891	-5.6
1032.049	35.28
1032.208	7.57
1032.367	-30.79
1032.525	-8.7
1032.684	-4.25
1032.843	4.47
1033.001	-40.09
1033.16	130.41
1033.319	38.57
1033.477	28.88
1033.636	-22.07
1033.794	-38.93
1033.953	32.76
1034.111	21.52
1034.27	-24.78
1034.428	45.74
1034.587	-5.02
1034.745	5.63
1034.903	2.34
1035.062	32.18
1035.22	-52.49
1035.378	8.15
1035.537	-30.21
1035.695	29.66
1035.853	10.28
1036.011	33.34
1036.17	9.7
1036.328	-66.05
1036.486	-0.18
1036.644	-9.67
1036.802	-78.84
1036.96	-12.19
1037.119	16.29
1037.277	-17.23
1037.435	-30.01
1037.593	-24.01
1037.751	-10.06
1037.909	43.8
1038.067	43.8
