Data from oakcork_FLMT105791__173__17-31-46-057.txt Node

Date: Mon Mar 20 17:31:46 GMT 2023
User: antho
Spectrometer: FLMT10579
Trigger mode: 0
Integration Time (sec): 1.000000E-1
Scans to average: 10
Electric dark correction enabled: true
Nonlinearity correction enabled: false
Boxcar width: 0
XAxis mode: Wavelengths
Number of Pixels in Spectrum: 3648
>>>>>Begin Spectral Data<<<<<
345.248	-121.56
345.464	-121.56
345.681	-121.56
345.898	-158.76
346.114	-158.95
346.331	-46.39
346.548	25.69
346.764	-2.99
346.981	16.19
347.197	-31.08
347.414	28.59
347.631	-41.93
347.847	45.84
348.064	-6.86
348.28	31.5
348.497	-23.91
348.713	5.34
348.93	17.74
349.146	16
349.363	-14.42
349.579	-0.08
349.796	16.78
350.012	-19.65
350.229	44.29
350.445	23.17
350.661	-13.64
350.878	-15.19
351.094	7.48
351.311	3.21
351.527	39.83
351.743	-9.77
351.96	21.62
352.176	11.16
352.392	21.81
352.609	44.87
352.825	-25.66
353.041	-12.09
353.257	5.15
353.474	-6.28
353.69	-7.44
353.906	0.11
354.122	-27.01
354.339	33.05
354.555	7.86
354.771	9.61
354.987	36.73
355.203	56.49
355.42	-22.56
355.636	-40.77
355.852	-8.61
356.068	11.93
356.284	-8.02
356.5	46.03
356.716	30.92
356.932	7.48
357.148	18.91
357.364	6.31
357.58	38.86
357.796	56.49
358.012	39.06
358.228	45.06
358.444	-52.59
358.66	36.92
358.876	23.56
359.092	-15.19
359.308	0.5
359.524	27.82
359.74	-28.76
359.956	-24.11
360.172	-0.66
360.388	46.61
360.604	-3.76
360.819	69.47
361.035	-0.08
361.251	27.24
361.467	-29.34
361.683	47.77
361.898	-0.27
362.114	32.08
362.33	17.16
362.546	36.15
362.762	19.68
362.977	6.7
363.193	-22.17
363.409	34.79
363.624	-18.29
363.84	-3.57
364.056	-17.32
364.271	12.51
364.487	35.38
364.703	-33.79
364.918	-25.66
365.134	-6.67
365.35	-0.08
365.565	105.51
365.781	32.86
365.996	3.99
366.212	34.21
366.427	17.74
366.643	-8.41
366.858	-25.66
367.074	-11.12
367.289	69.47
367.505	94.27
367.72	-33.6
367.936	-13.64
368.151	31.89
368.367	23.17
368.582	4.38
368.798	-7.44
369.013	39.44
369.228	9.99
369.444	29.37
369.659	54.17
369.874	16.58
370.09	34.21
370.305	-38.06
370.52	-30.5
370.736	40.99
370.951	-23.91
371.166	36.15
371.381	71.8
371.597	26.27
371.812	-33.41
372.027	-21.59
372.242	0.31
372.458	82.65
372.673	21.23
372.888	11.35
373.103	34.41
373.318	51.84
373.533	37.12
373.749	5.15
373.964	-55.88
374.179	48.94
374.394	-30.89
374.609	82.26
374.824	-26.04
375.039	45.84
375.254	-37.67
375.469	57.27
375.684	26.27
375.899	31.5
376.114	6.89
376.329	12.32
376.544	52.23
376.759	46.61
376.974	1.66
377.189	15.81
377.404	-5.12
377.619	46.81
377.834	-29.14
378.049	-14.61
378.264	-43.48
378.478	4.18
378.693	-9.19
378.908	12.32
379.123	-27.79
379.338	58.43
379.553	27.43
379.767	2.44
379.982	40.22
380.197	12.9
380.412	25.11
380.626	16.58
380.841	78.77
381.056	16.78
381.271	55.72
381.485	4.18
381.7	-31.86
381.915	8.64
382.129	7.67
382.344	41.77
382.559	-2.21
382.773	22.39
382.988	-34.37
383.202	35.76
383.417	-19.26
383.632	103.19
383.846	20.46
384.061	24.72
384.275	12.13
384.49	40.02
384.704	33.05
384.919	44.48
385.133	6.12
385.348	57.46
385.562	-24.3
385.777	54.56
385.991	3.21
386.206	-0.47
386.42	-18.68
386.634	69.67
386.849	20.65
387.063	17.16
387.277	7.48
387.492	1.28
387.706	-16.74
387.92	-19.65
388.135	53.39
388.349	40.8
388.563	11.16
388.778	-2.41
388.992	45.45
389.206	47.19
389.42	88.66
389.635	26.27
389.849	30.53
390.063	38.47
390.277	25.11
390.491	53.59
390.706	33.44
390.92	41.77
391.134	26.85
391.348	41.38
391.562	-36.51
391.776	6.51
391.99	-15.19
392.205	38.47
392.419	9.99
392.633	11.74
392.847	58.04
393.061	-3.18
393.275	78.97
393.489	18.71
393.703	29.18
393.917	64.44
394.131	-23.52
394.345	35.96
394.559	46.61
394.773	32.47
394.986	40.41
395.2	28.21
395.414	29.18
395.628	-17.32
395.842	35.38
396.056	6.89
396.27	-18.87
396.484	42.93
396.697	16.39
396.911	51.84
397.125	70.25
397.339	73.93
397.553	33.63
397.766	59.4
397.98	37.12
398.194	51.07
398.408	14.64
398.621	14.64
398.835	37.7
399.049	17.36
399.262	52.81
399.476	50.68
399.69	78.97
399.903	73.54
400.117	22.78
400.331	38.47
400.544	0.69
400.758	106.87
400.971	28.4
401.185	27.82
401.398	5.73
401.612	82.46
401.826	59.98
402.039	11.54
402.253	-5.7
402.466	42.74
402.68	-12.67
402.893	27.63
403.106	30.92
403.32	9.8
403.533	51.84
403.747	16.39
403.96	23.94
404.174	36.34
404.387	-39.41
404.6	6.89
404.814	55.91
405.027	40.61
405.24	35.38
405.454	24.14
405.667	62.11
405.88	-46
406.094	36.15
406.307	37.51
406.52	33.05
406.733	-3.37
406.947	-42.32
407.16	66.96
407.373	65.41
407.586	-1.05
407.799	-5.89
408.012	47.39
408.226	33.24
408.439	53.39
408.652	-17.91
408.865	20.26
409.078	62.89
409.291	22.2
409.504	-12.09
409.717	34.41
409.93	30.14
410.143	25.69
410.357	2.24
410.57	-9.19
410.783	-4.15
410.996	15.81
411.209	7.09
411.421	63.66
411.634	12.9
411.847	-8.61
412.06	13.87
412.273	10.77
412.486	22.98
412.699	100.67
412.912	17.36
413.125	38.47
413.338	14.26
413.55	45.64
413.763	40.22
413.976	31.31
414.189	8.83
414.402	-5.51
414.615	78.58
414.827	-7.06
415.04	41.57
415.253	66.18
415.466	65.21
415.678	74.51
415.891	44.29
416.104	26.85
416.316	14.26
416.529	7.28
416.742	47.19
416.954	47.19
417.167	26.27
417.38	29.95
417.592	71.02
417.805	-27.01
418.017	-4.54
418.23	39.64
418.442	14.26
418.655	22.2
418.868	30.34
419.08	57.46
419.293	60.95
419.505	37.31
419.718	54.94
419.93	42.35
420.142	25.11
420.355	100.09
420.567	63.47
420.78	43.12
420.992	40.99
421.205	95.24
421.417	-19.07
421.629	28.4
421.842	4.76
422.054	-14.03
422.266	53.39
422.479	63.86
422.691	36.92
422.903	60.95
423.115	0.31
423.328	42.74
423.54	41.19
423.752	38.28
423.964	10.96
424.177	41.19
424.389	16.97
424.601	109.77
424.813	30.92
425.025	70.83
425.238	57.27
425.45	13.48
425.662	49.52
425.874	305.46
426.086	29.37
426.298	38.28
426.51	44.48
426.722	27.24
426.934	6.51
427.146	85.56
427.358	-3.57
427.57	51.07
427.782	21.43
427.994	45.84
428.206	21.81
428.418	-4.92
428.63	62.89
428.842	57.46
429.054	56.3
429.266	72.19
429.478	1.86
429.69	37.31
429.902	-2.02
430.114	57.07
430.325	66.76
430.537	17.74
430.749	41.57
430.961	-9.19
431.173	19.29
431.384	65.02
431.596	-23.91
431.808	33.83
432.02	36.34
432.231	40.02
432.443	61.53
432.655	20.46
432.867	23.94
433.078	42.35
433.29	109.77
433.502	60.17
433.713	75.29
433.925	45.06
434.136	56.11
434.348	-2.99
434.56	-22.56
434.771	114.62
434.983	3.6
435.194	19.1
435.406	18.71
435.617	69.09
435.829	88.07
436.04	63.08
436.252	70.25
436.463	76.64
436.675	85.36
436.886	39.25
437.098	31.31
437.309	53.59
437.521	40.99
437.732	23.94
437.943	62.31
438.155	36.34
438.366	-4.54
438.578	98.54
438.789	41.77
439	65.6
439.211	25.88
439.423	52.04
439.634	91.56
439.845	70.83
440.057	45.64
440.268	95.05
440.479	58.24
440.69	29.76
440.902	39.64
441.113	43.71
441.324	34.41
441.535	49.71
441.746	104.74
441.957	5.93
442.168	37.51
442.38	84.59
442.591	72.38
442.802	36.92
443.013	22.39
443.224	34.02
443.435	13.29
443.646	29.56
443.857	43.71
444.068	21.62
444.279	19.88
444.49	116.36
444.701	34.02
444.912	131.09
445.123	81.68
445.334	62.11
445.545	61.34
445.756	47.19
445.967	41.19
446.178	75.67
446.388	82.46
446.599	85.17
446.81	77.42
447.021	40.02
447.232	70.83
447.443	78.58
447.653	39.83
447.864	69.47
448.075	29.95
448.286	71.99
448.496	62.11
448.707	77.42
448.918	22.59
449.129	127.4
449.339	52.04
449.55	87.69
449.761	64.24
449.971	119.66
450.182	63.66
450.393	65.99
450.603	24.91
450.814	105.51
451.024	74.9
451.235	77.03
451.446	112.68
451.656	106.09
451.867	61.34
452.077	67.92
452.288	121.21
452.498	101.06
452.709	64.24
452.919	102.41
453.13	48.16
453.34	97.96
453.55	49.91
453.761	106.48
453.971	111.91
454.182	79.16
454.392	97.76
454.602	127.02
454.813	70.25
455.023	118.49
455.233	33.24
455.444	84.2
455.654	9.8
455.864	64.24
456.075	83.62
456.285	73.16
456.495	56.49
456.705	63.08
456.916	97.37
457.126	121.98
457.336	77.03
457.546	18.52
457.756	45.64
457.967	103.19
458.177	71.22
458.387	71.99
458.597	57.85
458.807	56.11
459.017	42.16
459.227	53.59
459.437	71.02
459.647	106.87
459.857	94.27
460.068	68.31
460.278	113.46
460.488	113.65
460.698	117.72
460.908	78.19
461.117	28.79
461.327	41.19
461.537	64.63
461.747	64.05
461.957	71.02
462.167	168.48
462.377	103.19
462.587	75.87
462.797	138.06
463.007	74.12
463.216	102.8
463.426	103.57
463.636	127.21
463.846	34.21
464.056	46.81
464.265	104.74
464.475	69.09
464.685	80.32
464.895	107.45
465.104	73.35
465.314	105.32
465.524	77.61
465.733	67.54
465.943	153.75
466.153	135.35
466.362	102.41
466.572	74.9
466.782	55.52
466.991	82.26
467.201	159.95
467.41	46.03
467.62	132.25
467.829	82.07
468.039	104.35
468.249	57.07
468.458	75.29
468.668	126.24
468.877	103.96
469.086	134.19
469.296	118.11
469.505	50.87
469.715	156.27
469.924	106.87
470.134	98.92
470.343	141.55
470.552	86.14
470.762	122.17
470.971	64.82
471.18	90.59
471.39	74.51
471.599	66.76
471.808	140.58
472.018	78.58
472.227	153.17
472.436	111.71
472.645	97.57
472.855	101.64
473.064	137.87
473.273	93.31
473.482	129.54
473.691	137.67
473.901	136.51
474.11	92.34
474.319	179.14
474.528	91.17
474.737	143.87
474.946	118.3
475.155	114.62
475.364	153.56
475.573	119.46
475.783	116.17
475.992	130.31
476.201	145.04
476.41	81.1
476.619	71.61
476.828	114.42
477.037	88.27
477.245	120.24
477.454	148.14
477.663	103.77
477.872	79.94
478.081	160.15
478.29	76.64
478.499	184.37
478.708	133.41
478.917	150.85
479.125	109.77
479.334	129.92
479.543	86.91
479.752	136.7
479.961	133.41
480.169	141.16
480.378	113.65
480.587	207.42
480.796	144.26
481.004	124.69
481.213	168.48
481.422	121.4
481.63	119.66
481.839	139.03
482.048	189.6
482.256	137.29
482.465	147.75
482.674	186.5
482.882	141.55
483.091	183.59
483.299	162.09
483.508	170.8
483.716	142.13
483.925	154.72
484.134	108.22
484.342	147.94
484.551	195.02
484.759	148.91
484.967	151.04
485.176	178.75
485.384	157.44
485.593	190.95
485.801	174.68
486.01	162.09
486.218	158.99
486.426	114.04
486.635	106.67
486.843	159.57
487.051	129.73
487.26	150.46
487.468	168.29
487.676	164.99
487.885	135.35
488.093	144.84
488.301	148.14
488.509	150.85
488.717	190.57
488.926	153.95
489.134	132.64
489.342	151.24
489.55	127.6
489.758	173.71
489.967	135.35
490.175	218.66
490.383	132.44
490.591	216.72
490.799	128.57
491.007	190.95
491.215	175.65
491.423	150.65
491.631	162.28
491.839	179.14
492.047	211.1
492.255	145.04
492.463	147.75
492.671	142.52
492.879	208.39
493.087	150.46
493.295	158.99
493.503	181.07
493.711	188.05
493.919	201.8
494.127	190.37
494.334	202
494.542	134.96
494.75	186.5
494.958	166.54
495.166	217.11
495.374	163.44
495.581	188.05
495.789	186.5
495.997	241.91
496.205	189.6
496.412	179.91
496.62	153.56
496.828	188.63
497.035	184.17
497.243	208.2
497.451	180.1
497.658	202.77
497.866	171.58
498.074	224.67
498.281	179.52
498.489	251.4
498.696	218.27
498.904	196.19
499.112	183.98
499.319	259.35
499.527	171.58
499.734	253.92
499.942	176.23
500.149	190.57
500.357	183.01
500.564	165.77
500.771	238.42
500.979	162.86
501.186	186.11
501.394	198.7
501.601	208.2
501.808	243.46
502.016	222.15
502.223	196.96
502.43	186.69
502.638	207.81
502.845	186.89
503.052	257.02
503.26	195.6
503.467	239.2
503.674	196.96
503.881	224.47
504.089	277.37
504.296	252.57
504.503	190.57
504.71	236.1
504.917	159.37
505.125	239.58
505.332	220.4
505.539	231.83
505.746	239.78
505.953	223.12
506.16	214.01
506.367	273.68
506.574	250.63
506.781	258.18
506.988	160.73
507.195	219.82
507.402	202.39
507.609	245.98
507.816	228.15
508.023	224.86
508.23	222.92
508.437	188.63
508.644	272.33
508.851	296.74
509.058	268.07
509.265	224.28
509.472	218.47
509.679	304.49
509.885	233.97
510.092	234.93
510.299	216.92
510.506	260.9
510.713	241.52
510.92	221.95
511.126	243.46
511.333	270.97
511.54	249.85
511.746	297.52
511.953	272.91
512.16	264.38
512.367	254.89
512.573	234.16
512.78	272.33
512.987	244.23
513.193	259.15
513.4	198.7
513.606	257.8
513.813	262.45
514.02	246.56
514.226	318.63
514.433	321.35
514.639	235.13
514.846	267.1
515.052	244.82
515.259	246.17
515.465	271.36
515.672	279.88
515.878	317.47
516.085	258.96
516.291	307.98
516.497	241.91
516.704	247.53
516.91	255.08
517.117	251.98
517.323	226.22
517.529	253.73
517.736	268.84
517.942	268.26
518.148	241.13
518.354	278.92
518.561	273.49
518.767	291.12
518.973	349.63
519.179	317.28
519.386	241.13
519.592	233.97
519.798	258.38
520.004	336.85
520.21	280.85
520.417	269.03
520.623	334.91
520.829	328.51
521.035	304.3
521.241	333.16
521.447	329.68
521.653	414.73
521.859	291.9
522.065	312.24
522.271	416.09
522.477	332
522.683	357.96
522.889	338.01
523.095	353.7
523.301	348.86
523.507	328.13
523.713	372.11
523.919	322.12
524.125	383.54
524.331	335.3
524.537	404.66
524.742	355.45
524.948	406.79
525.154	370.56
525.36	461.62
525.566	364.75
525.772	409.11
525.977	307.4
526.183	406.21
526.389	430.43
526.595	350.41
526.8	372.3
527.006	352.93
527.212	324.06
527.417	350.6
527.623	327.55
527.829	397.88
528.034	376.18
528.24	383.15
528.446	327.93
528.651	387.99
528.857	393.03
529.062	469.37
529.268	379.66
529.473	423.06
529.679	370.17
529.884	437.21
530.09	428.1
530.295	492.81
530.501	432.94
530.706	436.04
530.912	375.98
531.117	390.32
531.323	425.78
531.528	439.92
531.733	424.03
531.939	402.72
532.144	442.44
532.35	431.2
532.555	469.37
532.76	447.48
532.966	482.35
533.171	462.2
533.376	418.41
533.581	378.7
533.787	449.41
533.992	472.28
534.197	459.68
534.402	408.34
534.607	415.51
534.813	555.59
535.018	437.59
535.223	418.8
535.428	485.45
535.633	501.14
535.838	473.05
536.043	468.98
536.249	523.23
536.454	473.44
536.659	467.63
536.864	429.65
537.069	450.77
537.274	471.69
537.479	482.93
537.684	492.81
537.889	439.92
538.094	571.47
538.299	470.14
538.504	483.32
538.708	483.32
538.913	490.68
539.118	504.44
539.323	502.11
539.528	484.67
539.733	473.82
539.938	536.41
540.142	505.02
540.347	472.86
540.552	490.87
540.757	483.32
540.962	494.94
541.166	428.88
541.371	443.99
541.576	481.57
541.781	394.78
541.985	492.04
542.19	475.37
542.395	545.32
542.599	546.29
542.804	498.62
543.008	552.29
543.213	460.65
543.418	469.37
543.622	502.11
543.827	452.13
544.031	538.92
544.236	536.02
544.44	446.31
544.645	562.56
544.849	491.65
545.054	514.9
545.258	592.59
545.463	559.66
545.667	479.06
545.872	520.32
546.076	525.75
546.281	521.68
546.485	475.96
546.689	558.88
546.894	555.97
547.098	517.81
547.302	507.34
547.507	518.97
547.711	533.69
547.915	578.45
548.119	501.34
548.324	493.39
548.528	573.02
548.732	530.01
548.936	541.44
549.141	547.64
549.345	533.89
549.549	523.23
549.753	512.96
549.957	596.27
550.161	575.35
550.366	531.56
550.57	500.95
550.774	550.36
550.978	511.8
551.182	557.14
551.386	520.71
551.59	504.63
551.794	518.19
551.998	554.42
552.202	508.89
552.406	523.04
552.61	525.75
552.814	540.67
553.018	579.8
553.222	529.04
553.426	544.54
553.63	606.74
553.833	503.86
554.037	518.58
554.241	584.26
554.445	525.17
554.649	526.52
554.853	533.31
555.056	578.25
555.26	560.62
555.464	556.94
555.668	539.89
555.871	576.12
556.075	571.09
556.279	515.29
556.483	526.33
556.686	503.86
556.89	553.26
557.094	528.27
557.297	486.81
557.501	573.41
557.704	469.18
557.908	542.99
558.112	511.02
558.315	599.57
558.519	530.21
558.722	538.73
558.926	527.88
559.129	521.1
559.333	432.75
559.536	490.29
559.74	505.79
559.943	493.01
560.147	474.79
560.35	530.21
560.553	465.69
560.757	443.21
560.96	550.55
561.164	473.82
561.367	570.5
561.57	501.92
561.774	520.91
561.977	491.46
562.18	483.12
562.384	572.44
562.587	513.54
562.79	476.92
562.993	513.93
563.197	538.54
563.4	551.52
563.603	537.37
563.806	560.62
564.009	482.54
564.212	509.47
564.416	440.89
564.619	516.26
564.822	451.93
565.025	518
565.228	484.67
565.431	527.69
565.634	429.07
565.837	457.16
566.04	452.51
566.243	466.85
566.446	428.29
566.649	499.79
566.852	413.57
567.055	453.48
567.258	479.06
567.461	511.61
567.664	517.22
567.867	399.43
568.07	485.45
568.273	464.72
568.475	495.33
568.678	450.38
568.881	440.31
569.084	481.38
569.287	381.21
569.489	415.12
569.692	465.3
569.895	470.34
570.098	409.11
570.3	412.02
570.503	370.95
570.706	399.04
570.909	387.8
571.111	381.8
571.314	383.54
571.516	424.03
571.719	428.88
571.922	383.35
572.124	383.93
572.327	415.7
572.529	352.15
572.732	355.64
572.935	411.44
573.137	437.79
573.34	385.28
573.542	413.57
573.745	409.11
573.947	420.16
574.15	386.25
574.352	371.72
574.554	452.13
574.757	354.09
574.959	364.16
575.162	377.92
575.364	357.58
575.566	480.61
575.769	355.83
575.971	392.45
576.173	316.11
576.376	372.69
576.578	378.89
576.78	441.86
576.982	317.66
577.185	396.91
577.387	357.38
577.589	327.16
577.791	389.74
577.993	385.48
578.196	360.1
578.398	392.64
578.6	418.41
578.802	329.68
579.004	336.26
579.206	340.72
579.408	354.48
579.61	325.41
579.812	374.05
580.014	347.89
580.216	332.58
580.418	327.16
580.62	327.74
580.822	287.44
581.024	356.22
581.226	394.78
581.428	341.88
581.63	397.1
581.832	308.56
582.034	365.71
582.236	344.4
582.438	368.04
582.64	389.93
582.841	450.19
583.043	440.31
583.245	385.09
583.447	363
583.649	350.21
583.85	364.36
584.052	371.72
584.254	311.27
584.456	376.76
584.657	323.86
584.859	351.18
585.061	338.78
585.262	323.09
585.464	307.01
585.666	369.78
585.867	327.35
586.069	386.64
586.27	379.66
586.472	357.19
586.674	367.07
586.875	340.53
587.077	339.75
587.278	333.36
587.48	329.68
587.681	436.63
587.883	346.15
588.084	304.88
588.285	296.35
588.487	324.25
588.688	342.85
588.89	274.85
589.091	293.25
589.292	330.65
589.494	307.01
589.695	301.97
589.896	267.48
590.098	254.31
590.299	316.7
590.5	283.95
590.702	295.58
590.903	264.77
591.104	374.63
591.305	325.22
591.507	365.91
591.708	306.62
591.909	308.17
592.11	412.41
592.311	359.71
592.512	315.15
592.714	266.32
592.915	287.83
593.116	279.11
593.317	309.14
593.518	315.15
593.719	271.94
593.92	323.28
594.121	350.6
594.322	324.83
594.523	319.41
594.724	269.81
594.925	313.01
595.126	318.44
595.327	333.75
595.528	325.61
595.729	330.45
595.929	328.71
596.13	336.26
596.331	309.33
596.532	317.86
596.733	361.26
596.934	345.37
597.135	340.72
597.335	309.14
597.536	289.96
597.737	308.36
597.938	289.77
598.138	317.66
598.339	287.44
598.54	322.7
598.74	310.3
598.941	334.13
599.142	373.46
599.342	319.99
599.543	288.22
599.744	299.26
599.944	290.93
600.145	307.78
600.345	322.12
600.546	392.84
600.746	340.91
600.947	390.32
601.147	338.98
601.348	348.47
601.548	271.75
601.749	315.73
601.949	292.67
602.15	267.68
602.35	314.76
602.551	351.38
602.751	261.67
602.951	295.38
603.152	257.02
603.352	321.15
603.552	291.9
603.753	300.42
603.953	314.95
604.153	321.54
604.354	310.11
604.554	318.83
604.754	286.08
604.954	250.05
605.155	319.99
605.355	292.67
605.555	326
605.755	362.61
605.955	322.9
606.155	349.63
606.356	303.91
606.556	321.54
606.756	314.56
606.956	260.32
607.156	351.76
607.356	275.62
607.556	328.51
607.756	299.45
607.956	345.76
608.156	323.28
608.356	286.47
608.556	333.55
608.756	350.41
608.956	284.15
609.156	301
609.356	282.98
609.556	288.8
609.755	317.86
609.955	257.8
610.155	283.76
610.355	317.47
610.555	261.28
610.755	306.43
610.954	248.69
611.154	303.71
611.354	312.63
611.554	248.11
611.753	274.65
611.953	256.25
612.153	305.46
612.352	302.36
612.552	276.98
612.752	235.52
612.951	292.09
613.151	300.81
613.351	251.98
613.55	314.37
613.75	291.51
613.949	285.31
614.149	303.33
614.348	292.28
614.548	249.66
614.747	223.31
614.947	269.03
615.146	211.1
615.346	299.06
615.545	297.52
615.745	299.26
615.944	261.48
616.144	287.63
616.343	340.53
616.542	249.66
616.742	280.08
616.941	270.39
617.14	233.58
617.34	271.17
617.539	275.82
617.738	240.17
617.938	324.64
618.137	236.1
618.336	224.47
618.535	295.58
618.734	264.38
618.934	277.95
619.133	279.3
619.332	275.23
619.531	261.09
619.73	254.5
619.929	291.7
620.128	256.83
620.328	328.71
620.527	248.69
620.726	230.09
620.925	258.77
621.124	239.39
621.323	266.32
621.522	235.9
621.721	243.46
621.92	250.43
622.119	280.27
622.318	224.08
622.517	261.09
622.715	246.37
622.914	213.23
623.113	256.63
623.312	226.41
623.511	269.42
623.71	236.87
623.909	259.54
624.107	290.35
624.306	202.97
624.505	225.63
624.704	241.72
624.902	238.03
625.101	284.53
625.3	275.82
625.499	218.66
625.697	233.97
625.896	242.68
626.095	276.2
626.293	218.66
626.492	202.58
626.69	265.93
626.889	182.04
627.088	260.32
627.286	232.22
627.485	229.7
627.683	206.07
627.882	255.86
628.08	184.17
628.279	226.22
628.477	273.3
628.676	210.33
628.874	265.74
629.073	198.7
629.271	184.37
629.469	245.4
629.668	240.75
629.866	233.77
630.065	209.55
630.263	252.95
630.461	211.1
630.66	258.38
630.858	264.19
631.056	275.43
631.254	270
631.453	177.2
631.651	251.21
631.849	219.05
632.047	243.46
632.245	239.58
632.444	249.85
632.642	257.8
632.84	258.96
633.038	201.03
633.236	183.01
633.434	211.49
633.632	198.9
633.83	204.9
634.028	246.75
634.227	214.59
634.425	270.39
634.623	229.32
634.821	244.82
635.019	205.49
635.216	209.75
635.414	236.48
635.612	244.23
635.81	212.27
636.008	278.14
636.206	202.58
636.404	263.61
636.602	202
636.8	240.94
636.997	231.83
637.195	280.66
637.393	240.36
637.591	286.47
637.789	270.39
637.986	230.48
638.184	224.28
638.382	290.73
638.58	269.62
638.777	282.98
638.975	216.33
639.173	224.86
639.37	218.85
639.568	228.54
639.765	254.5
639.963	251.6
640.161	282.79
640.358	251.02
640.556	213.82
640.753	211.49
640.951	182.04
641.148	231.83
641.346	190.76
641.543	220.21
641.741	261.09
641.938	200.45
642.136	213.43
642.333	214.59
642.531	271.94
642.728	251.79
642.925	214.4
643.123	213.43
643.32	203.16
643.517	237.07
643.715	226.6
643.912	185.53
644.109	224.28
644.306	202.19
644.504	186.89
644.701	224.86
644.898	233.58
645.095	198.51
645.293	225.63
645.49	235.13
645.687	235.9
645.884	243.65
646.081	163.44
646.278	176.42
646.475	181.65
646.672	200.84
646.87	244.43
647.067	224.08
647.264	202.97
647.461	178.75
647.658	189.02
647.855	265.35
648.052	187.66
648.249	146
648.446	188.05
648.642	178.75
648.839	167.7
649.036	166.54
649.233	169.45
649.43	152.79
649.627	148.52
649.824	220.6
650.021	173.9
650.217	163.83
650.414	200.84
650.611	204.52
650.808	200.84
651.004	192.12
651.201	219.63
651.398	240.94
651.595	184.37
651.791	178.94
651.988	218.47
652.185	184.17
652.381	194.64
652.578	159.37
652.775	195.22
652.971	196.57
653.168	186.89
653.364	215.37
653.561	134.19
653.757	183.98
653.954	210.72
654.15	171.39
654.347	265.74
654.543	173.52
654.74	160.92
654.936	145.04
655.133	184.37
655.329	169.64
655.525	195.02
655.722	218.47
655.918	171.39
656.115	214.4
656.311	139.22
656.507	145.62
656.704	126.24
656.9	140.19
657.096	128.18
657.292	143.1
657.489	203.94
657.685	174.49
657.881	156.66
658.077	164.22
658.273	162.09
658.47	213.23
658.666	162.86
658.862	192.31
659.058	157.44
659.254	222.34
659.45	163.25
659.646	181.65
659.842	155.5
660.038	187.27
660.234	130.89
660.43	148.91
660.626	216.92
660.822	184.37
661.018	204.13
661.214	169.25
661.41	144.65
661.606	203.35
661.802	202.97
661.998	158.79
662.194	138.84
662.39	188.24
662.586	195.41
662.781	197.35
662.977	219.24
663.173	216.33
663.369	158.21
663.564	206.84
663.76	199.67
663.956	172.74
664.152	218.85
664.347	142.71
664.543	162.86
664.739	175.26
664.934	89.04
665.13	135.74
665.326	194.83
665.521	162.47
665.717	160.34
665.912	143.87
666.108	99.31
666.304	126.63
666.499	146
666.695	100.09
666.89	145.23
667.086	207.81
667.281	174.49
667.477	207.81
667.672	169.84
667.867	168.67
668.063	179.91
668.258	122.76
668.454	171.39
668.649	225.63
668.844	155.69
669.04	203.35
669.235	147.94
669.43	176.04
669.626	108.03
669.821	159.95
670.016	129.73
670.211	136.7
670.407	124.89
670.602	145.04
670.797	160.73
670.992	198.9
671.187	125.66
671.382	189.02
671.578	135.35
671.773	171.58
671.968	103.96
672.163	184.17
672.358	212.85
672.553	151.04
672.748	136.12
672.943	200.45
673.138	186.89
673.333	183.59
673.528	128.95
673.723	164.6
673.918	162.47
674.113	102.02
674.308	212.27
674.503	164.41
674.698	182.43
674.892	170.8
675.087	183.01
675.282	190.37
675.477	145.42
675.672	174.49
675.867	133.02
676.061	126.24
676.256	127.4
676.451	141.55
676.646	130.89
676.84	156.47
677.035	125.27
677.23	107.84
677.424	177
677.619	176.62
677.814	163.83
678.008	195.99
678.203	81.68
678.397	120.82
678.592	151.24
678.787	212.85
678.981	153.75
679.176	145.04
679.37	166.35
679.565	144.84
679.759	140.19
679.954	174.49
680.148	179.91
680.342	188.63
680.537	182.82
680.731	138.84
680.926	188.44
681.12	190.76
681.314	145.04
681.509	149.49
681.703	167.51
681.897	199.48
682.092	153.37
682.286	146.97
682.48	192.31
682.674	175.26
682.869	150.65
683.063	141.74
683.257	212.46
683.451	136.9
683.645	195.02
683.839	133.02
684.034	148.33
684.228	198.51
684.422	111.91
684.616	144.65
684.81	189.02
685.004	168.29
685.198	165.38
685.392	170.42
685.586	114.04
685.78	194.05
685.974	172.16
686.168	185.92
686.362	231.83
686.556	153.56
686.75	123.53
686.944	158.79
687.138	193.28
687.331	102.61
687.525	145.04
687.719	108.81
687.913	133.6
688.107	162.09
688.301	123.92
688.494	132.64
688.688	130.5
688.882	98.73
689.076	110.74
689.269	153.75
689.463	204.13
689.657	145.81
689.85	113.65
690.044	132.25
690.238	128.18
690.431	152.2
690.625	113.84
690.818	131.47
691.012	143.87
691.205	151.82
691.399	101.83
691.593	140
691.786	194.83
691.98	179.14
692.173	193.86
692.366	178.36
692.56	186.5
692.753	187.08
692.947	120.82
693.14	197.74
693.333	213.82
693.527	103.57
693.72	194.64
693.914	190.57
694.107	157.63
694.3	180.88
694.493	157.63
694.687	191.73
694.88	152.98
695.073	195.99
695.266	196.38
695.46	177.59
695.653	234.74
695.846	203.16
696.039	135.74
696.232	189.4
696.425	226.41
696.618	205.29
696.812	163.25
697.005	252.57
697.198	282.4
697.391	229.51
697.584	243.85
697.777	257.22
697.97	286.47
698.163	253.53
698.356	224.28
698.549	315.73
698.742	286.47
698.935	245.01
699.127	281.05
699.32	249.66
699.513	236.1
699.706	280.08
699.899	285.31
700.092	262.64
700.285	274.07
700.477	258.18
700.67	273.3
700.863	316.5
701.056	370.36
701.248	337.81
701.441	317.86
701.634	293.83
701.826	389.74
702.019	305.46
702.212	377.15
702.404	282.21
702.597	281.43
702.79	337.81
702.982	349.63
703.175	370.36
703.367	383.93
703.56	351.57
703.752	435.27
703.945	384.31
704.137	425.19
704.33	415.31
704.522	415.7
704.715	431.78
704.907	434.3
705.1	439.34
705.292	436.63
705.484	440.89
705.677	480.02
705.869	463.75
706.061	507.73
706.254	518.58
706.446	458.91
706.638	467.63
706.831	511.22
707.023	490.1
707.215	578.25
707.407	539.31
707.599	542.22
707.792	562.37
707.984	538.92
708.176	578.64
708.368	533.69
708.56	539.7
708.752	537.18
708.944	564.3
709.136	595.69
709.329	584.84
709.521	668.73
709.713	639.48
709.905	622.04
710.097	670.87
710.289	624.95
710.481	631.15
710.672	629.21
710.864	648.97
711.056	701.09
711.248	705.93
711.44	698.96
711.632	690.82
711.824	702.83
712.016	771.61
712.207	741.78
712.399	735.19
712.591	792.15
712.783	738.68
712.975	765.03
713.166	745.65
713.358	755.53
713.55	841.75
713.741	828.38
713.933	824.31
714.125	788.66
714.316	810.95
714.508	877.21
714.7	855.51
714.891	852.41
715.083	911.5
715.274	855.89
715.466	875.46
715.657	929.32
715.849	819.47
716.04	896
716.232	827.99
716.423	906.66
716.615	868.68
716.806	839.81
716.998	846.01
717.189	828.58
717.381	760.76
717.572	759.8
717.763	806.1
717.955	771.03
718.146	778.01
718.337	740.23
718.528	717.75
718.72	705.55
718.911	752.82
719.102	763.48
719.293	761.35
719.485	780.91
719.676	745.07
719.867	728.6
720.058	714.65
720.249	726.67
720.44	759.8
720.632	787.5
720.823	819.47
721.014	886.89
721.205	873.33
721.396	947.73
721.587	969.24
721.778	1001.2
721.969	1013.02
722.16	1058.55
722.351	1032.01
722.542	1138.96
722.733	1129.47
722.924	1057.2
723.115	1130.63
723.305	1139.73
723.496	1152.13
723.687	1077.93
723.878	1093.43
724.069	1069.4
724.26	1091.3
724.45	1072.5
724.641	1085.29
724.832	1074.64
725.023	1096.92
725.213	1105.25
725.404	1084.13
725.595	1085.87
725.785	1081.8
725.976	1137.02
726.167	1104.67
726.357	1107.77
726.548	1176.35
726.739	1167.63
726.929	1214.13
727.12	1249.78
727.31	1261.6
727.501	1177.51
727.691	1224.98
727.882	1243.97
728.072	1273.23
728.263	1260.05
728.453	1284.46
728.644	1276.91
728.834	1318.37
729.024	1259.47
729.215	1283.11
729.405	1310.81
729.596	1394.51
729.786	1368.94
729.976	1393.74
730.167	1382.5
730.357	1350.72
730.547	1371.07
730.737	1429.77
730.928	1439.46
731.118	1476.66
731.308	1415.82
731.498	1452.25
731.688	1539.43
731.879	1495.84
732.069	1554.16
732.259	1570.63
732.449	1588.65
732.639	1672.35
732.829	1637.86
733.019	1701.79
733.209	1725.43
733.399	1743.45
733.589	1797.89
733.779	1819.59
733.969	1783.94
734.159	1848.07
734.349	1888.76
734.539	1898.45
734.729	1912.98
734.919	1943.79
735.109	1955.8
735.299	1922.28
735.488	2015.08
735.678	1976.72
735.868	1987.57
736.058	1984.67
736.248	1979.43
736.437	1945.14
736.627	1928.87
736.817	2059.65
737.007	2002.49
737.196	2063.91
737.386	2031.36
737.576	2028.84
737.765	2040.66
737.955	2052.28
738.144	2158.65
738.334	2137.73
738.524	2094.33
738.713	2127.65
738.903	2110.99
739.092	2166.98
739.282	2186.74
739.471	2144.12
739.661	2167.76
739.85	2211.54
740.04	2210.58
740.229	2261.34
740.419	2258.04
740.608	2298.92
740.797	2262.69
740.987	2317.72
741.176	2314.23
741.365	2306.67
741.555	2218.13
741.744	2313.07
741.933	2343.29
742.123	2329.34
742.312	2356.08
742.501	2400.83
742.69	2409.36
742.88	2321.98
743.069	2447.92
743.258	2364.41
743.447	2459.73
743.636	2396.96
743.825	2407.62
744.014	2434.74
744.204	2462.06
744.393	2415.95
744.582	2464.58
744.771	2520.38
744.96	2489.96
745.149	2500.23
745.338	2451.6
745.527	2501.97
745.716	2509.53
745.905	2460.7
746.094	2489.96
746.283	2528.51
746.471	2565.33
746.66	2600.78
746.849	2570.94
747.038	2597.49
747.227	2532.58
747.416	2581.6
747.604	2515.15
747.793	2549.63
747.982	2541.11
748.171	2594.97
748.359	2614.93
748.548	2566.68
748.737	2609.5
748.926	2582.96
749.114	2486.66
749.303	2557.58
749.491	2593.42
749.68	2543.24
749.869	2623.84
750.057	2560.48
750.246	2554.86
750.434	2568.43
750.623	2566.88
750.811	2571.14
751	2589.16
751.188	2540.14
751.377	2537.43
751.565	2581.79
751.754	2510.11
751.942	2544.4
752.131	2587.99
752.319	2561.06
752.507	2512.82
752.696	2588.19
752.884	2636.04
753.072	2600.39
753.261	2541.11
753.449	2561.45
753.637	2528.51
753.825	2653.68
754.014	2575.01
754.202	2580.44
754.39	2622.29
754.578	2621.13
754.766	2549.25
754.955	2547.89
755.143	2637.98
755.331	2553.31
755.519	2578.11
755.707	2538.59
755.895	2553.9
756.083	2573.85
756.271	2509.14
756.459	2559.71
756.647	2604.27
756.835	2545.76
757.023	2509.72
757.211	2572.69
757.399	2571.72
757.587	2520.57
757.775	2471.36
757.963	2495.38
758.151	2502.55
758.339	2489.38
758.526	2472.72
758.714	2483.56
758.902	2407.42
759.09	2366.54
759.278	2159.04
759.465	2014.89
759.653	1743.84
759.841	1594.46
760.028	1343.36
760.216	1140.9
760.404	1123.07
760.591	889.03
760.779	746.62
760.967	655.56
761.154	563.53
761.342	600.15
761.529	566.63
761.717	618.55
761.905	586.2
762.092	677.84
762.28	593.95
762.467	607.51
762.655	540.09
762.842	586.78
763.029	601.31
763.217	639.09
763.404	569.54
763.592	653.04
763.779	549.97
763.966	616.23
764.154	632.5
764.341	673.97
764.528	683.46
764.716	753.21
764.903	791.57
765.09	836.52
765.277	853.38
765.465	1007.6
765.652	1033.37
765.839	1101.37
766.026	1193.98
766.213	1243.2
766.4	1295.31
766.588	1491.58
766.775	1463.49
766.962	1537.11
767.149	1627.2
767.336	1698.69
767.523	1677
767.71	1775.42
767.897	1887.6
768.084	1923.44
768.271	1983.31
768.458	2057.32
768.645	2081.15
768.832	2028.07
769.019	2108.66
769.206	2177.83
769.392	2116.8
769.579	2258.24
769.766	2191.39
769.953	2213.09
770.14	2262.31
770.327	2219.49
770.513	2314.81
770.7	2261.14
770.887	2253.59
771.073	2319.27
771.26	2255.33
771.447	2269.28
771.634	2252.62
771.82	2367.9
772.007	2284.59
772.193	2270.06
772.38	2310.16
772.567	2288.66
772.753	2341.35
772.94	2341.16
773.126	2345.04
773.313	2345.42
773.499	2313.84
773.686	2339.03
773.872	2261.14
774.059	2332.64
774.245	2241.57
774.432	2326.05
774.618	2217.55
774.804	2301.44
774.991	2269.67
775.177	2323.72
775.363	2280.91
775.55	2276.45
775.736	2245.64
775.922	2269.47
776.109	2279.94
776.295	2286.72
776.481	2282.46
776.667	2318.69
776.853	2255.33
777.04	2252.23
777.226	2226.85
777.412	2316.75
777.598	2232.66
777.784	2211.35
777.97	2225.69
778.156	2270.25
778.342	2231.11
778.528	2243.9
778.715	2178.99
778.901	2207.86
779.087	2231.11
779.272	2182.48
779.458	2159.62
779.644	2199.73
779.83	2165.63
780.016	2264.82
780.202	2187.13
780.388	2173.96
780.574	2125.33
780.76	2170.47
780.946	2195.27
781.131	2191.01
781.317	2175.89
781.503	2123.78
781.689	2149.35
781.874	2242.16
782.06	2097.23
782.246	2153.03
782.432	2124.75
782.617	2146.44
782.803	2171.83
782.989	2082.9
783.174	2125.52
783.36	2061.97
783.545	2091.23
783.731	2098.4
783.916	2029.62
784.102	2104.01
784.288	2067.98
784.473	2029.62
784.659	2082.9
784.844	2075.53
785.029	2041.82
785.215	2043.95
785.4	2001.91
785.586	2109.44
785.771	2044.34
785.956	2064.68
786.142	2043.57
786.327	2019.15
786.512	1996.1
786.698	1984.47
786.883	1950.57
787.068	2009.27
787.254	1967.42
787.439	1950.95
787.624	1961.8
787.809	1941.07
787.994	1947.47
788.18	2052.28
788.365	1902.52
788.55	1919.76
788.735	1954.44
788.92	1950.95
789.105	1917.63
789.29	1956.38
789.475	1906.97
789.66	1889.73
789.845	1875.59
790.03	1879.85
790.215	1943.4
790.4	1940.69
790.585	1929.84
790.77	1875
790.955	1826.76
791.14	1876.36
791.325	1958.12
791.51	1810.49
791.695	1871.9
791.879	1865.12
792.064	1807.77
792.249	1921.12
792.434	1849.04
792.618	1839.36
792.803	1877.72
792.988	1828.7
793.173	1895.15
793.357	1877.91
793.542	1830.83
793.727	1851.56
793.911	1908.72
794.096	1886.05
794.281	1912.2
794.465	1940.69
794.65	1904.26
794.834	1905.23
795.019	1940.69
795.203	1893.8
795.388	1919.57
795.572	1937.97
795.757	1884.3
795.941	1891.86
796.126	1905.81
796.31	1836.45
796.494	1880.82
796.679	1897.87
796.863	1858.15
797.048	1927.7
797.232	1877.14
797.416	1891.28
797.601	1911.43
797.785	1956.38
797.969	1932.74
798.153	1888.18
798.338	1947.47
798.522	1945.92
798.706	1964.71
798.89	1939.91
799.074	1984.47
799.258	1960.83
799.443	1975.17
799.627	1925.57
799.811	1957.15
799.995	1940.49
800.179	1899.61
800.363	1930.03
800.547	1946.3
800.731	1928.09
800.915	1850.4
801.099	1881.01
801.283	1895.54
801.467	1884.3
801.651	1882.56
801.835	1938.55
802.019	1884.11
802.202	1894.19
802.386	1889.92
802.57	1841.87
802.754	1848.27
802.938	1887.79
803.121	1847.11
803.305	1922.09
803.489	1906.97
803.673	1891.09
803.856	1894.38
804.04	1902.9
804.224	1897.67
804.407	1889.54
804.591	1903.87
804.775	1903.29
804.958	1899.42
805.142	1968.39
805.326	1897.67
805.509	1924.22
805.693	1923.25
805.876	1965.87
806.06	1935.45
806.243	1964.32
806.427	1977.3
806.61	1955.41
806.794	1881.98
806.977	1989.7
807.16	1913.75
807.344	1911.04
807.527	1924.22
807.71	1888.18
807.894	1908.33
808.077	1940.88
808.26	1891.86
808.444	1902.52
808.627	1946.69
808.81	1860.67
808.993	1827.73
809.177	1835.09
809.36	1844.39
809.543	1869.77
809.726	1808.74
809.909	1825.6
810.092	1787.24
810.276	1779.49
810.459	1806.42
810.642	1759.53
810.825	1741.71
811.008	1769.8
811.191	1691.72
811.374	1689.2
811.557	1710.9
811.74	1775.23
811.923	1658.98
812.106	1681.84
812.289	1646.38
812.472	1615.19
812.654	1673.7
812.837	1625.85
813.02	1566.75
813.203	1567.92
813.386	1478.4
813.569	1487.9
813.751	1406.72
813.934	1482.86
814.117	1479.57
814.3	1402.65
814.482	1393.74
814.665	1323.6
814.848	1329.41
815.03	1288.73
815.213	1298.22
815.396	1297.64
815.578	1293.18
815.761	1233.31
815.943	1317.59
816.126	1216.07
816.309	1187.2
816.491	1144.77
816.674	1114.55
816.856	1171.12
817.039	1129.27
817.221	1226.15
817.403	1159.69
817.586	1192.63
817.768	1197.47
817.951	1100.4
818.133	1123.65
818.315	1148.45
818.498	1171.12
818.68	1210.06
818.862	1208.71
819.045	1216.46
819.227	1208.9
819.409	1185.46
819.591	1186.04
819.774	1159.3
819.956	1148.07
820.138	1249.01
820.32	1233.9
820.502	1283.11
820.684	1292.79
820.866	1301.51
821.048	1327.28
821.231	1378.82
821.413	1382.11
821.595	1353.44
821.777	1348.59
821.959	1359.06
822.141	1397.81
822.323	1280.2
822.505	1221.3
822.686	1190.5
822.868	1158.14
823.05	1077.35
823.232	1048.67
823.414	1007.21
823.596	1091.1
823.778	1051
823.96	1074.05
824.141	1074.83
824.323	1082.58
824.505	1169.77
824.687	1181.97
824.868	1214.33
825.05	1319.92
825.232	1327.28
825.413	1412.53
825.595	1317.79
825.777	1283.88
825.958	1290.28
826.14	1300.74
826.321	1305.39
826.503	1308.88
826.685	1321.86
826.866	1342.39
827.048	1346.46
827.229	1288.14
827.411	1236.03
827.592	1225.56
827.773	1221.5
827.955	1211.23
828.136	1224.6
828.318	1166.28
828.499	1192.82
828.68	1130.63
828.862	1172.67
829.043	1199.21
829.224	1166.86
829.406	1150.78
829.587	1159.69
829.768	1165.7
829.949	1217.81
830.131	1167.63
830.312	1226.34
830.493	1183.52
830.674	1192.63
830.855	1204.25
831.036	1141.67
831.218	1264.12
831.399	1236.03
831.58	1193.6
831.761	1216.07
831.942	1218.4
832.123	1201.15
832.304	1136.44
832.485	1145.35
832.666	1186.43
832.847	1190.3
833.028	1171.32
833.209	1201.15
833.389	1193.79
833.57	1132.37
833.751	1124.62
833.932	1209.87
834.113	1157.37
834.294	1160.85
834.475	1205.41
834.655	1232.54
834.836	1262.57
835.017	1202.51
835.198	1176.74
835.378	1205.61
835.559	1263.34
835.74	1191.66
835.92	1205.03
836.101	1167.05
836.281	1230.6
836.462	1232.15
836.643	1233.12
836.823	1223.05
837.004	1254.05
837.184	1277.29
837.365	1271.87
837.545	1287.56
837.726	1237.96
837.906	1270.13
838.087	1241.84
838.267	1215.49
838.448	1206.58
838.628	1278.84
838.808	1253.85
838.989	1299.58
839.169	1214.91
839.349	1255.98
839.53	1276.52
839.71	1255.4
839.89	1193.4
840.07	1306.94
840.251	1237.19
840.431	1278.46
840.611	1251.53
840.791	1201.93
840.971	1227.5
841.151	1231.18
841.332	1203.28
841.512	1256.56
841.692	1188.75
841.872	1258.5
842.052	1261.79
842.232	1295.12
842.412	1196.31
842.592	1225.56
842.772	1244.36
842.952	1262.57
843.132	1196.7
843.312	1236.03
843.492	1162.4
843.672	1218.59
843.851	1176.74
844.031	1217.04
844.211	1185.07
844.391	1225.95
844.571	1204.45
844.751	1219.56
844.93	1217.04
845.11	1178.68
845.29	1208.51
845.47	1221.5
845.649	1196.89
845.829	1239.9
846.009	1194.18
846.188	1238.35
846.368	1198.83
846.547	1194.95
846.727	1258.7
846.907	1143.22
847.086	1201.15
847.266	1222.85
847.445	1204.64
847.625	1191.08
847.804	1186.23
847.984	1176.93
848.163	1180.61
848.343	1180.03
848.522	1195.34
848.701	1205.61
848.881	1128.5
849.06	1171.32
849.239	1175.96
849.419	1196.5
849.598	1126.56
849.777	1097.11
849.957	1120.55
850.136	1045.96
850.315	1046.35
850.494	1084.71
850.674	1081.42
850.853	1125.59
851.032	1087.42
851.211	1133.73
851.39	1091.88
851.569	1054.87
851.748	1062.04
851.927	1098.47
852.107	1092.85
852.286	1081.22
852.465	1032.98
852.644	1119
852.823	1092.07
853.002	1079.67
853.181	1079.48
853.359	1066.3
853.538	1047.7
853.717	1154.27
853.896	1042.86
854.075	967.3
854.254	938.62
854.433	901.62
854.611	960.13
854.79	915.18
854.969	974.27
855.148	977.37
855.327	953.35
855.505	977.37
855.684	959.16
855.863	989.39
856.041	957.61
856.22	1002.37
856.399	974.66
856.577	1077.15
856.756	1035.89
856.934	1122.88
857.113	1149.81
857.291	1017.87
857.47	1018.64
857.648	1050.61
857.827	1082.19
858.005	1084.9
858.184	1018.25
858.362	1106.6
858.541	1046.54
858.719	1059.33
858.898	1013.22
859.076	1027.55
859.254	1073.67
859.433	1055.65
859.611	1011.09
859.789	987.06
859.967	1089.36
860.146	1104.28
860.324	985.51
860.502	1005.47
860.68	994.23
860.859	1009.34
861.037	1005.47
861.215	1024.84
861.393	995.97
861.571	999.46
861.749	966.52
861.927	1054.49
862.105	1021.35
862.283	994.04
862.461	990.16
862.639	942.11
862.817	995.2
862.995	990.16
863.173	970.79
863.351	1012.44
863.529	1001.98
863.707	1044.99
863.885	989.77
864.063	940.76
864.241	950.25
864.418	1008.57
864.596	963.81
864.774	911.69
864.952	972.34
865.129	961.49
865.307	931.84
865.485	880.69
865.663	958.19
865.84	886.7
866.018	922.16
866.196	799.13
866.373	859.58
866.551	824.51
866.728	800.29
866.906	834.78
867.084	813.46
867.261	885.34
867.439	842.33
867.616	925.64
867.794	859.38
867.971	887.09
868.149	875.66
868.326	944.63
868.503	925.64
868.681	889.22
868.858	884.96
869.035	873.53
869.213	898.33
869.39	896.58
869.567	935.33
869.745	874.11
869.922	897.94
870.099	905.49
870.276	940.56
870.454	918.47
870.631	923.12
870.808	869.26
870.985	922.54
871.162	955.48
871.339	902.78
871.517	853.18
871.694	873.14
871.871	887.67
872.048	871.2
872.225	873.14
872.402	867.13
872.579	842.14
872.756	892.9
872.933	843.11
873.11	888.06
873.287	886.7
873.463	850.08
873.64	843.88
873.817	876.82
873.994	858.41
874.171	826.83
874.348	851.44
874.524	810.95
874.701	841.36
874.878	799.32
875.055	853.57
875.231	811.72
875.408	859.58
875.585	789.25
875.762	819.66
875.938	812.11
876.115	825.09
876.291	863.45
876.468	786.73
876.645	742.55
876.821	802.61
876.998	789.25
877.174	816.95
877.351	790.99
877.527	787.89
877.704	819.08
877.88	801.65
878.057	766.96
878.233	846.59
878.409	803.97
878.586	835.74
878.762	781.11
878.938	794.09
879.115	725.31
879.291	766.38
879.467	739.06
879.644	743.91
879.82	808.23
879.996	775.3
880.172	707.68
880.349	754.76
880.525	780.91
880.701	724.73
880.877	738.87
881.053	761.54
881.229	744.88
881.405	793.51
881.581	711.75
881.757	755.15
881.933	742.55
882.109	778.59
882.285	784.4
882.461	710.97
882.637	754.18
882.813	730.35
882.989	729.77
883.165	808.43
883.341	721.24
883.517	785.95
883.693	781.3
883.869	773.36
884.044	726.86
884.22	762.7
884.396	799.32
884.572	759.6
884.747	798.74
884.923	752.63
885.099	794.48
885.275	789.83
885.45	723.37
885.626	715.23
885.801	721.43
885.977	750.88
886.153	723.76
886.328	733.83
886.504	727.05
886.679	724.53
886.855	696.63
887.03	746.81
887.206	763.67
887.381	760.76
887.557	756.11
887.732	773.75
887.908	757.86
888.083	766.19
888.258	730.93
888.434	770.26
888.609	754.56
888.784	770.65
888.96	735.19
889.135	738.68
889.31	718.33
889.485	723.76
889.661	724.92
889.836	778.98
890.011	763.48
890.186	751.08
890.361	717.56
890.537	742.94
890.712	747.59
890.887	758.44
891.062	730.15
891.237	789.63
891.412	715.43
891.587	767.74
891.762	750.88
891.937	778.98
892.112	712.52
892.287	720.85
892.462	694.12
892.637	652.85
892.812	656.33
892.987	666.99
893.161	639.87
893.336	679.58
893.511	680.75
893.686	673
893.861	657.11
894.035	671.06
894.21	698.96
894.385	637.93
894.56	654.2
894.734	616.04
894.909	615.45
895.084	606.74
895.258	599.18
895.433	620.1
895.608	601.89
895.782	527.49
895.957	572.25
896.131	589.3
896.306	507.34
896.48	530.98
896.655	520.71
896.829	448.06
897.004	473.82
897.178	497.66
897.353	470.73
897.527	528.07
897.701	475.96
897.876	439.92
898.05	527.11
898.224	509.47
898.399	542.41
898.573	480.22
898.747	415.51
898.921	462.59
899.096	366.88
899.27	386.44
899.444	387.41
899.618	420.16
899.792	427.33
899.967	443.21
900.141	459.29
900.315	412.21
900.489	417.44
900.663	406.98
900.837	400.59
901.011	389.74
901.185	457.16
901.359	436.04
901.533	454.64
901.707	445.54
901.881	425
902.055	370.36
902.229	433.14
902.403	461.62
902.576	434.69
902.75	413.96
902.924	551.32
903.098	461.62
903.272	517.42
903.446	533.89
903.619	501.34
903.793	546.48
903.967	487.19
904.14	544.93
904.314	524.97
904.488	518.97
904.661	545.71
904.835	550.16
905.009	600.15
905.182	595.89
905.356	563.72
905.529	567.4
905.703	530.01
905.876	560.62
906.05	496.11
906.223	497.07
906.397	443.41
906.57	426.16
906.744	419.19
906.917	422.29
907.09	435.66
907.264	463.94
907.437	429.26
907.61	402.72
907.784	361.06
907.957	408.73
908.13	360.68
908.304	420.16
908.477	359.71
908.65	393.42
908.823	348.66
908.996	420.74
909.17	369.01
909.343	360.29
909.516	388.38
909.689	372.11
909.862	356.61
910.035	369.01
910.208	352.15
910.381	347.11
910.554	438.76
910.727	345.18
910.9	370.75
911.073	366.1
911.246	432.56
911.419	399.23
911.592	397.1
911.765	378.31
911.938	355.64
912.11	376.18
912.283	385.09
912.456	417.64
912.629	357.58
912.802	392.06
912.974	304.68
913.147	282.21
913.32	238.23
913.493	335.3
913.665	306.81
913.838	346.15
914.01	316.89
914.183	311.08
914.356	321.73
914.528	371.33
914.701	375.98
914.873	338.98
915.046	352.15
915.218	303.33
915.391	238.03
915.563	275.23
915.736	324.25
915.908	345.76
916.081	308.75
916.253	300.42
916.425	314.76
916.598	323.28
916.77	311.85
916.942	292.48
917.115	256.25
917.287	332.58
917.459	306.81
917.632	247.92
917.804	228.15
917.976	309.33
918.148	264
918.32	279.3
918.493	340.53
918.665	348.28
918.837	311.46
919.009	375.01
919.181	389.74
919.353	346.34
919.525	330.26
919.697	339.17
919.869	341.3
920.041	379.28
920.213	441.47
920.385	384.7
920.557	327.74
920.729	372.3
920.901	359.71
921.073	317.66
921.244	343.82
921.416	355.64
921.588	356.8
921.76	333.94
921.932	409.89
922.103	346.15
922.275	341.69
922.447	375.01
922.619	270.97
922.79	342.66
922.962	313.6
923.134	357
923.305	297.52
923.477	277.37
923.648	272.52
923.82	310.69
923.991	240.36
924.163	258.18
924.335	281.43
924.506	273.1
924.677	327.35
924.849	270.97
925.02	313.4
925.192	303.71
925.363	284.53
925.535	303.71
925.706	271.36
925.877	334.33
926.049	273.68
926.22	298.87
926.391	314.76
926.562	319.21
926.734	244.43
926.905	310.88
927.076	249.08
927.247	265.74
927.419	218.66
927.59	212.46
927.761	258.77
927.932	220.98
928.103	232.03
928.274	185.53
928.445	187.47
928.616	194.64
928.787	189.6
928.958	232.22
929.129	242.68
929.3	196.96
929.471	145.23
929.642	129.34
929.813	85.56
929.984	166.35
930.155	111.52
930.326	173.52
930.496	98.73
930.667	82.26
930.838	147.75
931.009	91.56
931.18	127.21
931.35	87.88
931.521	112.1
931.692	64.44
931.863	11.93
932.033	74.9
932.204	105.32
932.374	83.62
932.545	50.29
932.716	89.04
932.886	86.14
933.057	35.38
933.227	27.82
933.398	89.43
933.568	15.81
933.739	28.98
933.909	29.18
934.08	48.55
934.25	-2.79
934.421	7.28
934.591	45.26
934.761	9.99
934.932	-33.99
935.102	19.29
935.272	7.09
935.443	12.9
935.613	22.2
935.783	16
935.953	-22.17
936.123	166.35
936.294	-5.89
936.464	24.91
936.634	6.12
936.804	18.13
936.974	-1.82
937.144	33.24
937.314	13.48
937.484	-4.92
937.655	-0.86
937.825	60.76
937.995	-7.25
938.165	52.62
938.334	17.36
938.504	29.56
938.674	8.06
938.844	39.25
939.014	67.73
939.184	63.27
939.354	120.04
939.524	82.65
939.694	44.48
939.863	36.92
940.033	111.13
940.203	102.22
940.373	43.32
940.542	73.35
940.712	26.46
940.882	76.45
941.051	85.75
941.221	67.92
941.391	112.87
941.56	50.49
941.73	16.39
941.899	141.94
942.069	50.49
942.238	90.01
942.408	50.49
942.577	67.73
942.747	43.71
942.916	25.11
943.086	32.86
943.255	89.82
943.425	58.82
943.594	26.66
943.763	-4.34
943.933	12.51
944.102	-41.54
944.271	40.61
944.441	66.57
944.61	31.69
944.779	36.54
944.948	106.67
945.117	21.04
945.287	30.73
945.456	-35.15
945.625	1.66
945.794	78.77
945.963	13.29
946.132	52.42
946.301	33.63
946.47	84.39
946.639	-13.64
946.808	20.26
946.977	70.64
947.146	81.49
947.315	43.9
947.484	53.97
947.653	28.21
947.822	44.29
947.991	12.9
948.16	83.23
948.329	84.97
948.498	34.02
948.666	61.92
948.835	51.07
949.004	7.86
949.173	4.76
949.341	43.9
949.51	47
949.679	83.04
949.847	59.01
950.016	118.49
950.185	73.93
950.353	35.57
950.522	53.01
950.69	80.91
950.859	35.57
951.028	72.19
951.196	42.35
951.365	17.36
951.533	47.39
951.701	81.49
951.87	56.69
952.038	13.29
952.207	39.44
952.375	109
952.543	2.63
952.712	63.08
952.88	30.14
953.048	78.58
953.217	46.61
953.385	56.69
953.553	73.35
953.721	4.57
953.89	52.23
954.058	-10.93
954.226	6.7
954.394	55.52
954.562	12.9
954.73	44.87
954.898	40.22
955.067	62.89
955.235	37.31
955.403	62.11
955.571	82.46
955.739	82.65
955.907	30.53
956.075	24.53
956.243	28.98
956.41	64.05
956.578	-22.17
956.746	2.83
956.914	20.46
957.082	63.47
957.25	81.68
957.418	34.41
957.585	54.17
957.753	72.38
957.921	-4.34
958.089	40.61
958.256	81.29
958.424	54.94
958.592	63.47
958.759	38.47
958.927	70.44
959.095	35.96
959.262	60.76
959.43	35.38
959.597	9.22
959.765	33.63
959.932	23.94
960.1	65.41
960.267	51.07
960.435	57.66
960.602	61.92
960.77	19.1
960.937	20.84
961.104	65.21
961.272	10.58
961.439	34.21
961.606	73.74
961.774	66.37
961.941	41.19
962.108	59.4
962.275	61.72
962.443	80.13
962.61	48.94
962.777	128.76
962.944	85.56
963.111	72.38
963.278	50.1
963.446	79.16
963.613	53.78
963.78	50.87
963.947	89.62
964.114	62.5
964.281	127.99
964.448	67.34
964.615	33.05
964.782	80.91
964.949	86.14
965.116	119.27
965.282	102.41
965.449	63.66
965.616	37.7
965.783	88.85
965.95	73.35
966.117	34.41
966.283	79.16
966.45	72.19
966.617	56.3
966.784	98.34
966.95	100.47
967.117	85.17
967.284	49.71
967.45	44.67
967.617	105.12
967.784	77.42
967.95	118.3
968.117	45.64
968.283	103.57
968.45	150.65
968.616	76.64
968.783	97.18
968.949	67.34
969.116	103.19
969.282	68.51
969.449	67.92
969.615	74.51
969.781	48.36
969.948	53.59
970.114	17.55
970.28	106.09
970.447	95.24
970.613	124.89
970.779	100.67
970.945	90.98
971.112	77.61
971.278	85.56
971.444	68.12
971.61	85.75
971.776	57.27
971.942	109.58
972.108	80.91
972.275	73.35
972.441	113.07
972.607	143.1
972.773	61.53
972.939	93.5
973.105	89.43
973.271	39.64
973.437	38.86
973.602	45.84
973.768	73.35
973.934	86.91
974.1	77.03
974.266	12.51
974.432	78.39
974.598	50.49
974.763	85.75
974.929	56.3
975.095	100.86
975.261	50.1
975.426	53.59
975.592	73.74
975.758	124.69
975.923	36.34
976.089	43.9
976.255	80.91
976.42	72.38
976.586	70.06
976.751	72.77
976.917	140.58
977.082	61.72
977.248	16.58
977.413	-6.09
977.579	55.52
977.744	61.92
977.91	28.79
978.075	55.52
978.24	83.23
978.406	31.5
978.571	64.82
978.736	37.31
978.902	76.06
979.067	34.99
979.232	21.81
979.397	37.51
979.563	96.79
979.728	40.02
979.893	28.4
980.058	66.76
980.223	94.86
980.388	72.96
980.554	56.3
980.719	66.96
980.884	52.04
981.049	104.54
981.214	13.68
981.379	59.01
981.544	53.59
981.709	53.2
981.874	52.81
982.039	82.26
982.204	106.29
982.368	56.88
982.533	36.54
982.698	88.07
982.863	95.44
983.028	40.22
983.193	78.97
983.357	76.06
983.522	59.21
983.687	58.04
983.852	37.89
984.016	38.47
984.181	56.3
984.346	81.1
984.51	83.81
984.675	81.29
984.839	73.54
985.004	73.35
985.168	97.18
985.333	68.31
985.498	52.04
985.662	118.69
985.827	76.06
985.991	57.66
986.155	47.77
986.32	90.01
986.484	123.53
986.649	67.34
986.813	19.68
986.977	57.85
987.142	80.32
987.306	23.36
987.47	50.29
987.634	37.89
987.799	59.59
987.963	57.66
988.127	78.77
988.291	132.83
988.455	75.48
988.62	81.1
988.784	81.49
988.948	73.54
989.112	45.45
989.276	46.81
989.44	52.42
989.604	37.12
989.768	66.37
989.932	122.17
990.096	23.36
990.26	37.51
990.424	23.94
990.588	21.23
990.752	158.4
990.915	93.69
991.079	61.92
991.243	38.67
991.407	73.16
991.571	53.59
991.734	69.28
991.898	89.24
992.062	130.7
992.226	59.79
992.389	46.81
992.553	10.19
992.717	25.3
992.88	49.91
993.044	57.66
993.207	42.16
993.371	98.34
993.535	90.79
993.698	50.68
993.862	70.83
994.025	113.46
994.189	63.86
994.352	57.07
994.515	86.14
994.679	124.11
994.842	71.8
995.006	86.91
995.169	25.88
995.332	41.19
995.496	46.42
995.659	0.11
995.822	58.04
995.985	59.98
996.149	73.35
996.312	50.1
996.475	100.09
996.638	28.98
996.801	93.31
996.964	89.62
997.128	35.96
997.291	40.41
997.454	58.62
997.617	6.51
997.78	70.64
997.943	27.43
998.106	83.62
998.269	24.72
998.432	61.34
998.595	54.75
998.758	1.86
998.92	34.6
999.083	-5.51
999.246	49.13
999.409	-0.86
999.572	-15.77
999.735	34.6
999.897	73.54
1000.06	20.07
1000.223	14.64
1000.386	81.29
1000.548	74.12
1000.711	70.25
1000.874	51.46
1001.036	-20.04
1001.199	89.24
1001.361	49.32
1001.524	48.36
1001.687	41.96
1001.849	29.37
1002.012	53.39
1002.174	56.11
1002.337	52.81
1002.499	30.34
1002.661	89.43
1002.824	10.58
1002.986	-1.24
1003.149	35.57
1003.311	32.47
1003.473	74.51
1003.636	34.41
1003.798	66.18
1003.96	70.25
1004.123	44.09
1004.285	17.74
1004.447	29.56
1004.609	37.31
1004.771	79.55
1004.933	11.93
1005.096	-0.08
1005.258	-1.44
1005.42	9.99
1005.582	94.66
1005.744	47.97
1005.906	1.08
1006.068	33.63
1006.23	9.41
1006.392	-16.94
1006.554	22.39
1006.716	64.82
1006.878	44.87
1007.04	-6.67
1007.202	10.96
1007.363	27.63
1007.525	48.94
1007.687	55.91
1007.849	67.92
1008.011	-18.1
1008.172	-7.44
1008.334	4.57
1008.496	59.98
1008.658	-19.07
1008.819	18.71
1008.981	-17.32
1009.143	13.48
1009.304	-1.63
1009.466	49.71
1009.627	69.28
1009.789	114.23
1009.95	24.72
1010.112	-2.99
1010.273	32.66
1010.435	-8.99
1010.596	27.63
1010.758	41.19
1010.919	25.11
1011.081	-12.09
1011.242	28.79
1011.403	33.05
1011.565	24.53
1011.726	26.27
1011.887	-8.61
1012.049	4.96
1012.21	74.51
1012.371	63.08
1012.532	-20.23
1012.693	18.33
1012.855	-5.51
1013.016	10.19
1013.177	45.45
1013.338	28.79
1013.499	107.64
1013.66	31.69
1013.821	44.87
1013.982	31.89
1014.143	20.65
1014.304	13.29
1014.465	45.06
1014.626	36.34
1014.787	26.08
1014.948	101.06
1015.109	-62.85
1015.27	65.41
1015.431	1.08
1015.592	19.68
1015.752	55.72
1015.913	42.74
1016.074	50.1
1016.235	8.25
1016.395	28.4
1016.556	17.74
1016.717	26.46
1016.877	59.98
1017.038	-5.12
1017.199	36.34
1017.359	33.63
1017.52	27.04
1017.681	32.47
1017.841	26.27
1018.002	4.38
1018.162	5.34
1018.323	71.02
1018.483	30.14
1018.644	7.86
1018.804	-19.84
1018.964	-10.74
1019.125	12.51
1019.285	11.74
1019.446	-15.19
1019.606	-2.79
1019.766	-22.56
1019.926	42.74
1020.087	59.98
1020.247	-8.02
1020.407	39.06
1020.567	38.86
1020.728	11.16
1020.888	-12.29
1021.048	-4.54
1021.208	-24.3
1021.368	-13.06
1021.528	27.82
1021.688	52.04
1021.848	44.09
1022.008	35.96
1022.168	3.41
1022.328	3.41
1022.488	23.17
1022.648	10.58
1022.808	16.19
1022.968	25.49
1023.128	-12.09
1023.288	1.08
1023.448	27.82
1023.608	42.74
1023.767	4.57
1023.927	1.47
1024.087	-11.71
1024.247	-26.04
1024.406	-27.21
1024.566	-36.7
1024.726	-27.59
1024.885	17.94
1025.045	51.07
1025.205	-4.15
1025.364	1.47
1025.524	12.9
1025.683	21.23
1025.843	34.21
1026.003	6.31
1026.162	59.59
1026.321	33.44
1026.481	32.66
1026.64	-18.29
1026.8	12.13
1026.959	3.99
1027.119	1.47
1027.278	-18.1
1027.437	-4.54
1027.597	-4.34
1027.756	33.83
1027.915	33.83
1028.074	7.28
1028.234	-21.59
1028.393	41.38
1028.552	-22.56
1028.711	-74.87
1028.87	32.08
1029.03	-12.09
1029.189	8.44
1029.348	-62.08
1029.507	-31.27
1029.666	6.31
1029.825	-7.64
1029.984	-3.37
1030.143	21.04
1030.302	11.74
1030.461	-47.94
1030.62	35.38
1030.779	33.44
1030.938	-6.47
1031.097	-5.31
1031.255	38.09
1031.414	29.95
1031.573	61.34
1031.732	-64.6
1031.891	23.94
1032.049	47.77
1032.208	6.51
1032.367	-20.04
1032.525	-6.86
1032.684	7.09
1032.843	38.47
1033.001	-44.64
1033.16	119.27
1033.319	36.34
1033.477	3.21
1033.636	-2.21
1033.794	-43.29
1033.953	23.36
1034.111	33.83
1034.27	-30.5
1034.428	-1.82
1034.587	-28.17
1034.745	10.19
1034.903	-13.45
1035.062	19.49
1035.22	-23.14
1035.378	22.01
1035.537	-27.79
1035.695	6.51
1035.853	13.48
1036.011	15.23
1036.17	10.77
1036.328	-44.84
1036.486	15.42
1036.644	17.36
1036.802	-59.75
1036.96	-10.93
1037.119	-0.47
1037.277	-29.92
1037.435	-47.16
1037.593	-13.45
1037.751	-4.92
1037.909	29.95
1038.067	29.95
