Data from oakcork_FLMT105791__203__17-32-16-056.txt Node

Date: Mon Mar 20 17:32:16 GMT 2023
User: antho
Spectrometer: FLMT10579
Trigger mode: 0
Integration Time (sec): 1.000000E-1
Scans to average: 10
Electric dark correction enabled: true
Nonlinearity correction enabled: false
Boxcar width: 0
XAxis mode: Wavelengths
Number of Pixels in Spectrum: 3648
>>>>>Begin Spectral Data<<<<<
345.248	-152.24
345.464	-152.24
345.681	-152.24
345.898	-135.19
346.114	-163.47
346.331	-25.91
346.548	28.72
346.764	2.95
346.981	-34.05
347.197	-21.85
347.414	26.2
347.631	-31.14
347.847	52.94
348.064	15.74
348.28	26.98
348.497	-37.54
348.713	-3.05
348.93	14.77
349.146	12.84
349.363	15.94
349.579	0.05
349.796	27.75
350.012	25.62
350.229	33.95
350.445	13.03
350.661	-5.96
350.878	39.57
351.094	0.63
351.311	22.33
351.527	21.36
351.743	-0.53
351.96	46.55
352.176	76.97
352.392	35.31
352.609	47.13
352.825	-2.47
353.041	23.49
353.257	-1.89
353.474	26.01
353.69	11.29
353.906	22.33
354.122	2.18
354.339	59.14
354.555	31.05
354.771	23.49
354.987	53.14
355.203	53.72
355.42	-15.45
355.636	19.04
355.852	-5.57
356.068	16.52
356.284	-12.93
356.5	72.32
356.716	27.95
356.932	17.87
357.148	42.67
357.364	19.81
357.58	47.9
357.796	63.6
358.012	53.52
358.228	31.82
358.444	-54.2
358.66	75.61
358.876	30.66
359.092	13.61
359.308	26.4
359.524	25.82
359.74	0.44
359.956	35.31
360.172	22.91
360.388	65.34
360.604	49.45
360.819	79.87
361.035	22.14
361.251	60.69
361.467	6.25
361.683	47.71
361.898	15.16
362.114	61.85
362.33	20.97
362.546	44.8
362.762	13.8
362.977	41.12
363.193	-16.81
363.409	82.39
363.624	17.29
363.84	8.38
364.056	2.57
364.271	46.55
364.487	28.14
364.703	11.87
364.918	26.01
365.134	11.67
365.35	-8.86
365.565	107.97
365.781	53.14
365.996	57.2
366.212	60.3
366.427	45.19
366.643	8.19
366.858	14.39
367.074	-11
367.289	88.01
367.505	122.69
367.72	-2.86
367.936	26.59
368.151	22.33
368.367	32.99
368.582	47.13
368.798	2.18
369.013	72.12
369.228	52.94
369.444	29.69
369.659	74.64
369.874	45.77
370.09	55.07
370.305	-32.11
370.52	27.75
370.736	74.06
370.951	32.79
371.166	65.92
371.381	101.18
371.597	57.01
371.812	-6.73
372.027	-0.53
372.242	38.8
372.458	99.83
372.673	13.61
372.888	19.23
373.103	61.27
373.318	99.44
373.533	36.67
373.749	63.79
373.964	-10.61
374.179	99.05
374.394	7.41
374.609	79.1
374.824	-9.64
375.039	89.95
375.254	17.49
375.469	90.92
375.684	69.02
375.899	70.57
376.114	47.13
376.329	44.22
376.544	93.05
376.759	51.2
376.974	23.88
377.189	25.04
377.404	24.46
377.619	72.51
377.834	-25.53
378.049	19.42
378.264	21.55
378.478	68.63
378.693	29.69
378.908	62.63
379.123	40.35
379.338	71.35
379.553	62.44
379.767	62.24
379.982	73.09
380.197	46.55
380.412	53.72
380.626	95.57
380.841	106.8
381.056	47.52
381.271	88.2
381.485	-0.73
381.7	27.17
381.915	50.04
382.129	22.33
382.344	61.27
382.559	38.41
382.773	88.2
382.988	-17.78
383.202	24.65
383.417	26.4
383.632	137.8
383.846	47.9
384.061	53.14
384.275	27.56
384.49	66.7
384.704	60.5
384.919	64.95
385.133	33.95
385.348	54.1
385.562	45.77
385.777	100.22
385.991	54.1
386.206	70.18
386.42	15.55
386.634	89.56
386.849	71.73
387.063	66.89
387.277	27.37
387.492	22.33
387.706	24.27
387.92	24.85
388.135	86.46
388.349	45.77
388.563	36.67
388.778	55.65
388.992	66.7
389.206	82.58
389.42	120.75
389.635	48.87
389.849	59.34
390.063	84.91
390.277	61.27
390.491	112.62
390.706	61.47
390.92	85.1
391.134	59.34
391.348	70.18
391.562	32.4
391.776	34.92
391.99	35.7
392.205	55.85
392.419	34.34
392.633	47.71
392.847	112.03
393.061	51.2
393.275	100.41
393.489	60.89
393.703	83.94
393.917	87.62
394.131	35.5
394.345	74.64
394.559	77.74
394.773	24.85
394.986	85.88
395.2	27.95
395.414	99.63
395.628	32.99
395.842	62.82
396.056	46.94
396.27	56.82
396.484	94.79
396.697	87.82
396.911	104.28
397.125	101.57
397.339	91.69
397.553	85.1
397.766	107.38
397.98	103.7
398.194	97.12
398.408	60.11
398.621	74.25
398.835	97.31
399.049	70.38
399.262	113.58
399.476	76.38
399.69	122.3
399.903	150.4
400.117	78.52
400.331	103.9
400.544	49.84
400.758	158.73
400.971	82.58
401.185	105.06
401.398	53.91
401.612	120.17
401.826	99.63
402.039	112.23
402.253	78.32
402.466	99.44
402.68	59.53
402.893	93.63
403.106	81.62
403.32	66.5
403.533	94.6
403.747	93.05
403.96	68.25
404.174	101.38
404.387	37.83
404.6	103.7
404.814	121.33
405.027	91.11
405.24	84.13
405.454	91.69
405.667	106.03
405.88	26.4
406.094	87.62
406.307	122.3
406.52	83.55
406.733	72.12
406.947	36.67
407.16	150.01
407.373	115.33
407.586	36.09
407.799	44.03
408.012	113.39
408.226	81.81
408.439	125.21
408.652	69.41
408.865	100.02
409.078	98.47
409.291	101.96
409.504	58.56
409.717	85.3
409.93	91.88
410.143	91.11
410.357	24.85
410.57	56.82
410.783	99.63
410.996	73.48
411.209	96.92
411.421	114.94
411.634	69.99
411.847	66.7
412.06	83.36
412.273	81.03
412.486	105.06
412.699	172.29
412.912	67.28
413.125	117.07
413.338	85.3
413.55	110.29
413.763	91.69
413.976	114.94
414.189	49.07
414.402	86.65
414.615	114.94
414.827	61.08
415.04	120.37
415.253	77.93
415.466	151.75
415.678	159.7
415.891	106.22
416.104	101.57
416.316	91.69
416.529	102.54
416.742	122.88
416.954	131.8
417.167	90.53
417.38	74.83
417.592	131.8
417.805	65.34
418.017	57.01
418.23	126.18
418.442	82.97
418.655	72.12
418.868	107.19
419.08	121.14
419.293	133.93
419.505	112.23
419.718	99.83
419.93	121.33
420.142	62.63
420.355	142.26
420.567	132.77
420.78	98.86
420.992	74.06
421.205	139.55
421.417	29.3
421.629	84.52
421.842	61.08
422.054	51.78
422.266	115.33
422.479	113.78
422.691	109.13
422.903	112.03
423.115	78.71
423.328	87.43
423.54	94.79
423.752	83.36
423.964	44.22
424.177	107.58
424.389	106.03
424.601	174.81
424.813	82.39
425.025	105.06
425.238	124.05
425.45	91.5
425.662	74.64
425.874	312.76
426.086	98.08
426.298	92.08
426.51	103.12
426.722	108.74
426.934	101.57
427.146	111.07
427.358	85.88
427.57	121.72
427.782	89.95
427.994	97.5
428.206	90.33
428.418	45.19
428.63	120.95
428.842	113.78
429.054	90.33
429.266	118.82
429.478	83.17
429.69	116.68
429.902	63.02
430.114	120.95
430.325	103.51
430.537	65.34
430.749	95.57
430.961	59.92
431.173	102.93
431.384	113.97
431.596	58.56
431.808	88.4
432.02	101.77
432.231	93.63
432.443	130.63
432.655	113
432.867	69.99
433.078	104.67
433.29	154.27
433.502	129.86
433.713	132.96
433.925	117.85
434.136	159.89
434.348	69.99
434.56	60.69
434.771	213.17
434.983	76.58
435.194	85.88
435.406	103.12
435.617	139.93
435.829	172.68
436.04	99.63
436.252	116.3
436.463	157.76
436.675	115.91
436.886	85.68
437.098	120.37
437.309	142.84
437.521	97.89
437.732	135.09
437.943	134.51
438.155	112.81
438.366	73.09
438.578	148.27
438.789	121.72
439	110.48
439.211	109.32
439.423	137.61
439.634	114.55
439.845	112.62
440.057	133.15
440.268	127.92
440.479	82.78
440.69	94.4
440.902	91.69
441.113	121.33
441.324	92.47
441.535	111.45
441.746	172.87
441.957	79.48
442.168	97.7
442.38	131.6
442.591	123.27
442.802	95.37
443.013	97.89
443.224	115.91
443.435	84.72
443.646	95.37
443.857	143.42
444.068	80.45
444.279	86.46
444.49	175.58
444.701	110.1
444.912	197.67
445.123	115.33
445.334	117.65
445.545	101.57
445.756	94.21
445.967	81.23
446.178	112.23
446.388	181.98
446.599	147.3
446.81	150.78
447.021	100.02
447.232	137.03
447.443	151.37
447.653	99.44
447.864	133.15
448.075	119.01
448.286	134.51
448.496	118.04
448.707	119.2
448.918	111.84
449.129	191.66
449.339	91.88
449.55	142.07
449.761	98.47
449.971	154.27
450.182	77.74
450.393	157.37
450.603	109.9
450.814	133.35
451.024	150.01
451.235	121.72
451.446	169.77
451.656	132.57
451.867	105.83
452.077	118.62
452.288	178.3
452.498	168.41
452.709	128.7
452.919	140.71
453.13	104.48
453.34	148.85
453.55	95.76
453.761	167.25
453.971	154.27
454.182	163.76
454.392	148.46
454.602	166.86
454.813	157.56
455.023	167.64
455.233	113.2
455.444	150.78
455.654	85.88
455.864	123.27
456.075	135.09
456.285	106.03
456.495	122.3
456.705	149.04
456.916	149.43
457.126	168.61
457.336	133.93
457.546	88.98
457.756	103.7
457.967	167.64
458.177	129.28
458.387	125.79
458.597	104.48
458.807	113.58
459.017	153.5
459.227	107.38
459.437	109.13
459.647	167.06
459.857	166.28
460.068	107.38
460.278	172.29
460.488	140.9
460.698	234.1
460.908	121.14
461.117	93.43
461.327	111.84
461.537	133.54
461.747	133.73
461.957	170.74
462.167	221.11
462.377	191.08
462.587	116.1
462.797	184.3
463.007	161.05
463.216	168.8
463.426	184.5
463.636	151.95
463.846	88.4
464.056	124.82
464.265	174.61
464.475	91.3
464.685	135.28
464.895	155.82
465.104	131.8
465.314	168.41
465.524	145.55
465.733	100.41
465.943	204.26
466.153	193.21
466.362	171.9
466.572	158.73
466.782	128.89
466.991	143.62
467.201	187.79
467.41	104.09
467.62	155.82
467.829	155.24
468.039	171.32
468.249	127.53
468.458	135.67
468.668	157.95
468.877	137.22
469.086	180.23
469.296	134.32
469.505	112.81
469.715	188.76
469.924	166.67
470.134	185.27
470.343	206.78
470.552	127.15
470.762	147.88
470.971	124.43
471.18	150.01
471.39	126.18
471.599	134.7
471.808	162.99
472.018	102.54
472.227	169
472.436	183.14
472.645	129.86
472.855	113
473.064	166.67
473.273	140.32
473.482	172.68
473.691	179.65
473.901	202.9
474.11	154.85
474.319	221.5
474.528	168.61
474.737	179.26
474.946	180.62
475.155	179.26
475.364	200
475.573	157.76
475.783	167.25
475.992	181.2
476.201	191.08
476.41	123.66
476.619	118.04
476.828	162.02
477.037	153.69
477.245	144.58
477.454	211.23
477.663	144.2
477.872	135.48
478.081	223.05
478.29	122.5
478.499	245.33
478.708	168.41
478.917	203.29
479.125	178.68
479.334	195.93
479.543	169
479.752	170.93
479.961	174.03
480.169	212.2
480.378	135.87
480.587	268.97
480.796	192.05
481.004	169.77
481.213	213.75
481.422	187.79
481.63	168.22
481.839	168.61
482.048	236.61
482.256	150.78
482.465	165.12
482.674	187.6
482.882	201.74
483.091	220.92
483.299	193.99
483.508	183.72
483.716	147.49
483.925	206.78
484.134	174.03
484.342	147.88
484.551	195.73
484.759	182.56
484.967	179.07
485.176	215.69
485.384	209.49
485.593	204.65
485.801	210.07
486.01	205.61
486.218	197.48
486.426	156.98
486.635	186.63
486.843	192.44
487.051	201.35
487.26	189.15
487.468	220.92
487.676	240.49
487.885	183.72
488.093	193.02
488.301	193.8
488.509	199.8
488.717	196.31
488.926	175.39
489.134	217.43
489.342	176.94
489.55	180.23
489.758	205.42
489.967	151.95
490.175	280.4
490.383	188.76
490.591	244.75
490.799	119.4
491.007	241.26
491.215	200.58
491.423	176.55
491.631	180.62
491.839	183.72
492.047	261.22
492.255	175.78
492.463	154.85
492.671	198.64
492.879	217.82
493.087	210.46
493.295	221.7
493.503	241.46
493.711	231.77
493.919	235.84
494.127	239.91
494.334	247.85
494.542	162.02
494.75	176.75
494.958	199.41
495.166	235.65
495.374	218.21
495.581	217.82
495.789	212.2
495.997	266.64
496.205	200
496.412	201.55
496.62	188.76
496.828	237.97
497.035	228.67
497.243	227.12
497.451	209.68
497.658	210.46
497.866	196.9
498.074	270.33
498.281	206.78
498.489	293.38
498.696	226.93
498.904	220.15
499.112	213.17
499.319	275.36
499.527	223.44
499.734	276.14
499.942	206.78
500.149	219.76
500.357	232.16
500.564	196.7
500.771	238.55
500.979	198.06
501.186	217.24
501.394	215.69
501.601	230.41
501.808	252.5
502.016	222.28
502.223	232.74
502.43	234.29
502.638	220.15
502.845	223.63
503.052	302.88
503.26	242.81
503.467	264.71
503.674	234.29
503.881	242.43
504.089	297.64
504.296	244.17
504.503	198.64
504.71	240.3
504.917	193.02
505.125	244.75
505.332	228.28
505.539	266.45
505.746	282.34
505.953	239.33
506.16	265.48
506.367	278.46
506.574	323.03
506.781	301.71
506.988	236.61
507.195	248.04
507.402	246.88
507.609	288.93
507.816	227.51
508.023	250.56
508.23	258.31
508.437	193.99
508.644	253.28
508.851	328.26
509.058	298.23
509.265	265.29
509.472	282.34
509.679	351.31
509.885	258.31
510.092	283.31
510.299	274.2
510.506	279.43
510.713	280.98
510.92	296.68
511.126	287.38
511.333	351.12
511.54	304.43
511.746	323.99
511.953	313.14
512.16	334.26
512.367	252.89
512.573	273.62
512.78	307.14
512.987	263.16
513.193	283.89
513.4	221.31
513.606	271.1
513.813	288.54
514.02	308.88
514.226	371.07
514.433	317.21
514.639	289.51
514.846	292.41
515.052	268.19
515.259	285.44
515.465	287.76
515.672	297.26
515.878	375.34
516.085	273.81
516.291	304.23
516.497	283.5
516.704	287.38
516.91	274.39
517.117	249.79
517.323	238.16
517.529	284.08
517.736	309.66
517.942	289.12
518.148	251.53
518.354	287.38
518.561	304.04
518.767	297.06
518.973	364.87
519.179	326.9
519.386	296.29
519.592	274.78
519.798	294.54
520.004	304.43
520.21	275.75
520.417	340.07
520.623	343.95
520.829	343.17
521.035	327.67
521.241	331.16
521.447	337.75
521.653	455.16
521.859	349.37
522.065	343.95
522.271	398.39
522.477	365.46
522.683	385.02
522.889	373.98
523.095	363.52
523.301	365.07
523.507	342.4
523.713	390.84
523.919	336.59
524.125	404.98
524.331	358.87
524.537	430.75
524.742	391.03
524.948	388.71
525.154	375.34
525.36	471.05
525.566	410.99
525.772	407.89
525.977	361
526.183	412.92
526.389	437.34
526.595	390.84
526.8	385.61
527.006	376.69
527.212	375.34
527.417	352.09
527.623	333.1
527.829	440.63
528.034	394.13
528.24	399.94
528.446	365.46
528.651	437.14
528.857	444.5
529.062	462.52
529.268	408.27
529.473	415.64
529.679	420.67
529.884	473.18
530.09	418.15
530.295	488.87
530.501	445.86
530.706	448.57
530.912	380.76
531.117	440.82
531.323	431.72
531.528	453.42
531.733	458.65
531.939	433.27
532.144	451.09
532.35	450.32
532.555	504.57
532.76	496.82
532.966	500.5
533.171	472.6
533.376	423
533.581	462.72
533.787	465.04
533.992	464.27
534.197	489.26
534.402	461.55
534.607	446.83
534.813	563.66
535.018	456.52
535.223	463.49
535.428	486.94
535.633	508.25
535.838	489.45
536.043	477.44
536.249	530.33
536.454	484.61
536.659	481.12
536.864	468.14
537.069	491.2
537.274	469.89
537.479	492.94
537.684	504.18
537.889	449.15
538.094	540.22
538.299	473.95
538.504	491.78
538.708	500.3
538.913	522.58
539.118	513.28
539.323	492.36
539.528	472.6
539.733	509.8
539.938	534.21
540.142	534.79
540.347	506.7
540.552	480.93
540.757	513.28
540.962	475.5
541.166	479.77
541.371	458.07
541.576	496.62
541.781	424.94
541.985	502.43
542.19	503.4
542.395	545.64
542.599	547.38
542.804	561.72
543.008	564.43
543.213	479.57
543.418	506.5
543.622	532.85
543.827	492.94
544.031	567.92
544.236	553.2
544.44	499.72
544.645	594.46
544.849	512.51
545.054	525.49
545.258	591.36
545.463	587.88
545.667	525.68
545.872	556.88
546.076	509.6
546.281	534.79
546.485	520.07
546.689	547.97
546.894	577.8
547.098	522.2
547.302	508.83
547.507	545.64
547.711	534.21
547.915	578.97
548.119	509.99
548.324	535.57
548.528	590.2
548.732	543.32
548.936	565.02
549.141	567.73
549.345	540.02
549.549	554.94
549.753	522.58
549.957	601.44
550.161	603.76
550.366	532.66
550.57	517.93
550.774	545.64
550.978	558.23
551.182	564.82
551.386	538.86
551.59	518.13
551.794	512.51
551.998	559.78
552.202	543.12
552.406	532.66
552.61	539.63
552.814	547.19
553.018	598.53
553.222	549.71
553.426	522.97
553.63	630.31
553.833	537.89
554.037	491.2
554.241	586.33
554.445	542.93
554.649	534.21
554.853	543.9
555.056	601.44
555.26	565.6
555.464	547
555.668	545.06
555.871	580.9
556.075	573.54
556.279	519.48
556.483	485.39
556.686	553
556.89	528.78
557.094	569.47
557.297	516.58
557.501	598.53
557.704	529.56
557.908	558.82
558.112	530.33
558.315	580.52
558.519	538.86
558.722	559.2
558.926	543.12
559.129	492.36
559.333	473.95
559.536	500.5
559.74	480.35
559.943	488.87
560.147	496.04
560.35	524.72
560.553	489.84
560.757	462.14
560.96	549.13
561.164	484.22
561.367	589.23
561.57	494.3
561.774	523.36
561.977	498.56
562.18	490.81
562.384	612.87
562.587	505.15
562.79	477.05
562.993	489.07
563.197	544.48
563.4	573.54
563.603	563.27
563.806	584.58
564.009	491.97
564.212	507.86
564.416	475.12
564.619	530.92
564.822	468.92
565.025	534.4
565.228	518.52
565.431	492.36
565.634	427.07
565.837	456.32
566.04	454.19
566.243	479.57
566.446	425.32
566.649	492.36
566.852	423.39
567.055	467.56
567.258	506.89
567.461	519.68
567.664	508.83
567.867	443.92
568.07	454.19
568.273	466.98
568.475	486.35
568.678	460.97
568.881	438.69
569.084	484.42
569.287	398.39
569.489	423.77
569.692	480.74
569.895	491.78
570.098	433.07
570.3	406.53
570.503	394.13
570.706	395.68
570.909	401.69
571.111	368.56
571.314	387.35
571.516	379.21
571.719	408.86
571.922	384.06
572.124	386.77
572.327	403.04
572.529	396.65
572.732	365.26
572.935	398.01
573.137	454.58
573.34	397.04
573.542	435.4
573.745	417.77
573.947	427.07
574.15	422.03
574.352	390.06
574.554	447.8
574.757	397.62
574.959	371.46
575.162	360.42
575.364	381.73
575.566	457.1
575.769	383.67
575.971	415.64
576.173	312.56
576.376	396.84
576.578	416.99
576.78	455.55
576.982	317.02
577.185	366.62
577.387	357.51
577.589	324.38
577.791	383.09
577.993	413.51
578.196	356.74
578.398	401.11
578.6	429.39
578.802	329.81
579.004	330.58
579.206	350.15
579.408	391.61
579.61	347.63
579.812	398.59
580.014	367.59
580.216	381.92
580.418	350.73
580.62	351.31
580.822	288.93
581.024	342.98
581.226	383.86
581.428	352.86
581.63	406.34
581.832	347.44
582.034	397.04
582.236	344.14
582.438	369.72
582.64	389.48
582.841	412.34
583.043	416.41
583.245	355.38
583.447	364.1
583.649	354.99
583.85	363.52
584.052	396.26
584.254	324.96
584.456	429.97
584.657	302.68
584.859	356.16
585.061	342.01
585.262	330
585.464	321.86
585.666	370.69
585.867	350.92
586.069	417.77
586.27	362.94
586.472	347.05
586.674	343.76
586.875	356.16
587.077	345.69
587.278	368.36
587.48	354.22
587.681	433.07
587.883	363.52
588.084	316.24
588.285	341.62
588.487	347.82
588.688	363.91
588.89	309.66
589.091	294.93
589.292	336.39
589.494	339.3
589.695	314.31
589.896	282.14
590.098	295.13
590.299	347.05
590.5	280.21
590.702	282.73
590.903	287.38
591.104	344.72
591.305	312.37
591.507	376.31
591.708	345.31
591.909	302.1
592.11	361.19
592.311	327.09
592.512	313.34
592.714	288.15
592.915	279.43
593.116	299.39
593.317	302.68
593.518	305.01
593.719	292.41
593.92	356.93
594.121	368.75
594.322	320.7
594.523	325.74
594.724	287.96
594.925	290.09
595.126	365.26
595.327	349.37
595.528	320.51
595.729	323.22
595.929	325.54
596.13	322.44
596.331	295.32
596.532	304.43
596.733	374.17
596.934	326.13
597.135	356.16
597.335	349.37
597.536	288.15
597.737	297.64
597.938	278.46
598.138	326.51
598.339	315.28
598.54	310.82
598.74	324.19
598.941	292.99
599.142	355.38
599.342	318.76
599.543	288.54
599.744	303.84
599.944	294.54
600.145	303.84
600.345	317.02
600.546	376.11
600.746	328.45
600.947	355.38
601.147	342.98
601.348	327.87
601.548	281.76
601.749	326.13
601.949	300.55
602.15	300.55
602.35	332.32
602.551	379.21
602.751	284.86
602.951	312.37
603.152	273.81
603.352	323.22
603.552	300.55
603.753	343.56
603.953	315.86
604.153	338.14
604.354	308.88
604.554	287.57
604.754	310.24
604.954	272.07
605.155	324.38
605.355	292.41
605.555	336.78
605.755	330.58
605.955	316.83
606.155	340.27
606.356	322.83
606.556	343.76
606.756	314.11
606.956	240.49
607.156	379.79
607.356	285.63
607.556	305.2
607.756	308.69
607.956	346.86
608.156	329.22
608.356	284.28
608.556	351.7
608.756	293.38
608.956	286.21
609.156	328.45
609.356	277.3
609.556	292.03
609.755	291.25
609.955	280.79
610.155	317.21
610.355	316.83
610.555	288.93
610.755	323.8
610.954	241.07
611.154	317.02
611.354	296.87
611.554	276.14
611.753	266.26
611.953	245.14
612.153	325.16
612.352	300.94
612.552	255.21
612.752	250.18
612.951	279.82
613.151	304.62
613.351	269.55
613.55	274.98
613.75	295.32
613.949	314.5
614.149	304.81
614.348	272.26
614.548	273.04
614.747	258.31
614.947	257.54
615.146	247.46
615.346	298.42
615.545	291.83
615.745	295.32
615.944	308.11
616.144	283.89
616.343	315.08
616.542	256.57
616.742	280.21
616.941	290.09
617.14	229.83
617.34	294.93
617.539	301.91
617.738	264.51
617.938	308.49
618.137	266.84
618.336	228.09
618.535	285.05
618.734	251.92
618.934	269.55
619.133	285.05
619.332	277.69
619.531	231.19
619.73	260.06
619.929	320.51
620.128	284.86
620.328	295.13
620.527	255.41
620.726	260.64
620.925	276.53
621.124	227.51
621.323	285.24
621.522	217.63
621.721	235.84
621.92	234.1
622.119	266.64
622.318	237
622.517	258.12
622.715	241.65
622.914	229.06
623.113	254.24
623.312	230.03
623.511	249.01
623.71	238.75
623.909	213.36
624.107	275.17
624.306	203.87
624.505	253.08
624.704	221.31
624.902	253.66
625.101	296.87
625.3	243.98
625.499	223.83
625.697	227.9
625.896	237
626.095	286.79
626.293	197.86
626.492	220.92
626.69	249.01
626.889	196.31
627.088	270.91
627.286	217.82
627.485	235.45
627.683	229.25
627.882	255.79
628.08	188.95
628.279	242.04
628.477	311.21
628.676	228.86
628.874	250.37
629.073	209.88
629.271	234.1
629.469	263.74
629.668	243.78
629.866	233.9
630.065	221.11
630.263	241.65
630.461	209.68
630.66	227.51
630.858	266.26
631.056	292.99
631.254	283.5
631.453	221.5
631.651	254.63
631.849	253.28
632.047	253.86
632.245	255.99
632.444	228.86
632.642	275.36
632.84	256.76
633.038	237.78
633.236	185.66
633.434	226.35
633.632	209.68
633.83	197.67
634.028	244.17
634.227	230.22
634.425	277.69
634.623	211.62
634.821	239.91
635.019	213.95
635.216	187.98
635.414	264.13
635.612	230.22
635.81	241.07
636.008	277.3
636.206	219.56
636.404	272.84
636.602	177.52
636.8	238.94
636.997	264.32
637.195	253.66
637.393	234.29
637.591	241.46
637.789	226.35
637.986	196.9
638.184	217.24
638.382	256.38
638.58	261.8
638.777	258.12
638.975	217.24
639.173	227.7
639.37	227.51
639.568	249.79
639.765	259.28
639.963	236.61
640.161	299
640.358	228.86
640.556	227.9
640.753	200.58
640.951	207.75
641.148	233.9
641.346	229.25
641.543	221.7
641.741	242.43
641.938	205.23
642.136	232.55
642.333	207.75
642.531	274.01
642.728	282.53
642.925	249.98
643.123	218.21
643.32	250.95
643.517	246.69
643.715	263.74
643.912	196.31
644.109	254.24
644.306	215.5
644.504	214.14
644.701	228.67
644.898	242.23
645.095	199.41
645.293	246.11
645.49	247.27
645.687	237.78
645.884	254.83
646.081	216.85
646.278	207.16
646.475	226.54
646.672	200.77
646.87	256.57
647.067	259.09
647.264	221.11
647.461	209.49
647.658	185.66
647.855	244.56
648.052	218.6
648.249	129.67
648.446	215.5
648.642	217.43
648.839	212.98
649.036	197.48
649.233	168.41
649.43	185.08
649.627	172.68
649.824	207.94
650.021	209.88
650.217	156.98
650.414	177.91
650.611	232.35
650.808	219.95
651.004	213.56
651.201	218.6
651.398	254.44
651.595	217.82
651.791	171.71
651.988	234.1
652.185	196.51
652.381	224.8
652.578	165.51
652.775	217.24
652.971	174.23
653.168	222.28
653.364	206.58
653.561	172.1
653.757	206
653.954	192.44
654.15	156.01
654.347	258.7
654.543	207.75
654.74	136.06
654.936	173.06
655.133	194.57
655.329	194.38
655.525	201.93
655.722	231.19
655.918	180.43
656.115	242.04
656.311	181.01
656.507	170.35
656.704	157.56
656.9	181.2
657.096	167.06
657.292	167.45
657.489	226.35
657.685	202.71
657.881	173.26
658.077	178.1
658.273	179.07
658.47	261.99
658.666	164.93
658.862	181.4
659.058	190.7
659.254	211.04
659.45	163.38
659.646	187.6
659.842	159.31
660.038	213.17
660.234	149.43
660.43	164.35
660.626	252.69
660.822	207.55
661.018	221.5
661.214	194.57
661.41	157.76
661.606	208.91
661.802	189.15
661.998	191.66
662.194	165.31
662.39	193.02
662.586	199.03
662.781	181.59
662.977	208.33
663.173	218.01
663.369	199.03
663.564	198.25
663.76	230.61
663.956	178.1
664.152	234.1
664.347	136.83
664.543	216.66
664.739	194.38
664.934	185.08
665.13	135.48
665.326	215.11
665.521	198.64
665.717	151.95
665.912	155.82
666.108	91.3
666.304	163.18
666.499	193.02
666.695	128.12
666.89	191.28
667.086	189.73
667.281	167.45
667.477	212.59
667.672	211.81
667.867	153.3
668.063	210.07
668.258	169.19
668.454	172.48
668.649	230.41
668.844	173.26
669.04	197.67
669.235	195.35
669.43	137.61
669.626	153.11
669.821	163.76
670.016	152.72
670.211	175.78
670.407	152.91
670.602	153.3
670.797	182.36
670.992	195.15
671.187	175.58
671.382	213.56
671.578	175.58
671.773	188.56
671.968	157.18
672.163	176.75
672.358	212.78
672.553	152.14
672.748	169.77
672.943	239.91
673.138	186.05
673.333	190.11
673.528	170.55
673.723	176.55
673.918	191.66
674.113	136.45
674.308	251.34
674.503	206.58
674.698	214.53
674.892	207.75
675.087	212.2
675.282	178.88
675.477	164.73
675.672	202.71
675.867	161.25
676.061	122.88
676.256	162.41
676.451	169.19
676.646	192.63
676.84	155.63
677.035	147.1
677.23	144.39
677.424	164.73
677.619	208.91
677.814	200.96
678.008	217.82
678.203	117.65
678.397	146.33
678.592	196.31
678.787	208.91
678.981	162.8
679.176	185.27
679.37	166.28
679.565	132.38
679.759	155.63
679.954	174.03
680.148	216.66
680.342	210.26
680.537	214.14
680.731	161.25
680.926	165.31
681.12	200.77
681.314	169.58
681.509	161.25
681.703	169.38
681.897	210.85
682.092	179.26
682.286	161.05
682.48	215.88
682.674	189.73
682.869	177.91
683.063	162.02
683.257	245.33
683.451	155.05
683.645	195.54
683.839	164.35
684.034	186.43
684.228	218.4
684.422	151.56
684.616	143.23
684.81	207.36
685.004	151.37
685.198	186.63
685.392	183.33
685.586	154.66
685.78	194.57
685.974	207.16
686.168	179.46
686.362	246.49
686.556	153.88
686.75	166.09
686.944	163.38
687.138	208.91
687.331	144.78
687.525	177.91
687.719	129.67
687.913	191.08
688.107	182.36
688.301	152.14
688.494	163.38
688.688	169.58
688.882	130.63
689.076	118.23
689.269	167.06
689.463	220.73
689.657	171.13
689.85	156.21
690.044	147.3
690.238	148.07
690.431	153.69
690.625	166.48
690.818	167.45
691.012	172.48
691.205	168.61
691.399	129.28
691.593	163.76
691.786	228.28
691.98	194.18
692.173	213.56
692.366	178.3
692.56	188.95
692.753	236.81
692.947	144
693.14	205.03
693.333	232.55
693.527	146.13
693.72	197.28
693.914	187.21
694.107	195.15
694.3	207.75
694.493	159.31
694.687	241.84
694.88	186.82
695.073	225.76
695.266	227.9
695.46	180.62
695.653	243.78
695.846	235.65
696.039	158.34
696.232	186.05
696.425	215.11
696.618	228.48
696.812	203.48
697.005	254.44
697.198	315.86
697.391	245.72
697.584	247.46
697.777	293.38
697.97	271.1
698.163	280.01
698.356	243.01
698.549	317.21
698.742	280.4
698.935	233.71
699.127	288.54
699.32	253.08
699.513	264.51
699.706	274.98
699.899	290.67
700.092	287.38
700.285	303.84
700.477	271.49
700.67	292.8
700.863	299.39
701.056	393.16
701.248	366.23
701.441	353.83
701.634	311.01
701.826	388.51
702.019	319.54
702.212	358.09
702.404	343.95
702.597	311.4
702.79	315.28
702.982	361.77
703.175	383.47
703.367	383.09
703.56	377.08
703.752	470.85
703.945	405.17
704.137	423
704.33	442.76
704.522	420.09
704.715	435.59
704.907	443.15
705.1	437.92
705.292	452.06
705.484	423.97
705.677	497.98
705.869	465.62
706.061	481.32
706.254	524.72
706.446	456.52
706.638	476.09
706.831	561.72
707.023	469.3
707.215	584.97
707.407	540.41
707.599	519.87
707.792	565.4
707.984	539.05
708.176	598.92
708.368	556.1
708.56	576.25
708.752	566.18
708.944	571.6
709.136	587.3
709.329	591.17
709.521	699.09
709.713	632.05
709.905	646.97
710.097	681.07
710.289	593.88
710.481	649.3
710.672	665.38
710.864	675.45
711.056	718.46
711.248	708.58
711.44	683.01
711.632	690.76
711.824	711.88
712.016	748.69
712.207	745.98
712.399	742.29
712.591	818.63
712.783	745.78
712.975	828.51
713.166	745.78
713.358	757.99
713.55	849.05
713.741	813.21
713.933	830.84
714.125	819.79
714.316	821.54
714.508	861.84
714.7	879.85
714.891	855.25
715.083	935.07
715.274	864.16
715.466	888.96
715.657	912.99
715.849	840.14
716.04	915.7
716.232	810.3
716.423	928.1
716.615	866.87
716.806	892.84
716.998	844.01
717.189	806.81
717.381	808.56
717.572	770.39
717.763	810.88
717.955	808.17
718.146	798.87
718.337	787.05
718.528	730.86
718.72	692.69
718.911	758.18
719.102	765.54
719.293	806.23
719.485	777.75
719.676	769.81
719.867	763.61
720.058	760.12
720.249	800.42
720.44	789.57
720.632	829.87
720.823	843.43
721.014	902.72
721.205	881.79
721.396	961.62
721.587	1040.47
721.778	1032.14
721.969	1051.71
722.16	1082.51
722.351	1047.06
722.542	1201.67
722.733	1196.63
722.924	1101.89
723.115	1150.91
723.305	1169.89
723.496	1179.39
723.687	1098.21
723.878	1128.24
724.069	1106.15
724.26	1136.96
724.45	1050.35
724.641	1089.1
724.832	1135.99
725.023	1100.73
725.213	1079.8
725.404	1086.39
725.595	1127.46
725.785	1105.57
725.976	1153.81
726.167	1153.23
726.357	1148.97
726.548	1209.03
726.739	1171.64
726.929	1252.04
727.12	1248.94
727.31	1269.29
727.501	1214.26
727.691	1258.44
727.882	1249.14
728.072	1273.74
728.263	1263.09
728.453	1346.4
728.644	1315.01
728.834	1332.84
729.024	1283.82
729.215	1306.1
729.405	1337.49
729.596	1416.15
729.786	1406.46
729.976	1431.07
730.167	1430.48
730.357	1383.02
730.547	1383.21
730.737	1434.55
730.928	1474.85
731.118	1504.11
731.308	1446.76
731.498	1468.46
731.688	1524.06
731.879	1538.01
732.069	1605.63
732.259	1604.28
732.449	1638.57
732.639	1681.97
732.829	1687.97
733.019	1725.76
733.209	1760.44
733.399	1781.94
733.589	1813.33
733.779	1854.6
733.969	1866.8
734.159	1870.1
734.349	1948.95
734.539	1958.45
734.729	1947.6
734.919	2003.01
735.109	1999.71
735.299	1952.44
735.488	1992.16
735.678	2009.98
735.868	2040.98
736.058	2024.71
736.248	2024.51
736.437	1992.74
736.627	1981.7
736.817	2104.34
737.007	2094.26
737.196	2105.89
737.386	2081.28
737.576	2086.32
737.765	2134.95
737.955	2123.32
738.144	2247.71
738.334	2182.42
738.524	2177.38
738.713	2154.13
738.903	2185.71
739.092	2189
739.282	2200.63
739.471	2249.45
739.661	2230.27
739.85	2267.67
740.04	2249.07
740.229	2312.81
740.419	2321.53
740.608	2347.49
740.797	2319.4
740.987	2362.02
741.176	2373.26
741.365	2285.1
741.555	2326.18
741.744	2387.01
741.933	2352.72
742.123	2407.16
742.312	2431.96
742.501	2472.26
742.69	2442.04
742.88	2346.71
743.069	2457.15
743.258	2426.73
743.447	2505.39
743.636	2503.26
743.825	2483.89
744.014	2469.36
744.204	2497.26
744.393	2416.27
744.582	2552.28
744.771	2567.78
744.96	2522.44
745.149	2555.96
745.338	2511.01
745.527	2565.65
745.716	2564.1
745.905	2526.51
746.094	2561.77
746.283	2577.08
746.471	2587.16
746.66	2615.25
746.849	2637.92
747.038	2641.4
747.227	2588.32
747.416	2629.59
747.604	2570.69
747.793	2587.16
747.982	2639.27
748.171	2622.42
748.359	2618.35
748.548	2594.71
748.737	2621.64
748.926	2634.43
749.114	2553.83
749.303	2609.82
749.491	2602.46
749.68	2582.7
749.869	2658.84
750.057	2589.87
750.246	2562.74
750.434	2599.36
750.623	2636.56
750.811	2578.24
751	2661.17
751.188	2635.98
751.377	2602.46
751.565	2597.42
751.754	2575.34
751.942	2591.42
752.131	2653.42
752.319	2600.91
752.507	2557.12
752.696	2630.55
752.884	2660.78
753.072	2618.35
753.261	2653.22
753.449	2595.87
753.637	2602.07
753.825	2679.19
754.014	2628.04
754.202	2634.24
754.39	2666.01
754.578	2660.97
754.766	2579.21
754.955	2635.59
755.143	2703.98
755.331	2627.26
755.519	2596.26
755.707	2627.65
755.895	2578.44
756.083	2602.46
756.271	2582.7
756.459	2623.97
756.647	2647.8
756.835	2611.57
757.023	2548.6
757.211	2584.44
757.399	2567.2
757.587	2590.45
757.775	2539.88
757.963	2577.47
758.151	2566.62
758.339	2568.56
758.526	2520.12
758.714	2554.61
758.902	2463.54
759.09	2376.16
759.278	2237.64
759.465	2043.89
759.653	1782.52
759.841	1630.04
760.028	1404.13
760.216	1217.75
760.404	1166.99
760.591	934.69
760.779	784.53
760.967	716.53
761.154	570.44
761.342	609.58
761.529	603.38
761.717	647.75
761.905	637.67
762.092	691.73
762.28	625.08
762.467	651.23
762.655	560.17
762.842	599.31
763.029	622.95
763.217	597.18
763.404	609
763.592	644.26
763.779	607.45
763.966	648.13
764.154	685.72
764.341	719.24
764.528	742.29
764.716	764.96
764.903	817.08
765.09	854.47
765.277	920.15
765.465	1026.52
765.652	1048.8
765.839	1126.11
766.026	1229.96
766.213	1262.31
766.4	1336.13
766.588	1506.05
766.775	1482.21
766.962	1580.25
767.149	1631.59
767.336	1743
767.523	1759.85
767.71	1860.6
767.897	1926.67
768.084	1986.54
768.271	2003.59
768.458	2052.22
768.645	2093.49
768.832	2077.79
769.019	2127.39
769.206	2144.83
769.392	2216.52
769.579	2302.54
769.766	2230.08
769.953	2213.8
770.14	2276.38
770.327	2265.92
770.513	2340.32
770.7	2366.09
770.887	2275.8
771.073	2352.33
771.26	2306.61
771.447	2342.65
771.634	2305.64
771.82	2412.4
772.007	2301.96
772.193	2354.66
772.38	2370.93
772.567	2325.21
772.753	2310.87
772.94	2384.69
773.126	2376.75
773.313	2380.81
773.499	2353.5
773.686	2391.08
773.872	2374.42
774.059	2360.08
774.245	2276.19
774.432	2311.07
774.618	2284.33
774.804	2361.05
774.991	2272.7
775.177	2347.3
775.363	2308.74
775.55	2357.56
775.736	2294.4
775.922	2278.71
776.109	2289.95
776.295	2331.22
776.481	2324.05
776.667	2380.23
776.853	2312.03
777.04	2288.2
777.226	2275.61
777.412	2331.6
777.598	2226.59
777.784	2251.2
777.97	2275.03
778.156	2280.26
778.342	2267.28
778.528	2242.48
778.715	2219.62
778.901	2217.49
779.087	2261.66
779.272	2223.88
779.458	2222.52
779.644	2247.32
779.83	2223.1
780.016	2295.18
780.202	2231.63
780.388	2211.67
780.574	2182.61
780.76	2199.66
780.946	2217.68
781.131	2202.18
781.317	2187.65
781.503	2161.11
781.689	2184.16
781.874	2279.1
782.06	2174.86
782.246	2170.02
782.432	2158.39
782.617	2192.3
782.803	2200.63
782.989	2109.96
783.174	2171.57
783.36	2100.85
783.545	2159.36
783.731	2106.66
783.916	2081.86
784.102	2159.94
784.288	2113.06
784.473	2152.58
784.659	2066.17
784.844	2146.77
785.029	2091.74
785.215	2087.09
785.4	2025.29
785.586	2135.72
785.771	2009.98
785.956	2093.87
786.142	2076.24
786.327	2026.26
786.512	2024.71
786.698	2063.65
786.883	2007.46
787.068	2027.61
787.254	2016.18
787.439	2000.68
787.624	2016.96
787.809	1995.64
787.994	1997.78
788.18	2054.16
788.365	1972.4
788.55	1990.22
788.735	1971.43
788.92	1970.65
789.105	1937.33
789.29	2003.98
789.475	1929.38
789.66	1939.46
789.845	1910.2
790.03	1907.1
790.215	1945.66
790.4	1943.14
790.585	1983.25
790.77	1940.62
790.955	1848.01
791.14	1906.52
791.325	1989.83
791.51	1853.82
791.695	1916.21
791.879	1907.1
792.064	1835.61
792.249	1947.79
792.434	1874.17
792.618	1898.77
792.803	1944.5
792.988	1893.73
793.173	1909.23
793.357	1897.03
793.542	1848.78
793.727	1902.26
793.911	1922.21
794.096	1898.77
794.281	1909.04
794.465	1943.53
794.65	1892.18
794.834	1907.88
795.019	1961.16
795.203	1990.03
795.388	1929.58
795.572	1972.2
795.757	1957.48
795.941	1945.66
796.126	1975.3
796.31	1863.9
796.494	1927.64
796.679	1917.95
796.863	1846.46
797.048	1932.87
797.232	1948.56
797.416	1908.85
797.601	1912.14
797.785	1997.78
797.969	1979.18
798.153	1895.87
798.338	1947.98
798.522	1975.69
798.706	1947.4
798.89	1950.5
799.074	2051.44
799.258	2039.43
799.443	1957.48
799.627	1952.63
799.811	1973.75
799.995	1965.81
800.179	1931.13
800.363	1911.56
800.547	1968.52
800.731	1967.94
800.915	1913.3
801.099	1923.18
801.283	1952.83
801.467	1949.34
801.651	1913.5
801.835	1947.01
802.019	1978.98
802.202	1941.59
802.386	1927.83
802.57	1912.14
802.754	1907.1
802.938	1898
803.121	1908.07
803.305	1965.42
803.489	1894.7
803.673	1913.69
803.856	1942.17
804.04	1922.41
804.224	1926.28
804.407	1910.78
804.591	1876.88
804.775	1879.98
804.958	1929.77
805.142	2000.1
805.326	1914.46
805.509	1950.11
805.693	1987.7
805.876	1932.29
806.06	1944.11
806.243	1972.78
806.427	1942.56
806.61	1977.82
806.794	1932.29
806.977	2010.18
807.16	1974.72
807.344	1976.27
807.527	1965.03
807.71	1933.65
807.894	1986.54
808.077	1951.47
808.26	1931.71
808.444	1896.25
808.627	1941.4
808.81	1900.71
808.993	1854.02
809.177	1861.77
809.36	1901.29
809.543	1919.7
809.726	1813.33
809.909	1805.97
810.092	1802.67
810.276	1817.4
810.459	1817.78
810.642	1808.29
810.825	1783.69
811.008	1774.39
811.191	1724.59
811.374	1723.24
811.557	1728.27
811.74	1788.14
811.923	1708.9
812.106	1703.67
812.289	1665.31
812.472	1690.49
812.654	1702.89
812.837	1648.64
813.02	1603.69
813.203	1591.49
813.386	1502.75
813.569	1510.89
813.751	1456.83
813.934	1548.67
814.117	1497.13
814.3	1461.68
814.482	1399.68
814.665	1410.92
814.848	1351.05
815.03	1318.11
815.213	1312.3
815.396	1301.84
815.578	1285.95
815.761	1267.35
815.943	1350.66
816.126	1220.27
816.309	1230.92
816.491	1193.53
816.674	1154.98
816.856	1204.19
817.039	1184.04
817.221	1258.63
817.403	1185.78
817.586	1209.03
817.768	1210.97
817.951	1143.54
818.133	1117.58
818.315	1149.74
818.498	1202.44
818.68	1231.12
818.862	1234.22
819.045	1247.01
819.227	1232.67
819.409	1201.86
819.591	1222.79
819.774	1211.16
819.956	1185.2
820.138	1253.59
820.32	1264.64
820.502	1289.24
820.684	1313.65
820.866	1344.46
821.048	1391.93
821.231	1374.1
821.413	1397.35
821.595	1365.97
821.777	1390.96
821.959	1351.05
822.141	1420.41
822.323	1344.85
822.505	1237.12
822.686	1203.8
822.868	1175.51
823.05	1075.15
823.232	1065.46
823.414	1004.82
823.596	1104.41
823.778	1074.18
823.96	1106.93
824.141	1102.86
824.323	1104.99
824.505	1183.07
824.687	1194.5
824.868	1218.52
825.05	1299.12
825.232	1325.09
825.413	1425.64
825.595	1328.96
825.777	1298.93
825.958	1335.74
826.14	1316.37
826.321	1340.2
826.503	1351.82
826.685	1352.99
826.866	1347.17
827.048	1313.46
827.229	1352.99
827.411	1272.58
827.592	1269.48
827.773	1279.56
827.955	1250.49
828.136	1234.41
828.318	1177.64
828.499	1254.76
828.68	1194.69
828.862	1205.74
829.043	1213.29
829.224	1187.53
829.406	1157.88
829.587	1177.06
829.768	1201.67
829.949	1231.7
830.131	1212.91
830.312	1243.52
830.493	1229.57
830.674	1214.46
830.855	1210.77
831.036	1218.14
831.218	1216.2
831.399	1259.41
831.58	1205.54
831.761	1212.13
831.942	1251.07
832.123	1189.66
832.304	1177.06
832.485	1195.66
832.666	1193.92
832.847	1251.66
833.028	1192.56
833.209	1212.91
833.389	1212.52
833.57	1159.43
833.751	1165.24
833.932	1229.18
834.113	1217.56
834.294	1186.75
834.475	1247.39
834.655	1280.14
834.836	1287.31
835.017	1248.94
835.198	1180.36
835.378	1228.79
835.559	1293.12
835.74	1231.12
835.92	1218.33
836.101	1215.81
836.281	1260.57
836.462	1252.24
836.643	1282.46
836.823	1278.78
837.004	1278.97
837.184	1320.44
837.365	1297.96
837.545	1302.42
837.726	1268.51
837.906	1292.92
838.087	1285.17
838.267	1296.6
838.448	1259.99
838.628	1269.09
838.808	1281.49
838.989	1308.81
839.169	1201.28
839.349	1308.81
839.53	1290.6
839.71	1308.04
839.89	1242.16
840.07	1322.95
840.251	1261.54
840.431	1317.92
840.611	1286.72
840.791	1273.55
840.971	1299.9
841.151	1251.46
841.332	1231.12
841.512	1279.17
841.692	1207.67
841.872	1268.9
842.052	1225.31
842.232	1299.32
842.412	1251.07
842.592	1245.46
842.772	1301.84
842.952	1265.02
843.132	1261.92
843.312	1232.67
843.492	1224.34
843.672	1255.92
843.851	1185.98
844.031	1229.18
844.211	1258.05
844.391	1200.12
844.571	1249.33
844.751	1275.49
844.93	1233.06
845.11	1206.51
845.29	1235.38
845.47	1274.91
845.649	1251.07
845.829	1259.02
846.009	1232.86
846.188	1231.12
846.368	1204.57
846.547	1235.19
846.727	1248.56
846.907	1200.31
847.086	1239.64
847.266	1223.37
847.445	1232.86
847.625	1180.74
847.804	1204.77
847.984	1242.74
848.163	1184.23
848.343	1175.71
848.522	1243.32
848.701	1218.52
848.881	1176.68
849.06	1197.41
849.239	1215.62
849.419	1197.21
849.598	1147.23
849.777	1147.61
849.957	1113.71
850.136	1089.68
850.315	1092.4
850.494	1086.78
850.674	1089.49
850.853	1173.58
851.032	1128.43
851.211	1180.94
851.39	1119.33
851.569	1078.25
851.748	1079.03
851.927	1160.59
852.107	1109.64
852.286	1091.04
852.465	1067.21
852.644	1148.97
852.823	1135.02
853.002	1116.03
853.181	1124.17
853.359	1140.25
853.538	1045.51
853.717	1154.39
853.896	1053.65
854.075	1002.5
854.254	935.85
854.433	929.65
854.611	998.62
854.79	948.25
854.969	994.75
855.148	1005.79
855.327	965.88
855.505	1006.37
855.684	1012.77
855.863	1019.55
856.041	1005.4
856.22	1031.36
856.399	1006.18
856.577	1067.6
856.756	1040.08
856.934	1197.99
857.113	1168.93
857.291	1070.7
857.47	1078.64
857.648	1098.79
857.827	1087.75
858.005	1104.6
858.184	1065.85
858.362	1128.24
858.541	1077.09
858.719	1095.69
858.898	1055.78
859.076	1052.87
859.254	1093.56
859.433	1025.17
859.611	1027.88
859.789	1018.38
859.967	1088.52
860.146	1120.49
860.324	1013.35
860.502	1009.86
860.68	977.7
860.859	1022.84
861.037	1045.51
861.215	1068.18
861.393	1048.8
861.571	1032.91
861.749	1018.97
861.927	1048.8
862.105	1018.58
862.283	1017.61
862.461	1018.97
862.639	1013.15
862.817	967.04
862.995	1022.65
863.173	986.22
863.351	1032.53
863.529	1016.06
863.707	1036.4
863.885	1038.92
864.063	941.08
864.241	999.98
864.418	1053.06
864.596	1008.7
864.774	955.61
864.952	1008.89
865.129	990.1
865.307	938.75
865.485	919.96
865.663	1020.52
865.84	900.78
866.018	950.77
866.196	845.17
866.373	887.6
866.551	837.62
866.728	810.3
866.906	833.16
867.084	855.25
867.261	902.33
867.439	893.42
867.616	913.76
867.794	893.61
867.971	923.45
868.149	912.02
868.326	965.3
868.503	936.62
868.681	936.24
868.858	907.37
869.035	913.57
869.213	938.56
869.39	890.12
869.567	958.32
869.745	916.67
869.922	930.04
870.099	933.91
870.276	948.05
870.454	961.62
870.631	958.52
870.808	885.09
870.985	950.57
871.162	970.33
871.339	921.51
871.517	888.77
871.694	909.5
871.871	914.92
872.048	872.3
872.225	892.25
872.402	918.99
872.579	874.24
872.756	882.37
872.933	847.11
873.11	879.85
873.287	904.07
873.463	878.5
873.64	862.22
873.817	900.39
873.994	874.82
874.171	861.25
874.348	873.46
874.524	818.82
874.701	861.84
874.878	817.27
875.055	876.95
875.231	860.48
875.408	883.54
875.585	820.18
875.762	847.31
875.938	838.59
876.115	845.17
876.291	838.2
876.468	808.17
876.645	815.72
876.821	797.9
876.998	816.89
877.174	843.82
877.351	829.87
877.527	814.95
877.704	849.44
877.88	837.81
878.057	803.32
878.233	848.27
878.409	781.62
878.586	828.9
878.762	803.91
878.938	809.72
879.115	741.71
879.291	808.94
879.467	776.59
879.644	800.81
879.82	817.47
879.996	778.14
880.172	732.41
880.349	793.25
880.525	810.49
880.701	746.17
880.877	750.24
881.053	778.52
881.229	773.87
881.405	800.03
881.581	783.56
881.757	780.46
881.933	767.87
882.109	803.52
882.285	770.19
882.461	711.68
882.637	765.74
882.813	743.26
882.989	772.52
883.165	819.41
883.341	747.53
883.517	790.92
883.693	782.98
883.869	795.38
884.044	752.56
884.22	799.45
884.396	808.75
884.572	819.99
884.747	805.84
884.923	782.79
885.099	788.21
885.275	817.66
885.45	776.01
885.626	758.96
885.801	756.24
885.977	778.52
886.153	723.5
886.328	780.66
886.504	742.88
886.679	762.64
886.855	731.06
887.03	777.36
887.206	819.41
887.381	773.49
887.557	770.19
887.732	776.59
887.908	794.22
888.083	770.77
888.258	768.45
888.434	774.46
888.609	779.3
888.784	811.66
888.96	769.42
889.135	766.51
889.31	745.59
889.485	756.05
889.661	785.11
889.836	801.77
890.011	770
890.186	754.69
890.361	728.34
890.537	785.31
890.712	777.56
890.887	786.86
891.062	742.1
891.237	811.07
891.412	758.38
891.587	761.09
891.762	819.99
891.937	794.41
892.112	746.17
892.287	765.16
892.462	734.54
892.637	707.61
892.812	713.62
892.987	715.17
893.161	678.16
893.336	713.04
893.511	722.14
893.686	699.67
893.861	710.91
894.035	713.04
894.21	707.23
894.385	630.5
894.56	676.03
894.734	626.82
894.909	636.31
895.084	617.71
895.258	625.08
895.433	662.08
895.608	604.35
895.782	564.05
895.957	593.3
896.131	612.29
896.306	528.2
896.48	537.12
896.655	572.96
896.829	507.47
897.004	493.91
897.178	512.32
897.353	510.18
897.527	563.08
897.701	509.99
897.876	466.2
898.05	535.18
898.224	510.38
898.399	583.62
898.573	530.53
898.747	421.45
898.921	480.54
899.096	411.57
899.27	399.56
899.444	433.27
899.618	428.62
899.792	440.24
899.967	440.63
900.141	498.75
900.315	401.3
900.489	456.13
900.663	503.4
900.837	441.79
901.011	404.59
901.185	514.45
901.359	467.75
901.533	462.52
901.707	458.07
901.881	436.56
902.055	418.74
902.229	421.84
902.403	493.14
902.576	441.4
902.75	472.21
902.924	549.71
903.098	489.84
903.272	529.95
903.446	541.57
903.619	534.98
903.793	551.65
903.967	521.81
904.14	576.25
904.314	582.65
904.488	566.76
904.661	582.07
904.835	565.21
905.009	621.2
905.182	663.25
905.356	583.23
905.529	558.43
905.703	560.75
905.876	540.8
906.05	499.53
906.223	510.57
906.397	456.9
906.57	454.39
906.744	458.65
906.917	491.97
907.09	458.26
907.264	464.07
907.437	441.79
907.61	387.35
907.784	422.22
907.957	451.87
908.13	403.62
908.304	448.57
908.477	414.47
908.65	435.01
908.823	400.72
908.996	454.58
909.17	401.49
909.343	373.01
909.516	385.61
909.689	402.27
909.862	375.72
910.035	416.99
910.208	378.63
910.381	365.07
910.554	498.56
910.727	399.94
910.9	378.82
911.073	368.75
911.246	460.78
911.419	431.52
911.592	449.35
911.765	384.64
911.938	369.14
912.11	399.75
912.283	415.05
912.456	444.31
912.629	399.56
912.802	376.69
912.974	361.97
913.147	303.07
913.32	271.1
913.493	328.45
913.665	353.25
913.838	359.84
914.01	343.17
914.183	347.63
914.356	347.24
914.528	381.15
914.701	429.78
914.873	410.21
915.046	340.07
915.218	335.04
915.391	274.59
915.563	301.91
915.736	333.1
915.908	368.36
916.081	352.67
916.253	307.91
916.425	351.51
916.598	385.41
916.77	359.26
916.942	351.7
917.115	283.69
917.287	327.09
917.459	305.78
917.632	297.06
917.804	273.04
917.976	328.26
918.148	336.78
918.32	351.7
918.493	379.21
918.665	365.46
918.837	359.45
919.009	406.53
919.181	383.86
919.353	348.41
919.525	364.49
919.697	350.15
919.869	360.22
920.041	428.81
920.213	478.6
920.385	392.97
920.557	339.49
920.729	394.52
920.901	367.01
921.073	355.19
921.244	342.98
921.416	420.87
921.588	385.61
921.76	375.72
921.932	424.74
922.103	343.17
922.275	376.69
922.447	364.49
922.619	309.08
922.79	336.01
922.962	316.63
923.134	369.72
923.305	336.39
923.477	331.55
923.648	309.66
923.82	333.1
923.991	270.13
924.163	298.42
924.335	317.02
924.506	292.03
924.677	366.04
924.849	292.99
925.02	308.69
925.192	326.51
925.363	323.22
925.535	317.79
925.706	300.94
925.877	359.64
926.049	299.97
926.22	324.77
926.391	338.14
926.562	351.7
926.734	313.14
926.905	337.17
927.076	259.48
927.247	312.76
927.419	252.11
927.59	290.67
927.761	273.23
927.932	245.14
928.103	289.12
928.274	220.15
928.445	224.8
928.616	239.33
928.787	212.98
928.958	259.86
929.129	245.91
929.3	231.38
929.471	187.01
929.642	136.64
929.813	118.82
929.984	226.73
930.155	151.95
930.326	200.38
930.496	153.3
930.667	108.16
930.838	160.28
931.009	111.84
931.18	146.91
931.35	141.87
931.521	165.31
931.692	75.03
931.863	52.17
932.033	123.47
932.204	120.56
932.374	107.77
932.545	76.77
932.716	126.37
932.886	131.6
933.057	38.8
933.227	56.04
933.398	156.01
933.568	65.53
933.739	26.4
933.909	42.29
934.08	76
934.25	15.16
934.421	31.63
934.591	86.46
934.761	43.64
934.932	15.74
935.102	75.22
935.272	26.2
935.443	35.7
935.613	49.26
935.783	45.97
935.953	10.12
936.123	184.11
936.294	15.16
936.464	44.42
936.634	46.55
936.804	8.77
936.974	20.59
937.144	44.42
937.314	66.12
937.484	62.82
937.655	0.82
937.825	89.37
937.995	6.05
938.165	81.03
938.334	57.2
938.504	46.55
938.674	64.57
938.844	69.6
939.014	83.94
939.184	73.67
939.354	118.82
939.524	100.99
939.694	77.74
939.863	48.29
940.033	134.51
940.203	131.41
940.373	105.64
940.542	112.42
940.712	92.27
940.882	113.97
941.051	126.57
941.221	97.12
941.391	121.33
941.56	84.72
941.73	48.1
941.899	189.73
942.069	66.12
942.238	129.08
942.408	110.48
942.577	134.7
942.747	81.81
942.916	26.79
943.086	93.63
943.255	115.33
943.425	84.13
943.594	75.8
943.763	7.8
943.933	58.95
944.102	-19.13
944.271	75.42
944.441	97.89
944.61	76.38
944.779	63.21
944.948	157.76
945.117	43.25
945.287	63.02
945.456	42.29
945.625	59.72
945.794	78.13
945.963	59.92
946.132	77.16
946.301	54.1
946.47	96.73
946.639	33.57
946.808	52.55
946.977	102.35
947.146	111.84
947.315	57.59
947.484	108.55
947.653	41.32
947.822	51.78
947.991	54.69
948.16	146.91
948.329	90.33
948.498	56.62
948.666	73.67
948.835	102.35
949.004	55.07
949.173	49.84
949.341	57.79
949.51	93.63
949.679	99.25
949.847	83.94
950.016	138.19
950.185	116.88
950.353	45.39
950.522	73.48
950.69	98.08
950.859	67.67
951.028	107.97
951.196	63.02
951.365	48.29
951.533	69.6
951.701	100.6
951.87	85.68
952.038	27.95
952.207	67.28
952.375	114.55
952.543	54.49
952.712	56.43
952.88	65.53
953.048	108.35
953.217	82.97
953.385	87.62
953.553	100.02
953.721	43.25
953.89	59.72
954.058	38.02
954.226	57.59
954.394	70.96
954.562	19.42
954.73	95.18
954.898	54.69
955.067	99.05
955.235	56.82
955.403	121.14
955.571	149.23
955.739	83.36
955.907	39.77
956.075	63.21
956.243	43.06
956.41	95.95
956.578	36.86
956.746	23.49
956.914	44.22
957.082	97.89
957.25	110.1
957.418	47.71
957.585	81.62
957.753	132.77
957.921	44.8
958.089	87.04
958.256	82
958.424	96.73
958.592	93.24
958.759	47.71
958.927	103.7
959.095	51.97
959.262	76.77
959.43	90.72
959.597	18.84
959.765	76.58
959.932	48.29
960.1	101.77
960.267	74.25
960.435	69.8
960.602	99.63
960.77	60.11
960.937	44.22
961.104	88.2
961.272	38.6
961.439	34.15
961.606	96.92
961.774	114.17
961.941	57.98
962.108	66.12
962.275	100.99
962.443	119.78
962.61	87.82
962.777	158.15
962.944	78.13
963.111	118.62
963.278	116.3
963.446	111.26
963.613	58.17
963.78	86.27
963.947	120.37
964.114	96.15
964.281	133.35
964.448	83.75
964.615	73.48
964.782	106.61
964.949	96.15
965.116	113
965.282	136.06
965.449	64.57
965.616	56.24
965.783	109.71
965.95	102.93
966.117	58.56
966.283	96.34
966.45	92.66
966.617	102.73
966.784	131.41
966.95	131.99
967.117	121.33
967.284	84.72
967.45	91.88
967.617	137.61
967.784	104.48
967.95	168.22
968.117	103.51
968.283	153.5
968.45	161.83
968.616	103.32
968.783	136.64
968.949	130.05
969.116	125.6
969.282	108.93
969.449	83.94
969.615	124.24
969.781	78.9
969.948	90.72
970.114	82.2
970.28	166.48
970.447	119.78
970.613	150.01
970.779	109.13
970.945	134.9
971.112	111.65
971.278	70.77
971.444	100.6
971.61	130.83
971.776	87.04
971.942	110.48
972.108	143.81
972.275	97.31
972.441	138.38
972.607	155.24
972.773	84.91
972.939	118.62
973.105	86.65
973.271	75.22
973.437	82.97
973.602	69.41
973.768	139.55
973.934	73.09
974.1	106.8
974.266	35.89
974.432	114.17
974.598	80.45
974.763	130.44
974.929	83.55
975.095	177.52
975.261	84.91
975.426	72.32
975.592	90.33
975.758	139.93
975.923	52.75
976.089	61.47
976.255	125.98
976.42	101.38
976.586	116.49
976.751	92.85
976.917	152.91
977.082	118.82
977.248	60.11
977.413	58.75
977.579	84.91
977.744	94.98
977.91	34.15
978.075	90.92
978.24	99.05
978.406	74.25
978.571	84.33
978.736	89.56
978.902	120.17
979.067	73.87
979.232	51
979.397	102.54
979.563	130.25
979.728	63.21
979.893	97.12
980.058	51.97
980.223	126.57
980.388	106.22
980.554	115.33
980.719	73.48
980.884	108.55
981.049	113.78
981.214	70.96
981.379	107.19
981.544	80.26
981.709	78.32
981.874	90.33
982.039	91.11
982.204	115.72
982.368	82.97
982.533	49.65
982.698	125.79
982.863	124.43
983.028	68.63
983.193	73.67
983.357	100.41
983.522	92.47
983.687	90.53
983.852	69.8
984.016	94.21
984.181	89.95
984.346	112.62
984.51	95.95
984.675	77.35
984.839	133.73
985.004	104.67
985.168	152.72
985.333	95.18
985.498	88.01
985.662	135.48
985.827	99.63
985.991	89.75
986.155	83.94
986.32	132.38
986.484	176.94
986.649	104.48
986.813	43.84
986.977	106.42
987.142	117.46
987.306	56.62
987.47	76.97
987.634	83.75
987.799	82.58
987.963	124.05
988.127	91.5
988.291	141.48
988.455	107
988.62	86.07
988.784	104.67
988.948	127.92
989.112	65.34
989.276	112.81
989.44	98.86
989.604	70.96
989.768	92.08
989.932	150.4
990.096	57.2
990.26	65.73
990.424	55.07
990.588	62.24
990.752	125.21
990.915	113.78
991.079	88.2
991.243	45.97
991.407	96.34
991.571	84.91
991.734	92.47
991.898	102.93
992.062	159.5
992.226	88.59
992.389	59.53
992.553	41.7
992.717	71.73
992.88	70.77
993.044	87.82
993.207	75.22
993.371	116.68
993.535	103.7
993.698	92.66
993.862	117.27
994.025	114.94
994.189	103.32
994.352	91.5
994.515	82.2
994.679	106.03
994.842	58.95
995.006	128.12
995.169	54.69
995.332	59.53
995.496	139.74
995.659	23.69
995.822	61.85
995.985	89.37
996.149	111.45
996.312	107
996.475	133.54
996.638	73.09
996.801	140.9
996.964	143.42
997.128	52.55
997.291	63.4
997.454	90.33
997.617	54.49
997.78	113.58
997.943	71.35
998.106	102.73
998.269	59.53
998.432	71.15
998.595	71.35
998.758	22.14
998.92	32.99
999.083	18.84
999.246	63.4
999.409	38.6
999.572	26.98
999.735	58.17
999.897	91.5
1000.06	72.32
1000.223	52.55
1000.386	70.57
1000.548	84.52
1000.711	59.53
1000.874	72.32
1001.036	25.04
1001.199	99.83
1001.361	35.7
1001.524	71.93
1001.687	101.57
1001.849	37.64
1002.012	77.16
1002.174	46.74
1002.337	98.08
1002.499	39.57
1002.661	122.5
1002.824	35.31
1002.986	37.25
1003.149	52.55
1003.311	55.46
1003.473	104.28
1003.636	26.2
1003.798	71.35
1003.96	82
1004.123	72.51
1004.285	72.32
1004.447	60.89
1004.609	77.16
1004.771	109.9
1004.933	29.11
1005.096	31.63
1005.258	1.99
1005.42	51.39
1005.582	90.72
1005.744	63.6
1005.906	16.13
1006.068	59.14
1006.23	38.8
1006.392	24.27
1006.554	20.39
1006.716	97.7
1006.878	71.93
1007.04	6.44
1007.202	42.48
1007.363	38.99
1007.525	60.11
1007.687	68.25
1007.849	115.13
1008.011	34.92
1008.172	29.69
1008.334	74.64
1008.496	44.03
1008.658	16.32
1008.819	32.99
1008.981	12.45
1009.143	38.02
1009.304	33.57
1009.466	61.08
1009.627	132.57
1009.789	140.52
1009.95	80.07
1010.112	44.42
1010.273	53.72
1010.435	44.8
1010.596	30.08
1010.758	59.34
1010.919	45.58
1011.081	22.14
1011.242	57.01
1011.403	64.76
1011.565	40.15
1011.726	95.37
1011.887	4.7
1012.049	26.01
1012.21	65.54
1012.371	100.8
1012.532	-6.54
1012.693	46.74
1012.855	26.4
1013.016	72.9
1013.177	72.7
1013.338	25.43
1013.499	108.74
1013.66	62.44
1013.821	56.04
1013.982	69.99
1014.143	28.53
1014.304	38.02
1014.465	68.83
1014.626	67.08
1014.787	44.42
1014.948	117.85
1015.109	-23.98
1015.27	70.77
1015.431	33.57
1015.592	5.47
1015.752	85.49
1015.913	24.65
1016.074	68.83
1016.235	33.37
1016.395	66.5
1016.556	46.74
1016.717	21.55
1016.877	81.42
1017.038	15.55
1017.199	67.08
1017.359	52.17
1017.52	26.98
1017.681	51.97
1017.841	45.39
1018.002	27.37
1018.162	27.95
1018.323	96.15
1018.483	64.37
1018.644	29.69
1018.804	16.52
1018.964	17.87
1019.125	5.28
1019.285	40.93
1019.446	21.94
1019.606	-5.76
1019.766	-28.24
1019.926	47.13
1020.087	47.13
1020.247	7.8
1020.407	53.91
1020.567	83.36
1020.728	25.24
1020.888	20.97
1021.048	5.86
1021.208	10.32
1021.368	10.9
1021.528	76.19
1021.688	61.08
1021.848	66.89
1022.008	42.67
1022.168	27.56
1022.328	53.52
1022.488	63.02
1022.648	6.05
1022.808	23.88
1022.968	60.89
1023.128	-1.11
1023.288	10.12
1023.448	39.38
1023.608	50.42
1023.767	34.34
1023.927	-4.99
1024.087	-2.28
1024.247	8.77
1024.406	35.12
1024.566	14.58
1024.726	0.44
1024.885	30.47
1025.045	55.07
1025.205	19.62
1025.364	11.67
1025.524	20.97
1025.683	42.29
1025.843	32.6
1026.003	20.97
1026.162	107.77
1026.321	58.56
1026.481	28.34
1026.64	12.06
1026.8	43.84
1026.959	26.01
1027.119	23.88
1027.278	28.34
1027.437	18.65
1027.597	12.64
1027.756	30.47
1027.915	28.72
1028.074	36.86
1028.234	5.09
1028.393	49.07
1028.552	28.34
1028.711	-25.53
1028.87	66.7
1029.03	-20.3
1029.189	20.59
1029.348	-17.58
1029.507	20
1029.666	1.02
1029.825	-16.03
1029.984	16.9
1030.143	29.3
1030.302	4.12
1030.461	-35.41
1030.62	47.32
1030.779	72.32
1030.938	-0.15
1031.097	-2.47
1031.255	42.67
1031.414	71.15
1031.573	51.97
1031.732	-27.46
1031.891	15.16
1032.049	40.15
1032.208	39.38
1032.367	-7.7
1032.525	10.9
1032.684	29.3
1032.843	19.42
1033.001	-27.27
1033.16	160.86
1033.319	55.27
1033.477	37.44
1033.636	24.27
1033.794	-8.28
1033.953	43.64
1034.111	34.92
1034.27	20
1034.428	39.38
1034.587	-14.68
1034.745	34.92
1034.903	24.27
1035.062	29.5
1035.22	-10.61
1035.378	37.25
1035.537	-11.19
1035.695	34.92
1035.853	-1.7
1036.011	38.41
1036.17	45.97
1036.328	-11
1036.486	30.66
1036.644	24.85
1036.802	-49.16
1036.96	-5.96
1037.119	14.39
1037.277	13.03
1037.435	-16.42
1037.593	-23.98
1037.751	25.82
1037.909	50.62
1038.067	50.62
