Data from oakcork_FLMT105791__44__17-27-19-066.txt Node

Date: Mon Mar 20 17:27:19 GMT 2023
User: antho
Spectrometer: FLMT10579
Trigger mode: 0
Integration Time (sec): 1.000000E-1
Scans to average: 10
Electric dark correction enabled: true
Nonlinearity correction enabled: false
Boxcar width: 0
XAxis mode: Wavelengths
Number of Pixels in Spectrum: 3648
>>>>>Begin Spectral Data<<<<<
345.248	-157.18
345.464	-157.18
345.681	-157.18
345.898	-172.48
346.114	-180.62
346.331	-32.4
346.548	29.21
346.764	-18.26
346.981	-5.86
347.197	-7.8
347.414	17.39
347.631	-19.04
347.847	59.43
348.064	-16.9
348.28	19.71
348.497	-21.36
348.713	-4.12
348.93	17.39
349.146	31.73
349.363	14.29
349.579	1.31
349.796	-15.94
350.012	-27.95
350.229	20.88
350.445	5.57
350.661	-11.87
350.878	-28.34
351.094	31.73
351.311	19.52
351.527	30.18
351.743	-21.17
351.96	28.43
352.176	32.11
352.392	13.13
352.609	11.38
352.825	-3.73
353.041	8.48
353.257	-7.99
353.474	1.5
353.69	8.48
353.906	0.34
354.122	-36.28
354.339	33.08
354.555	24.75
354.771	20.1
354.987	45.48
355.203	36.18
355.42	-14.97
355.636	12.74
355.852	4.02
356.068	22.04
356.284	-46.16
356.5	58.66
356.716	-0.05
356.932	-6.64
357.148	7.51
357.364	2.66
357.58	44.71
357.796	41.03
358.012	64.66
358.228	30.76
358.444	-53.52
358.66	32.31
358.876	32.31
359.092	-31.63
359.308	1.5
359.524	28.82
359.74	-7.41
359.956	-30.85
360.172	1.7
360.388	38.12
360.604	-10.9
360.819	82.29
361.035	22.04
361.251	21.65
361.467	-15.16
361.683	56.14
361.898	-6.25
362.114	46.84
362.33	16.03
362.546	38.51
362.762	3.44
362.977	13.51
363.193	-25.24
363.409	48.19
363.624	-18.65
363.84	-24.27
364.056	1.7
364.271	35.6
364.487	23.01
364.703	-5.67
364.918	-2.37
365.134	17.58
365.35	0.53
365.565	116.59
365.781	19.91
365.996	32.5
366.212	43.54
366.427	15.06
366.643	9.64
366.858	-24.46
367.074	4.41
367.289	55.17
367.505	87.91
367.72	-25.82
367.936	-2.57
368.151	70.28
368.367	17.39
368.582	10.22
368.798	20.88
369.013	57.3
369.228	15.06
369.444	15.45
369.659	72.03
369.874	36.38
370.09	65.83
370.305	-36.09
370.52	0.73
370.736	83.46
370.951	-3.73
371.166	78.42
371.381	63.11
371.597	62.14
371.812	-8.38
372.027	-13.03
372.242	3.83
372.458	69.31
372.673	-0.05
372.888	17.58
373.103	16.42
373.318	104.19
373.533	38.51
373.749	-4.7
373.964	-18.07
374.179	82.49
374.394	-30.66
374.609	55.75
374.824	-17.49
375.039	54.98
375.254	11.96
375.469	30.76
375.684	35.79
375.899	50.52
376.114	-11.48
376.329	41.03
376.544	76.29
376.759	18.75
376.974	-27.75
377.189	24.17
377.404	19.91
377.619	41.61
377.834	-42.87
378.049	-4.31
378.264	-19.04
378.478	12.16
378.693	4.41
378.908	60.21
379.123	32.5
379.338	83.46
379.553	48.78
379.767	31.73
379.982	18.55
380.197	36.57
380.412	8.67
380.626	32.31
380.841	79
381.056	38.51
381.271	69.51
381.485	32.11
381.7	-17.29
381.915	51.68
382.129	2.66
382.344	34.83
382.559	29.79
382.773	41.61
382.988	-28.14
383.202	18.16
383.417	1.7
383.632	106.32
383.846	12.55
384.061	23.59
384.275	29.98
384.49	61.56
384.704	40.06
384.919	26.11
385.133	40.44
385.348	55.56
385.562	-9.15
385.777	84.04
385.991	36.76
386.206	16.61
386.42	15.84
386.634	66.6
386.849	45.68
387.063	39.28
387.277	10.61
387.492	25.72
387.706	9.45
387.92	9.25
388.135	66.6
388.349	58.08
388.563	35.02
388.778	47.81
388.992	54.59
389.206	71.06
389.42	107.87
389.635	60.79
389.849	36.18
390.063	71.25
390.277	50.71
390.491	119.49
390.706	63.69
390.92	60.21
391.134	63.5
391.348	85.2
391.562	-12.84
391.776	54.01
391.99	6.73
392.205	76.48
392.419	12.74
392.633	29.59
392.847	111.36
393.061	5.96
393.275	86.17
393.489	26.88
393.703	46.45
393.917	73.58
394.131	25.14
394.345	52.26
394.559	120.85
394.773	29.21
394.986	61.18
395.2	50.33
395.414	90.82
395.628	34.63
395.842	59.04
396.056	52.84
396.27	-16.52
396.484	74.16
396.697	55.94
396.911	64.08
397.125	66.02
397.339	64.28
397.553	77.06
397.766	110.97
397.98	103.8
398.194	96.05
398.408	52.84
398.621	97.02
398.835	81.52
399.049	83.65
399.262	105.35
399.476	112.13
399.69	76.68
399.903	136.35
400.117	60.4
400.331	90.43
400.544	55.17
400.758	191.37
400.971	112.71
401.185	113.49
401.398	53.43
401.612	144.1
401.826	111.16
402.039	118.33
402.253	75.71
402.466	118.52
402.68	83.65
402.893	81.71
403.106	99.54
403.32	87.33
403.533	122.98
403.747	106.71
403.96	103.22
404.174	123.56
404.387	63.89
404.6	111.94
404.814	119.88
405.027	91.59
405.24	93.53
405.454	79.39
405.667	131.89
405.88	66.02
406.094	98.38
406.307	155.72
406.52	115.81
406.733	67.96
406.947	49.74
407.16	158.44
407.373	134.61
407.586	55.56
407.799	57.3
408.012	131.12
408.226	123.37
408.439	179.17
408.652	81.71
408.865	139.64
409.078	136.93
409.291	139.26
409.504	93.92
409.717	122.98
409.93	147.39
410.143	99.34
410.357	46.45
410.57	85.59
410.783	73.96
410.996	117.17
411.209	123.37
411.421	136.16
411.634	117.56
411.847	88.69
412.06	115.81
412.273	105.35
412.486	128.21
412.699	189.44
412.912	129.37
413.125	129.18
413.338	108.64
413.55	127.05
413.763	128.6
413.976	134.99
414.189	103.03
414.402	106.9
414.615	182.85
414.827	99.15
415.04	151.27
415.253	119.11
415.466	165.22
415.678	187.69
415.891	144.29
416.104	130.73
416.316	134.02
416.529	142.36
416.742	144.29
416.954	166.77
417.167	107.68
417.38	134.8
417.592	164.64
417.805	99.73
418.017	80.74
418.23	151.85
418.442	116.78
418.655	119.69
418.868	110
419.08	174.32
419.293	177.23
419.505	122.01
419.718	152.04
419.93	184.21
420.142	120.66
420.355	183.24
420.567	197.57
420.78	177.42
420.992	117.94
421.205	199.12
421.417	87.14
421.629	136.54
421.842	99.34
422.054	116.39
422.266	158.63
422.479	169.09
422.691	142.74
422.903	173.16
423.115	130.54
423.328	138.09
423.54	137.12
423.752	126.08
423.964	100.89
424.177	147.97
424.389	153.59
424.601	235.94
424.813	161.73
425.025	184.98
425.238	167.16
425.45	138.48
425.662	171.81
425.874	444.41
426.086	162.7
426.298	162.7
426.51	157.08
426.722	151.66
426.934	145.65
427.146	172
427.358	127.05
427.57	165.61
427.782	145.07
427.994	152.24
428.206	144.49
428.418	132.67
428.63	156.11
428.842	196.02
429.054	159.21
429.266	200.09
429.478	142.74
429.69	159.99
429.902	104.77
430.114	178.2
430.325	165.41
430.537	104.77
430.749	148.94
430.961	91.59
431.173	114.84
431.384	158.63
431.596	80.16
431.808	133.83
432.02	178.01
432.231	191.18
432.443	218.3
432.655	180.14
432.867	138.48
433.078	159.21
433.29	239.81
433.502	218.89
433.713	245.04
433.925	192.73
434.136	234.19
434.348	158.44
434.56	114.65
434.771	263.25
434.983	134.8
435.194	139.06
435.406	176.07
435.617	214.43
435.829	241.36
436.04	215.4
436.252	233.42
436.463	256.47
436.675	251.44
436.886	224.5
437.098	237.1
437.309	269.07
437.521	197.19
437.732	238.45
437.943	199.51
438.155	211.33
438.366	148.17
438.578	273.72
438.789	202.03
439	229.15
439.211	204.74
439.423	198.74
439.634	236.71
439.845	218.5
440.057	246.01
440.268	261.32
440.479	185.56
440.69	221.4
440.902	235.55
441.113	199.12
441.324	204.94
441.535	254.92
441.746	275.46
441.957	224.12
442.168	231.87
442.38	279.53
442.591	255.12
442.802	236.52
443.013	223.54
443.224	281.85
443.435	244.85
443.646	250.27
443.857	232.84
444.068	217.53
444.279	248.53
444.49	308.98
444.701	233.22
444.912	345.79
445.123	274.3
445.334	260.93
445.545	241.55
445.756	242.14
445.967	226.05
446.178	261.12
446.388	276.24
446.599	270.62
446.81	284.18
447.021	244.27
447.232	325.83
447.443	333.2
447.653	248.53
447.864	288.25
448.075	290.38
448.286	314.21
448.496	276.82
448.707	305.88
448.918	269.45
449.129	348.5
449.339	246.59
449.55	306.46
449.761	273.33
449.971	353.15
450.182	280.89
450.393	310.72
450.603	251.05
450.814	319.05
451.024	335.91
451.235	333.97
451.446	370.59
451.656	395.78
451.867	265.97
452.077	316.73
452.288	378.53
452.498	336.68
452.709	275.65
452.919	314.79
453.13	283.02
453.34	332.42
453.55	249.69
453.761	306.85
453.971	325.83
454.182	321.38
454.392	364.97
454.602	347.92
454.813	328.93
455.023	336.49
455.233	282.24
455.444	326.03
455.654	251.05
455.864	296.77
456.075	291.73
456.285	281.08
456.495	317.5
456.705	328.16
456.916	348.5
457.126	373.3
457.336	339.4
457.546	253.18
457.756	297.74
457.967	371.36
458.177	271.97
458.387	318.28
458.597	313.05
458.807	289.02
459.017	320.8
459.227	308.01
459.437	313.63
459.647	351.99
459.857	364.39
460.068	292.7
460.278	358.97
460.488	334.17
460.698	382.99
460.908	336.1
461.117	287.67
461.327	313.82
461.537	338.62
461.747	325.06
461.957	309.56
462.167	437.43
462.377	400.62
462.587	345.4
462.797	374.46
463.007	363.03
463.216	374.85
463.426	404.5
463.636	379.89
463.846	312.66
464.056	329.9
464.265	372.14
464.475	317.5
464.685	342.88
464.895	368.85
465.104	343.66
465.314	388.61
465.524	335.91
465.733	334.75
465.943	424.84
466.153	406.63
466.362	403.53
466.572	379.7
466.782	361.87
466.991	343.27
467.201	412.83
467.41	335.72
467.62	377.76
467.829	370.78
468.039	403.53
468.249	368.65
468.458	399.26
468.668	358.19
468.877	379.31
469.086	434.53
469.296	410.89
469.505	379.5
469.715	430.65
469.924	419.61
470.134	469.21
470.343	446.73
470.552	374.46
470.762	372.53
470.971	338.04
471.18	419.8
471.39	398.88
471.599	352.77
471.808	417.48
472.018	379.89
472.227	445.18
472.436	441.89
472.645	432.78
472.855	403.91
473.064	494.2
473.273	448.67
473.482	436.85
473.691	487.42
473.901	442.08
474.11	458.16
474.319	491.68
474.528	460.49
474.737	501.56
474.946	479.48
475.155	476.38
475.364	491.1
475.573	465.14
475.783	462.23
475.992	491.29
476.201	496.33
476.41	496.33
476.619	426.58
476.828	492.65
477.037	435.5
477.245	485.29
477.454	489.94
477.663	488.58
477.872	484.71
478.081	552.52
478.29	458.94
478.499	576.93
478.708	506.79
478.917	558.33
479.125	521.71
479.334	502.92
479.543	523.26
479.752	546.32
479.961	526.56
480.169	590.49
480.378	495.36
480.587	641.06
480.796	543.8
481.004	551.36
481.213	567.63
481.422	564.34
481.63	561.82
481.839	599.99
482.048	634.67
482.256	581.58
482.465	597.27
482.674	605.41
482.882	607.35
483.091	651.33
483.299	603.28
483.508	636.02
483.716	614.71
483.925	625.76
484.134	594.17
484.342	590.3
484.551	601.34
484.759	627.89
484.967	644.16
485.176	621.3
485.384	648.81
485.593	644.55
485.801	598.44
486.01	612.58
486.218	561.82
486.426	521.71
486.635	543.41
486.843	554.84
487.051	554.07
487.26	574.41
487.468	605.02
487.676	636.8
487.885	583.32
488.093	621.88
488.301	644.94
488.509	674.97
488.717	661.02
488.926	657.92
489.134	633.89
489.342	674.58
489.55	602.51
489.758	627.89
489.967	637.77
490.175	752.85
490.383	667.6
490.591	726.7
490.799	616.26
491.007	728.44
491.215	689.5
491.423	713.72
491.631	674
491.839	678.45
492.047	732.51
492.255	665.47
492.463	616.46
492.671	691.44
492.879	717.98
493.087	687.95
493.295	691.24
493.503	737.55
493.711	729.22
493.919	757.12
494.127	749.75
494.334	760.8
494.542	695.5
494.75	717.98
494.958	725.15
495.166	787.92
495.374	742.2
495.581	748.98
495.789	766.8
495.997	795.28
496.205	715.46
496.412	747.62
496.62	740.26
496.828	778.43
497.035	739.29
497.243	796.25
497.451	773.97
497.658	797.61
497.866	774.75
498.074	793.35
498.281	756.15
498.489	828.03
498.696	786.76
498.904	736.77
499.112	753.63
499.319	812.91
499.527	777.27
499.734	785.6
499.942	738.71
500.149	768.93
500.357	777.46
500.564	766.42
500.771	783.27
500.979	747.23
501.186	770.68
501.394	794.9
501.601	796.45
501.808	778.23
502.016	785.6
502.223	756.15
502.43	784.05
502.638	771.84
502.845	738.9
503.052	836.75
503.26	776.1
503.467	843.91
503.674	792.38
503.881	820.86
504.089	880.15
504.296	800.32
504.503	756.53
504.71	799.16
504.917	773
505.125	831.32
505.332	769.52
505.539	824.15
505.746	851.28
505.953	855.93
506.16	862.9
506.367	881.7
506.574	913.66
506.781	878.01
506.988	812.53
507.195	834.42
507.402	829.38
507.609	857.86
507.816	797.03
508.023	841.98
508.23	798.38
508.437	795.67
508.644	865.03
508.851	909.59
509.058	873.36
509.265	873.36
509.472	842.17
509.679	957.84
509.885	853.8
510.092	884.21
510.299	844.5
510.506	869.88
510.713	890.41
510.92	875.88
511.126	893.13
511.333	948.15
511.54	911.92
511.746	917.73
511.953	921.99
512.16	931.49
512.367	884.8
512.573	896.81
512.78	889.06
512.987	908.82
513.193	906.11
513.4	840.81
513.606	870.07
513.813	942.92
514.02	927.61
514.226	985.74
514.433	930.52
514.639	854.96
514.846	885.18
515.052	891.38
515.259	889.64
515.465	917.93
515.672	905.14
515.878	979.15
516.085	934.2
516.291	960.74
516.497	884.02
516.704	908.43
516.91	853.21
517.117	831.9
517.323	844.11
517.529	864.06
517.736	866.39
517.942	851.47
518.148	843.91
518.354	882.66
518.561	874.53
518.767	882.08
518.973	916.38
519.179	940.98
519.386	915.41
519.592	880.34
519.798	875.11
520.004	973.92
520.21	916.96
520.417	953.96
520.623	1015.96
520.829	968.88
521.035	987.09
521.241	961.91
521.447	1011.89
521.653	1104.12
521.859	992.71
522.065	997.75
522.271	1122.14
522.477	1047.74
522.683	1088.04
522.889	1035.34
523.095	1067.31
523.301	1039.41
523.507	1017.51
523.713	1027.39
523.919	996.2
524.125	1067.5
524.331	1057.04
524.537	1150.42
524.742	1071.57
524.948	1120.39
525.154	1099.85
525.36	1191.5
525.566	1111.87
525.772	1141.7
525.977	1063.24
526.183	1108.96
526.389	1176.58
526.595	1065.37
526.8	1071.57
527.006	1061.69
527.212	1016.35
527.417	1015.96
527.623	1001.43
527.829	1045.99
528.034	1074.09
528.24	1120.2
528.446	1083.19
528.651	1170.18
528.857	1149.84
529.062	1188.4
529.268	1153.72
529.473	1171.54
529.679	1149.07
529.884	1246.33
530.09	1195.76
530.295	1210.87
530.501	1212.42
530.706	1210.68
530.912	1143.84
531.117	1177.35
531.323	1217.27
531.528	1221.53
531.733	1236.64
531.939	1209.13
532.144	1246.33
532.35	1232.77
532.555	1241.87
532.76	1229.67
532.966	1225.98
533.171	1208.16
533.376	1211.45
533.581	1156.04
533.787	1226.95
533.992	1200.02
534.197	1256.79
534.402	1212.42
534.607	1199.05
534.813	1319.95
535.018	1232.38
535.223	1237.03
535.428	1256.98
535.633	1334.68
535.838	1284.88
536.043	1280.81
536.249	1358.89
536.454	1277.13
536.659	1283.72
536.864	1251.56
537.069	1252.53
537.274	1290.31
537.479	1292.83
537.684	1316.66
537.889	1231.02
538.094	1343.2
538.299	1246.71
538.504	1318.01
538.708	1269.38
538.913	1295.15
539.118	1272.68
539.323	1310.85
539.528	1255.63
539.733	1282.56
539.938	1273.45
540.142	1310.07
540.347	1288.18
540.552	1255.63
540.757	1275
540.962	1270.55
541.166	1202.54
541.371	1230.63
541.576	1260.66
541.781	1183.36
541.985	1280.43
542.19	1277.71
542.395	1320.53
542.599	1384.08
542.804	1347.46
543.008	1355.99
543.213	1300.96
543.418	1281.78
543.622	1324.8
543.827	1227.15
544.031	1344.17
544.236	1387.38
544.44	1320.34
544.645	1410.24
544.849	1333.9
545.054	1358.89
545.258	1424.57
545.463	1414.5
545.667	1314.72
545.872	1400.55
546.076	1350.56
546.281	1366.45
546.485	1304.06
546.689	1358.51
546.894	1408.49
547.098	1395.9
547.302	1296.9
547.507	1346.69
547.711	1343.59
547.915	1398.61
548.119	1321.89
548.324	1380.01
548.528	1411.98
548.732	1328.48
548.936	1410.63
549.141	1417.6
549.345	1361.61
549.549	1384.66
549.753	1383.31
549.957	1451.12
550.161	1422.83
550.366	1390.67
550.57	1372.07
550.774	1356.76
550.978	1367.81
551.182	1403.26
551.386	1347.46
551.59	1339.52
551.794	1336.42
551.998	1410.63
552.202	1369.36
552.406	1312.98
552.61	1354.63
552.814	1388.34
553.018	1442.4
553.222	1356.96
553.426	1387.57
553.63	1457.12
553.833	1371.49
554.037	1327.51
554.241	1374.98
554.445	1358.51
554.649	1339.71
554.853	1323.63
555.056	1392.99
555.26	1417.99
555.464	1386.41
555.668	1404.81
555.871	1417.79
556.075	1417.41
556.279	1369.16
556.483	1328.28
556.686	1371.29
556.89	1363.74
557.094	1366.45
557.297	1348.04
557.501	1403.46
557.704	1307.36
557.908	1368.58
558.112	1324.41
558.315	1412.18
558.519	1325.57
558.722	1355.02
558.926	1318.01
559.129	1259.5
559.333	1248.65
559.536	1271.32
559.74	1246.91
559.943	1253.88
560.147	1241.68
560.35	1302.9
560.553	1271.32
560.757	1244.2
560.96	1331.77
561.164	1277.13
561.367	1351.92
561.57	1310.65
561.774	1318.21
561.977	1285.85
562.18	1281.59
562.384	1342.23
562.587	1286.82
562.79	1264.93
562.993	1256.21
563.197	1299.61
563.4	1313.95
563.603	1329.64
563.806	1345.91
564.009	1262.6
564.212	1280.81
564.416	1237.8
564.619	1275
564.822	1202.54
565.025	1328.28
565.228	1260.66
565.431	1252.14
565.634	1180.65
565.837	1247.3
566.04	1190.53
566.243	1200.02
566.446	1124.27
566.649	1260.08
566.852	1185.68
567.055	1188.2
567.258	1213.2
567.461	1266.28
567.664	1260.47
567.867	1141.32
568.07	1221.53
568.273	1202.15
568.475	1214.55
568.678	1183.36
568.881	1215.91
569.084	1170.96
569.287	1109.74
569.489	1113.8
569.692	1162.82
569.895	1208.93
570.098	1131.05
570.3	1132.4
570.503	1083.39
570.706	1110.12
570.909	1086.68
571.111	1061.11
571.314	1065.17
571.516	1105.47
571.719	1101.21
571.922	1072.92
572.124	1070.02
572.327	1134.73
572.529	1056.07
572.732	1085.9
572.935	1079.9
573.137	1157.59
573.34	1101.4
573.542	1152.94
573.745	1136.86
573.947	1121.55
574.15	1074.86
574.352	1075.25
574.554	1157.59
574.757	1075.05
574.959	1053.55
575.162	1048.51
575.364	1044.25
575.566	1111.48
575.769	1010.15
575.971	1079.32
576.173	963.07
576.376	1057.04
576.578	1063.43
576.78	1107.99
576.982	961.13
577.185	1013.64
577.387	991.74
577.589	965.2
577.791	1076.8
577.993	1052.19
578.196	998.33
578.398	1036.89
578.6	1070.79
578.802	966.36
579.004	993.87
579.206	958.42
579.408	1078.35
579.61	1004.14
579.812	1032.43
580.014	1004.92
580.216	993.49
580.418	995.23
580.62	996.2
580.822	960.94
581.024	1017.9
581.226	1042.31
581.428	983.22
581.63	1084.74
581.832	988.45
582.034	1074.67
582.236	1019.84
582.438	1040.37
582.64	1084.35
582.841	1039.6
583.043	1098.5
583.245	1032.04
583.447	1050.84
583.649	994.65
583.85	1041.54
584.052	1077.38
584.254	1029.52
584.456	1033.21
584.657	1011.12
584.859	1046.19
585.061	1028.17
585.262	1019.06
585.464	978.18
585.666	1033.01
585.867	977.02
586.069	1080.48
586.27	996.2
586.472	1029.52
586.674	993.68
586.875	971.79
587.077	972.95
587.278	1027.2
587.48	980.31
587.681	1090.36
587.883	1008.99
588.084	940.4
588.285	963.46
588.487	975.47
588.688	966.75
588.89	912.69
589.091	907.46
589.292	888.09
589.494	887.31
589.695	876.66
589.896	800.32
590.098	806.13
590.299	867.36
590.5	844.69
590.702	859.8
590.903	859.61
591.104	943.11
591.305	894.29
591.507	950.86
591.708	929.74
591.909	887.7
592.11	956.68
592.311	945.05
592.512	893.51
592.714	883.63
592.915	869.68
593.116	892.74
593.317	887.31
593.518	901.07
593.719	889.64
593.92	925.09
594.121	911.53
594.322	925.48
594.523	897.97
594.724	840.81
594.925	898.74
595.126	901.07
595.327	886.93
595.528	918.7
595.729	919.48
595.929	900.68
596.13	921.61
596.331	903.59
596.532	906.3
596.733	932.84
596.934	941.95
597.135	915.79
597.335	887.51
597.536	905.53
597.737	914.24
597.938	873.75
598.138	918.31
598.339	885.57
598.54	865.23
598.74	891.77
598.941	888.86
599.142	948.73
599.342	940.01
599.543	868.71
599.744	885.38
599.944	889.06
600.145	900.68
600.345	904.56
600.546	966.17
600.746	960.55
600.947	995.62
601.147	928
601.348	928.39
601.548	876.66
601.749	877.24
601.949	867.16
602.15	845.46
602.35	893.71
602.551	913.66
602.751	860.96
602.951	852.05
603.152	822.02
603.352	925.09
603.552	876.27
603.753	925.09
603.953	901.65
604.153	879.76
604.354	889.83
604.554	899.13
604.754	903.78
604.954	828.03
605.155	911.14
605.355	870.26
605.555	925.87
605.755	967.91
605.955	873.75
606.155	878.79
606.356	861.74
606.556	913.86
606.756	891
606.956	838.88
607.156	913.66
607.356	863.48
607.556	861.16
607.756	921.61
607.956	921.99
608.156	896.23
608.356	847.21
608.556	909.79
608.756	873.75
608.956	854.18
609.156	883.83
609.356	801.87
609.556	829.96
609.755	858.83
609.955	835.2
610.155	889.83
610.355	839.65
610.555	846.43
610.755	886.54
610.954	822.02
611.154	875.11
611.354	861.74
611.554	808.07
611.753	844.69
611.953	773.58
612.153	878.98
612.352	901.65
612.552	796.45
612.752	752.47
612.951	819.7
613.151	834.23
613.351	794.7
613.55	800.9
613.75	830.16
613.949	836.36
614.149	837.52
614.348	813.3
614.548	770.1
614.747	760.02
614.947	783.85
615.146	788.7
615.346	789.86
615.545	807.88
615.745	835
615.944	835.78
616.144	804.58
616.343	822.41
616.542	788.12
616.742	799.35
616.941	782.69
617.14	763.51
617.34	780.95
617.539	830.16
617.738	760.99
617.938	859.61
618.137	781.33
618.336	775.52
618.535	814.66
618.734	802.26
618.934	797.8
619.133	805.94
619.332	834.23
619.531	745.1
619.73	757.89
619.929	802.07
620.128	804.97
620.328	834.42
620.527	782.5
620.726	772.42
620.925	824.15
621.124	771.26
621.323	795.28
621.522	751.88
621.721	736.38
621.92	730.57
622.119	802.26
622.318	752.08
622.517	732.32
622.715	729.8
622.914	690.85
623.113	771.84
623.312	684.46
623.511	763.51
623.71	749.17
623.909	754.02
624.107	804.39
624.306	669.15
624.505	715.85
624.704	722.05
624.902	718.17
625.101	789.28
625.3	772.42
625.499	693.18
625.697	715.27
625.896	699.19
626.095	752.47
626.293	646.29
626.492	723.4
626.69	722.82
626.889	702.29
627.088	742
627.286	700.93
627.485	674.19
627.683	679.62
627.882	702.29
628.08	617.42
628.279	672.45
628.477	748.01
628.676	658.89
628.874	699.57
629.073	653.85
629.271	644.55
629.469	693.37
629.668	659.85
629.866	683.3
630.065	657.92
630.263	696.67
630.461	667.6
630.66	665.67
630.858	687.95
631.056	732.12
631.254	727.47
631.453	662.95
631.651	730.96
631.849	643.77
632.047	672.64
632.245	661.21
632.444	708.49
632.642	688.34
632.84	686.59
633.038	666.83
633.236	658.3
633.434	659.08
633.632	642.8
633.83	658.3
634.028	696.86
634.227	686.2
634.425	766.22
634.623	652.88
634.821	677.49
635.019	705.58
635.216	663.92
635.414	703.06
635.612	679.04
635.81	682.52
636.008	728.44
636.206	677.68
636.404	696.28
636.602	633.12
636.8	674.58
636.997	695.31
637.195	722.05
637.393	679.42
637.591	704.61
637.789	683.88
637.986	683.1
638.184	679.23
638.382	709.26
638.58	721.85
638.777	741.42
638.975	666.25
639.173	672.06
639.37	705.39
639.568	696.09
639.765	724.18
639.963	648.81
640.161	726.12
640.358	717.79
640.556	678.26
640.753	673.61
640.951	654.43
641.148	689.69
641.346	660.05
641.543	640.67
641.741	690.27
641.938	653.27
642.136	680.59
642.333	613.94
642.531	710.42
642.728	707.32
642.925	668.77
643.123	629.44
643.32	692.02
643.517	664.31
643.715	673.42
643.912	641.64
644.109	676.32
644.306	687.37
644.504	644.94
644.701	654.24
644.898	667.99
645.095	618.97
645.293	663.15
645.49	679.81
645.687	664.5
645.884	702.29
646.081	608.12
646.278	620.52
646.475	618.39
646.672	602.51
646.87	643.39
647.067	645.13
647.264	647.26
647.461	607.16
647.658	584.87
647.855	614.71
648.052	594.17
648.249	534.31
648.446	582.36
648.642	568.02
648.839	563.17
649.036	577.32
649.233	560.27
649.43	549.03
649.627	537.02
649.824	551.16
650.021	552.71
650.217	544.77
650.414	577.71
650.611	573.25
650.808	593.79
651.004	603.09
651.201	609.09
651.398	635.44
651.595	587.97
651.791	591.46
651.988	617.42
652.185	559.11
652.381	603.86
652.578	525.2
652.775	568.6
652.971	562.4
653.168	595.34
653.364	577.71
653.561	545.16
653.757	547.29
653.954	603.28
654.15	548.84
654.347	640.67
654.543	579.64
654.74	528.3
654.936	543.22
655.133	556.59
655.329	570.54
655.525	569.76
655.722	603.86
655.918	523.46
656.115	583.71
656.311	453.9
656.507	493.43
656.704	459.52
656.9	482.77
657.096	448.48
657.292	512.99
657.489	529.27
657.685	521.71
657.881	524.04
658.077	513.38
658.273	525.78
658.47	587.2
658.666	523.84
658.862	552.91
659.058	504.86
659.254	588.36
659.45	536.44
659.646	573.06
659.842	538.76
660.038	590.88
660.234	511.25
660.43	540.89
660.626	588.17
660.822	572.86
661.018	580.61
661.214	554.65
661.41	501.76
661.606	578.48
661.802	604.83
661.998	531.59
662.194	515.51
662.39	566.08
662.586	576.74
662.781	564.53
662.977	557.17
663.173	576.16
663.369	542.64
663.564	566.27
663.76	559.69
663.956	525.39
664.152	590.49
664.347	496.91
664.543	531.79
664.739	554.26
664.934	474.63
665.13	483.16
665.326	587.97
665.521	549.22
665.717	516.68
665.912	503.5
666.108	463.59
666.304	490.91
666.499	539.15
666.695	471.92
666.89	521.71
667.086	554.26
667.281	541.67
667.477	582.55
667.672	554.26
667.867	532.95
668.063	553.49
668.258	474.44
668.454	522.88
668.649	577.71
668.844	516.68
669.04	527.91
669.235	520.94
669.43	523.26
669.626	460.29
669.821	506.6
670.016	484.9
670.211	534.69
670.407	486.26
670.602	508.54
670.797	498.66
670.992	527.91
671.187	503.11
671.382	552.13
671.578	476.18
671.773	531.59
671.968	447.9
672.163	491.88
672.358	524.62
672.553	488.97
672.748	488.58
672.943	586.42
673.138	499.04
673.333	534.31
673.528	492.26
673.723	492.07
673.918	500.4
674.113	438.6
674.308	555.23
674.503	527.72
674.698	524.81
674.892	512.99
675.087	545.54
675.282	513.58
675.477	476.18
675.672	511.44
675.867	480.64
676.061	453.51
676.256	460.29
676.451	460.49
676.646	490.13
676.84	458.36
677.035	445.38
677.23	468.63
677.424	502.14
677.619	500.59
677.814	537.02
678.008	531.21
678.203	427.55
678.397	448.86
678.592	486.64
678.787	550.39
678.981	472.5
679.176	494.39
679.37	475.02
679.565	411.08
679.759	432.01
679.954	485.87
680.148	525.01
680.342	522.49
680.537	512.22
680.731	479.28
680.926	510.48
681.12	499.43
681.314	451.38
681.509	480.25
681.703	466.88
681.897	497.3
682.092	474.44
682.286	453.32
682.48	572.86
682.674	514.35
682.869	480.06
683.063	486.26
683.257	543.61
683.451	441.31
683.645	496.91
683.839	473.66
684.034	466.49
684.228	498.66
684.422	458.36
684.616	467.85
684.81	500.21
685.004	493.23
685.198	444.41
685.392	521.13
685.586	450.61
685.78	474.24
685.974	470.76
686.168	464.75
686.362	511.44
686.556	444.41
686.75	418.83
686.944	389
687.138	447.9
687.331	374.46
687.525	378.73
687.719	302.97
687.913	389.19
688.107	396.16
688.301	359.16
688.494	391.51
688.688	353.54
688.882	315.95
689.076	333.97
689.269	358.38
689.463	460.1
689.657	370.78
689.85	365.75
690.044	390.93
690.238	388.61
690.431	388.41
690.625	389.38
690.818	404.11
691.012	413.6
691.205	419.61
691.399	401.78
691.593	423.68
691.786	430.26
691.98	455.65
692.173	486.26
692.366	457.2
692.56	448.67
692.753	498.27
692.947	435.88
693.14	491.88
693.333	492.26
693.527	420.19
693.72	487.81
693.914	461.46
694.107	465.72
694.3	507.76
694.493	430.07
694.687	482.96
694.88	435.88
695.073	525.01
695.266	529.66
695.46	476.57
695.653	523.07
695.846	545.16
696.039	462.43
696.232	480.44
696.425	535.28
696.618	498.85
696.812	509.51
697.005	561.43
697.198	597.47
697.391	546.9
697.584	564.72
697.777	613.16
697.97	581.39
698.163	632.92
698.356	575.57
698.549	703.45
698.742	612.58
698.935	596.5
699.127	644.94
699.32	603.67
699.513	607.74
699.706	630.02
699.899	643.19
700.092	612.97
700.285	628.27
700.477	579.26
700.67	647.65
700.863	642.42
701.056	715.27
701.248	683.69
701.441	720.88
701.634	649.97
701.826	756.53
702.019	659.27
702.212	737.35
702.404	648.23
702.597	698.22
702.79	714.88
702.982	739.48
703.175	721.85
703.367	752.47
703.56	759.83
703.752	863.29
703.945	784.05
704.137	815.63
704.33	839.07
704.522	838.3
704.715	844.69
704.907	829
705.1	860
705.292	886.15
705.484	847.4
705.677	861.93
705.869	889.06
706.061	925.29
706.254	944.28
706.446	886.73
706.638	876.27
706.831	961.13
707.023	952.41
707.215	991.36
707.407	973.34
707.599	977.21
707.792	1025.46
707.984	974.5
708.176	1041.73
708.368	962.1
708.56	1006.86
708.752	1017.9
708.944	1019.45
709.136	1024.87
709.329	1040.76
709.521	1156.62
709.713	1106.05
709.905	1109.74
710.097	1117.68
710.289	1058.2
710.481	1110.7
710.672	1112.45
710.864	1131.24
711.056	1187.82
711.248	1195.95
711.44	1174.83
711.632	1187.04
711.824	1200.02
712.016	1217.85
712.207	1234.51
712.399	1231.99
712.591	1278.49
712.783	1271.13
712.975	1309.88
713.166	1223.66
713.358	1244
713.55	1345.33
713.741	1289.53
713.933	1288.18
714.125	1292.63
714.316	1292.05
714.508	1365.68
714.7	1364.51
714.891	1373.04
715.083	1427.29
715.274	1356.18
715.466	1361.8
715.657	1380.79
715.849	1324.8
716.04	1396.29
716.232	1310.46
716.423	1403.26
716.615	1356.76
716.806	1327.7
716.998	1320.73
717.189	1250.78
717.381	1176.58
717.572	1201.18
717.763	1194.02
717.955	1183.75
718.146	1172.51
718.337	1137.64
718.528	1109.15
718.72	1049.67
718.911	1126.59
719.102	1084.16
719.293	1159.33
719.485	1147.9
719.676	1120.59
719.867	1080.67
720.058	1115.94
720.249	1105.86
720.44	1120
720.632	1164.95
720.823	1176.38
721.014	1290.5
721.205	1303.48
721.396	1355.21
721.587	1431.36
721.778	1455.96
721.969	1456.35
722.16	1535.4
722.351	1514.67
722.542	1623.75
722.733	1637.7
722.924	1563.1
723.115	1610.18
723.305	1593.91
723.496	1599.92
723.687	1498.39
723.878	1556.9
724.069	1516.6
724.26	1530.36
724.45	1468.56
724.641	1484.64
724.832	1557.87
725.023	1506.14
725.213	1540.24
725.404	1478.44
725.595	1501.3
725.785	1497.42
725.976	1579.57
726.167	1537.14
726.357	1531.14
726.548	1652.81
726.739	1570.85
726.929	1623.17
727.12	1680.52
727.31	1659.98
727.501	1639.05
727.691	1678.19
727.882	1682.26
728.072	1692.33
728.263	1706.86
728.453	1733.02
728.644	1735.93
728.834	1742.71
729.024	1720.43
729.215	1701.44
729.405	1749.3
729.596	1808
729.786	1831.44
729.976	1842.68
730.167	1864.96
730.357	1773.32
730.547	1817.3
730.737	1850.63
730.928	1915.34
731.118	1935.29
731.308	1868.64
731.498	1880.07
731.688	1971.91
731.879	1933.16
732.069	2050.77
732.259	2048.83
732.449	2061.81
732.639	2138.15
732.829	2132.53
733.019	2163.53
733.209	2214.29
733.399	2233.08
733.589	2300.51
733.779	2329.57
733.969	2308.06
734.159	2359.02
734.349	2424.89
734.539	2403.97
734.729	2396.02
734.919	2443.1
735.109	2501.81
735.299	2458.8
735.488	2516.92
735.678	2529.9
735.868	2497.93
736.058	2478.95
736.248	2482.05
736.437	2415.01
736.627	2443.88
736.817	2575.05
737.007	2548.12
737.196	2580.47
737.386	2541.72
737.576	2521.96
737.765	2620.38
737.955	2565.36
738.144	2678.89
738.334	2646.54
738.524	2605.85
738.713	2657.19
738.903	2620.38
739.092	2679.09
739.282	2641.7
739.471	2705.83
739.661	2660.68
739.85	2728.11
740.04	2711.25
740.229	2758.14
740.419	2761.04
740.608	2799.6
740.797	2787.78
740.987	2828.27
741.176	2850.17
741.365	2795.53
741.555	2746.51
741.744	2823.43
741.933	2818.2
742.123	2823.62
742.312	2868.19
742.501	2864.89
742.69	2909.07
742.88	2795.72
743.069	2941.23
743.258	2892.6
743.447	2920.5
743.636	2985.4
743.825	2941.62
744.014	2954.21
744.204	2984.43
744.393	2899.77
744.582	2962.73
744.771	3031.71
744.96	2969.13
745.149	2963.7
745.338	2957.5
745.527	3001.87
745.716	2982.11
745.905	2956.92
746.094	2971.45
746.283	3016.6
746.471	2975.72
746.66	3071.43
746.849	3046.63
747.038	3085.57
747.227	2994.12
747.416	3038.1
747.604	3023.18
747.793	3032.87
747.982	3032.29
748.171	3028.61
748.359	3042.36
748.548	3060.77
748.737	3053.8
748.926	3013.11
749.114	2947.62
749.303	3032.68
749.491	3032.68
749.68	2943.17
749.869	3038.49
750.057	3038.49
750.246	2991.99
750.434	2981.33
750.623	2986.95
750.811	2997.61
751	3032.29
751.188	3010.59
751.377	3031.13
751.565	2980.56
751.754	2959.63
751.942	2976.3
752.131	3029
752.319	2991.02
752.507	2977.65
752.696	3012.91
752.884	3031.32
753.072	2956.73
753.261	3015.43
753.449	3014.08
753.637	2967.97
753.825	3041.2
754.014	3011.56
754.202	3010.78
754.39	3044.11
754.578	3000.9
754.766	2970.48
754.955	2957.5
755.143	3045.46
755.331	2948.78
755.519	2966.03
755.707	2955.57
755.895	2957.12
756.083	2952.85
756.271	2898.41
756.459	2931.73
756.647	2973
756.835	2960.99
757.023	2920.88
757.211	2934.83
757.399	2905.58
757.587	2911
757.775	2865.86
757.963	2890.47
758.151	2908.68
758.339	2855.98
758.526	2877.29
758.714	2895.89
758.902	2809.29
759.09	2733.92
759.278	2533.78
759.465	2322.21
759.653	2038.17
759.841	1866.9
760.028	1583.45
760.216	1351.14
760.404	1283.91
760.591	1085.9
760.779	902.43
760.967	782.88
761.154	630.02
761.342	656.56
761.529	677.29
761.717	693.76
761.905	713.33
762.092	769.13
762.28	711.78
762.467	728.25
762.655	653.27
762.842	691.63
763.029	714.3
763.217	700.15
763.404	690.27
763.592	726.89
763.779	668.57
763.966	757.89
764.154	754.6
764.341	822.99
764.528	808.07
764.716	882.28
764.903	926.06
765.09	962.88
765.277	1037.08
765.465	1138.22
765.652	1207.58
765.839	1272.68
766.026	1409.46
766.213	1429.03
766.4	1527.26
766.588	1685.36
766.775	1679.35
766.962	1780.1
767.149	1852.18
767.336	1994.77
767.523	1919.41
767.71	2062
767.897	2163.14
768.084	2247.23
768.271	2273.19
768.458	2318.52
768.645	2356.89
768.832	2359.21
769.019	2343.91
769.206	2384.01
769.392	2479.33
769.579	2563.42
769.766	2486.31
769.953	2516.73
770.14	2540.37
770.327	2545.21
770.513	2575.24
770.7	2653.9
770.887	2558.96
771.073	2637.82
771.26	2609.15
771.447	2599.65
771.634	2546.37
771.82	2683.54
772.007	2532.42
772.193	2595.78
772.38	2634.14
772.567	2603.91
772.753	2598.88
772.94	2637.24
773.126	2671.92
773.313	2634.14
773.499	2572.14
773.686	2632.4
773.872	2581.44
774.059	2626.58
774.245	2548.31
774.432	2579.11
774.618	2544.24
774.804	2574.08
774.991	2554.12
775.177	2579.7
775.363	2587.45
775.55	2619.41
775.736	2508.98
775.922	2542.69
776.109	2574.66
776.295	2533.2
776.481	2582.02
776.667	2571.95
776.853	2536.1
777.04	2529.13
777.226	2536.3
777.412	2610.11
777.598	2511.69
777.784	2506.27
777.97	2527.97
778.156	2520.8
778.342	2490.38
778.528	2486.12
778.715	2430.12
778.901	2516.15
779.087	2502.2
779.272	2410.75
779.458	2434.77
779.644	2486.31
779.83	2449.5
780.016	2523.51
780.202	2453.76
780.388	2437.1
780.574	2380.14
780.76	2433.42
780.946	2481.27
781.131	2459.96
781.317	2431.48
781.503	2360.18
781.689	2422.95
781.874	2543.27
782.06	2414.04
782.246	2420.82
782.432	2436.9
782.617	2402.03
782.803	2449.69
782.989	2354.56
783.174	2370.84
783.36	2319.11
783.545	2364.44
783.731	2361.34
783.916	2286.17
784.102	2367.16
784.288	2296.63
784.473	2345.84
784.659	2306.32
784.844	2355.72
785.029	2266.02
785.215	2295.47
785.4	2250.91
785.586	2371.61
785.771	2281.33
785.956	2308.84
786.142	2262.14
786.327	2246.84
786.512	2257.69
786.698	2278.42
786.883	2223.98
787.068	2233.28
787.254	2226.3
787.439	2237.34
787.624	2253.04
787.809	2240.25
787.994	2166.05
788.18	2243.93
788.365	2164.5
788.55	2135.43
788.735	2190.46
788.92	2156.94
789.105	2187.75
789.29	2160.23
789.475	2132.91
789.66	2170.89
789.845	2093.78
790.03	2080.99
790.215	2130.2
790.4	2150.16
790.585	2200.15
790.77	2123.42
790.955	2069.17
791.14	2125.75
791.325	2174.76
791.51	2024.8
791.695	2085.45
791.879	2059.87
792.064	2024.61
792.249	2122.45
792.434	2056.58
792.618	2090.87
792.803	2090.48
792.988	2063.94
793.173	2073.82
793.357	2142.8
793.542	2113.35
793.727	2086.42
793.911	2112.38
794.096	2072.66
794.281	2120.32
794.465	2180.19
794.65	2099.59
794.834	2151.13
795.019	2174.96
795.203	2172.25
795.388	2148.41
795.572	2134.08
795.757	2128.85
795.941	2163.53
796.126	2118.97
796.31	2067.43
796.494	2125.16
796.679	2099.78
796.863	2046.5
797.048	2149.38
797.232	2128.07
797.416	2130.4
797.601	2121.29
797.785	2179.8
797.969	2126.71
798.153	2066.46
798.338	2141.05
798.522	2151.32
798.706	2161.98
798.89	2168.56
799.074	2283.65
799.258	2172.05
799.443	2157.13
799.627	2160.81
799.811	2162.17
799.995	2109.86
800.179	2083.51
800.363	2094.94
800.547	2126.52
800.731	2157.33
800.915	2064.52
801.099	2072.47
801.283	2093.58
801.467	2158.88
801.651	2121.68
801.835	2220.1
802.019	2165.85
802.202	2120.9
802.386	2056
802.57	2075.57
802.754	2063.55
802.938	2070.33
803.121	2072.85
803.305	2163.72
803.489	2120.9
803.673	2149.38
803.856	2109.28
804.04	2092.03
804.224	2144.15
804.407	2098.04
804.591	2103.66
804.775	2124.78
804.958	2131.36
805.142	2224.36
805.326	2121.68
805.509	2096.88
805.693	2104.82
805.876	2143.76
806.06	2149.38
806.243	2156.36
806.427	2193.36
806.61	2185.03
806.794	2117.22
806.977	2158.3
807.16	2154.42
807.344	2148.8
807.527	2149.96
807.71	2158.1
807.894	2144.15
808.077	2155
808.26	2129.04
808.444	2093.2
808.627	2180
808.81	2062.97
808.993	2029.65
809.177	2048.44
809.36	2076.92
809.543	2086.22
809.726	1988.77
809.909	2009.5
810.092	1982.57
810.276	1980.82
810.459	2028.1
810.642	1982.76
810.825	1954.47
811.008	1938.78
811.191	1896.74
811.374	1906.62
811.557	1939.17
811.74	1958.15
811.923	1851.4
812.106	1858.37
812.289	1816.14
812.472	1846.94
812.654	1843.84
812.837	1788.82
813.02	1749.88
813.203	1749.68
813.386	1659.2
813.569	1678.58
813.751	1608.83
813.934	1637.5
814.117	1609.41
814.3	1570.66
814.482	1556.9
814.665	1516.8
814.848	1503.82
815.03	1433.87
815.213	1439.11
815.396	1430
815.578	1434.46
815.761	1407.53
815.943	1440.46
816.126	1354.44
816.309	1349.01
816.491	1275.78
816.674	1241.68
816.856	1281.98
817.039	1262.6
817.221	1355.02
817.403	1316.08
817.586	1347.66
817.768	1300.19
817.951	1262.41
818.133	1268.03
818.315	1290.89
818.498	1308.52
818.68	1379.04
818.862	1345.14
819.045	1345.14
819.227	1357.15
819.409	1293.6
819.591	1345.53
819.774	1335.06
819.956	1281.01
820.138	1430
820.32	1378.66
820.502	1414.31
820.684	1458.09
820.866	1442.21
821.048	1494.91
821.231	1524.55
821.413	1483.28
821.595	1498.59
821.777	1479.21
821.959	1467.97
822.141	1564.46
822.323	1428.64
822.505	1364.71
822.686	1325.76
822.868	1286.43
823.05	1162.24
823.232	1149.07
823.414	1077.19
823.596	1176.38
823.778	1173.67
823.96	1164.57
824.141	1189.56
824.323	1183.17
824.505	1297.67
824.687	1305.61
824.868	1341.46
825.05	1445.69
825.232	1477.27
825.413	1504.59
825.595	1472.62
825.777	1393.77
825.958	1446.66
826.14	1438.72
826.321	1500.52
826.503	1418.38
826.685	1480.57
826.866	1461.19
827.048	1473.4
827.229	1391.83
827.411	1367.81
827.592	1374.59
827.773	1330.41
827.955	1308.33
828.136	1299.22
828.318	1266.48
828.499	1352.11
828.68	1242.45
828.862	1297.09
829.043	1330.22
829.224	1287.98
829.406	1248.07
829.587	1309.49
829.768	1264.15
829.949	1332.74
830.131	1294.38
830.312	1379.24
830.493	1287.6
830.674	1340.29
830.855	1307.16
831.036	1291.86
831.218	1379.04
831.399	1369.74
831.58	1315.88
831.761	1289.73
831.942	1349.79
832.123	1307.55
832.304	1243.03
832.485	1290.7
832.666	1302.13
832.847	1301.55
833.028	1314.91
833.209	1302.13
833.389	1290.11
833.57	1241.29
833.751	1275.78
833.932	1317.63
834.113	1309.68
834.294	1277.13
834.475	1331.58
834.655	1357.93
834.836	1348.82
835.017	1343.39
835.198	1264.73
835.378	1341.65
835.559	1369.74
835.74	1285.08
835.92	1323.83
836.101	1272.68
836.281	1367.23
836.462	1369.94
836.643	1379.43
836.823	1414.31
837.004	1413.34
837.184	1427.87
837.365	1401.71
837.545	1410.82
837.726	1367.81
837.906	1413.92
838.087	1402.88
838.267	1377.69
838.448	1309.3
838.628	1370.33
838.808	1367.81
838.989	1405.59
839.169	1332.74
839.349	1399.39
839.53	1399.97
839.71	1377.3
839.89	1337.58
840.07	1430
840.251	1352.69
840.431	1386.41
840.611	1354.83
840.791	1352.11
840.971	1387.57
841.151	1335.64
841.332	1341.65
841.512	1395.13
841.692	1308.52
841.872	1385.83
842.052	1351.73
842.232	1390.86
842.412	1304.65
842.592	1333.32
842.772	1364.51
842.952	1374.59
843.132	1356.57
843.312	1321.11
843.492	1305.23
843.672	1331
843.851	1302.9
844.031	1335.45
844.211	1318.01
844.391	1320.15
844.571	1339.91
844.751	1337.78
844.93	1317.43
845.11	1293.6
845.29	1345.72
845.47	1372.65
845.649	1325.18
845.829	1375.17
846.009	1311.62
846.188	1344.75
846.368	1311.43
846.547	1320.34
846.727	1375.56
846.907	1295.15
847.086	1317.43
847.266	1364.71
847.445	1339.91
847.625	1277.52
847.804	1289.53
847.984	1320.15
848.163	1295.93
848.343	1287.01
848.522	1310.26
848.701	1306.2
848.881	1258.15
849.06	1310.65
849.239	1283.14
849.419	1274.23
849.598	1219.2
849.777	1228.7
849.957	1216.49
850.136	1199.83
850.315	1195.18
850.494	1189.37
850.674	1182
850.853	1256.6
851.032	1206.8
851.211	1237.22
851.39	1219.98
851.569	1157.78
851.748	1165.53
851.927	1212.42
852.107	1200.22
852.286	1182.39
852.465	1178.52
852.644	1214.17
852.823	1206.42
853.002	1206.61
853.181	1190.14
853.359	1194.02
853.538	1129.5
853.717	1206.42
853.896	1145.39
854.075	1030.69
854.254	1038.63
854.433	985.35
854.611	1068.27
854.79	1000.27
854.969	1067.11
855.148	1047.93
855.327	1032.43
855.505	1062.66
855.684	1041.54
855.863	1090.94
856.041	1083.97
856.22	1108.77
856.399	1068.86
856.577	1117.49
856.756	1107.41
856.934	1243.23
857.113	1250.78
857.291	1115.55
857.47	1153.91
857.648	1126.4
857.827	1152.17
858.005	1171.35
858.184	1112.06
858.362	1220.56
858.541	1173.28
858.719	1141.51
858.898	1149.65
859.076	1129.3
859.254	1208.55
859.433	1145.97
859.611	1132.02
859.789	1109.74
859.967	1194.21
860.146	1193.24
860.324	1079.12
860.502	1093.27
860.68	1051.03
860.859	1076.41
861.037	1107.8
861.215	1123.69
861.393	1130.47
861.571	1077.19
861.749	1081.25
861.927	1114.39
862.105	1083.77
862.283	1048.71
862.461	1077.19
862.639	1039.6
862.817	1101.21
862.995	1095.2
863.173	1078.35
863.351	1101.02
863.529	1060.91
863.707	1107.02
863.885	1100.63
864.063	1018.67
864.241	1068.66
864.418	1130.85
864.596	1038.44
864.774	1002.01
864.952	1040.57
865.129	1059.94
865.307	1050.26
865.485	990
865.663	1079.7
865.84	977.41
866.018	1021.39
866.196	886.15
866.373	910.56
866.551	881.89
866.728	835.97
866.906	893.71
867.084	933.43
867.261	925.48
867.439	935.17
867.616	995.81
867.794	945.83
867.971	987.67
868.149	996.97
868.326	1007.05
868.503	1016.74
868.681	953.19
868.858	954.74
869.035	926.64
869.213	1016.93
869.39	949.51
869.567	1018.29
869.745	954.35
869.922	979.15
870.099	1019.26
870.276	986.71
870.454	1000.46
870.631	996.78
870.808	951.06
870.985	1006.66
871.162	1014.02
871.339	972.18
871.517	940.79
871.694	928.19
871.871	989.03
872.048	947.76
872.225	908.63
872.402	963.26
872.579	892.35
872.756	942.34
872.933	894.48
873.11	938.66
873.287	986.32
873.463	901.07
873.64	912.69
873.817	928.19
873.994	923.16
874.171	928.19
874.348	921.41
874.524	866
874.701	926.84
874.878	857.86
875.055	931.68
875.231	911.53
875.408	902.81
875.585	881.7
875.762	876.66
875.938	855.54
876.115	895.65
876.291	882.47
876.468	878.4
876.645	835.78
876.821	877.82
876.998	867.36
877.174	873.56
877.351	839.65
877.527	866
877.704	879.95
877.88	887.31
878.057	859.41
878.233	921.99
878.409	855.73
878.586	910.76
878.762	853.21
878.938	846.43
879.115	794.9
879.291	840.04
879.467	787.73
879.644	819.89
879.82	876.85
879.996	836.55
880.172	762.15
880.349	800.52
880.525	860.38
880.701	801.29
880.877	803.03
881.053	838.3
881.229	839.07
881.405	825.9
881.581	798.38
881.757	820.66
881.933	852.05
882.109	879.76
882.285	817.76
882.461	763.12
882.637	794.12
882.813	806.33
882.989	783.85
883.165	886.54
883.341	803.42
883.517	836.36
883.693	839.26
883.869	840.04
884.044	809.04
884.22	830.35
884.396	869.68
884.572	829.96
884.747	843.72
884.923	806.33
885.099	849.53
885.275	876.08
885.45	806.72
885.626	794.51
885.801	799.93
885.977	778.82
886.153	732.9
886.328	804.2
886.504	790.83
886.679	842.17
886.855	787.92
887.03	835.58
887.206	849.53
887.381	816.98
887.557	821.83
887.732	834.81
887.908	839.85
888.083	840.81
888.258	800.71
888.434	811.75
888.609	797.61
888.784	863.87
888.96	800.71
889.135	763.51
889.31	778.04
889.485	776.88
889.661	792.57
889.836	849.73
890.011	814.08
890.186	815.24
890.361	776.1
890.537	834.23
890.712	787.34
890.887	822.02
891.062	816.79
891.237	833.06
891.412	780.17
891.587	761.77
891.762	816.4
891.937	866
892.112	748.2
892.287	793.73
892.462	761.57
892.637	725.73
892.812	712.75
892.987	736.58
893.161	728.25
893.336	724.76
893.511	733.48
893.686	729.22
893.861	729.22
894.035	717.01
894.21	738.52
894.385	714.88
894.56	740.07
894.734	668.96
894.909	669.54
895.084	656.75
895.258	653.65
895.433	692.02
895.608	659.08
895.782	608.12
895.957	655.59
896.131	631.76
896.306	552.32
896.48	568.41
896.655	596.69
896.829	535.66
897.004	501.18
897.178	534.69
897.353	531.59
897.527	548.45
897.701	541.86
897.876	494.98
898.05	570.34
898.224	561.82
898.399	587.59
898.573	560.46
898.747	444.41
898.921	478.89
899.096	432.2
899.27	431.23
899.444	459.13
899.618	475.99
899.792	474.63
899.967	437.63
900.141	504.47
900.315	445.18
900.489	458.55
900.663	478.89
900.837	469.01
901.011	401.78
901.185	507.76
901.359	488.19
901.533	509.31
901.707	499.63
901.881	467.08
902.055	442.66
902.229	462.62
902.403	493.04
902.576	479.28
902.75	453.9
902.924	611.42
903.098	523.46
903.272	504.86
903.446	542.06
903.619	563.76
903.793	560.85
903.967	568.21
904.14	631.96
904.314	599.02
904.488	586.62
904.661	582.94
904.835	608.9
905.009	624.79
905.182	657.72
905.356	608.51
905.529	609.87
905.703	541.86
905.876	564.14
906.05	542.64
906.223	536.24
906.397	498.08
906.57	465.91
906.744	458.16
906.917	485.48
907.09	480.64
907.264	466.11
907.437	402.17
907.61	419.03
907.784	454.68
907.957	447.9
908.13	417.48
908.304	444.6
908.477	425.61
908.65	423.68
908.823	377.95
908.996	455.26
909.17	383.18
909.343	428.33
909.516	404.5
909.689	409.73
909.862	373.3
910.035	410.5
910.208	386.86
910.381	381.25
910.554	475.6
910.727	377.56
910.9	420.38
911.073	367.88
911.246	446.35
911.419	475.41
911.592	447.31
911.765	394.81
911.938	391.32
912.11	392.48
912.283	405.46
912.456	454.1
912.629	385.9
912.802	382.99
912.974	352.38
913.147	327
913.32	306.07
913.493	301.62
913.665	333.58
913.838	375.63
914.01	343.66
914.183	362.45
914.356	344.43
914.528	383.18
914.701	435.5
914.873	378.15
915.046	360.52
915.218	340.17
915.391	271.2
915.563	309.56
915.736	355.28
915.908	372.53
916.081	348.12
916.253	309.95
916.425	352.18
916.598	369.62
916.77	347.73
916.942	311.5
917.115	246.98
917.287	361.1
917.459	311.88
917.632	291.93
917.804	261.7
917.976	342.69
918.148	326.42
918.32	320.8
918.493	356.25
918.665	374.66
918.837	348.89
919.009	384.35
919.181	394.03
919.353	392.29
919.525	382.02
919.697	355.87
919.869	367.1
920.041	421.93
920.213	481.03
920.385	391.9
920.557	381.44
920.729	414.57
920.901	386.48
921.073	383.38
921.244	376.21
921.416	386.28
921.588	381.83
921.76	365.55
921.932	432.4
922.103	379.5
922.275	381.25
922.447	384.93
922.619	327.58
922.79	365.94
922.962	340.56
923.134	401.01
923.305	318.86
923.477	294.25
923.648	334.36
923.82	325.45
923.991	271.59
924.163	269.26
924.335	308.59
924.506	285.73
924.677	319.25
924.849	279.72
925.02	336.68
925.192	343.08
925.363	302.2
925.535	355.09
925.706	281.27
925.877	353.73
926.049	280.3
926.22	291.54
926.391	304.13
926.562	361.29
926.734	289.99
926.905	329.13
927.076	244.27
927.247	259.77
927.419	277.4
927.59	247.17
927.761	267.52
927.932	246.4
928.103	240
928.274	221.02
928.445	196.02
928.616	232.25
928.787	226.44
928.958	238.84
929.129	233.22
929.3	226.44
929.471	188.47
929.642	146.81
929.813	92.95
929.984	192.73
930.155	92.56
930.326	165.41
930.496	130.54
930.667	73.38
930.838	142.55
931.009	108.06
931.18	93.53
931.35	107.87
931.521	132.09
931.692	72.41
931.863	46.26
932.033	89.85
932.204	89.08
932.374	96.83
932.545	61.56
932.716	105.93
932.886	84.23
933.057	8.48
933.227	54.98
933.398	124.34
933.568	28.04
933.739	-14.39
933.909	33.28
934.08	76.29
934.25	0.92
934.421	-2.95
934.591	67.76
934.761	-0.44
934.932	-2.76
935.102	11.77
935.272	17
935.443	38.51
935.613	23.59
935.783	33.66
935.953	-20.97
936.123	152.04
936.294	5.76
936.464	6.73
936.634	11.77
936.804	7.31
936.974	-31.24
937.144	45.48
937.314	27.27
937.484	-1.99
937.655	-2.76
937.825	37.73
937.995	-18.07
938.165	55.56
938.334	-4.7
938.504	24.94
938.674	29.98
938.844	67.18
939.014	98.38
939.184	63.69
939.354	127.24
939.524	103.03
939.694	51.29
939.863	53.23
940.033	125.5
940.203	100.89
940.373	85.98
940.542	104.19
940.712	64.66
940.882	88.3
941.051	102.06
941.221	109.42
941.391	105.16
941.56	45.68
941.73	52.07
941.899	167.93
942.069	22.62
942.238	90.63
942.408	49.16
942.577	83.46
942.747	39.67
942.916	-6.25
943.086	36.76
943.255	84.43
943.425	77.84
943.594	17.39
943.763	-28.72
943.933	9.25
944.102	-22.72
944.271	34.83
944.441	66.79
944.61	52.26
944.779	58.66
944.948	115.23
945.117	5.96
945.287	42.77
945.456	-31.05
945.625	8.09
945.794	69.89
945.963	30.37
946.132	60.59
946.301	51.1
946.47	57.88
946.639	-5.86
946.808	22.23
946.977	41.99
947.146	76.29
947.315	15.84
947.484	55.75
947.653	42.58
947.822	23.39
947.991	8.48
948.16	109.42
948.329	81.52
948.498	36.18
948.666	43.74
948.835	104.77
949.004	6.93
949.173	7.51
949.341	46.26
949.51	66.6
949.679	76.87
949.847	50.52
950.016	118.72
950.185	101.09
950.353	33.08
950.522	44.71
950.69	95.66
950.859	29.01
951.028	100.89
951.196	74.54
951.365	16.23
951.533	38.12
951.701	74.35
951.87	68.34
952.038	39.09
952.207	42.38
952.375	100.12
952.543	37.54
952.712	54.39
952.88	36.57
953.048	95.28
953.217	60.79
953.385	32.11
953.553	91.79
953.721	4.8
953.89	46.26
954.058	16.61
954.226	42.58
954.394	51.1
954.562	-0.24
954.73	53.43
954.898	40.44
955.067	75.9
955.235	25.91
955.403	75.32
955.571	122.98
955.739	35.41
955.907	41.99
956.075	56.91
956.243	14.29
956.41	35.99
956.578	19.33
956.746	-6.64
956.914	30.37
957.082	70.67
957.25	48.78
957.418	25.33
957.585	56.33
957.753	84.43
957.921	12.55
958.089	50.13
958.256	70.67
958.424	57.3
958.592	62.53
958.759	24.56
958.927	97.99
959.095	-1.6
959.262	23.39
959.43	26.49
959.597	9.25
959.765	56.72
959.932	14.87
960.1	86.17
960.267	25.53
960.435	56.91
960.602	102.06
960.77	38.51
960.937	24.75
961.104	39.09
961.272	-19.42
961.439	12.35
961.606	45.68
961.774	40.64
961.941	55.56
962.108	62.14
962.275	49.55
962.443	77.45
962.61	73.19
962.777	117.17
962.944	80.55
963.111	86.17
963.278	98.76
963.446	72.8
963.613	62.34
963.78	90.43
963.947	65.63
964.114	52.84
964.281	127.05
964.448	79.97
964.615	29.4
964.782	74.16
964.949	90.43
965.116	89.85
965.282	123.17
965.449	53.43
965.616	50.52
965.783	67.18
965.95	72.8
966.117	40.83
966.283	59.43
966.45	50.91
966.617	53.81
966.784	109.03
966.95	93.14
967.117	104.19
967.284	46.26
967.45	46.26
967.617	106.71
967.784	79.19
967.95	113.29
968.117	59.63
968.283	117.94
968.45	164.83
968.616	90.63
968.783	127.05
968.949	87.72
969.116	114.07
969.282	64.08
969.449	71.06
969.615	96.05
969.781	17
969.948	71.25
970.114	55.94
970.28	111.74
970.447	79.39
970.613	122.79
970.779	69.7
970.945	114.65
971.112	88.3
971.278	79.97
971.444	91.79
971.61	121.62
971.776	71.06
971.942	91.01
972.108	91.79
972.275	77.84
972.441	85.78
972.607	141.77
972.773	52.84
972.939	95.86
973.105	82.49
973.271	26.11
973.437	57.11
973.602	44.71
973.768	109.42
973.934	54.78
974.1	73.58
974.266	-1.4
974.432	74.54
974.598	48
974.763	107.29
974.929	36.18
975.095	125.89
975.261	51.1
975.426	47.61
975.592	59.63
975.758	131.31
975.923	11.77
976.089	17.2
976.255	103.03
976.42	71.44
976.586	92.56
976.751	60.79
976.917	149.14
977.082	106.9
977.248	9.06
977.413	4.21
977.579	39.09
977.744	69.51
977.91	29.79
978.075	68.15
978.24	91.79
978.406	47.42
978.571	56.53
978.736	31.73
978.902	82.88
979.067	30.37
979.232	11.58
979.397	78.23
979.563	98.96
979.728	43.16
979.893	60.4
980.058	52.65
980.223	85.39
980.388	82.49
980.554	23.39
980.719	30.95
980.884	85.78
981.049	106.13
981.214	13.9
981.379	104.58
981.544	52.26
981.709	69.31
981.874	64.86
982.039	61.76
982.204	89.85
982.368	69.7
982.533	35.41
982.698	92.76
982.863	111.94
983.028	63.89
983.193	63.89
983.357	90.43
983.522	70.48
983.687	44.71
983.852	65.44
984.016	75.51
984.181	65.63
984.346	72.99
984.51	80.74
984.675	66.41
984.839	107.29
985.004	91.21
985.168	104.96
985.333	82.49
985.498	72.99
985.662	86.56
985.827	97.99
985.991	63.69
986.155	49.94
986.32	67.96
986.484	105.35
986.649	78.03
986.813	15.26
986.977	42.38
987.142	94.11
987.306	37.73
987.47	51.68
987.634	66.99
987.799	60.79
987.963	51.68
988.127	76.09
988.291	122.01
988.455	60.59
988.62	61.95
988.784	75.71
988.948	79
989.112	51.49
989.276	78.03
989.44	80.94
989.604	32.89
989.768	54.39
989.932	147.39
990.096	1.31
990.26	40.83
990.424	20.88
990.588	57.49
990.752	126.47
990.915	77.84
991.079	50.71
991.243	57.69
991.407	99.73
991.571	40.25
991.734	76.48
991.898	77.45
992.062	153.01
992.226	56.33
992.389	21.85
992.553	-0.63
992.717	15.45
992.88	72.8
993.044	70.09
993.207	41.03
993.371	77.06
993.535	68.73
993.698	67.57
993.862	77.84
994.025	91.21
994.189	69.7
994.352	49.16
994.515	60.4
994.679	97.02
994.842	28.43
995.006	75.32
995.169	18.16
995.332	25.72
995.496	72.61
995.659	11.58
995.822	55.75
995.985	48.97
996.149	125.31
996.312	43.54
996.475	101.28
996.638	41.99
996.801	93.34
996.964	114.26
997.128	41.61
997.291	55.94
997.454	59.63
997.617	6.15
997.78	89.27
997.943	40.25
998.106	60.21
998.269	69.12
998.432	47.81
998.595	41.61
998.758	-25.04
998.92	30.18
999.083	3.44
999.246	44.13
999.409	4.41
999.572	6.15
999.735	11.77
999.897	50.52
1000.06	28.63
1000.223	14.29
1000.386	76.09
1000.548	86.17
1000.711	75.9
1000.874	41.61
1001.036	-20.2
1001.199	81.13
1001.361	23.98
1001.524	34.05
1001.687	81.91
1001.849	27.08
1002.012	35.41
1002.174	56.14
1002.337	84.81
1002.499	21.07
1002.661	67.18
1002.824	-0.24
1002.986	4.02
1003.149	39.09
1003.311	2.86
1003.473	96.44
1003.636	-5.47
1003.798	57.88
1003.96	63.5
1004.123	24.94
1004.285	4.99
1004.447	57.3
1004.609	35.02
1004.771	95.47
1004.933	-23.1
1005.096	9.25
1005.258	-10.51
1005.42	30.18
1005.582	72.61
1005.744	37.34
1005.906	-5.47
1006.068	60.01
1006.23	-10.32
1006.392	-3.34
1006.554	-17.1
1006.716	56.72
1006.878	41.8
1007.04	8.28
1007.202	4.6
1007.363	49.16
1007.525	35.99
1007.687	38.89
1007.849	60.98
1008.011	-1.6
1008.172	-8.19
1008.334	19.13
1008.496	60.98
1008.658	-6.05
1008.819	-7.6
1008.981	-9.93
1009.143	-11.09
1009.304	10.61
1009.466	91.4
1009.627	67.96
1009.789	109.22
1009.95	41.22
1010.112	-18.65
1010.273	23.98
1010.435	26.11
1010.596	40.83
1010.758	19.52
1010.919	20.88
1011.081	-17.29
1011.242	27.66
1011.403	37.73
1011.565	25.91
1011.726	26.49
1011.887	-13.22
1012.049	-0.63
1012.21	45.87
1012.371	65.44
1012.532	-37.64
1012.693	37.54
1012.855	16.61
1013.016	11.77
1013.177	58.08
1013.338	13.71
1013.499	87.72
1013.66	41.61
1013.821	67.76
1013.982	15.06
1014.143	-0.63
1014.304	-9.93
1014.465	46.64
1014.626	41.8
1014.787	13.13
1014.948	100.51
1015.109	-67.67
1015.27	39.09
1015.431	-12.64
1015.592	-1.02
1015.752	76.29
1015.913	23.2
1016.074	43.16
1016.235	22.62
1016.395	23.98
1016.556	13.32
1016.717	6.93
1016.877	79.58
1017.038	-5.86
1017.199	17.2
1017.359	28.04
1017.52	19.13
1017.681	8.09
1017.841	36.96
1018.002	-6.44
1018.162	5.57
1018.323	75.32
1018.483	25.91
1018.644	10.61
1018.804	-9.74
1018.964	-23.69
1019.125	-15.16
1019.285	31.73
1019.446	-30.85
1019.606	-9.74
1019.766	-45.97
1019.926	22.81
1020.087	22.04
1020.247	-45.58
1020.407	31.92
1020.567	61.37
1020.728	-8.77
1020.888	-3.54
1021.048	7.9
1021.208	-10.32
1021.368	-29.89
1021.528	27.08
1021.688	33.86
1021.848	65.83
1022.008	14.48
1022.168	1.11
1022.328	19.52
1022.488	37.15
1022.648	4.41
1022.808	29.4
1022.968	35.02
1023.128	9.25
1023.288	-18.84
1023.448	14.87
1023.608	19.71
1023.767	27.85
1023.927	-11.48
1024.087	-47.9
1024.247	-51.59
1024.406	1.31
1024.566	-33.37
1024.726	-19.04
1024.885	-5.09
1025.045	27.27
1025.205	13.13
1025.364	19.33
1025.524	12.93
1025.683	29.59
1025.843	1.31
1026.003	12.55
1026.162	61.37
1026.321	40.06
1026.481	-0.63
1026.64	-5.28
1026.8	11.38
1026.959	14.68
1027.119	-5.09
1027.278	-25.43
1027.437	-11.29
1027.597	-4.89
1027.756	15.84
1027.915	-1.6
1028.074	41.61
1028.234	-22.52
1028.393	20.68
1028.552	-7.6
1028.711	-70.18
1028.87	22.04
1029.03	-33.76
1029.189	19.52
1029.348	-64.57
1029.507	-5.86
1029.666	9.64
1029.825	-36.86
1029.984	-14.77
1030.143	8.48
1030.302	-10.12
1030.461	-46.74
1030.62	29.59
1030.779	16.23
1030.938	-30.66
1031.097	-50.62
1031.255	33.08
1031.414	63.89
1031.573	25.14
1031.732	-69.8
1031.891	-19.23
1032.049	29.79
1032.208	1.5
1032.367	-18.45
1032.525	-13.03
1032.684	-1.79
1032.843	-9.15
1033.001	-46.16
1033.16	141.58
1033.319	27.27
1033.477	38.31
1033.636	-19.42
1033.794	-25.24
1033.953	35.79
1034.111	53.23
1034.27	-3.92
1034.428	14.1
1034.587	-24.46
1034.745	-6.44
1034.903	-2.76
1035.062	33.47
1035.22	-38.99
1035.378	42.38
1035.537	-17.49
1035.695	20.88
1035.853	-0.05
1036.011	15.26
1036.17	20.3
1036.328	-65.15
1036.486	11
1036.644	22.04
1036.802	-78.71
1036.96	-46.55
1037.119	-16.13
1037.277	-33.57
1037.435	-37.44
1037.593	-35.12
1037.751	0.34
1037.909	28.24
1038.067	28.24
