Data from oakcork_FLMT105791__198__17-32-11-057.txt Node

Date: Mon Mar 20 17:32:11 GMT 2023
User: antho
Spectrometer: FLMT10579
Trigger mode: 0
Integration Time (sec): 1.000000E-1
Scans to average: 10
Electric dark correction enabled: true
Nonlinearity correction enabled: false
Boxcar width: 0
XAxis mode: Wavelengths
Number of Pixels in Spectrum: 3648
>>>>>Begin Spectral Data<<<<<
345.248	-159
345.464	-159
345.681	-159
345.898	-152.41
346.114	-159.97
346.331	-37.52
346.548	4.71
346.764	-0.13
346.981	5.1
347.197	-10.79
347.414	15.76
347.631	-18.92
347.847	59.16
348.064	-3.42
348.28	35.52
348.497	-22.22
348.713	-27.25
348.93	-0.9
349.146	22.15
349.363	13.05
349.579	29.51
349.796	3.16
350.012	-7.69
350.229	34.36
350.445	5.49
350.661	-12.92
350.878	2
351.094	24.09
351.311	34.55
351.527	36.1
351.743	-9.43
351.96	34.36
352.176	39.4
352.392	10.72
352.609	31.06
352.825	-20.86
353.041	-22.02
353.257	-4
353.474	18.28
353.69	-7.49
353.906	-10.01
354.122	-23.77
354.339	58.58
354.555	3.36
354.771	-5.36
354.987	55.09
355.203	54.51
355.42	-16.6
355.636	0.84
355.852	-17.18
356.068	24.48
356.284	-16.4
356.5	40.36
356.716	12.46
356.932	-16.21
357.148	29.32
357.364	-0.32
357.58	40.36
357.796	38.04
358.012	56.64
358.228	8.78
358.444	-35.97
358.66	41.14
358.876	13.24
359.092	-8.07
359.308	14.4
359.524	15.56
359.74	2.2
359.956	4.13
360.172	4.13
360.388	40.95
360.604	18.47
360.819	74.27
361.035	5.88
361.251	22.54
361.467	-13.69
361.683	24.48
361.898	28.35
362.114	27
362.33	31.65
362.546	50.44
362.762	35.91
362.977	14.4
363.193	-33.45
363.409	44.05
363.624	-18.15
363.84	-22.99
364.056	-14.85
364.271	27.77
364.487	17.5
364.703	-10.01
364.918	-42.56
365.134	-6.33
365.35	9.95
365.565	107.59
365.781	16.34
365.996	23.7
366.212	53.35
366.427	32.42
366.643	6.07
366.858	13.05
367.074	-30.93
367.289	47.53
367.505	83.18
367.72	-30.16
367.936	-13.11
368.151	35.91
368.367	32.03
368.582	23.12
368.798	27
369.013	56.64
369.228	2
369.444	0.06
369.659	71.36
369.874	20.21
370.09	55.48
370.305	-42.95
370.52	17.89
370.736	61.29
370.951	1.81
371.166	71.75
371.381	79.5
371.597	63.81
371.812	-14.66
372.027	-18.34
372.242	4.13
372.458	64.19
372.673	15.95
372.888	4.91
373.103	9.36
373.318	89.58
373.533	29.71
373.749	36.88
373.964	-11.95
374.179	76.01
374.394	-26.48
374.609	81.24
374.824	-10.59
375.039	58
375.254	27
375.469	44.82
375.684	31.45
375.899	70.78
376.114	26.22
376.329	33.97
376.544	49.86
376.759	61.68
376.974	-14.08
377.189	2
377.404	8.59
377.619	52.57
377.834	-9.24
378.049	-40.43
378.264	-19.12
378.478	21.57
378.693	-27.64
378.908	44.63
379.123	25.25
379.338	53.93
379.553	16.34
379.767	25.45
379.982	58.77
380.197	33.97
380.412	8.98
380.626	22.73
380.841	90.93
381.056	47.73
381.271	53.73
381.485	6.26
381.7	-14.85
381.915	14.4
382.129	0.26
382.344	2.58
382.559	23.51
382.773	58.19
382.988	-0.52
383.202	5.88
383.417	27.77
383.632	100.81
383.846	45.01
384.061	16.34
384.275	21.18
384.49	26.8
384.704	53.15
384.919	33.78
385.133	21.38
385.348	30.1
385.562	-8.27
385.777	64.97
385.991	22.35
386.206	31.45
386.42	14.79
386.634	53.54
386.849	43.85
387.063	29.32
387.277	-19.7
387.492	18.66
387.706	-1.29
387.92	-0.71
388.135	22.93
388.349	16.34
388.563	16.92
388.778	4.71
388.992	43.46
389.206	45.98
389.42	79.31
389.635	27.58
389.849	56.06
390.063	56.64
390.277	37.26
390.491	92.68
390.706	36.68
390.92	45.01
391.134	34.94
391.348	53.54
391.562	-41.59
391.776	-2.65
391.99	9.17
392.205	47.92
392.419	18.86
392.633	19.25
392.847	81.24
393.061	0.45
393.275	88.41
393.489	63.03
393.703	45.21
393.917	62.64
394.131	3.94
394.345	39.01
394.559	47.53
394.773	30.29
394.986	56.83
395.2	25.25
395.414	63.61
395.628	1.81
395.842	61.48
396.056	29.9
396.27	-23.19
396.484	37.07
396.697	10.91
396.911	85.12
397.125	58.58
397.339	50.63
397.553	51.8
397.766	78.73
397.98	51.21
398.194	74.66
398.408	27.58
398.621	58.19
398.835	62.06
399.049	41.33
399.262	66.13
399.476	56.06
399.69	54.9
399.903	115.93
400.117	33.58
400.331	55.67
400.544	46.56
400.758	133.94
400.971	43.46
401.185	60.32
401.398	28.16
401.612	76.4
401.826	41.91
402.039	58.96
402.253	32.42
402.466	49.08
402.68	42.3
402.893	44.82
403.106	44.05
403.32	18.08
403.533	59.35
403.747	38.81
403.96	55.86
404.174	80.66
404.387	7.23
404.6	43.08
404.814	65.36
405.027	53.73
405.24	43.27
405.454	50.25
405.667	65.94
405.88	-6.52
406.094	62.26
406.307	108.76
406.52	58.19
406.733	15.18
406.947	-3.42
407.16	120.96
407.373	85.89
407.586	18.08
407.799	34.75
408.012	87.64
408.226	54.7
408.439	95
408.652	-8.07
408.865	75.82
409.078	93.06
409.291	51.02
409.504	20.6
409.717	77.76
409.93	69.04
410.143	49.47
410.357	7.04
410.57	16.73
410.783	75.04
410.996	66.71
411.209	32.81
411.421	71.75
411.634	61.68
411.847	25.06
412.06	46.95
412.273	17.11
412.486	43.85
412.699	106.24
412.912	50.44
413.125	78.73
413.338	71.17
413.55	69.04
413.763	43.66
413.976	53.15
414.189	34.55
414.402	24.86
414.615	107.79
414.827	14.01
415.04	69.81
415.253	50.25
415.466	106.04
415.678	125.42
415.891	53.54
416.104	61.29
416.316	33.97
416.529	36.68
416.742	70.01
416.954	95.97
417.167	53.54
417.38	59.93
417.592	104.88
417.805	47.15
418.017	11.3
418.23	88.22
418.442	31.84
418.655	58.96
418.868	62.64
419.08	89.19
419.293	77.37
419.505	87.44
419.718	73.11
419.93	94.23
420.142	27.19
420.355	113.21
420.567	126
420.78	72.53
420.992	76.59
421.205	126.39
421.417	30.68
421.629	78.92
421.842	14.01
422.054	16.53
422.266	62.64
422.479	108.18
422.691	49.28
422.903	91.71
423.115	64.39
423.328	78.92
423.54	65.74
423.752	57.22
423.964	41.91
424.177	64.58
424.389	64.78
424.601	137.24
424.813	76.4
425.025	126.78
425.238	85.89
425.45	43.66
425.662	40.75
425.874	355.2
426.086	51.02
426.298	68.84
426.51	66.91
426.722	81.83
426.934	40.95
427.146	74.27
427.358	6.65
427.57	99.84
427.782	68.07
427.994	55.86
428.206	63.42
428.418	26.41
428.63	68.26
428.842	95.58
429.054	82.99
429.266	97.13
429.478	50.05
429.69	67.29
429.902	37.65
430.114	116.31
430.325	76.21
430.537	36.3
430.749	73.88
430.961	24.86
431.173	47.15
431.384	77.18
431.596	4.13
431.808	56.06
432.02	69.62
432.231	95.97
432.443	84.73
432.655	64.19
432.867	68.84
433.078	108.18
433.29	140.14
433.502	104.49
433.713	108.76
433.925	80.28
434.136	143.44
434.348	58.19
434.56	30.68
434.771	175.02
434.983	45.21
435.194	44.63
435.406	65.55
435.617	93.06
435.829	130.07
436.04	99.65
436.252	103.14
436.463	129.29
436.675	108.56
436.886	102.56
437.098	103.72
437.309	138.21
437.521	84.73
437.732	99.65
437.943	106.43
438.155	82.41
438.366	42.69
438.578	111.28
438.789	85.31
439	104.3
439.211	93.26
439.423	137.24
439.634	113.6
439.845	104.49
440.057	131.81
440.268	113.99
440.479	76.79
440.69	100.62
440.902	81.24
441.113	88.99
441.324	64.58
441.535	103.91
441.746	134.72
441.957	66.33
442.168	93.26
442.38	102.36
442.591	125.81
442.802	51.41
443.013	78.92
443.224	82.6
443.435	96.16
443.646	104.49
443.857	97.71
444.068	91.32
444.279	97.91
444.49	139.76
444.701	102.94
444.912	162.23
445.123	146.15
445.334	115.93
445.545	73.3
445.756	113.99
445.967	93.64
446.178	134.14
446.388	114.96
446.599	135.69
446.81	113.6
447.021	91.51
447.232	138.01
447.443	159.52
447.653	72.14
447.864	130.65
448.075	89.19
448.286	150.99
448.496	121.93
448.707	156.22
448.918	101.01
449.129	198.85
449.339	93.26
449.55	122.71
449.761	110.89
449.971	155.84
450.182	82.21
450.393	147.12
450.603	105.46
450.814	157.19
451.024	128.33
451.235	153.51
451.446	162.23
451.656	153.12
451.867	87.06
452.077	137.63
452.288	164.17
452.498	149.83
452.709	119.03
452.919	139.95
453.13	115.54
453.34	150.99
453.55	76.21
453.761	153.9
453.971	149.64
454.182	186.64
454.392	167.27
454.602	154.67
454.813	148.47
455.023	187.61
455.233	114.18
455.444	146.54
455.654	64.39
455.864	122.32
456.075	99.46
456.285	116.51
456.495	134.53
456.705	147.31
456.916	153.9
457.126	169.59
457.336	121.16
457.546	100.04
457.756	117.48
457.967	177.15
458.177	122.51
458.387	127.74
458.597	107.4
458.807	121.54
459.017	113.6
459.227	122.32
459.437	117.09
459.647	150.02
459.857	145.38
460.068	144.41
460.278	175.02
460.488	171.14
460.698	202.72
460.908	122.13
461.117	86.48
461.327	107.01
461.537	158.55
461.747	138.4
461.957	118.64
462.167	222.29
462.377	168.24
462.587	140.73
462.797	165.33
463.007	124.06
463.216	156.42
463.426	179.09
463.636	146.54
463.846	120.58
464.056	158.16
464.265	163.78
464.475	102.75
464.685	155.45
464.895	172.5
465.104	165.52
465.314	198.46
465.524	119.03
465.733	116.7
465.943	225.78
466.153	216.48
466.362	183.54
466.572	147.89
466.782	133.36
466.991	147.12
467.201	212.99
467.41	117.28
467.62	151.77
467.829	134.14
468.039	151.96
468.249	141.31
468.458	143.05
468.668	179.28
468.877	179.47
469.086	235.47
469.296	183.16
469.505	141.11
469.715	197.11
469.924	164.56
470.134	196.72
470.343	180.06
470.552	158.16
470.762	155.06
470.971	138.79
471.18	181.99
471.39	174.05
471.599	117.67
471.808	211.44
472.018	133.75
472.227	197.11
472.436	202.72
472.645	156.22
472.855	117.28
473.064	203.31
473.273	150.41
473.482	186.84
473.691	204.27
473.901	200.21
474.11	186.64
474.319	280.03
474.528	160.29
474.737	236.82
474.946	183.54
475.155	197.69
475.364	224.81
475.573	217.45
475.783	200.79
475.992	207.18
476.201	218.61
476.41	163.01
476.619	163.39
476.828	192.84
477.037	192.65
477.245	199.82
477.454	223.46
477.663	186.45
477.872	169.59
478.081	238.37
478.29	156.61
478.499	294.95
478.708	203.11
478.917	259.3
479.125	231.21
479.334	211.64
479.543	179.28
479.752	219.77
479.961	229.27
480.169	236.44
480.378	217.64
480.587	306.96
480.796	223.46
481.004	213.19
481.213	247.87
481.422	198.07
481.63	205.82
481.839	253.68
482.048	273.83
482.256	208.34
482.465	240.89
482.674	270.15
482.882	242.05
483.091	305.02
483.299	230.43
483.508	247.09
483.716	219
483.925	230.82
484.134	199.24
484.342	224.42
484.551	254.26
484.759	267.05
484.967	268.99
485.176	258.14
485.384	258.91
485.593	281
485.801	273.64
486.01	255.42
486.218	260.27
486.426	195.94
486.635	246.12
486.843	240.31
487.051	229.27
487.26	209.31
487.468	264.14
487.676	289.52
487.885	223.65
488.093	219.58
488.301	249.42
488.509	253.29
488.717	271.7
488.926	234.3
489.134	237.99
489.342	288.55
489.55	241.28
489.758	279.64
489.967	249.03
490.175	341.25
490.383	269.95
490.591	301.73
490.799	236.05
491.007	297.27
491.215	286.23
491.423	275.57
491.631	264.14
491.839	261.82
492.047	308.51
492.255	243.02
492.463	231.21
492.671	272.28
492.879	310.84
493.087	275.96
493.295	307.35
493.503	323.43
493.711	271.31
493.919	310.45
494.127	323.04
494.334	345.71
494.542	279.25
494.75	280.8
494.958	292.04
495.166	343.58
495.374	298.82
495.581	309.29
495.789	300.57
495.997	338.93
496.205	299.21
496.412	295.14
496.62	313.74
496.828	316.26
497.035	296.3
497.243	324.01
497.451	297.08
497.658	327.88
497.866	293.01
498.074	367.8
498.281	284.29
498.489	354.04
498.696	302.5
498.904	283.9
499.112	317.42
499.319	371.09
499.527	304.25
499.734	321.88
499.942	282.16
500.149	291.46
500.357	331.95
500.564	276.35
500.771	329.24
500.979	294.37
501.186	283.52
501.394	319.17
501.601	343.97
501.808	359.27
502.016	337.96
502.223	339.51
502.43	343.58
502.638	348.81
502.845	283.32
503.052	375.16
503.26	305.8
503.467	384.65
503.674	334.86
503.881	336.99
504.089	387.17
504.296	361.21
504.503	332.15
504.71	347.84
504.917	288.55
505.125	340.09
505.332	341.45
505.539	338.93
505.746	405
505.953	364.5
506.16	363.73
506.367	411.2
506.574	425.15
506.781	399.96
506.988	297.27
507.195	355.2
507.402	390.85
507.609	380.97
507.816	356.75
508.023	347.26
508.23	332.73
508.437	327.88
508.644	403.83
508.851	434.64
509.058	410.03
509.265	379.42
509.472	406.55
509.679	462.73
509.885	364.31
510.092	369.54
510.299	373.22
510.506	364.7
510.713	394.73
510.92	383.88
511.126	409.26
511.333	438.32
511.54	407.9
511.746	450.33
511.953	432.12
512.16	431.15
512.367	382.33
512.573	394.15
512.78	391.82
512.987	413.91
513.193	409.45
513.4	377.29
513.606	362.57
513.813	428.44
514.02	413.91
514.226	498.96
514.433	451.69
514.639	405.77
514.846	426.5
515.052	367.6
515.259	409.45
515.465	418.95
515.672	420.69
515.878	507.68
516.085	403.25
516.291	458.28
516.497	434.64
516.704	417.98
516.91	389.88
517.117	383.88
517.323	350.75
517.529	405
517.736	425.53
517.942	406.16
518.148	403.83
518.354	451.69
518.561	441.81
518.767	440.45
518.973	483.46
519.179	462.93
519.386	417.59
519.592	450.53
519.798	437.93
520.004	472.81
520.21	436.58
520.417	488.31
520.623	497.99
520.829	500.51
521.035	499.16
521.241	500.13
521.447	497.22
521.653	590.02
521.859	496.44
522.065	472.61
522.271	566.19
522.477	544.69
522.683	552.44
522.889	538.29
523.095	531.51
523.301	505.36
523.507	507.88
523.713	516.21
523.919	494.7
524.125	549.73
524.331	522.02
524.537	596.42
524.742	555.93
524.948	569.1
525.154	585.37
525.36	678.76
525.566	585.37
525.772	598.74
525.977	515.04
526.183	608.82
526.389	615.02
526.595	588.67
526.8	579.37
527.006	545.27
527.212	547.01
527.417	519.89
527.623	528.41
527.829	596.03
528.034	592.93
528.24	596.42
528.446	559.22
528.651	646.99
528.857	633.42
529.062	663.07
529.268	606.3
529.473	617.73
529.679	595.26
529.884	684.19
530.09	663.26
530.295	698.33
530.501	649.51
530.706	647.96
530.912	617.92
531.117	640.4
531.323	616.37
531.528	679.54
531.733	680.5
531.939	653.77
532.144	687.09
532.35	652.99
532.555	695.23
532.76	673.92
532.966	673.34
533.171	682.44
533.376	644.86
533.581	635.75
533.787	644.66
533.992	693.68
534.197	710.92
534.402	675.27
534.607	660.36
534.813	791.13
535.018	671.98
535.223	657.64
535.428	689.03
535.633	746.77
535.838	732.04
536.043	708.21
536.249	761.88
536.454	703.37
536.659	728.55
536.864	697.36
537.069	708.99
537.274	733.01
537.479	701.04
537.684	741.92
537.889	696.2
538.094	781.06
538.299	711.12
538.504	747.74
538.708	745.02
538.913	743.09
539.118	720.22
539.323	726.81
539.528	714.6
539.733	713.64
539.938	730.1
540.142	760.91
540.347	747.74
540.552	723.13
540.757	718.29
540.962	722.55
541.166	672.75
541.371	686.7
541.576	721.97
541.781	645.63
541.985	729.33
542.19	745.02
542.395	776.41
542.599	804.89
542.804	767.3
543.008	788.03
543.213	724.87
543.418	697.55
543.622	761.3
543.827	715.96
544.031	801.79
544.236	781.83
544.44	758.78
544.645	799.08
544.849	757.04
545.054	790.36
545.258	824.46
545.463	817.1
545.667	728.75
545.872	790.94
546.076	753.74
546.281	780.67
546.485	761.3
546.689	773.5
546.894	792.1
547.098	793.85
547.302	721.97
547.507	785.71
547.711	755.68
547.915	813.61
548.119	748.12
548.324	777.96
548.528	825.23
548.732	795.78
548.936	816.52
549.141	852.75
549.345	746.57
549.549	801.79
549.753	802.57
549.957	875.22
550.161	841.9
550.366	802.95
550.57	758.39
550.774	793.85
550.978	784.74
551.182	799.27
551.386	778.54
551.59	791.91
551.794	790.36
551.998	841.7
552.202	798.3
552.406	743.67
552.61	785.32
552.814	795.2
553.018	845
553.222	804.7
553.426	782.03
553.63	888.4
553.833	775.63
554.037	759.36
554.241	845.96
554.445	787.65
554.649	781.25
554.853	781.83
555.056	817.68
555.26	836.08
555.464	829.5
555.668	790.55
555.871	847.13
556.075	842.48
556.279	788.81
556.483	758.58
556.686	783.58
556.89	826.59
557.094	809.54
557.297	730.3
557.501	834.73
557.704	718.29
557.908	840.35
558.112	791.13
558.315	815.55
558.519	785.13
558.722	796.37
558.926	798.88
559.129	754.52
559.333	711.12
559.536	728.55
559.74	707.24
559.943	743.86
560.147	729.14
560.35	757.62
560.553	742.89
560.757	690.97
560.96	791.72
561.164	725.65
561.367	795.59
561.57	739.79
561.774	742.5
561.977	762.07
562.18	742.89
562.384	788.81
562.587	745.99
562.79	717.9
562.993	720.42
563.197	760.33
563.4	767.11
563.603	784.93
563.806	823.3
564.009	702.59
564.212	780.28
564.416	675.47
564.619	759.94
564.822	701.24
565.025	776.22
565.228	709.57
565.431	727.2
565.634	665.78
565.837	682.25
566.04	687.29
566.243	692.52
566.446	649.51
566.649	744.25
566.852	631.29
567.055	639.82
567.258	703.75
567.461	741.34
567.664	741.92
567.867	631.49
568.07	700.27
568.273	690.97
568.475	749.87
568.678	686.51
568.881	672.75
569.084	686.12
569.287	604.75
569.489	624.9
569.692	687.29
569.895	686.12
570.098	621.8
570.3	604.17
570.503	555.54
570.706	590.8
570.909	603.01
571.111	584.6
571.314	566
571.516	583.82
571.719	616.57
571.922	595.45
572.124	603.39
572.327	606.88
572.529	540.04
572.732	529.38
572.935	596.42
573.137	639.43
573.34	582.28
573.542	609.21
573.745	631.1
573.947	638.27
574.15	598.55
574.352	568.33
574.554	611.72
574.757	545.66
574.959	575.69
575.162	547.4
575.364	537.71
575.566	634.2
575.769	564.84
575.971	552.63
576.173	491.8
576.376	546.63
576.578	557.28
576.78	619.47
576.982	498.96
577.185	536.55
577.387	512.91
577.589	512.33
577.791	562.71
577.993	558.64
578.196	543.72
578.398	565.81
578.6	589.83
578.802	494.7
579.004	526.28
579.206	513.49
579.408	544.69
579.61	531.9
579.812	572.39
580.014	544.69
580.216	512.14
580.418	502.64
580.62	497.61
580.822	470.29
581.024	517.95
581.226	572.78
581.428	513.69
581.63	570.07
581.832	475.33
582.034	574.33
582.236	536.36
582.438	532.68
582.64	569.88
582.841	581.5
583.043	592.54
583.245	554.57
583.447	545.08
583.649	517.56
583.85	526.09
584.052	560.77
584.254	485.4
584.456	580.34
584.657	464.09
584.859	513.69
585.061	522.02
585.262	496.25
585.464	506.52
585.666	541.59
585.867	481.91
586.069	524.73
586.27	535.58
586.472	502.64
586.674	513.69
586.875	503.23
587.077	507.68
587.278	513.49
587.48	518.14
587.681	596.03
587.883	517.95
588.084	454.6
588.285	477.85
588.487	506.52
588.688	520.66
588.89	474.94
589.091	457.7
589.292	460.99
589.494	456.15
589.695	445.49
589.896	399.96
590.098	403.06
590.299	466.41
590.5	421.46
590.702	401.9
590.903	458.47
591.104	487.53
591.305	482.11
591.507	495.09
591.708	525.12
591.909	451.88
592.11	547.79
592.311	483.27
592.512	454.01
592.714	419.53
592.915	431.35
593.116	443.75
593.317	447.62
593.518	436.96
593.719	474.16
593.92	464.28
594.121	493.35
594.322	465.83
594.523	458.66
594.724	423.79
594.925	451.5
595.126	480.36
595.327	458.86
595.528	475.52
595.729	450.53
595.929	464.67
596.13	448.59
596.331	451.69
596.532	461.38
596.733	516.4
596.934	456.15
597.135	495.48
597.335	469.13
597.536	442.97
597.737	467.77
597.938	447.62
598.138	452.27
598.339	455.56
598.54	484.05
598.74	459.25
598.941	449.17
599.142	482.88
599.342	517.18
599.543	433.48
599.744	439.1
599.944	472.23
600.145	449.36
600.345	459.44
600.546	543.33
600.746	467.19
600.947	511.56
601.147	489.28
601.348	491.41
601.548	443.16
601.749	444.71
601.949	446.65
602.15	473.97
602.35	475.13
602.551	495.09
602.751	410.42
602.951	400.93
603.152	393.57
603.352	472.81
603.552	441.61
603.753	493.35
603.953	466.22
604.153	473.78
604.354	450.53
604.554	476.49
604.754	456.15
604.954	406.55
605.155	437.74
605.355	436.38
605.555	486.76
605.755	506.13
605.955	451.88
606.155	449.75
606.356	422.43
606.556	462.73
606.756	468.16
606.956	367.22
607.156	484.63
607.356	398.41
607.556	431.15
607.756	438.9
607.956	472.23
608.156	456.15
608.356	447.04
608.556	485.01
608.756	437.55
608.956	436
609.156	484.05
609.356	420.11
609.556	420.69
609.755	458.28
609.955	405.19
610.155	449.56
610.355	421.85
610.555	423.21
610.755	425.73
610.954	378.07
611.154	436
611.354	480.56
611.554	396.08
611.753	395.12
611.953	396.28
612.153	442.78
612.352	423.21
612.552	374.77
612.752	374.97
612.951	419.91
613.151	396.67
613.351	382.91
613.55	396.47
613.75	425.73
613.949	425.53
614.149	444.52
614.348	403.45
614.548	366.25
614.747	354.43
614.947	380.2
615.146	317.42
615.346	416.43
615.545	400.93
615.745	390.66
615.944	412.75
616.144	402.28
616.343	443.36
616.542	405.77
616.742	391.05
616.941	398.8
617.14	330.4
617.34	395.31
617.539	370.51
617.738	395.31
617.938	459.25
618.137	390.47
618.336	325.75
618.535	374.97
618.734	351.52
618.934	383.88
619.133	396.86
619.332	401.7
619.531	361.79
619.73	347.84
619.929	408.87
620.128	420.3
620.328	438.71
620.527	360.43
620.726	385.43
620.925	386.59
621.124	371.09
621.323	376.13
621.522	322.07
621.721	354.82
621.92	339.32
622.119	396.08
622.318	339.7
622.517	341.45
622.715	370.12
622.914	313.94
623.113	340.67
623.312	313.74
623.511	378.65
623.71	342.22
623.909	334.67
624.107	410.03
624.306	306.57
624.505	343.97
624.704	344.93
624.902	341.25
625.101	374.19
625.3	376.71
625.499	318.97
625.697	325.75
625.896	318.59
626.095	353.27
626.293	291.27
626.492	337.77
626.69	374.58
626.889	317.81
627.088	368.38
627.286	297.27
627.485	321.88
627.683	296.11
627.882	343.58
628.08	266.47
628.279	341.64
628.477	379.23
628.676	334.28
628.874	347.84
629.073	331.57
629.271	279.45
629.469	350.94
629.668	331.18
629.866	325.95
630.065	314.9
630.263	329.63
630.461	300.76
630.66	341.64
630.858	337.18
631.056	390.47
631.254	365.47
631.453	309.09
631.651	367.8
631.849	337.96
632.047	365.08
632.245	320.14
632.444	330.02
632.642	346.48
632.84	335.83
633.038	338.93
633.236	299.4
633.434	317.62
633.632	285.65
633.83	300.57
634.028	362.57
634.227	345.52
634.425	373.8
634.623	349
634.821	349.39
635.019	310.25
635.216	312.39
635.414	363.15
635.612	337.18
635.81	336.02
636.008	387.56
636.206	318.39
636.404	343
636.602	314.13
636.8	353.07
636.997	342.42
637.195	352.68
637.393	323.04
637.591	381.75
637.789	321.1
637.986	289.91
638.184	331.18
638.382	357.14
638.58	365.47
638.777	373.42
638.975	334.28
639.173	334.67
639.37	335.44
639.568	343.38
639.765	348.42
639.963	329.43
640.161	374.19
640.358	332.34
640.556	307.35
640.753	276.54
640.951	300.76
641.148	357.72
641.346	322.85
641.543	313.94
641.741	375.55
641.938	290.3
642.136	305.8
642.333	293.79
642.531	334.08
642.728	373.03
642.925	335.44
643.123	296.69
643.32	311.8
643.517	317.04
643.715	315.68
643.912	265.5
644.109	330.21
644.306	301.92
644.504	267.82
644.701	317.81
644.898	330.79
645.095	304.83
645.293	306.19
645.49	367.22
645.687	317.42
645.884	329.63
646.081	249.8
646.278	273.05
646.475	271.5
646.672	292.04
646.87	338.15
647.067	312.39
647.264	299.21
647.461	274.8
647.658	244.38
647.855	316.65
648.052	266.08
648.249	233.34
648.446	292.04
648.642	272.47
648.839	243.99
649.036	267.63
649.233	232.56
649.43	216.29
649.627	234.69
649.824	274.6
650.021	272.47
650.217	234.5
650.414	267.24
650.611	279.45
650.808	280.03
651.004	265.3
651.201	288.17
651.398	301.54
651.595	279.06
651.791	264.72
651.988	316.65
652.185	256
652.381	286.81
652.578	234.11
652.775	250.77
652.971	239.54
653.168	282.16
653.364	271.5
653.561	188.58
653.757	248.06
653.954	252.9
654.15	208.54
654.347	319.94
654.543	263.17
654.74	249.8
654.936	220.74
655.133	253.87
655.329	246.32
655.525	241.47
655.722	286.42
655.918	210.47
656.115	312.77
656.311	206.79
656.507	195.75
656.704	204.86
656.9	207.57
657.096	237.21
657.292	214.54
657.489	263.75
657.685	245.35
657.881	203.11
658.077	228.49
658.273	218.42
658.47	293.4
658.666	236.82
658.862	262.01
659.058	227.14
659.254	291.27
659.45	208.34
659.646	255.23
659.842	268.6
660.038	271.5
660.234	211.25
660.43	242.44
660.626	280.22
660.822	257.55
661.018	267.82
661.214	232.37
661.41	213.77
661.606	261.04
661.802	274.22
661.998	214.54
662.194	200.79
662.39	251.74
662.586	246.9
662.781	269.18
662.977	263.95
663.173	258.14
663.369	223.07
663.564	241.86
663.76	256.59
663.956	214.35
664.152	268.6
664.347	182.38
664.543	228.3
664.739	208.92
664.934	164.36
665.13	177.92
665.326	258.52
665.521	233.34
665.717	199.04
665.912	187.22
666.108	166.88
666.304	207.18
666.499	240.7
666.695	152.16
666.89	203.11
667.086	259.69
667.281	215.9
667.477	261.82
667.672	230.04
667.867	225.01
668.063	246.7
668.258	182.96
668.454	229.27
668.649	279.06
668.844	238.95
669.04	233.53
669.235	210.86
669.43	206.02
669.626	192.84
669.821	216.09
670.016	178.31
670.211	220.74
670.407	199.62
670.602	194.39
670.797	223.84
670.992	232.76
671.187	210.09
671.382	245.15
671.578	198.07
671.773	233.72
671.968	198.85
672.163	229.46
672.358	252.13
672.553	205.05
672.748	199.04
672.943	287.59
673.138	205.82
673.333	243.6
673.528	195.17
673.723	212.61
673.918	197.11
674.113	173.27
674.308	293.01
674.503	213.38
674.698	241.47
674.892	220.16
675.087	237.79
675.282	239.15
675.477	200.4
675.672	224.23
675.867	190.32
676.061	190.52
676.256	142.28
676.451	176.57
676.646	244.96
676.84	174.24
677.035	170.17
677.23	185.67
677.424	236.63
677.619	224.23
677.814	228.3
678.008	246.12
678.203	147.89
678.397	152.74
678.592	237.99
678.787	258.33
678.981	184.71
679.176	195.17
679.37	220.74
679.565	184.71
679.759	195.56
679.954	195.56
680.148	238.57
680.342	249.61
680.537	228.3
680.731	195.75
680.926	235.66
681.12	227.52
681.314	194.97
681.509	188.97
681.703	192.07
681.897	220.55
682.092	194.39
682.286	186.45
682.48	267.63
682.674	238.57
682.869	187.81
683.063	195.17
683.257	265.11
683.451	204.66
683.645	233.14
683.839	206.41
684.034	190.91
684.228	255.62
684.422	167.27
684.616	161.26
684.81	200.4
685.004	213.96
685.198	219.58
685.392	243.99
685.586	171.53
685.78	201.95
685.974	215.51
686.168	237.02
686.362	303.67
686.556	193.04
686.75	173.66
686.944	192.46
687.138	257.36
687.331	159.91
687.525	200.4
687.719	134.53
687.913	203.69
688.107	189.16
688.301	185.29
688.494	217.64
688.688	161.46
688.882	175.6
689.076	162.42
689.269	189.94
689.463	241.47
689.657	191.1
689.85	170.17
690.044	189.16
690.238	194.2
690.431	172.69
690.625	188
690.818	209.12
691.012	215.9
691.205	223.07
691.399	197.11
691.593	217.84
691.786	263.56
691.98	243.22
692.173	259.49
692.366	230.82
692.56	240.89
692.753	287.39
692.947	196.91
693.14	303.67
693.333	279.45
693.527	206.99
693.72	240.5
693.914	230.43
694.107	222.68
694.3	254.84
694.493	236.24
694.687	284.49
694.88	216.09
695.073	304.25
695.266	260.85
695.46	267.44
695.653	309.09
695.846	340.09
696.039	256.2
696.232	273.44
696.425	330.6
696.618	293.79
696.812	295.14
697.005	327.3
697.198	399.18
697.391	330.02
697.584	338.35
697.777	379.23
697.97	372.64
698.163	359.27
698.356	322.85
698.549	428.05
698.742	389.69
698.935	360.05
699.127	364.12
699.32	353.85
699.513	347.45
699.706	392.21
699.899	405.38
700.092	370.51
700.285	402.87
700.477	366.05
700.67	412.36
700.863	430.38
701.056	478.81
701.248	468.55
701.441	468.35
701.634	446.65
701.826	522.79
702.019	407.32
702.212	451.69
702.404	446.26
702.597	425.53
702.79	436.19
702.982	492.96
703.175	502.06
703.367	498.96
703.56	518.92
703.752	584.41
703.945	548.37
704.137	586.92
704.33	536.74
704.522	574.33
704.715	543.72
704.907	602.81
705.1	603.59
705.292	631.1
705.484	613.66
705.677	641.17
705.869	632.26
706.061	619.86
706.254	702.98
706.446	642.34
706.638	640.98
706.831	710.15
707.023	641.56
707.215	728.94
707.407	713.44
707.599	723.71
707.792	757.81
707.984	714.22
708.176	763.04
708.368	733.2
708.56	722.16
708.752	774.86
708.944	745.6
709.136	803.73
709.329	766.92
709.521	868.83
709.713	870.96
709.905	842.67
710.097	859.33
710.289	822.13
710.481	820.78
710.672	885.68
710.864	851
711.056	896.73
711.248	916.68
711.44	902.73
711.632	928.89
711.824	967.06
712.016	1018.01
712.207	1005.42
712.399	951.75
712.591	1031.57
712.783	987.4
712.975	1025.76
713.166	981.01
713.358	999.8
713.55	1080.4
713.741	1082.14
713.933	1076.52
714.125	1069.94
714.316	1046.3
714.508	1130.58
714.7	1111.79
714.891	1108.88
715.083	1147.82
715.274	1115.08
715.466	1129.8
715.657	1156.74
715.849	1076.33
716.04	1146.08
716.232	1100.16
716.423	1189.29
716.615	1086.21
716.806	1091.44
716.998	1071.1
717.189	1038.74
717.381	1008.33
717.572	967.44
717.763	1039.13
717.955	1022.08
718.146	998.06
718.337	964.34
718.528	961.44
718.72	890.53
718.911	971.32
719.102	925.79
719.293	1007.94
719.485	966.09
719.676	982.56
719.867	920.56
720.058	955.04
720.249	993.02
720.44	989.14
720.632	1041.65
720.823	1045.14
721.014	1146.66
721.205	1153.44
721.396	1190.45
721.587	1250.9
721.778	1273.76
721.969	1282.86
722.16	1348.93
722.351	1318.9
722.542	1430.5
722.733	1464.41
722.924	1372.57
723.115	1426.63
723.305	1428.95
723.496	1430.89
723.687	1346.61
723.878	1395.43
724.069	1379.93
724.26	1397.37
724.45	1327.81
724.641	1347.58
724.832	1346.22
725.023	1384.19
725.213	1374.89
725.404	1366.76
725.595	1354.55
725.785	1368.11
725.976	1433.02
726.167	1403.18
726.357	1409.19
726.548	1508.97
726.739	1448.33
726.929	1516.91
727.12	1504.32
727.31	1542.1
727.501	1529.89
727.691	1539.97
727.882	1533.77
728.072	1571.74
728.263	1557.4
728.453	1612.62
728.644	1612.82
728.834	1588.79
729.024	1565.35
729.215	1588.4
729.405	1642.27
729.596	1667.65
729.786	1708.53
729.976	1746.5
730.167	1722.28
730.357	1700.39
730.547	1722.28
730.737	1754.45
730.928	1795.33
731.118	1815.67
731.308	1771.88
731.498	1765.3
731.688	1892.98
731.879	1853.64
732.069	1925.52
732.259	1944.71
732.449	1912.54
732.639	2035.96
732.829	2064.83
733.019	2069.87
733.209	2130.32
733.399	2143.88
733.589	2195.8
733.779	2215.95
733.969	2195.03
734.159	2272.14
734.349	2304.3
734.539	2352.35
734.729	2375.02
734.919	2388.77
735.109	2408.54
735.299	2353.51
735.488	2378.7
735.678	2388.97
735.868	2423.84
736.058	2441.86
736.248	2398.66
736.437	2352.93
736.627	2381.41
736.817	2500.37
737.007	2442.64
737.196	2518.58
737.386	2497.08
737.576	2497.27
737.765	2520.91
737.955	2519.75
738.144	2622.82
738.334	2603.83
738.524	2512.77
738.713	2592.98
738.903	2586.59
739.092	2635.61
739.282	2631.73
739.471	2661.38
739.661	2615.46
739.85	2688.5
740.04	2658.66
740.229	2714.27
740.419	2758.06
740.608	2773.94
740.797	2726.67
740.987	2839.62
741.176	2767.55
741.365	2777.43
741.555	2723.76
741.744	2842.14
741.933	2801.46
742.123	2840.01
742.312	2836.72
742.501	2845.24
742.69	2913.83
742.88	2806.49
743.069	2957.03
743.258	2897.55
743.447	2955.68
743.636	2919.64
743.825	2889.03
744.014	2941.54
744.204	2957.23
744.393	2918.09
744.582	2994.23
744.771	3034.92
744.96	2965.37
745.149	2977.18
745.338	2903.56
745.527	2999.85
745.716	3016.9
745.905	2971.37
746.094	2986.29
746.283	3033.95
746.471	3001.4
746.66	3083.94
746.849	3100.02
747.038	3090.14
747.227	3029.5
747.416	3104.09
747.604	3059.91
747.793	3048.87
747.982	3049.84
748.171	3070.57
748.359	3080.45
748.548	3109.13
748.737	3081.23
748.926	3090.33
749.114	2994.82
749.303	3058.75
749.491	3097.11
749.68	3006.05
749.869	3097.31
750.057	3083.55
750.246	3013.42
750.434	3065.34
750.623	3079.87
750.811	3088.2
751	3104.28
751.188	3066.89
751.377	3054.68
751.565	3057.4
751.754	2994.82
751.942	2998.3
752.131	3100.6
752.319	3043.45
752.507	3007.02
752.696	3073.09
752.884	3124.04
753.072	3042.67
753.261	3044.41
753.449	3060.3
753.637	3049.26
753.825	3102.54
754.014	3045
754.202	3089.75
754.39	3097.11
754.578	3069.8
754.766	3027.95
754.955	3010.7
755.143	3082.58
755.331	3028.72
755.519	3070.18
755.707	3058.75
755.895	3055.26
756.083	3015.16
756.271	2992.68
756.459	3035.7
756.647	3100.41
756.835	3002.95
757.023	3011.48
757.211	2997.92
757.399	3057.2
757.587	3025.62
757.775	2975.83
757.963	3005.67
758.151	2974.47
758.339	2952.38
758.526	2951.8
758.714	2953.74
758.902	2870.62
759.09	2770.84
759.278	2554.62
759.465	2373.66
759.653	2061.15
759.841	1837.18
760.028	1617.47
760.216	1414.23
760.404	1328.4
760.591	1062.96
760.779	896.92
760.967	821.17
761.154	635.94
761.342	676.63
761.529	710.54
761.717	743.67
761.905	722.16
762.092	797.33
762.28	724.49
762.467	719.64
762.655	660.94
762.842	667.72
763.029	690.39
763.217	706.66
763.404	705.5
763.592	721.58
763.779	692.9
763.966	734.37
764.154	740.18
764.341	827.75
764.528	828.33
764.716	825.62
764.903	941.87
765.09	989.14
765.277	1044.56
765.465	1149.76
765.652	1228.42
765.839	1313.86
766.026	1441.16
766.213	1454.53
766.4	1536.48
766.588	1722.09
766.775	1740.11
766.962	1831.36
767.149	1894.14
767.336	2034.99
767.523	1985.2
767.71	2148.72
767.897	2216.92
768.084	2288.99
768.271	2321.74
768.458	2371.72
768.645	2413.38
768.832	2416.87
769.019	2459.88
769.206	2490.69
769.392	2547.26
769.579	2645.1
769.766	2659.05
769.953	2586.01
770.14	2631.35
770.327	2611.39
770.513	2684.63
770.7	2739.07
770.887	2677.46
771.073	2721.24
771.26	2706.52
771.447	2680.17
771.634	2686.76
771.82	2780.14
772.007	2669.51
772.193	2702.26
772.38	2760.96
772.567	2693.54
772.753	2711.17
772.94	2741.59
773.126	2773.75
773.313	2760.96
773.499	2709.43
773.686	2759.61
773.872	2668.74
774.059	2743.33
774.245	2690.44
774.432	2717.76
774.618	2624.56
774.804	2705.36
774.991	2620.69
775.177	2710.2
775.363	2672.42
775.55	2698.38
775.736	2621.66
775.922	2677.46
776.109	2689.66
776.295	2696.06
776.481	2666.41
776.667	2677.46
776.853	2655.76
777.04	2642.58
777.226	2625.92
777.412	2716.01
777.598	2613.91
777.784	2650.14
777.97	2634.83
778.156	2670.68
778.342	2647.81
778.528	2622.63
778.715	2554.43
778.901	2604.8
779.087	2634.64
779.272	2544.93
779.458	2574.38
779.644	2611
779.83	2547.45
780.016	2662.35
780.202	2582.33
780.388	2564.7
780.574	2481.97
780.76	2533.89
780.946	2570.51
781.131	2554.04
781.317	2543.77
781.503	2501.73
781.689	2548.03
781.874	2604.41
782.06	2528.85
782.246	2512.97
782.432	2501.54
782.617	2540.87
782.803	2570.12
782.989	2475.57
783.174	2466.27
783.36	2459.49
783.545	2455.62
783.731	2460.46
783.916	2400.59
784.102	2460.07
784.288	2393.04
784.473	2468.79
784.659	2399.43
784.844	2455.04
785.029	2393.04
785.215	2448.45
785.4	2349.06
785.586	2446.32
785.771	2348.28
785.956	2409.12
786.142	2398.46
786.327	2378.12
786.512	2408.34
786.698	2360.49
786.883	2295.19
787.068	2353.12
787.254	2359.13
787.439	2338.21
787.624	2303.33
787.809	2256.25
787.994	2278.73
788.18	2366.11
788.365	2275.63
788.55	2267.88
788.735	2307.59
788.92	2265.16
789.105	2278.92
789.29	2304.49
789.475	2237.46
789.66	2229.32
789.845	2219.63
790.03	2155.5
790.215	2233.58
790.4	2255.86
790.585	2270.59
790.77	2207.43
790.955	2131.87
791.14	2167.71
791.325	2238.23
791.51	2116.37
791.695	2195.22
791.879	2178.95
792.064	2146.78
792.249	2208.2
792.434	2163.25
792.618	2191.54
792.803	2262.45
792.988	2188.05
793.173	2158.8
793.357	2234.55
793.542	2179.72
793.727	2179.91
793.911	2227.19
794.096	2161.9
794.281	2207.81
794.465	2259.93
794.65	2186.11
794.834	2261.48
795.019	2256.64
795.203	2253.73
795.388	2242.11
795.572	2272.14
795.757	2265.94
795.941	2220.21
796.126	2232.42
796.31	2205.3
796.494	2180.88
796.679	2151.43
796.863	2178.75
797.048	2252.76
797.232	2224.28
797.416	2190.38
797.601	2214.21
797.785	2287.83
797.969	2291.51
798.153	2215.56
798.338	2260.51
798.522	2259.16
798.706	2285.89
798.89	2284.73
799.074	2362.23
799.258	2300.62
799.443	2269.43
799.627	2269.43
799.811	2327.74
799.995	2237.85
800.179	2200.65
800.363	2205.3
800.547	2223.9
800.731	2283.76
800.915	2149.5
801.099	2173.13
801.283	2232.61
801.467	2231.45
801.651	2211.11
801.835	2278.73
802.019	2239.98
802.202	2258.77
802.386	2185.53
802.57	2170.03
802.754	2191.35
802.938	2179.33
803.121	2210.53
803.305	2240.36
803.489	2214.98
803.673	2257.61
803.856	2280.28
804.04	2213.05
804.224	2229.71
804.407	2204.33
804.591	2183.4
804.775	2199.1
804.958	2240.36
805.142	2320.96
805.326	2220.6
805.509	2250.63
805.693	2268.65
805.876	2281.05
806.06	2250.44
806.243	2235.33
806.427	2288.61
806.61	2285.12
806.794	2269.04
806.977	2292.68
807.16	2261.48
807.344	2281.24
807.527	2250.83
807.71	2219.25
807.894	2255.09
808.077	2243.08
808.26	2179.91
808.444	2181.46
808.627	2265.36
808.81	2217.5
808.993	2165.19
809.177	2107.84
809.36	2163.83
809.543	2207.23
809.726	2076.07
809.909	2100.48
810.092	2099.9
810.276	2057.85
810.459	2120.05
810.642	2097.96
810.825	2043.52
811.008	2052.24
811.191	2011.35
811.374	2010
811.557	2001.67
811.74	2086.14
811.923	1982.1
812.106	1946.26
812.289	1896.85
812.472	1923.39
812.654	1935.6
812.837	1904.41
813.02	1866.82
813.203	1880.58
813.386	1762.39
813.569	1741.08
813.751	1682.76
813.934	1720.15
814.117	1676.56
814.3	1654.86
814.482	1642.27
814.665	1573.49
814.848	1573.1
815.03	1534.74
815.213	1500.83
815.396	1498.12
815.578	1475.26
815.761	1429.73
815.943	1530.09
816.126	1435.93
816.309	1403.57
816.491	1371.02
816.674	1290.03
816.856	1376.06
817.039	1337.11
817.221	1409.19
817.403	1362.11
817.586	1364.05
817.768	1422.94
817.951	1325.1
818.133	1283.06
818.315	1351.45
818.498	1373.15
818.68	1427.01
818.862	1391.75
819.045	1451.62
819.227	1433.02
819.409	1389.23
819.591	1408.99
819.774	1398.53
819.956	1352.81
820.138	1435.34
820.32	1427.98
820.502	1451.62
820.684	1539.97
820.866	1552.17
821.048	1585.3
821.231	1577.55
821.413	1576.2
821.595	1565.54
821.777	1579.88
821.959	1581.43
822.141	1616.89
822.323	1493.47
822.505	1437.48
822.686	1401.24
822.868	1341.38
823.05	1212.15
823.232	1249.35
823.414	1182.7
823.596	1275.89
823.778	1213.12
823.96	1254.58
824.141	1242.95
824.323	1288.68
824.505	1339.44
824.687	1380.13
824.868	1443.87
825.05	1540.16
825.232	1534.74
825.413	1567.67
825.595	1567.67
825.777	1473.51
825.958	1544.62
826.14	1531.06
826.321	1575.81
826.503	1550.43
826.685	1534.54
826.866	1581.43
827.048	1534.54
827.229	1470.02
827.411	1471.38
827.592	1421.78
827.773	1434.18
827.955	1401.24
828.136	1395.63
828.318	1387.1
828.499	1395.24
828.68	1357.65
828.862	1393.88
829.043	1399.89
829.224	1399.5
829.406	1360.56
829.587	1353.78
829.768	1355.71
829.949	1393.88
830.131	1405.51
830.312	1436.7
830.493	1402.6
830.674	1396.79
830.855	1372.96
831.036	1355.33
831.218	1455.88
831.399	1448.71
831.58	1396.4
831.761	1410.93
831.942	1409.58
832.123	1398.14
832.304	1315.61
832.485	1397.76
832.666	1363.85
832.847	1400.86
833.028	1407.64
833.209	1419.65
833.389	1381.68
833.57	1317.35
833.751	1368.5
833.932	1443.68
834.113	1373.34
834.294	1370.05
834.475	1427.59
834.655	1434.96
834.836	1439.22
835.017	1436.31
835.198	1337.7
835.378	1419.84
835.559	1447.16
835.74	1375.09
835.92	1442.51
836.101	1420.23
836.281	1441.74
836.462	1457.82
836.643	1450.84
836.823	1501.02
837.004	1429.53
837.184	1501.41
837.365	1459.76
837.545	1483.2
837.726	1427.01
837.906	1497.54
838.087	1450.46
838.267	1413.06
838.448	1408.61
838.628	1473.12
838.808	1427.21
838.989	1515.17
839.169	1400.28
839.349	1493.66
839.53	1472.74
839.71	1538.03
839.89	1430.31
840.07	1534.93
840.251	1447.16
840.431	1493.86
840.611	1439.41
840.791	1420.81
840.971	1427.01
841.151	1439.99
841.332	1402.79
841.512	1464.41
841.692	1384.78
841.872	1467.51
842.052	1491.92
842.232	1451.04
842.412	1372.96
842.592	1433.79
842.772	1495.41
842.952	1454.91
843.132	1420.81
843.312	1429.53
843.492	1396.59
843.672	1448.13
843.851	1364.43
844.031	1413.26
844.211	1396.59
844.391	1404.54
844.571	1411.71
844.751	1375.86
844.93	1376.83
845.11	1407.06
845.29	1408.22
845.47	1451.62
845.649	1415.97
845.829	1459.17
846.009	1402.21
846.188	1415
846.368	1440.58
846.547	1385.55
846.727	1425.27
846.907	1364.05
847.086	1426.82
847.266	1438.64
847.445	1390.39
847.625	1363.27
847.804	1344.48
847.984	1377.03
848.163	1366.18
848.343	1331.5
848.522	1368.11
848.701	1403.96
848.881	1353.97
849.06	1345.64
849.239	1371.79
849.419	1392.53
849.598	1308.44
849.777	1313.28
849.957	1301.66
850.136	1272.6
850.315	1229.78
850.494	1234.43
850.674	1272.21
850.853	1300.5
851.032	1286.55
851.211	1297.4
851.39	1279.38
851.569	1241.02
851.748	1250.7
851.927	1317.55
852.107	1269.11
852.286	1234.62
852.465	1196.07
852.644	1307.47
852.823	1293.71
853.002	1282.09
853.181	1267.75
853.359	1299.72
853.538	1226.29
853.717	1281.32
853.896	1192.77
854.075	1124.57
854.254	1093.19
854.433	1031.57
854.611	1130.19
854.79	1051.34
854.969	1111.4
855.148	1144.53
855.327	1092.41
855.505	1135.42
855.684	1133.1
855.863	1159.06
856.041	1164.87
856.22	1190.06
856.399	1159.06
856.577	1204.59
856.756	1211.76
856.934	1353
857.113	1348.55
857.291	1232.3
857.47	1232.88
857.648	1226.68
857.827	1242.95
858.005	1275.7
858.184	1208.27
858.362	1313.09
858.541	1231.52
858.719	1218.54
858.898	1194.13
859.076	1198
859.254	1270.85
859.433	1176.3
859.611	1183.86
859.789	1158.48
859.967	1253.42
860.146	1242.95
860.324	1170.1
860.502	1175.72
860.68	1155.77
860.859	1145.5
861.037	1168.36
861.215	1189.87
861.393	1181.73
861.571	1161.77
861.749	1161.77
861.927	1212.92
862.105	1173.01
862.283	1137.55
862.461	1111.98
862.639	1127.67
862.817	1125.93
862.995	1135.42
863.173	1135.62
863.351	1146.08
863.529	1176.5
863.707	1175.53
863.885	1160.42
864.063	1085.82
864.241	1125.93
864.418	1222.22
864.596	1130.58
864.774	1084.66
864.952	1109.27
865.129	1128.64
865.307	1096.29
865.485	1063.16
865.663	1146.66
865.84	1049.79
866.018	1049.98
866.196	948.65
866.373	1010.26
866.551	965.51
866.728	916.3
866.906	944.78
867.084	986.24
867.261	1013.17
867.439	1022.08
867.616	1097.64
867.794	1027.89
867.971	1054.63
868.149	1050.37
868.326	1086.99
868.503	1095.9
868.681	1027.31
868.858	1013.75
869.035	1015.11
869.213	1053.08
869.39	1060.06
869.567	1117.21
869.745	1001.16
869.922	1032.54
870.099	1049.98
870.276	1044.56
870.454	1043.39
870.631	1054.05
870.808	1039.52
870.985	1072.26
871.162	1090.28
871.339	1059.09
871.517	1005.61
871.694	995.34
871.871	1014.33
872.048	1002.32
872.225	1004.45
872.402	1033.9
872.579	988.56
872.756	1049.98
872.933	994.38
873.11	1018.4
873.287	1021.5
873.463	999.03
873.64	995.73
873.817	1019.37
873.994	992.05
874.171	968.61
874.348	1010.46
874.524	934.7
874.701	993.79
874.878	914.16
875.055	982.36
875.231	952.53
875.408	999.22
875.585	917.46
875.762	949.81
875.938	947.1
876.115	939.35
876.291	975
876.468	933.15
876.645	898.28
876.821	930.25
876.998	955.82
877.174	971.9
877.351	960.08
877.527	954.08
877.704	940.13
877.88	935.67
878.057	913.58
878.233	949.62
878.409	916.3
878.586	931.41
878.762	919.2
878.938	898.47
879.115	847.9
879.291	947.49
879.467	829.69
879.644	911.26
879.82	930.83
879.996	883.94
880.172	842.67
880.349	862.05
880.525	923.27
880.701	839.38
880.877	833.95
881.053	904.28
881.229	890.72
881.405	930.05
881.581	850.81
881.757	869.02
881.933	890.53
882.109	887.04
882.285	870.96
882.461	848.48
882.637	861.46
882.813	846.16
882.989	873.09
883.165	905.83
883.341	854.1
883.517	888.98
883.693	863.98
883.869	884.52
884.044	859.72
884.22	890.91
884.396	911.06
884.572	907.58
884.747	929.28
884.923	887.23
885.099	918.04
885.275	940.71
885.45	841.51
885.626	838.8
885.801	858.56
885.977	849.06
886.153	829.88
886.328	875.8
886.504	850.03
886.679	883.36
886.855	861.46
887.03	876.96
887.206	909.9
887.381	851.58
887.557	888.01
887.732	871.93
887.908	897.5
888.083	878.51
888.258	866.11
888.434	843.64
888.609	871.73
888.784	912.23
888.96	806.63
889.135	849.45
889.31	833.37
889.485	856.04
889.661	831.05
889.836	914.94
890.011	888.01
890.186	871.15
890.361	848.68
890.537	839.96
890.712	884.13
890.887	859.14
891.062	893.24
891.237	913.39
891.412	857.59
891.587	862.43
891.762	878.51
891.937	889.75
892.112	829.88
892.287	846.16
892.462	801.02
892.637	858.95
892.812	791.72
892.987	791.72
893.161	767.3
893.336	802.95
893.511	774.28
893.686	832.02
893.861	766.53
894.035	780.87
894.21	782.22
894.385	725.65
894.56	783.97
894.734	742.7
894.909	704.14
895.084	708.02
895.258	690.39
895.433	740.18
895.608	685.74
895.782	652.02
895.957	664.81
896.131	645.63
896.306	591.96
896.48	626.84
896.655	580.14
896.829	536.16
897.004	553.41
897.178	595.84
897.353	543.53
897.527	612.11
897.701	572.59
897.876	508.65
898.05	612.31
898.224	604.17
898.399	594.67
898.573	534.61
898.747	490.25
898.921	519.89
899.096	471.45
899.27	446.65
899.444	460.41
899.618	499.35
899.792	501.48
899.967	497.99
900.141	520.66
900.315	474.16
900.489	468.74
900.663	488.5
900.837	484.05
901.011	446.46
901.185	550.11
901.359	507.29
901.533	516.01
901.707	502.06
901.881	465.06
902.055	434.45
902.229	474.16
902.403	549.92
902.576	497.41
902.75	484.63
902.924	601.26
903.098	525.89
903.272	601.46
903.446	618.31
903.619	589.83
903.793	625.67
903.967	607.07
904.14	639.82
904.314	644.47
904.488	615.6
904.661	654.54
904.835	623.93
905.009	656.29
905.182	671.79
905.356	666.56
905.529	626.45
905.703	619.86
905.876	611.92
906.05	591.96
906.223	553.21
906.397	484.43
906.57	509.04
906.744	494.12
906.917	483.27
907.09	490.63
907.264	482.69
907.437	474.94
907.61	450.33
907.784	460.21
907.957	480.75
908.13	444.91
908.304	478.43
908.477	443.16
908.65	476.1
908.823	409.06
908.996	471.65
909.17	419.53
909.343	430.76
909.516	444.71
909.689	432.7
909.862	415.65
910.035	442
910.208	403.64
910.381	402.87
910.554	515.82
910.727	413.33
910.9	409.26
911.073	430.57
911.246	472.81
911.419	445.1
911.592	457.11
911.765	415.65
911.938	399.38
912.11	447.04
912.283	409.45
912.456	473.2
912.629	429.21
912.802	418.17
912.974	369.93
913.147	354.04
913.32	294.95
913.493	355.2
913.665	374.19
913.838	364.5
914.01	357.92
914.183	381.55
914.356	368.18
914.528	423.01
914.701	448.78
914.873	416.43
915.046	370.12
915.218	355.01
915.391	282.16
915.563	312.39
915.736	398.6
915.908	401.7
916.081	392.02
916.253	350.36
916.425	367.22
916.598	377.48
916.77	371.67
916.942	340.48
917.115	293.98
917.287	353.65
917.459	330.4
917.632	302.7
917.804	260.65
917.976	335.83
918.148	379.81
918.32	343.58
918.493	367.8
918.665	396.86
918.837	384.07
919.009	443.94
919.181	431.35
919.353	409.45
919.525	398.02
919.697	388.72
919.869	382.13
920.041	445.3
920.213	476.88
920.385	419.72
920.557	397.83
920.729	428.83
920.901	387.17
921.073	366.63
921.244	381.94
921.416	427.47
921.588	374.97
921.76	406.74
921.932	431.54
922.103	383.1
922.275	397.25
922.447	416.81
922.619	333.31
922.79	388.33
922.962	361.79
923.134	410.81
923.305	358.88
923.477	336.99
923.648	349.58
923.82	376.9
923.991	317.04
924.163	265.69
924.335	317.81
924.506	292.43
924.677	376.13
924.849	306.57
925.02	330.02
925.192	345.9
925.363	347.26
925.535	331.57
925.706	299.99
925.877	357.53
926.049	304.25
926.22	348.23
926.391	342.22
926.562	344.35
926.734	301.34
926.905	369.15
927.076	286.23
927.247	310.64
927.419	252.9
927.59	253.87
927.761	276.74
927.932	256.97
928.103	276.74
928.274	234.11
928.445	203.69
928.616	238.95
928.787	238.95
928.958	241.67
929.129	222.29
929.3	234.3
929.471	180.25
929.642	158.94
929.813	122.9
929.984	232.56
930.155	134.91
930.326	170.95
930.496	137.04
930.667	111.28
930.838	147.12
931.009	110.31
931.18	135.11
931.35	126.39
931.521	127.94
931.692	74.46
931.863	53.35
932.033	94.03
932.204	106.24
932.374	95
932.545	69.43
932.716	111.86
932.886	83.96
933.057	46.76
933.227	57.03
933.398	132.59
933.568	51.99
933.739	6.07
933.909	52.18
934.08	79.69
934.25	-13.89
934.421	-0.52
934.591	40.75
934.761	17.7
934.932	-14.27
935.102	43.85
935.272	39.2
935.443	37.26
935.613	15.95
935.783	54.31
935.953	13.82
936.123	155.84
936.294	-3.04
936.464	8.98
936.634	46.56
936.804	8.59
936.974	-7.3
937.144	53.93
937.314	19.05
937.484	38.04
937.655	-5.75
937.825	63.23
937.995	9.75
938.165	64.58
938.334	46.18
938.504	59.74
938.674	4.71
938.844	42.88
939.014	68.65
939.184	92.48
939.354	124.26
939.524	82.41
939.694	76.01
939.863	70.39
940.033	104.88
940.203	129.49
940.373	95.58
940.542	111.47
940.712	70.78
940.882	94.42
941.051	113.79
941.221	90.54
941.391	142.86
941.56	92.09
941.73	46.37
941.899	157.77
942.069	56.06
942.238	96.74
942.408	62.45
942.577	79.5
942.747	56.45
942.916	22.15
943.086	49.08
943.255	93.45
943.425	75.63
943.594	30.1
943.763	-20.67
943.933	28.93
944.102	-9.43
944.271	67.29
944.441	60.13
944.61	49.86
944.779	68.46
944.948	124.64
945.117	21.96
945.287	38.62
945.456	5.68
945.625	4.33
945.794	50.63
945.963	28.93
946.132	87.44
946.301	57.41
946.47	64.19
946.639	-1.29
946.808	26.03
946.977	66.33
947.146	96.74
947.315	45.6
947.484	100.04
947.653	50.83
947.822	26.61
947.991	28.93
948.16	110.11
948.329	77.76
948.498	45.6
948.666	65.55
948.835	76.98
949.004	10.33
949.173	23.12
949.341	79.5
949.51	59.93
949.679	98.68
949.847	59.35
950.016	113.21
950.185	119.61
950.353	23.51
950.522	57.61
950.69	120.96
950.859	48.7
951.028	67.49
951.196	116.51
951.365	33
951.533	39.01
951.701	77.18
951.87	85.89
952.038	10.33
952.207	47.92
952.375	139.76
952.543	43.66
952.712	37.46
952.88	58.58
953.048	111.28
953.217	61.09
953.385	62.26
953.553	95.97
953.721	42.3
953.89	61.87
954.058	6.65
954.226	38.43
954.394	52.38
954.562	42.5
954.73	60.13
954.898	50.05
955.067	78.73
955.235	59.74
955.403	105.85
955.571	106.24
955.739	90.93
955.907	43.46
956.075	27.38
956.243	44.82
956.41	85.51
956.578	16.73
956.746	12.46
956.914	47.53
957.082	91.51
957.25	63.61
957.418	36.49
957.585	60.71
957.753	75.63
957.921	34.75
958.089	52.76
958.256	69.81
958.424	51.02
958.592	62.26
958.759	17.89
958.927	87.06
959.095	26.61
959.262	50.25
959.43	95.78
959.597	56.45
959.765	64.39
959.932	17.7
960.1	96.94
960.267	54.7
960.435	60.51
960.602	78.14
960.77	58.77
960.937	25.83
961.104	78.73
961.272	22.54
961.439	66.13
961.606	85.31
961.774	82.21
961.941	56.83
962.108	92.87
962.275	63.61
962.443	107.21
962.61	94.81
962.777	133.56
962.944	76.79
963.111	65.55
963.278	75.43
963.446	57.8
963.613	101.2
963.78	71.36
963.947	67.68
964.114	67.88
964.281	131.81
964.448	70.98
964.615	46.18
964.782	65.55
964.949	105.08
965.116	102.17
965.282	119.99
965.449	74.66
965.616	44.43
965.783	71.75
965.95	87.83
966.117	33.97
966.283	59.54
966.45	89.58
966.617	77.56
966.784	126.39
966.95	127.74
967.117	104.88
967.284	48.7
967.45	59.35
967.617	134.14
967.784	95.97
967.95	145.96
968.117	78.34
968.283	122.32
968.45	178.51
968.616	80.86
968.783	146.54
968.949	118.25
969.116	126.78
969.282	98.29
969.449	114.38
969.615	71.56
969.781	48.31
969.948	54.7
970.114	57.8
970.28	130.65
970.447	93.06
970.613	110.5
970.779	98.1
970.945	140.73
971.112	115.54
971.278	113.6
971.444	114.96
971.61	135.69
971.776	95.19
971.942	76.21
972.108	101.39
972.275	74.85
972.441	87.25
972.607	163.59
972.773	62.45
972.939	89.58
973.105	116.51
973.271	41.91
973.437	78.14
973.602	67.29
973.768	89.96
973.934	87.64
974.1	113.79
974.266	9.95
974.432	97.91
974.598	76.59
974.763	100.23
974.929	54.51
975.095	124.84
975.261	60.32
975.426	34.55
975.592	95.19
975.758	109.73
975.923	44.63
976.089	59.74
976.255	101.59
976.42	70.78
976.586	103.33
976.751	93.45
976.917	166.49
977.082	105.08
977.248	66.13
977.413	35.13
977.579	67.49
977.744	71.17
977.91	51.21
978.075	43.85
978.24	104.49
978.406	71.56
978.571	28.93
978.736	69.04
978.902	108.37
979.067	26.03
979.232	31.84
979.397	86.48
979.563	101.01
979.728	46.56
979.893	63.81
980.058	46.18
980.223	103.91
980.388	83.18
980.554	61.48
980.719	45.4
980.884	78.34
981.049	109.53
981.214	61.48
981.379	101.01
981.544	50.05
981.709	55.28
981.874	68.84
982.039	62.84
982.204	90.74
982.368	94.23
982.533	56.45
982.698	72.14
982.863	102.94
983.028	46.56
983.193	80.28
983.357	48.7
983.522	83.38
983.687	85.31
983.852	76.59
984.016	51.41
984.181	78.34
984.346	85.89
984.51	61.29
984.675	103.33
984.839	99.26
985.004	93.06
985.168	108.56
985.333	94.42
985.498	87.06
985.662	101.01
985.827	115.15
985.991	69.81
986.155	86.48
986.32	116.12
986.484	115.15
986.649	89.19
986.813	28.93
986.977	84.34
987.142	88.61
987.306	101.39
987.47	70.78
987.634	50.83
987.799	69.23
987.963	85.51
988.127	74.08
988.291	173.27
988.455	72.14
988.62	50.25
988.784	94.23
988.948	92.29
989.112	38.81
989.276	76.01
989.44	78.73
989.604	46.18
989.768	74.08
989.932	146.92
990.096	33.97
990.26	26.22
990.424	45.98
990.588	69.04
990.752	129.1
990.915	92.87
991.079	68.07
991.243	38.81
991.407	85.89
991.571	66.52
991.734	111.47
991.898	90.35
992.062	147.7
992.226	49.66
992.389	51.41
992.553	44.05
992.717	55.48
992.88	76.59
993.044	59.93
993.207	45.6
993.371	90.16
993.535	99.84
993.698	50.44
993.862	89.19
994.025	88.8
994.189	72.91
994.352	103.14
994.515	68.84
994.679	110.5
994.842	64.97
995.006	97.52
995.169	33.97
995.332	45.4
995.496	93.06
995.659	17.11
995.822	64
995.985	76.01
996.149	114.38
996.312	63.81
996.475	133.17
996.638	13.05
996.801	127.16
996.964	123.09
997.128	78.53
997.291	62.45
997.454	73.69
997.617	10.91
997.78	104.11
997.943	61.48
998.106	89.58
998.269	28.55
998.432	63.23
998.595	45.98
998.758	18.66
998.92	45.4
999.083	0.84
999.246	48.11
999.409	27
999.572	0.65
999.735	60.32
999.897	66.71
1000.06	55.09
1000.223	32.61
1000.386	60.9
1000.548	95.58
1000.711	58.77
1000.874	66.91
1001.036	22.93
1001.199	99.65
1001.361	26.03
1001.524	35.33
1001.687	81.24
1001.849	32.03
1002.012	73.3
1002.174	62.06
1002.337	74.85
1002.499	73.11
1002.661	97.33
1002.824	27.38
1002.986	29.9
1003.149	58.58
1003.311	30.68
1003.473	107.01
1003.636	30.29
1003.798	98.88
1003.96	62.26
1004.123	50.83
1004.285	47.73
1004.447	57.41
1004.609	44.63
1004.771	105.08
1004.933	13.24
1005.096	25.83
1005.258	1.61
1005.42	8.59
1005.582	42.88
1005.744	51.6
1005.906	-7.3
1006.068	71.36
1006.23	7.23
1006.392	0.06
1006.554	21.38
1006.716	76.59
1006.878	72.14
1007.04	-8.27
1007.202	26.22
1007.363	44.82
1007.525	51.21
1007.687	52.57
1007.849	64.58
1008.011	-9.24
1008.172	-6.72
1008.334	41.72
1008.496	63.81
1008.658	14.4
1008.819	-2.45
1008.981	2.2
1009.143	13.82
1009.304	18.47
1009.466	53.35
1009.627	100.81
1009.789	132.2
1009.95	32.42
1010.112	-5.94
1010.273	52.18
1010.435	1.81
1010.596	29.51
1010.758	32.42
1010.919	5.49
1011.081	16.34
1011.242	26.22
1011.403	61.09
1011.565	32.81
1011.726	44.82
1011.887	1.81
1012.049	16.73
1012.21	58.96
1012.371	80.47
1012.532	-38.1
1012.693	26.41
1012.855	26.22
1013.016	44.82
1013.177	46.95
1013.338	18.66
1013.499	102.94
1013.66	69.04
1013.821	27.96
1013.982	51.41
1014.143	31.06
1014.304	47.53
1014.465	42.69
1014.626	52.18
1014.787	10.33
1014.948	113.99
1015.109	-26.67
1015.27	82.41
1015.431	28.55
1015.592	6.65
1015.752	78.73
1015.913	33.2
1016.074	44.24
1016.235	7.23
1016.395	20.8
1016.556	1.81
1016.717	17.31
1016.877	57.41
1017.038	9.17
1017.199	48.31
1017.359	19.25
1017.52	23.9
1017.681	-4
1017.841	27.19
1018.002	10.91
1018.162	-3.42
1018.323	52.96
1018.483	11.5
1018.644	19.83
1018.804	3.36
1018.964	-3.42
1019.125	10.72
1019.285	-2.65
1019.446	21.96
1019.606	6.85
1019.766	-16.6
1019.926	77.37
1020.087	39.59
1020.247	-10.59
1020.407	19.05
1020.567	47.53
1020.728	0.65
1020.888	-16.99
1021.048	0.65
1021.208	-9.82
1021.368	5.88
1021.528	40.75
1021.688	27.58
1021.848	24.48
1022.008	18.66
1022.168	11.88
1022.328	39.4
1022.488	54.31
1022.648	-7.69
1022.808	21.76
1022.968	22.93
1023.128	-12.53
1023.288	4.52
1023.448	33.58
1023.608	32.61
1023.767	41.91
1023.927	1.23
1024.087	-25.51
1024.247	-33.07
1024.406	13.82
1024.566	-4
1024.726	-19.89
1024.885	14.98
1025.045	53.15
1025.205	22.15
1025.364	-0.13
1025.524	19.63
1025.683	5.1
1025.843	50.05
1026.003	21.96
1026.162	65.55
1026.321	58.19
1026.481	13.82
1026.64	2.39
1026.8	46.95
1026.959	16.34
1027.119	29.13
1027.278	-4.97
1027.437	-27.84
1027.597	3.75
1027.756	51.99
1027.915	28.74
1028.074	48.5
1028.234	-27.25
1028.393	39.78
1028.552	1.61
1028.711	-33.65
1028.87	46.76
1029.03	-23.57
1029.189	33.2
1029.348	-43.33
1029.507	-17.18
1029.666	3.75
1029.825	-23.77
1029.984	-14.08
1030.143	1.81
1030.302	-5.55
1030.461	-43.72
1030.62	3.75
1030.779	35.13
1030.938	-17.18
1031.097	-16.99
1031.255	70.01
1031.414	51.8
1031.573	60.13
1031.732	-16.6
1031.891	19.05
1032.049	43.66
1032.208	52.76
1032.367	-31.52
1032.525	-8.27
1032.684	14.4
1032.843	25.64
1033.001	-12.34
1033.16	165.33
1033.319	47.34
1033.477	44.43
1033.636	-22.99
1033.794	-28.03
1033.953	34.16
1034.111	16.53
1034.27	4.91
1034.428	32.23
1034.587	-41.01
1034.745	12.66
1034.903	-7.88
1035.062	28.16
1035.22	-25.9
1035.378	53.15
1035.537	-11.95
1035.695	30.87
1035.853	12.46
1036.011	32.42
1036.17	38.62
1036.328	-39.46
1036.486	31.84
1036.644	30.29
1036.802	-40.82
1036.96	-0.71
1037.119	-3.62
1037.277	-10.79
1037.435	-46.82
1037.593	-13.69
1037.751	-9.43
1037.909	39.4
1038.067	39.4
