Data from oakcork_FLMT105791__190__17-32-03-057.txt Node

Date: Mon Mar 20 17:32:03 GMT 2023
User: antho
Spectrometer: FLMT10579
Trigger mode: 0
Integration Time (sec): 1.000000E-1
Scans to average: 10
Electric dark correction enabled: true
Nonlinearity correction enabled: false
Boxcar width: 0
XAxis mode: Wavelengths
Number of Pixels in Spectrum: 3648
>>>>>Begin Spectral Data<<<<<
345.248	-175.63
345.464	-175.63
345.681	-175.63
345.898	-161.1
346.114	-145.41
346.331	-35.17
346.548	27.8
346.764	-5.13
346.981	0.1
347.197	-3.78
347.414	16.37
347.631	-16.57
347.847	84.38
348.064	-24.9
348.28	10.37
348.497	-46.79
348.713	-6.68
348.93	-0.68
349.146	27.42
349.363	16.95
349.579	18.89
349.796	25.87
350.012	-1.07
350.229	3.39
350.445	10.17
350.661	-27.03
350.878	1.07
351.094	9.98
351.311	15.79
351.527	22.18
351.743	-11.53
351.96	16.18
352.176	45.63
352.392	28
352.609	27.03
352.825	-5.13
353.041	3
353.257	-0.1
353.474	9.4
353.69	9.59
353.906	11.53
354.122	-29.35
354.339	35.55
354.555	10.17
354.771	0.68
354.987	42.33
355.203	33.23
355.42	-22.77
355.636	5.13
355.852	9.98
356.068	23.93
356.284	-44.27
356.5	35.94
356.716	35.36
356.932	13.08
357.148	-6.49
357.364	8.62
357.58	57.83
357.796	52.21
358.012	57.83
358.228	9.2
358.444	-62.68
358.66	32.26
358.876	12.11
359.092	-6.1
359.308	26.25
359.524	18.5
359.74	-15.21
359.956	-20.63
360.172	19.67
360.388	58.22
360.604	-12.3
360.819	54.54
361.035	21.6
361.251	26.83
361.467	-41.95
361.683	48.53
361.898	4.94
362.114	34.97
362.33	-1.65
362.546	45.24
362.762	-8.04
362.977	22.77
363.193	-50.86
363.409	27.22
363.624	-28
363.84	-20.83
364.056	-8.62
364.271	8.04
364.487	0.68
364.703	2.03
364.918	-40.59
365.134	2.62
365.35	3
365.565	105.11
365.781	16.57
365.996	-13.08
366.212	76.82
366.427	13.08
366.643	-8.62
366.858	8.82
367.074	-10.95
367.289	88.45
367.505	108.98
367.72	-41.37
367.936	-4.94
368.151	55.12
368.367	2.03
368.582	2.62
368.798	5.33
369.013	45.05
369.228	12.69
369.444	16.18
369.659	82.05
369.874	29.93
370.09	47.18
370.305	-35.55
370.52	4.36
370.736	51.44
370.951	-1.84
371.166	54.35
371.381	55.7
371.597	46.01
371.812	0.87
372.027	-52.8
372.242	-13.27
372.458	82.05
372.673	3.97
372.888	-0.68
373.103	19.86
373.318	99.49
373.533	36.72
373.749	25.28
373.964	-42.14
374.179	49.31
374.394	-1.65
374.609	74.3
374.824	-29.35
375.039	39.82
375.254	-3.39
375.469	99.3
375.684	31.48
375.899	53.57
376.114	21.8
376.329	2.23
376.544	48.92
376.759	49.7
376.974	0.48
377.189	39.43
377.404	17.34
377.619	50.28
377.834	-26.45
378.049	-17.92
378.264	-5.13
378.478	12.11
378.693	-9.01
378.908	42.53
379.123	13.47
379.338	46.4
379.553	4.36
379.767	33.03
379.982	46.01
380.197	40.78
380.412	17.34
380.626	21.02
380.841	78.37
381.056	37.88
381.271	50.86
381.485	6.3
381.7	-5.91
381.915	-0.87
382.129	-9.01
382.344	0.68
382.559	10.95
382.773	52.41
382.988	-25.48
383.202	6.88
383.417	-12.69
383.632	99.3
383.846	25.09
384.061	22.96
384.275	11.53
384.49	36.33
384.704	53.18
384.919	42.72
385.133	-3.2
385.348	14.24
385.562	-26.25
385.777	55.9
385.991	48.53
386.206	21.8
386.42	23.35
386.634	70.81
386.849	47.56
387.063	-6.88
387.277	1.45
387.492	-18.31
387.706	-2.03
387.92	-11.33
388.135	34.58
388.349	38.46
388.563	26.06
388.778	50.47
388.992	30.52
389.206	59
389.42	89.22
389.635	5.33
389.849	39.23
390.063	53.38
390.277	23.73
390.491	84.38
390.706	42.53
390.92	65.58
391.134	26.06
391.348	35.94
391.562	-14.43
391.776	15.21
391.99	15.98
392.205	38.46
392.419	1.07
392.633	29.93
392.847	72.75
393.061	1.84
393.275	74.69
393.489	5.52
393.703	23.15
393.917	58.22
394.131	-15.79
394.345	33.42
394.559	47.37
394.773	0.68
394.986	44.46
395.2	1.45
395.414	79.92
395.628	-28.97
395.842	27.03
396.056	5.91
396.27	-10.56
396.484	38.46
396.697	49.89
396.911	68.88
397.125	78.56
397.339	50.08
397.553	61.51
397.766	81.47
397.98	75.46
398.194	92.13
398.408	-1.07
398.621	38.65
398.835	45.05
399.049	18.89
399.262	82.63
399.476	78.18
399.69	36.33
399.903	72.36
400.117	43.69
400.331	47.18
400.544	35.36
400.758	147.73
400.971	41.75
401.185	80.89
401.398	15.02
401.612	81.47
401.826	56.48
402.039	72.36
402.253	32.65
402.466	61.9
402.68	38.65
402.893	46.21
403.106	56.67
403.32	55.51
403.533	63.45
403.747	47.95
403.96	49.89
404.174	63.84
404.387	31.1
404.6	41.37
404.814	62.87
405.027	59.77
405.24	24.32
405.454	34.39
405.667	67.52
405.88	8.43
406.094	41.37
406.307	83.99
406.52	46.98
406.733	12.88
406.947	2.03
407.16	81.47
407.373	72.56
407.586	26.45
407.799	24.7
408.012	66.94
408.226	55.31
408.439	87.09
408.652	-1.26
408.865	66.75
409.078	83.21
409.291	57.83
409.504	1.84
409.717	73.33
409.93	48.53
410.143	54.54
410.357	-0.68
410.57	2.81
410.783	33.03
410.996	40.2
411.209	54.15
411.421	83.21
411.634	37.1
411.847	37.3
412.06	75.27
412.273	55.12
412.486	51.05
412.699	110.34
412.912	41.75
413.125	77.6
413.338	48.15
413.55	77.01
413.763	87.28
413.976	67.33
414.189	33.62
414.402	48.73
414.615	102.01
414.827	19.08
415.04	99.68
415.253	60.93
415.466	69.65
415.678	96.78
415.891	52.21
416.104	60.35
416.316	52.41
416.529	34.39
416.742	57.64
416.954	71.59
417.167	51.05
417.38	64.61
417.592	97.94
417.805	34.78
418.017	20.83
418.23	69.46
418.442	26.06
418.655	31.68
418.868	52.02
419.08	83.21
419.293	106.85
419.505	68.88
419.718	82.44
419.93	114.02
420.142	32.07
420.355	96.78
420.567	96.39
420.78	93.48
420.992	66.55
421.205	104.33
421.417	31.48
421.629	35.55
421.842	29.55
422.054	24.51
422.266	82.25
422.479	111.7
422.691	47.37
422.903	91.74
423.115	75.85
423.328	76.82
423.54	74.88
423.752	52.99
423.964	38.85
424.177	83.99
424.389	33.42
424.601	136.3
424.813	88.83
425.025	97.75
425.238	106.08
425.45	60.35
425.662	75.27
425.874	319.97
426.086	76.82
426.298	70.23
426.51	80.7
426.722	68.3
426.934	61.51
427.146	74.11
427.358	22.18
427.57	90.96
427.782	74.69
427.994	105.5
428.206	69.65
428.418	26.06
428.63	93.1
428.842	100.26
429.054	75.46
429.266	102.59
429.478	41.37
429.69	81.47
429.902	20.25
430.114	84.38
430.325	87.67
430.537	55.51
430.749	68.49
430.961	16.76
431.173	85.93
431.384	85.73
431.596	-22.18
431.808	31.87
432.02	76.05
432.231	87.28
432.443	79.34
432.655	101.62
432.867	51.63
433.078	73.91
433.29	126.81
433.502	119.06
433.713	104.91
433.925	79.34
434.136	124.87
434.348	22.77
434.56	20.05
434.771	163.62
434.983	38.07
435.194	67.13
435.406	70.62
435.617	105.11
435.829	140.95
436.04	128.94
436.252	91.74
436.463	109.95
436.675	88.06
436.886	108.01
437.098	87.48
437.309	146.57
437.521	64.42
437.732	97.75
437.943	104.33
438.155	84.18
438.366	69.07
438.578	142.5
438.789	102.4
439	119.45
439.211	83.41
439.423	102.78
439.634	101.43
439.845	81.66
440.057	95.42
440.268	114.8
440.479	101.43
440.69	120.8
440.902	85.54
441.113	86.9
441.324	55.7
441.535	114.41
441.746	145.41
441.957	49.7
442.168	73.14
442.38	116.15
442.591	114.41
442.802	70.62
443.013	76.43
443.224	128.94
443.435	67.13
443.646	100.85
443.857	80.89
444.068	70.23
444.279	74.69
444.49	145.99
444.701	71.4
444.912	183.19
445.123	125.26
445.334	129.33
445.545	116.15
445.756	84.76
445.967	85.73
446.178	99.88
446.388	116.35
446.599	138.63
446.81	142.11
447.021	105.3
447.232	115.96
447.443	164.59
447.653	83.6
447.864	117.31
448.075	108.6
448.286	126.81
448.496	114.41
448.707	128.36
448.918	64.61
449.129	183.38
449.339	103.17
449.55	100.46
449.761	143.28
449.971	162.26
450.182	102.78
450.393	161.88
450.603	101.43
450.814	133.78
451.024	121.19
451.235	114.6
451.446	138.43
451.656	180.48
451.867	103.75
452.077	115.96
452.288	170.98
452.498	166.91
452.709	111.5
452.919	150.25
453.13	131.26
453.34	139.98
453.55	87.09
453.761	158.19
453.971	132.23
454.182	164.2
454.392	130.49
454.602	180.86
454.813	145.02
455.023	166.33
455.233	101.62
455.444	127.97
455.654	77.21
455.864	132.62
456.075	116.35
456.285	113.25
456.495	115.18
456.705	145.02
456.916	169.63
457.126	191.13
457.336	118.48
457.546	89.8
457.756	121.77
457.967	168.08
458.177	166.72
458.387	134.75
458.597	109.37
458.807	117.9
459.017	111.89
459.227	113.83
459.437	116.54
459.647	148.7
459.857	135.91
460.068	123.32
460.278	163.23
460.488	143.08
460.698	200.82
460.908	126.81
461.117	91.93
461.327	102.01
461.537	155.29
461.747	107.82
461.957	127.78
462.167	232.59
462.377	181.44
462.587	138.82
462.797	168.08
463.007	128.94
463.216	159.94
463.426	180.28
463.636	144.24
463.846	90.96
464.056	130.49
464.265	166.33
464.475	136.49
464.685	135.91
464.895	164.98
465.104	157.23
465.314	180.67
465.524	134.94
465.733	145.79
465.943	175.63
466.153	208.38
466.362	182.99
466.572	155.68
466.782	111.5
466.991	142.69
467.201	205.28
467.41	101.04
467.62	165.36
467.829	160.71
468.039	144.44
468.249	166.53
468.458	146.96
468.668	179.31
468.877	150.44
469.086	203.34
469.296	192.68
469.505	133.59
469.715	217.68
469.924	163.04
470.134	218.06
470.343	200.63
470.552	164.39
470.762	151.8
470.971	115.96
471.18	171.95
471.39	167.11
471.599	141.53
471.808	168.27
472.018	139.21
472.227	209.93
472.436	188.81
472.645	164.39
472.855	134.17
473.064	186.68
473.273	169.04
473.482	208.76
473.691	190.94
473.901	175.05
474.11	153.35
474.319	259.33
474.528	195.59
474.737	205.08
474.946	194.23
475.155	175.83
475.364	212.83
475.573	197.14
475.783	165.36
475.992	212.25
476.201	251.58
476.41	219.22
476.619	188.81
476.828	216.51
477.037	156.64
477.245	170.98
477.454	218.45
477.663	162.26
477.872	157.03
478.081	256.81
478.29	175.63
478.499	252.94
478.708	188.42
478.917	253.32
479.125	215.16
479.334	210.7
479.543	215.54
479.752	196.94
479.961	195.39
480.169	231.24
480.378	184.54
480.587	326.95
480.796	213.8
481.004	231.82
481.213	203.73
481.422	211.86
481.63	213.41
481.839	208.18
482.048	261.66
482.256	225.81
482.465	249.64
482.674	228.72
482.882	264.95
483.091	268.44
483.299	244.41
483.508	225.81
483.716	259.14
483.925	237.82
484.134	202.56
484.342	200.82
484.551	264.17
484.759	255.26
484.967	257.78
485.176	260.3
485.384	268.24
485.593	276.77
485.801	258.56
486.01	237.24
486.218	244.8
486.426	210.31
486.635	257.2
486.843	217.48
487.051	253.13
487.26	224.46
487.468	261.27
487.676	274.64
487.885	217.29
488.093	226.78
488.301	242.67
488.509	241.12
488.717	258.56
488.926	255.26
489.134	241.12
489.342	255.46
489.55	232.98
489.758	270.96
489.967	230.85
490.175	328.3
490.383	245.96
490.591	333.73
490.799	189.39
491.007	283.94
491.215	265.72
491.423	266.89
491.631	275.02
491.839	243.25
492.047	299.63
492.255	235.89
492.463	189.39
492.671	278.32
492.879	292.85
493.087	264.17
493.295	276.38
493.503	297.11
493.711	301.57
493.919	310.87
494.127	306.02
494.334	318.62
494.542	242.86
494.75	280.26
494.958	289.75
495.166	336.25
495.374	298.27
495.581	279.09
495.789	293.62
495.997	355.43
496.205	297.69
496.412	257.01
496.62	278.51
496.828	311.25
497.035	283.74
497.243	318.62
497.451	295.76
497.658	291.88
497.866	305.06
498.074	351.55
498.281	290.52
498.489	359.69
498.696	315.52
498.904	293.82
499.112	312.22
499.319	347.87
499.527	292.85
499.734	335.67
499.942	309.9
500.149	321.52
500.357	301.18
500.564	274.25
500.771	313.97
500.979	288.2
501.186	299.05
501.394	301.18
501.601	326.75
501.808	342.45
502.016	311.25
502.223	308.15
502.43	331.02
502.638	306.22
502.845	275.41
503.052	356.59
503.26	291.49
503.467	397.47
503.674	312.22
503.881	333.54
504.089	406.77
504.296	353.3
504.503	314.35
504.71	350.39
504.917	288.78
505.125	348.84
505.332	329.66
505.539	339.35
505.746	417.04
505.953	353.1
506.16	344.77
506.367	369.77
506.574	379.07
506.781	391.47
506.988	307.57
507.195	358.92
507.402	368.8
507.609	388.75
507.816	342.25
508.023	337.22
508.23	307.57
508.437	326.17
508.644	381.78
508.851	406.97
509.058	388.17
509.265	371.12
509.472	354.46
509.679	452.69
509.885	357.17
510.092	353.69
510.299	341.09
510.506	384.3
510.713	394.57
510.92	364.73
511.126	400.77
511.333	420.72
511.54	428.86
511.746	449.59
511.953	419.95
512.16	436.22
512.367	394.95
512.573	384.69
512.78	438.93
512.987	385.07
513.193	426.34
513.4	314.55
513.606	374.03
513.813	402.12
514.02	416.85
514.226	511.78
514.433	448.04
514.639	374.8
514.846	422.08
515.052	415.1
515.259	416.85
515.465	410.45
515.672	426.15
515.878	504.42
516.085	411.42
516.291	445.72
516.497	410.84
516.704	439.52
516.91	377.52
517.117	417.82
517.323	376.35
517.529	406
517.736	387.79
517.942	407.35
518.148	381.2
518.354	417.23
518.561	423.63
518.767	428.08
518.973	464.9
519.179	458.7
519.386	424.21
519.592	407.35
519.798	399.8
520.004	493.38
520.21	437.38
520.417	452.3
520.623	487.37
520.829	501.32
521.035	510.23
521.241	502.87
521.447	516.63
521.653	591.03
521.859	501.13
522.065	476.91
522.271	581.92
522.477	526.31
522.683	541.04
522.889	521.28
523.095	539.88
523.301	527.09
523.507	489.11
523.713	539.3
523.919	513.14
524.125	554.02
524.331	544.53
524.537	578.82
524.742	581.92
524.948	602.84
525.154	580.37
525.36	663.87
525.566	591.99
525.772	638.69
525.977	540.85
526.183	610.98
526.389	638.88
526.595	564.87
526.8	571.07
527.006	548.4
527.212	518.37
527.417	536.58
527.623	524.76
527.829	567
528.034	560.8
528.24	601.29
528.446	542.2
528.651	628.42
528.857	607.88
529.062	678.41
529.268	606.53
529.473	625.32
529.679	619.7
529.884	664.07
530.09	665.81
530.295	681.89
530.501	680.34
530.706	636.75
530.912	600.52
531.117	647.21
531.323	620.09
531.528	700.49
531.733	681.31
531.939	636.36
532.144	666.59
532.35	673.76
532.555	697.78
532.76	701.27
532.966	692.16
533.171	689.26
533.376	658.06
533.581	649.34
533.787	667.17
533.992	679.76
534.197	705.14
534.402	647.02
534.607	695.07
534.813	771.4
535.018	672.79
535.223	656.51
535.428	687.51
535.633	726.07
535.838	704.17
536.043	709.99
536.249	784
536.454	692.94
536.659	715.61
536.864	682.28
537.069	708.24
537.274	733.82
537.479	728.78
537.684	725.87
537.889	675.31
538.094	796.2
538.299	724.32
538.504	758.04
538.708	737.11
538.913	765.79
539.118	717.93
539.323	754.55
539.528	697.39
539.733	749.32
539.938	759.39
540.142	770.24
540.347	732.07
540.552	703.01
540.757	754.35
540.962	727.42
541.166	714.44
541.371	692.36
541.576	745.83
541.781	642.56
541.985	726.65
542.19	740.02
542.395	758.04
542.599	819.26
542.804	787.87
543.008	765.98
543.213	708.24
543.418	728.2
543.622	771.4
543.827	711.54
544.031	792.72
544.236	793.69
544.44	765.98
544.645	820.04
544.849	770.63
545.054	799.3
545.258	852.58
545.463	827.79
545.667	745.44
545.872	763.85
546.076	798.53
546.281	771.4
546.485	766.37
546.689	785.94
546.894	803.37
547.098	778.57
547.302	737.31
547.507	786.52
547.711	800.85
547.915	834.76
548.119	753.77
548.324	767.14
548.528	826.04
548.732	790
548.936	840.38
549.141	833.02
549.345	786.52
549.549	765.79
549.753	783.22
549.957	838.83
550.161	862.27
550.366	772.76
550.57	753.19
550.774	800.27
550.978	811.32
551.182	836.5
551.386	792.33
551.59	804.73
551.794	751.25
551.998	818.29
552.202	795.82
552.406	771.02
552.61	791.55
552.814	806.86
553.018	870.6
553.222	812.48
553.426	781.29
553.63	899.08
553.833	794.07
554.037	775.28
554.241	824.1
554.445	800.27
554.649	809.96
554.853	778.96
555.056	811.9
555.26	816.94
555.464	813.25
555.668	778.57
555.871	824.49
556.075	847.93
556.279	820.04
556.483	785.16
556.686	779.35
556.89	770.44
557.094	812.67
557.297	775.28
557.501	852.97
557.704	747.19
557.908	820.04
558.112	730.72
558.315	858.98
558.519	786.9
558.722	769.47
558.926	776.64
559.129	738.47
559.333	700.11
559.536	750.67
559.74	744.86
559.943	742.73
560.147	725.49
560.35	770.24
560.553	706.31
560.757	685.19
560.96	797.37
561.164	737.89
561.367	791.75
561.57	744.09
561.774	784.19
561.977	758.42
562.18	732.85
562.384	829.92
562.587	763.65
562.79	745.05
562.993	731.11
563.197	766.95
563.4	802.02
563.603	833.21
563.806	838.63
564.009	736.72
564.212	752.42
564.416	704.95
564.619	756.87
564.822	687.32
565.025	787.1
565.228	708.44
565.431	709.21
565.634	656.32
565.837	704.56
566.04	689.64
566.243	714.83
566.446	625.13
566.649	750.29
566.852	654.58
567.055	694.68
567.258	722.58
567.461	771.99
567.664	743.89
567.867	663.87
568.07	712.51
568.273	692.55
568.475	729.56
568.678	682.28
568.881	673.56
569.084	675.11
569.287	604.98
569.489	638.3
569.692	694.87
569.895	698.17
570.098	624.54
570.3	646.83
570.503	563.71
570.706	628.61
570.909	607.69
571.111	566.03
571.314	573.01
571.516	605.56
571.719	645.47
571.922	612.34
572.124	635.2
572.327	615.63
572.529	586.96
572.732	567.2
572.935	601.68
573.137	670.46
573.34	598.78
573.542	629.19
573.745	607.49
573.947	578.63
574.15	597.61
574.352	574.17
574.554	662.52
574.757	558.09
574.959	591.41
575.162	553.25
575.364	580.95
575.566	654.19
575.769	547.05
575.971	552.86
576.173	502.68
576.376	602.84
576.578	617.96
576.78	636.36
576.982	492.8
577.185	559.06
577.387	529.41
577.589	540.85
577.791	583.47
577.993	583.66
578.196	539.68
578.398	583.28
578.6	605.17
578.802	522.05
579.004	509.07
579.206	544.53
579.408	547.43
579.61	537.55
579.812	585.6
580.014	551.89
580.216	537.94
580.418	538.13
580.62	528.25
580.822	518.56
581.024	530.58
581.226	578.63
581.428	515.46
581.63	603.81
581.832	541.43
582.034	585.21
582.236	540.26
582.438	566.61
582.64	592.58
582.841	606.33
583.043	612.53
583.245	582.31
583.447	574.56
583.649	540.07
583.85	545.11
584.052	598.19
584.254	553.83
584.456	591.22
584.657	474
584.859	534.26
585.061	534.84
585.262	539.1
585.464	504.03
585.666	574.75
585.867	494.93
586.069	581.73
586.27	552.28
586.472	521.28
586.674	536.39
586.875	521.28
587.077	525.54
587.278	531.55
587.48	523.8
587.681	606.33
587.883	550.34
588.084	469.74
588.285	472.45
588.487	504.61
588.688	540.07
588.89	492.21
589.091	453.27
589.292	486.98
589.494	468
589.695	470.13
589.896	419.37
590.098	441.07
590.299	456.95
590.5	441.26
590.702	448.82
590.903	430.22
591.104	528.25
591.305	445.33
591.507	519.73
591.708	481.95
591.909	468.38
592.11	562.55
592.311	511.4
592.512	484.27
592.714	436.22
592.915	432.15
593.116	452.88
593.317	474
593.518	492.8
593.719	424.02
593.92	496.67
594.121	514.5
594.322	482.72
594.523	493.18
594.724	448.04
594.925	486.6
595.126	497.25
595.327	493.38
595.528	487.37
595.729	487.56
595.929	469.35
596.13	462.96
596.331	471.48
596.532	470.32
596.733	542.59
596.934	506.94
597.135	487.56
597.335	500.16
597.536	429.83
597.737	500.16
597.938	421.11
598.138	507.91
598.339	464.9
598.54	489.11
598.74	502.1
598.941	480.2
599.142	495.12
599.342	461.22
599.543	446.68
599.744	481.75
599.944	460.05
600.145	442.62
600.345	477.88
600.546	540.65
600.746	502.48
600.947	566.03
601.147	490.08
601.348	529.61
601.548	442.03
601.749	470.71
601.949	435.64
602.15	461.02
602.35	465.48
602.551	509.46
602.751	461.99
602.951	440.48
603.152	432.93
603.352	477.68
603.552	474.58
603.753	469.16
603.953	496.28
604.153	487.76
604.354	474.78
604.554	473.42
604.754	466.25
604.954	451.53
605.155	484.27
605.355	453.66
605.555	508.3
605.755	536.78
605.955	452.3
606.155	470.13
606.356	504.03
606.556	487.56
606.756	491.63
606.956	414.13
607.156	516.05
607.356	465.67
607.556	474.2
607.756	453.66
607.956	515.85
608.156	456.37
608.356	449.59
608.556	506.16
608.756	485.05
608.956	428.28
609.156	463.73
609.356	430.22
609.556	456.57
609.755	469.16
609.955	445.13
610.155	452.88
610.355	470.71
610.555	465.28
610.755	443.58
610.954	399.6
611.154	437.38
611.354	438.74
611.554	458.31
611.753	421.3
611.953	386.82
612.153	468.58
612.352	440.48
612.552	377.13
612.752	370.35
612.951	431.38
613.151	419.37
613.351	422.08
613.55	405.22
613.75	442.42
613.949	416.27
614.149	429.44
614.348	457.92
614.548	393.21
614.747	354.27
614.947	362.4
615.146	346.13
615.346	428.86
615.545	392.24
615.745	432.73
615.944	430.41
616.144	392.82
616.343	443.39
616.542	410.26
616.742	433.51
616.941	391.85
617.14	365.7
617.34	426.53
617.539	398.05
617.738	407.93
617.938	451.33
618.137	382.75
618.336	332.18
618.535	427.31
618.734	390.3
618.934	423.43
619.133	424.4
619.332	420.33
619.531	382.75
619.73	384.69
619.929	418.2
620.128	413.36
620.328	431.77
620.527	401.73
620.726	395.53
620.925	408.13
621.124	377.52
621.323	408.9
621.522	365.12
621.721	365.89
621.92	358.92
622.119	411.23
622.318	361.24
622.517	378.49
622.715	368.8
622.914	327.14
623.113	376.94
623.312	327.34
623.511	401.73
623.71	358.34
623.909	344.58
624.107	446.68
624.306	344.39
624.505	345.35
624.704	349.81
624.902	330.44
625.101	418.59
625.3	387.2
625.499	373.45
625.697	336.64
625.896	339.93
626.095	384.49
626.293	350.39
626.492	347.68
626.69	364.34
626.889	326.95
627.088	385.85
627.286	314.74
627.485	346.52
627.683	341.48
627.882	380.81
628.08	288.78
628.279	333.92
628.477	389.92
628.676	317.07
628.874	337.99
629.073	340.32
629.271	315.9
629.469	367.05
629.668	318.04
629.866	331.79
630.065	321.91
630.263	360.47
630.461	308.74
630.66	320.75
630.858	385.27
631.056	401.54
631.254	404.06
631.453	328.5
631.651	376.74
631.849	351.75
632.047	365.7
632.245	316.1
632.444	362.4
632.642	363.76
632.84	363.76
633.038	337.99
633.236	328.11
633.434	308.15
633.632	305.44
633.83	311.25
634.028	358.34
634.227	332.57
634.425	396.7
634.623	325.01
634.821	354.46
635.019	323.27
635.216	282.97
635.414	364.54
635.612	331.79
635.81	341.67
636.008	381.39
636.206	337.6
636.404	358.14
636.602	280.06
636.8	363.76
636.997	355.04
637.195	347.68
637.393	358.14
637.591	366.67
637.789	355.62
637.986	337.6
638.184	337.02
638.382	387.79
638.58	377.13
638.777	423.05
638.975	328.69
639.173	348.26
639.37	345.55
639.568	375.77
639.765	362.02
639.963	358.14
640.161	393.98
640.358	359.5
640.556	326.37
640.753	307.19
640.951	284.32
641.148	357.17
641.346	328.3
641.543	343.61
641.741	354.46
641.938	319.39
642.136	334.31
642.333	307.38
642.531	371.9
642.728	402.7
642.925	327.92
643.123	302.34
643.32	293.62
643.517	335.09
643.715	343.42
643.912	313.39
644.109	315.71
644.306	351.75
644.504	277.54
644.701	343.61
644.898	370.54
645.095	302.73
645.293	337.6
645.49	337.41
645.687	321.52
645.884	365.89
646.081	269.02
646.278	284.91
646.475	291.11
646.672	314.94
646.87	329.66
647.067	311.84
647.264	334.5
647.461	273.86
647.658	273.47
647.855	331.99
648.052	308.15
648.249	226.01
648.446	304.67
648.642	272.31
648.839	294.01
649.036	261.27
649.233	259.52
649.43	275.22
649.627	256.81
649.824	253.32
650.021	282.39
650.217	246.93
650.414	258.75
650.611	292.07
650.808	311.64
651.004	271.54
651.201	314.16
651.398	333.92
651.595	302.92
651.791	293.04
651.988	328.69
652.185	272.7
652.381	299.05
652.578	221.55
652.775	297.89
652.971	259.91
653.168	291.3
653.364	312.8
653.561	213.22
653.757	279.29
653.954	275.41
654.15	263.98
654.347	325.4
654.543	264.56
654.74	254.29
654.936	241.51
655.133	282.97
655.329	265.92
655.525	250.42
655.722	293.62
655.918	225.62
656.115	292.07
656.311	223.1
656.507	226.78
656.704	197.91
656.9	226.59
657.096	207.02
657.292	225.23
657.489	253.91
657.685	255.65
657.881	246.35
658.077	224.84
658.273	240.92
658.47	305.06
658.666	256.23
658.862	288.01
659.058	234.92
659.254	300.6
659.45	242.09
659.646	284.52
659.842	248.48
660.038	317.65
660.234	246.54
660.43	257.97
660.626	308.15
660.822	286.46
661.018	274.44
661.214	247.32
661.41	228.72
661.606	268.82
661.802	283.94
661.998	253.32
662.194	216.13
662.39	267.86
662.586	264.37
662.781	262.62
662.977	275.99
663.173	262.24
663.369	284.52
663.564	283.55
663.76	272.7
663.956	261.27
664.152	312.61
664.347	194.23
664.543	234.14
664.739	247.12
664.934	207.99
665.13	204.69
665.326	261.85
665.521	252.36
665.717	222.52
665.912	215.74
666.108	168.85
666.304	206.83
666.499	237.24
666.695	181.64
666.89	218.45
667.086	258.56
667.281	252.74
667.477	277.74
667.672	252.16
667.867	237.82
668.063	251.19
668.258	208.57
668.454	225.62
668.649	264.17
668.844	220.58
669.04	246.54
669.235	225.42
669.43	212.83
669.626	189.97
669.821	201.79
670.016	210.12
670.211	213.22
670.407	189.78
670.602	213.03
670.797	247.12
670.992	259.72
671.187	227.56
671.382	231.04
671.578	220
671.773	222.52
671.968	222.71
672.163	248.29
672.358	259.91
672.553	189
672.748	183.19
672.943	277.74
673.138	216.32
673.333	249.64
673.528	189.58
673.723	251.58
673.918	230.27
674.113	205.08
674.308	288.01
674.503	241.89
674.698	250.03
674.892	241.7
675.087	276.96
675.282	239.37
675.477	214.58
675.672	268.44
675.867	202.95
676.061	179.51
676.256	190.94
676.451	209.34
676.646	240.15
676.84	178.73
677.035	181.44
677.23	191.13
677.424	235.89
677.619	241.31
677.814	248.67
678.008	248.48
678.203	160.91
678.397	190.36
678.592	220.19
678.787	292.27
678.981	212.06
679.176	235.11
679.37	228.14
679.565	185.9
679.759	208.57
679.954	243.06
680.148	249.64
680.342	246.74
680.537	259.33
680.731	218.45
680.926	222.71
681.12	260.3
681.314	210.89
681.509	215.74
681.703	226.59
681.897	244.41
682.092	207.21
682.286	201.4
682.48	265.72
682.674	240.54
682.869	224.46
683.063	215.54
683.257	286.84
683.451	189.39
683.645	241.31
683.839	221.16
684.034	227.75
684.228	251.77
684.422	231.62
684.616	222.32
684.81	239.18
685.004	215.35
685.198	211.67
685.392	238.6
685.586	214.58
685.78	244.99
685.974	241.51
686.168	261.85
686.362	285.29
686.556	200.82
686.75	191.13
686.944	222.13
687.138	261.85
687.331	155.29
687.525	200.24
687.719	161.88
687.913	208.38
688.107	243.25
688.301	182.22
688.494	223.29
688.688	144.63
688.882	185.71
689.076	177.76
689.269	171.37
689.463	262.24
689.657	206.44
689.85	199.27
690.044	187.26
690.238	187.45
690.431	186.48
690.625	178.73
690.818	222.52
691.012	224.65
691.205	230.27
691.399	189.78
691.593	222.71
691.786	285.49
691.98	262.82
692.173	284.91
692.366	255.07
692.56	234.72
692.753	298.27
692.947	212.64
693.14	315.13
693.333	285.1
693.527	208.57
693.72	257.97
693.914	258.56
694.107	252.74
694.3	271.15
694.493	248.09
694.687	306.6
694.88	229.11
695.073	308.35
695.266	292.46
695.46	291.49
695.653	343.61
695.846	317.45
696.039	253.32
696.232	295.56
696.425	329.66
696.618	316.87
696.812	314.55
697.005	334.31
697.198	399.8
697.391	329.66
697.584	362.79
697.777	388.56
697.97	371.12
698.163	393.21
698.356	360.47
698.549	449.59
698.742	408.9
698.935	368.22
699.127	416.07
699.32	361.82
699.513	381.97
699.706	399.99
699.899	418.98
700.092	358.34
700.285	430.8
700.477	355.82
700.67	452.88
700.863	456.18
701.056	515.85
701.248	494.93
701.441	499.19
701.634	441.84
701.826	557.51
702.019	449.98
702.212	497.64
702.404	440.87
702.597	441.26
702.79	506.36
702.982	497.06
703.175	532.9
703.367	545.11
703.56	568.36
703.752	632.68
703.945	562.16
704.137	551.31
704.33	562.74
704.522	591.61
704.715	611.18
704.907	615.44
705.1	619.12
705.292	646.05
705.484	640.82
705.677	649.93
705.869	642.56
706.061	686.54
706.254	700.69
706.446	655.74
706.638	653.03
706.831	731.11
707.023	692.74
707.215	776.25
707.407	752.42
707.599	727.81
707.792	761.14
707.984	784.97
708.176	811.9
708.368	761.91
708.56	774.5
708.752	752.22
708.944	788.84
709.136	769.66
709.329	777.41
709.521	908.38
709.713	888.82
709.905	854.33
710.097	911.1
710.289	835.53
710.481	869.25
710.672	873.9
710.864	882.23
711.056	954.69
711.248	948.49
711.44	958.37
711.632	950.23
711.824	938.8
712.016	1021.92
712.207	998.67
712.399	985.88
712.591	1025.79
712.783	1009.52
712.975	1055.24
713.166	973.68
713.358	1024.44
713.55	1044.78
713.741	1091.48
713.933	1070.94
714.125	1067.84
714.316	1061.44
714.508	1121.31
714.7	1159.67
714.891	1106.39
715.083	1189.51
715.274	1131.39
715.466	1131.77
715.657	1160.45
715.849	1086.83
716.04	1128.48
716.232	1069.58
716.423	1165.68
716.615	1093.02
716.806	1055.24
716.998	1092.06
717.189	1051.37
717.381	1000.41
717.572	988.4
717.763	1009.13
717.955	983.95
718.146	988.6
718.337	943.84
718.528	932.21
718.72	913.03
718.911	952.56
719.102	952.56
719.293	973.1
719.485	947.52
719.676	952.75
719.867	941.32
720.058	947.13
720.249	945
720.44	954.3
720.632	1007.39
720.823	1024.44
721.014	1143.59
721.205	1116.08
721.396	1123.25
721.587	1237.56
721.778	1237.95
721.969	1256.74
722.16	1333.66
722.351	1272.43
722.542	1413.48
722.733	1375.9
722.924	1324.94
723.115	1379
723.305	1392.56
723.496	1372.21
723.687	1309.05
723.878	1334.82
724.069	1299.37
724.26	1372.21
724.45	1309.05
724.641	1290.65
724.832	1349.55
725.023	1304.4
725.213	1326.3
725.404	1301.11
725.595	1319.9
725.785	1280.96
725.976	1387.52
726.167	1325.91
726.357	1376.09
726.548	1498.15
726.739	1389.46
726.929	1425.3
727.12	1444.09
727.31	1485.36
727.501	1411.35
727.691	1437.31
727.882	1473.93
728.072	1481.1
728.263	1500.86
728.453	1530.7
728.644	1525.08
728.834	1492.53
729.024	1529.73
729.215	1495.05
729.405	1541.55
729.596	1620.21
729.786	1606.65
729.976	1612.07
730.167	1627.96
730.357	1592.12
730.547	1592.51
730.737	1651.4
730.928	1654.7
731.118	1726
731.308	1657.99
731.498	1698.68
731.688	1744.21
731.879	1757.58
732.069	1825.78
732.259	1782.57
732.449	1841.47
732.639	1909.48
732.829	1910.64
733.019	1961.79
733.209	2013.71
733.399	2046.65
733.589	2064.47
733.779	2051.3
733.969	2057.69
734.159	2117.75
734.349	2152.63
734.539	2183.05
734.729	2184.98
734.919	2214.05
735.109	2241.95
735.299	2219.86
735.488	2271.59
735.678	2261.71
735.868	2263.84
736.058	2304.14
736.248	2277.01
736.437	2217.34
736.627	2218.7
736.817	2309.56
737.007	2292.32
737.196	2343.47
737.386	2296.78
737.576	2269.65
737.765	2418.06
737.955	2342.89
738.144	2417.87
738.334	2401.98
738.524	2368.27
738.713	2411.67
738.903	2382.22
739.092	2420.19
739.282	2429.3
739.471	2422.71
739.661	2441.51
739.85	2487.81
740.04	2476.38
740.229	2536.64
740.419	2530.63
740.608	2546.71
740.797	2537.22
740.987	2582.36
741.176	2606.58
741.365	2546.32
741.555	2515.32
741.744	2613.94
741.933	2569.77
742.123	2652.11
742.312	2643.39
742.501	2646.49
742.69	2691.05
742.88	2667.22
743.069	2741.23
743.258	2667.61
743.447	2717.01
743.636	2696.86
743.825	2680.4
744.014	2738.52
744.204	2735.61
744.393	2676.71
744.582	2761.19
744.771	2804.59
744.96	2741.43
745.149	2744.91
745.338	2731.35
745.527	2722.05
745.716	2738.13
745.905	2752.47
746.094	2765.45
746.283	2804.01
746.471	2769.91
746.66	2835.39
746.849	2803.43
747.038	2838.69
747.227	2796.45
747.416	2855.74
747.604	2793.74
747.793	2804.59
747.982	2814.86
748.171	2829.39
748.359	2865.62
748.548	2840.24
748.737	2844.5
748.926	2835.01
749.114	2722.63
749.303	2821.83
749.491	2832.68
749.68	2762.54
749.869	2854.57
750.057	2827.45
750.246	2803.23
750.434	2820.28
750.623	2828.81
750.811	2793.74
751	2838.69
751.188	2795.29
751.377	2814.28
751.565	2809.43
751.754	2778.04
751.942	2771.07
752.131	2827.84
752.319	2753.63
752.507	2756.54
752.696	2829.39
752.884	2833.84
753.072	2755.18
753.261	2823.96
753.449	2816.21
753.637	2782.69
753.825	2879.96
754.014	2793.74
754.202	2836.36
754.39	2843.14
754.578	2867.36
754.766	2798
754.955	2771.65
755.143	2868.91
755.331	2765.06
755.519	2780.76
755.707	2808.08
755.895	2773.2
756.083	2828.61
756.271	2730.96
756.459	2749.76
756.647	2839.08
756.835	2756.34
757.023	2744.33
757.211	2752.66
757.399	2732.32
757.587	2710.81
757.775	2714.5
757.963	2749.18
758.151	2733.48
758.339	2683.69
758.526	2713.72
758.714	2728.83
758.902	2631.96
759.09	2557.37
759.278	2415.35
759.465	2233.61
759.653	1865.3
759.841	1698.1
760.028	1467.15
760.216	1283.67
760.404	1202.49
760.591	968.64
760.779	794.85
760.967	745.44
761.154	603.43
761.342	653.41
761.529	652.25
761.717	708.24
761.905	663.29
762.092	721.81
762.28	648.57
762.467	667.17
762.655	605.94
762.842	626.29
763.029	667.56
763.217	639.66
763.404	661.94
763.592	663.49
763.779	622.03
763.966	637.14
764.154	693.32
764.341	735.95
764.528	768.89
764.716	784.58
764.903	886.1
765.09	896.95
765.277	949.65
765.465	1071.52
765.652	1127.9
765.839	1194.16
766.026	1316.22
766.213	1333.66
766.4	1422.98
766.588	1616.72
766.775	1558.6
766.962	1689.77
767.149	1745.76
767.336	1870.15
767.523	1819.38
767.71	1931.95
767.897	2027.66
768.084	2110
768.271	2113.88
768.458	2188.28
768.645	2248.73
768.832	2200.48
769.019	2226.83
769.206	2240.78
769.392	2349.86
769.579	2445.77
769.766	2368.08
769.953	2390.55
770.14	2419.03
770.327	2423.87
770.513	2451.19
770.7	2527.92
770.887	2438.41
771.073	2509.7
771.26	2507.96
771.447	2445.96
771.634	2420.97
771.82	2537.6
772.007	2436.86
772.193	2479.67
772.38	2488.01
772.567	2484.13
772.753	2454.1
772.94	2510.09
773.126	2566.67
773.313	2530.24
773.499	2523.27
773.686	2521.91
773.872	2509.32
774.059	2500.6
774.245	2465.34
774.432	2478.12
774.618	2406.24
774.804	2466.11
774.991	2431.04
775.177	2467.66
775.363	2451.97
775.55	2486.84
775.736	2426.97
775.922	2431.82
776.109	2473.67
776.295	2443.44
776.481	2471.15
776.667	2489.36
776.853	2395.98
777.04	2417.29
777.226	2433.17
777.412	2491.49
777.598	2395.2
777.784	2400.04
777.97	2392.49
778.156	2411.67
778.342	2421.94
778.528	2398.49
778.715	2310.15
778.901	2354.13
779.087	2405.08
779.272	2353.93
779.458	2329.13
779.644	2366.14
779.83	2336.69
780.016	2451.77
780.202	2370.01
780.388	2319.83
780.574	2300.07
780.76	2321.38
780.946	2338.43
781.131	2334.36
781.317	2307.63
781.503	2320.61
781.689	2335.91
781.874	2408.18
782.06	2297.75
782.246	2301.62
782.432	2315.96
782.617	2312.08
782.803	2336.69
782.989	2233.23
783.174	2300.65
783.36	2216.18
783.545	2244.66
783.731	2248.53
783.916	2146.62
784.102	2280.7
784.288	2238.65
784.473	2233.03
784.659	2217.53
784.844	2275.66
785.029	2216.95
785.215	2207.07
785.4	2164.45
785.586	2232.06
785.771	2156.12
785.956	2223.73
786.142	2168.13
786.327	2155.15
786.512	2204.55
786.698	2178.59
786.883	2112.52
787.068	2140.81
787.254	2141.58
787.439	2124.73
787.624	2138.49
787.809	2083.85
787.994	2082.3
788.18	2158.83
788.365	2072.22
788.55	2046.46
788.735	2093.34
788.92	2081.52
789.105	2065.64
789.29	2084.43
789.475	2026.69
789.66	2030.18
789.845	2036.57
790.03	2029.41
790.215	2097.99
790.4	2043.55
790.585	2098.96
790.77	2006.93
790.955	1970.89
791.14	2000.92
791.325	2083.46
791.51	1889.33
791.695	2000.73
791.879	2011.97
792.064	1958.3
792.249	2060.99
792.434	2001.51
792.618	2015.26
792.803	2003.83
792.988	1992.59
793.173	1976.12
793.357	2023.98
793.542	1943.58
793.727	1976.51
793.911	2034.25
794.096	1991.43
794.281	2034.83
794.465	2093.73
794.65	2027.27
794.834	2056.14
795.019	2062.15
795.203	2101.48
795.388	2075.71
795.572	2106.71
795.757	2014.49
795.941	2058.66
796.126	2055.37
796.31	1978.06
796.494	2015.46
796.679	1985.23
796.863	1986.59
797.048	2056.53
797.232	2052.27
797.416	2049.17
797.601	2043.55
797.785	2119.69
797.969	2085.79
798.153	2062.54
798.338	2049.75
798.522	2097.8
798.706	2059.44
798.89	2101.48
799.074	2174.13
799.258	2119.11
799.443	2049.75
799.627	2041.81
799.811	2116.01
799.995	2039.87
800.179	2050.52
800.363	2077.84
800.547	2046.65
800.731	2088.3
800.915	1984.84
801.099	1981.74
801.283	2034.06
801.467	2045.1
801.651	2057.11
801.835	2085.2
802.019	2061.76
802.202	2069.32
802.386	2023.4
802.57	1988.72
802.754	2025.14
802.938	1994.72
803.121	2017.78
803.305	2069.32
803.489	2024.56
803.673	2033.09
803.856	2030.57
804.04	2020.3
804.224	2052.46
804.407	2022.62
804.591	2026.11
804.775	2014.49
804.958	2031.73
805.142	2122.99
805.326	2048.78
805.509	2059.44
805.693	2062.92
805.876	2114.27
806.06	2061.57
806.243	2054.79
806.427	2082.69
806.61	2113.69
806.794	2053.43
806.977	2111.94
807.16	2030.96
807.344	2082.49
807.527	2053.04
807.71	2049.36
807.894	2084.04
808.077	2077.45
808.26	2018.17
808.444	2026.89
808.627	2067.38
808.81	2026.31
808.993	1975.35
809.177	1967.41
809.36	1995.89
809.543	2029.21
809.726	1901.53
809.909	1941.83
810.092	1895.14
810.276	1951.13
810.459	1925.75
810.642	1940.48
810.825	1897.85
811.008	1901.34
811.191	1806.79
811.374	1851.16
811.557	1829.07
811.74	1899.4
811.923	1804.27
812.106	1793.03
812.289	1766.1
812.472	1739.75
812.654	1779.86
812.837	1742.66
813.02	1698.49
813.203	1714.76
813.386	1589.02
813.569	1574.1
813.751	1550.85
813.934	1578.17
814.117	1546.59
814.3	1528.38
814.482	1478.97
814.665	1468.7
814.848	1419.68
815.03	1412.9
815.213	1398.56
815.396	1387.13
815.578	1357.3
815.761	1319.52
815.943	1383.45
816.126	1267.2
816.309	1283.48
816.491	1244.15
816.674	1160.26
816.856	1252.67
817.039	1237.95
817.221	1300.14
817.403	1268.17
817.586	1242.79
817.768	1288.9
817.951	1203.65
818.133	1192.8
818.315	1213.73
818.498	1283.09
818.68	1304.79
818.862	1302.66
819.045	1295.68
819.227	1286.58
819.409	1229.23
819.591	1307.7
819.774	1302.47
819.956	1239.11
820.138	1328.23
820.32	1340.44
820.502	1331.72
820.684	1424.91
820.866	1403.8
821.048	1450.49
821.231	1428.79
821.413	1465.6
821.595	1434.02
821.777	1466.38
821.959	1448.74
822.141	1486.91
822.323	1390.43
822.505	1346.64
822.686	1282.7
822.868	1238.72
823.05	1128.67
823.232	1126.16
823.414	1075.98
823.596	1123.06
823.778	1112.59
823.96	1143.4
824.141	1137.01
824.323	1160.26
824.505	1244.34
824.687	1260.81
824.868	1337.53
825.05	1398.76
825.232	1385.78
825.413	1427.43
825.595	1413.87
825.777	1351.29
825.958	1399.53
826.14	1408.45
826.321	1409.41
826.503	1361.56
826.685	1438.86
826.866	1456.49
827.048	1400.7
827.229	1405.15
827.411	1340.44
827.592	1318.93
827.773	1305.18
827.955	1291.23
828.136	1297.43
828.318	1271.08
828.499	1277.08
828.68	1230.97
828.862	1291.03
829.043	1307.31
829.224	1261.2
829.406	1225.74
829.587	1269.53
829.768	1249.77
829.949	1254.8
830.131	1278.44
830.312	1292.78
830.493	1279.99
830.674	1298.78
830.855	1242.21
831.036	1264.49
831.218	1303.63
831.399	1300.33
831.58	1270.3
831.761	1296.65
831.942	1287.74
832.123	1301.11
832.304	1230.78
832.485	1250.74
832.666	1284.83
832.847	1258.1
833.028	1276.12
833.209	1273.4
833.389	1246.47
833.57	1201.91
833.751	1252.67
833.932	1279.6
834.113	1241.63
834.294	1236.98
834.475	1298.2
834.655	1341.8
834.836	1312.73
835.017	1326.49
835.198	1256.55
835.378	1264.88
835.559	1349.74
835.74	1315.64
835.92	1274.37
836.101	1250.74
836.281	1323.39
836.462	1348.77
836.643	1343.54
836.823	1363.5
837.004	1351.1
837.184	1361.95
837.365	1348.19
837.545	1337.92
837.726	1332.11
837.906	1369.31
838.087	1370.08
838.267	1339.08
838.448	1302.85
838.628	1322.42
838.808	1333.27
838.989	1410.58
839.169	1291.23
839.349	1344.12
839.53	1364.85
839.71	1349.55
839.89	1331.72
840.07	1393.33
840.251	1323.39
840.431	1348.58
840.611	1376.28
840.791	1314.28
840.971	1330.75
841.151	1335.6
841.332	1304.98
841.512	1366.79
841.692	1287.74
841.872	1332.5
842.052	1274.18
842.232	1347.03
842.412	1267.01
842.592	1300.14
842.772	1311.38
842.952	1314.09
843.132	1310.02
843.312	1283.09
843.492	1283.87
843.672	1335.21
843.851	1251.7
844.031	1294.91
844.211	1317.77
844.391	1239.11
844.571	1299.37
844.751	1298.4
844.93	1298.98
845.11	1292.39
845.29	1297.82
845.47	1336.57
845.649	1275.92
845.829	1328.43
846.009	1297.82
846.188	1296.65
846.368	1262.94
846.547	1295.88
846.727	1312.15
846.907	1260.42
847.086	1268.17
847.266	1310.99
847.445	1313.32
847.625	1251.32
847.804	1267.98
847.984	1278.25
848.163	1255.97
848.343	1269.33
848.522	1275.53
848.701	1255.19
848.881	1213.54
849.06	1269.92
849.239	1245.7
849.419	1271.47
849.598	1205.79
849.777	1208.3
849.957	1193.58
850.136	1125.19
850.315	1155.99
850.494	1152.89
850.674	1147.47
850.853	1202.69
851.032	1180.6
851.211	1210.63
851.39	1178.27
851.569	1126.35
851.748	1181.95
851.927	1198.04
852.107	1188.93
852.286	1118.6
852.465	1130.03
852.644	1205.59
852.823	1199.39
853.002	1162
853.181	1190.67
853.359	1199.59
853.538	1104.26
853.717	1172.85
853.896	1096.32
854.075	1056.41
854.254	1026.96
854.433	967.67
854.611	1025.99
854.79	982.59
854.969	1043.43
855.148	1082.37
855.327	1009.52
855.505	1037.81
855.684	1031.99
855.863	1067.26
856.041	1024.83
856.22	1091.48
856.399	1052.34
856.577	1132.36
856.756	1084.11
856.934	1190.29
857.113	1222.45
857.291	1146.5
857.47	1107.17
857.648	1140.88
857.827	1125.57
858.005	1170.52
858.184	1078.69
858.362	1193.19
858.541	1130.22
858.719	1120.92
858.898	1100.77
859.076	1104.65
859.254	1160.06
859.433	1119.76
859.611	1094.77
859.789	1058.34
859.967	1146.89
860.146	1155.02
860.324	1047.69
860.502	1054.66
860.68	1067.26
860.859	1076.94
861.037	1077.14
861.215	1096.71
861.393	1067.84
861.571	1088.76
861.749	1053.31
861.927	1084.11
862.105	1058.15
862.283	1080.63
862.461	1035.48
862.639	1033.93
862.817	1056.99
862.995	1076.56
863.173	1036.26
863.351	1041.68
863.529	1092.25
863.707	1118.21
863.885	1034.32
864.063	995.38
864.241	1051.18
864.418	1082.76
864.596	1036.84
864.774	985.3
864.952	1025.02
865.129	1045.17
865.307	976
865.485	935.9
865.663	1041.29
865.84	941.32
866.018	986.66
866.196	897.34
866.373	896.95
866.551	905.87
866.728	825.07
866.906	881.65
867.084	916.52
867.261	931.83
867.439	939.96
867.616	970.58
867.794	928.92
867.971	977.75
868.149	948.3
868.326	992.86
868.503	994.8
868.681	952.17
868.858	966.12
869.035	918.65
869.213	947.91
869.39	952.56
869.567	1001.77
869.745	951.2
869.922	942.1
870.099	963.6
870.276	1003.9
870.454	958.18
870.631	966.31
870.808	929.5
870.985	991.11
871.162	1019.4
871.339	960.11
871.517	923.69
871.694	909.74
871.871	938.03
872.048	919.04
872.225	944.42
872.402	952.56
872.579	884.36
872.756	950.62
872.933	931.83
873.11	905.28
873.287	921.17
873.463	890.75
873.64	877.19
873.817	911.87
873.994	888.43
874.171	900.63
874.348	915.94
874.524	836.31
874.701	909.16
874.878	877.38
875.055	918.07
875.231	887.07
875.408	894.43
875.585	862.27
875.762	896.37
875.938	881.65
876.115	872.15
876.291	874.09
876.468	850.45
876.645	803.37
876.821	861.3
876.998	856.85
877.174	885.91
877.351	864.98
877.527	817.9
877.704	870.02
877.88	876.22
878.057	848.9
878.233	881.45
878.409	820.62
878.586	836.31
878.762	838.05
878.938	797.56
879.115	784.39
879.291	843.67
879.467	800.27
879.644	804.54
879.82	838.63
879.996	790
880.172	767.92
880.349	805.89
880.525	829.14
880.701	787.87
880.877	781.09
881.053	828.17
881.229	816.74
881.405	836.89
881.581	783.61
881.757	775.09
881.933	824.69
882.109	856.27
882.285	803.18
882.461	779.15
882.637	800.27
882.813	783.42
882.989	796.01
883.165	838.05
883.341	779.74
883.517	832.43
883.693	827.4
883.869	837.67
884.044	771.79
884.22	831.08
884.396	833.6
884.572	805.5
884.747	808.8
884.923	808.22
885.099	808.99
885.275	859.17
885.45	761.91
885.626	806.67
885.801	767.92
885.977	788.07
886.153	737.31
886.328	774.5
886.504	783.42
886.679	801.44
886.855	772.18
887.03	797.75
887.206	804.34
887.381	813.45
887.557	798.92
887.732	811.32
887.908	841.93
888.083	854.33
888.258	806.67
888.434	787.1
888.609	798.14
888.784	799.69
888.96	772.37
889.135	767.34
889.31	744.67
889.485	814.22
889.661	788.07
889.836	848.9
890.011	820.42
890.186	801.44
890.361	794.07
890.537	793.49
890.712	801.82
890.887	806.86
891.062	802.4
891.237	836.12
891.412	752.61
891.587	795.24
891.762	825.65
891.937	858.4
892.112	751.84
892.287	778.38
892.462	731.3
892.637	723.55
892.812	721.22
892.987	731.11
893.161	708.05
893.336	718.9
893.511	730.72
893.686	728.2
893.861	696.81
894.035	723.74
894.21	742.73
894.385	667.17
894.56	723.16
894.734	661.94
894.909	625.13
895.084	635.39
895.258	646.44
895.433	668.33
895.608	650.7
895.782	597.23
895.957	611.18
896.131	611.18
896.306	555.38
896.48	536
896.655	572.62
896.829	512.95
897.004	525.15
897.178	531.74
897.353	512.36
897.527	566.61
897.701	533.29
897.876	492.99
898.05	575.72
898.224	530
898.399	590.83
898.573	521.47
898.747	474.97
898.921	493.18
899.096	401.54
899.27	430.8
899.444	432.35
899.618	446.49
899.792	457.92
899.967	420.53
900.141	494.15
900.315	408.13
900.489	465.67
900.663	469.55
900.837	463.15
901.011	418.01
901.185	495.9
901.359	463.15
901.533	451.53
901.707	475.94
901.881	463.35
902.055	419.17
902.229	444.75
902.403	497.25
902.576	466.25
902.75	477.1
902.924	557.51
903.098	522.83
903.272	541.43
903.446	589.48
903.619	579.01
903.793	560.61
903.967	552.28
904.14	583.08
904.314	600.13
904.488	585.41
904.661	611.95
904.835	601.88
905.009	644.11
905.182	632.49
905.356	594.71
905.529	601.29
905.703	546.27
905.876	558.28
906.05	515.66
906.223	516.43
906.397	458.31
906.57	476.91
906.744	452.5
906.917	473.23
907.09	466.25
907.264	471.48
907.437	428.67
907.61	424.98
907.784	427.12
907.957	454.43
908.13	402.32
908.304	442.81
908.477	425.76
908.65	406.38
908.823	393.21
908.996	474.78
909.17	400.96
909.343	419.56
909.516	423.05
909.689	408.52
909.862	359.69
910.035	390.69
910.208	363.95
910.381	358.14
910.554	479.04
910.727	409.48
910.9	388.56
911.073	380.62
911.246	428.28
911.419	426.92
911.592	419.56
911.765	393.21
911.938	379.26
912.11	395.53
912.283	394.95
912.456	428.47
912.629	420.14
912.802	382.75
912.974	335.67
913.147	334.89
913.32	294.4
913.493	320.75
913.665	348.26
913.838	354.85
914.01	336.83
914.183	381.39
914.356	349.23
914.528	380.81
914.701	425.76
914.873	393.79
915.046	361.82
915.218	319
915.391	269.21
915.563	304.09
915.736	312.8
915.908	377.9
916.081	333.54
916.253	324.82
916.425	352.91
916.598	364.15
916.77	341.29
916.942	348.45
917.115	284.91
917.287	333.54
917.459	308.35
917.632	258.56
917.804	266.11
917.976	354.07
918.148	328.11
918.32	317.65
918.493	340.51
918.665	363.18
918.837	343.03
919.009	401.35
919.181	404.83
919.353	356.2
919.525	355.43
919.697	364.92
919.869	369.77
920.041	437.58
920.213	471.1
920.385	409.29
920.557	369.96
920.729	397.47
920.901	399.41
921.073	395.73
921.244	359.89
921.416	396.89
921.588	393.02
921.76	367.83
921.932	424.98
922.103	362.79
922.275	385.27
922.447	369.96
922.619	318.04
922.79	368.99
922.962	366.47
923.134	371.32
923.305	331.21
923.477	305.06
923.648	310.09
923.82	321.33
923.991	270.18
924.163	280.26
924.335	316.87
924.506	265.53
924.677	359.5
924.849	278.9
925.02	310.87
925.192	333.92
925.363	324.43
925.535	318.04
925.706	313.39
925.877	358.92
926.049	305.83
926.22	325.98
926.391	334.31
926.562	358.53
926.734	290.33
926.905	340.51
927.076	258.75
927.247	304.09
927.419	263.21
927.59	278.9
927.761	277.54
927.932	246.16
928.103	275.41
928.274	219.81
928.445	189.78
928.616	251.97
928.787	236.08
928.958	263.59
929.129	219.22
929.3	241.31
929.471	196.17
929.642	179.89
929.813	126.23
929.984	199.46
930.155	111.11
930.326	171.76
930.496	126.81
930.667	112.08
930.838	154.13
931.009	92.51
931.18	126.23
931.35	121
931.521	122.35
931.692	75.66
931.863	78.76
932.033	106.27
932.204	87.86
932.374	103.36
932.545	43.88
932.716	155.29
932.886	125.06
933.057	36.33
933.227	38.07
933.398	114.21
933.568	35.75
933.739	27.8
933.909	34
934.08	76.63
934.25	-7.46
934.421	1.07
934.591	56.48
934.761	24.7
934.932	6.88
935.102	31.29
935.272	7.85
935.443	29.74
935.613	27.22
935.783	63.06
935.953	-6.68
936.123	172.34
936.294	3.58
936.464	29.55
936.634	40.78
936.804	0.68
936.974	4.94
937.144	30.71
937.314	35.55
937.484	0.68
937.655	3.97
937.825	32.07
937.995	21.02
938.165	57.45
938.334	31.48
938.504	46.98
938.674	13.66
938.844	45.43
939.014	81.66
939.184	81.86
939.354	128.94
939.524	97.55
939.694	91.16
939.863	51.44
940.033	94.84
940.203	137.08
940.373	86.7
940.542	97.55
940.712	70.04
940.882	99.68
941.051	126.03
941.221	90
941.391	86.12
941.56	64.03
941.73	46.79
941.899	155.09
942.069	72.36
942.238	93.87
942.408	55.51
942.577	95.03
942.747	56.09
942.916	15.98
943.086	56.09
943.255	119.06
943.425	88.83
943.594	45.82
943.763	-12.69
943.933	21.6
944.102	1.65
944.271	38.85
944.441	66.75
944.61	17.34
944.779	67.33
944.948	153.35
945.117	17.15
945.287	51.25
945.456	-2.03
945.625	24.12
945.794	48.73
945.963	11.53
946.132	55.12
946.301	22.38
946.47	42.14
946.639	7.46
946.808	37.49
946.977	68.88
947.146	101.62
947.315	58.03
947.484	70.23
947.653	35.94
947.822	37.3
947.991	64.03
948.16	111.5
948.329	83.21
948.498	54.54
948.666	34.78
948.835	85.15
949.004	8.04
949.173	28.77
949.341	69.07
949.51	66.16
949.679	93.1
949.847	69.85
950.016	113.63
950.185	108.21
950.353	58.22
950.522	21.02
950.69	92.71
950.859	32.65
951.028	100.07
951.196	58.8
951.365	53.76
951.533	54.15
951.701	94.26
951.87	64.03
952.038	34.78
952.207	48.73
952.375	102.01
952.543	53.18
952.712	55.51
952.88	34
953.048	99.49
953.217	72.56
953.385	41.17
953.553	101.23
953.721	37.88
953.89	69.85
954.058	7.46
954.226	32.65
954.394	34.2
954.562	10.17
954.73	36.52
954.898	47.18
955.067	76.63
955.235	46.4
955.403	75.46
955.571	107.24
955.739	72.95
955.907	8.04
956.075	32.26
956.243	27.03
956.41	78.56
956.578	3
956.746	19.28
956.914	35.36
957.082	77.01
957.25	61.9
957.418	53.38
957.585	69.07
957.753	76.82
957.921	28.97
958.089	59
958.256	49.7
958.424	58.61
958.592	68.49
958.759	34.39
958.927	85.15
959.095	40.4
959.262	31.1
959.43	58.41
959.597	22.18
959.765	59.58
959.932	24.7
960.1	82.63
960.267	41.75
960.435	69.07
960.602	73.91
960.77	45.43
960.937	29.93
961.104	73.53
961.272	3.39
961.439	33.62
961.606	55.9
961.774	76.43
961.941	86.51
962.108	80.5
962.275	87.48
962.443	74.3
962.61	77.79
962.777	114.21
962.944	90.58
963.111	71.01
963.278	63.26
963.446	65.78
963.613	87.28
963.78	73.33
963.947	79.92
964.114	84.76
964.281	151.03
964.448	105.69
964.615	55.51
964.782	90.38
964.949	113.44
965.116	98.71
965.282	115.38
965.449	65.78
965.616	55.31
965.783	72.36
965.95	67.71
966.117	20.05
966.283	54.35
966.45	82.25
966.617	79.92
966.784	91.35
966.95	84.38
967.117	99.68
967.284	53.18
967.45	65.58
967.617	124.29
967.784	89.41
967.95	104.91
968.117	77.4
968.283	123.13
968.45	194.81
968.616	84.57
968.783	125.84
968.949	116.54
969.116	121
969.282	82.63
969.449	86.9
969.615	98.52
969.781	61.32
969.948	89.03
970.114	39.04
970.28	131.65
970.447	114.21
970.613	119.25
970.779	78.76
970.945	79.34
971.112	100.65
971.278	75.08
971.444	82.44
971.61	114.6
971.776	92.32
971.942	97.75
972.108	94.65
972.275	98.33
972.441	102.4
972.607	143.86
972.773	66.36
972.939	106.46
973.105	85.93
973.271	41.95
973.437	64.42
973.602	84.38
973.768	96.78
973.934	73.91
974.1	98.13
974.266	11.33
974.432	111.89
974.598	59.77
974.763	73.72
974.929	50.66
975.095	116.35
975.261	53.96
975.426	51.83
975.592	53.76
975.758	138.24
975.923	22.38
976.089	66.75
976.255	112.86
976.42	99.49
976.586	87.86
976.751	67.33
976.917	160.52
977.082	89.03
977.248	36.52
977.413	36.33
977.579	68.1
977.744	106.85
977.91	19.28
978.075	53.57
978.24	94.65
978.406	71.4
978.571	63.26
978.736	50.86
978.902	77.98
979.067	55.51
979.232	21.99
979.397	100.26
979.563	118.67
979.728	65
979.893	106.85
980.058	30.71
980.223	95.23
980.388	63.84
980.554	64.23
980.719	59.38
980.884	67.71
981.049	101.81
981.214	35.75
981.379	77.79
981.544	48.92
981.709	77.4
981.874	81.28
982.039	62.68
982.204	94.65
982.368	62.87
982.533	58.61
982.698	112.47
982.863	104.53
983.028	60.74
983.193	72.17
983.357	51.63
983.522	77.21
983.687	54.73
983.852	71.4
984.016	39.23
984.181	77.79
984.346	72.75
984.51	111.7
984.675	56.67
984.839	102.78
985.004	86.51
985.168	85.15
985.333	75.85
985.498	76.05
985.662	118.09
985.827	102.2
985.991	82.83
986.155	51.05
986.32	101.62
986.484	146.38
986.649	77.79
986.813	24.9
986.977	85.15
987.142	99.49
987.306	55.9
987.47	34.2
987.634	46.21
987.799	58.41
987.963	81.28
988.127	112.08
988.291	116.15
988.455	54.93
988.62	86.12
988.784	83.6
988.948	77.4
989.112	69.85
989.276	64.42
989.44	59.38
989.604	59.58
989.768	37.3
989.932	133.59
990.096	60.16
990.26	46.6
990.424	27.22
990.588	75.66
990.752	130.68
990.915	113.25
991.079	62.29
991.243	61.9
991.407	106.46
991.571	59.19
991.734	81.86
991.898	110.53
992.062	136.11
992.226	92.71
992.389	41.95
992.553	31.48
992.717	3.58
992.88	65
993.044	78.95
993.207	62.29
993.371	81.86
993.535	81.28
993.698	64.61
993.862	73.33
994.025	103.36
994.189	93.1
994.352	69.85
994.515	91.55
994.679	86.31
994.842	50.28
995.006	96.39
995.169	38.85
995.332	35.55
995.496	82.83
995.659	-10.17
995.822	39.62
995.985	57.83
996.149	98.52
996.312	62.1
996.475	118.09
996.638	57.64
996.801	117.7
996.964	99.49
997.128	81.47
997.291	48.15
997.454	79.15
997.617	33.03
997.78	100.65
997.943	29.16
998.106	99.1
998.269	28.97
998.432	38.65
998.595	67.33
998.758	32.84
998.92	41.95
999.083	-9.59
999.246	51.05
999.409	26.25
999.572	-2.81
999.735	46.01
999.897	34.2
1000.06	37.1
1000.223	61.9
1000.386	73.91
1000.548	70.23
1000.711	77.4
1000.874	74.69
1001.036	9.59
1001.199	88.06
1001.361	51.05
1001.524	57.06
1001.687	91.35
1001.849	60.93
1002.012	60.35
1002.174	56.67
1002.337	93.1
1002.499	20.05
1002.661	96.39
1002.824	9.01
1002.986	37.1
1003.149	67.71
1003.311	14.82
1003.473	96
1003.636	47.76
1003.798	57.06
1003.96	58.03
1004.123	38.27
1004.285	33.42
1004.447	10.95
1004.609	46.79
1004.771	80.89
1004.933	0.87
1005.096	26.64
1005.258	-2.81
1005.42	10.75
1005.582	67.71
1005.744	55.31
1005.906	-24.32
1006.068	50.47
1006.23	15.02
1006.392	-6.1
1006.554	4.75
1006.716	122.55
1006.878	49.7
1007.04	-11.14
1007.202	29.35
1007.363	48.15
1007.525	60.16
1007.687	40.59
1007.849	64.81
1008.011	-3.58
1008.172	6.3
1008.334	32.07
1008.496	46.21
1008.658	-9.2
1008.819	22.57
1008.981	13.85
1009.143	7.07
1009.304	32.26
1009.466	72.36
1009.627	79.73
1009.789	127.97
1009.95	33.81
1010.112	15.6
1010.273	56.48
1010.435	18.31
1010.596	15.6
1010.758	41.75
1010.919	28.38
1011.081	7.46
1011.242	40.4
1011.403	76.43
1011.565	44.08
1011.726	39.43
1011.887	5.72
1012.049	6.49
1012.21	65.2
1012.371	101.81
1012.532	-50.47
1012.693	40.78
1012.855	-1.07
1013.016	22.96
1013.177	55.7
1013.338	15.21
1013.499	73.14
1013.66	51.05
1013.821	82.05
1013.982	52.02
1014.143	14.82
1014.304	8.23
1014.465	42.72
1014.626	43.11
1014.787	-7.46
1014.948	108.6
1015.109	-41.17
1015.27	66.16
1015.431	21.6
1015.592	13.66
1015.752	70.04
1015.913	50.47
1016.074	24.12
1016.235	32.65
1016.395	8.04
1016.556	12.69
1016.717	22.77
1016.877	59
1017.038	8.43
1017.199	29.55
1017.359	27.8
1017.52	37.1
1017.681	16.95
1017.841	-1.65
1018.002	39.62
1018.162	11.33
1018.323	39.04
1018.483	31.87
1018.644	1.45
1018.804	-12.3
1018.964	-5.52
1019.125	-1.65
1019.285	21.8
1019.446	-8.23
1019.606	-9.98
1019.766	-21.8
1019.926	43.3
1020.087	51.05
1020.247	8.04
1020.407	35.94
1020.567	56.28
1020.728	19.67
1020.888	-11.33
1021.048	3.97
1021.208	-14.82
1021.368	1.26
1021.528	66.55
1021.688	68.88
1021.848	55.9
1022.008	36.91
1022.168	-0.48
1022.328	6.1
1022.488	28.58
1022.648	14.82
1022.808	12.11
1022.968	21.02
1023.128	4.55
1023.288	7.65
1023.448	-6.88
1023.608	30.13
1023.767	33.42
1023.927	-3
1024.087	-6.3
1024.247	-19.28
1024.406	2.81
1024.566	-6.49
1024.726	6.68
1024.885	15.4
1025.045	50.66
1025.205	21.41
1025.364	7.07
1025.524	15.79
1025.683	-14.63
1025.843	4.55
1026.003	10.37
1026.162	51.83
1026.321	35.55
1026.481	10.37
1026.64	-3.97
1026.8	36.72
1026.959	16.76
1027.119	21.02
1027.278	3.78
1027.437	18.31
1027.597	-1.07
1027.756	41.17
1027.915	29.55
1028.074	36.72
1028.234	1.26
1028.393	25.48
1028.552	-23.73
1028.711	-45.24
1028.87	43.3
1029.03	-22.38
1029.189	14.43
1029.348	-31.87
1029.507	-2.23
1029.666	-5.13
1029.825	-18.12
1029.984	5.91
1030.143	5.13
1030.302	29.16
1030.461	-40.01
1030.62	23.93
1030.779	21.02
1030.938	3.2
1031.097	-22.77
1031.255	30.9
1031.414	43.5
1031.573	78.95
1031.732	-15.79
1031.891	34.39
1032.049	76.82
1032.208	2.42
1032.367	-4.94
1032.525	11.53
1032.684	-6.1
1032.843	23.73
1033.001	-22.38
1033.16	124.29
1033.319	35.55
1033.477	36.52
1033.636	16.57
1033.794	-27.8
1033.953	52.21
1034.111	12.69
1034.27	7.85
1034.428	11.53
1034.587	-50.08
1034.745	37.88
1034.903	11.33
1035.062	31.29
1035.22	-8.62
1035.378	42.53
1035.537	-24.51
1035.695	12.5
1035.853	-0.87
1036.011	58.41
1036.17	45.82
1036.328	-53.76
1036.486	3.39
1036.644	22.77
1036.802	-70.23
1036.96	12.5
1037.119	-6.88
1037.277	-2.42
1037.435	-33.42
1037.593	-23.15
1037.751	14.82
1037.909	34.97
1038.067	34.97
