Data from oakcork_FLMT105791__279__17-34-25-052.txt Node

Date: Mon Mar 20 17:34:25 GMT 2023
User: antho
Spectrometer: FLMT10579
Trigger mode: 0
Integration Time (sec): 1.000000E-1
Scans to average: 10
Electric dark correction enabled: true
Nonlinearity correction enabled: false
Boxcar width: 0
XAxis mode: Wavelengths
Number of Pixels in Spectrum: 3648
>>>>>Begin Spectral Data<<<<<
345.248	-138.14
345.464	-138.14
345.681	-138.14
345.898	-165.46
346.114	-129.42
346.331	-29.06
346.548	22.86
346.764	-20.54
346.981	-14.72
347.197	-3.87
347.414	14.53
347.631	-24.61
347.847	48.63
348.064	26.35
348.28	24.41
348.497	-36.23
348.713	-7.75
348.93	23.44
349.146	7.94
349.363	13.76
349.579	24.22
349.796	20.15
350.012	-8.91
350.229	27.9
350.445	3.29
350.661	-9.11
350.878	7.94
351.094	44.17
351.311	13.37
351.527	22.28
351.743	-6.78
351.96	62.58
352.176	42.24
352.392	11.24
352.609	34.1
352.825	10.85
353.041	16.66
353.257	-23.83
353.474	13.37
353.69	5.42
353.906	42.04
354.122	-4.65
354.339	50.57
354.555	12.79
354.771	8.52
354.987	54.64
355.203	89.12
355.42	-4.26
355.636	5.42
355.852	-26.74
356.068	16.86
356.284	-28.48
356.5	53.09
356.716	31.19
356.932	-19.76
357.148	40.69
357.364	6.59
357.58	41.66
357.796	77.31
358.012	51.92
358.228	28.29
358.444	-33.52
358.66	51.73
358.876	12.01
359.092	-23.64
359.308	-16.27
359.524	67.23
359.74	9.69
359.956	-17.24
360.172	18.41
360.388	52.51
360.604	-6.39
360.819	82.54
361.035	51.54
361.251	27.32
361.467	-3.68
361.683	56.19
361.898	26.16
362.114	21.31
362.33	34.49
362.546	55.8
362.762	22.67
362.977	17.82
363.193	-4.46
363.409	58.9
363.624	7.17
363.84	-15.11
364.056	-1.94
364.271	24.41
364.487	48.24
364.703	14.72
364.918	-28.87
365.134	12.4
365.35	-8.72
365.565	99.2
365.781	33.71
365.996	28.87
366.212	67.42
366.427	9.11
366.643	11.82
366.858	6.2
367.074	-2.52
367.289	51.92
367.505	103.46
367.72	-5.23
367.936	1.94
368.151	35.65
368.367	37.59
368.582	8.14
368.798	4.84
369.013	59.29
369.228	37.59
369.444	20.73
369.659	74.01
369.874	14.34
370.09	75.17
370.305	-10.07
370.52	-0.19
370.736	61.81
370.951	41.66
371.166	65.1
371.381	66.46
371.597	61.03
371.812	-20.73
372.027	20.15
372.242	6.01
372.458	98.23
372.673	6.78
372.888	15.31
373.103	53.47
373.318	111.79
373.533	27.9
373.749	33.52
373.964	-16.47
374.179	92.42
374.394	7.17
374.609	68.78
374.824	-1.55
375.039	47.47
375.254	13.56
375.469	77.11
375.684	25.57
375.899	72.46
376.114	30.42
376.329	42.82
376.544	45.34
376.759	56.96
376.974	-12.21
377.189	11.43
377.404	22.86
377.619	43.59
377.834	-44.17
378.049	0.19
378.264	-2.71
378.478	58.12
378.693	-14.14
378.908	46.11
379.123	37.39
379.338	52.12
379.553	43.01
379.767	30.81
379.982	50.76
380.197	30.42
380.412	14.72
380.626	45.14
380.841	79.82
381.056	25.19
381.271	58.71
381.485	22.86
381.7	4.84
381.915	22.86
382.129	18.41
382.344	42.04
382.559	17.82
382.773	64.32
382.988	3.49
383.202	40.11
383.417	18.02
383.632	87.77
383.846	22.47
384.061	37.01
384.275	21.89
384.49	55.22
384.704	58.51
384.919	44.17
385.133	31.39
385.348	48.44
385.562	0.39
385.777	71.11
385.991	30.03
386.206	10.27
386.42	27.51
386.634	47.27
386.849	27.51
387.063	24.22
387.277	-1.36
387.492	28.29
387.706	3.87
387.92	9.69
388.135	74.01
388.349	45.34
388.563	31.77
388.778	51.73
388.992	70.33
389.206	20.15
389.42	113.92
389.635	37.59
389.849	65.87
390.063	57.93
390.277	41.66
390.491	110.82
390.706	50.76
390.92	80.21
391.134	60.45
391.348	81.76
391.562	-12.4
391.776	55.41
391.99	4.26
392.205	84.67
392.419	10.85
392.633	36.04
392.847	71.88
393.061	6.39
393.275	83.89
393.489	43.79
393.703	37.2
393.917	73.43
394.131	53.09
394.345	76.34
394.559	62.19
394.773	16.27
394.986	55.41
395.2	26.54
395.414	36.04
395.628	-4.26
395.842	22.67
396.056	14.14
396.27	-17.24
396.484	33.91
396.697	18.41
396.911	82.15
397.125	56.38
397.339	96.29
397.553	63.36
397.766	90.67
397.98	78.66
398.194	76.72
398.408	21.7
398.621	60.64
398.835	63.36
399.049	41.66
399.262	86.99
399.476	56.77
399.69	45.14
399.903	120.7
400.117	24.22
400.331	55.61
400.544	12.59
400.758	138.34
400.971	69.36
401.185	64.13
401.398	43.98
401.612	99.2
401.826	85.44
402.039	70.72
402.253	35.26
402.466	91.06
402.68	49.6
402.893	81.76
403.106	72.27
403.32	41.46
403.533	82.92
403.747	63.55
403.96	68.39
404.174	96.68
404.387	20.73
404.6	59.09
404.814	80.79
405.027	58.32
405.24	51.34
405.454	45.72
405.667	75.56
405.88	13.76
406.094	48.44
406.307	98.23
406.52	57.54
406.733	32.74
406.947	10.66
407.16	112.37
407.373	101.14
407.586	40.11
407.799	36.42
408.012	88.54
408.226	51.34
408.439	104.62
408.652	42.62
408.865	58.12
409.078	110.05
409.291	93.97
409.504	23.83
409.717	68.78
409.93	72.66
410.143	78.27
410.357	32.94
410.57	37.39
410.783	77.69
410.996	74.4
411.209	59.09
411.421	106.17
411.634	71.11
411.847	48.05
412.06	74.01
412.273	80.02
412.486	83.51
412.699	141.05
412.912	76.14
413.125	97.07
413.338	62
413.55	108.5
413.763	104.82
413.976	70.52
414.189	18.99
414.402	71.69
414.615	118.77
414.827	46.5
415.04	112.76
415.253	92.8
415.466	84.47
415.678	130.78
415.891	97.07
416.104	89.12
416.316	51.92
416.529	67.04
416.742	113.73
416.954	112.95
417.167	94.55
417.38	73.82
417.592	130
417.805	57.93
418.017	24.99
418.23	91.06
418.442	54.06
418.655	54.44
418.868	84.28
419.08	113.54
419.293	101.91
419.505	105.59
419.718	68.39
419.93	109.47
420.142	76.14
420.355	124.39
420.567	116.05
420.78	86.61
420.992	84.47
421.205	142.6
421.417	43.79
421.629	68.59
421.842	50.57
422.054	7.17
422.266	112.18
422.479	113.92
422.691	64.52
422.903	94.55
423.115	40.11
423.328	68.78
423.54	108.89
423.752	66.65
423.964	38.75
424.177	88.93
424.389	80.21
424.601	184.45
424.813	93.19
425.025	113.92
425.238	99.39
425.45	86.99
425.662	83.51
425.874	335.96
426.086	109.27
426.298	102.88
426.51	89.51
426.722	87.57
426.934	68.59
427.146	110.44
427.358	50.96
427.57	110.82
427.782	60.45
427.994	87.77
428.206	59.87
428.418	46.89
428.63	96.87
428.842	107.34
429.054	116.05
429.266	111.79
429.478	60.26
429.69	97.07
429.902	56.57
430.114	100.55
430.325	93.39
430.537	70.52
430.749	63.55
430.961	43.21
431.173	79.24
431.384	105.98
431.596	19.76
431.808	76.14
432.02	84.09
432.231	107.92
432.443	136.2
432.655	78.47
432.867	68.2
433.078	119.54
433.29	163.52
433.502	117.41
433.713	120.51
433.925	99.2
434.136	124.39
434.348	85.06
434.56	70.14
434.771	190.84
434.983	37.97
435.194	64.52
435.406	75.95
435.617	124.39
435.829	149.57
436.04	129.42
436.252	108.5
436.463	145.89
436.675	137.56
436.886	99.97
437.098	112.95
437.309	163.14
437.521	79.82
437.732	112.95
437.943	120.9
438.155	92.42
438.366	47.27
438.578	154.42
438.789	90.09
439	121.67
439.211	94.74
439.423	102.69
439.634	136.01
439.845	127.87
440.057	112.76
440.268	155.97
440.479	79.44
440.69	112.18
440.902	90.48
441.113	130.97
441.324	112.57
441.535	133.88
441.746	173.4
441.957	86.99
442.168	115.28
442.38	145.89
442.591	154.42
442.802	108.5
443.013	104.24
443.224	126.71
443.435	114.5
443.646	114.89
443.857	111.79
444.068	106.17
444.279	84.67
444.49	179.41
444.701	109.08
444.912	213.51
445.123	158.68
445.334	148.41
445.545	122.25
445.756	126.9
445.967	84.28
446.178	143.95
446.388	163.52
446.599	155.58
446.81	134.65
447.021	126.9
447.232	165.27
447.443	186.77
447.653	104.24
447.864	154.61
448.075	129.81
448.286	163.91
448.496	138.34
448.707	158.49
448.918	102.1
449.129	241.02
449.339	109.27
449.55	140.27
449.761	143.37
449.971	173.21
450.182	141.82
450.393	166.43
450.603	125.55
450.814	166.82
451.024	142.6
451.235	146.28
451.446	191.23
451.656	181.73
451.867	110.63
452.077	142.99
452.288	206.53
452.498	210.02
452.709	142.02
452.919	158.68
453.13	147.44
453.34	179.22
453.55	115.86
453.761	193.94
453.971	173.79
454.182	177.47
454.392	178.05
454.602	202.85
454.813	165.65
455.023	198.78
455.233	136.98
455.444	140.66
455.654	103.07
455.864	158.1
456.075	158.29
456.285	150.54
456.495	150.54
456.705	161.59
456.916	195.88
457.126	213.12
457.336	156.55
457.546	85.25
457.756	137.56
457.967	181.93
458.177	147.64
458.387	188.52
458.597	130.39
458.807	134.65
459.017	151.32
459.227	137.75
459.437	160.42
459.647	184.45
459.857	174.18
460.068	137.95
460.278	180.38
460.488	163.52
460.698	240.25
460.908	167.79
461.117	105.79
461.327	128.65
461.537	181.15
461.747	158.1
461.957	140.47
462.167	247.61
462.377	191.62
462.587	177.08
462.797	171.85
463.007	153.45
463.216	198.59
463.426	226.68
463.636	211.38
463.846	142.79
464.056	142.21
464.265	221.26
464.475	127.68
464.685	159.84
464.895	188.32
465.104	186
465.314	170.69
465.524	145.31
465.733	155.19
465.943	239.67
466.153	222.03
466.362	203.63
466.572	196.46
466.782	173.6
466.991	192.97
467.201	238.7
467.41	127.49
467.62	215.06
467.829	177.86
468.039	216.22
468.249	191.42
468.458	193.17
468.668	217.97
468.877	208.08
469.086	212.15
469.296	212.73
469.505	154.42
469.715	261.17
469.924	205.95
470.134	229.2
470.343	228.23
470.552	179.22
470.762	177.67
470.971	181.93
471.18	190.26
471.39	178.83
471.599	159.65
471.808	235.4
472.018	189.29
472.227	251.29
472.436	224.17
472.645	186.19
472.855	167.59
473.064	244.51
473.273	198.78
473.482	240.44
473.691	253.23
473.901	235.98
474.11	209.25
474.319	286.36
474.528	226.3
474.737	243.54
474.946	219.52
475.155	206.34
475.364	224.55
475.573	194.91
475.783	198.78
475.992	208.67
476.201	277.06
476.41	240.25
476.619	204.02
476.828	239.47
477.037	202.47
477.245	217.58
477.454	246.25
477.663	210.41
477.872	214.67
478.081	285
478.29	184.45
478.499	286.55
478.708	233.66
478.917	293.33
479.125	250.9
479.334	268.53
479.543	211.57
479.752	278.22
479.961	254.39
480.169	277.83
480.378	235.6
480.587	339.64
480.796	292.36
481.004	257.49
481.213	293.91
481.422	282.29
481.63	211.96
481.839	272.21
482.048	291.78
482.256	271.63
482.465	268.15
482.674	297.79
482.882	316
483.091	363.86
483.299	295.27
483.508	294.3
483.716	271.44
483.925	271.05
484.134	280.74
484.342	272.41
484.551	311.16
484.759	289.26
484.967	320.65
485.176	332.28
485.384	315.81
485.593	344.1
485.801	295.46
486.01	272.99
486.218	285.2
486.426	252.84
486.635	302.63
486.843	260.59
487.051	303.41
487.26	269.7
487.468	282.1
487.676	307.09
487.885	281.32
488.093	304.76
488.301	302.63
488.509	315.42
488.717	335.76
488.926	278.22
489.134	314.65
489.342	308.64
489.55	287.91
489.758	301.86
489.967	308.06
490.175	433.22
490.383	290.43
490.591	369.67
490.799	276.09
491.007	363.28
491.215	349.13
491.423	309.22
491.631	314.26
491.839	337.7
492.047	341
492.255	289.46
492.463	274.93
492.671	337.12
492.879	347.58
493.087	342.74
493.295	350.88
493.503	341.96
493.711	372.96
493.919	357.46
494.127	363.28
494.334	380.71
494.542	322.4
494.75	322.59
494.958	342.55
495.166	378
495.374	360.76
495.581	343.9
495.789	348.55
495.997	402.22
496.205	343.71
496.412	353.01
496.62	344.29
496.828	372.96
497.035	353.2
497.243	396.6
497.451	353.59
497.658	386.53
497.866	342.55
498.074	396.79
498.281	331.11
498.489	425.66
498.696	390.4
498.904	350.1
499.112	369.28
499.319	402.03
499.527	371.99
499.734	418.49
499.942	336.73
500.149	307.28
500.357	379.16
500.564	345.84
500.771	396.79
500.979	364.63
501.186	352.62
501.394	356.11
501.601	382.46
501.808	379.16
502.016	367.93
502.223	337.7
502.43	382.46
502.638	405.32
502.845	337.31
503.052	451.04
503.26	358.43
503.467	423.73
503.674	351.84
503.881	411.33
504.089	452.59
504.296	424.89
504.503	346.03
504.71	366.76
504.917	353.01
505.125	402.61
505.332	379.94
505.539	386.33
505.746	442.52
505.953	391.18
506.16	402.41
506.367	442.91
506.574	455.31
506.781	415.78
506.988	380.13
507.195	394.08
507.402	431.48
507.609	440.77
507.816	394.28
508.023	399.7
508.23	389.63
508.437	402.61
508.644	440.19
508.851	459.96
509.058	459.96
509.265	430.89
509.472	441.74
509.679	507.04
509.885	425.66
510.092	419.46
510.299	440
510.506	413.26
510.713	448.33
510.92	421.01
511.126	464.99
511.333	459.96
511.54	462.09
511.746	481.85
511.953	461.12
512.16	497.54
512.367	409.97
512.573	439.22
512.78	434.96
512.987	419.27
513.193	454.92
513.4	402.22
513.606	408.61
513.813	462.86
514.02	451.24
514.226	519.24
514.433	468.48
514.639	416.56
514.846	465.19
515.052	424.5
515.259	423.53
515.465	455.5
515.672	456.86
515.878	538.81
516.085	462.09
516.291	476.62
516.497	427.21
516.704	478.17
516.91	411.91
517.117	408.03
517.323	370.83
517.529	453.17
517.736	440.97
517.942	448.33
518.148	417.33
518.354	450.66
518.561	461.12
518.767	469.64
518.973	491.73
519.179	526.99
519.386	415.78
519.592	448.72
519.798	426.05
520.004	522.15
520.21	439.03
520.417	489.02
520.623	521.37
520.829	524.86
521.035	511.3
521.241	523.89
521.447	518.27
521.653	617.67
521.859	503.55
522.065	513.82
522.271	619.8
522.477	555.47
522.683	550.63
522.889	536.1
523.095	540.36
523.301	530.67
523.507	492.31
523.713	534.55
523.919	527.19
524.125	579.11
524.331	507.23
524.537	592.48
524.742	585.31
524.948	584.73
525.154	586.09
525.36	673.08
525.566	597.13
525.772	622.32
525.977	551.21
526.183	611.85
526.389	623.09
526.595	577.37
526.8	549.85
527.006	543.07
527.212	527.96
527.417	554.31
527.623	514.01
527.829	574.27
528.034	585.7
528.24	601.59
528.446	524.86
528.651	630.65
528.857	602.94
529.062	647.12
529.268	619.02
529.473	618.63
529.679	601.39
529.884	665.33
530.09	612.82
530.295	673.47
530.501	637.04
530.706	632.58
530.912	595
531.117	632
531.323	634.52
531.528	645.57
531.733	654.87
531.939	602.94
532.144	662.03
532.35	641.69
532.555	697.3
532.76	691.87
532.966	703.3
533.171	648.08
533.376	625.8
533.581	601
533.787	670.56
533.992	661.45
534.197	680.25
534.402	632
534.607	648.86
534.813	688.38
535.018	657
535.223	654.28
535.428	676.57
535.633	704.27
535.838	704.66
536.043	670.37
536.249	730.62
536.454	699.43
536.659	702.53
536.864	677.15
537.069	675.79
537.274	700.4
537.479	687.61
537.684	723.65
537.889	656.42
538.094	741.86
538.299	679.47
538.504	720.16
538.708	693.62
538.913	675.79
539.118	687.8
539.323	725.58
539.528	665.72
539.733	685.28
539.938	704.08
540.142	746.51
540.347	689.93
540.552	671.72
540.757	700.4
540.962	666.88
541.166	658.93
541.371	640.33
541.576	689.16
541.781	618.44
541.985	709.31
542.19	704.46
542.395	732.36
542.599	784.48
542.804	735.27
543.008	761.43
543.213	643.63
543.418	649.83
543.622	747.86
543.827	678.12
544.031	798.43
544.236	769.56
544.44	714.15
544.645	770.34
544.849	720.55
545.054	747.09
545.258	784.1
545.463	787
545.667	694.97
545.872	759.68
546.076	748.25
546.281	733.14
546.485	731.4
546.689	753.68
546.894	749.22
547.098	738.37
547.302	709.5
547.507	751.16
547.711	734.3
547.915	778.86
548.119	701.17
548.324	712.41
548.528	772.66
548.732	735.27
548.936	743.02
549.141	782.74
549.345	743.21
549.549	769.76
549.753	751.35
549.957	795.91
550.161	798.63
550.366	708.15
550.57	706.98
550.774	741.66
550.978	762.4
551.182	781.38
551.386	729.65
551.59	725.97
551.794	761.23
551.998	755.03
552.202	740.89
552.406	691.48
552.61	730.62
552.814	747.86
553.018	820.91
553.222	760.85
553.426	732.95
553.63	811.99
553.833	747.09
554.037	698.85
554.241	782.16
554.445	750.38
554.649	719.58
554.853	734.3
555.056	792.81
555.26	782.55
555.464	775.96
555.668	734.88
555.871	796.49
556.075	764.33
556.279	727.13
556.483	728.49
556.686	742.83
556.89	759.68
557.094	739.53
557.297	689.55
557.501	802.69
557.704	681.41
557.908	754.45
558.112	709.7
558.315	794.36
558.519	732.17
558.722	744.18
558.926	705.63
559.129	704.08
559.333	668.82
559.536	675.4
559.74	688.97
559.943	701.75
560.147	670.37
560.35	696.13
560.553	688
560.757	644.21
560.96	787.39
561.164	691.68
561.367	753.87
561.57	689.74
561.774	690.9
561.977	709.31
562.18	678.7
562.384	773.05
562.587	675.21
562.79	655.64
562.993	683.15
563.197	728.3
563.4	756.58
563.603	713.76
563.806	761.43
564.009	652.73
564.212	709.31
564.416	618.63
564.619	691.1
564.822	630.45
565.025	737.4
565.228	683.54
565.431	666.88
565.634	619.6
565.837	643.43
566.04	664.36
566.243	664.75
566.446	572.14
566.649	670.75
566.852	622.9
567.055	637.23
567.258	637.82
567.461	731.01
567.664	720.93
567.867	623.09
568.07	660.87
568.273	681.22
568.475	676.76
568.678	623.87
568.881	620.77
569.084	645.37
569.287	583.57
569.489	611.08
569.692	656.8
569.895	679.47
570.098	594.61
570.3	579.69
570.503	534.35
570.706	574.27
570.909	568.26
571.111	557.6
571.314	553.54
571.516	584.92
571.719	590.74
571.922	578.34
572.124	543.46
572.327	593.06
572.529	541.91
572.732	549.47
572.935	557.6
573.137	635.49
573.34	570.97
573.542	601.2
573.745	565.16
573.947	597.32
574.15	578.92
574.352	535.13
574.554	627.74
574.757	531.84
574.959	581.63
575.162	554.89
575.364	528.54
575.566	620.18
575.769	556.05
575.971	562.84
576.173	470.81
576.376	561.67
576.578	558.19
576.78	587.64
576.982	472.55
577.185	528.93
577.387	492.89
577.589	523.89
577.791	569.23
577.993	559.93
578.196	552.95
578.398	581.44
578.6	594.42
578.802	499.48
579.004	508.01
579.206	508.01
579.408	528.74
579.61	532.22
579.812	555.28
580.014	510.72
580.216	497.74
580.418	514.98
580.62	505.29
580.822	461.12
581.024	507.81
581.226	592.48
581.428	486.89
581.63	574.65
581.832	471.19
582.034	576.59
582.236	546.56
582.438	539.59
582.64	579.11
582.841	580.85
583.043	582.6
583.245	580.66
583.447	538.23
583.649	522.54
583.85	564.58
584.052	573.49
584.254	515.95
584.456	595.97
584.657	499.67
584.859	513.62
585.061	540.36
585.262	496.38
585.464	489.41
585.666	540.36
585.867	480.88
586.069	560.32
586.27	535.32
586.472	531.64
586.674	489.79
586.875	506.46
587.077	507.62
587.278	541.33
587.48	488.82
587.681	599.65
587.883	522.92
588.084	462.86
588.285	511.88
588.487	506.26
588.688	480.3
588.89	458.99
589.091	433.99
589.292	465.19
589.494	447.17
589.695	453.37
589.896	403.38
590.098	412.88
590.299	440
590.5	421.79
590.702	445.04
590.903	460.92
591.104	502.39
591.305	473.91
591.507	501.22
591.708	481.07
591.909	453.37
592.11	547.14
592.311	527.77
592.512	466.74
592.714	428.96
592.915	435.74
593.116	440.77
593.317	450.66
593.518	446.78
593.719	448.91
593.92	513.43
594.121	501.22
594.322	463.83
594.523	494.06
594.724	447.56
594.925	460.34
595.126	454.72
595.327	488.44
595.528	479.14
595.729	497.54
595.929	462.09
596.13	487.66
596.331	451.24
596.532	463.83
596.733	524.28
596.934	487.47
597.135	482.62
597.335	491.73
597.536	432.25
597.737	457.44
597.938	451.04
598.138	479.91
598.339	473.71
598.54	482.43
598.74	459.57
598.941	478.75
599.142	499.09
599.342	485.34
599.543	438.26
599.744	471.19
599.944	447.56
600.145	458.79
600.345	473.71
600.546	516.72
600.746	475.07
600.947	518.08
601.147	481.27
601.348	486.69
601.548	438.26
601.749	470.61
601.949	429.73
602.15	442.32
602.35	441.55
602.551	505.1
602.751	462.09
602.951	438.45
603.152	409.97
603.352	448.91
603.552	450.07
603.753	469.64
603.953	478.56
604.153	471.39
604.354	442.13
604.554	460.54
604.754	449.88
604.954	434.77
605.155	451.24
605.355	455.31
605.555	496.38
605.755	510.14
605.955	468.67
606.155	490.57
606.356	457.82
606.556	472.36
606.756	471
606.956	411.91
607.156	489.21
607.356	440.39
607.556	489.41
607.756	467.12
607.956	494.64
608.156	477.59
608.356	417.72
608.556	488.82
608.756	454.72
608.956	445.62
609.156	437.48
609.356	404.74
609.556	436.9
609.755	451.24
609.955	436.9
610.155	453.17
610.355	450.27
610.555	429.93
610.755	470.61
610.954	397.96
611.154	444.84
611.354	465.38
611.554	399.89
611.753	429.54
611.953	387.69
612.153	452.01
612.352	443.87
612.552	410.74
612.752	401.44
612.951	433.8
613.151	420.24
613.351	392.34
613.55	432.83
613.75	458.6
613.949	436.71
614.149	418.49
614.348	415.2
614.548	424.89
614.747	372.38
614.947	393.11
615.146	348.55
615.346	407.84
615.545	418.11
615.745	437.48
615.944	427.99
616.144	414.23
616.343	447.94
616.542	413.84
616.742	420.63
616.941	415.39
617.14	348.36
617.34	416.36
617.539	415.01
617.738	362.69
617.938	454.92
618.137	424.11
618.336	364.63
618.535	404.35
618.734	394.66
618.934	417.72
619.133	412.88
619.332	405.13
619.531	387.3
619.73	409.97
619.929	445.23
620.128	391.37
620.328	456.27
620.527	372.58
620.726	393.89
620.925	398.73
621.124	408.42
621.323	415.2
621.522	381.88
621.721	360.18
621.92	353.2
622.119	410.94
622.318	363.08
622.517	394.08
622.715	362.89
622.914	345.65
623.113	362.89
623.312	342.35
623.511	383.43
623.71	340.03
623.909	353.39
624.107	400.28
624.306	345.65
624.505	337.51
624.704	339.06
624.902	379.36
625.101	399.89
625.3	374.71
625.499	356.11
625.697	348.55
625.896	349.13
626.095	365.41
626.293	339.25
626.492	351.26
626.69	369.67
626.889	333.25
627.088	366.38
627.286	348.55
627.485	338.28
627.683	367.15
627.882	372.77
628.08	277.64
628.279	314.65
628.477	450.27
628.676	311.55
628.874	385.36
629.073	326.08
629.271	313.29
629.469	376.06
629.668	334.99
629.866	339.64
630.065	338.28
630.263	363.66
630.461	324.14
630.66	345.06
630.858	390.21
631.056	373.74
631.254	384.01
631.453	296.63
631.651	390.59
631.849	369.09
632.047	336.93
632.245	322.01
632.444	382.46
632.642	371.99
632.84	371.41
633.038	334.8
633.236	308.83
633.434	327.82
633.632	306.12
633.83	324.14
634.028	357.08
634.227	325.69
634.425	382.07
634.623	345.84
634.821	379.94
635.019	311.55
635.216	348.75
635.414	376.84
635.612	341.38
635.81	349.13
636.008	376.26
636.206	316.97
636.404	361.73
636.602	299.34
636.8	351.46
636.997	358.43
637.195	349.13
637.393	346.61
637.591	391.18
637.789	357.66
637.986	342.74
638.184	338.28
638.382	387.49
638.58	373.93
638.777	393.69
638.975	326.85
639.173	352.81
639.37	357.85
639.568	339.83
639.765	367.54
639.963	314.06
640.161	393.5
640.358	342.16
640.556	336.54
640.753	312.32
640.951	303.02
641.148	363.66
641.346	339.83
641.543	365.41
641.741	352.62
641.938	323.56
642.136	319.88
642.333	292.36
642.531	361.53
642.728	382.65
642.925	344.1
643.123	328.79
643.32	351.84
643.517	335.18
643.715	351.07
643.912	313.87
644.109	338.48
644.306	332.66
644.504	299.53
644.701	346.81
644.898	355.53
645.095	301.08
645.293	335.38
645.49	357.08
645.687	333.44
645.884	386.91
646.081	267.76
646.278	295.85
646.475	315.81
646.672	299.92
646.87	341.96
647.067	328.79
647.264	312.71
647.461	299.53
647.658	290.62
647.855	337.7
648.052	307.67
648.249	260.59
648.446	296.43
648.642	290.62
648.839	276.09
649.036	272.41
649.233	267.18
649.43	246.64
649.627	273.57
649.824	277.64
650.021	316.58
650.217	275.31
650.414	270.08
650.611	301.66
650.808	292.17
651.004	304.76
651.201	313.29
651.398	331.7
651.595	295.08
651.791	259.62
651.988	329.76
652.185	271.63
652.381	317.55
652.578	237.92
652.775	270.47
652.971	285.78
653.168	284.23
653.364	310.96
653.561	258.46
653.757	279.19
653.954	265.24
654.15	245.09
654.347	339.83
654.543	284.03
654.74	256.13
654.936	241.8
655.133	285.2
655.329	274.73
655.525	259.04
655.722	291.2
655.918	260.59
656.115	305.73
656.311	240.83
656.507	215.45
656.704	212.73
656.9	241.22
657.096	210.99
657.292	259.04
657.489	293.33
657.685	264.66
657.881	211.96
658.077	260.98
658.273	256.33
658.47	310
658.666	268.15
658.862	262.72
659.058	218.93
659.254	285.39
659.45	243.15
659.646	276.48
659.842	264.66
660.038	304.96
660.234	219.32
660.43	277.06
660.626	316.39
660.822	275.12
661.018	274.54
661.214	247.42
661.41	232.88
661.606	287.52
661.802	283.26
661.998	275.12
662.194	252.26
662.39	280.55
662.586	287.91
662.781	283.06
662.977	286.75
663.173	295.66
663.369	274.54
663.564	290.23
663.76	260.4
663.956	251.1
664.152	295.27
664.347	229.4
664.543	231.33
664.739	254.39
664.934	199.17
665.13	231.14
665.326	311.16
665.521	291.2
665.717	245.09
665.912	220.48
666.108	209.25
666.304	226.88
666.499	243.15
666.695	207.5
666.89	230.75
667.086	275.12
667.281	271.44
667.477	300.11
667.672	283.45
667.867	242.38
668.063	260.59
668.258	207.31
668.454	230.37
668.649	310.58
668.844	241.99
669.04	251.87
669.235	231.92
669.43	218.93
669.626	212.35
669.821	254.2
670.016	226.88
670.211	240.83
670.407	227.07
670.602	240.44
670.797	261.56
670.992	263.11
671.187	239.28
671.382	263.88
671.578	241.6
671.773	258.27
671.968	207.7
672.163	257.1
672.358	259.82
672.553	233.66
672.748	221.45
672.943	304.38
673.138	240.63
673.333	238.31
673.528	207.89
673.723	241.41
673.918	205.95
674.113	174.37
674.308	312.71
674.503	271.25
674.698	284.61
674.892	267.18
675.087	282.87
675.282	273.38
675.477	211.77
675.672	248.19
675.867	228.23
676.061	199.75
676.256	203.24
676.451	218.74
676.646	217.58
676.84	235.02
677.035	192.78
677.23	186.19
677.424	271.44
677.619	244.12
677.814	270.66
678.008	248.58
678.203	184.83
678.397	209.25
678.592	263.3
678.787	291.78
678.981	208.47
679.176	234.05
679.37	239.28
679.565	205.18
679.759	193.55
679.954	268.53
680.148	292.56
680.342	277.25
680.537	257.88
680.731	220.87
680.926	267.95
681.12	232.69
681.314	191.23
681.509	233.85
681.703	222.23
681.897	276.67
682.092	231.53
682.286	207.5
682.48	273.38
682.674	258.07
682.869	234.63
683.063	216.8
683.257	294.3
683.451	230.95
683.645	227.46
683.839	230.56
684.034	227.46
684.228	253.42
684.422	196.85
684.616	204.4
684.81	275.9
685.004	243.54
685.198	231.14
685.392	264.46
685.586	202.27
685.78	235.79
685.974	228.04
686.168	251.87
686.362	313.68
686.556	207.89
686.75	169.72
686.944	221.65
687.138	275.31
687.331	157.52
687.525	226.68
687.719	155.77
687.913	198.01
688.107	203.43
688.301	164.88
688.494	204.79
688.688	178.44
688.882	171.66
689.076	164.88
689.269	183.67
689.463	254.78
689.657	188.71
689.85	184.06
690.044	206.34
690.238	195.49
690.431	204.79
690.625	192.78
690.818	203.24
691.012	223
691.205	245.28
691.399	159.45
691.593	214.28
691.786	254.39
691.98	240.25
692.173	267.76
692.366	252.45
692.56	242.96
692.753	262.72
692.947	208.08
693.14	279.38
693.333	263.69
693.527	196.07
693.72	303.02
693.914	248.38
694.107	240.44
694.3	263.3
694.493	220.87
694.687	279.77
694.88	251.29
695.073	276.48
695.266	283.06
695.46	266.98
695.653	290.81
695.846	293.33
696.039	211.18
696.232	248.38
696.425	311.74
696.618	294.3
696.812	257.1
697.005	302.83
697.198	366.96
697.391	331.11
697.584	332.08
697.777	371.03
697.97	348.55
698.163	340.61
698.356	334.02
698.549	394.47
698.742	364.05
698.935	331.31
699.127	338.86
699.32	328.98
699.513	338.67
699.706	342.16
699.899	364.05
700.092	344.1
700.285	359.01
700.477	337.51
700.67	368.89
700.863	386.72
701.056	456.08
701.248	430.7
701.441	440.97
701.634	374.51
701.826	501.81
702.019	393.31
702.212	437.67
702.404	395.83
702.597	385.94
702.79	398.73
702.982	437.48
703.175	453.95
703.367	453.37
703.56	463.83
703.752	522.15
703.945	483.21
704.137	475.46
704.33	484.95
704.522	496.77
704.715	503.74
704.907	519.82
705.1	536.68
705.292	536.87
705.484	498.71
705.677	546.56
705.869	539
706.061	559.15
706.254	581.82
706.446	531.84
706.638	540.94
706.831	581.05
707.023	583.57
707.215	637.82
707.407	627.35
707.599	577.95
707.792	643.43
707.984	610.89
708.176	643.82
708.368	627.93
708.56	651.18
708.752	624.83
708.944	610.89
709.136	679.08
709.329	643.43
709.521	748.64
709.713	723.06
709.905	697.49
710.097	722.68
710.289	652.73
710.481	678.31
710.672	721.51
710.864	735.27
711.056	750.77
711.248	757.94
711.44	749.22
711.632	740.89
711.824	769.56
712.016	846.68
712.207	822.65
712.399	782.16
712.591	827.11
712.783	830.59
712.975	837.18
713.166	821.29
713.358	787.19
713.55	858.11
713.741	850.94
713.933	859.08
714.125	880.39
714.316	857.33
714.508	892.4
714.7	920.3
714.891	870.12
715.083	932.51
715.274	901.12
715.466	884.07
715.657	936.77
715.849	836.6
716.04	911.19
716.232	862.95
716.423	923.59
716.615	859.08
716.806	869.93
716.998	866.44
717.189	825.94
717.381	748.06
717.572	779.83
717.763	795.72
717.955	770.34
718.146	771.5
718.337	759.49
718.528	735.85
718.72	680.25
718.911	749.22
719.102	731.01
719.293	760.65
719.485	741.66
719.676	772.08
719.867	714.35
720.058	703.3
720.249	729.46
720.44	756.78
720.632	785.45
720.823	819.55
721.014	886.01
721.205	867.99
721.396	907.12
721.587	970.29
721.778	967.19
721.969	976.29
722.16	1020.66
722.351	973.77
722.542	1079.17
722.733	1116.57
722.924	1023.76
723.115	1066
723.305	1117.15
723.496	1080.33
723.687	1023.76
723.878	1035.97
724.069	996.25
724.26	1054.95
724.45	1002.25
724.641	1005.55
724.832	1037.13
725.023	1025.31
725.213	1021.44
725.404	991.4
725.595	1039.07
725.785	977.65
725.976	1039.45
726.167	1014.07
726.357	1033.64
726.548	1143.3
726.739	1048.95
726.929	1089.63
727.12	1104.55
727.31	1133.62
727.501	1097
727.691	1115.02
727.882	1128.58
728.072	1198.52
728.263	1159.19
728.453	1166.36
728.644	1168.1
728.834	1184.76
729.024	1140.59
729.215	1162.1
729.405	1177.79
729.596	1233.59
729.786	1229.13
729.976	1250.25
730.167	1238.24
730.357	1223.71
730.547	1234.56
730.737	1251.8
730.928	1311.86
731.118	1327.94
731.308	1266.53
731.498	1287.64
731.688	1349.84
731.879	1351.39
732.069	1366.11
732.259	1368.82
732.449	1387.04
732.639	1439.93
732.829	1440.32
733.019	1409.12
733.209	1529.05
733.399	1533.32
733.589	1573.03
733.779	1566.83
733.969	1539.71
734.159	1611.78
734.349	1635.03
734.539	1631.93
734.729	1649.56
734.919	1695.09
735.109	1697.23
735.299	1639.68
735.488	1677.27
735.678	1687.93
735.868	1704.98
736.058	1721.44
736.248	1720.48
736.437	1632.32
736.627	1650.92
736.817	1758.84
737.007	1720.48
737.196	1771.43
737.386	1708.66
737.576	1714.86
737.765	1783.83
737.955	1730.16
738.144	1817.35
738.334	1793.91
738.524	1780.73
738.713	1802.82
738.903	1796.04
739.092	1819.48
739.282	1829.36
739.471	1834.4
739.661	1850.87
739.85	1867.53
740.04	1878.57
740.229	1880.32
740.419	1890
740.608	1903.37
740.797	1905.89
740.987	1939.99
741.176	1957.62
741.365	1903.18
741.555	1881.67
741.744	1959.56
741.933	1946.58
742.123	1933.98
742.312	1937.08
742.501	1969.83
742.69	2027.37
742.88	1937.08
743.069	2010.71
743.258	1986.49
743.447	2035.12
743.636	2009.35
743.825	1957.04
744.014	2057.6
744.204	2022.91
744.393	1986.49
744.582	2060.11
744.771	2039.58
744.96	2053.53
745.149	2041.9
745.338	2027.56
745.527	2065.15
745.716	1989.4
745.905	2012.84
746.094	2046.16
746.283	2041.51
746.471	2073.29
746.66	2118.24
746.849	2055.46
747.038	2075.61
747.227	2037.83
747.416	2109.13
747.604	2030.66
747.793	2042.1
747.982	2079.88
748.171	2070.58
748.359	2126.38
748.548	2095.76
748.737	2096.73
748.926	2089.56
749.114	2038.8
749.303	2071.74
749.491	2079.1
749.68	2026.4
749.869	2101.77
750.057	2069.41
750.246	2050.81
750.434	2098.28
750.623	2084.14
750.811	2005.09
751	2096.93
751.188	2054.3
751.377	2073.48
751.565	2063.02
751.754	2023.69
751.942	2009.74
752.131	2079.68
752.319	2029.11
752.507	2006.83
752.696	2078.71
752.884	2070
753.072	2031.44
753.261	2055.85
753.449	2045.58
753.637	2052.36
753.825	2120.56
754.014	2035.12
754.202	2067.09
754.39	2101.58
754.578	2051.59
754.766	2039.58
754.955	1979.13
755.143	2083.56
755.331	2015.55
755.519	2019.62
755.707	2028.15
755.895	2026.79
756.083	2032.41
756.271	1979.9
756.459	2020.2
756.647	2063.41
756.835	2016.91
757.023	1959.95
757.211	1994.43
757.399	2015.55
757.587	1979.9
757.775	1940.38
757.963	2003.93
758.151	1991.14
758.339	1934.57
758.526	1967.89
758.714	1942.51
758.902	1874.5
759.09	1866.75
759.278	1728.23
759.465	1626.51
759.653	1372.12
759.841	1258.78
760.028	1074.72
760.216	928.63
760.404	892.79
760.591	720.55
760.779	570.59
760.967	517.69
761.154	416.56
761.342	482.24
761.529	440.97
761.717	506.46
761.905	447.56
762.092	519.05
762.28	456.66
762.467	474.49
762.655	415.2
762.842	446.78
763.029	442.71
763.217	469.84
763.404	450.85
763.592	494.25
763.779	431.67
763.966	482.43
764.154	513.24
764.341	549.85
764.528	540.17
764.716	581.82
764.903	603.91
765.09	647.7
765.277	688.97
765.465	766.27
765.652	823.23
765.839	887.17
766.026	958.66
766.213	949.36
766.4	1026.86
766.588	1172.17
766.775	1135.94
766.962	1230.29
767.149	1241.34
767.336	1344.02
767.523	1300.04
767.71	1378.9
767.897	1450.78
768.084	1515.88
768.271	1518.4
768.458	1592.8
768.645	1614.11
768.832	1559.47
769.019	1617.4
769.206	1647.63
769.392	1668.16
769.579	1782.28
769.766	1686.18
769.953	1702.26
770.14	1744.5
770.327	1739.85
770.513	1786.74
770.7	1810.18
770.887	1745.66
771.073	1774.14
771.26	1772.01
771.447	1761.36
771.634	1719.89
771.82	1820.26
772.007	1684.05
772.193	1768.33
772.38	1800.88
772.567	1763.87
772.753	1795.65
772.94	1781.12
773.126	1809.21
773.313	1788.29
773.499	1830.91
773.686	1812.31
773.872	1776.27
774.059	1775.69
774.245	1758.45
774.432	1780.15
774.618	1740.04
774.804	1778.99
774.991	1719.51
775.177	1801.85
775.363	1712.34
775.55	1741.01
775.736	1707.88
775.922	1715.44
776.109	1734.81
776.295	1766.01
776.481	1768.72
776.667	1779.96
776.853	1711.18
777.04	1733.46
777.226	1748.96
777.412	1806.31
777.598	1745.66
777.784	1734.23
777.97	1697.42
778.156	1751.09
778.342	1722.61
778.528	1737.33
778.715	1693.54
778.901	1683.86
779.087	1742.95
779.272	1684.05
779.458	1633.87
779.644	1723.19
779.83	1657.7
780.016	1739.27
780.202	1701.29
780.388	1669.91
780.574	1623.6
780.76	1633.68
780.946	1694.51
781.131	1693.93
781.317	1660.61
781.503	1679.4
781.689	1658.48
781.874	1760.58
782.06	1658.28
782.246	1678.43
782.432	1648.21
782.617	1665.64
782.803	1705.36
782.989	1603.65
783.174	1620.89
783.36	1551.92
783.545	1641.62
783.731	1643.95
783.916	1555.21
784.102	1626.51
784.288	1585.24
784.473	1586.79
784.659	1597.25
784.844	1619.34
785.029	1552.3
785.215	1564.7
785.4	1508.9
785.586	1615.66
785.771	1543.78
785.956	1577.3
786.142	1561.99
786.327	1548.04
786.512	1550.95
786.698	1543.97
786.883	1493.4
787.068	1523.05
787.254	1564.7
787.439	1519.56
787.624	1502.12
787.809	1532.15
787.994	1500.38
788.18	1538.93
788.365	1496.12
788.55	1502.7
788.735	1458.92
788.92	1513.36
789.105	1489.33
789.29	1504.45
789.475	1457.56
789.66	1446.13
789.845	1414.16
790.03	1418.23
790.215	1458.14
790.4	1485.46
790.585	1489.72
790.77	1476.35
790.955	1378.51
791.14	1452.91
791.325	1494.18
791.51	1359.72
791.695	1410.29
791.879	1412.61
792.064	1392.66
792.249	1491.27
792.434	1429.27
792.618	1425.4
792.803	1453.88
792.988	1410.87
793.173	1419.39
793.357	1457.75
793.542	1378.9
793.727	1396.14
793.911	1457.17
794.096	1431.79
794.281	1472.67
794.465	1491.66
794.65	1407.38
794.834	1475
795.019	1500.57
795.203	1475.77
795.388	1452.52
795.572	1489.14
795.757	1438.57
795.941	1476.35
796.126	1446.32
796.31	1406.02
796.494	1413
796.679	1422.88
796.863	1407.77
797.048	1458.92
797.232	1437.6
797.416	1440.51
797.601	1419.39
797.785	1480.42
797.969	1507.35
798.153	1429.08
798.338	1493.79
798.522	1501.73
798.706	1467.25
798.89	1468.8
799.074	1526.92
799.258	1505.42
799.443	1455.24
799.627	1444.97
799.811	1487.78
799.995	1441.87
800.179	1446.13
800.363	1439.74
800.547	1456.59
800.731	1475.58
800.915	1429.85
801.099	1429.47
801.283	1469.57
801.467	1496.5
801.651	1444.77
801.835	1486.43
802.019	1436.05
802.202	1453.69
802.386	1389.56
802.57	1428.3
802.754	1439.54
802.938	1385.68
803.121	1415.71
803.305	1504.64
803.489	1446.32
803.673	1475.19
803.856	1456.59
804.04	1421.72
804.224	1482.36
804.407	1448.26
804.591	1439.35
804.775	1412.61
804.958	1431.4
805.142	1507.16
805.326	1444.97
805.509	1474.22
805.693	1469.77
805.876	1470.15
806.06	1439.74
806.243	1465.31
806.427	1463.76
806.61	1507.16
806.794	1454.27
806.977	1489.72
807.16	1433.73
807.344	1442.84
807.527	1459.69
807.71	1441.09
807.894	1474.61
808.077	1467.83
808.26	1430.63
808.444	1429.85
808.627	1487.59
808.81	1407.57
808.993	1405.83
809.177	1388.59
809.36	1426.37
809.543	1431.4
809.726	1348.87
809.909	1371.54
810.092	1356.42
810.276	1358.17
810.459	1368.63
810.642	1358.75
810.825	1284.54
811.008	1311.09
811.191	1272.92
811.374	1312.06
811.557	1327.56
811.74	1363.01
811.923	1271.18
812.106	1246.38
812.289	1237.08
812.472	1238.04
812.654	1283.19
812.837	1233.01
813.02	1190.58
813.203	1201.23
813.386	1100.1
813.569	1077.82
813.751	1052.82
813.934	1111.72
814.117	1121.8
814.3	1075.49
814.482	1043.14
814.665	1024.73
814.848	1005.74
815.03	965.25
815.213	975.71
815.396	973.19
815.578	963.31
815.761	945.1
815.943	994.31
816.126	923.4
816.309	898.41
816.491	888.91
816.674	800.76
816.856	856.36
817.039	856.36
817.221	905.57
817.403	891.43
817.586	898.41
817.768	904.99
817.951	860.43
818.133	849.78
818.315	851.71
818.498	842.61
818.68	940.45
818.862	899.96
819.045	904.61
819.227	905.57
819.409	890.27
819.591	923.21
819.774	894.14
819.956	841.64
820.138	953.82
820.32	920.3
820.502	946.46
820.684	994.7
820.866	968.35
821.048	1022.4
821.231	1040.81
821.413	1026.47
821.595	1010.59
821.777	1019.11
821.959	978.23
822.141	1057.86
822.323	950.91
822.505	903.44
822.686	898.79
822.868	927.66
823.05	808.12
823.232	796.49
823.414	755.42
823.596	803.86
823.778	787.78
823.96	834.66
824.141	762.4
824.323	810.25
824.505	840.86
824.687	874.57
824.868	898.79
825.05	979
825.232	999.93
825.413	1032.48
825.595	1033.84
825.777	952.66
825.958	967.19
826.14	970.48
826.321	988.3
826.503	970.09
826.685	989.27
826.866	1017.75
827.048	980.17
827.229	951.88
827.411	936.57
827.592	932.51
827.773	922.62
827.955	897.44
828.136	894.92
828.318	862.76
828.499	904.61
828.68	868.76
828.862	912.94
829.043	934.64
829.224	877.67
829.406	859.27
829.587	864.89
829.768	821.29
829.949	908.67
830.131	882.32
830.312	890.27
830.493	877.67
830.674	907.12
830.855	898.02
831.036	885.62
831.218	936.57
831.399	961.37
831.58	886.01
831.761	908.67
831.942	908.09
832.123	866.24
832.304	842.03
832.485	882.32
832.666	868.38
832.847	901.7
833.028	876.9
833.209	910.42
833.389	890.07
833.57	868.57
833.751	857.91
833.932	917.59
834.113	907.71
834.294	879.81
834.475	916.23
834.655	939.48
834.836	942.19
835.017	929.21
835.198	833.69
835.378	909.84
835.559	930.96
835.74	898.41
835.92	899.37
836.101	869.34
836.281	931.34
836.462	932.7
836.643	934.64
836.823	956.14
837.004	949.17
837.184	966.02
837.365	964.67
837.545	956.34
837.726	959.05
837.906	966.6
838.087	904.61
838.267	955.95
838.448	871.09
838.628	937.54
838.808	939.09
838.989	1000.9
839.169	910.81
839.349	952.07
839.53	943.55
839.71	947.23
839.89	929.79
840.07	974.74
840.251	904.22
840.431	935.61
840.611	960.21
840.791	905.77
840.971	952.07
841.151	934.06
841.332	904.99
841.512	938.9
841.692	896.08
841.872	932.89
842.052	926.89
842.232	951.49
842.412	899.76
842.592	917.39
842.772	930.37
842.952	963.5
843.132	894.53
843.312	911
843.492	870.12
843.672	938.32
843.851	861.01
844.031	901.31
844.211	877.48
844.391	892.98
844.571	901.31
844.751	910.03
844.93	900.92
845.11	888.52
845.29	914.29
845.47	919.72
845.649	896.47
845.829	925.14
846.009	872.06
846.188	925.92
846.368	905.96
846.547	880
846.727	922.24
846.907	858.3
847.086	924.37
847.266	949.17
847.445	927.08
847.625	901.89
847.804	890.27
847.984	881.16
848.163	844.93
848.343	893.56
848.522	889.88
848.701	891.04
848.881	846.68
849.06	886.39
849.239	860.43
849.419	897.44
849.598	817.23
849.777	846.48
849.957	830.59
850.136	796.49
850.315	806.38
850.494	783.9
850.674	791.65
850.853	867.41
851.032	833.89
851.211	861.79
851.39	824.59
851.569	748.45
851.748	797.27
851.927	865.28
852.107	822.07
852.286	773.05
852.465	801.34
852.644	834.08
852.823	818.97
853.002	812.38
853.181	800.37
853.359	854.23
853.538	746.7
853.717	874.38
853.896	768.79
854.075	748.25
854.254	731.98
854.433	681.22
854.611	733.14
854.79	681.6
854.969	724.03
855.148	744.57
855.327	719.58
855.505	741.28
855.684	739.73
855.863	722.1
856.041	727.91
856.22	752.9
856.399	739.53
856.577	796.11
856.756	780.41
856.934	850.55
857.113	879.81
857.291	770.92
857.47	750.19
857.648	755.81
857.827	796.3
858.005	809.28
858.184	774.6
858.362	844.54
858.541	784.1
858.719	779.06
858.898	761.81
859.076	755.61
859.254	836.41
859.433	758.71
859.611	783.51
859.789	735.85
859.967	814.13
860.146	840.67
860.324	712.8
860.502	746.51
860.68	729.85
860.859	734.69
861.037	748.83
861.215	757.16
861.393	710.47
861.571	750
861.749	747.09
861.927	751.74
862.105	762.2
862.283	772.66
862.461	738.37
862.639	723.45
862.817	742.83
862.995	757.55
863.173	752.32
863.351	723.65
863.529	739.92
863.707	770.34
863.885	752.32
864.063	694.78
864.241	689.74
864.418	744.76
864.596	701.95
864.774	663.39
864.952	695.75
865.129	725.78
865.307	700.59
865.485	663.2
865.663	754.65
865.84	680.05
866.018	681.6
866.196	603.91
866.373	607.59
866.551	618.25
866.728	576.4
866.906	601
867.084	641.3
867.261	658.35
867.439	660.68
867.616	672.69
867.794	672.5
867.971	664.17
868.149	656.61
868.326	698.27
868.503	688.19
868.681	695.75
868.858	664.17
869.035	639.75
869.213	705.43
869.39	663.97
869.567	702.91
869.745	638.01
869.922	663
870.099	714.35
870.276	682.57
870.454	709.89
870.631	672.88
870.808	643.43
870.985	680.83
871.162	726.94
871.339	672.88
871.517	634.91
871.694	608.37
871.871	649.63
872.048	650.99
872.225	656.03
872.402	668.62
872.579	636.46
872.756	637.23
872.933	602.36
873.11	643.82
873.287	633.55
873.463	657
873.64	601.59
873.817	668.43
873.994	625.03
874.171	607.79
874.348	640.72
874.524	600.81
874.701	629.87
874.878	575.62
875.055	652.54
875.231	616.7
875.408	635.1
875.585	607.01
875.762	576.01
875.938	615.73
876.115	622.9
876.291	591.12
876.468	618.05
876.645	564.19
876.821	579.11
876.998	603.52
877.174	617.28
877.351	591.12
877.527	574.07
877.704	623.67
877.88	596.35
878.057	589.19
878.233	618.05
878.409	601.78
878.586	609.34
878.762	571.75
878.938	582.4
879.115	531.45
879.291	563.42
879.467	524.67
879.644	573.3
879.82	567.49
879.996	560.51
880.172	511.69
880.349	548.5
880.525	608.75
880.701	529.51
880.877	532.42
881.053	566.32
881.229	548.5
881.405	602.75
881.581	528.93
881.757	531.64
881.933	583.76
882.109	614.57
882.285	577.56
882.461	516.34
882.637	524.28
882.813	531.84
882.989	539.59
883.165	593.64
883.341	538.04
883.517	574.07
883.693	592.48
883.869	550.63
884.044	515.95
884.22	575.62
884.396	574.27
884.572	574.07
884.747	599.07
884.923	577.37
885.099	592.67
885.275	624.25
885.45	543.65
885.626	528.93
885.801	533.39
885.977	556.64
886.153	505.68
886.328	566.32
886.504	537.65
886.679	561.29
886.855	527.19
887.03	557.8
887.206	579.11
887.381	570.2
887.557	548.89
887.732	557.6
887.908	576.4
888.083	582.02
888.258	537.26
888.434	536.49
888.609	534.74
888.784	583.37
888.96	539.97
889.135	537.65
889.31	547.34
889.485	544.43
889.661	525.05
889.836	612.63
890.011	551.21
890.186	551.21
890.361	541.91
890.537	552.95
890.712	536.1
890.887	548.5
891.062	544.62
891.237	602.75
891.412	520.21
891.587	553.73
891.762	568.65
891.937	576.98
892.112	536.29
892.287	537.26
892.462	484.17
892.637	489.99
892.812	487.27
892.987	492.12
893.161	498.12
893.336	514.59
893.511	497.93
893.686	461.51
893.861	495.22
894.035	477.39
894.21	507.23
894.385	464.99
894.56	476.04
894.734	450.46
894.909	459.96
895.084	467.51
895.258	424.11
895.433	436.71
895.608	439.22
895.782	406.48
895.957	438.45
896.131	431.48
896.306	380.52
896.48	403.77
896.655	376.06
896.829	354.17
897.004	335.38
897.178	371.22
897.353	349.33
897.527	413.84
897.701	371.41
897.876	300.11
898.05	388.85
898.224	355.53
898.399	397.57
898.573	380.91
898.747	272.6
898.921	348.55
899.096	254.78
899.27	322.59
899.444	279.96
899.618	313.48
899.792	305.73
899.967	322.98
900.141	339.64
900.315	296.43
900.489	321.43
900.663	338.09
900.837	316.97
901.011	279.77
901.185	356.49
901.359	308.06
901.533	327.05
901.707	328.79
901.881	304.18
902.055	284.23
902.229	328.6
902.403	342.55
902.576	335.76
902.75	328.6
902.924	414.23
903.098	347.78
903.272	392.73
903.446	416.17
903.619	364.63
903.793	417.91
903.967	376.64
904.14	409.39
904.314	405.51
904.488	383.81
904.661	413.26
904.835	394.86
905.009	459.96
905.182	474.49
905.356	442.71
905.529	400.28
905.703	373.74
905.876	386.33
906.05	369.67
906.223	377.23
906.397	319.49
906.57	321.43
906.744	308.25
906.917	288.88
907.09	321.62
907.264	327.63
907.437	296.43
907.61	289.26
907.784	324.14
907.957	286.36
908.13	276.86
908.304	334.41
908.477	264.85
908.65	279.38
908.823	249.16
908.996	319.88
909.17	292.17
909.343	307.48
909.516	290.04
909.689	291.78
909.862	251.29
910.035	291.59
910.208	268.15
910.381	294.88
910.554	337.7
910.727	274.15
910.9	267.76
911.073	257.1
911.246	287.52
911.419	314.65
911.592	278.8
911.765	264.08
911.938	262.91
912.11	279.38
912.283	301.47
912.456	310
912.629	295.08
912.802	259.04
912.974	236.18
913.147	218.16
913.32	197.43
913.493	224.17
913.665	253.23
913.838	238.12
914.01	211.77
914.183	236.37
914.356	190.84
914.528	256.91
914.701	311.35
914.873	264.46
915.046	223.97
915.218	244.32
915.391	198.59
915.563	198.78
915.736	245.67
915.908	270.08
916.081	260.4
916.253	208.08
916.425	243.35
916.598	251.1
916.77	249.16
916.942	212.35
917.115	145.12
917.287	221.45
917.459	249.93
917.632	204.02
917.804	149.77
917.976	236.37
918.148	227.27
918.32	211.57
918.493	258.07
918.665	259.43
918.837	232.69
919.009	265.63
919.181	257.88
919.353	260.59
919.525	245.28
919.697	249.93
919.869	251.68
920.041	321.43
920.213	329.95
920.385	260.59
920.557	248.19
920.729	258.27
920.901	284.03
921.073	232.5
921.244	223
921.416	279.58
921.588	249.74
921.76	251.29
921.932	298.18
922.103	244.9
922.275	262.53
922.447	269.11
922.619	192.2
922.79	248.77
922.962	230.75
923.134	261.37
923.305	223.58
923.477	186
923.648	205.95
923.82	243.35
923.991	185.22
924.163	169.53
924.335	196.65
924.506	192
924.677	225.91
924.849	179.02
925.02	225.33
925.192	235.98
925.363	215.83
925.535	225.33
925.706	190.84
925.877	269.31
926.049	213.32
926.22	220.68
926.391	221.07
926.562	229.01
926.734	196.27
926.905	235.21
927.076	154.8
927.247	214.67
927.419	173.4
927.59	162.55
927.761	178.05
927.932	193.55
928.103	193.75
928.274	140.66
928.445	156.55
928.616	158.87
928.787	165.27
928.958	187.74
929.129	166.04
929.3	162.55
929.471	128.26
929.642	75.76
929.813	99
929.984	132.33
930.155	76.34
930.326	125.94
930.496	111.4
930.667	40.69
930.838	93
931.009	88.35
931.18	79.82
931.35	90.48
931.521	83.7
931.692	59.48
931.863	22.86
932.033	67.42
932.204	77.11
932.374	92.8
932.545	22.86
932.716	98.04
932.886	76.34
933.057	8.72
933.227	10.85
933.398	93.97
933.568	38.17
933.739	9.3
933.909	36.42
934.08	68.2
934.25	-0.58
934.421	5.23
934.591	61.42
934.761	-1.16
934.932	-10.66
935.102	13.56
935.272	8.33
935.443	23.25
935.613	15.89
935.783	5.62
935.953	1.55
936.123	135.62
936.294	5.62
936.464	3.29
936.634	25.19
936.804	-17.44
936.974	-17.63
937.144	41.07
937.314	3.68
937.484	-7.94
937.655	-20.54
937.825	38.75
937.995	7.36
938.165	9.3
938.334	37.97
938.504	30.22
938.674	6.39
938.844	21.31
939.014	40.3
939.184	36.81
939.354	63.74
939.524	83.51
939.694	28.48
939.863	37.78
940.033	88.15
940.203	95.71
940.373	69.17
940.542	68.97
940.712	-1.74
940.882	67.62
941.051	68.59
941.221	58.71
941.391	110.24
941.56	10.07
941.73	23.64
941.899	142.79
942.069	64.91
942.238	68.01
942.408	16.27
942.577	86.61
942.747	59.09
942.916	12.01
943.086	13.56
943.255	76.34
943.425	20.92
943.594	43.59
943.763	13.37
943.933	21.7
944.102	-24.22
944.271	49.6
944.441	37.2
944.61	33.52
944.779	21.89
944.948	89.7
945.117	13.37
945.287	16.08
945.456	-4.26
945.625	2.13
945.794	41.46
945.963	27.12
946.132	46.5
946.301	21.12
946.47	64.52
946.639	-14.92
946.808	9.3
946.977	55.41
947.146	88.15
947.315	-8.14
947.484	42.62
947.653	16.47
947.822	31.19
947.991	4.65
948.16	88.54
948.329	69.94
948.498	19.76
948.666	29.45
948.835	75.76
949.004	-4.07
949.173	6.2
949.341	56.38
949.51	77.89
949.679	64.13
949.847	61.22
950.016	99.97
950.185	74.4
950.353	-3.49
950.522	32.16
950.69	75.95
950.859	26.54
951.028	62.58
951.196	58.71
951.365	2.52
951.533	39.52
951.701	50.18
951.87	81.96
952.038	2.13
952.207	36.62
952.375	84.86
952.543	11.04
952.712	35.65
952.88	12.21
953.048	95.13
953.217	40.69
953.385	26.35
953.553	71.3
953.721	-7.17
953.89	30.61
954.058	3.68
954.226	4.46
954.394	38.17
954.562	-10.07
954.73	16.27
954.898	23.25
955.067	70.33
955.235	24.8
955.403	66.46
955.571	108.69
955.739	65.49
955.907	-0.19
956.075	6.2
956.243	-7.94
956.41	70.91
956.578	-3.87
956.746	-7.56
956.914	14.53
957.082	70.14
957.25	48.05
957.418	-1.55
957.585	13.37
957.753	63.94
957.921	-2.91
958.089	14.72
958.256	30.61
958.424	48.82
958.592	27.51
958.759	6.59
958.927	53.67
959.095	26.35
959.262	28.48
959.43	57.93
959.597	6.78
959.765	30.61
959.932	18.99
960.1	34.1
960.267	27.71
960.435	41.27
960.602	70.91
960.77	-23.06
960.937	-1.94
961.104	18.21
961.272	-28.67
961.439	33.52
961.606	10.85
961.774	71.69
961.941	25.77
962.108	50.37
962.275	36.62
962.443	66.46
962.61	84.47
962.777	86.99
962.944	58.9
963.111	46.69
963.278	38.75
963.446	43.4
963.613	48.05
963.78	31.77
963.947	77.11
964.114	54.25
964.281	114.5
964.448	50.18
964.615	39.52
964.782	56.77
964.949	70.52
965.116	56.19
965.282	67.23
965.449	38.56
965.616	4.84
965.783	81.18
965.95	56.96
966.117	30.03
966.283	47.47
966.45	62.19
966.617	62.77
966.784	81.76
966.95	76.72
967.117	85.06
967.284	23.25
967.45	39.72
967.617	83.89
967.784	54.44
967.95	83.7
968.117	57.74
968.283	77.31
968.45	148.22
968.616	48.05
968.783	107.14
968.949	64.13
969.116	81.37
969.282	60.06
969.449	83.12
969.615	41.85
969.781	-0.19
969.948	32.74
970.114	3.1
970.28	108.89
970.447	67.04
970.613	80.6
970.779	37.2
970.945	66.07
971.112	74.01
971.278	47.47
971.444	47.66
971.61	76.72
971.776	28.29
971.942	88.54
972.108	91.45
972.275	73.04
972.441	82.34
972.607	106.75
972.773	49.41
972.939	63.94
973.105	78.08
973.271	27.71
973.437	54.25
973.602	44.37
973.768	86.22
973.934	53.47
974.1	85.25
974.266	2.91
974.432	57.16
974.598	44.56
974.763	73.82
974.929	66.26
975.095	97.26
975.261	22.28
975.426	41.07
975.592	22.47
975.758	105.59
975.923	12.01
976.089	22.67
976.255	63.55
976.42	24.99
976.586	61.22
976.751	52.51
976.917	136.2
977.082	83.12
977.248	15.31
977.413	4.84
977.579	40.88
977.744	60.06
977.91	12.59
978.075	34.87
978.24	63.36
978.406	53.28
978.571	42.24
978.736	33.13
978.902	37.01
979.067	12.98
979.232	-16.08
979.397	42.82
979.563	95.52
979.728	29.06
979.893	47.27
980.058	36.81
980.223	78.66
980.388	43.79
980.554	55.99
980.719	59.67
980.884	35.07
981.049	93.19
981.214	29.64
981.379	56.19
981.544	44.37
981.709	48.82
981.874	47.66
982.039	49.02
982.204	66.46
982.368	42.04
982.533	34.29
982.698	67.04
982.863	67.23
983.028	46.31
983.193	61.42
983.357	62
983.522	69.75
983.687	34.49
983.852	69.56
984.016	37.78
984.181	60.06
984.346	66.07
984.51	84.86
984.675	62.19
984.839	78.66
985.004	60.84
985.168	82.73
985.333	60.06
985.498	51.34
985.662	69.56
985.827	63.94
985.991	47.27
986.155	75.37
986.32	68.2
986.484	104.82
986.649	95.52
986.813	32.16
986.977	45.72
987.142	86.02
987.306	23.25
987.47	8.14
987.634	45.72
987.799	62.97
987.963	53.28
988.127	78.66
988.291	112.76
988.455	44.95
988.62	34.68
988.784	61.03
988.948	46.31
989.112	43.4
989.276	64.52
989.44	12.21
989.604	22.09
989.768	51.34
989.932	156.35
990.096	4.65
990.26	22.67
990.424	23.83
990.588	32.55
990.752	103.07
990.915	74.59
991.079	51.34
991.243	28.09
991.407	66.26
991.571	38.75
991.734	73.82
991.898	63.55
992.062	112.76
992.226	40.69
992.389	25.96
992.553	0.77
992.717	36.81
992.88	35.07
993.044	66.07
993.207	28.87
993.371	85.83
993.535	71.88
993.698	47.08
993.862	75.76
994.025	75.76
994.189	54.44
994.352	61.22
994.515	67.62
994.679	80.21
994.842	25.96
995.006	60.45
995.169	17.82
995.332	23.83
995.496	45.14
995.659	-20.34
995.822	33.32
995.985	58.71
996.149	64.13
996.312	37.39
996.475	103.46
996.638	46.5
996.801	89.12
996.964	98.23
997.128	28.09
997.291	41.66
997.454	52.89
997.617	3.68
997.78	80.41
997.943	23.64
998.106	66.46
998.269	32.94
998.432	21.51
998.595	22.86
998.758	13.37
998.92	21.7
999.083	11.24
999.246	48.05
999.409	6.2
999.572	-24.99
999.735	12.21
999.897	21.7
1000.06	-1.55
1000.223	10.46
1000.386	44.56
1000.548	56.19
1000.711	43.4
1000.874	43.4
1001.036	-10.66
1001.199	65.68
1001.361	1.36
1001.524	27.9
1001.687	80.79
1001.849	17.82
1002.012	55.41
1002.174	41.85
1002.337	50.76
1002.499	25.96
1002.661	71.88
1002.824	-5.04
1002.986	-6.39
1003.149	11.24
1003.311	30.22
1003.473	112.95
1003.636	32.16
1003.798	57.74
1003.96	70.72
1004.123	30.03
1004.285	5.62
1004.447	17.24
1004.609	16.27
1004.771	103.46
1004.933	-3.1
1005.096	13.56
1005.258	10.66
1005.42	-1.16
1005.582	80.41
1005.744	44.17
1005.906	-2.52
1006.068	33.91
1006.23	-18.21
1006.392	-9.88
1006.554	24.02
1006.716	58.9
1006.878	54.06
1007.04	-7.17
1007.202	0.19
1007.363	25.38
1007.525	30.81
1007.687	46.5
1007.849	75.56
1008.011	-20.34
1008.172	5.42
1008.334	-3.1
1008.496	32.55
1008.658	-11.04
1008.819	-8.52
1008.981	-11.82
1009.143	14.72
1009.304	20.92
1009.466	35.26
1009.627	81.96
1009.789	98.62
1009.95	29.26
1010.112	6.2
1010.273	36.62
1010.435	-4.46
1010.596	7.75
1010.758	8.52
1010.919	21.51
1011.081	4.46
1011.242	23.64
1011.403	24.41
1011.565	24.22
1011.726	31.97
1011.887	-12.21
1012.049	33.32
1012.21	39.91
1012.371	101.33
1012.532	-32.16
1012.693	39.91
1012.855	35.07
1013.016	0
1013.177	72.46
1013.338	-21.31
1013.499	60.06
1013.66	48.05
1013.821	59.87
1013.982	30.42
1014.143	27.71
1014.304	8.14
1014.465	60.64
1014.626	46.89
1014.787	32.74
1014.948	102.69
1015.109	-40.11
1015.27	31
1015.431	3.1
1015.592	8.52
1015.752	67.81
1015.913	26.54
1016.074	48.63
1016.235	-1.36
1016.395	25.77
1016.556	31.19
1016.717	25.77
1016.877	62.77
1017.038	5.23
1017.199	10.66
1017.359	27.9
1017.52	36.04
1017.681	1.16
1017.841	-22.47
1018.002	5.62
1018.162	10.46
1018.323	62.39
1018.483	9.69
1018.644	4.65
1018.804	-24.41
1018.964	-32.36
1019.125	3.49
1019.285	45.92
1019.446	-4.26
1019.606	-26.35
1019.766	-8.14
1019.926	-4.84
1020.087	30.42
1020.247	-14.14
1020.407	30.22
1020.567	44.37
1020.728	9.49
1020.888	-38.94
1021.048	-14.72
1021.208	-21.31
1021.368	-9.88
1021.528	60.45
1021.688	26.54
1021.848	55.99
1022.008	46.11
1022.168	-2.52
1022.328	33.91
1022.488	11.24
1022.648	11.43
1022.808	27.12
1022.968	18.99
1023.128	-26.54
1023.288	1.16
1023.448	36.04
1023.608	35.26
1023.767	41.46
1023.927	-15.5
1024.087	-12.59
1024.247	-14.53
1024.406	-4.26
1024.566	-13.95
1024.726	21.7
1024.885	30.81
1025.045	31.19
1025.205	16.66
1025.364	9.11
1025.524	23.06
1025.683	-15.69
1025.843	15.69
1026.003	1.74
1026.162	57.93
1026.321	43.01
1026.481	24.61
1026.64	-12.98
1026.8	15.31
1026.959	26.16
1027.119	16.66
1027.278	10.27
1027.437	-5.62
1027.597	-0.77
1027.756	33.32
1027.915	8.33
1028.074	43.4
1028.234	-13.95
1028.393	27.12
1028.552	-18.6
1028.711	-64.13
1028.87	43.98
1029.03	-26.54
1029.189	12.4
1029.348	-36.23
1029.507	2.91
1029.666	23.44
1029.825	-27.12
1029.984	-6.01
1030.143	12.59
1030.302	7.75
1030.461	-32.36
1030.62	1.94
1030.779	17.24
1030.938	-7.17
1031.097	-10.66
1031.255	28.29
1031.414	59.09
1031.573	32.74
1031.732	-30.03
1031.891	-1.55
1032.049	33.13
1032.208	41.07
1032.367	-5.04
1032.525	9.69
1032.684	-0.77
1032.843	31.97
1033.001	-37.01
1033.16	120.12
1033.319	44.95
1033.477	20.34
1033.636	-25.38
1033.794	-49.02
1033.953	21.89
1034.111	32.55
1034.27	29.06
1034.428	28.48
1034.587	-25.19
1034.745	3.49
1034.903	48.24
1035.062	13.76
1035.22	-38.75
1035.378	31
1035.537	-16.86
1035.695	25.57
1035.853	35.07
1036.011	44.56
1036.17	22.67
1036.328	-39.91
1036.486	30.22
1036.644	30.03
1036.802	-84.47
1036.96	-20.73
1037.119	-7.75
1037.277	-11.62
1037.435	-29.64
1037.593	-7.75
1037.751	8.14
1037.909	11.82
1038.067	11.82
