Data from oakcork_FLMT105791__222__17-32-53-055.txt Node

Date: Mon Mar 20 17:32:53 GMT 2023
User: antho
Spectrometer: FLMT10579
Trigger mode: 0
Integration Time (sec): 1.000000E-1
Scans to average: 10
Electric dark correction enabled: true
Nonlinearity correction enabled: false
Boxcar width: 0
XAxis mode: Wavelengths
Number of Pixels in Spectrum: 3648
>>>>>Begin Spectral Data<<<<<
345.248	-122.3
345.464	-122.3
345.681	-122.3
345.898	-143.81
346.114	-145.17
346.331	-32.99
346.548	17
346.764	10.8
346.981	-16.9
347.197	5.76
347.414	14.48
347.631	-23.69
347.847	48.58
348.064	9.64
348.28	17.2
348.497	-49.26
348.713	-0.63
348.93	8.86
349.146	41.03
349.363	-6.64
349.579	20.68
349.796	20.3
350.012	-4.31
350.229	24.75
350.445	5.18
350.661	-7.02
350.878	13.9
351.094	11.38
351.311	26.69
351.527	32.69
351.743	-18.07
351.96	27.85
352.176	28.82
352.392	16.42
352.609	29.21
352.825	-3.34
353.041	21.46
353.257	-28.53
353.474	9.45
353.69	11
353.906	3.83
354.122	-15.74
354.339	55.56
354.555	15.65
354.771	-10.51
354.987	76.09
355.203	67.76
355.42	18.16
355.636	4.6
355.852	-13.61
356.068	-9.74
356.284	-20.78
356.5	45.29
356.716	30.95
356.932	-7.41
357.148	23.98
357.364	-20.78
357.58	47.61
357.796	71.64
358.012	70.86
358.228	30.95
358.444	-45.77
358.66	64.08
358.876	42.58
359.092	-16.32
359.308	17.58
359.524	29.98
359.74	-3.54
359.956	-1.4
360.172	-13.61
360.388	60.98
360.604	12.35
360.819	115.42
361.035	6.35
361.251	34.83
361.467	10.41
361.683	40.44
361.898	14.68
362.114	21.85
362.33	25.91
362.546	36.76
362.762	1.7
362.977	34.44
363.193	-17.49
363.409	53.23
363.624	-8.19
363.84	-22.91
364.056	4.99
364.271	38.51
364.487	44.13
364.703	-3.92
364.918	-37.83
365.134	10.22
365.35	-1.02
365.565	111.94
365.781	32.5
365.996	42.96
366.212	58.85
366.427	13.9
366.643	-3.15
366.858	4.8
367.074	-5.67
367.289	73.96
367.505	96.83
367.72	-31.44
367.936	25.53
368.151	29.01
368.367	15.45
368.582	28.63
368.798	-4.5
369.013	75.71
369.228	24.36
369.444	21.26
369.659	61.95
369.874	9.83
370.09	69.12
370.305	-49.84
370.52	41.22
370.736	69.12
370.951	36.38
371.166	83.26
371.381	70.48
371.597	51.29
371.812	0.92
372.027	-4.31
372.242	26.49
372.458	78.81
372.673	-1.99
372.888	1.89
373.103	23.98
373.318	110.77
373.533	36.18
373.749	43.16
373.964	-27.17
374.179	72.61
374.394	1.31
374.609	75.71
374.824	-7.99
375.039	85.01
375.254	3.05
375.469	45.29
375.684	11
375.899	70.28
376.114	3.25
376.329	33.47
376.544	32.69
376.759	67.76
376.974	32.11
377.189	20.49
377.404	-3.54
377.619	33.47
377.834	-23.49
378.049	-7.41
378.264	-5.28
378.478	19.52
378.693	22.81
378.908	24.36
379.123	24.36
379.338	41.99
379.553	46.45
379.767	15.06
379.982	45.09
380.197	32.31
380.412	12.74
380.626	36.57
380.841	87.33
381.056	58.85
381.271	79.39
381.485	26.49
381.7	-13.03
381.915	25.33
382.129	15.84
382.344	48.58
382.559	26.49
382.773	56.14
382.988	-17.87
383.202	14.29
383.417	-8.96
383.632	105.54
383.846	37.34
384.061	47.42
384.275	44.51
384.49	58.85
384.704	44.9
384.919	21.84
385.133	34.83
385.348	59.63
385.562	1.5
385.777	75.51
385.991	9.83
386.206	30.95
386.42	-4.89
386.634	56.72
386.849	60.21
387.063	22.04
387.277	7.7
387.492	13.9
387.706	-5.67
387.92	21.07
388.135	72.41
388.349	62.92
388.563	24.94
388.778	39.67
388.992	63.31
389.206	51.29
389.42	112.91
389.635	40.44
389.849	73.19
390.063	77.06
390.277	47.42
390.491	99.93
390.706	73.77
390.92	54.98
391.134	59.82
391.348	67.38
391.562	-1.4
391.776	54.78
391.99	23.01
392.205	84.23
392.419	2.47
392.633	46.64
392.847	89.08
393.061	22.04
393.275	97.21
393.489	41.22
393.703	63.89
393.917	45.29
394.131	15.06
394.345	42.19
394.559	85.78
394.773	43.16
394.986	73.58
395.2	34.44
395.414	77.26
395.628	19.52
395.842	85.39
396.056	29.21
396.27	-20
396.484	41.41
396.697	52.84
396.911	83.65
397.125	23.2
397.339	100.31
397.553	59.82
397.766	95.47
397.98	96.63
398.194	104.77
398.408	40.64
398.621	93.34
398.835	86.56
399.049	66.6
399.262	82.29
399.476	128.41
399.69	110.77
399.903	153.98
400.117	79.78
400.331	84.23
400.544	66.02
400.758	191.76
400.971	87.91
401.185	108.64
401.398	48.39
401.612	117.56
401.826	110
402.039	100.12
402.253	73.77
402.466	105.54
402.68	99.73
402.893	111.16
403.106	99.73
403.32	88.11
403.533	85.2
403.747	106.13
403.96	84.62
404.174	128.99
404.387	78.61
404.6	83.26
404.814	148.56
405.027	110.58
405.24	112.32
405.454	66.21
405.667	120.27
405.88	46.84
406.094	79
406.307	126.86
406.52	98.57
406.733	91.21
406.947	72.41
407.16	141.19
407.373	156.5
407.586	109.03
407.799	88.3
408.012	146.42
408.226	83.26
408.439	159.02
408.652	41.03
408.865	116.97
409.078	161.54
409.291	125.31
409.504	95.08
409.717	110.19
409.93	132.09
410.143	112.52
410.357	29.79
410.57	69.31
410.783	94.5
410.996	110
411.209	99.34
411.421	124.53
411.634	107.09
411.847	91.01
412.06	116.78
412.273	124.53
412.486	119.88
412.699	198.74
412.912	120.27
413.125	134.22
413.338	111.55
413.55	141.77
413.763	115.23
413.976	128.02
414.189	83.84
414.402	97.41
414.615	165.22
414.827	82.1
415.04	140.42
415.253	146.04
415.466	149.72
415.678	177.81
415.891	106.71
416.104	121.82
416.316	126.47
416.529	99.34
416.742	152.62
416.954	138.29
417.167	136.93
417.38	151.66
417.592	141
417.805	94.5
418.017	77.45
418.23	139.26
418.442	111.16
418.655	150.11
418.868	136.93
419.08	186.72
419.293	164.64
419.505	137.32
419.718	131.31
419.93	167.54
420.142	98.57
420.355	171.42
420.567	157.86
420.78	173.55
420.992	132.67
421.205	180.52
421.417	110.19
421.629	143.91
421.842	111.55
422.054	100.51
422.266	153.4
422.479	181.88
422.691	133.83
422.903	157.86
423.115	132.86
423.328	151.66
423.54	152.62
423.752	147.2
423.964	131.89
424.177	159.21
424.389	151.07
424.601	223.34
424.813	149.91
425.025	160.18
425.238	192.15
425.45	149.33
425.662	112.32
425.874	427.55
426.086	145.07
426.298	155.72
426.51	170.06
426.722	146.42
426.934	103.99
427.146	195.06
427.358	108.84
427.57	158.63
427.782	159.79
427.994	144.1
428.206	142.74
428.418	118.14
428.63	141
428.842	211.91
429.054	170.45
429.266	157.27
429.478	135.57
429.69	155.92
429.902	114.07
430.114	173.74
430.325	153.98
430.537	131.89
430.749	132.09
430.961	87.53
431.173	108.64
431.384	132.28
431.596	82.68
431.808	169.48
432.02	167.35
432.231	208.81
432.443	222.76
432.655	180.14
432.867	156.5
433.078	182.66
433.29	232.84
433.502	201.64
433.713	211.91
433.925	171.61
434.136	217.34
434.348	136.16
434.56	113.29
434.771	292.32
434.983	127.82
435.194	171.22
435.406	174.91
435.617	231.87
435.829	228.19
436.04	242.33
436.252	223.34
436.463	260.35
436.675	255.89
436.886	225.67
437.098	203.19
437.309	251.82
437.521	208.04
437.732	231.09
437.943	227.8
438.155	221.02
438.366	145.07
438.578	264.61
438.789	225.67
439	232.64
439.211	210.55
439.423	197.77
439.634	233.8
439.845	234.58
440.057	243.69
440.268	258.6
440.479	188.66
440.69	237.87
440.902	221.21
441.113	215.4
441.324	204.94
441.535	234.77
441.746	269.45
441.957	192.34
442.168	204.74
442.38	268.87
442.591	280.89
442.802	222.18
443.013	213.07
443.224	277.79
443.435	230.9
443.646	249.5
443.857	229.93
444.068	235.55
444.279	236.71
444.49	327
444.701	232.64
444.912	312.27
445.123	305.1
445.334	277.01
445.545	262.48
445.756	246.79
445.967	236.32
446.178	266.94
446.388	289.99
446.599	279.14
446.81	269.45
447.021	234.97
447.232	295.8
447.443	308.78
447.653	236.71
447.864	294.83
448.075	267.52
448.286	314.21
448.496	292.32
448.707	331.26
448.918	264.61
449.129	354.7
449.339	258.99
449.55	300.65
449.761	260.15
449.971	343.85
450.182	283.02
450.393	308.98
450.603	272.36
450.814	329.13
451.024	311.3
451.235	338.04
451.446	339.2
451.656	339.4
451.867	265.39
452.077	312.85
452.288	358.19
452.498	352.38
452.709	303.94
452.919	313.05
453.13	281.08
453.34	300.84
453.55	250.27
453.761	320.8
453.971	319.05
454.182	333.97
454.392	326.61
454.602	392.48
454.813	329.52
455.023	323.9
455.233	272.17
455.444	304.13
455.654	258.02
455.864	321.38
456.075	298.71
456.285	304.72
456.495	327.58
456.705	304.52
456.916	377.18
457.126	383.38
457.336	356.06
457.546	272.17
457.756	295.22
457.967	387.83
458.177	305.68
458.387	320.6
458.597	294.06
458.807	329.71
459.017	316.15
459.227	312.85
459.437	312.85
459.647	340.56
459.857	352.38
460.068	319.83
460.278	357.61
460.488	342.11
460.698	366.52
460.908	324.09
461.117	283.6
461.327	309.56
461.537	331.26
461.747	346.76
461.957	340.95
462.167	437.82
462.377	395.78
462.587	349.47
462.797	355.09
463.007	351.22
463.216	383.18
463.426	375.05
463.636	397.33
463.846	329.52
464.056	353.15
464.265	378.15
464.475	339.4
464.685	357.61
464.895	388.61
465.104	377.56
465.314	391.9
465.524	340.37
465.733	356.06
465.943	460.29
466.153	428.33
466.362	395.97
466.572	404.88
466.782	355.28
466.991	393.84
467.201	425.03
467.41	326.03
467.62	392.87
467.829	369.23
468.039	421.35
468.249	392.87
468.458	366.72
468.668	405.46
468.877	420.58
469.086	455.45
469.296	439.56
469.505	375.05
469.715	457.39
469.924	448.86
470.134	436.46
470.343	442.28
470.552	398.1
470.762	412.25
470.971	382.8
471.18	421.16
471.39	398.49
471.599	370.98
471.808	421.16
472.018	412.05
472.227	488.39
472.436	463.39
472.645	450.61
472.855	424.65
473.064	488.39
473.273	460.68
473.482	484.51
473.691	476.57
473.901	490.52
474.11	478.7
474.319	542.83
474.528	479.67
474.737	514.35
474.946	476.18
475.155	489.36
475.364	539.15
475.573	483.35
475.783	503.89
475.992	494.59
476.201	513.58
476.41	494.39
476.619	464.56
476.828	482.38
477.037	491.29
477.245	491.1
477.454	558.91
477.663	501.18
477.872	505.63
478.081	569.37
478.29	503.11
478.499	597.47
478.708	561.43
478.917	589.33
479.125	533.92
479.334	572.67
479.543	550.19
479.752	547.48
479.961	547.48
480.169	569.76
480.378	560.46
480.587	697.44
480.796	613.74
481.004	577.51
481.213	607.74
481.422	631.76
481.63	595.14
481.839	609.67
482.048	653.07
482.256	615.49
482.465	648.04
482.674	657.53
482.882	630.41
483.091	690.08
483.299	650.75
483.508	675.16
483.716	656.75
483.925	656.37
484.134	646.29
484.342	600.96
484.551	676.13
484.759	636.02
484.967	687.17
485.176	695.89
485.384	682.52
485.593	694.73
485.801	668.96
486.01	665.09
486.218	606.96
486.426	560.27
486.635	580.03
486.843	601.15
487.051	629.63
487.26	610.84
487.468	647.65
487.676	679.81
487.885	622.46
488.093	634.09
488.301	679.62
488.509	709.65
488.717	746.85
488.926	671.48
489.134	695.89
489.342	696.47
489.55	670.12
489.758	722.24
489.967	681.94
490.175	803.42
490.383	732.12
490.591	807.88
490.799	699.57
491.007	777.85
491.215	770.48
491.423	732.32
491.631	752.08
491.839	749.95
492.047	805.17
492.255	712.75
492.463	697.83
492.671	747.82
492.879	784.82
493.087	782.3
493.295	772.62
493.503	783.08
493.711	832.1
493.919	830.74
494.127	832.87
494.334	857.86
494.542	782.88
494.75	804
494.958	799.16
495.166	855.93
495.374	806.33
495.581	828.03
495.789	845.66
495.997	871.23
496.205	775.13
496.412	828.41
496.62	786.57
496.828	861.16
497.035	845.66
497.243	860.19
497.451	835.39
497.658	859.41
497.866	831.9
498.074	899.52
498.281	820.08
498.489	912.89
498.696	823.18
498.904	811.56
499.112	854.96
499.319	910.76
499.527	831.71
499.734	874.72
499.942	804
500.149	832.87
500.357	870.85
500.564	808.07
500.771	875.88
500.979	781.33
501.186	795.28
501.394	852.05
501.601	841.01
501.808	846.24
502.016	830.16
502.223	851.08
502.43	846.24
502.638	856.51
502.845	818.15
503.052	914.05
503.26	820.28
503.467	936.14
503.674	868.91
503.881	856.31
504.089	952.8
504.296	907.85
504.503	840.62
504.71	855.54
504.917	842.36
505.125	902.23
505.332	900.88
505.539	933.04
505.746	964.81
505.953	927.03
506.16	918.31
506.367	955.32
506.574	986.71
506.781	987.67
506.988	908.24
507.195	941.95
507.402	907.46
507.609	952.41
507.816	901.46
508.023	943.69
508.23	918.89
508.437	889.25
508.644	958.23
508.851	1003.37
509.058	991.74
509.265	999.3
509.472	984.19
509.679	1072.92
509.885	945.05
510.092	960.94
510.299	965.78
510.506	964.23
510.713	960.55
510.92	960.74
511.126	1000.07
511.333	1010.92
511.54	1009.96
511.746	1064.98
511.953	1075.25
512.16	1065.95
512.367	1023.13
512.573	1010.73
512.78	1008.41
512.987	1020.81
513.193	1039.79
513.4	949.31
513.606	985.54
513.813	1014.41
514.02	1016.16
514.226	1069.24
514.433	1091.14
514.639	995.04
514.846	1034.37
515.052	1032.82
515.259	1036.11
515.465	1038.05
515.672	1063.04
515.878	1133.76
516.085	1015.57
516.291	1072.34
516.497	1075.25
516.704	1029.72
516.91	992.32
517.117	942.14
517.323	924.71
517.529	964.04
517.736	953.19
517.942	995.62
518.148	982.25
518.354	1016.54
518.561	1000.27
518.767	1007.82
518.973	1071.76
519.179	1092.1
519.386	1018.29
519.592	1024.68
519.798	1001.62
520.004	1110.7
520.21	1091.14
520.417	1132.6
520.623	1165.92
520.829	1160.5
521.035	1160.5
521.241	1154.49
521.447	1174.64
521.653	1286.24
521.859	1149.65
522.065	1182.97
522.271	1276.16
522.477	1217.46
522.683	1240.32
522.889	1202.54
523.095	1202.73
523.301	1214.36
523.507	1170.77
523.713	1221.72
523.919	1156.24
524.125	1244
524.331	1242.45
524.537	1285.08
524.742	1276.55
524.948	1284.5
525.154	1281.59
525.36	1402.68
525.566	1313.56
525.772	1364.51
525.977	1290.11
526.183	1290.89
526.389	1332.74
526.595	1247.88
526.8	1275.2
527.006	1212.42
527.212	1214.36
527.417	1170.18
527.623	1202.35
527.829	1251.17
528.034	1276.75
528.24	1295.73
528.446	1283.72
528.651	1332.16
528.857	1376.14
529.062	1396.68
529.268	1352.31
529.473	1393.19
529.679	1357.73
529.884	1459.84
530.09	1401.13
530.295	1442.59
530.501	1419.93
530.706	1441.24
530.912	1368.58
531.117	1423.22
531.323	1380.4
531.528	1455.19
531.733	1438.52
531.939	1444.53
532.144	1489.48
532.35	1458.87
532.555	1480.18
532.76	1432.52
532.966	1441.04
533.171	1403.46
533.376	1390.09
533.581	1406.75
533.787	1445.69
533.992	1451.51
534.197	1489.29
534.402	1412.18
534.607	1434.26
534.813	1551.48
535.018	1491.03
535.223	1472.62
535.428	1478.24
535.633	1514.47
535.838	1557.29
536.043	1526.87
536.249	1602.05
536.454	1524.16
536.659	1560.59
536.864	1495.87
537.069	1500.33
537.274	1520.09
537.479	1525.52
537.684	1541.02
537.889	1475.72
538.094	1581.12
538.299	1544.5
538.504	1578.41
538.708	1556.52
538.913	1578.41
539.118	1536.95
539.323	1568.72
539.528	1582.67
539.733	1554.58
539.938	1570.85
540.142	1552.06
540.347	1547.02
540.552	1518.35
540.757	1534.04
540.962	1507.5
541.166	1479.02
541.371	1504.21
541.576	1534.62
541.781	1454.41
541.985	1595.46
542.19	1505.37
542.395	1581.12
542.599	1620.65
542.804	1611.15
543.008	1611.93
543.213	1550.51
543.418	1517.57
543.622	1582.48
543.827	1541.21
544.031	1614.25
544.236	1641.57
544.44	1596.23
544.645	1649.52
544.849	1602.82
545.054	1637.7
545.258	1676.45
545.463	1686.33
545.667	1570.27
545.872	1661.53
546.076	1649.52
546.281	1598.56
546.485	1612.9
546.689	1634.21
546.894	1671.99
547.098	1656.88
547.302	1599.92
547.507	1655.91
547.711	1676.25
547.915	1698.15
548.119	1623.17
548.324	1634.79
548.528	1666.37
548.732	1661.72
548.936	1690.59
549.141	1700.28
549.345	1647.97
549.549	1663.85
549.753	1655.91
549.957	1738.06
550.161	1738.25
550.366	1673.73
550.57	1661.92
550.774	1664.24
550.978	1664.05
551.182	1696.21
551.386	1647.38
551.59	1679.16
551.794	1666.37
551.998	1697.37
552.202	1666.95
552.406	1644.28
552.61	1710.16
552.814	1676.64
553.018	1739.03
553.222	1650.1
553.426	1686.33
553.63	1764.41
553.833	1658.62
554.037	1649.52
554.241	1717.52
554.445	1698.53
554.649	1703.38
554.853	1683.23
555.056	1721.78
555.26	1725.46
555.464	1718.1
555.668	1704.35
555.871	1719.85
556.075	1696.4
556.279	1665.4
556.483	1634.02
556.686	1695.82
556.89	1662.69
557.094	1673.54
557.297	1624.72
557.501	1669.47
557.704	1599.92
557.908	1690.2
558.112	1644.67
558.315	1715.39
558.519	1612.7
558.722	1624.72
558.926	1623.55
559.129	1554.97
559.333	1554
559.536	1546.05
559.74	1553.8
559.943	1555.35
560.147	1568.53
560.35	1591.97
560.553	1582.48
560.757	1535.4
560.96	1598.95
561.164	1572.6
561.367	1690.2
561.57	1589.84
561.774	1586.55
561.977	1591.59
562.18	1555.74
562.384	1644.87
562.587	1582.09
562.79	1570.08
562.993	1572.79
563.197	1585.77
563.4	1647.58
563.603	1625.1
563.806	1654.36
564.009	1591.78
564.212	1575.89
564.416	1517.19
564.619	1582.09
564.822	1522.22
565.025	1587.52
565.228	1555.16
565.431	1531.33
565.634	1469.52
565.837	1498.59
566.04	1462.94
566.243	1467.78
566.446	1420.31
566.649	1494.91
566.852	1430
567.055	1455.57
567.258	1508.85
567.461	1532.49
567.664	1538.5
567.867	1483.28
568.07	1520.09
568.273	1484.06
568.475	1532.1
568.678	1426.71
568.881	1454.99
569.084	1439.49
569.287	1357.54
569.489	1383.11
569.692	1440.07
569.895	1452.09
570.098	1368.39
570.3	1376.72
570.503	1328.48
570.706	1319.18
570.909	1361.22
571.111	1305.23
571.314	1318.4
571.516	1346.11
571.719	1328.67
571.922	1323.83
572.124	1348.04
572.327	1399.58
572.529	1296.9
572.732	1327.7
572.935	1345.33
573.137	1413.14
573.34	1314.72
573.542	1353.47
573.745	1368.78
573.947	1326.93
574.15	1319.56
574.352	1279.46
574.554	1383.69
574.757	1335.45
574.959	1286.82
575.162	1269
575.364	1262.41
575.566	1368.58
575.769	1250.01
575.971	1309.68
576.173	1171.54
576.376	1256.98
576.578	1284.5
576.78	1332.93
576.982	1223.08
577.185	1269.19
577.387	1234.12
577.589	1252.72
577.791	1239.74
577.993	1263.18
578.196	1250.59
578.398	1271.51
578.6	1295.54
578.802	1194.4
579.004	1192.08
579.206	1210.87
579.408	1222.88
579.61	1234.9
579.812	1277.71
580.014	1223.66
580.216	1216.3
580.418	1225.21
580.62	1263.76
580.822	1207.38
581.024	1228.7
581.226	1266.09
581.428	1238.97
581.63	1276.55
581.832	1224.05
582.034	1318.01
582.236	1262.8
582.438	1286.05
582.64	1346.3
582.841	1298.06
583.043	1356.38
583.245	1253.5
583.447	1266.28
583.649	1277.71
583.85	1284.69
584.052	1309.49
584.254	1238.58
584.456	1287.21
584.657	1211.26
584.859	1253.3
585.061	1245.17
585.262	1219.01
585.464	1224.05
585.666	1300
585.867	1212.23
586.069	1281.2
586.27	1249.04
586.472	1237.22
586.674	1216.88
586.875	1210.48
587.077	1187.23
587.278	1224.82
587.48	1211.84
587.681	1277.71
587.883	1236.83
588.084	1179.87
588.285	1220.37
588.487	1216.1
588.688	1184.91
588.89	1109.54
589.091	1098.3
589.292	1132.99
589.494	1074.28
589.695	1075.64
589.896	985.93
590.098	1011.12
590.299	1099.85
590.5	1051.42
590.702	1092.49
590.903	1104.12
591.104	1159.33
591.305	1119.23
591.507	1167.86
591.708	1150.62
591.909	1101.4
592.11	1161.47
592.311	1148.1
592.512	1141.7
592.714	1105.47
592.915	1102.95
593.116	1091.52
593.317	1120.59
593.518	1103.15
593.719	1136.47
593.92	1125.24
594.121	1170.77
594.322	1113.03
594.523	1148.1
594.724	1080.09
594.925	1122.14
595.126	1126.79
595.327	1131.82
595.528	1127.37
595.729	1113.22
595.929	1083.97
596.13	1132.4
596.331	1149.65
596.532	1134.34
596.733	1166.12
596.934	1172.12
597.135	1149.84
597.335	1157.2
597.536	1101.79
597.737	1138.41
597.938	1115.35
598.138	1134.15
598.339	1114
598.54	1140.15
598.74	1126.98
598.941	1127.56
599.142	1170.18
599.342	1140.15
599.543	1103.54
599.744	1125.43
599.944	1095.98
600.145	1138.8
600.345	1126.59
600.546	1199.25
600.746	1193.43
600.947	1210.48
601.147	1110.9
601.348	1162.05
601.548	1087.26
601.749	1165.15
601.949	1107.6
602.15	1082.8
602.35	1120.97
602.551	1175.03
602.751	1060.52
602.951	1104.31
603.152	1045.22
603.352	1143.45
603.552	1134.73
603.753	1168.63
603.953	1150.04
604.153	1139.38
604.354	1127.17
604.554	1140.35
604.754	1120.2
604.954	1095.2
605.155	1163.6
605.355	1078.54
605.555	1191.5
605.755	1193.43
605.955	1137.25
606.155	1118.26
606.356	1126.98
606.556	1133.95
606.756	1134.54
606.956	1091.91
607.156	1179.29
607.356	1069.44
607.556	1090.36
607.756	1114.77
607.956	1180.07
608.156	1110.7
608.356	1073.31
608.556	1132.21
608.756	1098.5
608.956	1084.16
609.156	1107.6
609.356	1072.73
609.556	1091.91
609.755	1085.13
609.955	1006.47
610.155	1112.45
610.355	1107.22
610.555	1076.8
610.755	1088.23
610.954	1028.17
611.154	1074.86
611.354	1083.58
611.554	1048.51
611.753	1039.6
611.953	1040.37
612.153	1090.55
612.352	1081.25
612.552	1008.41
612.752	995.42
612.951	1058.01
613.151	1033.21
613.351	1007.82
613.55	1039.41
613.75	1059.56
613.949	1036.5
614.149	1031.07
614.348	1052.77
614.548	989.61
614.747	979.93
614.947	1019.64
615.146	951.06
615.346	1050.84
615.545	1017.9
615.745	1043.86
615.944	1041.73
616.144	1033.79
616.343	1037.08
616.542	989.81
616.742	1004.53
616.941	965.01
617.14	980.12
617.34	980.31
617.539	1020.61
617.738	955.13
617.938	1070.99
618.137	1007.44
618.336	957.84
618.535	986.71
618.734	1003.76
618.934	1022.16
619.133	976.44
619.332	1027.01
619.531	965.01
619.73	1020.22
619.929	1031.66
620.128	1021.58
620.328	1053.74
620.527	991.55
620.726	995.23
620.925	990.39
621.124	979.73
621.323	965.2
621.522	951.25
621.721	986.71
621.92	946.41
622.119	996.78
622.318	953.19
622.517	957.84
622.715	961.71
622.914	897.58
623.113	976.63
623.312	931.1
623.511	971.21
623.71	914.44
623.909	922.77
624.107	967.91
624.306	910.18
624.505	876.46
624.704	920.06
624.902	930.13
625.101	969.85
625.3	954.16
625.499	908.82
625.697	910.37
625.896	912.5
626.095	908.24
626.293	877.82
626.492	889.45
626.69	921.99
626.889	884.8
627.088	952.22
627.286	899.91
627.485	880.92
627.683	883.83
627.882	895.06
628.08	813.5
628.279	870.07
628.477	911.92
628.676	833.84
628.874	866.2
629.073	854.18
629.271	822.41
629.469	868.33
629.668	848.95
629.866	858.25
630.065	855.73
630.263	885.96
630.461	846.05
630.66	864.45
630.858	877.43
631.056	897.97
631.254	948.93
631.453	825.31
631.651	862.9
631.849	857.09
632.047	887.12
632.245	882.08
632.444	898.94
632.642	889.06
632.84	921.61
633.038	861.55
633.236	829.96
633.434	853.99
633.632	876.66
633.83	865.03
634.028	895.26
634.227	885.18
634.425	974.69
634.623	871.62
634.821	901.84
635.019	886.73
635.216	842.36
635.414	902.43
635.612	901.26
635.81	876.66
636.008	907.27
636.206	891.19
636.404	889.06
636.602	846.05
636.8	870.65
636.997	886.54
637.195	916.38
637.393	894.87
637.591	964.62
637.789	926.26
637.986	879.56
638.184	911.53
638.382	935.56
638.58	919.48
638.777	924.9
638.975	878.79
639.173	903.2
639.37	905.53
639.568	890.22
639.765	887.51
639.963	863.48
640.161	919.67
640.358	904.94
640.556	849.34
640.753	846.63
640.951	834.61
641.148	874.14
641.346	846.43
641.543	866.58
641.741	879.37
641.938	814.66
642.136	870.07
642.333	829.38
642.531	926.45
642.728	915.6
642.925	850.5
643.123	820.47
643.32	866.97
643.517	853.6
643.715	857.09
643.912	820.86
644.109	842.17
644.306	844.11
644.504	822.6
644.701	856.7
644.898	901.07
645.095	819.31
645.293	837.91
645.49	865.23
645.687	813.5
645.884	878.21
646.081	775.91
646.278	797.8
646.475	806.33
646.672	794.7
646.87	830.16
647.067	824.35
647.264	818.15
647.461	786.76
647.658	772.03
647.855	804.39
648.052	767.77
648.249	702.09
648.446	761.18
648.642	735.22
648.839	727.47
649.036	765.83
649.233	729.6
649.43	730.96
649.627	723.6
649.824	738.71
650.021	742.39
650.217	758.67
650.414	759.25
650.611	781.33
650.808	779.4
651.004	772.03
651.201	766.22
651.398	804.2
651.595	784.43
651.791	756.73
651.988	806.33
652.185	728.63
652.381	767.19
652.578	711.59
652.775	757.7
652.971	747.04
653.168	740.65
653.364	778.04
653.561	708.49
653.757	745.49
653.954	770.68
654.15	745.3
654.347	796.45
654.543	734.83
654.74	695.89
654.936	692.99
655.133	765.83
655.329	739.68
655.525	718.37
655.722	756.73
655.918	676.13
656.115	726.7
656.311	629.05
656.507	616.46
656.704	607.54
656.9	637.19
657.096	631.96
657.292	640.48
657.489	704.42
657.685	674
657.881	669.35
658.077	683.3
658.273	657.14
658.47	714.49
658.666	689.89
658.862	741.42
659.058	686.79
659.254	750.92
659.45	659.85
659.646	702.87
659.842	703.45
660.038	754.98
660.234	666.83
660.43	694.54
660.626	755.37
660.822	745.1
661.018	710.81
661.214	707.9
661.41	664.5
661.606	718.37
661.802	713.52
661.998	702.67
662.194	673.61
662.39	705.39
662.586	734.83
662.781	722.05
662.977	736.58
663.173	745.3
663.369	684.46
663.564	700.74
663.76	720.5
663.956	688.34
664.152	751.5
664.347	663.54
664.543	698.6
664.739	667.22
664.934	622.27
665.13	667.22
665.326	717.98
665.521	680.59
665.717	653.65
665.912	636.41
666.108	576.74
666.304	653.85
666.499	673.22
666.695	641.64
666.89	667.22
667.086	700.93
667.281	663.15
667.477	744.33
667.672	678.07
667.867	677.87
668.063	683.49
668.258	645.52
668.454	664.5
668.649	722.24
668.844	662.76
669.04	672.45
669.235	655.79
669.43	649.39
669.626	627.69
669.821	651.91
670.016	618.39
670.211	655.79
670.407	622.27
670.602	673.61
670.797	626.92
670.992	697.25
671.187	626.72
671.382	675.94
671.578	576.35
671.773	641.64
671.968	588.94
672.163	647.07
672.358	662.18
672.553	572.28
672.748	629.82
672.943	701.32
673.138	648.81
673.333	673.61
673.528	615.1
673.723	643.39
673.918	630.99
674.113	609.09
674.308	691.63
674.503	677.49
674.698	674
674.892	620.91
675.087	674.77
675.282	658.89
675.477	612.58
675.672	648.42
675.867	604.06
676.061	610.84
676.256	580.22
676.451	617.81
676.646	645.13
676.84	597.08
677.035	582.55
677.23	561.04
677.424	634.09
677.619	658.69
677.814	651.52
678.008	676.9
678.203	574.99
678.397	608.51
678.592	612
678.787	666.44
678.981	615.49
679.176	633.7
679.37	609.48
679.565	581.58
679.759	618.59
679.954	637.38
680.148	664.7
680.342	660.05
680.537	645.9
680.731	610.06
680.926	629.44
681.12	634.86
681.314	602.12
681.509	605.22
681.703	634.09
681.897	635.25
682.092	613.16
682.286	608.51
682.48	638.15
682.674	627.69
682.869	601.92
683.063	602.51
683.257	694.73
683.451	580.03
683.645	627.31
683.839	612.77
684.034	574.99
684.228	633.89
684.422	561.62
684.616	574.99
684.81	633.5
685.004	611.81
685.198	604.83
685.392	615.49
685.586	602.31
685.78	635.64
685.974	609.48
686.168	634.47
686.362	675.94
686.556	573.83
686.75	517.06
686.944	522.1
687.138	534.31
687.331	455.26
687.525	473.08
687.719	406.24
687.913	468.43
688.107	468.24
688.301	454.48
688.494	526.94
688.688	489.36
688.882	444.41
689.076	461.46
689.269	470.56
689.463	541.67
689.657	478.7
689.85	494.2
690.044	480.25
690.238	493.81
690.431	489.36
690.625	465.72
690.818	519.19
691.012	570.34
691.205	556.39
691.399	495.17
691.593	539.93
691.786	587.97
691.98	615.87
692.173	626.53
692.366	618.59
692.56	596.89
692.753	666.44
692.947	569.76
693.14	674.97
693.333	638.93
693.527	574.8
693.72	646.68
693.914	628.27
694.107	621.11
694.3	630.6
694.493	610.64
694.687	661.21
694.88	612.39
695.073	677.1
695.266	697.44
695.46	647.45
695.653	697.05
695.846	660.05
696.039	637.57
696.232	663.15
696.425	715.85
696.618	723.4
696.812	681.55
697.005	747.82
697.198	854.76
697.391	771.26
697.584	787.34
697.777	848.56
697.97	786.57
698.163	811.56
698.356	798.77
698.549	883.63
698.742	853.41
698.935	785.6
699.127	862.13
699.32	826.67
699.513	773.2
699.706	851.86
699.899	880.92
700.092	848.76
700.285	872.78
700.477	826.28
700.67	888.86
700.863	886.73
701.056	975.47
701.248	952.99
701.441	899.33
701.634	925.87
701.826	980.7
702.019	892.74
702.212	984.38
702.404	913.86
702.597	946.02
702.79	953.77
702.982	943.89
703.175	1029.14
703.367	1021.19
703.56	1007.82
703.752	1120.2
703.945	1058.78
704.137	1080.29
704.33	1084.94
704.522	1100.82
704.715	1139.19
704.907	1128.92
705.1	1157.4
705.292	1182.97
705.484	1163.02
705.677	1191.3
705.869	1233.35
706.061	1239.74
706.254	1287.98
706.446	1241.48
706.638	1200.6
706.831	1251.36
707.023	1238.38
707.215	1330.8
707.407	1319.56
707.599	1307.36
707.792	1363.54
707.984	1352.69
708.176	1381.76
708.368	1309.68
708.56	1363.93
708.752	1380.79
708.944	1365.09
709.136	1414.5
709.329	1404.62
709.521	1520.09
709.713	1482.51
709.905	1449.37
710.097	1530.17
710.289	1472.82
710.481	1475.34
710.672	1514.67
710.864	1542.57
711.056	1569.5
711.248	1553.42
711.44	1549.54
711.632	1562.72
711.824	1600.69
712.016	1632.27
712.207	1638.86
712.399	1646.8
712.591	1704.15
712.783	1669.67
712.975	1675.28
713.166	1644.87
713.358	1681.48
713.55	1757.82
713.741	1731.66
713.933	1754.33
714.125	1745.81
714.316	1706.86
714.508	1799.86
714.7	1778.55
714.891	1746.78
715.083	1838.23
715.274	1807.23
715.466	1815.36
715.657	1822.34
715.849	1762.47
716.04	1804.13
716.232	1760.53
716.423	1814.39
716.615	1746.39
716.806	1702.02
716.998	1655.91
717.189	1624.52
717.381	1550.32
717.572	1557.1
717.763	1568.14
717.955	1540.63
718.146	1540.24
718.337	1479.41
718.528	1439.49
718.72	1355.99
718.911	1438.52
719.102	1407.72
719.293	1467.01
719.485	1449.96
719.676	1422.44
719.867	1402.29
720.058	1387.38
720.249	1425.16
720.44	1419.54
720.632	1483.28
720.823	1541.79
721.014	1619.29
721.205	1648.74
721.396	1728.76
721.587	1817.11
721.778	1848.69
721.969	1916.69
722.16	1945.17
722.351	1920.18
722.542	2012.6
722.733	2107.53
722.924	1967.45
723.115	2034.88
723.305	2013.37
723.496	1995.74
723.687	1935.68
723.878	1912.24
724.069	1909.91
724.26	1942.27
724.45	1887.44
724.641	1891.89
724.832	1915.92
725.023	1944.4
725.213	1856.63
725.404	1859.15
725.595	1872.91
725.785	1860.89
725.976	1962.61
726.167	1922.7
726.357	1922.89
726.548	2085.64
726.739	1977.92
726.929	2023.06
727.12	2073.82
727.31	2051.54
727.501	1990.9
727.691	2014.92
727.882	2027.32
728.072	2120.32
728.263	2123.23
728.453	2147.83
728.644	2117.61
728.834	2126.33
729.024	2130.4
729.215	2087.77
729.405	2102.11
729.596	2213.9
729.786	2234.44
729.976	2283.46
730.167	2241.61
730.357	2191.81
730.547	2243.54
730.737	2280.55
730.928	2280.16
731.118	2355.72
731.308	2335.96
731.498	2317.94
731.688	2388.08
731.879	2408.23
732.069	2439.04
732.259	2522.93
732.449	2530.87
732.639	2589.96
732.829	2596.55
733.019	2652.35
733.209	2682.58
733.399	2739.92
733.589	2816.07
733.779	2818.01
733.969	2770.34
734.159	2911.97
734.349	2915.27
734.539	2979.78
734.729	2971.26
734.919	2972.62
735.109	3041.4
735.299	2938.9
735.488	3036.75
735.678	3029.96
735.868	3006.33
736.058	2988.12
736.248	2964.87
736.437	3004.2
736.627	2959.83
736.817	3079.95
737.007	3055.73
737.196	3091.19
737.386	3086.34
737.576	3019.31
737.765	3133.04
737.955	3099.33
738.144	3225.26
738.334	3177.6
738.524	3142.92
738.713	3171.4
738.903	3168.11
739.092	3193.29
739.282	3203.76
739.471	3245.8
739.661	3214.02
739.85	3270.99
740.04	3278.15
740.229	3261.69
740.419	3331.63
740.608	3309.74
740.797	3349.07
740.987	3354.49
741.176	3340.54
741.365	3356.82
741.555	3329.11
741.744	3390.14
741.933	3301.4
742.123	3407.77
742.312	3405.45
742.501	3421.14
742.69	3463.57
742.88	3396.34
743.069	3482.95
743.258	3466.09
743.447	3485.27
743.636	3466.67
743.825	3491.08
744.014	3519.37
744.204	3520.92
744.393	3461.44
744.582	3579.04
744.771	3572.46
744.96	3487.6
745.149	3587.76
745.338	3491.47
745.527	3569.55
745.716	3535.64
745.905	3502.13
746.094	3553.28
746.283	3574.59
746.471	3522.47
746.66	3560.64
746.849	3561.03
747.038	3637.17
747.227	3553.47
747.416	3608.11
747.604	3594.54
747.793	3575.36
747.982	3592.22
748.171	3617.6
748.359	3597.45
748.548	3578.66
748.737	3566.06
748.926	3588.15
749.114	3513.95
749.303	3575.17
749.491	3535.45
749.68	3504.65
749.869	3603.07
750.057	3529.83
750.246	3527.7
750.434	3550.76
750.623	3491.86
750.811	3510.26
751	3610.24
751.188	3518.01
751.377	3565.09
751.565	3479.85
751.754	3485.08
751.942	3493.41
752.131	3574.2
752.319	3514.33
752.507	3433.54
752.696	3524.99
752.884	3534.29
753.072	3463.76
753.261	3500.19
753.449	3493.8
753.637	3489.73
753.825	3577.69
754.014	3475.78
754.202	3495.35
754.39	3543.39
754.578	3514.14
754.766	3503.68
754.955	3451.36
755.143	3489.92
755.331	3465.51
755.519	3494.57
755.707	3511.23
755.895	3452.53
756.083	3463.76
756.271	3428.31
756.459	3447.68
756.647	3485.27
756.835	3461.83
757.023	3394.6
757.211	3380.07
757.399	3409.9
757.587	3417.46
757.775	3396.34
757.963	3409.52
758.151	3422.88
758.339	3347.32
758.526	3366.7
758.714	3370.38
758.902	3226.42
759.09	3146.99
759.278	2947.43
759.465	2711.83
759.653	2356.11
759.841	2130.4
760.028	1801.61
760.216	1602.05
760.404	1470.88
760.591	1206.03
760.779	1010.73
760.967	880.53
761.154	750.92
761.342	762.35
761.529	754.02
761.717	843.14
761.905	802.45
762.092	854.76
762.28	829.96
762.467	808.46
762.655	736
762.842	773.2
763.029	788.89
763.217	784.24
763.404	779.78
763.592	821.44
763.779	781.14
763.966	824.73
764.154	883.83
764.341	903.2
764.528	925.29
764.716	979.15
764.903	1049.67
765.09	1089.78
765.277	1139.77
765.465	1304.65
765.652	1352.89
765.839	1447.24
766.026	1572.6
766.213	1629.75
766.4	1753.75
766.588	1944.21
766.775	1942.66
766.962	2049.6
767.149	2131.75
767.336	2284.04
767.523	2281.91
767.71	2378.78
767.897	2495.03
768.084	2540.75
768.271	2586.09
768.458	2685.68
768.645	2772.28
768.832	2707.76
769.019	2752.71
769.206	2777.71
769.392	2851.33
769.579	2951.11
769.766	2901.51
769.953	2915.65
770.14	2972.23
770.327	2937.74
770.513	3006.52
770.7	3061.16
770.887	2989.67
771.073	3004.39
771.26	3019.7
771.447	2990.25
771.634	2987.73
771.82	3060.58
772.007	3019.5
772.193	3011.95
772.38	3064.26
772.567	3024.73
772.753	3017.95
772.94	3097.58
773.126	3084.79
773.313	3049.92
773.499	3062.9
773.686	3097.19
773.872	2958.28
774.059	3042.95
774.245	3011.75
774.432	3003.61
774.618	2991.6
774.804	3019.11
774.991	2984.05
775.177	3016.79
775.363	3006.91
775.55	3017.95
775.736	2934.45
775.922	2978.82
776.109	2968.74
776.295	2955.57
776.481	2992.77
776.667	3007.1
776.853	2963.32
777.04	2929.41
777.226	2894.15
777.412	3005.16
777.598	2941.23
777.784	2921.27
777.97	2886.98
778.156	2920.69
778.342	2911
778.528	2911.2
778.715	2802.89
778.901	2899.57
779.087	2924.95
779.272	2868.57
779.458	2810.64
779.644	2878.45
779.83	2852.49
780.016	2940.84
780.202	2856.56
780.388	2818.39
780.574	2767.05
780.76	2826.34
780.946	2863.15
781.131	2813.36
781.317	2783.13
781.503	2788.75
781.689	2807.54
781.874	2910.03
782.06	2785.65
782.246	2801.15
782.432	2828.47
782.617	2794.37
782.803	2832.92
782.989	2744.38
783.174	2753.29
783.36	2678.12
783.545	2695.56
783.731	2760.85
783.916	2685.09
784.102	2740.31
784.288	2684.71
784.473	2704.66
784.659	2685.48
784.844	2741.09
785.029	2681.99
785.215	2677.73
785.4	2633.56
785.586	2704.28
785.771	2653.9
785.956	2683.54
786.142	2638.79
786.327	2630.07
786.512	2633.17
786.698	2638.6
786.883	2588.03
787.068	2577.95
787.254	2560.9
787.439	2582.8
787.624	2558.96
787.809	2552.96
787.994	2542.3
788.18	2595.2
788.365	2494.06
788.55	2549.86
788.735	2547.15
788.92	2513.82
789.105	2492.9
789.29	2523.32
789.475	2444.85
789.66	2433.61
789.845	2433.22
790.03	2430.7
790.215	2487.67
790.4	2495.22
790.585	2493.48
790.77	2454.92
790.955	2368.12
791.14	2434.77
791.325	2516.92
791.51	2356.5
791.695	2405.52
791.879	2399.51
792.064	2393.7
792.249	2469.26
792.434	2416.37
792.618	2388.66
792.803	2482.24
792.988	2393.12
793.173	2415.98
793.357	2459.57
793.542	2373.36
793.727	2399.32
793.911	2440.59
794.096	2424.31
794.281	2430.12
794.465	2536.88
794.65	2407.45
794.834	2474.68
795.019	2501.62
795.203	2528.16
795.388	2474.88
795.572	2490.77
795.757	2466.55
795.941	2486.12
796.126	2467.9
796.31	2365.02
796.494	2451.82
796.679	2442.72
796.863	2375.1
797.048	2487.67
797.232	2418.5
797.416	2455.31
797.601	2457.05
797.785	2517.12
797.969	2467.9
798.153	2468.49
798.338	2508.4
798.522	2529.71
798.706	2546.37
798.89	2525.25
799.074	2592.68
799.258	2528.55
799.443	2500.65
799.627	2518.67
799.811	2499.68
799.995	2462.87
800.179	2507.82
800.363	2464.8
800.547	2455.31
800.731	2503.17
800.915	2471.39
801.099	2474.3
801.283	2425.09
801.467	2441.55
801.651	2415.98
801.835	2510.72
802.019	2468.87
802.202	2459.96
802.386	2418.89
802.57	2413.46
802.754	2459.77
802.938	2399.9
803.121	2421.21
803.305	2441.55
803.489	2434.77
803.673	2438.84
803.856	2461.51
804.04	2437.1
804.224	2456.28
804.407	2455.12
804.591	2437.87
804.775	2459.38
804.958	2467.9
805.142	2554.32
805.326	2442.14
805.509	2486.89
805.693	2505.3
805.876	2503.55
806.06	2446.79
806.243	2501.81
806.427	2554.32
806.61	2517.5
806.794	2463.45
806.977	2510.53
807.16	2488.05
807.344	2537.65
807.527	2472.94
807.71	2456.09
807.894	2461.12
808.077	2497.74
808.26	2443.49
808.444	2382.07
808.627	2460.93
808.81	2443.1
808.993	2347.39
809.177	2365.8
809.36	2403.39
809.543	2405.52
809.726	2300.31
809.909	2322.4
810.092	2311.94
810.276	2312.52
810.459	2314.84
810.642	2291.79
810.825	2269.51
811.008	2283.07
811.191	2202.08
811.374	2207.31
811.557	2186.2
811.74	2253.43
811.923	2149.96
812.106	2147.45
812.289	2106.95
812.472	2139.31
812.654	2141.25
812.837	2054.45
813.02	2047.28
813.203	2007.75
813.386	1945.37
813.569	1890.92
813.751	1850.63
813.934	1896.35
814.117	1885.69
814.3	1814.39
814.482	1789.21
814.665	1732.83
814.848	1716.16
815.03	1654.17
815.213	1669.47
815.396	1652.81
815.578	1659.59
815.761	1601.27
815.943	1647.19
816.126	1570.85
816.309	1537.53
816.491	1489.29
816.674	1429.42
816.856	1482.31
817.039	1479.6
817.221	1563.3
817.403	1515.25
817.586	1528.81
817.768	1502.85
817.951	1429.61
818.133	1402.88
818.315	1473.79
818.498	1519.9
818.68	1559.04
818.862	1548.96
819.045	1533.85
819.227	1527.26
819.409	1504.01
819.591	1521.64
819.774	1534.04
819.956	1485.02
820.138	1592.55
820.32	1589.65
820.502	1621.03
820.684	1697.95
820.866	1689.62
821.048	1750.26
821.231	1711.32
821.413	1722.36
821.595	1720.81
821.777	1743.68
821.959	1723.53
822.141	1767.7
822.323	1633.63
822.505	1589.84
822.686	1502.66
822.868	1472.82
823.05	1343.39
823.232	1345.33
823.414	1303.87
823.596	1349.79
823.778	1330.41
823.96	1353.08
824.141	1377.11
824.323	1369.16
824.505	1482.89
824.687	1503.82
824.868	1560
825.05	1652.42
825.232	1649.71
825.413	1716.36
825.595	1698.34
825.777	1643.12
825.958	1684
826.14	1649.13
826.321	1710.74
826.503	1653.78
826.685	1703.38
826.866	1725.46
827.048	1719.65
827.229	1642.54
827.411	1612.7
827.592	1560.59
827.773	1593.14
827.955	1542.18
828.136	1546.25
828.318	1483.67
828.499	1508.85
828.68	1467.01
828.862	1504.79
829.043	1532.69
829.224	1526.1
829.406	1451.31
829.587	1481.92
829.768	1462.36
829.949	1531.52
830.131	1508.85
830.312	1564.07
830.493	1506.14
830.674	1539.47
830.855	1496.84
831.036	1524.74
831.218	1585.97
831.399	1583.25
831.58	1538.5
831.761	1503.62
831.942	1532.88
832.123	1510.02
832.304	1457.12
832.485	1497.23
832.666	1482.31
832.847	1537.72
833.028	1514.47
833.209	1511.76
833.389	1475.92
833.57	1456.54
833.751	1456.74
833.932	1556.9
834.113	1527.65
834.294	1537.72
834.475	1531.91
834.655	1560.78
834.836	1589.65
835.017	1564.27
835.198	1514.28
835.378	1555.74
835.559	1578.41
835.74	1536.56
835.92	1495.68
836.101	1519.9
836.281	1578.6
836.462	1574.34
836.643	1619.1
836.823	1595.27
837.004	1549.74
837.184	1669.28
837.365	1608.63
837.545	1600.11
837.726	1558.07
837.906	1634.4
838.087	1576.47
838.267	1585.97
838.448	1568.34
838.628	1612.12
838.808	1596.04
838.989	1614.06
839.169	1503.04
839.349	1621.81
839.53	1620.26
839.71	1610.57
839.89	1555.35
840.07	1629.75
840.251	1564.07
840.431	1602.24
840.611	1583.25
840.791	1561.17
840.971	1587.32
841.151	1576.09
841.332	1547.02
841.512	1620.07
841.692	1553.03
841.872	1601.66
842.052	1565.43
842.232	1609.22
842.412	1521.45
842.592	1532.1
842.772	1566.2
842.952	1609.22
843.132	1552.45
843.312	1557.87
843.492	1522.42
843.672	1567.95
843.851	1495.87
844.031	1529.97
844.211	1517.38
844.391	1531.72
844.571	1547.99
844.751	1536.17
844.93	1531.14
845.11	1512.54
845.29	1579.96
845.47	1577.64
845.649	1531.52
845.829	1578.22
846.009	1526.68
846.188	1525.13
846.368	1523.58
846.547	1519.32
846.727	1537.53
846.907	1476.5
847.086	1544.31
847.266	1578.02
847.445	1516.22
847.625	1496.07
847.804	1490.26
847.984	1510.6
848.163	1478.82
848.343	1490.84
848.522	1511.76
848.701	1496.26
848.881	1475.72
849.06	1499.75
849.239	1463.91
849.419	1533.27
849.598	1421.67
849.777	1428.45
849.957	1411.79
850.136	1362.19
850.315	1349.98
850.494	1396.48
850.674	1365.87
850.853	1411.01
851.032	1385.05
851.211	1455.19
851.39	1405.59
851.569	1377.3
851.748	1358.7
851.927	1432.32
852.107	1403.26
852.286	1355.6
852.465	1355.02
852.644	1436.39
852.823	1367.81
853.002	1389.51
853.181	1392.8
853.359	1406.75
853.538	1345.53
853.717	1426.51
853.896	1292.83
854.075	1254.46
854.254	1205.25
854.433	1159.92
854.611	1212.62
854.79	1174.25
854.969	1221.14
855.148	1241.68
855.327	1210.48
855.505	1227.15
855.684	1232.57
855.863	1256.6
856.041	1234.51
856.22	1293.02
856.399	1237.8
856.577	1336.61
856.756	1288.95
856.934	1439.11
857.113	1450.15
857.291	1321.89
857.47	1302.9
857.648	1302.71
857.827	1337.58
858.005	1338.74
858.184	1299.22
858.362	1410.04
858.541	1328.67
858.719	1309.3
858.898	1321.7
859.076	1308.52
859.254	1353.28
859.433	1338.16
859.611	1278.88
859.789	1274.03
859.967	1362.38
860.146	1381.76
860.324	1279.26
860.502	1283.53
860.68	1240.52
860.859	1264.93
861.037	1244.58
861.215	1287.6
861.393	1280.81
861.571	1269.19
861.749	1261.83
861.927	1306.39
862.105	1241.1
862.283	1252.72
862.461	1251.56
862.639	1203.51
862.817	1250.78
862.995	1256.21
863.173	1262.6
863.351	1252.91
863.529	1276.94
863.707	1278.1
863.885	1248.26
864.063	1194.4
864.241	1242.07
864.418	1269.19
864.596	1213.78
864.774	1171.35
864.952	1219.2
865.129	1215.72
865.307	1187.62
865.485	1160.3
865.663	1242.07
865.84	1137.25
866.018	1187.82
866.196	1049.48
866.373	1095.2
866.551	1048.51
866.728	1003.17
866.906	1025.65
867.084	1069.63
867.261	1087.84
867.439	1092.49
867.616	1132.21
867.794	1099.66
867.971	1111.29
868.149	1109.74
868.326	1190.72
868.503	1168.25
868.681	1126.2
868.858	1140.74
869.035	1115.55
869.213	1158.95
869.39	1101.99
869.567	1198.47
869.745	1108.19
869.922	1146.55
870.099	1167.47
870.276	1157.2
870.454	1147.52
870.631	1146.35
870.808	1138.22
870.985	1155.65
871.162	1189.37
871.339	1163.79
871.517	1120.39
871.694	1080.48
871.871	1096.37
872.048	1103.15
872.225	1100.05
872.402	1134.15
872.579	1045.61
872.756	1126.01
872.933	1049.29
873.11	1075.44
873.287	1130.27
873.463	1047.74
873.64	1070.99
873.817	1099.66
873.994	1084.55
874.171	1047.54
874.348	1035.14
874.524	1027.78
874.701	1057.81
874.878	978.76
875.055	1062.85
875.231	1063.62
875.408	1085.32
875.585	1033.01
875.762	1045.8
875.938	1018.87
876.115	1016.16
876.291	1018.87
876.468	1052.58
876.645	992.32
876.821	1021.77
876.998	1001.62
877.174	1026.81
877.351	998.91
877.527	999.49
877.704	1052
877.88	1017.12
878.057	996.39
878.233	1058.39
878.409	971.98
878.586	1049.87
878.762	1009.96
878.938	978.57
879.115	928.39
879.291	984.57
879.467	950.86
879.644	986.9
879.82	987.87
879.996	939.04
880.172	935.94
880.349	916.38
880.525	962.29
880.701	918.51
880.877	936.72
881.053	951.64
881.229	924.51
881.405	1001.04
881.581	932.65
881.757	917.93
881.933	920.64
882.109	964.23
882.285	916.96
882.461	881.5
882.637	916.76
882.813	914.83
882.989	918.51
883.165	978.18
883.341	906.49
883.517	991.16
883.693	966.94
883.869	940.59
884.044	920.83
884.22	924.71
884.396	959.39
884.572	956.29
884.747	978.57
884.923	977.41
885.099	1007.24
885.275	982.25
885.45	929.94
885.626	939.24
885.801	905.72
885.977	933.23
886.153	908.43
886.328	946.6
886.504	895.65
886.679	953.77
886.855	929.74
887.03	936.72
887.206	946.79
887.381	942.92
887.557	953.96
887.732	970.63
887.908	966.17
888.083	945.83
888.258	928.97
888.434	944.86
888.609	956.68
888.784	977.02
888.96	923.54
889.135	928.19
889.31	895.64
889.485	928.97
889.661	901.84
889.836	976.63
890.011	990.97
890.186	907.27
890.361	893.13
890.537	942.73
890.712	947.57
890.887	958.61
891.062	929.16
891.237	982.25
891.412	914.63
891.587	920.44
891.762	962.1
891.937	965.2
892.112	892.16
892.287	894.68
892.462	876.08
892.637	838.1
892.812	865.61
892.987	867.75
893.161	799.74
893.336	867.16
893.511	813.69
893.686	852.05
893.861	835.78
894.035	840.04
894.21	860
894.385	789.08
894.56	833.84
894.734	766.8
894.909	767.97
895.084	787.53
895.258	758.86
895.433	753.05
895.608	748.59
895.782	688.72
895.957	732.32
896.131	731.54
896.306	621.88
896.48	682.14
896.655	648.62
896.829	618.59
897.004	612.97
897.178	603.28
897.353	626.72
897.527	638.15
897.701	630.79
897.876	578.48
898.05	668.19
898.224	653.46
898.399	663.34
898.573	614.71
898.747	524.81
898.921	573.64
899.096	472.89
899.27	506.21
899.444	487.23
899.618	519.97
899.792	546.51
899.967	533.53
900.141	556.59
900.315	492.65
900.489	540.51
900.663	536.05
900.837	550.77
901.011	504.86
901.185	590.49
901.359	549.03
901.533	527.72
901.707	556.2
901.881	545.35
902.055	489.55
902.229	528.11
902.403	575.77
902.576	566.86
902.75	567.44
902.924	636.6
903.098	598.63
903.272	654.82
903.446	641.84
903.619	636.99
903.793	668.19
903.967	670.12
904.14	716.43
904.314	701.32
904.488	683.49
904.661	688.92
904.835	659.08
905.009	698.8
905.182	746.46
905.356	692.79
905.529	681.36
905.703	677.1
905.876	663.15
906.05	629.44
906.223	618.2
906.397	587.97
906.57	549.61
906.744	520.74
906.917	514.16
907.09	539.54
907.264	541.86
907.437	529.66
907.61	474.83
907.784	486.26
907.957	511.06
908.13	478.31
908.304	490.71
908.477	456.03
908.65	471.14
908.823	443.83
908.996	543.41
909.17	446.35
909.343	468.43
909.516	466.88
909.689	466.3
909.862	439.37
910.035	460.29
910.208	463.78
910.381	463.78
910.554	532.56
910.727	450.03
910.9	457.97
911.073	440.34
911.246	523.46
911.419	516.87
911.592	501.56
911.765	454.48
911.938	447.9
912.11	474.44
912.283	469.98
912.456	508.54
912.629	462.23
912.802	433.75
912.974	395.97
913.147	398.88
913.32	350.44
913.493	383.76
913.665	394.03
913.838	412.25
914.01	400.81
914.183	418.45
914.356	396.55
914.528	418.25
914.701	472.69
914.873	452.16
915.046	414.38
915.218	378.15
915.391	314.21
915.563	340.56
915.736	389
915.908	399.85
916.081	390.55
916.253	391.9
916.425	397.33
916.598	437.63
916.77	414.76
916.942	368.65
917.115	304.52
917.287	405.46
917.459	358.97
917.632	309.75
917.804	304.13
917.976	371.56
918.148	382.99
918.32	375.82
918.493	429.3
918.665	446.15
918.837	402.95
919.009	470.37
919.181	466.88
919.353	438.4
919.525	405.27
919.697	448.28
919.869	439.76
920.041	490.71
920.213	534.89
920.385	492.65
920.557	442.47
920.729	458.36
920.901	474.05
921.073	401.4
921.244	409.92
921.416	476.76
921.588	412.05
921.76	424.84
921.932	489.74
922.103	420.77
922.275	413.41
922.447	449.45
922.619	355.28
922.79	440.53
922.962	383.38
923.134	435.3
923.305	378.53
923.477	351.8
923.648	345.79
923.82	389.58
923.991	299.29
924.163	329.52
924.335	358.97
924.506	346.18
924.677	424.26
924.849	339.4
925.02	352.96
925.192	372.33
925.363	369.82
925.535	372.14
925.706	369.04
925.877	403.91
926.049	352.77
926.22	382.41
926.391	335.13
926.562	401.01
926.734	355.48
926.905	399.26
927.076	308.4
927.247	344.63
927.419	283.99
927.59	288.44
927.761	332.23
927.932	269.65
928.103	298.32
928.274	266.16
928.445	255.5
928.616	258.6
928.787	235.35
928.958	279.72
929.129	278.75
929.3	243.1
929.471	209.78
929.642	149.91
929.813	140.22
929.984	250.47
930.155	127.63
930.326	224.89
930.496	150.88
930.667	117.17
930.838	142.16
931.009	139.84
931.18	127.63
931.35	144.29
931.521	146.04
931.692	81.33
931.863	59.04
932.033	114.07
932.204	123.76
932.374	112.13
932.545	55.94
932.716	121.82
932.886	111.94
933.057	35.99
933.227	56.72
933.398	133.83
933.568	21.07
933.739	20.49
933.909	61.76
934.08	73.77
934.25	8.86
934.421	21.26
934.591	48.97
934.761	26.49
934.932	-8.19
935.102	30.37
935.272	28.63
935.443	32.69
935.613	34.83
935.783	46.64
935.953	4.8
936.123	176.26
936.294	6.15
936.464	11.96
936.634	40.06
936.804	5.18
936.974	10.03
937.144	54.78
937.314	21.46
937.484	7.12
937.655	13.13
937.825	66.6
937.995	3.83
938.165	55.94
938.334	24.36
938.504	51.29
938.674	23.59
938.844	35.99
939.014	83.07
939.184	105.54
939.354	130.73
939.524	114.07
939.694	73.96
939.863	66.6
940.033	124.92
940.203	114.84
940.373	83.84
940.542	97.41
940.712	59.24
940.882	133.25
941.051	137.51
941.221	90.43
941.391	134.61
941.56	77.64
941.73	55.56
941.899	168.32
942.069	68.93
942.238	97.79
942.408	45.87
942.577	109.23
942.747	63.89
942.916	25.33
943.086	46.26
943.255	88.69
943.425	104.77
943.594	38.89
943.763	-1.6
943.933	27.27
944.102	-16.9
944.271	43.74
944.441	60.59
944.61	50.91
944.779	70.67
944.948	128.41
945.117	23.39
945.287	64.08
945.456	25.14
945.625	38.7
945.794	70.67
945.963	50.71
946.132	50.71
946.301	46.45
946.47	74.54
946.639	-11.67
946.808	29.21
946.977	73.19
947.146	98.38
947.315	24.36
947.484	69.31
947.653	60.79
947.822	48
947.991	30.56
948.16	121.24
948.329	92.56
948.498	55.17
948.666	59.24
948.835	65.05
949.004	50.33
949.173	28.82
949.341	29.21
949.51	63.89
949.679	103.41
949.847	81.33
950.016	107.09
950.185	97.79
950.353	14.29
950.522	43.54
950.69	126.86
950.859	47.61
951.028	95.86
951.196	63.11
951.365	48.78
951.533	61.95
951.701	83.26
951.87	88.69
952.038	16.61
952.207	64.86
952.375	127.44
952.543	29.01
952.712	34.24
952.88	37.34
953.048	98.57
953.217	60.4
953.385	76.09
953.553	110.19
953.721	37.34
953.89	67.96
954.058	18.55
954.226	55.36
954.394	61.95
954.562	8.48
954.73	61.56
954.898	29.21
955.067	108.06
955.235	40.44
955.403	85.59
955.571	128.99
955.739	86.36
955.907	39.28
956.075	24.75
956.243	16.61
956.41	79.78
956.578	10.22
956.746	-0.24
956.914	48.58
957.082	80.94
957.25	104.19
957.418	48.19
957.585	58.85
957.753	100.89
957.921	29.21
958.089	66.79
958.256	76.68
958.424	82.1
958.592	61.37
958.759	28.24
958.927	78.42
959.095	31.92
959.262	44.13
959.43	55.94
959.597	31.53
959.765	69.7
959.932	17.39
960.1	80.36
960.267	75.71
960.435	49.36
960.602	106.32
960.77	38.12
960.937	40.44
961.104	76.68
961.272	9.25
961.439	73.77
961.606	77.84
961.774	62.53
961.941	68.34
962.108	84.62
962.275	76.29
962.443	84.04
962.61	86.56
962.777	134.8
962.944	91.79
963.111	94.11
963.278	101.48
963.446	69.7
963.613	56.33
963.78	82.1
963.947	89.27
964.114	84.23
964.281	138.67
964.448	97.6
964.615	62.34
964.782	95.86
964.949	112.13
965.116	94.89
965.282	135.57
965.449	81.13
965.616	63.5
965.783	96.24
965.95	95.86
966.117	17.97
966.283	66.6
966.45	90.63
966.617	103.41
966.784	106.71
966.95	128.21
967.117	105.35
967.284	57.88
967.45	74.35
967.617	109.81
967.784	112.32
967.95	141.39
968.117	101.67
968.283	115.23
968.45	163.28
968.616	103.22
968.783	123.17
968.949	122.21
969.116	128.99
969.282	89.08
969.449	125.69
969.615	85.98
969.781	60.98
969.948	90.82
970.114	88.49
970.28	164.83
970.447	107.87
970.613	137.9
970.779	90.63
970.945	111.16
971.112	108.84
971.278	102.44
971.444	93.53
971.61	144.1
971.776	101.86
971.942	110.97
972.108	124.92
972.275	79
972.441	110.58
972.607	176.26
972.773	95.47
972.939	127.82
973.105	99.15
973.271	72.8
973.437	67.96
973.602	56.14
973.768	127.24
973.934	57.3
974.1	109.61
974.266	27.27
974.432	111.36
974.598	78.81
974.763	113.49
974.929	55.56
975.095	171.03
975.261	46.45
975.426	55.17
975.592	82.1
975.758	128.79
975.923	18.55
976.089	69.31
976.255	110.97
976.42	102.44
976.586	112.91
976.751	79.39
976.917	167.16
977.082	125.69
977.248	62.73
977.413	37.34
977.579	80.74
977.744	98.76
977.91	45.68
978.075	58.66
978.24	118.72
978.406	72.22
978.571	87.53
978.736	24.36
978.902	83.26
979.067	58.85
979.232	33.47
979.397	58.66
979.563	123.76
979.728	44.51
979.893	80.55
980.058	57.11
980.223	96.24
980.388	85.39
980.554	72.03
980.719	70.09
980.884	85.2
981.049	109.23
981.214	59.63
981.379	115.42
981.544	55.94
981.709	83.26
981.874	77.26
982.039	75.32
982.204	91.21
982.368	76.09
982.533	43.16
982.698	123.95
982.863	110.58
983.028	63.69
983.193	88.88
983.357	81.13
983.522	75.71
983.687	61.56
983.852	45.87
984.016	89.27
984.181	103.61
984.346	78.81
984.51	112.91
984.675	85.2
984.839	108.84
985.004	80.94
985.168	102.83
985.333	94.11
985.498	76.87
985.662	104.96
985.827	92.76
985.991	63.11
986.155	58.85
986.32	109.03
986.484	134.41
986.649	93.73
986.813	24.17
986.977	71.25
987.142	84.43
987.306	70.28
987.47	60.01
987.634	74.74
987.799	88.88
987.963	80.16
988.127	89.85
988.291	144.29
988.455	79.58
988.62	86.17
988.784	87.33
988.948	91.4
989.112	43.93
989.276	82.68
989.44	84.62
989.604	50.13
989.768	78.23
989.932	144.87
990.096	74.35
990.26	31.34
990.424	62.73
990.588	74.74
990.752	123.95
990.915	79.78
991.079	48
991.243	77.84
991.407	109.23
991.571	62.34
991.734	100.7
991.898	77.84
992.062	178.39
992.226	87.33
992.389	66.99
992.553	29.98
992.717	47.23
992.88	69.7
993.044	73.38
993.207	65.05
993.371	71.44
993.535	77.26
993.698	83.46
993.862	102.64
994.025	106.9
994.189	65.83
994.352	64.66
994.515	82.1
994.679	91.4
994.842	72.8
995.006	103.8
995.169	44.51
995.332	56.91
995.496	95.28
995.659	26.88
995.822	46.26
995.985	60.4
996.149	121.24
996.312	60.59
996.475	135.57
996.638	23.98
996.801	129.37
996.964	119.49
997.128	62.34
997.291	65.24
997.454	62.14
997.617	38.12
997.78	88.88
997.943	53.04
998.106	77.06
998.269	19.71
998.432	75.13
998.595	68.15
998.758	25.14
998.92	35.6
999.083	13.51
999.246	45.48
999.409	23.78
999.572	-3.92
999.735	63.31
999.897	67.38
1000.06	54.59
1000.223	58.08
1000.386	59.04
1000.548	93.14
1000.711	69.31
1000.874	57.49
1001.036	-4.7
1001.199	77.26
1001.361	44.13
1001.524	42.77
1001.687	83.46
1001.849	31.14
1002.012	85.59
1002.174	44.9
1002.337	81.33
1002.499	54.98
1002.661	100.31
1002.824	0.53
1002.986	30.37
1003.149	43.35
1003.311	15.84
1003.473	107.87
1003.636	19.71
1003.798	80.36
1003.96	88.49
1004.123	52.07
1004.285	52.26
1004.447	61.18
1004.609	36.57
1004.771	90.43
1004.933	26.11
1005.096	9.45
1005.258	-5.09
1005.42	48.19
1005.582	79.19
1005.744	35.02
1005.906	-8.77
1006.068	55.75
1006.23	25.14
1006.392	2.08
1006.554	6.35
1006.716	85.59
1006.878	82.29
1007.04	3.44
1007.202	28.63
1007.363	32.69
1007.525	41.03
1007.687	67.57
1007.849	86.17
1008.011	-16.52
1008.172	20.49
1008.334	20.3
1008.496	56.72
1008.658	6.54
1008.819	-11.87
1008.981	13.9
1009.143	15.45
1009.304	23.39
1009.466	61.18
1009.627	75.32
1009.789	137.71
1009.95	53.04
1010.112	22.62
1010.273	56.53
1010.435	33.28
1010.596	29.98
1010.758	6.15
1010.919	17.39
1011.081	-19.42
1011.242	41.61
1011.403	53.43
1011.565	28.04
1011.726	35.02
1011.887	13.9
1012.049	20.88
1012.21	50.71
1012.371	77.45
1012.532	-31.24
1012.693	32.5
1012.855	13.51
1013.016	7.31
1013.177	58.66
1013.338	26.3
1013.499	72.8
1013.66	66.6
1013.821	43.54
1013.982	42.96
1014.143	41.8
1014.304	30.18
1014.465	56.53
1014.626	31.92
1014.787	29.21
1014.948	118.91
1015.109	-51.39
1015.27	70.86
1015.431	-0.44
1015.592	6.73
1015.752	71.44
1015.913	27.08
1016.074	41.61
1016.235	31.73
1016.395	4.99
1016.556	8.67
1016.717	31.14
1016.877	43.74
1017.038	18.16
1017.199	32.69
1017.359	13.32
1017.52	54.59
1017.681	-27.17
1017.841	20.3
1018.002	1.5
1018.162	9.06
1018.323	58.27
1018.483	22.81
1018.644	-14.39
1018.804	-6.44
1018.964	-4.31
1019.125	16.23
1019.285	17.58
1019.446	-0.05
1019.606	-12.84
1019.766	-32.02
1019.926	40.64
1020.087	49.55
1020.247	-13.42
1020.407	47.23
1020.567	63.69
1020.728	38.7
1020.888	-18.07
1021.048	15.06
1021.208	-1.79
1021.368	-9.74
1021.528	73.58
1021.688	41.22
1021.848	35.6
1022.008	30.56
1022.168	10.22
1022.328	33.66
1022.488	7.31
1022.648	18.94
1022.808	3.83
1022.968	51.1
1023.128	-5.86
1023.288	13.9
1023.448	12.35
1023.608	46.45
1023.767	38.7
1023.927	-11.29
1024.087	-9.54
1024.247	-6.05
1024.406	14.1
1024.566	-18.07
1024.726	-32.4
1024.885	31.92
1025.045	56.53
1025.205	0.73
1025.364	9.64
1025.524	13.13
1025.683	4.6
1025.843	21.26
1026.003	12.74
1026.162	48.19
1026.321	41.03
1026.481	35.6
1026.64	14.29
1026.8	48.39
1026.959	21.26
1027.119	21.26
1027.278	10.41
1027.437	16.61
1027.597	33.08
1027.756	40.83
1027.915	26.49
1028.074	27.08
1028.234	-3.54
1028.393	17.78
1028.552	24.17
1028.711	-52.94
1028.87	63.31
1029.03	7.31
1029.189	1.5
1029.348	-37.25
1029.507	-37.25
1029.666	19.91
1029.825	-22.52
1029.984	-18.65
1030.143	20.3
1030.302	6.15
1030.461	-48.87
1030.62	11.58
1030.779	40.25
1030.938	21.26
1031.097	-13.03
1031.255	33.08
1031.414	61.76
1031.573	59.04
1031.732	-43.25
1031.891	9.83
1032.049	72.22
1032.208	28.43
1032.367	1.31
1032.525	4.02
1032.684	4.41
1032.843	12.93
1033.001	-56.62
1033.16	132.67
1033.319	35.6
1033.477	31.73
1033.636	10.8
1033.794	-55.07
1033.953	27.46
1034.111	53.23
1034.27	-7.41
1034.428	18.94
1034.587	-28.92
1034.745	12.16
1034.903	9.83
1035.062	22.04
1035.22	-9.35
1035.378	26.3
1035.537	-11.29
1035.695	41.03
1035.853	-6.25
1036.011	44.13
1036.17	32.89
1036.328	-46.94
1036.486	17.97
1036.644	33.28
1036.802	-73.87
1036.96	-14.39
1037.119	23.01
1037.277	-16.71
1037.435	-24.07
1037.593	-26.98
1037.751	15.84
1037.909	28.63
1038.067	28.63
