Data from oakcork_FLMT105791__19__17-26-54-067.txt Node

Date: Mon Mar 20 17:26:54 GMT 2023
User: antho
Spectrometer: FLMT10579
Trigger mode: 0
Integration Time (sec): 1.000000E-1
Scans to average: 10
Electric dark correction enabled: true
Nonlinearity correction enabled: false
Boxcar width: 0
XAxis mode: Wavelengths
Number of Pixels in Spectrum: 3648
>>>>>Begin Spectral Data<<<<<
345.248	-143.08
345.464	-143.08
345.681	-143.08
345.898	-153.35
346.114	-175.44
346.331	-29.74
346.548	13.47
346.764	5.13
346.981	-20.63
347.197	3.97
347.414	32.65
347.631	-20.05
347.847	38.65
348.064	6.49
348.28	32.84
348.497	-48.34
348.713	-14.43
348.93	12.69
349.146	43.69
349.363	28.58
349.579	-6.1
349.796	-2.03
350.012	-26.25
350.229	27.22
350.445	5.72
350.661	-44.85
350.878	-5.91
351.094	24.9
351.311	-5.33
351.527	28.97
351.743	-23.54
351.96	2.81
352.176	39.43
352.392	4.36
352.609	38.85
352.825	-6.1
353.041	-20.44
353.257	-44.46
353.474	15.79
353.69	15.02
353.906	3.58
354.122	-22.18
354.339	59.38
354.555	22.38
354.771	-18.5
354.987	52.99
355.203	54.15
355.42	-5.91
355.636	-13.85
355.852	0.1
356.068	8.82
356.284	-38.07
356.5	89.41
356.716	27.03
356.932	15.79
357.148	23.15
357.364	31.29
357.58	48.15
357.796	51.05
358.012	55.31
358.228	14.43
358.444	-42.53
358.66	49.89
358.876	-26.83
359.092	-23.54
359.308	15.21
359.524	15.6
359.74	-13.85
359.956	-29.16
360.172	17.92
360.388	20.63
360.604	-13.85
360.819	102.59
361.035	7.07
361.251	7.46
361.467	1.45
361.683	42.53
361.898	12.69
362.114	65
362.33	9.01
362.546	54.15
362.762	9.2
362.977	26.64
363.193	-11.53
363.409	47.18
363.624	0.48
363.84	-17.15
364.056	10.95
364.271	2.81
364.487	-13.66
364.703	5.13
364.918	-41.17
365.134	10.37
365.35	11.33
365.565	84.18
365.781	13.47
365.996	34.78
366.212	79.34
366.427	7.46
366.643	3.97
366.858	-8.23
367.074	-11.14
367.289	70.04
367.505	103.36
367.72	-27.03
367.936	8.23
368.151	24.7
368.367	36.13
368.582	28
368.798	-4.55
369.013	53.76
369.228	27.03
369.444	31.68
369.659	58.22
369.874	51.05
370.09	62.68
370.305	-56.09
370.52	0.29
370.736	81.86
370.951	46.98
371.166	64.03
371.381	72.95
371.597	47.56
371.812	-4.36
372.027	-13.47
372.242	25.48
372.458	102.2
372.673	22.18
372.888	34.39
373.103	36.72
373.318	109.95
373.533	62.1
373.749	36.91
373.964	-21.6
374.179	91.16
374.394	-20.83
374.609	76.24
374.824	-14.05
375.039	45.63
375.254	-0.1
375.469	98.91
375.684	32.07
375.899	74.88
376.114	44.08
376.329	39.23
376.544	55.51
376.759	59.19
376.974	3.39
377.189	7.27
377.404	16.18
377.619	75.08
377.834	-23.35
378.049	8.62
378.264	21.8
378.478	39.62
378.693	7.46
378.908	53.38
379.123	15.4
379.338	22.96
379.553	32.65
379.767	31.1
379.982	63.84
380.197	39.62
380.412	29.35
380.626	60.16
380.841	105.88
381.056	55.9
381.271	69.65
381.485	26.25
381.7	-20.83
381.915	34.2
382.129	10.37
382.344	41.75
382.559	1.84
382.773	66.75
382.988	-31.68
383.202	26.06
383.417	-0.1
383.632	119.45
383.846	23.73
384.061	37.1
384.275	11.72
384.49	41.56
384.704	61.71
384.919	31.68
385.133	39.62
385.348	57.45
385.562	7.27
385.777	60.93
385.991	10.95
386.206	24.9
386.42	11.53
386.634	79.53
386.849	64.61
387.063	31.48
387.277	-18.89
387.492	7.85
387.706	2.81
387.92	-20.05
388.135	56.28
388.349	44.08
388.563	51.44
388.778	45.63
388.992	77.01
389.206	94.06
389.42	93.48
389.635	3.97
389.849	63.06
390.063	64.23
390.277	65
390.491	130.88
390.706	64.23
390.92	69.07
391.134	52.02
391.348	93.29
391.562	12.88
391.776	43.88
391.99	37.88
392.205	62.48
392.419	18.89
392.633	49.5
392.847	106.08
393.061	29.16
393.275	121.38
393.489	30.71
393.703	25.09
393.917	83.21
394.131	3.58
394.345	60.55
394.559	81.66
394.773	24.12
394.986	58.22
395.2	69.26
395.414	97.94
395.628	7.46
395.842	76.82
396.056	65
396.27	-5.13
396.484	67.71
396.697	67.33
396.911	92.9
397.125	77.6
397.339	77.4
397.553	54.35
397.766	130.3
397.98	78.37
398.194	116.73
398.408	61.71
398.621	88.06
398.835	101.43
399.049	92.32
399.262	124.68
399.476	108.79
399.69	78.18
399.903	151.03
400.117	99.68
400.331	100.65
400.544	53.18
400.758	183.96
400.971	108.98
401.185	132.62
401.398	39.04
401.612	122.35
401.826	106.27
402.039	121.96
402.253	57.06
402.466	121.58
402.68	80.31
402.893	94.45
403.106	105.69
403.32	84.76
403.533	126.42
403.747	86.31
403.96	109.76
404.174	127
404.387	64.03
404.6	103.75
404.814	142.31
405.027	112.28
405.24	114.02
405.454	101.62
405.667	131.46
405.88	71.59
406.094	123.9
406.307	135.33
406.52	140.95
406.733	70.81
406.947	62.48
407.16	150.83
407.373	140.37
407.586	74.5
407.799	56.86
408.012	114.41
408.226	133.01
408.439	139.01
408.652	68.3
408.865	125.65
409.078	148.12
409.291	136.11
409.504	82.63
409.717	143.08
409.93	122.93
410.143	108.4
410.357	74.88
410.57	52.41
410.783	87.67
410.996	123.13
411.209	120.8
411.421	132.43
411.634	109.95
411.847	81.47
412.06	88.83
412.273	120.8
412.486	134.94
412.699	199.85
412.912	116.54
413.125	132.81
413.338	100.65
413.55	152.58
413.763	136.49
413.976	126.61
414.189	99.1
414.402	117.31
414.615	179.7
414.827	72.56
415.04	155.68
415.253	135.91
415.466	161.29
415.678	176.41
415.891	101.62
416.104	110.15
416.316	109.18
416.529	119.45
416.742	131.07
416.954	180.86
417.167	134.75
417.38	100.85
417.592	172.34
417.805	98.52
418.017	64.23
418.23	145.99
418.442	128.75
418.655	113.44
418.868	117.31
419.08	164.39
419.293	170.79
419.505	132.62
419.718	160.71
419.93	151.8
420.142	116.54
420.355	203.92
420.567	160.52
420.78	144.44
420.992	122.93
421.205	180.48
421.417	80.11
421.629	118.09
421.842	100.46
422.054	106.08
422.266	164.59
422.479	176.41
422.691	121
422.903	173.5
423.115	124.29
423.328	126.61
423.54	132.04
423.752	141.34
423.964	99.49
424.177	169.04
424.389	143.08
424.601	258.75
424.813	165.17
425.025	162.46
425.238	172.92
425.45	124.29
425.662	145.99
425.874	432.93
426.086	114.6
426.298	150.06
426.51	138.43
426.722	170.79
426.934	138.24
427.146	185.51
427.358	115.18
427.57	185.9
427.782	134.17
427.994	129.91
428.206	134.75
428.418	119.25
428.63	156.84
428.842	193.84
429.054	160.52
429.266	185.13
429.478	145.21
429.69	152.58
429.902	105.5
430.114	172.92
430.325	138.04
430.537	101.04
430.749	109.95
430.961	92.71
431.173	126.61
431.384	163.81
431.596	51.25
431.808	131.84
432.02	158.58
432.231	194.04
432.443	195.01
432.655	170.01
432.867	139.79
433.078	164.39
433.29	192.68
433.502	196.56
433.713	216.32
433.925	164.2
434.136	206.24
434.348	129.91
434.56	117.51
434.771	249.64
434.983	122.16
435.194	158.58
435.406	208.57
435.617	226.97
435.829	222.32
436.04	214.19
436.252	196.75
436.463	248.87
436.675	235.31
436.886	200.04
437.098	194.43
437.309	262.43
437.521	194.43
437.732	217.68
437.943	213.22
438.155	206.24
438.366	146.38
438.578	231.43
438.789	213.8
439	231.24
439.211	179.51
439.423	196.75
439.634	232.4
439.845	211.09
440.057	241.31
440.268	268.63
440.479	188.42
440.69	219.42
440.902	187.45
441.113	227.94
441.324	205.08
441.535	213.61
441.746	299.63
441.957	210.7
442.168	202.37
442.38	238.21
442.591	230.85
442.802	211.67
443.013	238.6
443.224	253.32
443.435	223.29
443.646	208.76
443.857	225.04
444.068	202.18
444.279	217.68
444.49	287.62
444.701	235.5
444.912	345.35
445.123	274.06
445.334	264.37
445.545	267.47
445.756	238.6
445.967	206.05
446.178	254.68
446.388	302.15
446.599	271.34
446.81	272.31
447.021	238.41
447.232	278.12
447.443	299.82
447.653	210.31
447.864	288.97
448.075	244.41
448.286	295.17
448.496	254.49
448.707	307.38
448.918	233.95
449.129	329.47
449.339	224.65
449.55	290.33
449.761	261.07
449.971	313.58
450.182	247.12
450.393	311.64
450.603	250.42
450.814	313
451.024	264.17
451.235	308.93
451.446	341.09
451.656	350.78
451.867	257.01
452.077	277.74
452.288	348.84
452.498	356.79
452.709	268.44
452.919	304.86
453.13	280.84
453.34	300.41
453.55	234.72
453.761	303.51
453.971	281.03
454.182	311.25
454.392	309.32
454.602	334.5
454.813	300.41
455.023	320.17
455.233	222.71
455.444	285.87
455.654	214.77
455.864	283.16
456.075	299.63
456.285	266.31
456.495	264.56
456.705	303.89
456.916	355.62
457.126	367.83
457.336	284.71
457.546	241.51
457.756	268.44
457.967	326.37
458.177	271.54
458.387	298.47
458.597	282
458.807	266.31
459.017	280.84
459.227	303.31
459.437	288.97
459.647	321.14
459.857	313.97
460.068	277.16
460.278	316.87
460.488	320.75
460.698	363.18
460.908	306.41
461.117	251.39
461.327	286.26
461.537	306.22
461.747	306.6
461.957	327.92
462.167	418.98
462.377	344.97
462.587	298.86
462.797	356.59
463.007	270.57
463.216	345.35
463.426	372.09
463.636	382.55
463.846	292.46
464.056	283.36
464.265	342.06
464.475	310.09
464.685	320.55
464.895	354.46
465.104	328.3
465.314	356.79
465.524	315.71
465.733	290.91
465.943	385.65
466.153	385.65
466.362	364.73
466.572	354.65
466.782	310.67
466.991	350.97
467.201	421.11
467.41	299.82
467.62	345.16
467.829	349.04
468.039	375.39
468.249	346.71
468.458	328.69
468.668	359.5
468.877	375.19
469.086	384.49
469.296	411.03
469.505	324.24
469.715	417.62
469.924	367.83
470.134	438.55
470.343	426.73
470.552	356.98
470.762	375.19
470.971	365.12
471.18	366.09
471.39	378.29
471.599	336.44
471.808	397.28
472.018	347.49
472.227	410.26
472.436	430.8
472.645	385.85
472.855	386.24
473.064	437.58
473.273	416.07
473.482	418.2
473.691	442.81
473.901	426.53
474.11	385.65
474.319	499.19
474.528	426.73
474.737	446.3
474.946	434.48
475.155	429.63
475.364	456.95
475.573	421.5
475.783	422.47
475.992	455.21
476.201	487.76
476.41	410.45
476.619	390.69
476.828	417.04
477.037	428.67
477.245	457.92
477.454	453.27
477.663	402.32
477.872	481.95
478.081	513.53
478.29	432.93
478.499	531.55
478.708	460.63
478.917	510.04
479.125	501.51
479.334	497.64
479.543	494.35
479.752	508.88
479.961	484.08
480.169	536.39
480.378	451.14
480.587	616.21
480.796	540.07
481.004	489.7
481.213	515.85
481.422	529.41
481.63	516.05
481.839	562.74
482.048	578.24
482.256	548.21
482.465	554.02
482.674	575.14
482.882	552.08
483.091	591.22
483.299	540.26
483.508	591.61
483.716	556.15
483.925	554.6
484.134	507.71
484.342	544.33
484.551	572.23
484.759	585.21
484.967	603.62
485.176	610.98
485.384	577.08
485.593	589.86
485.801	569.13
486.01	560.8
486.218	541.23
486.426	488.92
486.635	523.8
486.843	502.1
487.051	530.58
487.26	546.27
487.468	563.32
487.676	574.17
487.885	551.7
488.093	585.02
488.301	603.43
488.509	602.84
488.717	649.54
488.926	594.13
489.134	617.38
489.342	605.56
489.55	595.48
489.758	615.24
489.967	633.84
490.175	696.42
490.383	612.92
490.591	701.66
490.799	605.75
491.007	669.88
491.215	637.14
491.423	626.09
491.631	648.38
491.839	628.03
492.047	656.32
492.255	610.4
492.463	565.65
492.671	609.04
492.879	674.34
493.087	642.76
493.295	663.49
493.503	653.22
493.711	675.5
493.919	717.35
494.127	704.95
494.334	717.74
494.542	621.83
494.75	678.6
494.958	691.97
495.166	700.88
495.374	692.36
495.581	694.68
495.789	696.81
495.997	749.9
496.205	682.09
496.412	677.82
496.62	688.48
496.828	717.16
497.035	714.06
497.243	730.33
497.451	701.66
497.658	710.57
497.866	723.94
498.074	767.34
498.281	708.82
498.489	773.73
498.696	720.45
498.904	694.29
499.112	713.09
499.319	784.58
499.527	716.96
499.734	781.87
499.942	695.26
500.149	711.34
500.357	718.51
500.564	675.5
500.771	735.95
500.979	672.98
501.186	668.52
501.394	755.71
501.601	696.42
501.808	740.79
502.016	721.03
502.223	714.83
502.43	727.04
502.638	706.5
502.845	681.7
503.052	783.61
503.26	726.46
503.467	764.62
503.674	713.09
503.881	730.52
504.089	797.95
504.296	738.66
504.503	677.05
504.71	711.15
504.917	709.21
505.125	737.69
505.332	735.95
505.539	756.1
505.746	770.24
505.953	786.52
506.16	800.27
506.367	808.8
506.574	813.45
506.781	832.05
506.988	731.3
507.195	772.76
507.402	779.35
507.609	818.68
507.816	714.64
508.023	743.12
508.23	729.17
508.437	717.35
508.644	776.05
508.851	818.68
509.058	792.72
509.265	798.53
509.472	791.17
509.679	854.52
509.885	778.38
510.092	799.69
510.299	808.22
510.506	794.07
510.713	820.23
510.92	790.2
511.126	793.3
511.333	850.45
511.54	827.98
511.746	879.13
511.953	851.62
512.16	877
512.367	812.48
512.573	802.6
512.78	803.95
512.987	838.05
513.193	802.02
513.4	769.85
513.606	759.59
513.813	812.48
514.02	833.02
514.226	887.85
514.433	872.15
514.639	762.88
514.846	820.04
515.052	794.46
515.259	826.82
515.465	835.15
515.672	833.4
515.878	916.72
516.085	844.83
516.291	878.93
516.497	824.1
516.704	817.32
516.91	766.75
517.117	737.11
517.323	729.36
517.529	757.07
517.736	747.57
517.942	764.04
518.148	783.61
518.354	820.62
518.561	786.52
518.767	783.03
518.973	824.88
519.179	854.33
519.386	811.7
519.592	811.12
519.798	799.3
520.004	865.95
520.21	835.53
520.417	891.53
520.623	908.58
520.829	871.57
521.035	867.89
521.241	891.14
521.447	885.91
521.653	980.46
521.859	879.9
522.065	911.68
522.271	986.08
522.477	940.55
522.683	985.11
522.889	954.88
523.095	935.7
523.301	919.62
523.507	880.68
523.713	911.29
523.919	889.2
524.125	964.57
524.331	926.4
524.537	1015.14
524.742	990.34
524.948	983.36
525.154	981.81
525.36	1095.74
525.566	1010.49
525.772	1048.08
525.977	950.04
526.183	1016.11
526.389	1044.98
526.595	944.81
526.8	968.45
527.006	920.01
527.212	888.62
527.417	876.61
527.623	874.67
527.829	945.39
528.034	970
528.24	953.91
528.446	959.92
528.651	1025.41
528.857	1005.84
529.062	1067.84
529.268	1008.36
529.473	1011.26
529.679	999.25
529.884	1103.49
530.09	1064.35
530.295	1111.24
530.501	1055.05
530.706	1080.04
530.912	1004.29
531.117	1062.99
531.323	1062.03
531.528	1096.32
531.733	1060.86
531.939	1055.05
532.144	1109.3
532.35	1073.46
532.555	1110.46
532.76	1066.09
532.966	1110.66
533.171	1080.24
533.376	1012.04
533.581	978.52
533.787	1040.71
533.992	1084.89
534.197	1132.16
534.402	1078.11
534.607	1058.54
534.813	1163.94
535.018	1073.65
535.223	1085.47
535.428	1104.65
535.633	1126.16
535.838	1115.69
536.043	1149.02
536.249	1189.32
536.454	1118.21
536.659	1123.44
536.864	1107.17
537.069	1084.89
537.274	1111.43
537.479	1114.34
537.684	1125.57
537.889	1082.76
538.094	1169.75
538.299	1149.6
538.504	1180.6
538.708	1128.87
538.913	1150.96
539.118	1132.55
539.323	1147.66
539.528	1093.22
539.733	1155.61
539.938	1153.86
540.142	1143.98
540.347	1128.29
540.552	1115.31
540.757	1095.74
540.962	1136.23
541.166	1098.06
541.371	1074.04
541.576	1125.96
541.781	993.44
541.985	1134.68
542.19	1117.05
542.395	1141.46
542.599	1219.74
542.804	1182.92
543.008	1202.49
543.213	1143.59
543.418	1109.49
543.622	1165.49
543.827	1085.47
544.031	1199.59
544.236	1199
544.44	1165.1
544.645	1247.25
544.849	1164.91
545.054	1170.33
545.258	1265.65
545.463	1221.09
545.667	1134.68
545.872	1212.37
546.076	1193.97
546.281	1196.87
546.485	1140.49
546.689	1212.37
546.894	1229.81
547.098	1187.77
547.302	1128.29
547.507	1183.89
547.711	1221.48
547.915	1232.72
548.119	1124.99
548.324	1174.4
548.528	1249.77
548.732	1208.69
548.936	1216.05
549.141	1252.29
549.345	1158.12
549.549	1190.87
549.753	1192.42
549.957	1247.64
550.161	1296.07
550.366	1193.97
550.57	1172.85
550.774	1176.92
550.978	1213.34
551.182	1221.87
551.386	1184.86
551.59	1169.36
551.794	1176.72
551.998	1204.04
552.202	1191.06
552.406	1153.67
552.61	1209.27
552.814	1176.53
553.018	1272.43
553.222	1201.91
553.426	1175.37
553.63	1246.28
553.833	1165.68
554.037	1139.14
554.241	1204.82
554.445	1217.02
554.649	1195.9
554.853	1177.89
555.056	1229.42
555.26	1250.15
555.464	1198.04
555.668	1183.89
555.871	1219.54
556.075	1242.02
556.279	1213.34
556.483	1157.93
556.686	1191.06
556.89	1192.8
557.094	1212.57
557.297	1137.78
557.501	1223.8
557.704	1114.34
557.908	1217.02
558.112	1138.17
558.315	1252.87
558.519	1136.23
558.722	1183.7
558.926	1151.34
559.129	1102.52
559.333	1081.98
559.536	1117.44
559.74	1108.14
559.943	1098.45
560.147	1059.12
560.35	1115.89
560.553	1111.43
560.757	1049.63
560.96	1170.52
561.164	1118.41
561.367	1171.3
561.57	1130.22
561.774	1129.64
561.977	1123.64
562.18	1092.06
562.384	1191.64
562.587	1120.54
562.79	1106.39
562.993	1113.76
563.197	1157.16
563.4	1171.3
563.603	1153.09
563.806	1213.34
564.009	1075.39
564.212	1121.51
564.416	1091.67
564.619	1102.91
564.822	1053.11
565.025	1132.74
565.228	1082.76
565.431	1110.07
565.634	1027.54
565.837	1053.11
566.04	1041.88
566.243	1059.31
566.446	971.35
566.649	1085.08
566.852	1019.79
567.055	1063.96
567.258	1094.96
567.461	1093.02
567.664	1080.43
567.867	1004.48
568.07	1061.44
568.273	1074.81
568.475	1068.81
568.678	1062.22
568.881	1017.85
569.084	1020.95
569.287	932.8
569.489	1003.9
569.692	1057.76
569.895	1060.09
570.098	953.72
570.3	975.42
570.503	941.51
570.706	956.63
570.909	977.94
571.111	911.1
571.314	932.21
571.516	938.8
571.719	974.26
571.922	948.49
572.124	954.88
572.327	963.8
572.529	933.18
572.732	909.55
572.935	934.54
573.137	990.73
573.34	922.53
573.542	956.82
573.745	956.24
573.947	976
574.15	957.4
574.352	922.33
574.554	997.12
574.757	932.02
574.959	903.93
575.162	888.62
575.364	903.35
575.566	1015.72
575.769	895.79
575.971	908.97
576.173	835.34
576.376	900.05
576.578	949.07
576.78	955.85
576.982	831.66
577.185	921.75
577.387	865.37
577.589	859.17
577.791	919.62
577.993	936.67
578.196	876.03
578.398	919.81
578.6	922.72
578.802	842.12
579.004	841.73
579.206	870.41
579.408	883.58
579.61	867.12
579.812	911.68
580.014	867.31
580.216	852.2
580.418	886.3
580.62	849.87
580.822	812.48
581.024	861.5
581.226	920.2
581.428	870.02
581.63	944.03
581.832	863.43
582.034	935.31
582.236	895.98
582.438	925.63
582.64	944.42
582.841	946.75
583.043	977.94
583.245	901.02
583.447	889.4
583.649	881.07
583.85	911.68
584.052	903.73
584.254	851.03
584.456	936.48
584.657	858.01
584.859	882.42
585.061	888.43
585.262	849.48
585.464	853.55
585.666	894.05
585.867	854.91
586.069	930.28
586.27	893.66
586.472	908.77
586.674	850.84
586.875	855.68
587.077	843.67
587.278	881.07
587.48	858.98
587.681	982.98
587.883	846.19
588.084	786.13
588.285	847.16
588.487	831.85
588.688	854.91
588.89	812.48
589.091	764.82
589.292	783.8
589.494	794.27
589.695	771.4
589.896	691
590.098	673.17
590.299	774.12
590.5	738.08
590.702	759
590.903	774.12
591.104	820.23
591.305	801.24
591.507	867.5
591.708	821.78
591.909	799.11
592.11	848.71
592.311	805.89
592.512	811.7
592.714	744.47
592.915	740.02
593.116	820.04
593.317	773.92
593.518	770.63
593.719	790.2
593.92	798.53
594.121	822.17
594.322	771.6
594.523	813.06
594.724	744.67
594.925	758.42
595.126	766.56
595.327	788.07
595.528	797.37
595.729	811.32
595.929	786.13
596.13	792.72
596.331	783.22
596.532	785.94
596.733	833.79
596.934	855.3
597.135	796.59
597.335	797.37
597.536	739.82
597.737	800.85
597.938	753.58
598.138	803.95
598.339	779.74
598.54	796.59
598.74	776.83
598.941	780.9
599.142	845.8
599.342	818.29
599.543	747.77
599.744	779.54
599.944	773.54
600.145	773.54
600.345	793.1
600.546	853.55
600.746	808.8
600.947	855.68
601.147	801.63
601.348	807.83
601.548	780.9
601.749	774.89
601.949	753.58
602.15	756.29
602.35	772.18
602.551	807.64
602.751	750.29
602.951	757.45
603.152	684.99
603.352	802.79
603.552	807.44
603.753	790
603.953	768.5
604.153	792.72
604.354	774.31
604.554	772.76
604.754	772.95
604.954	733.62
605.155	788.07
605.355	768.11
605.555	812.09
605.755	819.65
605.955	767.53
606.155	812.87
606.356	767.92
606.556	813.45
606.756	795.43
606.956	746.41
607.156	811.9
607.356	724.52
607.556	773.54
607.756	786.71
607.956	815.97
608.156	779.54
608.356	760.75
608.556	821.78
608.756	769.27
608.956	721.81
609.156	768.69
609.356	725.68
609.556	736.72
609.755	763.07
609.955	724.71
610.155	764.24
610.355	757.65
610.555	726.84
610.755	753
610.954	668.91
611.154	781.09
611.354	786.71
611.554	715.99
611.753	743.89
611.953	709.79
612.153	773.34
612.352	751.64
612.552	687.51
612.752	651.28
612.951	709.02
613.151	721.61
613.351	693.71
613.55	722.58
613.75	742.92
613.949	724.32
614.149	736.72
614.348	727.04
614.548	691.58
614.747	676.47
614.947	670.85
615.146	621.83
615.346	736.14
615.545	707.08
615.745	715.99
615.944	737.89
616.144	698.17
616.343	728.2
616.542	709.41
616.742	705.53
616.941	703.01
617.14	646.63
617.34	707.86
617.539	667.56
617.738	672.4
617.938	734.59
618.137	689.26
618.336	648.18
618.535	710.76
618.734	671.04
618.934	710.37
619.133	689.45
619.332	716.38
619.531	673.76
619.73	696.62
619.929	765.4
620.128	734.59
620.328	742.54
620.527	679.18
620.726	688.29
620.925	715.02
621.124	648.96
621.323	705.92
621.522	632.68
621.721	672.21
621.92	644.89
622.119	675.89
622.318	659.42
622.517	662.91
622.715	660
622.914	627.84
623.113	648.18
623.312	571.65
623.511	683.83
623.71	649.34
623.909	617.76
624.107	708.05
624.306	598
624.505	640.04
624.704	666.2
624.902	642.56
625.101	678.6
625.3	655.93
625.499	618.73
625.697	625.9
625.896	617.76
626.095	641.21
626.293	595.68
626.492	629
626.69	656.71
626.889	595.68
627.088	656.32
627.286	604.98
627.485	619.89
627.683	609.43
627.882	647.21
628.08	561.77
628.279	604.39
628.477	659.61
628.676	568.16
628.874	616.6
629.073	602.46
629.271	581.53
629.469	598.78
629.668	611.56
629.866	598.78
630.065	579.59
630.263	618.54
630.461	582.31
630.66	580.76
630.858	602.46
631.056	626.87
631.254	639.66
631.453	579.4
631.651	630.16
631.849	614.66
632.047	610.98
632.245	593.93
632.444	589.28
632.642	633.46
632.84	596.26
633.038	594.13
633.236	585.6
633.434	606.91
633.632	568.55
633.83	568.74
634.028	610.79
634.227	587.93
634.425	687.9
634.623	605.56
634.821	630.94
635.019	600.52
635.216	562.35
635.414	628.03
635.612	590.44
635.81	580.56
636.008	671.24
636.206	619.7
636.404	637.14
636.602	563.51
636.8	596.84
636.997	612.14
637.195	621.44
637.393	600.33
637.591	650.7
637.789	639.85
637.986	586.18
638.184	616.21
638.382	645.86
638.58	629.97
638.777	653.41
638.975	602.26
639.173	587.73
639.37	620.48
639.568	611.95
639.765	619.31
639.963	605.56
640.161	643.53
640.358	653.41
640.556	572.43
640.753	564.87
640.951	566.03
641.148	622.61
641.346	567.39
641.543	577.46
641.741	607.49
641.938	573.59
642.136	591.41
642.333	559.25
642.531	588.89
642.728	654.96
642.925	581.14
643.123	575.72
643.32	585.99
643.517	594.32
643.715	604.01
643.912	578.43
644.109	573.2
644.306	572.43
644.504	552.66
644.701	596.64
644.898	629.39
645.095	539.68
645.293	600.71
645.49	578.63
645.687	610.01
645.884	586.38
646.081	546.66
646.278	572.23
646.475	548.6
646.672	558.09
646.87	576.69
647.067	597.42
647.264	579.79
647.461	513.72
647.658	503.26
647.855	568.74
648.052	547.82
648.249	492.21
648.446	521.66
648.642	492.6
648.839	541.43
649.036	523.6
649.233	503.26
649.43	493.38
649.627	490.28
649.824	523.02
650.021	506.55
650.217	499.77
650.414	527.48
650.611	563.13
650.808	553.44
651.004	560.8
651.201	553.44
651.398	613.69
651.595	518.76
651.791	523.21
651.988	579.98
652.185	511.59
652.381	521.08
652.578	504.23
652.775	537.55
652.971	516.63
653.168	520.31
653.364	547.05
653.561	475.94
653.757	519.15
653.954	515.27
654.15	493.57
654.347	573.01
654.543	508.1
654.74	465.87
654.936	471.48
655.133	512.36
655.329	526.12
655.525	498.61
655.722	526.7
655.918	460.44
656.115	525.73
656.311	414.13
656.507	427.5
656.704	394.57
656.9	455.79
657.096	461.8
657.292	415.1
657.489	505.39
657.685	489.89
657.881	467.22
658.077	469.55
658.273	477.3
658.47	518.56
658.666	491.63
658.862	512.36
659.058	497.64
659.254	536.58
659.45	462.96
659.646	500.74
659.842	485.43
660.038	545.5
660.234	433.7
660.43	488.92
660.626	535.61
660.822	536.2
661.018	537.94
661.214	484.46
661.41	451.92
661.606	521.08
661.802	531.93
661.998	494.54
662.194	451.14
662.39	475.17
662.586	538.71
662.781	483.69
662.977	525.73
663.173	540.26
663.369	528.06
663.564	517.21
663.76	536.78
663.956	490.47
664.152	558.67
664.347	456.76
664.543	486.98
664.739	449.01
664.934	468.19
665.13	427.89
665.326	512.36
665.521	526.9
665.717	442.23
665.912	473.62
666.108	433.32
666.304	459.86
666.499	499.96
666.695	419.37
666.89	443.2
667.086	517.21
667.281	494.54
667.477	535.81
667.672	492.99
667.867	486.21
668.063	486.21
668.258	434.67
668.454	475.75
668.649	539.1
668.844	500.93
669.04	489.31
669.235	498.8
669.43	478.27
669.626	437.58
669.821	461.6
670.016	426.92
670.211	469.16
670.407	427.89
670.602	445.72
670.797	445.13
670.992	523.02
671.187	459.86
671.382	486.4
671.578	428.47
671.773	479.62
671.968	406.58
672.163	468.19
672.358	455.6
672.553	447.27
672.748	461.8
672.943	526.7
673.138	469.55
673.333	464.9
673.528	439.71
673.723	477.88
673.918	453.08
674.113	396.7
674.308	528.64
674.503	490.66
674.698	484.66
674.892	463.93
675.087	493.57
675.282	505.39
675.477	429.44
675.672	473.23
675.867	436.61
676.061	431.18
676.256	401.73
676.451	427.89
676.646	457.92
676.84	418.01
677.035	425.57
677.23	400.77
677.424	464.7
677.619	482.33
677.814	493.38
678.008	471.68
678.203	391.85
678.397	402.51
678.592	433.51
678.787	469.16
678.981	425.76
679.176	440.48
679.37	468.97
679.565	417.82
679.759	425.76
679.954	423.63
680.148	485.63
680.342	491.44
680.537	450.37
680.731	437.58
680.926	449.01
681.12	464.12
681.314	410.26
681.509	451.14
681.703	431.77
681.897	448.04
682.092	423.43
682.286	424.21
682.48	509.65
682.674	475.94
682.869	439.13
683.063	444.94
683.257	500.16
683.451	401.35
683.645	455.79
683.839	450.75
684.034	442.81
684.228	445.52
684.422	392.44
684.616	425.57
684.81	449.4
685.004	430.41
685.198	396.12
685.392	467.03
685.586	408.13
685.78	458.5
685.974	446.49
686.168	444.55
686.362	470.52
686.556	408.52
686.75	379.26
686.944	378.29
687.138	422.47
687.331	323.85
687.525	319
687.719	265.14
687.913	355.24
688.107	352.33
688.301	316.49
688.494	360.08
688.688	313.19
688.882	281.42
689.076	302.54
689.269	327.72
689.463	399.8
689.657	316.68
689.85	317.07
690.044	346.71
690.238	373.84
690.431	328.89
690.625	367.64
690.818	362.99
691.012	380.23
691.205	375.39
691.399	342.06
691.593	382.36
691.786	409.87
691.98	412.2
692.173	425.76
692.366	390.89
692.56	404.25
692.753	468.97
692.947	364.15
693.14	452.69
693.333	418.2
693.527	379.84
693.72	427.12
693.914	380.23
694.107	395.73
694.3	426.53
694.493	424.4
694.687	439.52
694.88	407.55
695.073	462.96
695.266	416.27
695.46	398.25
695.653	480.4
695.846	438.74
696.039	375.39
696.232	430.8
696.425	470.71
696.618	473.03
696.812	449.98
697.005	503.45
697.198	571.07
697.391	493.57
697.584	530
697.777	555.38
697.97	521.08
698.163	555.18
698.356	507.13
698.549	565.84
698.742	547.05
698.935	502.48
699.127	538.52
699.32	493.38
699.513	501.32
699.706	576.88
699.899	546.27
700.092	500.16
700.285	562.16
700.477	512.17
700.67	532.13
700.863	580.37
701.056	656.12
701.248	597.61
701.441	601.29
701.634	560.03
701.826	664.65
702.019	567.39
702.212	628.03
702.404	565.65
702.597	549.56
702.79	589.48
702.982	625.32
703.175	612.14
703.367	628.61
703.56	663.49
703.752	697.39
703.945	690.03
704.137	691.39
704.33	673.76
704.522	677.63
704.715	710.96
704.907	738.66
705.1	734.59
705.292	717.35
705.484	697.01
705.677	728.01
705.869	747.38
706.061	782.64
706.254	814.22
706.446	772.76
706.638	761.14
706.831	792.72
707.023	778.96
707.215	834.95
707.407	860.72
707.599	814.03
707.792	878.16
707.984	848.52
708.176	859.56
708.368	838.05
708.56	857.82
708.752	850.84
708.944	832.82
709.136	895.98
709.329	889.59
709.521	978.91
709.713	945.97
709.905	918.26
710.097	990.15
710.289	887.27
710.481	926.98
710.672	964.57
710.864	980.07
711.056	1028.12
711.248	973.68
711.44	1030.83
711.632	1001.77
711.824	1018.04
712.016	1080.43
712.207	1048.66
712.399	1048.66
712.591	1096.71
712.783	1080.24
712.975	1118.02
713.166	1047.88
713.358	1050.59
713.55	1125.19
713.741	1134.87
713.933	1109.69
714.125	1139.14
714.316	1114.72
714.508	1174.59
714.7	1181.18
714.891	1152.7
715.083	1231.55
715.274	1177.11
715.466	1205.98
715.657	1205.79
715.849	1144.17
716.04	1200.17
716.232	1178.27
716.423	1252.67
716.615	1136.42
716.806	1131
716.998	1113.37
717.189	1082.56
717.381	1039.55
717.572	1028.12
717.763	1046.72
717.955	1051.76
718.146	1073.46
718.337	988.4
718.528	965.93
718.72	957.21
718.911	1018.82
719.102	928.73
719.293	979.49
719.485	988.98
719.676	1018.04
719.867	941.32
720.058	956.24
720.249	989.95
720.44	987.24
720.632	1013.59
720.823	1052.92
721.014	1142.24
721.205	1132.74
721.396	1203.46
721.587	1264.3
721.778	1255.39
721.969	1297.04
722.16	1317.19
722.351	1317.38
722.542	1414.84
722.733	1482.26
722.924	1349.55
723.115	1411.74
723.305	1416.58
723.496	1416
723.687	1322.42
723.878	1376.86
724.069	1374.15
724.26	1376.09
724.45	1331.92
724.641	1306.34
724.832	1354.58
725.023	1334.63
725.213	1303.82
725.404	1315.64
725.595	1324.55
725.785	1320.87
725.976	1371.83
726.167	1353.62
726.357	1349.35
726.548	1451.07
726.739	1423.56
726.929	1470.44
727.12	1481.29
727.31	1459.98
727.501	1455.14
727.691	1479.94
727.882	1490.79
728.072	1508.23
728.263	1513.46
728.453	1557.82
728.644	1545.23
728.834	1543.68
729.024	1562.09
729.215	1492.53
729.405	1557.05
729.596	1620.6
729.786	1636.68
729.976	1619.24
730.167	1666.13
730.357	1611.49
730.547	1631.84
730.737	1658.57
730.928	1709.72
731.118	1754.28
731.308	1697.52
731.498	1709.92
731.688	1801.17
731.879	1762.03
732.069	1811.63
732.259	1836.24
732.449	1821.71
732.639	1921.1
732.829	1920.52
733.019	1949.39
733.209	2002.09
733.399	2029.21
733.589	2074.74
733.779	2046.26
733.969	2079.2
734.159	2113.1
734.349	2183.63
734.539	2201.26
734.729	2189.05
734.919	2227.03
735.109	2256.48
735.299	2245.05
735.488	2262.68
735.678	2279.34
735.868	2257.06
736.058	2278.18
736.248	2245.24
736.437	2215.79
736.627	2223.73
736.817	2309.95
737.007	2278.56
737.196	2344.83
737.386	2258.61
737.576	2278.95
737.765	2330.1
737.955	2311.31
738.144	2452.74
738.334	2382.61
738.524	2343.28
738.713	2398.88
738.903	2384.16
739.092	2412.83
739.282	2419.22
739.471	2462.24
739.661	2400.43
739.85	2467.86
740.04	2483.36
740.229	2496.53
740.419	2490.72
740.608	2518.42
740.797	2530.05
740.987	2577.52
741.176	2615.1
741.365	2529.27
741.555	2509.12
741.744	2608.13
741.933	2582.55
742.123	2556.98
742.312	2624.6
742.501	2646.68
742.69	2659.08
742.88	2577.52
743.069	2708.49
743.258	2626.53
743.447	2705.2
743.636	2695.51
743.825	2651.53
744.014	2700.16
744.204	2696.67
744.393	2649.98
744.582	2724.76
744.771	2720.7
744.96	2690.08
745.149	2704.23
745.338	2720.7
745.527	2734.06
745.716	2703.65
745.905	2710.81
746.094	2775.72
746.283	2754.79
746.471	2751.7
746.66	2820.28
746.849	2800.13
747.038	2840.04
747.227	2756.73
747.416	2803.04
747.604	2757.89
747.793	2755.18
747.982	2755.18
748.171	2802.26
748.359	2834.04
748.548	2782.11
748.737	2801.68
748.926	2769.71
749.114	2693.18
749.303	2795.68
749.491	2745.69
749.68	2708.68
749.869	2830.74
750.057	2762.16
750.246	2735.03
750.434	2767.39
750.623	2764.48
750.811	2730.96
751	2792.96
751.188	2769.71
751.377	2758.86
751.565	2750.92
751.754	2731.35
751.942	2747.63
752.131	2786.96
752.319	2771.07
752.507	2696.67
752.696	2787.73
752.884	2801.29
753.072	2730.96
753.261	2747.05
753.449	2762.16
753.637	2703.84
753.825	2825.51
754.014	2736.97
754.202	2725.35
754.39	2804.59
754.578	2768.36
754.766	2734.06
754.955	2705.97
755.143	2777.46
755.331	2726.9
755.519	2689.11
755.707	2680.01
755.895	2727.09
756.083	2738.33
756.271	2720.5
756.459	2711.4
756.647	2727.28
756.835	2701.51
757.023	2687.56
757.211	2715.27
757.399	2697.25
757.587	2717.79
757.775	2652.69
757.963	2635.83
758.151	2695.31
758.339	2635.06
758.526	2649.2
758.714	2658.89
758.902	2549.04
759.09	2510.67
759.278	2333.2
759.465	2147.98
759.653	1868.6
759.841	1700.81
760.028	1481.1
760.216	1250.74
760.404	1206.75
760.591	1004.48
760.779	838.25
760.967	734.98
761.154	586.76
761.342	639.27
761.529	629.19
761.717	659.03
761.905	674.72
762.092	740.21
762.28	684.99
762.467	662.32
762.655	603.81
762.842	636.56
763.029	627.64
763.217	660
763.404	610.4
763.592	678.79
763.779	602.46
763.966	690.03
764.154	719.48
764.341	779.74
764.528	754.35
764.716	808.22
764.903	872.35
765.09	898.7
765.277	955.85
765.465	1096.71
765.652	1104.65
765.839	1180.02
766.026	1302.47
766.213	1317.19
766.4	1373.96
766.588	1550.66
766.775	1566.16
766.962	1666.52
767.149	1657.8
767.336	1835.08
767.523	1784.9
767.71	1889.71
767.897	2013.13
768.084	2030.57
768.271	2078.04
768.458	2134.42
768.645	2133.84
768.832	2167.93
769.019	2179.95
769.206	2192.15
769.392	2299.3
769.579	2356.26
769.766	2333.2
769.953	2316.54
770.14	2340.76
770.327	2329.33
770.513	2373.11
770.7	2444.41
770.887	2364.98
771.073	2405.47
771.26	2423.49
771.447	2350.83
771.634	2349.09
771.82	2481.61
772.007	2361.88
772.193	2382.99
772.38	2420.58
772.567	2457.39
772.753	2395.2
772.94	2458.17
773.126	2448.67
773.313	2468.44
773.499	2421.74
773.686	2421.36
773.872	2379.12
774.059	2423.1
774.245	2369.82
774.432	2406.63
774.618	2358.58
774.804	2373.11
774.991	2331.84
775.177	2440.54
775.363	2383.77
775.55	2420.77
775.736	2353.35
775.922	2386.87
776.109	2373.5
776.295	2390.16
776.481	2387.84
776.667	2391.33
776.853	2389.78
777.04	2345.79
777.226	2328.55
777.412	2413.99
777.598	2312.08
777.784	2283.21
777.97	2319.25
778.156	2316.15
778.342	2357.81
778.528	2320.61
778.715	2256.86
778.901	2291.35
779.087	2300.46
779.272	2277.4
779.458	2237.1
779.644	2295.23
779.83	2244.66
780.016	2333.39
780.202	2254.35
780.388	2265.2
780.574	2202.23
780.76	2260.55
780.946	2277.98
781.131	2278.56
781.317	2240.4
781.503	2206.49
781.689	2214.82
781.874	2316.73
782.06	2261.13
782.246	2248.34
782.432	2224.7
782.617	2272.36
782.803	2303.95
782.989	2162.32
783.174	2217.92
783.36	2085.01
783.545	2172.2
783.731	2196.8
783.916	2123.57
784.102	2194.09
784.288	2172
784.473	2144.68
784.659	2132.48
784.844	2179.17
785.029	2133.06
785.215	2127.64
785.4	2069.51
785.586	2158.44
785.771	2090.63
785.956	2137.71
786.142	2091.6
786.327	2091.02
786.512	2133.25
786.698	2060.6
786.883	2053.04
787.068	2060.6
787.254	2070.48
787.439	2023.01
787.624	2041.03
787.809	2006.54
787.994	2022.43
788.18	2078.23
788.365	1985.81
788.55	2030.18
788.735	2013.71
788.92	2017.39
789.105	1988.14
789.29	2013.52
789.475	1964.11
789.66	1954.62
789.845	1910.06
790.03	1918.39
790.215	1975.16
790.4	1984.65
790.585	2001.51
790.77	1962.56
790.955	1898.63
791.14	1924.78
791.325	1988.33
791.51	1864.72
791.695	1924.01
791.879	1906.76
792.064	1865.11
792.249	1945.9
792.434	1924.39
792.618	1927.3
792.803	1952.29
792.988	1919.36
793.173	1935.24
793.357	1971.28
793.542	1900.37
793.727	1924.01
793.911	1970.7
794.096	1935.44
794.281	1966.82
794.465	2015.07
794.65	1929.43
794.834	1948.42
795.019	1978.45
795.203	1994.72
795.388	1970.89
795.572	2049.94
795.757	1988.52
795.941	1962.76
796.126	1984.65
796.31	1911.22
796.494	1944.16
796.679	1924.01
796.863	1914.71
797.048	1973.41
797.232	1945.32
797.416	1958.69
797.601	1918.39
797.785	2025.72
797.969	1977.87
798.153	1923.23
798.338	1964.31
798.522	1992.98
798.706	1983.29
798.89	2008.09
799.074	2066.99
799.258	2006.93
799.443	1968.76
799.627	1960.43
799.811	2051.3
799.995	1973.8
800.179	1954.62
800.363	1957.33
800.547	1965.66
800.731	2012.36
800.915	1902.5
801.099	1942.61
801.283	1945.51
801.467	1947.64
801.651	1924.2
801.835	1982.91
802.019	1957.72
802.202	1966.24
802.386	1925.17
802.57	1941.25
802.754	1896.69
802.938	1884.29
803.121	1943.96
803.305	1966.82
803.489	1939.89
803.673	1969.15
803.856	1967.41
804.04	1965.28
804.224	1954.04
804.407	1947.26
804.591	1923.81
804.775	1921.88
804.958	1981.36
805.142	2017.78
805.326	1951.52
805.509	1995.31
805.693	1988.72
805.876	2023.98
806.06	1981.94
806.243	2024.76
806.427	2012.16
806.61	2021.66
806.794	1925.56
806.977	1997.24
807.16	2005.57
807.344	1971.47
807.527	1979.42
807.71	1975.35
807.894	1963.14
808.077	2020.88
808.26	1934.66
808.444	1966.44
808.627	2002.86
808.81	1934.28
808.993	1899.01
809.177	1893.78
809.36	1909.28
809.543	1928.85
809.726	1855.61
809.909	1825.78
810.092	1823.65
810.276	1812.21
810.459	1834.5
810.642	1838.76
810.825	1824.61
811.008	1800.78
811.191	1739.56
811.374	1729.48
811.557	1750.22
811.74	1822.68
811.923	1744.6
812.106	1673.1
812.289	1686.28
812.472	1674.07
812.654	1714.76
812.837	1675.43
813.02	1595.61
813.203	1593.86
813.386	1579.91
813.569	1495.63
813.751	1467.54
813.934	1550.07
814.117	1471.8
814.3	1444.48
814.482	1414.84
814.665	1411.16
814.848	1372.41
815.03	1353.03
815.213	1315.06
815.396	1338.89
815.578	1308.28
815.761	1268.75
815.943	1353.81
816.126	1243.37
816.309	1230.59
816.491	1180.21
816.674	1134.68
816.856	1202.69
817.039	1202.49
817.221	1275.53
817.403	1219.54
817.586	1246.09
817.768	1253.45
817.951	1144.17
818.133	1199
818.315	1193.19
818.498	1206.56
818.68	1257.13
818.862	1216.64
819.045	1244.34
819.227	1233.3
819.409	1224.97
819.591	1250.54
819.774	1226.9
819.956	1197.07
820.138	1276.89
820.32	1281.15
820.502	1325.91
820.684	1353.23
820.866	1333.27
821.048	1393.91
821.231	1386.16
821.413	1393.91
821.595	1381.9
821.777	1348
821.959	1374.15
822.141	1450.49
822.323	1286.58
822.505	1239.89
822.686	1222.84
822.868	1176.53
823.05	1105.23
823.232	1105.62
823.414	1042.46
823.596	1104.26
823.778	1101.36
823.96	1103.1
824.141	1098.45
824.323	1117.82
824.505	1189.32
824.687	1223.22
824.868	1234.27
825.05	1310.22
825.232	1303.82
825.413	1400.11
825.595	1357.3
825.777	1286.58
825.958	1348
826.14	1344.9
826.321	1370.66
826.503	1338.5
826.685	1383.45
826.866	1384.81
827.048	1385.78
827.229	1306.34
827.411	1285.22
827.592	1216.83
827.773	1275.92
827.955	1174.21
828.136	1218.57
828.318	1195.13
828.499	1206.37
828.68	1156.19
828.862	1242.4
829.043	1242.99
829.224	1216.25
829.406	1185.64
829.587	1186.99
829.768	1185.83
829.949	1214.12
830.131	1177.5
830.312	1267.01
830.493	1210.24
830.674	1239.3
830.855	1188.54
831.036	1213.92
831.218	1270.88
831.399	1290.65
831.58	1201.91
831.761	1236.2
831.942	1241.24
832.123	1220.32
832.304	1188.93
832.485	1182.54
832.666	1178.27
832.847	1263.91
833.028	1224.19
833.209	1205.01
833.389	1188.54
833.57	1138.94
833.751	1170.72
833.932	1233.1
834.113	1212.95
834.294	1211.02
834.475	1217.02
834.655	1266.82
834.836	1216.83
835.017	1237.37
835.198	1170.72
835.378	1219.54
835.559	1268.95
835.74	1212.18
835.92	1221.09
836.101	1199.78
836.281	1250.74
836.462	1272.63
836.643	1273.79
836.823	1268.75
837.004	1270.69
837.184	1314.28
837.365	1261.78
837.545	1281.35
837.726	1238.14
837.906	1334.82
838.087	1286.77
838.267	1268.17
838.448	1223.8
838.628	1281.73
838.808	1267.01
838.989	1325.33
839.169	1224.39
839.349	1275.15
839.53	1292.39
839.71	1280.18
839.89	1241.82
840.07	1300.14
840.251	1230.78
840.431	1311.96
840.611	1234.07
840.791	1214.12
840.971	1257.32
841.151	1248.22
841.332	1261.59
841.512	1301.69
841.692	1217.22
841.872	1255.97
842.052	1237.95
842.232	1248.6
842.412	1173.82
842.592	1230.97
842.772	1300.33
842.952	1233.3
843.132	1251.51
843.312	1222.45
843.492	1201.14
843.672	1238.72
843.851	1157.74
844.031	1213.92
844.211	1224.58
844.391	1206.95
844.571	1271.08
844.751	1237.17
844.93	1215.47
845.11	1225.35
845.29	1209.08
845.47	1218.77
845.649	1205.01
845.829	1223.03
846.009	1205.2
846.188	1230.2
846.368	1251.12
846.547	1240.66
846.727	1304.02
846.907	1185.05
847.086	1229.04
847.266	1260.04
847.445	1235.62
847.625	1198.04
847.804	1196.87
847.984	1207.34
848.163	1172.66
848.343	1174.4
848.522	1198.23
848.701	1193.19
848.881	1175.56
849.06	1176.72
849.239	1190.87
849.419	1242.4
849.598	1107.17
849.777	1107.36
849.957	1134.87
850.136	1098.84
850.315	1060.67
850.494	1077.72
850.674	1083.53
850.853	1156.77
851.032	1117.44
851.211	1178.86
851.39	1126.93
851.569	1051.95
851.748	1099.61
851.927	1138.75
852.107	1104.07
852.286	1077.14
852.465	1094.38
852.644	1122.09
852.823	1122.47
853.002	1107.17
853.181	1090.7
853.359	1107.56
853.538	1049.04
853.717	1095.54
853.896	1033.54
854.075	1015.72
854.254	966.12
854.433	910.71
854.611	983.17
854.79	914.78
854.969	998.67
855.148	1001.58
855.327	938.41
855.505	1020.95
855.684	930.86
855.863	1015.33
856.041	978.91
856.22	1012.04
856.399	995.96
856.577	1088.57
856.756	1053.89
856.934	1134.49
857.113	1159.67
857.291	1065.71
857.47	1043.43
857.648	1059.51
857.827	1100
858.005	1126.74
858.184	1024.44
858.362	1117.44
858.541	1065.13
858.719	1052.53
858.898	1033.35
859.076	1011.84
859.254	1101.94
859.433	1052.92
859.611	1022.31
859.789	1007.58
859.967	1102.52
860.146	1109.88
860.324	1005.84
860.502	1016.69
860.68	982.59
860.859	1015.33
861.037	1024.63
861.215	1032.38
861.393	1010.49
861.571	1001.38
861.749	978.13
861.927	995.38
862.105	1032.38
862.283	1002.74
862.461	1010.49
862.639	940.55
862.817	970.19
862.995	990.53
863.173	1010.68
863.351	976.97
863.529	998.86
863.707	1044.39
863.885	1005.84
864.063	928.73
864.241	961.86
864.418	1026.18
864.596	982.01
864.774	933.96
864.952	955.66
865.129	963.41
865.307	945.58
865.485	918.26
865.663	1011.26
865.84	892.69
866.018	924.46
866.196	798.34
866.373	856.27
866.551	833.4
866.728	781.48
866.906	821.2
867.084	846.19
867.261	857.23
867.439	889.78
867.616	889.2
867.794	894.43
867.971	906.25
868.149	882.62
868.326	954.11
868.503	958.37
868.681	896.18
868.858	872.93
869.035	894.24
869.213	952.36
869.39	878.55
869.567	974.65
869.745	881.26
869.922	895.4
870.099	905.67
870.276	905.48
870.454	916.72
870.631	928.53
870.808	878.16
870.985	905.48
871.162	998.67
871.339	932.21
871.517	876.8
871.694	835.73
871.871	894.82
872.048	880.68
872.225	851.23
872.402	887.46
872.579	842.32
872.756	890.17
872.933	843.28
873.11	858.98
873.287	873.51
873.463	865.37
873.64	843.28
873.817	882.42
873.994	860.53
874.171	825.07
874.348	829.92
874.524	803.57
874.701	848.32
874.878	804.73
875.055	845.42
875.231	820.81
875.408	861.69
875.585	780.9
875.762	809.57
875.938	798.14
876.115	770.24
876.291	820.23
876.468	799.3
876.645	786.71
876.821	801.24
876.998	815.58
877.174	836.5
877.351	792.72
877.527	788.65
877.704	810.54
877.88	786.71
878.057	765.2
878.233	850.65
878.409	774.89
878.586	821.78
878.762	798.14
878.938	808.99
879.115	711.34
879.291	769.47
879.467	714.64
879.644	755.9
879.82	778.38
879.996	760.75
880.172	706.89
880.349	770.63
880.525	807.64
880.701	748.93
880.877	736.53
881.053	756.87
881.229	773.34
881.405	813.06
881.581	718.32
881.757	755.32
881.933	734.01
882.109	782.06
882.285	772.76
882.461	720.64
882.637	760.36
882.813	704.76
882.989	724.13
883.165	804.73
883.341	733.62
883.517	783.42
883.693	772.95
883.869	775.67
884.044	742.15
884.22	784.97
884.396	772.57
884.572	755.32
884.747	790
884.923	774.5
885.099	772.95
885.275	801.44
885.45	718.51
885.626	745.25
885.801	707.08
885.977	751.45
886.153	704.37
886.328	750.67
886.504	727.62
886.679	773.15
886.855	717.16
887.03	757.65
887.206	775.09
887.381	754.74
887.557	784.19
887.732	773.54
887.908	749.51
888.083	766.37
888.258	742.34
888.434	725.68
888.609	753.58
888.784	768.69
888.96	703.79
889.135	715.41
889.31	706.89
889.485	725.1
889.661	723.16
889.836	805.89
890.011	743.31
890.186	718.9
890.361	725.1
890.537	759.97
890.712	754.16
890.887	732.46
891.062	739.24
891.237	779.54
891.412	689.06
891.587	734.59
891.762	772.37
891.937	791.55
892.112	708.44
892.287	700.3
892.462	691.58
892.637	721.03
892.812	661.94
892.987	675.89
893.161	657.67
893.336	690.03
893.511	684.61
893.686	684.41
893.861	678.41
894.035	646.24
894.21	676.66
894.385	615.24
894.56	680.34
894.734	602.07
894.909	615.44
895.084	598.39
895.258	598.97
895.433	619.51
895.608	610.01
895.782	553.44
895.957	567
896.131	560.22
896.306	522.63
896.48	514.3
896.655	512.95
896.829	477.49
897.004	520.11
897.178	492.6
897.353	471.29
897.527	537.75
897.701	512.17
897.876	473.42
898.05	537.75
898.224	510.23
898.399	557.51
898.573	490.66
898.747	409.68
898.921	447.27
899.096	379.65
899.27	388.37
899.444	380.04
899.618	418.59
899.792	438.74
899.967	420.53
900.141	458.12
900.315	395.53
900.489	408.71
900.663	472.84
900.837	437.38
901.011	373.25
901.185	486.6
901.359	446.1
901.533	428.67
901.707	445.33
901.881	429.63
902.055	389.34
902.229	431.96
902.403	457.34
902.576	435.25
902.75	452.69
902.924	530.96
903.098	468.77
903.272	495.31
903.446	574.36
903.619	508.68
903.793	559.64
903.967	527.67
904.14	553.05
904.314	569.71
904.488	516.43
904.661	571.84
904.835	549.95
905.009	572.81
905.182	606.14
905.356	591.61
905.529	549.95
905.703	517.01
905.876	529.03
906.05	478.27
906.223	472.45
906.397	449.98
906.57	460.05
906.744	429.63
906.917	432.54
907.09	447.46
907.264	416.46
907.437	407.55
907.61	398.25
907.784	410.07
907.957	424.79
908.13	393.98
908.304	434.28
908.477	389.14
908.65	392.82
908.823	343.03
908.996	433.7
909.17	395.73
909.343	385.46
909.516	368.41
909.689	377.52
909.862	344.77
910.035	380.04
910.208	350.2
910.381	353.3
910.554	439.13
910.727	385.07
910.9	365.12
911.073	339.35
911.246	418.98
911.419	424.6
911.592	410.07
911.765	349.23
911.938	331.6
912.11	363.95
912.283	367.25
912.456	399.8
912.629	384.1
912.802	371.51
912.974	327.53
913.147	309.7
913.32	252.36
913.493	290.14
913.665	327.72
913.838	350.59
914.01	320.94
914.183	320.75
914.356	316.29
914.528	363.76
914.701	413.55
914.873	368.99
915.046	315.52
915.218	293.43
915.391	250.03
915.563	267.66
915.736	334.7
915.908	328.11
916.081	331.4
916.253	309.51
916.425	332.76
916.598	310.29
916.77	306.22
916.942	286.26
917.115	256.23
917.287	321.33
917.459	319.39
917.632	251.97
917.804	240.34
917.976	284.71
918.148	287.23
918.32	296.14
918.493	328.69
918.665	387.79
918.837	310.09
919.009	397.08
919.181	340.9
919.353	359.3
919.525	334.5
919.697	334.89
919.869	358.92
920.041	401.35
920.213	436.22
920.385	357.37
920.557	336.44
920.729	369.19
920.901	370.15
921.073	351.36
921.244	312.8
921.416	387.4
921.588	330.05
921.76	340.32
921.932	375
922.103	330.05
922.275	328.69
922.447	348.45
922.619	269.99
922.79	332.18
922.962	327.72
923.134	369.19
923.305	302.34
923.477	267.47
923.648	282.77
923.82	286.84
923.991	247.71
924.163	253.32
924.335	291.49
924.506	236.27
924.677	331.21
924.849	267.08
925.02	295.37
925.192	312.42
925.363	318.81
925.535	291.69
925.706	265.34
925.877	316.1
926.049	278.51
926.22	320.55
926.391	308.74
926.562	311.45
926.734	251.58
926.905	312.22
927.076	235.5
927.247	279.09
927.419	236.27
927.59	211.09
927.761	255.26
927.932	236.27
928.103	225.04
928.274	216.32
928.445	175.44
928.616	204.5
928.787	213.22
928.958	264.76
929.129	216.32
929.3	176.79
929.471	185.71
929.642	121.96
929.813	120.8
929.984	192.68
930.155	113.05
930.326	176.21
930.496	111.5
930.667	77.4
930.838	120.03
931.009	86.7
931.18	97.55
931.35	92.51
931.521	97.36
931.692	58.41
931.863	58.03
932.033	103.95
932.204	92.13
932.374	62.29
932.545	54.54
932.716	109.76
932.886	111.7
933.057	0.68
933.227	28.58
933.398	105.88
933.568	46.21
933.739	9.59
933.909	17.34
934.08	66.94
934.25	-23.54
934.421	17.73
934.591	54.15
934.761	25.09
934.932	-19.86
935.102	24.32
935.272	11.33
935.443	23.15
935.613	47.18
935.783	20.05
935.953	-7.07
936.123	152.19
936.294	9.01
936.464	10.17
936.634	24.12
936.804	-21.8
936.974	-7.65
937.144	22.38
937.314	48.92
937.484	-2.03
937.655	7.46
937.825	61.32
937.995	12.5
938.165	51.05
938.334	28.97
938.504	30.32
938.674	11.14
938.844	19.67
939.014	81.47
939.184	46.01
939.354	106.46
939.524	94.26
939.694	72.75
939.863	39.43
940.033	112.47
940.203	103.17
940.373	74.5
940.542	80.7
940.712	65.78
940.882	117.51
941.051	117.12
941.221	91.16
941.391	94.65
941.56	54.54
941.73	41.56
941.899	162.84
942.069	65.58
942.238	68.1
942.408	43.3
942.577	85.15
942.747	51.44
942.916	-1.65
943.086	37.49
943.255	85.93
943.425	69.65
943.594	23.54
943.763	-14.43
943.933	4.36
944.102	-24.7
944.271	61.13
944.441	51.25
944.61	23.54
944.779	27.42
944.948	137.27
945.117	5.33
945.287	37.3
945.456	11.92
945.625	6.49
945.794	44.27
945.963	15.6
946.132	64.03
946.301	50.86
946.47	76.24
946.639	-10.56
946.808	29.35
946.977	56.48
947.146	78.18
947.315	39.43
947.484	75.85
947.653	40.4
947.822	28
947.991	24.32
948.16	118.09
948.329	83.02
948.498	43.69
948.666	51.05
948.835	49.5
949.004	10.95
949.173	-0.29
949.341	32.84
949.51	70.04
949.679	86.51
949.847	91.55
950.016	138.24
950.185	110.92
950.353	26.06
950.522	14.43
950.69	86.7
950.859	-3.58
951.028	78.56
951.196	62.68
951.365	32.26
951.533	35.36
951.701	70.81
951.87	76.82
952.038	24.7
952.207	45.63
952.375	101.81
952.543	28.77
952.712	70.23
952.88	9.4
953.048	93.68
953.217	66.36
953.385	20.05
953.553	89.61
953.721	7.27
953.89	59.19
954.058	2.62
954.226	16.37
954.394	51.63
954.562	2.81
954.73	40.01
954.898	30.13
955.067	72.56
955.235	31.1
955.403	89.03
955.571	105.3
955.739	103.17
955.907	-0.1
956.075	12.5
956.243	7.85
956.41	78.76
956.578	-11.53
956.746	-21.6
956.914	22.38
957.082	46.98
957.25	58.22
957.418	-4.17
957.585	51.83
957.753	65.2
957.921	25.67
958.089	43.5
958.256	75.27
958.424	72.75
958.592	42.72
958.759	-2.42
958.927	64.61
959.095	29.74
959.262	50.08
959.43	64.23
959.597	26.25
959.765	37.68
959.932	20.05
960.1	71.01
960.267	51.05
960.435	46.4
960.602	68.68
960.77	3.39
960.937	-16.37
961.104	31.48
961.272	10.17
961.439	17.73
961.606	64.23
961.774	52.41
961.941	46.79
962.108	59.77
962.275	63.06
962.443	78.76
962.61	77.4
962.777	122.55
962.944	77.98
963.111	49.89
963.278	90.19
963.446	73.53
963.613	43.3
963.78	85.35
963.947	90.77
964.114	52.21
964.281	144.44
964.448	82.83
964.615	57.64
964.782	42.14
964.949	77.98
965.116	75.46
965.282	101.62
965.449	56.09
965.616	13.85
965.783	67.52
965.95	78.37
966.117	45.05
966.283	28.38
966.45	88.06
966.617	59.19
966.784	81.66
966.95	82.63
967.117	100.46
967.284	9.98
967.45	41.56
967.617	104.33
967.784	89.41
967.95	102.4
968.117	55.51
968.283	111.5
968.45	183.58
968.616	61.71
968.783	116.93
968.949	83.41
969.116	107.43
969.282	69.26
969.449	96.78
969.615	61.32
969.781	33.42
969.948	51.83
970.114	47.56
970.28	124.87
970.447	43.5
970.613	115.76
970.779	64.42
970.945	93.29
971.112	71.98
971.278	80.89
971.444	70.81
971.61	85.93
971.776	62.29
971.942	87.09
972.108	81.08
972.275	74.69
972.441	83.99
972.607	121
972.773	42.14
972.939	60.35
973.105	98.52
973.271	30.13
973.437	62.87
973.602	10.75
973.768	79.92
973.934	46.79
974.1	65.58
974.266	1.07
974.432	60.74
974.598	32.26
974.763	109.18
974.929	51.63
975.095	123.9
975.261	30.52
975.426	44.85
975.592	71.98
975.758	125.26
975.923	37.49
976.089	44.46
976.255	91.74
976.42	71.98
976.586	81.28
976.751	68.88
976.917	156.06
977.082	107.05
977.248	18.31
977.413	9.01
977.579	64.03
977.744	65.97
977.91	23.35
978.075	32.45
978.24	54.15
978.406	34.39
978.571	40.78
978.736	39.23
978.902	71.2
979.067	29.16
979.232	-3.97
979.397	67.91
979.563	111.89
979.728	40.59
979.893	48.15
980.058	27.8
980.223	78.18
980.388	43.69
980.554	67.33
980.719	59
980.884	60.16
981.049	110.53
981.214	54.54
981.379	78.18
981.544	71.98
981.709	43.11
981.874	51.25
982.039	77.6
982.204	84.57
982.368	63.65
982.533	30.9
982.698	83.6
982.863	90
983.028	40.4
983.193	81.08
983.357	72.75
983.522	44.85
983.687	23.15
983.852	46.79
984.016	82.63
984.181	68.49
984.346	72.17
984.51	87.28
984.675	66.75
984.839	113.63
985.004	66.75
985.168	105.5
985.333	68.68
985.498	76.82
985.662	98.13
985.827	101.43
985.991	49.11
986.155	36.91
986.32	110.92
986.484	129.71
986.649	66.36
986.813	3.97
986.977	35.75
987.142	72.56
987.306	39.62
987.47	56.09
987.634	70.23
987.799	71.98
987.963	81.47
988.127	78.18
988.291	109.37
988.455	72.36
988.62	66.55
988.784	94.06
988.948	92.9
989.112	40.59
989.276	61.51
989.44	57.83
989.604	49.7
989.768	32.07
989.932	122.93
990.096	27.03
990.26	11.53
990.424	28.58
990.588	38.85
990.752	102.2
990.915	102.59
991.079	31.87
991.243	52.6
991.407	64.81
991.571	54.73
991.734	62.1
991.898	75.27
992.062	126.42
992.226	42.14
992.389	37.3
992.553	2.62
992.717	28.19
992.88	54.93
993.044	56.67
993.207	48.53
993.371	79.73
993.535	83.6
993.698	50.08
993.862	89.41
994.025	64.03
994.189	51.25
994.352	43.3
994.515	39.82
994.679	75.46
994.842	50.28
995.006	83.8
995.169	28.19
995.332	51.25
995.496	89.8
995.659	2.23
995.822	37.3
995.985	54.93
996.149	87.28
996.312	43.3
996.475	95.42
996.638	28.38
996.801	86.9
996.964	123.51
997.128	37.3
997.291	22.77
997.454	57.25
997.617	-5.33
997.78	86.31
997.943	15.02
998.106	77.98
998.269	30.32
998.432	49.89
998.595	45.05
998.758	-10.56
998.92	3.97
999.083	-1.45
999.246	49.11
999.409	3
999.572	4.94
999.735	19.86
999.897	66.36
1000.06	-2.62
1000.223	18.5
1000.386	76.43
1000.548	79.92
1000.711	49.89
1000.874	57.06
1001.036	-4.36
1001.199	68.88
1001.361	22.38
1001.524	60.35
1001.687	76.24
1001.849	9.4
1002.012	66.55
1002.174	56.09
1002.337	40.78
1002.499	15.98
1002.661	92.51
1002.824	-19.08
1002.986	24.51
1003.149	43.88
1003.311	-5.72
1003.473	93.87
1003.636	9.01
1003.798	49.7
1003.96	56.48
1004.123	46.79
1004.285	23.54
1004.447	14.63
1004.609	24.12
1004.771	82.83
1004.933	3.97
1005.096	34
1005.258	-9.78
1005.42	19.08
1005.582	67.71
1005.744	31.68
1005.906	-23.35
1006.068	25.67
1006.23	-5.52
1006.392	-23.54
1006.554	2.62
1006.716	55.12
1006.878	46.98
1007.04	-25.28
1007.202	5.33
1007.363	28.97
1007.525	33.81
1007.687	28
1007.849	95.03
1008.011	-9.78
1008.172	-32.07
1008.334	16.95
1008.496	59.38
1008.658	-39.43
1008.819	-10.17
1008.981	-16.37
1009.143	-12.11
1009.304	26.25
1009.466	54.73
1009.627	57.06
1009.789	117.7
1009.95	34.58
1010.112	0.48
1010.273	49.31
1010.435	15.02
1010.596	9.2
1010.758	34.58
1010.919	2.42
1011.081	-16.95
1011.242	6.3
1011.403	36.91
1011.565	26.83
1011.726	73.91
1011.887	-6.49
1012.049	23.73
1012.21	42.53
1012.371	64.61
1012.532	-50.66
1012.693	12.5
1012.855	6.49
1013.016	25.28
1013.177	56.67
1013.338	27.03
1013.499	81.66
1013.66	42.92
1013.821	37.68
1013.982	22.57
1014.143	32.26
1014.304	9.98
1014.465	48.92
1014.626	41.95
1014.787	4.17
1014.948	101.43
1015.109	-55.51
1015.27	54.35
1015.431	44.85
1015.592	2.62
1015.752	49.89
1015.913	32.26
1016.074	13.85
1016.235	-2.62
1016.395	20.83
1016.556	10.75
1016.717	8.82
1016.877	64.23
1017.038	-2.23
1017.199	14.43
1017.359	30.71
1017.52	24.51
1017.681	-4.17
1017.841	8.23
1018.002	9.98
1018.162	33.62
1018.323	52.6
1018.483	19.47
1018.644	38.07
1018.804	-27.8
1018.964	-22.96
1019.125	10.75
1019.285	31.48
1019.446	-13.47
1019.606	13.08
1019.766	-39.43
1019.926	17.53
1020.087	12.3
1020.247	-16.57
1020.407	56.48
1020.567	50.47
1020.728	-6.1
1020.888	-29.35
1021.048	-15.6
1021.208	-9.4
1021.368	-3.58
1021.528	44.66
1021.688	28.38
1021.848	32.65
1022.008	-13.85
1022.168	19.08
1022.328	17.15
1022.488	29.16
1022.648	9.78
1022.808	23.15
1022.968	29.93
1023.128	8.04
1023.288	9.59
1023.448	3
1023.608	34
1023.767	20.05
1023.927	-8.82
1024.087	-20.05
1024.247	-26.83
1024.406	-4.55
1024.566	-31.68
1024.726	-18.12
1024.885	10.95
1025.045	26.45
1025.205	-4.94
1025.364	10.17
1025.524	36.33
1025.683	-4.75
1025.843	19.67
1026.003	0.29
1026.162	54.93
1026.321	24.9
1026.481	11.53
1026.64	-6.49
1026.8	13.08
1026.959	15.98
1027.119	33.62
1027.278	-30.71
1027.437	-14.63
1027.597	24.9
1027.756	14.63
1027.915	13.85
1028.074	3.78
1028.234	-15.79
1028.393	1.84
1028.552	-3.97
1028.711	-58.61
1028.87	27.42
1029.03	-40.98
1029.189	-1.45
1029.348	-37.49
1029.507	-17.92
1029.666	-18.7
1029.825	-25.09
1029.984	-27.22
1030.143	8.23
1030.302	7.85
1030.461	-79.34
1030.62	13.66
1030.779	13.08
1030.938	-31.48
1031.097	-46.4
1031.255	53.76
1031.414	57.83
1031.573	43.11
1031.732	-19.67
1031.891	-5.91
1032.049	48.73
1032.208	15.98
1032.367	-19.08
1032.525	-15.02
1032.684	-15.79
1032.843	11.72
1033.001	-34.78
1033.16	141.92
1033.319	35.94
1033.477	13.85
1033.636	-25.48
1033.794	-53.96
1033.953	28.77
1034.111	29.35
1034.27	-10.75
1034.428	10.17
1034.587	-8.62
1034.745	-2.81
1034.903	10.17
1035.062	20.44
1035.22	-23.93
1035.378	45.05
1035.537	-14.63
1035.695	48.34
1035.853	-0.48
1036.011	29.16
1036.17	23.93
1036.328	-48.73
1036.486	28.58
1036.644	12.69
1036.802	-91.35
1036.96	-19.28
1037.119	6.1
1037.277	-16.37
1037.435	-51.44
1037.593	-49.89
1037.751	19.08
1037.909	9.98
1038.067	9.98
