Data from oakcork_FLMT105791__252__17-33-23-054.txt Node

Date: Mon Mar 20 17:33:23 GMT 2023
User: antho
Spectrometer: FLMT10579
Trigger mode: 0
Integration Time (sec): 1.000000E-1
Scans to average: 10
Electric dark correction enabled: true
Nonlinearity correction enabled: false
Boxcar width: 0
XAxis mode: Wavelengths
Number of Pixels in Spectrum: 3648
>>>>>Begin Spectral Data<<<<<
345.248	-162.13
345.464	-162.13
345.681	-162.13
345.898	-157.68
346.114	-143.92
346.331	-29.42
346.548	23.09
346.764	8.56
346.981	-14.5
347.197	-8.11
347.414	10.11
347.631	-17.21
347.847	50.41
348.064	2.94
348.28	7.01
348.497	-39.49
348.713	6.62
348.93	15.14
349.146	17.47
349.363	20.57
349.579	-2.49
349.796	32.19
350.012	-5.97
350.229	36.84
350.445	8.75
350.661	-32.32
350.878	11.66
351.094	23.67
351.311	2.74
351.527	16.69
351.743	13.59
351.96	23.67
352.176	13.01
352.392	21.15
352.609	69.98
352.825	1.97
353.041	25.61
353.257	-23.02
353.474	18.63
353.69	15.34
353.906	7.98
354.122	-7.91
354.339	54.67
354.555	7.2
354.771	-17.79
354.987	66.29
355.203	60.48
355.42	5.26
355.636	16.89
355.852	25.99
356.068	20.57
356.284	-33.87
356.5	57.19
356.716	14.95
356.932	25.22
357.148	56.22
357.364	15.14
357.58	38.39
357.796	59.71
358.012	71.53
358.228	21.15
358.444	-19.34
358.66	40.53
358.876	46.53
359.092	-14.31
359.308	10.3
359.524	30.26
359.74	5.26
359.956	-6.17
360.172	24.44
360.388	49.63
360.604	9.53
360.819	81.02
361.035	25.41
361.251	27.54
361.467	-1.52
361.683	56.99
361.898	51.96
362.114	49.24
362.33	18.83
362.546	46.34
362.762	15.53
362.977	49.63
363.193	-11.4
363.409	41.69
363.624	-6.94
363.84	-9.07
364.056	2.55
364.271	36.65
364.487	39.17
364.703	8.56
364.918	-10.24
365.134	17.08
365.35	12.43
365.565	129.65
365.781	38.39
365.996	46.92
366.212	83.54
366.427	81.02
366.643	-19.15
366.858	15.73
367.074	-6.56
367.289	82.57
367.505	118.8
367.72	-34.45
367.936	13.79
368.151	70.56
368.367	64.94
368.582	49.05
368.798	-3.26
369.013	50.41
369.228	4.68
369.444	42.66
369.659	88.19
369.874	57.19
370.09	60.68
370.305	-8.69
370.52	9.53
370.736	81.99
370.951	32
371.166	74.24
371.381	93.42
371.597	58.74
371.812	-19.54
372.027	-3.46
372.242	16.11
372.458	94.77
372.673	-2.68
372.888	19.02
373.103	42.27
373.318	81.21
373.533	23.28
373.749	37.62
373.964	-31.74
374.179	60.09
374.394	7.78
374.609	67.07
374.824	-4.23
375.039	75.4
375.254	32.78
375.469	75.79
375.684	31.61
375.899	56.03
376.114	24.83
376.329	30.84
376.544	56.8
376.759	82.37
376.974	-1.71
377.189	34.71
377.404	5.65
377.619	62.81
377.834	-0.74
378.049	-8.88
378.264	-2.1
378.478	52.15
378.693	-1.91
378.908	56.41
379.123	44.79
379.338	75.79
379.553	41.69
379.767	31.42
379.982	53.51
380.197	54.28
380.412	26.19
380.626	51.76
380.841	109.69
381.056	38.2
381.271	83.92
381.485	-3.07
381.7	33.55
381.915	49.05
382.129	28.51
382.344	34.91
382.559	26.38
382.773	54.67
382.988	-14.69
383.202	51.18
383.417	-4.42
383.632	95.55
383.846	49.44
384.061	50.41
384.275	23.48
384.49	87.99
384.704	46.53
384.919	28.71
385.133	57.77
385.348	44.21
385.562	12.24
385.777	91.67
385.991	21.54
386.206	43.63
386.42	42.85
386.634	66.49
386.849	57.77
387.063	34.91
387.277	11.27
387.492	28.71
387.706	0.61
387.92	5.26
388.135	53.51
388.349	64.36
388.563	29.09
388.778	53.89
388.992	57.58
389.206	68.62
389.42	130.04
389.635	58.93
389.849	82.37
390.063	84.31
390.277	43.82
390.491	104.66
390.706	84.12
390.92	60.29
391.134	44.01
391.348	74.24
391.562	13.98
391.776	26.77
391.99	19.41
392.205	94.39
392.419	39.56
392.633	24.44
392.847	97.1
393.061	3.13
393.275	83.73
393.489	14.18
393.703	58.16
393.917	68.81
394.131	17.86
394.345	75.59
394.559	96.52
394.773	59.13
394.986	60.29
395.2	45.76
395.414	84.12
395.628	34.13
395.842	107.76
396.056	42.27
396.27	0.03
396.484	58.16
396.697	52.73
396.911	95.74
397.125	67.26
397.339	102.14
397.553	80.82
397.766	114.92
397.98	104.46
398.194	97.1
398.408	49.05
398.621	91.87
398.835	81.02
399.049	87.41
399.262	77.92
399.476	90.32
399.69	98.46
399.903	124.22
400.117	74.43
400.331	81.41
400.544	68.81
400.758	153.29
400.971	91.29
401.185	107.56
401.398	48.66
401.612	124.22
401.826	87.22
402.039	98.84
402.253	67.07
402.466	109.5
402.68	76.56
402.893	100.97
403.106	88.57
403.32	77.92
403.533	113.18
403.747	88.96
403.96	81.6
404.174	114.54
404.387	33.36
404.6	72.49
404.814	123.45
405.027	90.51
405.24	77.34
405.454	74.82
405.667	106.59
405.88	49.05
406.094	100.59
406.307	114.54
406.52	101.17
406.733	27.54
406.947	34.52
407.16	139.92
407.373	110.86
407.586	62.42
407.799	53.7
408.012	116.67
408.226	103.88
408.439	130.81
408.652	39.17
408.865	127.52
409.078	136.04
409.291	122.09
409.504	44.79
409.717	110.08
409.93	101.56
410.143	111.63
410.357	56.22
410.57	54.48
410.783	73.27
410.996	116.67
411.209	86.06
411.421	135.66
411.634	113.18
411.847	81.6
412.06	88.57
412.273	94
412.486	96.13
412.699	174.6
412.912	99.42
413.125	108.72
413.338	112.99
413.55	112.21
413.763	95.74
413.976	117.25
414.189	59.71
414.402	110.27
414.615	133.91
414.827	87.99
415.04	136.24
415.253	106.59
415.466	97.49
415.678	174.21
415.891	133.33
416.104	126.16
416.316	100.59
416.529	78.31
416.742	128.29
416.954	135.27
417.167	91.09
417.38	84.7
417.592	122.67
417.805	69.01
418.017	58.35
418.23	129.65
418.442	84.89
418.655	88.96
418.868	133.72
419.08	110.08
419.293	151.35
419.505	139.34
419.718	135.46
419.93	147.28
420.142	88.38
420.355	155.22
420.567	164.14
420.78	131.2
420.992	123.06
421.205	168.01
421.417	68.23
421.629	94.19
421.842	110.27
422.054	72.88
422.266	118.99
422.479	141.66
422.691	93.61
422.903	126.94
423.115	95.16
423.328	106.01
423.54	110.86
423.752	124.22
423.964	88.96
424.177	121.71
424.389	127.52
424.601	203.85
424.813	123.64
425.025	169.17
425.238	139.53
425.45	118.99
425.662	119.96
425.874	363.31
426.086	141.08
426.298	143.79
426.51	119.57
426.722	118.02
426.934	97.1
427.146	135.07
427.358	104.27
427.57	149.99
427.782	114.54
427.994	98.65
428.206	101.94
428.418	77.34
428.63	123.06
428.842	162.59
429.054	130.23
429.266	151.93
429.478	90.12
429.69	138.37
429.902	76.17
430.114	144.76
430.325	142.82
430.537	112.79
430.749	91.29
430.961	100.01
431.173	90.12
431.384	153.09
431.596	56.99
431.808	97.49
432.02	112.02
432.231	158.91
432.443	182.35
432.655	156.58
432.867	108.34
433.078	128.49
433.29	184.67
433.502	158.91
433.713	184.87
433.925	141.86
434.136	164.52
434.348	82.37
434.56	72.49
434.771	229.62
434.983	118.61
435.194	141.86
435.406	131.59
435.617	188.74
435.829	203.47
436.04	167.04
436.252	163.36
436.463	191.26
436.675	190.87
436.886	154.06
437.098	183.12
437.309	216.84
437.521	161.62
437.732	170.72
437.943	135.66
438.155	158.52
438.366	142.24
438.578	203.85
438.789	167.04
439	171.3
439.211	149.41
439.423	199.01
439.634	183.32
439.845	210.64
440.057	157.94
440.268	212.19
440.479	143.99
440.69	195.72
440.902	147.67
441.113	181.38
441.324	159.29
441.535	171.5
441.746	217.61
441.957	150.96
442.168	140.31
442.38	205.99
442.591	195.72
442.802	138.56
443.013	148.83
443.224	202.5
443.435	164.14
443.646	152.12
443.857	175.18
444.068	151.93
444.279	143.6
444.49	224.59
444.701	195.52
444.912	275.54
445.123	214.51
445.334	228.27
445.545	197.65
445.756	179.44
445.967	150.19
446.178	196.88
446.388	213.93
446.599	221.29
446.81	198.04
447.021	174.6
447.232	244.54
447.443	227.1
447.653	160.45
447.864	220.52
448.075	201.34
448.286	230.2
448.496	208.89
448.707	235.24
448.918	169.56
449.129	265.47
449.339	186.03
449.55	227.49
449.761	190.49
449.971	231.75
450.182	195.52
450.393	237.57
450.603	180.99
450.814	239.31
451.024	207.15
451.235	233.69
451.446	267.98
451.656	252.29
451.867	205.99
452.077	225.75
452.288	280.58
452.498	286.2
452.709	214.7
452.919	254.03
453.13	190.87
453.34	252.68
453.55	184.87
453.761	269.53
453.971	258.3
454.182	261.98
454.392	247.25
454.602	299.76
454.813	226.72
455.023	243.77
455.233	193.59
455.444	219.94
455.654	163.17
455.864	223.81
456.075	233.89
456.285	207.73
456.495	218.19
456.705	241.25
456.916	297.43
457.126	300.92
457.336	254.23
457.546	179.83
457.756	213.35
457.967	247.83
458.177	219.35
458.387	238.92
458.597	206.18
458.807	226.52
459.017	213.54
459.227	239.31
459.437	211.8
459.647	257.13
459.857	305.96
460.068	234.08
460.278	284.26
460.488	242.8
460.698	275.35
460.908	230.01
461.117	203.85
461.327	207.15
461.537	272.44
461.747	238.73
461.957	229.82
462.167	351.1
462.377	286.58
462.587	275.15
462.797	307.9
463.007	242.8
463.216	294.53
463.426	280.58
463.636	307.32
463.846	210.05
464.056	227.69
464.265	302.28
464.475	227.69
464.685	264.69
464.895	302.47
465.104	252.87
465.314	291.82
465.524	256.75
465.733	250.35
465.943	308.67
466.153	329.79
466.362	298.21
466.572	258.49
466.782	269.15
466.991	268.57
467.201	319.91
467.41	245.7
467.62	279.22
467.829	244.74
468.039	292.98
468.249	277.87
468.458	267.98
468.668	301.5
468.877	310.22
469.086	324.75
469.296	321.27
469.505	271.28
469.715	355.17
469.924	294.72
470.134	348.58
470.343	347.61
470.552	267.79
470.762	286
470.971	241.83
471.18	288.72
471.39	292.98
471.599	251.13
471.808	328.63
472.018	283.29
472.227	317
472.436	354.01
472.645	286.58
472.855	294.14
473.064	359.82
473.273	297.05
473.482	324.75
473.691	327.08
473.901	329.6
474.11	291.82
474.319	429.38
474.528	335.99
474.737	403.41
474.946	346.06
475.155	328.63
475.364	383.26
475.573	340.83
475.783	348.97
475.992	390.43
476.201	397.41
476.41	350.52
476.619	337.73
476.828	348.58
477.037	341.41
477.245	348.39
477.454	392.37
477.663	356.72
477.872	357.88
478.081	423.37
478.29	334.44
478.499	438.48
478.708	389.27
478.917	413.68
479.125	374.35
479.334	410.58
479.543	378.81
479.752	394.7
479.961	404.77
480.169	419.3
480.378	376.29
480.587	507.65
480.796	428.41
481.004	404.77
481.213	423.37
481.422	429.57
481.63	393.34
481.839	436.74
482.048	473.36
482.256	420.46
482.465	441.39
482.674	445.46
482.882	451.85
483.091	494.28
483.299	455.92
483.508	461.54
483.716	398.38
483.925	457.86
484.134	427.24
484.342	423.18
484.551	451.27
484.759	462.7
484.967	461.15
485.176	500.29
485.384	495.25
485.593	499.9
485.801	460.38
486.01	457.86
486.218	448.36
486.426	387.91
486.635	414.85
486.843	428.41
487.051	421.82
487.26	428.41
487.468	448.17
487.676	480.91
487.885	422.21
488.093	480.33
488.301	497.19
488.509	476.07
488.717	507.65
488.926	475.68
489.134	446.23
489.342	539.04
489.55	469.09
489.758	491.76
489.967	465.22
490.175	569.07
490.383	493.51
490.591	551.44
490.799	473.36
491.007	570.23
491.215	522.18
491.423	525.09
491.631	515.79
491.839	515.98
492.047	558.61
492.255	467.74
492.463	448.94
492.671	555.12
492.879	552.79
493.087	515.59
493.295	568.1
493.503	530.9
493.711	552.02
493.919	570.23
494.127	573.72
494.334	586.31
494.542	525.86
494.75	529.16
494.958	542.91
495.166	569.26
495.374	564.81
495.581	554.73
495.789	548.34
495.997	587.86
496.205	572.36
496.412	548.14
496.62	557.64
496.828	572.94
497.035	552.02
497.243	620.99
497.451	570.42
497.658	585.34
497.866	565.77
498.074	645.99
498.281	559.38
498.489	638.62
498.696	592.9
498.904	551.82
499.112	560.74
499.319	617.12
499.527	578.76
499.734	618.67
499.942	554.73
500.149	584.76
500.357	603.55
500.564	540.97
500.771	595.61
500.979	580.11
501.186	574.49
501.394	587.09
501.601	581.86
501.808	595.22
502.016	578.56
502.223	575.27
502.43	579.34
502.638	577.59
502.845	546.21
503.052	658.58
503.26	596.19
503.467	636.3
503.674	577.98
503.881	602.59
504.089	703.72
504.296	619.64
504.503	569.84
504.71	586.7
504.917	571.01
505.125	638.62
505.332	593.87
505.539	627.39
505.746	685.12
505.953	633
506.16	641.72
506.367	685.9
506.574	678.34
506.781	673.69
506.988	621.77
507.195	662.26
507.402	636.88
507.609	668.85
507.816	629.13
508.023	644.05
508.23	634.55
508.437	609.17
508.644	678.34
508.851	699.85
509.058	681.64
509.265	666.72
509.472	669.24
509.679	759.13
509.885	658.77
510.092	658.39
510.299	660.52
510.506	667.49
510.713	689.58
510.92	667.49
511.126	672.14
511.333	718.83
511.54	692.87
511.746	732.4
511.953	759.33
512.16	716.51
512.367	677.76
512.573	674.66
512.78	725.03
512.987	690.55
513.193	698.3
513.4	644.05
513.606	709.34
513.813	699.65
514.02	707.79
514.226	755.45
514.433	757.58
514.639	641.53
514.846	699.85
515.052	682.02
515.259	704.11
515.465	714.38
515.672	688.42
515.878	783.93
516.085	738.6
516.291	729.68
516.497	715.73
516.704	700.82
516.91	689.58
517.117	669.24
517.323	636.1
517.529	643.08
517.736	683.77
517.942	682.22
518.148	663.04
518.354	683.19
518.561	709.53
518.767	707.02
518.973	732.01
519.179	752.74
519.386	695.58
519.592	680.67
519.798	702.95
520.004	781.22
520.21	707.21
520.417	772.89
520.623	794.01
520.829	825.4
521.035	800.4
521.241	799.43
521.447	830.82
521.653	907.74
521.859	794.98
522.065	811.25
522.271	890.11
522.477	874.8
522.683	887.39
522.889	842.06
523.095	858.33
523.301	838.57
523.507	824.43
523.713	855.23
523.919	837.41
524.125	885.07
524.331	869.57
524.537	954.24
524.742	907.93
524.948	898.63
525.154	891.46
525.36	970.51
525.566	899.99
525.772	946.87
525.977	848.84
526.183	878.29
526.389	960.63
526.595	871.51
526.8	882.36
527.006	824.43
527.212	829.66
527.417	808.15
527.623	814.16
527.829	909.29
528.034	912.97
528.24	895.34
528.446	871.31
528.651	948.62
528.857	946.87
529.062	991.24
529.268	915.88
529.473	967.41
529.679	931.76
529.884	1023.79
530.09	989.69
530.295	1027.09
530.501	999.96
530.706	967.02
530.912	943.58
531.117	1005.97
531.323	1012.94
531.528	1026.12
531.733	1036
531.939	982.33
532.144	1032.71
532.35	1006.36
532.555	1059.44
532.76	1041.62
532.966	1029.41
533.171	999.19
533.376	998.02
533.581	980.78
533.787	991.24
533.992	1051.11
534.197	1073.39
534.402	996.67
534.607	1031.54
534.813	1109.24
535.018	1029.99
535.223	1019.92
535.428	1075.33
535.633	1116.4
535.838	1085.02
536.043	1096.45
536.249	1148.95
536.454	1067.39
536.659	1101.1
536.864	1050.92
537.069	1079.4
537.274	1123.96
537.479	1097.8
537.684	1109.43
537.889	1048.98
538.094	1188.87
538.299	1089.28
538.504	1111.95
538.708	1129
538.913	1123.18
539.118	1103.23
539.323	1129.97
539.528	1106.52
539.733	1103.81
539.938	1105.17
540.142	1108.46
540.347	1126.67
540.552	1074.94
540.757	1098.77
540.962	1073.78
541.166	1022.44
541.371	1054.99
541.576	1116.21
541.781	991.82
541.985	1128.22
542.19	1118.73
542.395	1172.98
542.599	1170.85
542.804	1136.75
543.008	1167.94
543.213	1105.55
543.418	1092.38
543.622	1137.72
543.827	1081.14
544.031	1197.58
544.236	1139.65
544.44	1155.73
544.645	1218.51
544.849	1134.42
545.054	1172.01
545.258	1242.92
545.463	1212.89
545.667	1141.2
545.872	1187.9
546.076	1173.75
546.281	1189.06
546.485	1120.86
546.689	1185.38
546.894	1231.88
547.098	1198.75
547.302	1127.64
547.507	1212.7
547.711	1168.33
547.915	1189.64
548.119	1176.27
548.324	1157.28
548.528	1223.74
548.732	1223.93
548.936	1187.32
549.141	1219.28
549.345	1187.7
549.549	1194.1
549.753	1224.71
549.957	1306.66
550.161	1258.23
550.366	1224.71
550.57	1197.97
550.774	1215.6
550.978	1191.38
551.182	1208.43
551.386	1183.44
551.59	1196.81
551.794	1178.21
551.998	1207.47
552.202	1185.77
552.406	1193.32
552.61	1211.53
552.814	1206.69
553.018	1268.5
553.222	1208.82
553.426	1214.83
553.63	1279.93
553.833	1199.72
554.037	1174.92
554.241	1249.51
554.445	1201.46
554.649	1190.03
554.853	1202.62
555.056	1244.66
555.26	1265.4
555.464	1240.21
555.668	1200.68
555.871	1225.1
556.075	1254.16
556.279	1231.3
556.483	1163.87
556.686	1184.6
556.89	1206.88
557.094	1216.38
557.297	1131.32
557.501	1259.2
557.704	1130.93
557.908	1201.85
558.112	1143.14
558.315	1245.83
558.519	1181.7
558.722	1187.32
558.926	1145.47
559.129	1156.51
559.333	1112.34
559.536	1132.68
559.74	1096.64
559.943	1106.52
560.147	1078.04
560.35	1133.26
560.553	1119.7
560.757	1073.59
560.96	1233.62
561.164	1122.99
561.367	1183.25
561.57	1139.65
561.774	1152.05
561.977	1114.66
562.18	1107.49
562.384	1201.46
562.587	1138.88
562.79	1127.64
562.993	1113.11
563.197	1153.8
563.4	1185.57
563.603	1182.86
563.806	1202.04
564.009	1096.84
564.212	1153.99
564.416	1050.34
564.619	1108.46
564.822	1107.1
565.025	1146.43
565.228	1106.72
565.431	1113.11
565.634	1050.92
565.837	1071.26
566.04	1028.06
566.243	1052.66
566.446	1004.22
566.649	1073.97
566.852	1015.27
567.055	1039.29
567.258	1091.8
567.461	1122.8
567.664	1129.19
567.867	1015.66
568.07	1052.66
568.273	1057.5
568.475	1082.5
568.678	1028.06
568.881	1027.28
569.084	1027.47
569.287	966.25
569.489	991.44
569.692	1036.19
569.895	1038.9
570.098	986.21
570.3	945.52
570.503	927.31
570.706	935.44
570.909	944.94
571.111	927.69
571.314	909.48
571.516	929.63
571.719	978.26
571.922	927.31
572.124	936.03
572.327	977.68
572.529	894.56
572.732	926.34
572.935	968.38
573.137	1005.19
573.34	918.98
573.542	955.79
573.745	975.36
573.947	936.99
574.15	947.46
574.352	902.51
574.554	976.91
574.757	880.61
574.959	904.64
575.162	868.99
575.364	886.23
575.566	1014.3
575.769	878.29
575.971	924.21
576.173	833.15
576.376	918.59
576.578	912.19
576.78	949.78
576.982	826.17
577.185	892.24
577.387	860.08
577.589	857.17
577.791	912
577.993	927.69
578.196	882.55
578.398	897.47
578.6	919.17
578.802	827.53
579.004	843.03
579.206	872.28
579.408	841.28
579.61	853.3
579.812	928.86
580.014	844.96
580.216	831.01
580.418	850.78
580.62	833.53
580.822	780.64
581.024	834.5
581.226	912.39
581.428	855.23
581.63	932.34
581.832	852.52
582.034	900.76
582.236	848.45
582.438	896.69
582.64	908.71
582.841	908.71
583.043	960.82
583.245	900.76
583.447	877.32
583.649	877.51
583.85	869.96
584.052	923.04
584.254	867.83
584.456	913.74
584.657	819.58
584.859	864.53
585.061	860.66
585.262	852.71
585.464	805.05
585.666	902.12
585.867	852.13
586.069	888.17
586.27	883.13
586.472	878.87
586.674	798.66
586.875	843.03
587.077	878.87
587.278	876.93
587.48	833.53
587.681	964.51
587.883	865.5
588.084	811.64
588.285	830.05
588.487	829.08
588.688	824.43
588.89	784.51
589.091	779.86
589.292	804.08
589.494	756.62
589.695	738.98
589.896	697.91
590.098	674.85
590.299	740.15
590.5	737.82
590.702	724.07
590.903	769.4
591.104	819
591.305	769.6
591.507	842.25
591.708	791.1
591.909	801.76
592.11	862.79
592.311	808.73
592.512	778.12
592.714	755.84
592.915	765.92
593.116	757.39
593.317	778.9
593.518	786.45
593.719	759.52
593.92	792.26
594.121	838.57
594.322	801.56
594.523	778.31
594.724	754.68
594.925	767.85
595.126	808.93
595.327	801.37
595.528	813.38
595.729	786.65
595.929	784.9
596.13	772.5
596.331	796.91
596.532	819.78
596.733	827.33
596.934	820.55
597.135	826.36
597.335	821.91
597.536	745.96
597.737	772.7
597.938	757.78
598.138	792.46
598.339	780.83
598.54	805.25
598.74	783.55
598.941	798.85
599.142	833.15
599.342	803.11
599.543	793.81
599.744	784.32
599.944	786.65
600.145	791.68
600.345	812.22
600.546	832.37
600.746	844
600.947	838.76
601.147	807.96
601.348	848.84
601.548	779.09
601.749	809.7
601.949	761.85
602.15	728.52
602.35	780.45
602.551	810.09
602.751	769.4
602.951	761.85
603.152	723.68
603.352	783.16
603.552	770.95
603.753	810.67
603.953	803.11
604.153	796.91
604.354	782
604.554	794.4
604.754	767.47
604.954	770.57
605.155	799.63
605.355	789.75
605.555	816.29
605.755	846.71
605.955	775.6
606.155	797.5
606.356	783.93
606.556	833.15
606.756	815.32
606.956	751.77
607.156	842.45
607.356	751.97
607.556	787.61
607.756	778.51
607.956	798.27
608.156	778.9
608.356	773.86
608.556	796.14
608.756	777.93
608.956	758.36
609.156	792.26
609.356	731.62
609.556	751.38
609.755	790.52
609.955	736.47
610.155	784.32
610.355	779.67
610.555	722.71
610.755	762.04
610.954	699.46
611.154	781.41
611.354	812.41
611.554	741.12
611.753	723.1
611.953	732.78
612.153	762.43
612.352	799.05
612.552	699.07
612.752	688.42
612.951	745.18
613.151	778.12
613.351	729.49
613.55	712.05
613.75	732.78
613.949	742.67
614.149	745.96
614.348	712.63
614.548	724.84
614.747	681.83
614.947	718.45
615.146	664.97
615.346	715.54
615.545	694.03
615.745	730.27
615.944	733.95
616.144	702.95
616.343	737.05
616.542	695.78
616.742	729.49
616.941	684.15
617.14	677.57
617.34	679.12
617.539	717.87
617.738	693.84
617.938	754.1
618.137	713.22
618.336	666.72
618.535	701.4
618.734	695.78
618.934	733.75
619.133	703.72
619.332	720.58
619.531	691.32
619.73	712.44
619.929	746.15
620.128	719.61
620.328	754.1
620.527	676.02
620.726	680.47
620.925	666.14
621.124	692.87
621.323	685.51
621.522	656.25
621.721	666.33
621.92	673.3
622.119	695
622.318	658
622.517	681.44
622.715	689.58
622.914	631.07
623.113	639.2
623.312	617.12
623.511	705.85
623.71	653.15
623.909	650.25
624.107	716.9
624.306	609.75
624.505	649.67
624.704	641.34
624.902	649.67
625.101	704.3
625.3	671.37
625.499	632.81
625.697	617.12
625.896	628.55
626.095	681.25
626.293	604.91
626.492	621.77
626.69	666.52
626.889	612.08
627.088	646.18
627.286	610.72
627.485	631.84
627.683	624.48
627.882	636.88
628.08	574.88
628.279	560.74
628.477	663.42
628.676	627.19
628.874	639.4
629.073	613.24
629.271	592.32
629.469	629.9
629.668	612.27
629.866	600.65
630.065	597.35
630.263	633.59
630.461	589.99
630.66	652.57
630.858	641.34
631.056	650.05
631.254	644.05
631.453	563.64
631.651	627.97
631.849	626.8
632.047	640.37
632.245	602.97
632.444	608.2
632.642	618.86
632.84	644.82
633.038	613.63
633.236	597.74
633.434	568.49
633.632	575.27
633.83	595.61
634.028	632.42
634.227	601.04
634.425	691.9
634.623	630.68
634.821	629.32
635.019	621.96
635.216	596.97
635.414	634.17
635.612	634.17
635.81	604.52
636.008	667.49
636.206	615.37
636.404	627.19
636.602	566.94
636.8	607.43
636.997	640.56
637.195	664
637.393	619.05
637.591	630.49
637.789	622.15
637.986	629.52
638.184	615.37
638.382	620.99
638.58	625.84
638.777	686.28
638.975	615.76
639.173	608.59
639.37	647.15
639.568	640.75
639.765	643.66
639.963	601.42
640.161	671.17
640.358	638.04
640.556	612.27
640.753	580.5
640.951	601.42
641.148	569.26
641.346	613.05
641.543	582.05
641.741	610.53
641.938	583.41
642.136	622.54
642.333	572.94
642.531	635.72
642.728	629.52
642.925	593.29
643.123	570.62
643.32	609.17
643.517	570.42
643.715	591.54
643.912	570.81
644.109	595.22
644.306	593.09
644.504	588.64
644.701	585.92
644.898	615.95
645.095	576.43
645.293	602.2
645.49	620.6
645.687	603.94
645.884	619.83
646.081	566.55
646.278	548.34
646.475	539.81
646.672	550.86
646.87	566.74
647.067	569.07
647.264	578.95
647.461	531.09
647.658	535.94
647.855	588.06
648.052	560.16
648.249	476.07
648.446	543.11
648.642	555.51
648.839	543.88
649.036	534.97
649.233	509.01
649.43	509.59
649.627	492.34
649.824	534.58
650.021	554.34
650.217	505.71
650.414	508.81
650.611	557.64
650.808	569.26
651.004	536.32
651.201	546.79
651.398	578.56
651.595	533.61
651.791	491.57
651.988	549.89
652.185	511.14
652.381	552.79
652.578	490.99
652.775	522.57
652.971	542.33
653.168	531.48
653.364	579.92
653.561	503.97
653.757	532.06
653.954	517.92
654.15	517.53
654.347	584.37
654.543	538.26
654.74	512.69
654.936	497.19
655.133	526.83
655.329	520.24
655.525	525.28
655.722	552.02
655.918	487.31
656.115	526.25
656.311	443.13
656.507	434.61
656.704	414.07
656.9	470.26
657.096	445.26
657.292	447.39
657.489	495.25
657.685	486.53
657.881	462.51
658.077	493.7
658.273	492.73
658.47	552.41
658.666	462.51
658.862	526.25
659.058	472.78
659.254	513.27
659.45	454.56
659.646	520.05
659.842	508.04
660.038	531.87
660.234	463.67
660.43	504.55
660.626	581.47
660.822	540.78
661.018	532.06
661.214	491.18
661.41	484.4
661.606	529.93
661.802	536.32
661.998	520.44
662.194	497.38
662.39	530.32
662.586	508.23
662.781	514.43
662.977	557.64
663.173	543.3
663.369	535.55
663.564	525.28
663.76	546.98
663.956	488.47
664.152	547.95
664.347	473.16
664.543	516.17
664.739	496.61
664.934	451.66
665.13	452.43
665.326	545.43
665.521	496.61
665.717	484.4
665.912	447.59
666.108	424.73
666.304	478.01
666.499	505.13
666.695	425.89
666.89	473.16
667.086	490.79
667.281	508.43
667.477	540.2
667.672	495.25
667.867	484.4
668.063	511.14
668.258	463.09
668.454	494.09
668.649	566.94
668.844	489.05
669.04	492.93
669.235	471.23
669.43	473.16
669.626	438.87
669.821	468.32
670.016	430.54
670.211	470.84
670.407	458.05
670.602	459.6
670.797	458.44
670.992	515.98
671.187	463.48
671.382	503.19
671.578	427.63
671.773	490.02
671.968	458.44
672.163	490.79
672.358	465.22
672.553	438.09
672.748	438.48
672.943	529.93
673.138	472.58
673.333	505.52
673.528	471.42
673.723	472.58
673.918	445.65
674.113	430.54
674.308	515.59
674.503	488.66
674.698	471.61
674.892	492.73
675.087	507.46
675.282	495.25
675.477	471.81
675.672	481.3
675.867	455.53
676.061	401.86
676.256	414.26
676.451	440.42
676.646	471.03
676.84	460.38
677.035	417.17
677.23	416.01
677.424	459.79
677.619	517.92
677.814	477.62
678.008	488.08
678.203	425.11
678.397	435.96
678.592	445.07
678.787	512.49
678.981	437.71
679.176	467.54
679.37	442.55
679.565	426.47
679.759	435.38
679.954	471.23
680.148	506.49
680.342	495.64
680.537	475.68
680.731	460.18
680.926	484.4
681.12	476.84
681.314	457.08
681.509	432.67
681.703	473.55
681.897	488.86
682.092	453.98
682.286	440.81
682.48	539.42
682.674	504.16
682.869	446.62
683.063	436.35
683.257	492.15
683.451	454.76
683.645	482.85
683.839	471.42
684.034	456.69
684.228	496.22
684.422	392.18
684.616	418.14
684.81	466.96
685.004	444.49
685.198	449.33
685.392	465.99
685.586	411.36
685.78	441
685.974	456.11
686.168	480.33
686.362	511.33
686.556	436.74
686.75	404.96
686.944	411.16
687.138	397.02
687.331	362.53
687.525	366.41
687.719	304.02
687.913	392.76
688.107	356.91
688.301	334.63
688.494	383.26
688.688	319.33
688.882	317
689.076	321.65
689.269	363.31
689.463	437.13
689.657	339.48
689.85	330.57
690.044	372.41
690.238	387.53
690.431	356.72
690.625	366.99
690.818	434.99
691.012	384.81
691.205	412.33
691.399	391.79
691.593	437.13
691.786	446.81
691.98	443.13
692.173	490.02
692.366	452.63
692.56	433.44
692.753	516.17
692.947	416.01
693.14	473.16
693.333	477.23
693.527	407.29
693.72	483.43
693.914	438.48
694.107	438.68
694.3	470.64
694.493	441.97
694.687	507.26
694.88	460.96
695.073	536.32
695.266	486.73
695.46	470.26
695.653	539.04
695.846	524.51
696.039	458.24
696.232	496.8
696.425	550.27
696.618	535.74
696.812	515.59
697.005	611.89
697.198	665.75
697.391	569.26
697.584	611.11
697.777	651.41
697.97	626.22
698.163	651.22
698.356	618.28
698.549	670.2
698.742	665.94
698.935	603.17
699.127	666.72
699.32	637.07
699.513	642.3
699.706	690.35
699.899	680.28
700.092	647.15
700.285	657.42
700.477	621.77
700.67	689.38
700.863	715.93
701.056	776.57
701.248	743.05
701.441	739.37
701.634	718.45
701.826	801.18
702.019	698.1
702.212	782.58
702.404	698.68
702.597	731.23
702.79	767.66
702.982	807.38
703.175	833.34
703.367	820.16
703.56	858.33
703.752	923.63
703.945	846.9
704.137	887.78
704.33	910.26
704.522	895.73
704.715	918.2
704.907	950.36
705.1	983.69
705.292	949.78
705.484	956.37
705.677	964.89
705.869	977.49
706.061	1000.35
706.254	1030.38
706.446	1005.58
706.638	988.14
706.831	1067.58
707.023	1013.72
707.215	1162.13
707.407	1115.63
707.599	1066.03
707.792	1128.8
707.984	1111.95
708.176	1163.1
708.368	1109.24
708.56	1162.9
708.752	1163.1
708.944	1131.52
709.136	1179.57
709.329	1172.4
709.521	1265.98
709.713	1264.04
709.905	1230.71
710.097	1299.3
710.289	1241.95
710.481	1249.9
710.672	1254.74
710.864	1288.84
711.056	1323.91
711.248	1312.67
711.44	1363.04
711.632	1345.61
711.824	1359.56
712.016	1410.32
712.207	1371.38
712.399	1404.31
712.591	1497.7
712.783	1464.37
712.975	1448.68
713.166	1400.05
713.358	1476.58
713.55	1494.79
713.741	1509.52
713.933	1542.84
714.125	1498.86
714.316	1499.83
714.508	1552.92
714.7	1565.9
714.891	1562.22
715.083	1596.32
715.274	1560.67
715.466	1586.82
715.657	1608.52
715.849	1511.84
716.04	1573.45
716.232	1492.08
716.423	1564.73
716.615	1499.64
716.806	1491.11
716.998	1475.42
717.189	1445.77
717.381	1374.28
717.572	1343.48
717.763	1383.19
717.955	1365.95
718.146	1336.31
718.337	1299.3
718.528	1280.51
718.72	1224.71
718.911	1268.11
719.102	1275.86
719.293	1299.11
719.485	1279.54
719.676	1277.21
719.867	1230.71
720.058	1259.58
720.249	1269.85
720.44	1282.64
720.632	1307.05
720.823	1349.29
721.014	1469.02
721.205	1455.85
721.396	1503.7
721.587	1619.37
721.778	1670.91
721.969	1668.97
722.16	1713.53
722.351	1735.62
722.542	1817.77
722.733	1828.62
722.924	1793.94
723.115	1796.07
723.305	1804.01
723.496	1807.11
723.687	1698.81
723.878	1714.31
724.069	1732.52
724.26	1741.82
724.45	1679.24
724.641	1681.95
724.832	1721.67
725.023	1705.2
725.213	1687.38
725.404	1659.86
725.595	1720.12
725.785	1692.41
725.976	1730
726.167	1737.17
726.357	1743.56
726.548	1836.95
726.739	1791.23
726.929	1835.4
727.12	1841.41
727.31	1871.82
727.501	1847.22
727.691	1818.35
727.882	1851.67
728.072	1874.73
728.263	1885.19
728.453	1941.96
728.644	1935.95
728.834	1920.07
729.024	1912.9
729.215	1886.55
729.405	1930.72
729.596	1965.79
729.786	2007.25
729.976	2002.41
730.167	2002.8
730.357	1983.81
730.547	2003.96
730.737	2063.63
730.928	2071.97
731.118	2103.55
731.308	2016.17
731.498	2081.07
731.688	2154.11
731.879	2167.29
732.069	2208.17
732.259	2248.86
732.449	2282.76
732.639	2342.63
732.829	2356.19
733.019	2393.39
733.209	2441.44
733.399	2462.56
733.589	2504.02
733.779	2543.55
733.969	2542
734.159	2588.69
734.349	2625.69
734.539	2682.27
734.729	2691.76
734.919	2665.41
735.109	2736.13
735.299	2673.94
735.488	2707.46
735.678	2717.53
735.868	2711.33
736.058	2715.4
736.248	2701.84
736.437	2663.28
736.627	2685.18
736.817	2783.6
737.007	2730.12
737.196	2798.9
737.386	2752.21
737.576	2706.29
737.765	2825.64
737.955	2772.17
738.144	2915.35
738.334	2866.72
738.524	2780.5
738.713	2853.35
738.903	2872.72
739.092	2896.94
739.282	2897.52
739.471	2889.77
739.661	2882.6
739.85	2927.75
740.04	2969.79
740.229	2958.55
740.419	2988.39
740.608	2988.97
740.797	2960.68
740.987	3018.81
741.176	3048.45
741.365	2978.31
741.555	2972.31
741.744	3083.33
741.933	3030.43
742.123	3036.83
742.312	3081.78
742.501	3086.62
742.69	3083.71
742.88	3047.87
743.069	3113.55
743.258	3080.61
743.447	3150.94
743.636	3122.66
743.825	3117.62
744.014	3151.72
744.204	3179.42
744.393	3107.16
744.582	3151.52
744.771	3187.17
744.96	3166.25
745.149	3193.76
745.338	3166.25
745.527	3174.39
745.716	3184.27
745.905	3164.12
746.094	3230.96
746.283	3196.09
746.471	3189.69
746.66	3252.47
746.849	3216.43
747.038	3277.46
747.227	3190.66
747.416	3247.82
747.604	3192.02
747.793	3223.99
747.982	3241.04
748.171	3262.54
748.359	3198.02
748.548	3223.4
748.737	3224.76
748.926	3188.92
749.114	3140.29
749.303	3216.82
749.491	3226.12
749.68	3118.39
749.869	3230.96
750.057	3196.09
750.246	3161.79
750.434	3192.99
750.623	3202.87
750.811	3136.41
751	3217.01
751.188	3175.16
751.377	3174
751.565	3138.54
751.754	3121.69
751.942	3133.12
752.131	3225.54
752.319	3123.04
752.507	3122.27
752.696	3188.34
752.884	3180.97
753.072	3151.52
753.261	3155.4
753.449	3140.29
753.637	3153.66
753.825	3207.71
754.014	3139.9
754.202	3113.55
754.39	3206.74
754.578	3149.39
754.766	3098.83
754.955	3140.29
755.143	3202.87
755.331	3134.47
755.519	3161.41
755.707	3102.31
755.895	3110.26
756.083	3118.98
756.271	3056.59
756.459	3089.14
756.647	3178.07
756.835	3062.98
757.023	3108.51
757.211	3065.89
757.399	3045.93
757.587	3094.37
757.775	3006.99
757.963	3054.84
758.151	3090.11
758.339	2996.53
758.526	2984.9
758.714	3056.59
758.902	2903.33
759.09	2845.02
759.278	2641.39
759.465	2430.98
759.653	2081.27
759.841	1923.55
760.028	1640.68
760.216	1445.39
760.404	1336.69
760.591	1080.75
760.779	942.03
760.967	791.68
761.154	653.54
761.342	720.77
761.529	737.24
761.717	742.47
761.905	727.55
762.092	792.65
762.28	741.89
762.467	728.33
762.655	683.19
762.842	697.13
763.029	687.45
763.217	721.74
763.404	675.82
763.592	730.27
763.779	710.12
763.966	744.02
764.154	757.58
764.341	808.15
764.528	816.48
764.716	886.04
764.903	938.74
765.09	970.71
765.277	1000.16
765.465	1190.61
765.652	1248.15
765.839	1288.84
766.026	1418.26
766.213	1464.18
766.4	1541.87
766.588	1757.13
766.775	1739.88
766.962	1832.11
767.149	1901.86
767.336	2056.08
767.523	2015.97
767.71	2147.53
767.897	2216.31
768.084	2310.86
768.271	2328.1
768.458	2439.12
768.645	2458.88
768.832	2459.07
769.019	2487.55
769.206	2518.17
769.392	2591.98
769.579	2661.93
769.766	2600.7
769.953	2643.71
770.14	2636.16
770.327	2650.11
770.513	2710.75
770.7	2801.23
770.887	2686.92
771.073	2715.01
771.26	2724.12
771.447	2707.26
771.634	2681.49
771.82	2760.35
772.007	2656.31
772.193	2723.54
772.38	2739.42
772.567	2767.32
772.753	2680.91
772.94	2786.31
773.126	2752.99
773.313	2721.21
773.499	2722.76
773.686	2756.86
773.872	2691.38
774.059	2773.33
774.245	2712.49
774.432	2735.36
774.618	2647.2
774.804	2707.26
774.991	2672.78
775.177	2705.32
775.363	2714.62
775.55	2736.91
775.736	2681.49
775.922	2716.37
776.109	2674.91
776.295	2717.53
776.481	2717.34
776.667	2759.38
776.853	2678.2
777.04	2638.29
777.226	2642.16
777.412	2742.91
777.598	2613.49
777.784	2664.25
777.97	2611.16
778.156	2658.24
778.342	2604
778.528	2679.17
778.715	2598.18
778.901	2609.03
779.087	2632.28
779.272	2538.31
779.458	2552.65
779.644	2569.12
779.83	2550.91
780.016	2676.07
780.202	2603.8
780.388	2565.44
780.574	2501.31
780.76	2542.19
780.946	2574.55
781.131	2570.48
781.317	2552.07
781.503	2524.75
781.689	2492.59
781.874	2623.56
782.06	2485.62
782.246	2538.9
782.432	2528.82
782.617	2493.17
782.803	2592.18
782.989	2468.95
783.174	2483.29
783.36	2458.3
783.545	2471.47
783.731	2513.52
783.916	2440.47
784.102	2480.77
784.288	2461.78
784.473	2455.97
784.659	2400.75
784.844	2477.09
785.029	2424.97
785.215	2398.62
785.4	2372.27
785.586	2443.18
785.771	2375.57
785.956	2403.66
786.142	2419.74
786.327	2368.01
786.512	2407.92
786.698	2357.94
786.883	2316.47
787.068	2353.29
787.254	2369.56
787.439	2342.82
787.624	2316.86
787.809	2291.48
787.994	2289.93
788.18	2366.27
788.365	2271.52
788.55	2295.74
788.735	2285.09
788.92	2273.46
789.105	2281.41
789.29	2268.81
789.475	2249.44
789.66	2219.02
789.845	2190.54
790.03	2173.68
790.215	2252.15
790.4	2258.74
790.585	2301.17
790.77	2216.5
790.955	2155.86
791.14	2175.23
791.325	2262.03
791.51	2164.77
791.695	2201.58
791.879	2185.5
792.064	2143.26
792.249	2255.25
792.434	2151.01
792.618	2182.98
792.803	2217.66
792.988	2184.53
793.173	2195.77
793.357	2231.81
793.542	2153.92
793.727	2196.54
793.911	2210.11
794.096	2168.45
794.281	2206.81
794.465	2284.89
794.65	2184.92
794.834	2230.64
795.019	2230.84
795.203	2247.31
795.388	2256.41
795.572	2257.77
795.757	2208.56
795.941	2240.53
796.126	2218.05
796.31	2178.91
796.494	2204.29
796.679	2190.15
796.863	2183.76
797.048	2272.69
797.232	2213.59
797.416	2201
797.601	2207.78
797.785	2264.74
797.969	2314.73
798.153	2251.38
798.338	2236.26
798.522	2274.04
798.706	2266.1
798.89	2262.61
799.074	2343.21
799.258	2308.14
799.443	2299.04
799.627	2239.36
799.811	2279.47
799.995	2260.48
800.179	2205.65
800.363	2253.7
800.547	2259.51
800.731	2253.51
800.915	2221.15
801.099	2199.45
801.283	2216.5
801.467	2224.25
801.651	2216.11
801.835	2257.38
802.019	2251.38
802.202	2244.79
802.386	2169.61
802.57	2170.58
802.754	2200.42
802.938	2182.59
803.121	2186.28
803.305	2256.41
803.489	2214.76
803.673	2226.38
803.856	2218.63
804.04	2243.24
804.224	2216.69
804.407	2214.18
804.591	2193.25
804.775	2167.29
804.958	2197.71
805.142	2319.38
805.326	2252.15
805.509	2231.42
805.693	2313.57
805.876	2263
806.06	2261.64
806.243	2264.74
806.427	2280.05
806.61	2291.67
806.794	2249.83
806.977	2274.24
807.16	2256.03
807.344	2270.36
807.527	2247.69
807.71	2238.2
807.894	2272.69
808.077	2250.99
808.26	2207.78
808.444	2222.31
808.627	2251.96
808.81	2186.28
808.993	2156.05
809.177	2141.71
809.36	2157.02
809.543	2187.24
809.726	2092.7
809.909	2069.83
810.092	2072.93
810.276	2088.82
810.459	2095.8
810.642	2111.49
810.825	2025.08
811.008	2055.5
811.191	1974.9
811.374	1964.82
811.557	2004.15
811.74	2065.57
811.923	1923.75
812.106	1938.28
812.289	1894.49
812.472	1936.92
812.654	1918.52
812.837	1883.26
813.02	1819.51
813.203	1807.69
813.386	1711.6
813.569	1749.57
813.751	1698.03
813.934	1746.66
814.117	1677.3
814.3	1624.6
814.482	1606.78
814.665	1564.35
814.848	1538.77
815.03	1506.03
815.213	1476.39
815.396	1508.55
815.578	1473.67
815.761	1420.78
815.943	1507.19
816.126	1432.79
816.309	1394.62
816.491	1339.41
816.674	1297.56
816.856	1374.28
817.039	1325.07
817.221	1403.34
817.403	1332.82
817.586	1389.59
817.768	1375.83
817.951	1312.48
818.133	1312.86
818.315	1311.7
818.498	1363.43
818.68	1419.42
818.862	1376.03
819.045	1417.68
819.227	1395.98
819.409	1402.96
819.591	1434.15
819.774	1374.48
819.956	1356.26
820.138	1434.15
820.32	1432.6
820.502	1518.04
820.684	1535.87
820.866	1527.15
821.048	1580.04
821.231	1574.62
821.413	1538.19
821.595	1563.18
821.777	1577.72
821.959	1537.61
822.141	1601.35
822.323	1495.37
822.505	1437.25
822.686	1396.76
822.868	1342.51
823.05	1261.52
823.232	1196.62
823.414	1122.99
823.596	1207.85
823.778	1213.28
823.96	1242.34
824.141	1226.65
824.323	1253
824.505	1307.05
824.687	1367.89
824.868	1440.93
825.05	1523.08
825.232	1525.4
825.413	1557.37
825.595	1539.94
825.777	1467.28
825.958	1560.47
826.14	1498.86
826.321	1551.95
826.503	1496.34
826.685	1567.25
826.866	1541.87
827.048	1547.69
827.229	1490.34
827.411	1470.96
827.592	1415.55
827.773	1421.94
827.955	1369.24
828.136	1398.11
828.318	1366.34
828.499	1398.69
828.68	1336.89
828.862	1404.12
829.043	1406.64
829.224	1372.15
829.406	1329.14
829.587	1343.86
829.768	1368.08
829.949	1370.02
830.131	1365.37
830.312	1421.36
830.493	1387.65
830.674	1371.38
830.855	1350.26
831.036	1362.08
831.218	1413.61
831.399	1453.33
831.58	1380.87
831.761	1354.71
831.942	1412.06
832.123	1404.89
832.304	1364.79
832.485	1387.07
832.666	1359.56
832.847	1417.49
833.028	1389.2
833.209	1382.03
833.389	1364.79
833.57	1305.69
833.751	1332.24
833.932	1401.21
834.113	1384.16
834.294	1360.53
834.475	1383
834.655	1384.55
834.836	1429.11
835.017	1428.53
835.198	1381.26
835.378	1389.39
835.559	1450.04
835.74	1405.28
835.92	1376.03
836.101	1346.77
836.281	1453.33
836.462	1437.64
836.643	1433.18
836.823	1444.81
837.004	1452.75
837.184	1505.64
837.365	1471.54
837.545	1477.16
837.726	1417.87
837.906	1511.45
838.087	1443.84
838.267	1454.49
838.448	1405.67
838.628	1426.59
838.808	1460.31
838.989	1488.4
839.169	1385.71
839.349	1455.46
839.53	1479.1
839.71	1485.49
839.89	1426.01
840.07	1489.17
840.251	1406.06
840.431	1445.97
840.611	1464.18
840.791	1414.58
840.971	1454.88
841.151	1443.26
841.332	1378.16
841.512	1480.45
841.692	1378.74
841.872	1453.33
842.052	1396.37
842.232	1470.19
842.412	1372.73
842.592	1434.92
842.772	1460.31
842.952	1433.37
843.132	1436.09
843.312	1429.11
843.492	1373.12
843.672	1400.82
843.851	1354.52
844.031	1421.94
844.211	1397.53
844.391	1359.75
844.571	1417.87
844.751	1386.68
844.93	1412.64
845.11	1406.44
845.29	1387.46
845.47	1423.49
845.649	1378.74
845.829	1449.84
846.009	1388.62
846.188	1392.49
846.368	1420.39
846.547	1381.45
846.727	1439.57
846.907	1327.98
847.086	1361.11
847.266	1406.25
847.445	1426.79
847.625	1348.32
847.804	1370.21
847.984	1382.03
848.163	1348.9
848.343	1353.55
848.522	1358.98
848.701	1377.38
848.881	1335.34
849.06	1374.48
849.239	1345.61
849.419	1376.61
849.598	1277.21
849.777	1290.58
849.957	1304.14
850.136	1236.14
850.315	1260.36
850.494	1222.58
850.674	1247.76
850.853	1282.25
851.032	1250.48
851.211	1319.64
851.39	1263.46
851.569	1224.32
851.748	1247.57
851.927	1304.73
852.107	1257.84
852.286	1241.37
852.465	1259.39
852.644	1298.53
852.823	1274.7
853.002	1256.1
853.181	1273.92
853.359	1264.81
853.538	1205.72
853.717	1274.7
853.896	1181.31
854.075	1135.2
854.254	1113.11
854.433	1059.83
854.611	1108.85
854.79	1038.13
854.969	1107.3
855.148	1135.39
855.327	1112.92
855.505	1117.95
855.684	1086.76
855.863	1131.52
856.041	1138.88
856.22	1152.25
856.399	1119.7
856.577	1244.47
856.756	1177.43
856.934	1290.78
857.113	1306.66
857.291	1243.89
857.47	1190.61
857.648	1222
857.827	1236.14
858.005	1229.36
858.184	1195.65
858.362	1287.68
858.541	1168.91
858.719	1220.25
858.898	1198.55
859.076	1201.65
859.254	1218.12
859.433	1202.82
859.611	1196.62
859.789	1151.47
859.967	1241.76
860.146	1246.02
860.324	1139.27
860.502	1176.08
860.68	1117.37
860.859	1135.39
861.037	1164.07
861.215	1181.89
861.393	1151.67
861.571	1133.84
861.749	1122.8
861.927	1175.88
862.105	1163.48
862.283	1151.86
862.461	1123.96
862.639	1089.67
862.817	1128.22
862.995	1128.8
863.173	1122.6
863.351	1141.78
863.529	1123.96
863.707	1175.5
863.885	1126.09
864.063	1068.35
864.241	1138.88
864.418	1141.2
864.596	1115.05
864.774	1061.19
864.952	1091.41
865.129	1146.63
865.307	1108.07
865.485	1056.54
865.663	1116.02
865.84	1013.72
866.018	1087.73
866.196	948.42
866.373	977.1
866.551	973.81
866.728	881
866.906	932.73
867.084	1003.06
867.261	987.56
867.439	976.13
867.616	1004.42
867.794	1019.92
867.971	1030.77
868.149	1013.33
868.326	1060.8
868.503	1073.78
868.681	1026.89
868.858	1023.41
869.035	999.38
869.213	1048.79
869.39	1016.24
869.567	1098.39
869.745	1029.61
869.922	1022.24
870.099	1047.04
870.276	1053.24
870.454	1061.57
870.631	1063.51
870.808	999.77
870.985	1030.38
871.162	1068.16
871.339	1040.26
871.517	983.49
871.694	997.06
871.871	1023.21
872.048	1022.05
872.225	982.33
872.402	1025.54
872.579	955.01
872.756	1022.24
872.933	963.92
873.11	997.44
873.287	1036.19
873.463	991.63
873.64	948.23
873.817	988.92
873.994	948.23
874.171	946.1
874.348	971.09
874.524	924.59
874.701	959.27
874.878	901.73
875.055	952.3
875.231	962.18
875.408	987.95
875.585	890.49
875.762	938.74
875.938	908.32
876.115	923.63
876.291	946.49
876.468	920.91
876.645	912
876.821	903.09
876.998	922.66
877.174	924.01
877.351	921.49
877.527	872.09
877.704	947.26
877.88	914.71
878.057	890.11
878.233	956.56
878.409	910.45
878.586	912.78
878.762	910.84
878.938	914.91
879.115	845.55
879.291	909.48
879.467	844.38
879.644	863.37
879.82	916.07
879.996	869.18
880.172	829.85
880.349	868.79
880.525	929.44
880.701	831.4
880.877	857.56
881.053	863.95
881.229	872.28
881.405	943.58
881.581	843.41
881.757	866.47
881.933	892.82
882.109	883.33
882.285	873.25
882.461	814.93
882.637	860.85
882.813	839.35
882.989	870.34
883.165	900.18
883.341	831.4
883.517	887.98
883.693	884.88
883.869	877.9
884.044	830.82
884.22	886.04
884.396	916.07
884.572	875.19
884.747	888.75
884.923	887.98
885.099	876.16
885.275	914.33
885.45	863.95
885.626	869.38
885.801	825.59
885.977	834.89
886.153	804.86
886.328	879.84
886.504	829.08
886.679	869.57
886.855	841.09
887.03	901.73
887.206	914.13
887.381	823.46
887.557	873.44
887.732	867.44
887.908	867.63
888.083	874.8
888.258	859.11
888.434	848.26
888.609	848.84
888.784	899.79
888.96	820.75
889.135	859.3
889.31	838.76
889.485	867.63
889.661	825.59
889.836	899.6
890.011	893.59
890.186	824.43
890.361	853.1
890.537	871.31
890.712	850
890.887	869.57
891.062	850.78
891.237	888.94
891.412	842.25
891.587	879.26
891.762	861.63
891.937	878.87
892.112	823.46
892.287	839.54
892.462	825.98
892.637	782.58
892.812	750.42
892.987	788.78
893.161	768.43
893.336	784.9
893.511	778.31
893.686	769.02
893.861	769.4
894.035	759.72
894.21	767.85
894.385	747.12
894.56	755.07
894.734	720
894.909	696.17
895.084	698.68
895.258	708.37
895.433	702.95
895.608	682.02
895.782	640.95
895.957	626.8
896.131	657.42
896.306	606.46
896.48	599.49
896.655	605.88
896.829	546.21
897.004	554.54
897.178	565.19
897.353	522.96
897.527	603.36
897.701	616.34
897.876	525.28
898.05	612.85
898.224	587.09
898.399	619.44
898.573	564.22
898.747	457.66
898.921	516.56
899.096	441.97
899.27	424.34
899.444	447.78
899.618	451.27
899.792	518.5
899.967	506.1
900.141	515.21
900.315	462.7
900.489	496.61
900.663	519.66
900.837	505.13
901.011	431.89
901.185	555.89
901.359	490.02
901.533	463.67
901.707	490.02
901.881	472.78
902.055	472.39
902.229	498.16
902.403	533.22
902.576	514.04
902.75	510.75
902.924	597.94
903.098	531.09
903.272	585.15
903.446	606.65
903.619	614.79
903.793	611.11
903.967	606.65
904.14	671.37
904.314	644.44
904.488	583.99
904.661	656.84
904.835	622.54
905.009	658
905.182	692.68
905.356	642.69
905.529	625.64
905.703	589.02
905.876	604.14
906.05	569.46
906.223	575.27
906.397	500.29
906.57	489.83
906.744	498.16
906.917	478.01
907.09	495.06
907.264	509.97
907.437	471.42
907.61	425.69
907.784	455.14
907.957	468.32
908.13	422.21
908.304	505.33
908.477	433.25
908.65	444.1
908.823	422.98
908.996	489.05
909.17	411.36
909.343	436.35
909.516	452.24
909.689	444.1
909.862	433.44
910.035	425.11
910.208	395.47
910.381	397.6
910.554	509.01
910.727	442.55
910.9	380.94
911.073	424.73
911.246	482.66
911.419	486.53
911.592	459.21
911.765	412.91
911.938	416.4
912.11	427.44
912.283	416.98
912.456	467.74
912.629	434.03
912.802	399.35
912.974	379.39
913.147	350.71
913.32	326.5
913.493	345.29
913.665	349.16
913.838	362.15
914.01	370.48
914.183	387.53
914.356	366.99
914.528	418.53
914.701	476.46
914.873	407.29
915.046	352.26
915.218	339.48
915.391	293.56
915.563	307.51
915.736	381.91
915.908	359.43
916.081	368.93
916.253	370.86
916.425	360.98
916.598	399.93
916.77	395.47
916.942	341.61
917.115	291.62
917.287	380.36
917.459	335.02
917.632	267.98
917.804	290.85
917.976	362.15
918.148	359.24
918.32	347.03
918.493	375.51
918.665	404.77
918.837	366.8
919.009	434.03
919.181	412.71
919.353	382.1
919.525	389.46
919.697	396.25
919.869	403.8
920.041	448.36
920.213	502.81
920.385	424.14
920.557	401.48
920.729	432.28
920.901	420.46
921.073	365.63
921.244	392.37
921.416	462.89
921.588	395.47
921.76	400.9
921.932	414.65
922.103	380.75
922.275	370.09
922.447	396.05
922.619	346.26
922.79	388.5
922.962	378.23
923.134	392.56
923.305	364.08
923.477	334.44
923.648	342.38
923.82	338.51
923.991	297.05
924.163	305.77
924.335	351.3
924.506	307.51
924.677	354.59
924.849	317
925.02	342.77
925.192	390.24
925.363	316.42
925.535	345.48
925.706	328.24
925.877	353.62
926.049	323.98
926.22	348.58
926.391	343.93
926.562	353.43
926.734	344.71
926.905	360.79
927.076	285.81
927.247	303.63
927.419	276.7
927.59	276.51
927.761	291.04
927.932	273.6
928.103	294.33
928.274	239.7
928.445	226.52
928.616	240.67
928.787	233.5
928.958	289.3
929.129	263.53
929.3	253.65
929.471	192.81
929.642	166.85
929.813	129.07
929.984	229.82
930.155	126.16
930.326	210.64
930.496	138.56
930.667	123.26
930.838	162.39
931.009	121.9
931.18	125
931.35	109.89
931.521	152.71
931.692	87.02
931.863	56.41
932.033	111.24
932.204	90.71
932.374	108.92
932.545	61.84
932.716	135.46
932.886	128.49
933.057	51.76
933.227	56.03
933.398	141.47
933.568	39.17
933.739	20.57
933.909	54.09
934.08	66.29
934.25	15.53
934.421	25.22
934.591	53.89
934.761	42.46
934.932	-1.52
935.102	26.77
935.272	35.29
935.443	50.99
935.613	37.43
935.783	36.26
935.953	-1.91
936.123	159.68
936.294	15.14
936.464	35.29
936.634	61.26
936.804	15.73
936.974	14.95
937.144	62.42
937.314	45.76
937.484	12.82
937.655	22.12
937.825	50.21
937.995	14.56
938.165	88.77
938.334	61.84
938.504	52.73
938.674	5.65
938.844	62.61
939.014	91.48
939.184	98.84
939.354	129.07
939.524	101.56
939.694	55.44
939.863	67.84
940.033	134.88
940.203	111.05
940.373	90.12
940.542	106.59
940.712	75.98
940.882	102.91
941.051	138.37
941.221	101.17
941.391	153.29
941.56	62.81
941.73	65.52
941.899	186.61
942.069	70.36
942.238	89.54
942.408	58.93
942.577	99.81
942.747	83.54
942.916	50.41
943.086	41.49
943.255	109.89
943.425	95.55
943.594	47.11
943.763	23.09
943.933	21.73
944.102	-2.68
944.271	43.24
944.441	66.68
944.61	43.24
944.779	76.56
944.948	138.95
945.117	42.85
945.287	49.83
945.456	16.5
945.625	45.95
945.794	69.39
945.963	37.04
946.132	74.82
946.301	36.26
946.47	91.48
946.639	15.34
946.808	63.19
946.977	90.9
947.146	94.97
947.315	17.47
947.484	79.66
947.653	50.79
947.822	43.82
947.991	25.41
948.16	120.74
948.329	100.78
948.498	58.35
948.666	75.59
948.835	78.5
949.004	11.08
949.173	40.91
949.341	50.6
949.51	85.67
949.679	95.94
949.847	84.89
950.016	128.68
950.185	102.33
950.353	38.39
950.522	55.83
950.69	89.16
950.859	41.88
951.028	110.66
951.196	65.71
951.365	45.95
951.533	60.29
951.701	91.29
951.87	94.19
952.038	21.93
952.207	68.43
952.375	119.77
952.543	51.96
952.712	58.74
952.88	54.67
953.048	130.42
953.217	53.89
953.385	67.65
953.553	106.21
953.721	32.78
953.89	76.37
954.058	39.75
954.226	33.16
954.394	86.64
954.562	34.71
954.73	50.41
954.898	45.37
955.067	82.57
955.235	41.69
955.403	99.04
955.571	118.61
955.739	82.37
955.907	54.86
956.075	64.55
956.243	44.21
956.41	86.64
956.578	35.1
956.746	39.17
956.914	46.14
957.082	71.72
957.25	98.07
957.418	50.79
957.585	67.84
957.753	94.58
957.921	49.44
958.089	75.21
958.256	76.95
958.424	76.37
958.592	62.81
958.759	43.82
958.927	86.44
959.095	46.92
959.262	60.29
959.43	69.59
959.597	27.74
959.765	86.44
959.932	39.17
960.1	100.97
960.267	71.53
960.435	76.17
960.602	101.56
960.77	51.18
960.937	41.69
961.104	80.82
961.272	5.65
961.439	39.36
961.606	87.22
961.774	104.85
961.941	55.06
962.108	75.21
962.275	69.2
962.443	106.21
962.61	97.1
962.777	134.3
962.944	81.79
963.111	91.87
963.278	98.46
963.446	81.41
963.613	99.62
963.78	81.21
963.947	99.62
964.114	82.18
964.281	163.94
964.448	95.36
964.615	67.65
964.782	68.23
964.949	92.26
965.116	81.21
965.282	146.51
965.449	95.16
965.616	50.02
965.783	93.61
965.95	85.86
966.117	40.14
966.283	85.67
966.45	71.53
966.617	101.75
966.784	137.98
966.95	148.83
967.117	123.06
967.284	55.25
967.45	56.99
967.617	146.7
967.784	92.45
967.95	123.64
968.117	87.41
968.283	131.39
968.45	169.17
968.616	110.27
968.783	140.5
968.949	130.04
969.116	135.27
969.282	82.18
969.449	106.21
969.615	109.11
969.781	38.01
969.948	53.12
970.114	56.8
970.28	149.41
970.447	102.14
970.613	133.72
970.779	109.5
970.945	127.13
971.112	92.84
971.278	92.84
971.444	121.9
971.61	118.02
971.776	70.75
971.942	132.17
972.108	144.18
972.275	107.17
972.441	107.76
972.607	159.87
972.773	62.03
972.939	92.26
973.105	103.88
973.271	69.01
973.437	80.82
973.602	48.28
973.768	95.94
973.934	78.31
974.1	95.36
974.266	25.22
974.432	104.07
974.598	80.24
974.763	105.82
974.929	75.79
975.095	125.58
975.261	76.56
975.426	76.95
975.592	86.06
975.758	166.65
975.923	53.7
976.089	69.59
976.255	94.97
976.42	107.76
976.586	130.42
976.751	105.43
976.917	159.1
977.082	87.22
977.248	47.69
977.413	28.32
977.579	65.52
977.744	109.31
977.91	45.37
978.075	96.13
978.24	106.4
978.406	90.51
978.571	82.37
978.736	76.95
978.902	127.91
979.067	47.5
979.232	34.33
979.397	70.94
979.563	99.42
979.728	58.93
979.893	75.01
980.058	39.94
980.223	131.97
980.388	96.71
980.554	73.27
980.719	70.56
980.884	94
981.049	118.61
981.214	73.85
981.379	102.91
981.544	76.56
981.709	82.37
981.874	67.46
982.039	77.92
982.204	94.97
982.368	84.31
982.533	35.68
982.698	115.31
982.863	129.26
983.028	73.46
983.193	98.26
983.357	61.26
983.522	79.08
983.687	91.09
983.852	58.93
984.016	63.78
984.181	104.07
984.346	97.29
984.51	107.17
984.675	96.32
984.839	114.34
985.004	104.85
985.168	112.79
985.333	105.24
985.498	98.46
985.662	116.28
985.827	94.19
985.991	92.64
986.155	105.24
986.32	112.41
986.484	142.44
986.649	93.03
986.813	48.28
986.977	66.68
987.142	103.88
987.306	45.76
987.47	63
987.634	74.82
987.799	92.64
987.963	88.57
988.127	103.69
988.291	148.25
988.455	75.4
988.62	76.95
988.784	72.11
988.948	107.76
989.112	65.91
989.276	87.02
989.44	87.22
989.604	53.31
989.768	94.19
989.932	148.64
990.096	72.11
990.26	74.04
990.424	58.16
990.588	68.23
990.752	136.24
990.915	109.31
991.079	84.12
991.243	61.06
991.407	91.67
991.571	79.66
991.734	83.34
991.898	115.12
992.062	168.01
992.226	79.27
992.389	44.98
992.553	33.74
992.717	62.81
992.88	77.92
993.044	84.31
993.207	100.78
993.371	107.37
993.535	87.61
993.698	65.91
993.862	80.82
994.025	99.62
994.189	72.3
994.352	72.11
994.515	81.6
994.679	83.92
994.842	67.65
995.006	111.24
995.169	46.53
995.332	65.91
995.496	90.32
995.659	35.49
995.822	47.69
995.985	61.84
996.149	110.47
996.312	72.49
996.475	116.86
996.638	56.99
996.801	98.65
996.964	116.47
997.128	86.83
997.291	45.18
997.454	70.17
997.617	45.56
997.78	106.98
997.943	70.56
998.106	85.67
998.269	67.26
998.432	81.02
998.595	92.26
998.758	13.98
998.92	7.78
999.083	3.33
999.246	70.17
999.409	11.85
999.572	31.03
999.735	48.86
999.897	89.74
1000.06	45.56
1000.223	44.79
1000.386	97.29
1000.548	68.43
1000.711	55.64
1000.874	60.68
1001.036	9.72
1001.199	100.78
1001.361	60.09
1001.524	61.84
1001.687	78.69
1001.849	18.24
1002.012	74.24
1002.174	78.5
1002.337	73.66
1002.499	30.45
1002.661	110.47
1002.824	7.2
1002.986	34.91
1003.149	81.02
1003.311	23.09
1003.473	115.31
1003.636	63.58
1003.798	63.58
1003.96	100.78
1004.123	61.45
1004.285	41.69
1004.447	69.39
1004.609	34.13
1004.771	105.43
1004.933	18.63
1005.096	19.02
1005.258	9.53
1005.42	32.78
1005.582	86.64
1005.744	52.34
1005.906	23.09
1006.068	38.98
1006.23	35.29
1006.392	2.36
1006.554	31.81
1006.716	93.61
1006.878	73.85
1007.04	15.53
1007.202	43.63
1007.363	67.07
1007.525	61.26
1007.687	99.62
1007.849	108.14
1008.011	21.93
1008.172	22.12
1008.334	39.56
1008.496	48.66
1008.658	17.28
1008.819	28.32
1008.981	13.98
1009.143	12.82
1009.304	50.41
1009.466	70.75
1009.627	83.54
1009.789	160.65
1009.95	48.86
1010.112	10.49
1010.273	62.42
1010.435	42.66
1010.596	43.63
1010.758	34.33
1010.919	47.69
1011.081	29.29
1011.242	40.72
1011.403	54.48
1011.565	42.27
1011.726	79.27
1011.887	27.74
1012.049	35.1
1012.21	72.11
1012.371	106.79
1012.532	-9.27
1012.693	31.42
1012.855	43.63
1013.016	31.03
1013.177	66.68
1013.338	26.38
1013.499	91.09
1013.66	37.62
1013.821	52.73
1013.982	40.91
1014.143	41.11
1014.304	27.93
1014.465	59.13
1014.626	66.49
1014.787	19.02
1014.948	84.89
1015.109	-33.68
1015.27	71.72
1015.431	21.54
1015.592	-3.46
1015.752	72.49
1015.913	36.65
1016.074	48.08
1016.235	30.45
1016.395	33.94
1016.556	23.09
1016.717	24.64
1016.877	86.06
1017.038	-0.94
1017.199	54.09
1017.359	22.31
1017.52	44.21
1017.681	12.24
1017.841	15.34
1018.002	14.18
1018.162	23.28
1018.323	33.16
1018.483	60.48
1018.644	4.68
1018.804	-4.81
1018.964	-11.21
1019.125	10.69
1019.285	43.24
1019.446	27.35
1019.606	5.26
1019.766	-0.36
1019.926	41.69
1020.087	46.92
1020.247	-14.89
1020.407	59.71
1020.567	50.21
1020.728	22.31
1020.888	-15.47
1021.048	6.62
1021.208	-7.14
1021.368	5.65
1021.528	60.48
1021.688	53.89
1021.848	68.04
1022.008	34.52
1022.168	4.1
1022.328	26.96
1022.488	42.85
1022.648	12.04
1022.808	21.15
1022.968	39.17
1023.128	13.01
1023.288	30.26
1023.448	37.43
1023.608	39.56
1023.767	32.58
1023.927	10.11
1024.087	26.38
1024.247	-22.64
1024.406	-11.4
1024.566	-4.23
1024.726	-0.55
1024.885	41.88
1025.045	41.3
1025.205	22.89
1025.364	-4.81
1025.524	57.58
1025.683	-13.92
1025.843	53.7
1026.003	29.09
1026.162	86.83
1026.321	57.96
1026.481	51.57
1026.64	3.52
1026.8	29.48
1026.959	49.24
1027.119	48.47
1027.278	15.73
1027.437	15.53
1027.597	35.1
1027.756	20.96
1027.915	42.27
1028.074	45.56
1028.234	-2.87
1028.393	52.34
1028.552	7.39
1028.711	-33.68
1028.87	63.19
1029.03	-14.89
1029.189	24.25
1029.348	-31.55
1029.507	3.13
1029.666	-0.55
1029.825	-11.4
1029.984	-4.81
1030.143	34.71
1030.302	2.74
1030.461	-24.96
1030.62	34.33
1030.779	42.27
1030.938	-14.5
1031.097	-6.17
1031.255	19.02
1031.414	52.93
1031.573	51.38
1031.732	-33.68
1031.891	8.36
1032.049	61.64
1032.208	36.46
1032.367	-16.05
1032.525	-1.13
1032.684	22.12
1032.843	26.77
1033.001	-31.74
1033.16	118.02
1033.319	66.1
1033.477	37.62
1033.636	17.66
1033.794	-20.12
1033.953	40.91
1034.111	61.45
1034.27	29.29
1034.428	40.91
1034.587	-9.66
1034.745	42.08
1034.903	29.29
1035.062	41.11
1035.22	-23.41
1035.378	18.05
1035.537	-6.17
1035.695	14.18
1035.853	-11.4
1036.011	34.33
1036.17	13.01
1036.328	-24.77
1036.486	37.04
1036.644	22.89
1036.802	-55.38
1036.96	-0.94
1037.119	22.31
1037.277	5.46
1037.435	-19.34
1037.593	12.63
1037.751	-7.33
1037.909	28.13
1038.067	28.13
