Data from oakcork_FLMT105791__228__17-32-59-055.txt Node

Date: Mon Mar 20 17:32:59 GMT 2023
User: antho
Spectrometer: FLMT10579
Trigger mode: 0
Integration Time (sec): 1.000000E-1
Scans to average: 10
Electric dark correction enabled: true
Nonlinearity correction enabled: false
Boxcar width: 0
XAxis mode: Wavelengths
Number of Pixels in Spectrum: 3648
>>>>>Begin Spectral Data<<<<<
345.248	-153.33
345.464	-153.33
345.681	-153.33
345.898	-142.29
346.114	-155.27
346.331	-39.02
346.548	37.31
346.764	-3.76
346.981	-23.14
347.197	-9.77
347.414	20.84
347.631	-17.52
347.847	71.02
348.064	-29.34
348.28	19.29
348.497	-35.54
348.713	9.61
348.93	19.49
349.146	7.86
349.363	10.19
349.579	23.75
349.796	-2.79
350.012	-6.47
350.229	2.83
350.445	22.78
350.661	-16.74
350.878	26.27
351.094	11.93
351.311	18.71
351.527	41.38
351.743	14.26
351.96	49.32
352.176	47.39
352.392	35.38
352.609	44.29
352.825	0.5
353.041	10.38
353.257	-7.83
353.474	12.51
353.69	59.4
353.906	46.81
354.122	-9.57
354.339	54.17
354.555	-13.45
354.771	-4.73
354.987	50.29
355.203	73.54
355.42	-13.84
355.636	-2.6
355.852	-2.79
356.068	36.54
356.284	-25.27
356.5	76.26
356.716	15.42
356.932	-4.15
357.148	32.28
357.364	5.73
357.58	28.98
357.796	88.46
358.012	40.02
358.228	18.91
358.444	-33.99
358.66	71.22
358.876	12.32
359.092	-18.49
359.308	7.09
359.524	21.04
359.74	-5.89
359.956	0.11
360.172	15.61
360.388	7.86
360.604	-9.77
360.819	80.52
361.035	34.6
361.251	32.08
361.467	-15.77
361.683	61.34
361.898	26.85
362.114	32.86
362.33	20.65
362.546	49.13
362.762	30.34
362.977	27.43
363.193	-9.77
363.409	52.81
363.624	-21.39
363.84	3.41
364.056	16.78
364.271	32.28
364.487	38.47
364.703	7.28
364.918	-8.99
365.134	15.23
365.35	24.14
365.565	101.25
365.781	44.87
365.996	40.22
366.212	75.67
366.427	44.48
366.643	23.75
366.858	35.38
367.074	1.47
367.289	94.66
367.505	122.17
367.72	-33.21
367.936	24.33
368.151	56.88
368.367	45.64
368.582	32.86
368.798	19.29
369.013	89.62
369.228	22.98
369.444	33.44
369.659	67.54
369.874	46.42
370.09	63.66
370.305	-20.04
370.52	28.4
370.736	73.74
370.951	31.69
371.166	59.59
371.381	84.2
371.597	39.06
371.812	-24.49
372.027	-6.28
372.242	13.87
372.458	85.36
372.673	0.5
372.888	23.75
373.103	31.11
373.318	121.98
373.533	54.17
373.749	53.59
373.964	-3.76
374.179	66.76
374.394	4.18
374.609	52.42
374.824	32.47
375.039	49.13
375.254	8.25
375.469	62.69
375.684	60.17
375.899	58.62
376.114	26.27
376.329	58.04
376.544	59.98
376.759	55.14
376.974	5.73
377.189	26.85
377.404	50.87
377.619	99.31
377.834	-7.83
378.049	-4.54
378.264	15.61
378.478	61.14
378.693	14.45
378.908	57.85
379.123	18.33
379.338	75.48
379.553	35.76
379.767	65.41
379.982	35.96
380.197	71.99
380.412	48.16
380.626	28.21
380.841	152.98
381.056	80.71
381.271	115.2
381.485	2.83
381.7	32.08
381.915	67.15
382.129	44.09
382.344	28.79
382.559	45.84
382.773	78.58
382.988	-48.13
383.202	40.22
383.417	28.21
383.632	111.52
383.846	16
384.061	58.24
384.275	30.53
384.49	65.21
384.704	69.67
384.919	50.87
385.133	41.19
385.348	66.57
385.562	22.78
385.777	97.96
385.991	52.81
386.206	36.92
386.42	34.21
386.634	88.66
386.849	64.44
387.063	66.76
387.277	21.62
387.492	14.64
387.706	8.64
387.92	11.35
388.135	83.62
388.349	74.32
388.563	57.85
388.778	39.64
388.992	51.46
389.206	80.52
389.42	107.06
389.635	79.16
389.849	92.92
390.063	101.44
390.277	67.54
390.491	128.37
390.706	65.21
390.92	101.64
391.134	50.49
391.348	89.62
391.562	30.14
391.776	69.67
391.99	84.01
392.205	93.11
392.419	42.16
392.633	57.85
392.847	89.82
393.061	48.94
393.275	111.52
393.489	60.56
393.703	65.41
393.917	121.4
394.131	23.56
394.345	77.61
394.559	92.92
394.773	53.97
394.986	80.52
395.2	65.21
395.414	117.91
395.628	32.08
395.842	60.76
396.056	79.74
396.27	30.73
396.484	70.64
396.697	74.12
396.911	106.29
397.125	56.49
397.339	65.21
397.553	100.09
397.766	122.95
397.98	113.26
398.194	115.59
398.408	75.67
398.621	93.89
398.835	109.39
399.049	114.04
399.262	173.32
399.476	133.02
399.69	114.04
399.903	182.24
400.117	95.63
400.331	143.29
400.544	65.6
400.758	212.46
400.971	113.65
401.185	141.94
401.398	91.95
401.612	158.79
401.826	153.95
402.039	149.1
402.253	98.73
402.466	161.7
402.68	105.32
402.893	130.12
403.106	127.4
403.32	114.62
403.533	132.44
403.747	145.62
403.96	135.15
404.174	141.35
404.387	116.94
404.6	116.17
404.814	148.91
405.027	134.57
405.24	118.11
405.454	124.11
405.667	176.81
405.88	58.04
406.094	135.54
406.307	165.19
406.52	151.43
406.733	117.91
406.947	100.67
407.16	195.6
407.373	166.54
407.586	106.48
407.799	83.81
408.012	152.98
408.226	136.7
408.439	160.34
408.652	99.89
408.865	132.44
409.078	188.24
409.291	183.59
409.504	105.9
409.717	153.17
409.93	164.6
410.143	164.99
410.357	95.63
410.57	100.28
410.783	122.56
410.996	147.55
411.209	144.45
411.421	190.76
411.634	172.94
411.847	154.14
412.06	158.21
412.273	170.03
412.486	165.19
412.699	219.63
412.912	148.33
413.125	186.89
413.338	171.19
413.55	171.58
413.763	161.12
413.976	182.43
414.189	146.59
414.402	164.8
414.615	206.07
414.827	121.4
415.04	191.92
415.253	189.02
415.466	197.35
415.678	240.17
415.891	176.23
416.104	163.83
416.316	143.49
416.529	139.03
416.742	193.67
416.954	212.46
417.167	188.82
417.38	176.42
417.592	211.49
417.805	124.69
418.017	113.07
418.23	192.12
418.442	151.62
418.655	160.34
418.868	185.72
419.08	202.39
419.293	230.87
419.505	199.09
419.718	179.72
419.93	225.05
420.142	161.89
420.355	213.62
420.567	191.34
420.78	192.31
420.992	198.9
421.205	232.8
421.417	139.03
421.629	160.34
421.842	155.11
422.054	148.52
422.266	205.87
422.479	236.87
422.691	162.47
422.903	213.43
423.115	176.04
423.328	152.59
423.54	184.17
423.752	189.79
423.964	167.32
424.177	210.14
424.389	184.95
424.601	273.1
424.813	226.99
425.025	215.56
425.238	205.29
425.45	182.24
425.662	172.74
425.874	473.05
426.086	193.09
426.298	227.96
426.51	243.46
426.722	184.95
426.934	165.57
427.146	220.79
427.358	171.19
427.57	214.01
427.782	201.03
427.994	196.96
428.206	179.14
428.418	159.37
428.63	213.04
428.842	238.23
429.054	215.17
429.266	211.49
429.478	178.75
429.69	180.49
429.902	146.39
430.114	224.86
430.325	205.49
430.537	181.65
430.749	166.15
430.961	114.81
431.173	171.77
431.384	211.1
431.596	115.01
431.808	199.29
432.02	236.48
432.231	248.69
432.443	273.49
432.655	233.38
432.867	216.14
433.078	233
433.29	289.96
433.502	276.01
433.713	272.72
433.925	247.53
434.136	282.21
434.348	212.07
434.56	179.72
434.771	325.8
434.983	212.85
435.194	233.19
435.406	249.66
435.617	279.3
435.829	308.17
436.04	284.73
436.252	273.68
436.463	325.03
436.675	306.23
436.886	299.45
437.098	303.52
437.309	337.04
437.521	279.69
437.732	274.46
437.943	305.65
438.155	276.01
438.366	253.92
438.578	329.48
438.789	307.98
439	289.57
439.211	282.79
439.423	314.37
439.634	293.64
439.845	318.44
440.057	307.01
440.268	309.33
440.479	258.18
440.69	284.15
440.902	284.92
441.113	303.91
441.324	291.12
441.535	309.33
441.746	338.01
441.957	303.13
442.168	295.19
442.38	344.79
442.591	324.25
442.802	308.17
443.013	306.81
443.224	351.96
443.435	312.05
443.646	308.75
443.857	342.66
444.068	298.87
444.279	320.57
444.49	389.74
444.701	335.88
444.912	417.06
445.123	362.03
445.334	330.45
445.545	328.9
445.756	328.51
445.967	307.98
446.178	343.24
446.388	340.91
446.599	349.44
446.81	386.06
447.021	324.83
447.232	352.73
447.443	400.78
447.653	304.49
447.864	405.43
448.075	348.28
448.286	379.28
448.496	363
448.707	381.6
448.918	370.95
449.129	440.69
449.339	326.38
449.55	367.26
449.761	360.87
449.971	419.19
450.182	360.48
450.393	402.72
450.603	342.46
450.814	392.45
451.024	381.99
451.235	410.28
451.446	468.59
451.656	434.11
451.867	356.61
452.077	399.04
452.288	430.23
452.498	435.85
452.709	392.26
452.919	428.1
453.13	385.28
453.34	430.81
453.55	299.65
453.761	408.53
453.971	403.88
454.182	396.52
454.392	399.81
454.602	467.04
454.813	411.63
455.023	453.29
455.233	356.03
455.444	423.64
455.654	331.03
455.864	388.58
456.075	384.9
456.285	377.53
456.495	380.63
456.705	421.71
456.916	450.96
457.126	459.68
457.336	437.21
457.546	339.17
457.756	382.96
457.967	469.76
458.177	403.49
458.387	388.96
458.597	382.18
458.807	417.25
459.017	414.34
459.227	398.26
459.437	395.94
459.647	439.34
459.857	431.78
460.068	415.7
460.278	471.69
460.488	445.54
460.698	462.2
460.908	442.44
461.117	379.86
461.327	430.04
461.537	435.27
461.747	436.24
461.957	459.49
462.167	536.79
462.377	479.25
462.587	440.11
462.797	477.7
463.007	462.39
463.216	480.8
463.426	511.99
463.636	476.73
463.846	420.93
464.056	420.74
464.265	477.89
464.475	433.33
464.685	457.16
464.895	508.89
465.104	451.54
465.314	502.5
465.524	463.17
465.733	418.61
465.943	522.65
466.153	534.47
466.362	506.18
466.572	486.61
466.782	487.77
466.991	468.01
467.201	535.82
467.41	435.27
467.62	523.23
467.829	443.99
468.039	496.49
468.249	485.06
468.458	499.59
468.668	538.34
468.877	519.94
469.086	517.61
469.296	551.32
469.505	496.69
469.715	576.12
469.924	543.96
470.134	584.26
470.343	557.91
470.552	525.36
470.762	506.76
470.971	482.35
471.18	540.86
471.39	503.08
471.599	494.17
471.808	543.19
472.018	541.06
472.227	577.87
472.436	583.49
472.645	538.92
472.855	553.84
473.064	625.53
473.273	581.16
473.482	592.79
473.691	614.29
473.901	587.94
474.11	571.86
474.319	693.92
474.528	590.85
474.737	665.25
474.946	628.82
475.155	621.85
475.364	674.16
475.573	596.27
475.783	631.54
475.992	633.28
476.201	670.48
476.41	607.51
476.619	586.2
476.828	608.67
477.037	610.22
477.245	618.55
477.454	674.55
477.663	636.38
477.872	638.12
478.081	720.08
478.29	623.4
478.499	753.4
478.708	668.35
478.917	717.75
479.125	689.47
479.334	679.58
479.543	689.27
479.752	686.56
479.961	709.81
480.169	747.01
480.378	699.73
480.587	815.79
480.796	770.45
481.004	725.7
481.213	748.75
481.422	743.71
481.63	748.95
481.839	778.2
482.048	807.46
482.256	764.64
482.465	806.49
482.674	811.14
482.882	808.43
483.091	854.93
483.299	799.13
483.508	825.09
483.716	793.12
483.925	844.66
484.134	777.43
484.342	820.44
484.551	840.39
484.759	837.68
484.967	838.46
485.176	828.96
485.384	848.34
485.593	861.71
485.801	835.74
486.01	810.56
486.218	764.83
486.426	716.4
486.635	693.73
486.843	722.4
487.051	778.78
487.26	775.1
487.468	810.17
487.676	825.28
487.885	807.46
488.093	827.22
488.301	865
488.509	861.13
488.717	895.42
488.926	876.24
489.134	877.98
489.342	880.5
489.55	852.99
489.758	868.49
489.967	909.95
490.175	976.41
490.383	880.89
490.591	976.6
490.799	902.78
491.007	992.29
491.215	960.32
491.423	942.5
491.631	939.21
491.839	923.32
492.047	931.65
492.255	891.16
492.463	866.16
492.671	931.46
492.879	979.31
493.087	933.59
493.295	969.82
493.503	987.26
493.711	1004.5
493.919	1020.39
494.127	1025.23
494.334	1061.07
494.542	972.14
494.75	1004.11
494.958	1015.54
495.166	1081.03
495.374	1008.18
495.581	1006.05
495.789	1038.79
495.997	1083.55
496.205	994.23
496.412	1025.04
496.62	1022.13
496.828	1045.38
497.035	1040.15
497.243	1050.61
497.451	1043.64
497.658	1062.04
497.866	1039.57
498.074	1104.86
498.281	1031.82
498.489	1111.45
498.696	1042.28
498.904	983.38
499.112	1043.64
499.319	1100.21
499.527	1053.71
499.734	1064.75
499.942	1040.54
500.149	1016.9
500.357	1079.87
500.564	1007.6
500.771	1053.71
500.979	999.85
501.186	1003.72
501.394	1072.5
501.601	1038.4
501.808	1061.07
502.016	1035.89
502.223	1038.6
502.43	1034.34
502.638	1038.02
502.845	1053.13
503.052	1098.66
503.26	1051
503.467	1120.55
503.674	1075.6
503.881	1083.16
504.089	1144.77
504.296	1095.17
504.503	1037.24
504.71	1070.18
504.917	1005.08
505.125	1041.5
505.332	1093.82
505.539	1106.02
505.746	1175.96
505.953	1176.93
506.16	1151.36
506.367	1197.28
506.574	1190.5
506.781	1207.55
506.988	1128.69
507.195	1146.32
507.402	1134.31
507.609	1163.95
507.816	1111.83
508.023	1083.35
508.23	1082.77
508.437	1092.65
508.644	1148.65
508.851	1183.52
509.058	1187.4
509.265	1188.17
509.472	1182.75
509.679	1271.29
509.885	1170.54
510.092	1188.95
510.299	1147.29
510.506	1154.85
510.713	1211.61
510.92	1178.68
511.126	1183.33
511.333	1209.68
511.54	1217.04
511.746	1267.41
511.953	1274.39
512.16	1255.01
512.367	1201.54
512.573	1211.03
512.78	1186.23
512.987	1237
513.193	1206.38
513.4	1127.14
513.606	1210.26
513.813	1224.01
514.02	1203.09
514.226	1263.34
514.433	1255.21
514.639	1186.04
514.846	1200.76
515.052	1214.13
515.259	1203.67
515.465	1247.26
515.672	1229.63
515.878	1282.14
516.085	1216.65
516.291	1271.68
516.497	1212
516.704	1207.74
516.91	1151.17
517.117	1135.86
517.323	1066.5
517.529	1111.45
517.736	1114.74
517.942	1121.52
518.148	1107.38
518.354	1186.23
518.561	1184.49
518.767	1161.24
518.973	1218.01
519.179	1209.29
519.386	1192.43
519.592	1197.28
519.798	1211.03
520.004	1318.56
520.21	1285.24
520.417	1313.33
520.623	1350.34
520.829	1301.32
521.035	1318.95
521.241	1301.9
521.447	1343.36
521.653	1445.08
521.859	1339.68
522.065	1357.51
522.271	1494.68
522.477	1401.1
522.683	1424.93
522.889	1394.71
523.095	1361.38
523.301	1351.5
523.507	1338.71
523.713	1373.97
523.919	1329.99
524.125	1415.63
524.331	1417.57
524.537	1451.28
524.742	1456.12
524.948	1464.65
525.154	1498.36
525.36	1567.14
525.566	1441.59
525.772	1508.82
525.977	1422.22
526.183	1512.12
526.389	1508.63
526.595	1450.89
526.8	1440.62
527.006	1378.43
527.212	1339.49
527.417	1332.51
527.623	1301.32
527.829	1417.96
528.034	1430.74
528.24	1433.84
528.446	1432.29
528.651	1489.64
528.857	1517.93
529.062	1569.66
529.268	1524.52
529.473	1542.34
529.679	1514.83
529.884	1629.14
530.09	1567.14
530.295	1580.9
530.501	1596.78
530.706	1569.66
530.912	1542.34
531.117	1539.82
531.323	1586.13
531.528	1619.65
531.733	1607.44
531.939	1574.7
532.144	1619.65
532.35	1580.32
532.555	1660.91
532.76	1615.77
532.966	1614.22
533.171	1570.05
533.376	1563.07
533.581	1543.89
533.787	1580.51
533.992	1618.1
534.197	1655.49
534.402	1625.85
534.607	1623.52
534.813	1704.7
535.018	1601.63
535.223	1656.65
535.428	1658.59
535.633	1683.97
535.838	1694.63
536.043	1704.31
536.249	1783.75
536.454	1680.68
536.659	1690.56
536.864	1661.88
537.069	1657.81
537.274	1708.77
537.479	1675.25
537.684	1685.33
537.889	1637.08
538.094	1746.94
538.299	1710.71
538.504	1733.57
538.708	1732.41
538.913	1725.04
539.118	1723.49
539.323	1716.13
539.528	1682.23
539.733	1691.91
539.938	1757.98
540.142	1745.78
540.347	1679.71
540.552	1658.78
540.757	1671.76
540.962	1689.01
541.166	1618.68
541.371	1645.03
541.576	1657.62
541.781	1584
541.985	1712.45
542.19	1709.54
542.395	1761.86
542.599	1794.41
542.804	1774.84
543.008	1779.68
543.213	1734.54
543.418	1711.48
543.622	1766.89
543.827	1723.11
544.031	1781.04
544.236	1766.7
544.44	1764.57
544.645	1850.98
544.849	1768.64
545.054	1782.78
545.258	1850.59
545.463	1831.61
545.667	1738.41
545.872	1824.63
546.076	1804.48
546.281	1783.75
546.485	1761.86
546.689	1828.12
546.894	1837.03
547.098	1825.6
547.302	1760.5
547.507	1814.94
547.711	1812.42
547.915	1858.92
548.119	1775.42
548.324	1785.69
548.528	1881.4
548.732	1810.49
548.936	1847.49
549.141	1821.72
549.345	1774.26
549.549	1788.59
549.753	1811.46
549.957	1871.32
550.161	1889.15
550.366	1861.06
550.57	1782.78
550.774	1825.79
550.978	1792.86
551.182	1838.58
551.386	1778.71
551.59	1805.45
551.794	1806.61
551.998	1854.86
552.202	1842.46
552.406	1788.21
552.61	1828.89
552.814	1814.56
553.018	1893.99
553.222	1806.22
553.426	1806.61
553.63	1887.02
553.833	1821.72
554.037	1795.18
554.241	1836.84
554.445	1839.16
554.649	1790.72
554.853	1803.32
555.056	1920.92
555.26	1866.67
555.464	1878.49
555.668	1863.38
555.871	1863.96
556.075	1892.25
556.279	1809.32
556.483	1819.4
556.686	1832.57
556.89	1838.39
557.094	1861.06
557.297	1739.38
557.501	1856.79
557.704	1739.19
557.908	1802.74
558.112	1770.77
558.315	1878.1
558.519	1816.69
558.722	1746.94
558.926	1757.59
559.129	1735.31
559.333	1701.6
559.536	1703.34
559.74	1692.88
559.943	1702.57
560.147	1736.48
560.35	1698.69
560.553	1747.33
560.757	1668.66
560.96	1804.87
561.164	1725.82
561.367	1799.44
561.57	1750.04
561.774	1769.41
561.977	1737.25
562.18	1711.29
562.384	1808.16
562.587	1737.83
562.79	1723.3
562.993	1680.48
563.197	1757.79
563.4	1783.56
563.603	1779.29
563.806	1787.43
564.009	1692.88
564.212	1729.89
564.416	1652
564.619	1705.48
564.822	1645.22
565.025	1732.21
565.228	1681.65
565.431	1710.71
565.634	1562.88
565.837	1658.2
566.04	1617.13
566.243	1649.68
566.446	1524.13
566.649	1668.08
566.852	1641.73
567.055	1599.3
567.258	1656.85
567.461	1693.08
567.664	1686.1
567.867	1611.31
568.07	1671.57
568.273	1631.08
568.475	1674.28
568.678	1571.4
568.881	1613.64
569.084	1610.15
569.287	1503.2
569.489	1533.62
569.692	1584.19
569.895	1614.61
570.098	1542.92
570.3	1532.27
570.503	1481.89
570.706	1475.11
570.909	1501.07
571.111	1458.64
571.314	1497.78
571.516	1469.3
571.719	1479.76
571.922	1450.89
572.124	1504.17
572.327	1527.62
572.529	1446.24
572.732	1454.57
572.935	1503.2
573.137	1557.45
573.34	1481.31
573.542	1523.74
573.745	1462.71
573.947	1519.48
574.15	1491.39
574.352	1473.75
574.554	1525.1
574.757	1449.15
574.959	1442.75
575.162	1446.82
575.364	1446.63
575.566	1546.8
575.769	1417.96
575.971	1444.5
576.173	1330.38
576.376	1427.84
576.578	1456.51
576.78	1482.67
576.982	1351.89
577.185	1405.75
577.387	1357.7
577.589	1375.14
577.791	1443.72
577.993	1454.96
578.196	1454.38
578.398	1400.91
578.6	1447.02
578.802	1348.21
579.004	1343.56
579.206	1391.02
579.408	1393.35
579.61	1383.66
579.812	1467.94
580.014	1380.76
580.216	1401.29
580.418	1400.91
580.62	1388.12
580.822	1366.03
581.024	1421.25
581.226	1417.76
581.428	1401.87
581.63	1475.89
581.832	1419.51
582.034	1470.85
582.236	1413.5
582.438	1446.44
582.64	1463.68
582.841	1481.12
583.043	1543.5
583.245	1449.92
583.447	1440.62
583.649	1416.79
583.85	1444.69
584.052	1459.8
584.254	1385.41
584.456	1450.12
584.657	1387.34
584.859	1399.94
585.061	1423.96
585.262	1373.97
585.464	1388.51
585.666	1442.37
585.867	1376.88
586.069	1436.75
586.27	1414.47
586.472	1419.31
586.674	1418.54
586.875	1376.88
587.077	1344.33
587.278	1400.52
587.48	1372.62
587.681	1479.95
587.883	1416.41
588.084	1334.06
588.285	1348.98
588.487	1350.14
588.688	1338.33
588.89	1282.91
589.091	1265.86
589.292	1252.5
589.494	1206.77
589.695	1202.9
589.896	1172.67
590.098	1180.03
590.299	1217.23
590.5	1200.96
590.702	1200.38
590.903	1265.67
591.104	1301.9
591.305	1275.94
591.507	1285.04
591.708	1255.98
591.909	1264.7
592.11	1303.45
592.311	1289.11
592.512	1282.72
592.714	1221.3
592.915	1261.21
593.116	1266.64
593.317	1279.23
593.518	1292.41
593.719	1290.47
593.92	1302.87
594.121	1338.91
594.322	1278.26
594.523	1276.71
594.724	1248.43
594.925	1256.56
595.126	1219.56
595.327	1297.25
595.528	1261.02
595.729	1284.08
595.929	1261.6
596.13	1258.31
596.331	1296.09
596.532	1285.04
596.733	1352.86
596.934	1348.59
597.135	1323.6
597.335	1335.61
597.536	1269.54
597.737	1282.33
597.938	1282.72
598.138	1291.24
598.339	1291.83
598.54	1291.05
598.74	1302.87
598.941	1255.6
599.142	1355.57
599.342	1307.33
599.543	1287.76
599.744	1274.39
599.944	1306.36
600.145	1278.07
600.345	1306.55
600.546	1344.53
600.746	1325.93
600.947	1364.48
601.147	1305.39
601.348	1334.64
601.548	1265.28
601.749	1295.12
601.949	1246.1
602.15	1259.47
602.35	1238.93
602.551	1282.14
602.751	1248.62
602.951	1250.17
603.152	1232.54
603.352	1289.69
603.552	1275.36
603.753	1328.83
603.953	1315.85
604.153	1309.46
604.354	1256.37
604.554	1278.26
604.754	1322.83
604.954	1292.41
605.155	1293.96
605.355	1275.36
605.555	1298.03
605.755	1306.74
605.955	1289.89
606.155	1285.04
606.356	1252.88
606.556	1315.85
606.756	1309.65
606.956	1248.81
607.156	1334.45
607.356	1243.78
607.556	1282.53
607.756	1290.66
607.956	1291.83
608.156	1283.49
608.356	1235.06
608.556	1268.96
608.756	1268.58
608.956	1234.09
609.156	1286.98
609.356	1232.54
609.556	1240.1
609.755	1250.17
609.955	1230.41
610.155	1230.6
610.355	1273.42
610.555	1216.46
610.755	1195.73
610.954	1170.93
611.154	1256.76
611.354	1269.16
611.554	1212.39
611.753	1217.43
611.953	1187.59
612.153	1244.55
612.352	1230.6
612.552	1147.87
612.752	1146.32
612.951	1200.38
613.151	1200.96
613.351	1192.82
613.55	1199.41
613.75	1207.74
613.949	1174.61
614.149	1177.13
614.348	1196.31
614.548	1138.18
614.747	1122.1
614.947	1125.59
615.146	1111.25
615.346	1202.12
615.545	1187.59
615.745	1188.56
615.944	1173.25
616.144	1171.51
616.343	1185.46
616.542	1149.23
616.742	1144.19
616.941	1168.02
617.14	1086.65
617.34	1145.74
617.539	1185.65
617.738	1131.4
617.938	1201.73
618.137	1149.81
618.336	1076.77
618.535	1162.21
618.734	1178.87
618.934	1186.04
619.133	1171.32
619.332	1180.81
619.531	1140.12
619.73	1134.7
619.929	1174.41
620.128	1202.12
620.328	1209.87
620.527	1136.25
620.726	1172.48
620.925	1136.44
621.124	1142.06
621.323	1158.53
621.522	1081.22
621.721	1112.42
621.92	1099.43
622.119	1144.77
622.318	1152.91
622.517	1115.71
622.715	1134.12
622.914	1053.13
623.113	1107.38
623.312	1065.53
623.511	1103.7
623.71	1102.73
623.909	1100.98
624.107	1156.01
624.306	1089.75
624.505	1082.58
624.704	1077.93
624.902	1042.47
625.101	1134.31
625.3	1094.4
625.499	1079.87
625.697	1075.99
625.896	1034.72
626.095	1076.96
626.293	1023.87
626.492	1070.95
626.69	1062.24
626.889	1076.77
627.088	1070.76
627.286	1063.4
627.485	1044.8
627.683	1036.85
627.882	1070.37
628.08	965.56
628.279	998.3
628.477	1056.23
628.676	964.97
628.874	1026.2
629.073	974.66
629.271	976.41
629.469	1051.77
629.668	998.3
629.866	980.09
630.065	994.81
630.263	982.22
630.461	979.7
630.66	1026.97
630.858	1049.84
631.056	1057.39
631.254	1060.3
631.453	951.41
631.651	1044.6
631.849	1022.32
632.047	1054.87
632.245	1013.6
632.444	1034.72
632.642	1042.86
632.84	1045.19
633.038	1016.12
633.236	998.1
633.434	992.1
633.632	997.91
633.83	1018.25
634.028	1031.04
634.227	994.42
634.425	1088
634.623	1042.47
634.821	1046.54
635.019	1064.75
635.216	1013.8
635.414	1063.4
635.612	1048.87
635.81	1032.98
636.008	1086.07
636.206	1028.33
636.404	1067.47
636.602	980.28
636.8	1029.88
636.997	1056.23
637.195	1051.39
637.393	1065.53
637.591	1084.71
637.789	1063.59
637.986	1026.78
638.184	1022.9
638.382	1111.45
638.58	1071.34
638.777	1101.18
638.975	1023.87
639.173	1065.72
639.37	1064.37
639.568	1036.85
639.765	1046.74
639.963	1024.45
640.161	1072.7
640.358	1051.77
640.556	995.39
640.753	1054.68
640.951	976.02
641.148	1031.82
641.346	1025.23
641.543	1014.19
641.741	1053.52
641.938	987.06
642.136	1018.84
642.333	987.64
642.531	1077.74
642.728	1077.35
642.925	1013.99
643.123	1022.52
643.32	1058.17
643.517	1018.45
643.715	1041.5
643.912	991.71
644.109	1028.33
644.306	1004.69
644.504	1002.56
644.701	1030.27
644.898	1052.35
645.095	1014.19
645.293	1013.02
645.49	1055.84
645.687	1010.5
645.884	1043.64
646.081	926.03
646.278	967.3
646.475	955.87
646.672	981.44
646.87	962.07
647.067	974.86
647.264	967.11
647.461	969.62
647.658	913.44
647.855	941.72
648.052	919.83
648.249	855.31
648.446	951.02
648.642	938.82
648.839	917.89
649.036	933.01
649.233	893.48
649.43	884.96
649.627	869.26
649.824	898.91
650.021	888.25
650.217	893.87
650.414	908.59
650.611	954.51
650.808	909.18
651.004	956.64
651.201	958.39
651.398	991.52
651.595	917.12
651.791	902.59
651.988	933.97
652.185	908.79
652.381	928.55
652.578	890.38
652.775	947.34
652.971	924.09
653.168	905.3
653.364	972.34
653.561	885.73
653.757	933.78
653.954	935.14
654.15	870.62
654.347	951.02
654.543	909.95
654.74	872.94
654.936	874.49
655.133	892.9
655.329	875.27
655.525	875.66
655.722	905.3
655.918	852.02
656.115	869.46
656.311	798.35
656.507	794.86
656.704	739.65
656.9	775.1
657.096	772.39
657.292	774.71
657.489	841.36
657.685	839.81
657.881	816.76
658.077	832.45
658.273	831.87
658.47	899.29
658.666	853.76
658.862	899.29
659.058	831.87
659.254	906.85
659.45	844.27
659.646	885.34
659.842	849.69
660.038	905.88
660.234	849.69
660.43	890.38
660.626	932.23
660.822	930.87
661.018	919.44
661.214	877.59
661.41	831.87
661.606	901.81
661.802	919.06
661.998	862.09
662.194	834.39
662.39	894.26
662.586	921.96
662.781	891.93
662.977	919.44
663.173	903.56
663.369	907.82
663.564	856.28
663.76	906.27
663.956	838.84
664.152	908.01
664.347	826.83
664.543	865.58
664.739	870.62
664.934	793.12
665.13	831.68
665.326	861.71
665.521	843.49
665.717	855.31
665.912	853.76
666.108	797.77
666.304	829.54
666.499	871.39
666.695	778.78
666.89	837.1
667.086	893.29
667.281	857.83
667.477	920.8
667.672	874.49
667.867	872.56
668.063	850.47
668.258	830.32
668.454	862.29
668.649	905.49
668.844	862.09
669.04	865.78
669.235	850.08
669.43	843.69
669.626	773.36
669.821	862.09
670.016	821.41
670.211	837.88
670.407	783.05
670.602	863.45
670.797	837.88
670.992	865.97
671.187	818.11
671.382	862.68
671.578	790.41
671.773	844.66
671.968	787.11
672.163	797.77
672.358	843.69
672.553	796.61
672.748	813.08
672.943	872.56
673.138	802.42
673.333	846.59
673.528	779.56
673.723	832.06
673.918	784.4
674.113	759.02
674.308	867.71
674.503	816.56
674.698	850.08
674.892	817.34
675.087	824.12
675.282	849.69
675.477	802.81
675.672	834.19
675.867	782.27
676.061	753.79
676.256	768.32
676.451	797.77
676.646	787.11
676.84	789.83
677.035	728.22
677.23	744.88
677.424	817.53
677.619	843.3
677.814	859.38
678.008	827.03
678.203	757.66
678.397	781.88
678.592	784.21
678.787	853.96
678.981	814.82
679.176	810.56
679.37	839.04
679.565	767.55
679.759	772.78
679.954	803.2
680.148	845.04
680.342	841.75
680.537	790.41
680.731	779.56
680.926	823.73
681.12	818.11
681.314	758.83
681.509	791.57
681.703	794.86
681.897	776.07
682.092	776.65
682.286	747.98
682.48	822.18
682.674	806.68
682.869	797.96
683.063	776.26
683.257	822.96
683.451	779.56
683.645	815.01
683.839	781.11
684.034	772
684.228	797.19
684.422	741.58
684.616	755.15
684.81	784.6
685.004	765.61
685.198	753.79
685.392	775.88
685.586	746.43
685.78	761.73
685.974	808.23
686.168	783.24
686.362	781.3
686.556	693.53
686.75	676.87
686.944	644.52
687.138	674.93
687.331	577.09
687.525	587.75
687.719	520.91
687.913	596.27
688.107	566.44
688.301	555.39
688.494	606.35
688.688	562.95
688.882	572.44
689.076	543.38
689.269	585.81
689.463	665.05
689.657	549.58
689.85	577.87
690.044	611.19
690.238	624.37
690.431	602.47
690.625	609.25
690.818	636.96
691.012	646.84
691.205	664.86
691.399	605.96
691.593	663.5
691.786	707.68
691.98	708.45
692.173	747.59
692.366	721.05
692.56	729.18
692.753	763.28
692.947	683.07
693.14	781.5
693.333	766.58
693.527	700.51
693.72	741.2
693.914	721.82
694.107	701.48
694.3	725.31
694.493	746.62
694.687	744.49
694.88	700.51
695.073	789.83
695.266	766.58
695.46	787.11
695.653	807.46
695.846	766
696.039	727.05
696.232	758.83
696.425	805.91
696.618	821.21
696.812	801.45
697.005	862.68
697.198	944.24
697.391	868.68
697.584	866.16
697.777	955.09
697.97	910.92
698.163	897.16
698.356	910.34
698.549	976.02
698.742	950.06
698.935	935.72
699.127	895.42
699.32	882.44
699.513	904.33
699.706	930.1
699.899	964.59
700.092	934.75
700.285	951.61
700.477	898.33
700.67	965.17
700.863	962.07
701.056	1050.8
701.248	1007.99
701.441	1057.2
701.634	975.82
701.826	1096.92
702.019	976.41
702.212	1062.43
702.404	1017.87
702.597	985.9
702.79	1011.28
702.982	1050.61
703.175	1114.16
703.367	1111.64
703.56	1095.17
703.752	1191.46
703.945	1140.51
704.137	1167.44
704.33	1168.8
704.522	1175
704.715	1219.75
704.907	1211.81
705.1	1267.03
705.292	1224.21
705.484	1236.61
705.677	1268.77
705.869	1275.74
706.061	1290.47
706.254	1329.61
706.446	1254.05
706.638	1277.1
706.831	1368.74
707.023	1317.01
707.215	1403.62
707.407	1404.97
707.599	1360.41
707.792	1454.57
707.984	1411.37
708.176	1474.92
708.368	1432.68
708.56	1448.18
708.752	1427.45
708.944	1449.15
709.136	1523.16
709.329	1497
709.521	1568.69
709.713	1552.22
709.905	1576.44
710.097	1599.88
710.289	1552.22
710.481	1551.45
710.672	1587.87
710.864	1647.74
711.056	1665.37
711.248	1631.85
711.44	1680.29
711.632	1678.74
711.824	1693.66
712.016	1738.8
712.207	1724.46
712.399	1720.59
712.591	1756.24
712.783	1739.77
712.975	1777.94
713.166	1724.46
713.358	1764.76
713.55	1819.79
713.741	1800.41
713.933	1827.34
714.125	1809.91
714.316	1813.2
714.508	1857.18
714.7	1875.2
714.891	1904.07
715.083	1951.92
715.274	1913.75
715.466	1905.04
715.657	1936.62
715.849	1827.92
716.04	1920.15
716.232	1840.52
716.423	1908.72
716.615	1838.77
716.806	1810.68
716.998	1787.62
717.189	1689.4
717.381	1653.36
717.572	1568.69
717.763	1628.56
717.955	1618.1
718.146	1590.39
718.337	1581.87
718.528	1527.81
718.72	1449.54
718.911	1521.03
719.102	1496.62
719.293	1531.88
719.485	1534.2
719.676	1518.7
719.867	1475.3
720.058	1450.5
720.249	1520.06
720.44	1513.47
720.632	1587.29
720.823	1610.73
721.014	1725.04
721.205	1768.25
721.396	1836.84
721.587	1916.08
721.778	1925.77
721.969	2002.88
722.16	2040.85
722.351	2037.75
722.542	2156.91
722.733	2186.94
722.924	2075.53
723.115	2154.39
723.305	2141.02
723.496	2156.13
723.687	2008.3
723.878	2032.72
724.069	2058.68
724.26	2076.89
724.45	2006.95
724.641	1994.16
724.832	2053.25
725.023	2047.83
725.213	2000.55
725.404	1988.54
725.595	2000.36
725.785	1985.05
725.976	2049.18
726.167	2039.88
726.357	2041.24
726.548	2215.61
726.739	2082.51
726.929	2176.09
727.12	2189.84
727.31	2206.89
727.501	2166.98
727.691	2168.34
727.882	2190.81
728.072	2250.68
728.263	2220.46
728.453	2296.6
728.644	2270.44
728.834	2251.07
729.024	2262.11
729.215	2254.17
729.405	2315
729.596	2336.51
729.786	2359.95
729.976	2381.85
730.167	2404.13
730.357	2340.39
730.547	2383.01
730.737	2425.05
730.928	2455.47
731.118	2503.52
731.308	2437.84
731.498	2460.9
731.688	2546.34
731.879	2546.34
732.069	2642.44
732.259	2675.18
732.449	2712.19
732.639	2764.3
732.829	2772.83
733.019	2815.07
733.209	2854.2
733.399	2898.77
733.589	2969.68
733.779	3013.08
733.969	3019.28
734.159	3088.44
734.349	3114.02
734.539	3171.37
734.729	3127
734.919	3204.5
735.109	3259.52
735.299	3143.66
735.488	3217.67
735.678	3212.64
735.868	3212.05
736.058	3196.75
736.248	3172.14
736.437	3190.35
736.627	3151.8
736.817	3293.43
737.007	3240.15
737.196	3319.39
737.386	3274.63
737.576	3309.12
737.765	3324.62
737.955	3314.93
738.144	3452.88
738.334	3387.2
738.524	3345.35
738.713	3379.84
738.903	3385.26
739.092	3431.38
739.282	3455.79
739.471	3480.39
739.661	3415.68
739.85	3480.78
740.04	3459.66
740.229	3507.13
740.419	3532.12
740.608	3592.38
740.797	3569.13
740.987	3616.79
741.176	3565.84
741.365	3574.36
741.555	3496.86
741.744	3636.94
741.933	3565.84
742.123	3617.57
742.312	3634.62
742.501	3672.01
742.69	3688.67
742.88	3642.17
743.069	3766.75
743.258	3694.29
743.447	3783.8
743.636	3743.31
743.825	3714.25
744.014	3733.23
744.204	3728.58
744.393	3697
744.582	3780.9
744.771	3810.35
744.96	3728.78
745.149	3834.76
745.338	3761.91
745.527	3761.52
745.716	3760.75
745.905	3758.81
746.094	3817.9
746.283	3800.27
746.471	3833.79
746.66	3854.33
746.849	3827.78
747.038	3878.55
747.227	3790.2
747.416	3868.86
747.604	3811.9
747.793	3797.56
747.982	3826.23
748.171	3887.84
748.359	3870.6
748.548	3844.06
748.737	3804.34
748.926	3847.35
749.114	3751.25
749.303	3799.69
749.491	3812.86
749.68	3709.21
749.869	3845.41
750.057	3772.18
750.246	3751.83
750.434	3809.38
750.623	3766.95
750.811	3733.43
751	3825.65
751.188	3775.86
751.377	3808.8
751.565	3765.2
751.754	3749.32
751.942	3706.69
752.131	3813.64
752.319	3691.58
752.507	3731.3
752.696	3779.93
752.884	3817.32
753.072	3742.34
753.261	3795.62
753.449	3812.86
753.637	3723.74
753.825	3794.46
754.014	3754.74
754.202	3772.95
754.39	3827.2
754.578	3749.7
754.766	3735.95
754.955	3679.76
755.143	3783.03
755.331	3686.54
755.519	3747.18
755.707	3719.09
755.895	3750.28
756.083	3737.11
756.271	3678.4
756.459	3655.93
756.647	3730.52
756.835	3682.28
757.023	3652.64
757.211	3635.97
757.399	3656.12
757.587	3670.85
757.775	3590.06
757.963	3638.49
758.151	3599.74
758.339	3559.44
758.526	3565.45
758.714	3617.57
758.902	3456.18
759.09	3319.78
759.278	3119.25
759.465	2872.22
759.653	2503.13
759.841	2260.17
760.028	1981.76
760.216	1706.44
760.404	1577.02
760.591	1333.48
760.779	1114.74
760.967	950.83
761.154	792.93
761.342	843.11
761.529	814.63
761.717	870.23
761.905	889.03
762.092	914.21
762.28	884.76
762.467	867.13
762.655	800.29
762.842	825.67
763.029	802.61
763.217	838.46
763.404	860.54
763.592	864.42
763.779	811.14
763.966	893.09
764.154	931.46
764.341	992.68
764.528	988.42
764.716	1047.7
764.903	1134.5
765.09	1196.5
765.277	1224.4
765.465	1415.82
765.652	1502.82
765.839	1541.95
766.026	1695.01
766.213	1721.17
766.4	1856.6
766.588	2045.7
766.775	2083.09
766.962	2178.22
767.149	2275.87
767.336	2415.75
767.523	2404.32
767.71	2575.01
767.897	2669.95
768.084	2718.97
768.271	2782.52
768.458	2880.75
768.645	2925.11
768.832	2944.88
769.019	2953.01
769.206	2982.85
769.392	3092.13
769.579	3149.09
769.766	3137.27
769.953	3071.39
770.14	3148.12
770.327	3180.28
770.513	3221.94
770.7	3260.3
770.887	3173.5
771.073	3245.57
771.26	3225.42
771.447	3199.65
771.634	3172.92
771.82	3335.47
772.007	3197.52
772.193	3200.62
772.38	3283.35
772.567	3231.24
772.753	3232.01
772.94	3287.81
773.126	3271.34
773.313	3272.7
773.499	3262.62
773.686	3288.2
773.872	3198.1
774.059	3279.87
774.245	3186.48
774.432	3223.1
774.618	3158.19
774.804	3220.19
774.991	3192.68
775.177	3244.02
775.363	3207.21
775.55	3220.19
775.736	3169.04
775.922	3203.34
776.109	3186.09
776.295	3177.96
776.481	3177.18
776.667	3206.05
776.853	3173.89
777.04	3155.87
777.226	3181.83
777.412	3243.25
777.598	3164.97
777.784	3102.39
777.97	3086.89
778.156	3160.52
778.342	3174.08
778.528	3111.69
778.715	3075.85
778.901	3044.08
779.087	3099.68
779.272	3039.62
779.458	3076.82
779.644	3097.16
779.83	3052.02
780.016	3177.76
780.202	3073.53
780.388	3042.53
780.574	2978.78
780.76	3027.22
780.946	3074.88
781.131	3038.26
781.317	3014.04
781.503	2986.73
781.689	2969.87
781.874	3083.21
782.06	3009.78
782.246	2995.45
782.432	2964.25
782.617	2991.76
782.803	3046.98
782.989	2945.07
783.174	2944.1
783.36	2874.16
783.545	2916.01
783.731	2922.6
783.916	2875.52
784.102	2964.83
784.288	2913.49
784.473	2923.37
784.659	2887.72
784.844	2917.56
785.029	2922.21
785.215	2826.89
785.4	2852.27
785.586	2909.03
785.771	2814.49
785.956	2900.51
786.142	2801.7
786.327	2818.94
786.512	2831.34
786.698	2790.46
786.883	2770.12
787.068	2753.26
787.254	2822.82
787.439	2732.92
787.624	2775.93
787.809	2730.4
787.994	2759.85
788.18	2819.72
788.365	2695.14
788.55	2689.71
788.735	2688.74
788.92	2713.74
789.105	2661.62
789.29	2663.56
789.475	2662.97
789.66	2638.37
789.845	2624.81
790.03	2652.13
790.215	2647.67
790.4	2655.61
790.585	2699.01
790.77	2657.36
790.955	2567.85
791.14	2612.21
791.325	2667.62
791.51	2535.68
791.695	2618.8
791.879	2600.2
792.064	2563
792.249	2705.79
792.434	2613.57
792.618	2598.84
792.803	2610.47
792.988	2584.51
793.173	2614.93
793.357	2625.58
793.542	2536.46
793.727	2601.94
793.911	2635.27
794.096	2626.36
794.281	2676.34
794.465	2682.74
794.65	2613.18
794.834	2672.47
795.019	2711.41
795.203	2694.17
795.388	2716.84
795.572	2696.11
795.757	2670.14
795.941	2641.08
796.126	2656
796.31	2602.53
796.494	2616.09
796.679	2585.48
796.863	2585.28
797.048	2661.62
797.232	2668.01
797.416	2668.98
797.601	2632.56
797.785	2703.27
797.969	2703.08
798.153	2608.92
798.338	2675.96
798.522	2678.86
798.706	2699.98
798.89	2700.37
799.074	2784.07
799.258	2732.53
799.443	2660.65
799.627	2693.59
799.811	2729.82
799.995	2669.17
800.179	2662.2
800.363	2644.76
800.547	2672.27
800.731	2698.43
800.915	2618.03
801.099	2652.9
801.283	2608.14
801.467	2688.74
801.651	2645.34
801.835	2684.48
802.019	2663.17
802.202	2654.64
802.386	2552.54
802.57	2625.78
802.754	2637.98
802.938	2609.31
803.121	2587.03
803.305	2683.32
803.489	2612.99
803.673	2669.56
803.856	2653.87
804.04	2635.27
804.224	2646.89
804.407	2611.44
804.591	2549.63
804.775	2611.05
804.958	2595.36
805.142	2702.69
805.326	2627.91
805.509	2661.81
805.693	2650.58
805.876	2691.84
806.06	2646.89
806.243	2672.47
806.427	2710.25
806.61	2738.15
806.794	2636.82
806.977	2702.11
807.16	2660.84
807.344	2670.53
807.527	2676.54
807.71	2655.03
807.894	2635.27
808.077	2642.44
808.26	2630.43
808.444	2620.35
808.627	2652.71
808.81	2598.26
808.993	2560.68
809.177	2547.31
809.36	2567.26
809.543	2545.56
809.726	2480.85
809.909	2458.18
810.092	2461.48
810.276	2504.49
810.459	2452.95
810.642	2480.08
810.825	2431.45
811.008	2396.57
811.191	2355.69
811.374	2370.61
811.557	2369.45
811.74	2402
811.923	2290.4
812.106	2288.46
812.289	2265.79
812.472	2261.14
812.654	2258.82
812.837	2225.69
813.02	2187.71
813.203	2188.1
813.386	2045.89
813.569	2057.51
813.751	1974.78
813.934	2040.27
814.117	1969.55
814.3	1953.28
814.482	1911.24
814.665	1868.03
814.848	1846.14
815.03	1757.4
815.213	1766.51
815.396	1751.78
815.578	1758.37
815.761	1699.66
815.943	1779.29
816.126	1640.57
816.309	1641.15
816.491	1604.73
816.674	1515.99
816.856	1561.72
817.039	1566.75
817.221	1633.79
817.403	1596.4
817.586	1597.17
817.768	1622.55
817.951	1547.38
818.133	1570.43
818.315	1583.8
818.498	1592.13
818.68	1666.92
818.862	1635.73
819.045	1651.42
819.227	1677.38
819.409	1625.26
819.591	1643.09
819.774	1631.08
819.956	1644.45
820.138	1663.82
820.32	1687.07
820.502	1737.25
820.684	1836.06
820.866	1821.53
821.048	1865.32
821.231	1882.37
821.413	1843.42
821.595	1867.84
821.777	1831.22
821.959	1827.15
822.141	1885.85
822.323	1756.43
822.505	1693.08
822.686	1633.6
822.868	1549.12
823.05	1489.45
823.232	1473.17
823.414	1371.65
823.596	1444.69
823.778	1428.42
823.96	1457.09
824.141	1482.28
824.323	1490.42
824.505	1563.65
824.687	1638.83
824.868	1660.72
825.05	1783.75
825.232	1820.95
825.413	1852.34
825.595	1812.42
825.777	1739.77
825.958	1799.06
826.14	1815.91
826.321	1852.14
826.503	1832.77
826.685	1871.13
826.866	1821.92
827.048	1829.09
827.229	1770.77
827.411	1759.53
827.592	1683
827.773	1663.63
827.955	1658.59
828.136	1647.16
828.318	1608.02
828.499	1636.7
828.68	1565.78
828.862	1621.78
829.043	1619.65
829.224	1620.42
829.406	1588.84
829.587	1570.82
829.768	1571.79
829.949	1597.75
830.131	1587.87
830.312	1682.03
830.493	1616.93
830.674	1620.23
830.855	1630.5
831.036	1649.29
831.218	1677.77
831.399	1722.33
831.58	1634.76
831.761	1629.91
831.942	1649.29
832.123	1617.9
832.304	1588.45
832.485	1594.65
832.666	1638.25
832.847	1660.91
833.028	1621.97
833.209	1631.66
833.389	1617.71
833.57	1550.28
833.751	1584.19
833.932	1663.05
834.113	1624.68
834.294	1547.77
834.475	1645.41
834.655	1691.91
834.836	1681.26
835.017	1694.63
835.198	1657.81
835.378	1644.83
835.559	1689.2
835.74	1613.25
835.92	1648.51
836.101	1624.88
836.281	1689.01
836.462	1665.37
836.643	1700.44
836.823	1711.09
837.004	1734.93
837.184	1744.81
837.365	1707.03
837.545	1720.01
837.726	1671.38
837.906	1720.78
838.087	1702.57
838.267	1689.78
838.448	1683
838.628	1701.21
838.808	1714
838.989	1718.46
839.169	1675.83
839.349	1740.54
839.53	1723.49
839.71	1759.92
839.89	1676.03
840.07	1742.87
840.251	1682.61
840.431	1758.95
840.611	1699.08
840.791	1687.85
840.971	1710.9
841.151	1653.94
841.332	1682.61
841.512	1719.43
841.692	1606.28
841.872	1696.56
842.052	1663.82
842.232	1699.28
842.412	1653.94
842.592	1682.61
842.772	1684.94
842.952	1674.86
843.132	1647.74
843.312	1627.59
843.492	1628.17
843.672	1714.97
843.851	1643.48
844.031	1709.93
844.211	1643.09
844.391	1650.65
844.571	1680.48
844.751	1693.46
844.93	1639.41
845.11	1638.83
845.29	1663.63
845.47	1668.86
845.649	1688.62
845.829	1690.17
846.009	1634.56
846.188	1650.26
846.368	1680.48
846.547	1663.63
846.727	1691.33
846.907	1580.51
847.086	1637.47
847.266	1664.21
847.445	1643.86
847.625	1611.7
847.804	1615.77
847.984	1613.45
848.163	1625.26
848.343	1616.35
848.522	1610.35
848.701	1600.66
848.881	1601.82
849.06	1603.18
849.239	1606.47
849.419	1582.06
849.598	1519.09
849.777	1556.29
849.957	1520.25
850.136	1484.41
850.315	1459.22
850.494	1476.66
850.674	1471.24
850.853	1545.25
851.032	1524.52
851.211	1559.2
851.39	1520.64
851.569	1448.95
851.748	1447.99
851.927	1514.05
852.107	1467.36
852.286	1448.18
852.465	1423.19
852.644	1550.09
852.823	1496.23
853.002	1479.95
853.181	1523.16
853.359	1500.3
853.538	1426.29
853.717	1506.69
853.896	1415.63
854.075	1336.97
854.254	1335.42
854.433	1254.43
854.611	1303.45
854.79	1231.38
854.969	1311.78
855.148	1329.03
855.327	1259.47
855.505	1315.85
855.684	1305.78
855.863	1365.84
856.041	1338.91
856.22	1382.69
856.399	1357.51
856.577	1411.76
856.756	1412.34
856.934	1497.39
857.113	1507.47
857.291	1429.97
857.47	1410.98
857.648	1430.36
857.827	1441.98
858.005	1469.49
858.184	1422.02
858.362	1477.82
858.541	1446.24
858.719	1444.3
858.898	1447.99
859.076	1404.59
859.254	1466.78
859.433	1399.36
859.611	1407.3
859.789	1363.32
859.967	1409.43
860.146	1460.97
860.324	1358.67
860.502	1379.79
860.68	1322.24
860.859	1339.88
861.037	1384.05
861.215	1373.78
861.393	1398.77
861.571	1379.4
861.749	1354.6
861.927	1360.41
862.105	1391.61
862.283	1351.69
862.461	1354.99
862.639	1323.41
862.817	1391.02
862.995	1364.87
863.173	1348.79
863.351	1357.89
863.529	1371.26
863.707	1367
863.885	1365.45
864.063	1256.76
864.241	1313.91
864.418	1363.71
864.596	1309.26
864.774	1297.83
864.952	1336
865.129	1349.95
865.307	1261.99
865.485	1243.78
865.663	1332.32
865.84	1212.78
866.018	1231.96
866.196	1098.27
866.373	1143.03
866.551	1093.43
866.728	1066.89
866.906	1108.73
867.084	1146.32
867.261	1175.77
867.439	1192.05
867.616	1234.48
867.794	1177.32
867.971	1187.4
868.149	1222.08
868.326	1270.32
868.503	1249.78
868.681	1217.23
868.858	1214.91
869.035	1215.49
869.213	1235.83
869.39	1224.01
869.567	1274.19
869.745	1194.95
869.922	1249.4
870.099	1248.04
870.276	1246.1
870.454	1221.88
870.631	1227.11
870.808	1207.16
870.985	1250.17
871.162	1272.06
871.339	1210.45
871.517	1162.21
871.694	1145.74
871.871	1217.04
872.048	1194.95
872.225	1166.28
872.402	1204.25
872.579	1165.7
872.756	1176.74
872.933	1126.17
873.11	1195.34
873.287	1178.1
873.463	1166.47
873.64	1137.41
873.817	1171.51
873.994	1163.76
874.171	1131.79
874.348	1162.02
874.524	1080.25
874.701	1144.77
874.878	1104.28
875.055	1149.23
875.231	1147.1
875.408	1153.88
875.585	1073.28
875.762	1127.92
875.938	1080.45
876.115	1116.68
876.291	1109.7
876.468	1083.94
876.645	1080.64
876.821	1090.13
876.998	1075.8
877.174	1087.81
877.351	1087.62
877.527	1067.66
877.704	1122.88
877.88	1089.17
878.057	1068.05
878.233	1111.83
878.409	1046.35
878.586	1092.46
878.762	1086.07
878.938	1070.18
879.115	1015.54
879.291	1072.5
879.467	1012.44
879.644	1053.32
879.82	1045.57
879.996	1017.48
880.172	989.97
880.349	1041.12
880.525	1068.24
880.701	978.15
880.877	1010.89
881.053	1016.12
881.229	1014.57
881.405	1057.39
881.581	1002.56
881.757	1032.59
881.933	1029.49
882.109	1068.44
882.285	1031.24
882.461	973.69
882.637	997.52
882.813	987.06
882.989	1029.69
883.165	1063.59
883.341	996.17
883.517	1041.7
883.693	1000.24
883.869	1045.77
884.044	1002.95
884.22	1032.01
884.396	1070.18
884.572	1033.17
884.747	1075.99
884.923	1052.94
885.099	1057.39
885.275	1043.05
885.45	989.58
885.626	1001.4
885.801	979.51
885.977	990.74
886.153	963.81
886.328	997.33
886.504	987.64
886.679	1018.64
886.855	982.41
887.03	1041.7
887.206	1009.92
887.381	1027.17
887.557	1043.25
887.732	1058.94
887.908	1029.1
888.083	1036.85
888.258	1008.95
888.434	991.52
888.609	998.69
888.784	1043.25
888.96	1010.7
889.135	1019.03
889.31	975.82
889.485	999.07
889.661	977.18
889.836	1016.7
890.011	1026
890.186	988.81
890.361	981.44
890.537	991.32
890.712	1016.12
890.887	1031.62
891.062	990.16
891.237	1063.01
891.412	979.12
891.587	1012.64
891.762	1016.32
891.937	1036.27
892.112	984.93
892.287	1002.37
892.462	950.25
892.637	920.02
892.812	928.94
892.987	944.44
893.161	885.34
893.336	898.13
893.511	914.02
893.686	926.61
893.861	929.71
894.035	907.04
894.21	943.08
894.385	867.33
894.56	892.51
894.734	854.15
894.909	833.81
895.084	837.29
895.258	843.69
895.433	830.71
895.608	809.98
895.782	775.1
895.957	757.28
896.131	791.57
896.306	692.37
896.48	709.62
896.655	715.43
896.829	648.97
897.004	683.65
897.178	666.22
897.353	673.19
897.527	697.22
897.701	684.04
897.876	620.3
898.05	735.96
898.224	684.62
898.399	699.15
898.573	632.5
898.747	553.46
898.921	623.2
899.096	520.32
899.27	527.3
899.444	504.24
899.618	567.99
899.792	598.4
899.967	589.88
900.141	613.13
900.315	574.96
900.489	570.12
900.663	586.2
900.837	575.35
901.011	551.32
901.185	630.95
901.359	591.24
901.533	592.01
901.707	578.25
901.881	590.07
902.055	531.76
902.229	549.58
902.403	628.44
902.576	565.85
902.75	602.86
902.924	654.98
903.098	625.53
903.272	666.02
903.446	727.25
903.619	698.77
903.793	713.3
903.967	698.77
904.14	750.3
904.314	743.52
904.488	745.65
904.661	771.03
904.835	718.14
905.009	764.64
905.182	781.5
905.356	747.78
905.529	710.97
905.703	698.57
905.876	740.61
906.05	666.41
906.223	655.95
906.397	609.06
906.57	579.8
906.744	561.2
906.917	596.27
907.09	588.14
907.264	567.4
907.437	538.92
907.61	521.49
907.784	558.88
907.957	554.42
908.13	489.32
908.304	598.99
908.477	510.83
908.65	518.19
908.823	475.37
908.996	573.02
909.17	509.28
909.343	524.78
909.516	515.67
909.689	478.28
909.862	491.65
910.035	500.17
910.208	479.44
910.381	471.69
910.554	549.97
910.727	509.47
910.9	496.11
911.073	483.9
911.246	522.65
911.419	562.95
911.592	555.2
911.765	458.71
911.938	505.6
912.11	513.54
912.283	523.23
912.456	567.02
912.629	505.99
912.802	469.76
912.974	443.99
913.147	385.67
913.32	364.16
913.493	397.49
913.665	441.86
913.838	439.73
914.01	426.94
914.183	424.03
914.356	426.74
914.528	479.06
914.701	543.19
914.873	471.69
915.046	433.53
915.218	408.92
915.391	354.09
915.563	384.31
915.736	428.1
915.908	462.39
916.081	440.69
916.253	408.53
916.425	434.49
916.598	472.28
916.77	444.18
916.942	405.43
917.115	350.41
917.287	454.06
917.459	381.21
917.632	371.53
917.804	340.91
917.976	394.39
918.148	406.21
918.32	413.57
918.493	429.46
918.665	464.91
918.837	456.58
919.009	496.11
919.181	491.46
919.353	477.31
919.525	484.87
919.697	448.06
919.869	468.59
920.041	506.18
920.213	565.27
920.385	520.91
920.557	473.44
920.729	473.05
920.901	507.34
921.073	480.22
921.244	457.36
921.416	519.74
921.588	490.87
921.76	461.43
921.932	492.23
922.103	465.88
922.275	446.51
922.447	476.73
922.619	407.18
922.79	467.63
922.962	431.01
923.134	455.81
923.305	412.99
923.477	404.46
923.648	393.42
923.82	444.38
923.991	366.68
924.163	347.5
924.335	396.52
924.506	379.66
924.677	437.79
924.849	356.22
925.02	425.58
925.192	444.76
925.363	420.93
925.535	398.84
925.706	362.61
925.877	445.73
926.049	367.07
926.22	386.64
926.391	396.91
926.562	415.89
926.734	387.03
926.905	442.63
927.076	332
927.247	363.58
927.419	329.29
927.59	338.98
927.761	348.08
927.932	329.87
928.103	357
928.274	294.61
928.445	276.98
928.616	268.84
928.787	280.66
928.958	280.47
929.129	288.22
929.3	277.37
929.471	241.33
929.642	209.94
929.813	158.02
929.984	251.79
930.155	143.68
930.326	232.03
930.496	181.65
930.667	127.4
930.838	179.91
931.009	147.75
931.18	139.61
931.35	160.73
931.521	156.08
931.692	102.02
931.863	81.1
932.033	130.5
932.204	105.51
932.374	112.87
932.545	77.42
932.716	131.67
932.886	98.73
933.057	61.72
933.227	67.34
933.398	128.57
933.568	58.04
933.739	-5.12
933.909	43.71
934.08	75.87
934.25	34.02
934.421	26.66
934.591	68.7
934.761	39.25
934.932	21.81
935.102	39.64
935.272	50.1
935.443	54.17
935.613	49.71
935.783	44.09
935.953	6.51
936.123	185.14
936.294	-0.86
936.464	12.13
936.634	40.02
936.804	19.88
936.974	13.87
937.144	42.93
937.314	38.09
937.484	20.46
937.655	0.69
937.825	96.02
937.995	28.21
938.165	85.56
938.334	28.79
938.504	68.31
938.674	52.42
938.844	59.21
939.014	119.66
939.184	88.07
939.354	159.18
939.524	126.05
939.694	97.57
939.863	93.89
940.033	155.3
940.203	146.97
940.373	98.92
940.542	107.06
940.712	62.89
940.882	109
941.051	109.58
941.221	105.71
941.391	149.88
941.56	76.84
941.73	81.29
941.899	164.99
942.069	88.46
942.238	90.4
942.408	66.37
942.577	100.47
942.747	97.76
942.916	42.54
943.086	73.16
943.255	122.17
943.425	78
943.594	62.11
943.763	17.94
943.933	49.71
944.102	13.87
944.271	67.15
944.441	89.04
944.61	52.62
944.779	56.3
944.948	146.2
945.117	38.47
945.287	28.01
945.456	5.73
945.625	51.84
945.794	58.43
945.963	38.47
946.132	64.82
946.301	63.08
946.47	88.27
946.639	10.96
946.808	27.63
946.977	60.76
947.146	121.01
947.315	35.76
947.484	107.64
947.653	61.53
947.822	40.8
947.991	70.44
948.16	120.24
948.329	92.92
948.498	85.56
948.666	64.44
948.835	91.17
949.004	17.36
949.173	38.86
949.341	67.92
949.51	67.15
949.679	112.49
949.847	73.35
950.016	141.74
950.185	128.76
950.353	72.38
950.522	79.94
950.69	135.93
950.859	42.54
951.028	109.58
951.196	79.36
951.365	59.4
951.533	65.79
951.701	101.06
951.87	95.82
952.038	41.19
952.207	52.23
952.375	105.71
952.543	55.52
952.712	58.43
952.88	52.62
953.048	122.37
953.217	100.47
953.385	69.28
953.553	109.58
953.721	35.38
953.89	85.17
954.058	51.26
954.226	65.21
954.394	68.7
954.562	17.74
954.73	64.44
954.898	50.68
955.067	107.06
955.235	46.42
955.403	123.14
955.571	131.67
955.739	98.54
955.907	35.18
956.075	63.27
956.243	28.21
956.41	86.33
956.578	49.52
956.746	44.29
956.914	43.51
957.082	84.39
957.25	101.06
957.418	53.01
957.585	71.22
957.753	103.19
957.921	69.28
958.089	73.35
958.256	77.61
958.424	82.46
958.592	72.19
958.759	32.66
958.927	62.89
959.095	40.99
959.262	60.56
959.43	68.7
959.597	60.37
959.765	71.41
959.932	41.57
960.1	120.04
960.267	79.94
960.435	91.17
960.602	100.47
960.77	65.79
960.937	43.12
961.104	91.17
961.272	25.88
961.439	60.17
961.606	99.12
961.774	108.22
961.941	73.93
962.108	82.46
962.275	85.56
962.443	120.82
962.61	91.56
962.777	144.65
962.944	105.71
963.111	80.13
963.278	80.91
963.446	102.61
963.613	74.71
963.78	89.43
963.947	102.99
964.114	109.58
964.281	152.4
964.448	121.4
964.615	65.41
964.782	96.79
964.949	115.78
965.116	121.98
965.282	131.47
965.449	84.2
965.616	64.82
965.783	102.61
965.95	89.62
966.117	49.91
966.283	103.96
966.45	90.01
966.617	85.56
966.784	128.76
966.95	126.44
967.117	149.1
967.284	85.94
967.45	86.33
967.617	123.92
967.784	145.23
967.95	164.41
968.117	88.85
968.283	155.69
968.45	207.42
968.616	119.46
968.783	164.22
968.949	112.49
969.116	148.14
969.282	115.97
969.449	104.74
969.615	97.18
969.781	94.27
969.948	112.49
970.114	84.01
970.28	160.73
970.447	129.34
970.613	173.13
970.779	103.77
970.945	137.29
971.112	114.04
971.278	82.07
971.444	87.11
971.61	128.37
971.776	105.9
971.942	109.97
972.108	142.52
972.275	121.59
972.441	143.68
972.607	171.19
972.773	90.21
972.939	129.54
973.105	107.64
973.271	51.65
973.437	81.68
973.602	103.77
973.768	121.98
973.934	120.24
974.1	109.77
974.266	42.54
974.432	113.84
974.598	109.39
974.763	129.15
974.929	88.27
975.095	160.92
975.261	73.16
975.426	38.09
975.592	88.66
975.758	154.34
975.923	50.87
976.089	77.03
976.255	84.39
976.42	127.79
976.586	112.87
976.751	113.84
976.917	185.72
977.082	117.91
977.248	68.89
977.413	35.76
977.579	67.54
977.744	123.34
977.91	77.03
978.075	71.02
978.24	106.48
978.406	70.25
978.571	59.59
978.736	72.38
978.902	125.27
979.067	72.19
979.232	38.47
979.397	106.29
979.563	142.52
979.728	64.63
979.893	93.5
980.058	80.32
980.223	138.45
980.388	94.86
980.554	90.4
980.719	58.43
980.884	85.17
981.049	127.4
981.214	117.33
981.379	101.64
981.544	90.4
981.709	92.92
981.874	70.25
982.039	69.09
982.204	122.56
982.368	101.06
982.533	106.48
982.698	117.91
982.863	120.62
983.028	72.38
983.193	120.24
983.357	107.45
983.522	99.51
983.687	95.44
983.852	71.41
984.016	82.65
984.181	109.19
984.346	112.49
984.51	113.46
984.675	93.89
984.839	115.01
985.004	102.41
985.168	110.55
985.333	109.58
985.498	59.98
985.662	106.87
985.827	104.35
985.991	121.01
986.155	97.76
986.32	135.15
986.484	162.47
986.649	118.49
986.813	59.21
986.977	92.14
987.142	122.37
987.306	44.48
987.47	84.78
987.634	79.94
987.799	95.44
987.963	92.14
988.127	108.22
988.291	157.44
988.455	91.95
988.62	84.97
988.784	108.42
988.948	121.98
989.112	63.66
989.276	74.12
989.44	100.47
989.604	72.19
989.768	72.19
989.932	174.87
990.096	61.92
990.26	45.84
990.424	63.08
990.588	57.46
990.752	149.88
990.915	102.99
991.079	98.34
991.243	52.04
991.407	124.5
991.571	78.58
991.734	77.81
991.898	142.52
992.062	150.85
992.226	103.77
992.389	69.86
992.553	43.51
992.717	54.17
992.88	93.5
993.044	84.2
993.207	58.04
993.371	104.16
993.535	94.86
993.698	81.1
993.862	115.39
994.025	140.77
994.189	80.32
994.352	93.89
994.515	104.93
994.679	123.72
994.842	84.97
995.006	110.16
995.169	65.02
995.332	79.55
995.496	113.65
995.659	22.98
995.822	78.19
995.985	72.19
996.149	100.67
996.312	72.38
996.475	130.5
996.638	62.69
996.801	120.04
996.964	129.54
997.128	67.92
997.291	53.2
997.454	80.91
997.617	25.3
997.78	105.32
997.943	58.24
998.106	128.76
998.269	63.08
998.432	73.54
998.595	80.71
998.758	20.26
998.92	35.96
999.083	11.54
999.246	66.76
999.409	45.84
999.572	30.92
999.735	67.54
999.897	74.71
1000.06	45.45
1000.223	47.19
1000.386	120.43
1000.548	98.54
1000.711	90.4
1000.874	88.46
1001.036	28.01
1001.199	112.68
1001.361	40.41
1001.524	82.65
1001.687	81.68
1001.849	26.27
1002.012	81.1
1002.174	67.34
1002.337	110.55
1002.499	40.99
1002.661	101.64
1002.824	-2.79
1002.986	46.22
1003.149	54.94
1003.311	47.19
1003.473	93.5
1003.636	43.12
1003.798	77.22
1003.96	90.21
1004.123	67.34
1004.285	59.4
1004.447	78
1004.609	45.26
1004.771	105.9
1004.933	17.74
1005.096	4.57
1005.258	14.64
1005.42	21.81
1005.582	74.32
1005.744	64.63
1005.906	28.79
1006.068	61.34
1006.23	21.43
1006.392	-2.21
1006.554	38.09
1006.716	91.56
1006.878	57.27
1007.04	4.18
1007.202	23.36
1007.363	70.25
1007.525	76.06
1007.687	56.69
1007.849	92.92
1008.011	21.43
1008.172	23.56
1008.334	37.51
1008.496	77.22
1008.658	9.22
1008.819	22.2
1008.981	17.16
1009.143	39.44
1009.304	51.07
1009.466	41.38
1009.627	106.67
1009.789	134.19
1009.95	66.18
1010.112	22.78
1010.273	54.56
1010.435	9.8
1010.596	23.75
1010.758	28.98
1010.919	34.99
1011.081	24.53
1011.242	53.39
1011.403	47
1011.565	41.38
1011.726	45.45
1011.887	2.63
1012.049	28.98
1012.21	52.62
1012.371	96.6
1012.532	-14.81
1012.693	37.89
1012.855	24.91
1013.016	54.36
1013.177	82.65
1013.338	25.69
1013.499	82.84
1013.66	57.07
1013.821	50.1
1013.982	69.47
1014.143	34.6
1014.304	15.81
1014.465	57.66
1014.626	66.18
1014.787	18.52
1014.948	115.01
1015.109	-27.01
1015.27	87.3
1015.431	-11.9
1015.592	10.77
1015.752	88.46
1015.913	25.3
1016.074	56.11
1016.235	32.08
1016.395	39.83
1016.556	31.5
1016.717	35.38
1016.877	77.42
1017.038	10.19
1017.199	30.14
1017.359	70.06
1017.52	55.52
1017.681	31.31
1017.841	15.61
1018.002	50.87
1018.162	5.93
1018.323	91.37
1018.483	22.78
1018.644	10.19
1018.804	-3.76
1018.964	-9.57
1019.125	16
1019.285	22.39
1019.446	15.81
1019.606	7.67
1019.766	-9.96
1019.926	45.84
1020.087	35.38
1020.247	28.79
1020.407	47.19
1020.567	63.47
1020.728	27.63
1020.888	3.41
1021.048	22.78
1021.208	-5.12
1021.368	-2.6
1021.528	49.13
1021.688	54.75
1021.848	32.28
1022.008	36.92
1022.168	16.97
1022.328	45.45
1022.488	45.06
1022.648	20.46
1022.808	34.99
1022.968	57.85
1023.128	19.49
1023.288	30.34
1023.448	26.08
1023.608	66.37
1023.767	73.54
1023.927	10.19
1024.087	21.43
1024.247	-7.44
1024.406	30.14
1024.566	4.18
1024.726	14.84
1024.885	17.94
1025.045	39.44
1025.205	14.84
1025.364	25.88
1025.524	36.54
1025.683	21.81
1025.843	30.14
1026.003	16.19
1026.162	68.51
1026.321	73.54
1026.481	22.78
1026.64	11.74
1026.8	34.41
1026.959	15.42
1027.119	8.44
1027.278	1.66
1027.437	6.51
1027.597	25.88
1027.756	41.77
1027.915	54.75
1028.074	22.98
1028.234	27.63
1028.393	11.35
1028.552	5.73
1028.711	-39.99
1028.87	71.02
1029.03	-23.52
1029.189	22.78
1029.348	-46.19
1029.507	11.35
1029.666	10.96
1029.825	3.41
1029.984	12.71
1030.143	18.71
1030.302	23.17
1030.461	-24.11
1030.62	-9.57
1030.779	46.61
1030.938	-43.48
1031.097	-17.91
1031.255	36.54
1031.414	69.09
1031.573	53.59
1031.732	-30.5
1031.891	-5.89
1032.049	52.42
1032.208	40.41
1032.367	5.34
1032.525	11.35
1032.684	3.41
1032.843	13.68
1033.001	-13.26
1033.16	122.17
1033.319	49.52
1033.477	48.94
1033.636	5.73
1033.794	-30.69
1033.953	44.48
1034.111	27.43
1034.27	-3.37
1034.428	18.52
1034.587	-7.25
1034.745	26.66
1034.903	2.44
1035.062	33.44
1035.22	-33.41
1035.378	28.4
1035.537	8.44
1035.695	22.39
1035.853	3.02
1036.011	23.56
1036.17	40.02
1036.328	-17.32
1036.486	32.28
1036.644	38.09
1036.802	-61.5
1036.96	-17.32
1037.119	16.39
1037.277	-3.96
1037.435	-1.44
1037.593	6.89
1037.751	6.7
1037.909	38.28
1038.067	38.28
