Data from oakcork_FLMT105791__32__17-27-07-066.txt Node

Date: Mon Mar 20 17:27:07 GMT 2023
User: antho
Spectrometer: FLMT10579
Trigger mode: 0
Integration Time (sec): 1.000000E-1
Scans to average: 10
Electric dark correction enabled: true
Nonlinearity correction enabled: false
Boxcar width: 0
XAxis mode: Wavelengths
Number of Pixels in Spectrum: 3648
>>>>>Begin Spectral Data<<<<<
345.248	-137.35
345.464	-137.35
345.681	-137.35
345.898	-173.97
346.114	-146.26
346.331	-34.47
346.548	-3.08
346.764	0.98
346.981	-20.91
347.197	-13.93
347.414	12.61
347.631	-23.62
347.847	73.45
348.064	6.41
348.28	31.02
348.497	-33.11
348.713	4.67
348.93	-12.58
349.146	24.23
349.363	-14.32
349.579	5.63
349.796	-1.73
350.012	-13.35
350.229	34.31
350.445	13.97
350.661	-17.03
350.878	-4.63
351.094	32.37
351.311	23.27
351.527	40.7
351.743	1.18
351.96	33.34
352.176	38.77
352.392	31.4
352.609	42.45
352.825	-1.53
353.041	9.32
353.257	-2.31
353.474	-6.77
353.69	3.31
353.906	-6.57
354.122	-2.31
354.339	51.55
354.555	26.37
354.771	22.3
354.987	81
355.203	62.6
355.42	-17.23
355.636	-0.18
355.852	8.35
356.068	28.69
356.284	-15.87
356.5	88.56
356.716	43.42
356.932	20.55
357.148	41.87
357.364	9.9
357.58	24.43
357.796	60.85
358.012	66.86
358.228	10.67
358.444	-40.09
358.66	44.58
358.876	61.05
359.092	-13.74
359.308	32.95
359.524	27.72
359.74	19.78
359.956	-5.22
360.172	17.45
360.388	49.42
360.604	-9.67
360.819	76.93
361.035	19.97
361.251	46.52
361.467	-13.55
361.683	32.57
361.898	35.47
362.114	56.01
362.33	20.55
362.546	44.19
362.762	21.33
362.977	20.75
363.193	0.21
363.409	65.7
363.624	-14.71
363.84	8.93
364.056	41.48
364.271	43.42
364.487	6.02
364.703	2.92
364.918	-3.28
365.134	16.48
365.35	13.77
365.565	121.88
365.781	15.52
365.996	47.29
366.212	76.16
366.427	24.62
366.643	6.8
366.858	11.83
367.074	-5.41
367.289	81.97
367.505	93.6
367.72	-14.13
367.936	-1.34
368.151	69.96
368.367	61.82
368.582	24.62
368.798	9.12
369.013	81
369.228	33.53
369.444	26.17
369.659	82.36
369.874	36.44
370.09	87.98
370.305	-24.4
370.52	15.71
370.736	73.83
370.951	37.99
371.166	88.95
371.381	73.83
371.597	72.87
371.812	-4.83
372.027	14.35
372.242	12.8
372.458	105.61
372.673	20.55
372.888	15.9
373.103	51.94
373.318	96.89
373.533	60.08
373.749	39.73
373.964	-34.86
374.179	76.74
374.394	-23.04
374.609	97.08
374.824	1.76
375.039	80.81
375.254	19.2
375.469	72.67
375.684	49.62
375.899	69.38
376.114	33.73
376.329	26.75
376.544	73.64
376.759	69.57
376.974	28.3
377.189	1.95
377.404	46.13
377.619	69.38
377.834	-14.13
378.049	-7.35
378.264	6.6
378.478	26.56
378.693	-9.28
378.908	25.98
379.123	25.59
379.338	66.08
379.553	46.71
379.767	43.03
379.982	56.2
380.197	75.58
380.412	37.02
380.626	63.37
380.841	133.12
381.056	56.2
381.271	100.38
381.485	23.07
381.7	9.7
381.915	41.09
382.129	30.43
382.344	47.29
382.559	14.16
382.773	72.87
382.988	-10.45
383.202	33.73
383.417	10.87
383.632	121.69
383.846	54.07
384.061	35.86
384.275	-1.73
384.49	71.32
384.704	72.67
384.919	58.33
385.133	19.58
385.348	57.17
385.562	14.55
385.777	85.46
385.991	41.67
386.206	28.69
386.42	31.4
386.634	70.93
386.849	66.67
387.063	49.62
387.277	7.57
387.492	31.6
387.706	19.78
387.92	-4.05
388.135	77.52
388.349	32.95
388.563	28.5
388.778	48.65
388.992	46.32
389.206	62.6
389.42	97.66
389.635	44.58
389.849	69.96
390.063	92.24
390.277	71.7
390.491	113.16
390.706	72.87
390.92	93.6
391.134	61.82
391.348	78.87
391.562	14.74
391.776	57.75
391.99	40.9
392.205	78.48
392.419	47.68
392.633	31.79
392.847	111.81
393.061	42.64
393.275	89.53
393.489	37.8
393.703	52.13
393.917	85.26
394.131	11.45
394.345	113.75
394.559	77.13
394.773	24.43
394.986	74.8
395.2	81.2
395.414	101.15
395.628	41.67
395.842	39.73
396.056	58.72
396.27	-2.5
396.484	76.93
396.697	78.68
396.911	107.55
397.125	76.35
397.339	103.67
397.553	52.72
397.766	141.84
397.98	106.96
398.194	126.73
398.408	50.58
398.621	103.48
398.835	104.25
399.049	78.68
399.262	107.35
399.476	97.86
399.69	87.78
399.903	158.7
400.117	87.2
400.331	133.51
400.544	81
400.758	182.72
400.971	99.6
401.185	127.89
401.398	85.46
401.612	138.74
401.826	101.35
402.039	121.88
402.253	63.37
402.466	139.51
402.68	73.06
402.893	127.11
403.106	110.26
403.32	118.59
403.533	123.24
403.747	121.88
403.96	109.68
404.174	126.53
404.387	59.11
404.6	111.81
404.814	119.56
405.027	84.1
405.24	90.11
405.454	94.37
405.667	115.3
405.88	52.33
406.094	120.53
406.307	140.68
406.52	126.92
406.733	104.64
406.947	78.1
407.16	176.13
407.373	149.59
407.586	86.62
407.799	82.75
408.012	150.56
408.226	96.89
408.439	145.33
408.652	88.75
408.865	132.73
409.078	150.75
409.291	115.3
409.504	87.98
409.717	142.81
409.93	109.29
410.143	124.01
410.357	79.65
410.57	81.2
410.783	88.56
410.996	137.77
411.209	117.23
411.421	190.66
411.634	115.3
411.847	94.18
412.06	120.53
412.273	136.8
412.486	132.93
412.699	211.39
412.912	137.77
413.125	153.27
413.338	126.53
413.55	143.2
413.763	145.33
413.976	142.03
414.189	114.52
414.402	123.43
414.615	188.14
414.827	124.4
415.04	160.83
415.253	161.41
415.466	169.16
415.678	249.56
415.891	130.99
416.104	141.26
416.316	118.98
416.529	113.75
416.742	153.85
416.954	171.87
417.167	141.45
417.38	112.97
417.592	178.07
417.805	90.5
418.017	94.18
418.23	194.93
418.442	137
418.655	123.63
418.868	159.28
419.08	161.02
419.293	170.9
419.505	149.01
419.718	157.92
419.93	192.6
420.142	150.56
420.355	201.13
420.567	185.43
420.78	189.89
420.992	151.14
421.205	193.18
421.417	119.95
421.629	166.45
421.842	122.27
422.054	88.95
422.266	175.94
422.479	176.52
422.691	146.68
422.903	158.7
423.115	144.16
423.328	130.6
423.54	173.61
423.752	153.46
423.964	128.66
424.177	164.9
424.389	137.96
424.601	276.69
424.813	167.41
425.025	185.04
425.238	184.66
425.45	165.67
425.662	143.39
425.874	472.37
426.086	153.66
426.298	196.67
426.51	146.1
426.722	171.68
426.934	151.33
427.146	170.9
427.358	109.68
427.57	162.96
427.782	153.27
427.994	163.73
428.206	154.82
428.418	124.79
428.63	199.19
428.842	174.58
429.054	184.46
429.266	189.11
429.478	143.97
429.69	132.73
429.902	126.92
430.114	183.11
430.325	161.8
430.537	112.58
430.749	144.55
430.961	95.53
431.173	145.33
431.384	143.58
431.596	92.24
431.808	165.48
432.02	176.71
432.231	206.94
432.443	238.91
432.655	200.16
432.867	153.85
433.078	196.67
433.29	247.43
433.502	229.8
433.713	215.46
433.925	197.25
434.136	249.95
434.348	151.72
434.56	145.13
434.771	280.56
434.983	133.7
435.194	201.13
435.406	195.51
435.617	232.51
435.829	264.48
436.04	250.53
436.252	221.86
436.463	261.57
436.675	257.12
436.886	212.75
437.098	218.37
437.309	286.57
437.521	230.96
437.732	247.63
437.943	243.75
438.155	233.68
438.366	176.91
438.578	283.86
438.789	228.25
439	231.93
439.211	189.31
439.423	247.63
439.634	222.63
439.845	258.28
440.057	248.59
440.268	268.55
440.479	216.04
440.69	246.46
440.902	220.31
441.113	238.13
441.324	229.03
441.535	276.11
441.746	319.12
441.957	176.33
442.168	210.04
442.38	270.29
442.591	297.81
442.802	227.09
443.013	228.83
443.224	254.79
443.435	235.61
443.646	263.9
443.857	245.69
444.068	258.86
444.279	204.23
444.49	335.2
444.701	257.89
444.912	356.32
445.123	316.6
445.334	281.53
445.545	275.33
445.756	248.4
445.967	242.59
446.178	288.31
446.388	318.15
446.599	289.47
446.81	301.29
447.021	254.21
447.232	310.98
447.443	312.72
447.653	238.33
447.864	321.64
448.075	308.85
448.286	304.78
448.496	285.02
448.707	311.56
448.918	295.29
449.129	406.11
449.339	280.37
449.55	324.54
449.761	291.02
449.971	328.61
450.182	291.41
450.393	305.75
450.603	279.98
450.814	329.97
451.024	326.67
451.235	328.22
451.446	346.24
451.656	358.84
451.867	271.46
452.077	341.21
452.288	398.75
452.498	372.59
452.709	309.24
452.919	328.03
453.13	283.08
453.34	336.36
453.55	264.48
453.761	309.04
453.971	324.54
454.182	337.33
454.392	370.46
454.602	391.58
454.813	343.92
455.023	357.29
455.233	279.21
455.444	308.27
455.654	257.31
455.864	317.96
456.075	315.44
456.285	316.21
456.495	333.07
456.705	329
456.916	356.12
457.126	380.15
457.336	335.39
457.546	291.99
457.756	322.41
457.967	386.35
458.177	319.7
458.387	312.72
458.597	311.37
458.807	316.99
459.017	326.48
459.227	332.49
459.437	311.56
459.647	372.79
459.857	328.61
460.068	313.11
460.278	385.57
460.488	366.97
460.698	405.92
460.908	346.44
461.117	294.51
461.327	318.54
461.537	367.36
461.747	359.42
461.957	317.57
462.167	457.84
462.377	369.3
462.587	327.64
462.797	387.7
463.007	352.25
463.216	364.07
463.426	420.45
463.636	377.24
463.846	328.42
464.056	346.44
464.265	391.19
464.475	347.6
464.685	365.42
464.895	388.67
465.104	382.09
465.314	409.4
465.524	350.7
465.733	332.49
465.943	412.12
466.153	443.7
466.362	408.63
466.572	404.75
466.782	352.83
466.991	368.72
467.201	420.84
467.41	339.46
467.62	397.59
467.829	372.01
468.039	399.72
468.249	399.72
468.458	390.22
468.668	421.61
468.877	411.54
469.086	451.25
469.296	438.66
469.505	390.42
469.715	446.41
469.924	412.12
470.134	455.71
470.343	461.91
470.552	387.12
470.762	411.92
470.971	384.22
471.18	408.82
471.39	411.73
471.599	372.01
471.808	436.92
472.018	398.94
472.227	465.59
472.436	461.13
472.645	429.55
472.855	409.02
473.064	489.42
473.273	459.39
473.482	484.58
473.691	491.17
473.901	479.35
474.11	462.88
474.319	539.6
474.528	465.98
474.737	495.43
474.946	467.72
475.155	478.77
475.364	526.23
475.573	502.79
475.783	482.83
475.992	500.08
476.201	525.26
476.41	492.33
476.619	456.1
476.828	472.57
477.037	483.03
477.245	470.05
477.454	504.53
477.663	484
477.872	482.06
478.081	554.91
478.29	505.12
478.499	595.79
478.708	537.86
478.917	570.8
479.125	567.5
479.334	511.9
479.543	554.71
479.752	524.3
479.961	535.34
480.169	594.24
480.378	524.88
480.587	668.64
480.796	570.8
481.004	582.61
481.213	576.8
481.422	584.75
481.63	606.44
481.839	620.39
482.048	654.3
482.256	603.15
482.465	587.85
482.674	614.58
482.882	635.7
483.091	657.79
483.299	606.44
483.508	623.69
483.716	644.81
483.925	645.19
484.134	617.49
484.342	608.58
484.551	620.59
484.759	662.63
484.967	681.43
485.176	670.38
485.384	660.11
485.593	698.28
485.801	636.28
486.01	627.76
486.218	591.14
486.426	552.78
486.635	569.05
486.843	581.45
487.051	589.01
487.26	591.53
487.468	608.38
487.676	629.89
487.885	597.15
488.093	638.99
488.301	648.88
488.509	680.46
488.717	698.67
488.926	688.79
489.134	677.16
489.342	704.67
489.55	657.98
489.758	688.01
489.967	667.48
490.175	783.72
490.383	704.87
490.591	754.66
490.799	660.89
491.007	764.74
491.215	732.57
491.423	711.07
491.631	691.5
491.839	723.08
492.047	735.67
492.255	688.79
492.463	659.34
492.671	667.67
492.879	753.31
493.087	696.73
493.295	736.64
493.503	759.12
493.711	775.97
493.919	756.99
494.127	781.01
494.334	760.67
494.542	723.47
494.75	755.05
494.958	760.86
495.166	774.62
495.374	797.87
495.581	773.65
495.789	771.52
495.997	815.11
496.205	761.06
496.412	752.34
496.62	767.84
496.828	776.56
497.035	775.97
497.243	825.96
497.451	782.56
497.658	775.97
497.866	778.88
498.074	852.5
498.281	747.3
498.489	863.16
498.696	807.75
498.904	755.82
499.112	769
499.319	822.28
499.527	753.5
499.734	818.79
499.942	769
500.149	763.77
500.357	828.09
500.564	774.42
500.771	784.89
500.979	791.09
501.186	779.27
501.394	832.35
501.601	782.37
501.808	799.8
502.016	801.55
502.223	778.11
502.43	837.59
502.638	799.61
502.845	741.68
503.052	863.55
503.26	791.09
503.467	900.17
503.674	815.69
503.881	836.42
504.089	906.37
504.296	842.24
504.503	770.55
504.71	802.71
504.917	785.85
505.125	822.67
505.332	844.56
505.539	879.05
505.746	911.6
505.953	884.47
506.16	875.17
506.367	920.7
506.574	904.62
506.781	916.83
506.988	837.97
507.195	879.24
507.402	852.5
507.609	902.1
507.816	847.47
508.023	835.84
508.23	827.51
508.437	853.67
508.644	886.22
508.851	930.58
509.058	907.92
509.265	889.51
509.472	917.8
509.679	1003.82
509.885	874.2
510.092	906.95
510.299	888.73
510.506	912.57
510.713	919.15
510.92	898.03
511.126	952.87
511.333	979.41
511.54	944.92
511.746	987.16
511.953	991.23
512.16	990.65
512.367	916.05
512.573	939.69
512.78	973.21
512.987	915.67
513.193	963.71
513.4	876.53
513.606	897.07
513.813	957.71
514.02	953.25
514.226	1018.16
514.433	970.11
514.639	921.48
514.846	947.83
515.052	942.79
515.259	941.05
515.465	968.36
515.672	968.75
515.878	1042.57
516.085	952.87
516.291	984.45
516.497	905.78
516.704	957.9
516.91	897.65
517.117	870.72
517.323	837.39
517.529	909.85
517.736	935.04
517.942	879.82
518.148	912.18
518.354	914.31
518.561	913.34
518.767	952.28
518.973	936.98
519.179	993.55
519.386	953.83
519.592	934.07
519.798	930.58
520.004	1042.76
520.21	977.66
520.417	1011.76
520.623	1058.65
520.829	1039.47
521.035	1045.86
521.241	1051.68
521.447	1070.28
521.653	1144.09
521.859	1062.91
522.065	1099.53
522.271	1133.82
522.477	1135.96
522.683	1139.64
522.889	1103.02
523.095	1098.76
523.301	1108.44
523.507	1074.34
523.713	1122.59
523.919	1073.76
524.125	1157.27
524.331	1109.22
524.537	1225.47
524.742	1199.51
524.948	1186.33
525.154	1213.26
525.36	1283.59
525.566	1198.54
525.772	1245.81
525.977	1158.43
526.183	1212.29
526.389	1213.26
526.595	1163.08
526.8	1178.58
527.006	1118.52
527.212	1059.23
527.417	1046.44
527.623	1093.91
527.829	1150.29
528.034	1119.1
528.24	1147.19
528.446	1126.27
528.651	1249.3
528.857	1204.54
529.062	1278.94
529.268	1238.84
529.473	1224.11
529.679	1234.38
529.884	1284.56
530.09	1282.43
530.295	1306.65
530.501	1302
530.706	1258.4
530.912	1245.42
531.117	1289.6
531.323	1242.32
531.528	1312.27
531.733	1284.95
531.939	1269.45
532.144	1318.85
532.35	1319.43
532.555	1326.6
532.76	1300.25
532.966	1314.4
533.171	1311.3
533.376	1250.46
533.581	1244.26
533.787	1301.61
533.992	1316.14
534.197	1322.15
534.402	1281.07
534.607	1313.04
534.813	1413.4
535.018	1328.73
535.223	1291.92
535.428	1336.1
535.633	1366.32
535.838	1366.13
536.043	1377.37
536.249	1423.67
536.454	1353.53
536.659	1403.13
536.864	1315.17
537.069	1348.3
537.274	1355.47
537.479	1370.58
537.684	1373.88
537.889	1314.98
538.094	1408.56
538.299	1329.9
538.504	1397.9
538.708	1387.25
538.913	1407.01
539.118	1369.42
539.323	1386.67
539.528	1345.01
539.733	1360.32
539.938	1423.86
540.142	1391.51
540.347	1364.97
540.552	1346.37
540.757	1369.42
540.962	1356.83
541.166	1323.12
541.371	1312.07
541.576	1350.24
541.781	1299.29
541.985	1391.51
542.19	1368.26
542.395	1426.96
542.599	1451.57
542.804	1413.01
543.008	1425.22
543.213	1377.95
543.418	1372.91
543.622	1416.5
543.827	1360.7
544.031	1416.7
544.236	1452.54
544.44	1446.92
544.645	1480.63
544.849	1402.36
545.054	1446.15
545.258	1520.16
545.463	1493.81
545.667	1399.65
545.872	1462.42
546.076	1450.41
546.281	1432.39
546.485	1417.47
546.689	1478.5
546.894	1459.13
547.098	1407.4
547.302	1419.6
547.507	1455.64
547.711	1455.45
547.915	1478.5
548.119	1405.65
548.324	1445.56
548.528	1480.63
548.732	1455.45
548.936	1492.45
549.141	1460.1
549.345	1438.59
549.549	1449.63
549.753	1472.88
549.957	1553.87
550.161	1508.92
550.366	1467.85
550.57	1456.22
550.774	1482.38
550.978	1440.72
551.182	1505.63
551.386	1460.1
551.59	1478.69
551.794	1455.06
551.998	1541.47
552.202	1486.06
552.406	1436.07
552.61	1475.98
552.814	1492.84
553.018	1545.15
553.222	1486.64
553.426	1453.9
553.63	1562.01
553.833	1441.69
554.037	1409.91
554.241	1484.89
554.445	1517.64
554.649	1470.95
554.853	1456.61
555.056	1516.28
555.26	1519.96
555.464	1491.48
555.668	1495.94
555.871	1512.6
556.075	1488.38
556.279	1448.66
556.483	1411.66
556.686	1467.85
556.89	1447.7
557.094	1489.54
557.297	1409.14
557.501	1491.29
557.704	1367.29
557.908	1475.79
558.112	1425.03
558.315	1514.73
558.519	1421.15
558.722	1421.35
558.926	1410.11
559.129	1396.74
559.333	1318.66
559.536	1383.57
559.74	1357.22
559.943	1367.48
560.147	1311.1
560.35	1368.26
560.553	1387.25
560.757	1330.67
560.96	1418.44
561.164	1401.2
561.367	1476.18
561.57	1374.85
561.774	1383.18
561.977	1410.3
562.18	1348.3
562.384	1426
562.587	1365.93
562.79	1335.9
562.993	1356.63
563.197	1379.3
563.4	1406.62
563.603	1410.11
563.806	1455.45
564.009	1338.23
564.212	1381.82
564.416	1307.42
564.619	1368.65
564.822	1323.12
565.025	1391.51
565.228	1344.43
565.431	1342.88
565.634	1253.17
565.837	1329.7
566.04	1297.54
566.243	1276.23
566.446	1232.25
566.649	1308.39
566.852	1264.22
567.055	1270.03
567.258	1357.8
567.461	1373.68
567.664	1341.33
567.867	1237.87
568.07	1303.16
568.273	1308.39
568.475	1323.89
568.678	1308.58
568.881	1266.74
569.084	1289.02
569.287	1197.57
569.489	1187.69
569.692	1268.87
569.895	1283.01
570.098	1220.62
570.3	1222.95
570.503	1161.34
570.706	1193.69
570.909	1181.68
571.111	1158.62
571.314	1154.36
571.516	1184.01
571.719	1193.31
571.922	1192.53
572.124	1171.8
572.327	1192.53
572.529	1154.75
572.732	1121.43
572.935	1155.91
573.137	1203.57
573.34	1126.27
573.542	1195.82
573.745	1189.04
573.947	1181.49
574.15	1178.77
574.352	1137.12
574.554	1243.87
574.757	1116.58
574.959	1113.68
575.162	1158.04
575.364	1113.48
575.566	1227.21
575.769	1122.01
575.971	1122.59
576.173	1053.03
576.376	1113.87
576.578	1158.43
576.78	1198.54
576.982	1067.76
577.185	1111.35
577.387	1094.11
577.589	1093.53
577.791	1129.76
577.993	1148.94
578.196	1114.64
578.398	1078.99
578.6	1147.77
578.802	1071.83
579.004	1055.94
579.206	1061.94
579.408	1102.24
579.61	1059.62
579.812	1134.99
580.014	1055.55
580.216	1072.21
580.418	1124.33
580.62	1058.84
580.822	1051.68
581.024	1045.28
581.226	1103.02
581.428	1082.29
581.63	1140.22
581.832	1084.03
582.034	1136.73
582.236	1102.24
582.438	1135.96
582.64	1153.78
582.841	1130.72
583.043	1206.29
583.245	1135.18
583.447	1139.06
583.649	1087.91
583.85	1111.93
584.052	1147.97
584.254	1068.53
584.456	1124.72
584.657	1061.17
584.859	1074.34
585.061	1104.57
585.262	1083.45
585.464	1036.18
585.666	1114.06
585.867	1058.26
586.069	1141.57
586.27	1078.03
586.472	1087.13
586.674	1050.13
586.875	1047.03
587.077	1047.41
587.278	1085.19
587.48	1058.46
587.681	1165.21
587.883	1081.32
588.084	1001.5
588.285	1049.35
588.487	1024.55
588.688	1022.61
588.89	972.24
589.091	939.69
589.292	965.65
589.494	938.53
589.695	936.01
589.896	866.26
590.098	859.29
590.299	910.24
590.5	885.83
590.702	909.08
590.903	956.16
591.104	1007.11
591.305	952.09
591.507	1022.42
591.708	1006.53
591.909	961.58
592.11	1010.21
592.311	995.88
592.512	955.58
592.714	974.95
592.915	947.63
593.116	942.6
593.317	977.66
593.518	963.33
593.719	963.71
593.92	984.25
594.121	1044.51
594.322	979.8
594.523	998.78
594.724	924
594.925	976.31
595.126	977.08
595.327	977.86
595.528	940.08
595.729	986.96
595.929	969.53
596.13	965.85
596.331	1006.15
596.532	984.06
596.733	1022.81
596.934	1018.16
597.135	997.04
597.335	1000.72
597.536	906.95
597.737	985.41
597.938	963.52
598.138	980.57
598.339	982.7
598.54	981.73
598.74	960.03
598.941	978.63
599.142	1031.14
599.342	984.25
599.543	905.59
599.744	970.69
599.944	970.88
600.145	963.13
600.345	958.87
600.546	1025.91
600.746	1029.78
600.947	1014.28
601.147	968.75
601.348	1007.11
601.548	937.56
601.749	988.9
601.949	935.04
602.15	910.63
602.35	931.17
602.551	984.25
602.751	897.84
602.951	962.55
603.152	883.5
603.352	979.02
603.552	968.56
603.753	973.98
603.953	1008.47
604.153	973.01
604.354	944.53
604.554	930.97
604.754	948.41
604.954	903.65
605.155	969.14
605.355	916.83
605.555	1003.43
605.755	986.77
605.955	959.84
606.155	989.68
606.356	932.33
606.556	961.2
606.756	955.19
606.956	890.09
607.156	1014.48
607.356	928.84
607.556	962.55
607.756	945.31
607.956	999.56
608.156	934.07
608.356	917.22
608.556	986
608.756	913.73
608.956	919.15
609.156	937.56
609.356	922.06
609.556	910.43
609.755	937.17
609.955	910.05
610.155	915.08
610.355	897.45
610.555	882.92
610.755	902.68
610.954	858.12
611.154	935.04
611.354	930.39
611.554	894.16
611.753	901.72
611.953	862.97
612.153	912.76
612.352	954.22
612.552	867.81
612.752	836.42
612.951	860.64
613.151	903.85
613.351	857.93
613.55	881.18
613.75	900.36
613.949	868.97
614.149	908.69
614.348	877.69
614.548	853.28
614.747	799.61
614.947	846.69
615.146	778.11
615.346	887.18
615.545	874.4
615.745	901.13
615.944	888.93
616.144	871.49
616.343	880.02
616.542	863.74
616.742	866.65
616.941	873.23
617.14	824.22
617.34	868.97
617.539	860.25
617.738	821.7
617.938	895.9
618.137	837
618.336	801.94
618.535	843.59
618.734	866.65
618.934	849.99
619.133	841.85
619.332	871.88
619.531	811.43
619.73	824.99
619.929	862.77
620.128	848.05
620.328	912.37
620.527	844.56
620.726	827.9
620.925	838.55
621.124	818.99
621.323	853.86
621.522	780.04
621.721	819.57
621.92	787.6
622.119	818.6
622.318	812.79
622.517	795.93
622.715	805.62
622.914	732.38
623.113	796.9
623.312	780.04
623.511	797.29
623.71	808.91
623.909	789.92
624.107	843.79
624.306	769.77
624.505	777.91
624.704	746.14
624.902	776.56
625.101	871.1
625.3	787.6
625.499	744.01
625.697	777.72
625.896	769.58
626.095	789.54
626.293	724.63
626.492	775.2
626.69	793.41
626.889	730.64
627.088	789.15
627.286	767.06
627.485	782.17
627.683	715.33
627.882	777.52
628.08	694.79
628.279	742.65
628.477	809.88
628.676	704.09
628.874	765.71
629.073	723.08
629.271	727.15
629.469	725.21
629.668	735.87
629.866	741.68
630.065	712.23
630.263	754.27
630.461	710.49
630.66	740.52
630.858	781.4
631.056	781.98
631.254	779.85
631.453	730.44
631.651	755.63
631.849	730.06
632.047	766.67
632.245	731.61
632.444	727.15
632.642	788.37
632.84	754.27
633.038	704.87
633.236	701.96
633.434	714.17
633.632	712.42
633.83	687.24
634.028	763.77
634.227	736.45
634.425	825.19
634.623	736.45
634.821	762.41
635.019	749.82
635.216	716.88
635.414	765.9
635.612	762.41
635.81	736.84
636.008	792.05
636.206	718.24
636.404	731.8
636.602	705.26
636.8	734.12
636.997	751.76
637.195	779.46
637.393	711.65
637.591	802.52
637.789	738.77
637.986	713.2
638.184	760.67
638.382	759.89
638.58	757.57
638.777	806.78
638.975	717.85
639.173	764.54
639.37	770.55
639.568	707
639.765	760.67
639.963	746.14
640.161	801.16
640.358	784.5
640.556	714.94
640.753	706.03
640.951	697.89
641.148	738.58
641.346	706.61
641.543	737.22
641.741	763.38
641.938	707.97
642.136	718.04
642.333	671.54
642.531	754.08
642.728	750.4
642.925	722.89
643.123	685.11
643.32	734.51
643.517	675.42
643.715	727.15
643.912	685.88
644.109	721.53
644.306	702.54
644.504	649.84
644.701	683.36
644.898	742.26
645.095	672.9
645.293	705.06
645.49	727.34
645.687	712.42
645.884	718.62
646.081	667.67
646.278	681.81
646.475	665.93
646.672	653.33
646.87	713.78
647.067	699.64
647.264	694.99
647.461	625.04
647.658	632.79
647.855	701.57
648.052	658.56
648.249	570.6
648.446	648.68
648.642	610.9
648.839	633.57
649.036	654.69
649.233	574.48
649.43	600.44
649.627	584.36
649.824	617.88
650.021	614.97
650.217	623.11
650.414	589.01
650.611	656.43
650.808	647.52
651.004	629.31
651.201	643.84
651.398	675.03
651.595	629.5
651.791	635.51
651.988	619.04
652.185	609.16
652.381	645.78
652.578	595.4
652.775	623.3
652.971	609.93
653.168	626.01
653.364	643.84
653.561	594.43
653.757	624.08
653.954	635.31
654.15	607.61
654.347	667.48
654.543	630.08
654.74	567.89
654.936	601.02
655.133	614.19
655.329	633.18
655.525	603.93
655.722	638.22
655.918	583.78
656.115	608.96
656.311	552.78
656.507	533.79
656.704	515.97
656.9	501.43
657.096	529.14
657.292	522.94
657.489	571.96
657.685	582.42
657.881	549.48
658.077	578.93
658.273	560.33
658.47	635.12
658.666	561.11
658.862	620.59
659.058	570.6
659.254	605.86
659.45	566.92
659.646	610.9
659.842	567.89
660.038	609.93
660.234	563.63
660.43	614.97
660.626	620.2
660.822	626.98
661.018	601.41
661.214	591.53
661.41	555.3
661.606	604.51
661.802	620.39
661.998	603.93
662.194	560.14
662.39	577
662.586	589.01
662.781	644.42
662.977	605.28
663.173	605.48
663.369	580.29
663.564	632.21
663.76	612.45
663.956	587.07
664.152	590.95
664.347	532.43
664.543	580.87
664.739	594.24
664.934	517.13
665.13	531.08
665.326	594.05
665.521	569.63
665.717	544.83
665.912	523.52
666.108	494.27
666.304	565.56
666.499	565.95
666.695	495.23
666.89	577.58
667.086	603.93
667.281	595.21
667.477	606.25
667.672	570.6
667.867	551.23
668.063	573.12
668.258	533.4
668.454	591.91
668.649	648.88
668.844	539.8
669.04	572.54
669.235	543.48
669.43	547.74
669.626	550.84
669.821	536.11
670.016	533.79
670.211	548.32
670.407	540.38
670.602	529.14
670.797	541.15
670.992	593.46
671.187	513.83
671.382	599.47
671.578	516.16
671.773	580.87
671.968	521.58
672.163	526.04
672.358	586.88
672.553	499.11
672.748	521.2
672.943	600.83
673.138	548.9
673.333	568.08
673.528	495.23
673.723	554.71
673.918	547.16
674.113	502.21
674.308	601.02
674.503	553.55
674.698	562.27
674.892	559.17
675.087	589.2
675.282	556.07
675.477	539.21
675.672	567.89
675.867	539.6
676.061	489.42
676.256	495.62
676.451	512.87
676.646	522.94
676.84	497.95
677.035	482.25
677.23	484.77
677.424	552.39
677.619	543.28
677.814	567.11
678.008	575.45
678.203	504.15
678.397	496.01
678.592	533.79
678.787	569.44
678.981	488.65
679.176	551.81
679.37	516.93
679.565	501.43
679.759	507.44
679.954	540.18
680.148	572.54
680.342	541.93
680.537	535.34
680.731	484.38
680.926	559.75
681.12	535.15
681.314	509.57
681.509	511.7
681.703	489.23
681.897	529.53
682.092	496.2
682.286	520.61
682.48	558.78
682.674	559.75
682.869	489.23
683.063	549.29
683.257	588.62
683.451	493.88
683.645	524.49
683.839	488.65
684.034	507.83
684.228	534.37
684.422	461.72
684.616	461.13
684.81	558.59
685.004	500.47
685.198	517.32
685.392	534.95
685.586	496.78
685.78	513.06
685.974	529.14
686.168	540.76
686.362	602.18
686.556	464.23
686.75	452.03
686.944	465.01
687.138	473.53
687.331	383.83
687.525	400.49
687.719	350.7
687.913	418.9
688.107	416.96
688.301	397.59
688.494	444.28
688.688	392.35
688.882	349.34
689.076	382.28
689.269	416.96
689.463	484.38
689.657	406.11
689.85	415.22
690.044	426.26
690.238	425.87
690.431	412.5
690.625	395.26
690.818	446.22
691.012	475.08
691.205	455.32
691.399	425.1
691.593	469.27
691.786	477.22
691.98	515.38
692.173	546.58
692.366	470.24
692.56	497.17
692.753	586.1
692.947	466.37
693.14	561.69
693.333	519.26
693.527	465.98
693.72	536.5
693.914	513.25
694.107	516.74
694.3	513.45
694.493	513.45
694.687	570.02
694.88	509.96
695.073	576.03
695.266	564.4
695.46	532.82
695.653	563.63
695.846	572.35
696.039	493.1
696.232	555.68
696.425	590.75
696.618	599.08
696.812	588.23
697.005	622.72
697.198	728.12
697.391	684.53
697.584	652.75
697.777	702.54
697.97	679.68
698.163	672.51
698.356	670.77
698.549	745.75
698.742	724.44
698.935	651.2
699.127	698.28
699.32	659.73
699.513	674.45
699.706	698.28
699.899	708.36
700.092	685.69
700.285	706.22
700.477	654.3
700.67	736.06
700.863	732.19
701.056	809.49
701.248	773.65
701.441	778.49
701.634	713.59
701.826	866.26
702.019	728.12
702.212	800.39
702.404	756.79
702.597	750.21
702.79	760.86
702.982	791.67
703.175	820.54
703.367	835.65
703.56	842.43
703.752	946.67
703.945	878.47
704.137	919.35
704.33	915.28
704.522	899.2
704.715	894.93
704.907	915.28
705.1	938.92
705.292	940.27
705.484	934.65
705.677	968.17
705.869	980.18
706.061	1018.35
706.254	1035.4
706.446	988.9
706.638	982.12
706.831	1045.86
707.023	1011.76
707.215	1121.04
707.407	1085.19
707.599	1059.81
707.792	1121.43
707.984	1075.51
708.176	1125.11
708.368	1091.01
708.56	1145.84
708.752	1108.44
708.944	1118.33
709.136	1131.89
709.329	1127.82
709.521	1233.8
709.713	1220.62
709.905	1215.78
710.097	1231.47
710.289	1191.56
710.481	1234.38
710.672	1237.09
710.864	1251.43
711.056	1291.54
711.248	1267.9
711.44	1267.7
711.632	1310.33
711.824	1287.27
712.016	1357.8
712.207	1329.9
712.399	1337.07
712.591	1392.09
712.783	1381.24
712.975	1341.52
713.166	1348.3
713.358	1366.71
713.55	1455.45
713.741	1419.8
713.933	1401.58
714.125	1434.52
714.316	1408.95
714.508	1454.67
714.7	1479.08
714.891	1465.71
715.083	1510.66
715.274	1448.66
715.466	1461.84
715.657	1508.92
715.849	1472.3
716.04	1499.62
716.232	1413.4
716.423	1532.75
716.615	1427.35
716.806	1400.23
716.998	1408.36
717.189	1331.64
717.381	1308.58
717.572	1260.34
717.763	1323.7
717.955	1283.59
718.146	1265.19
718.337	1250.46
718.528	1224.11
718.72	1156.3
718.911	1215.97
719.102	1184.39
719.293	1241.74
719.485	1223.14
719.676	1198.54
719.867	1177.81
720.058	1190.01
720.249	1198.73
720.44	1209.19
720.632	1266.74
720.823	1309.55
721.014	1377.17
721.205	1412.82
721.396	1464.75
721.587	1533.53
721.778	1518.22
721.969	1572.66
722.16	1622.26
722.351	1609.09
722.542	1735.22
722.733	1756.72
722.924	1651.52
723.115	1706.54
723.305	1700.92
723.496	1696.66
723.687	1595.52
723.878	1625.75
724.069	1601.92
724.26	1650.94
724.45	1582.74
724.641	1575.18
724.832	1648.81
725.023	1604.63
725.213	1615.29
725.404	1563.56
725.595	1597.85
725.785	1605.21
725.976	1665.08
726.167	1653.65
726.357	1667.79
726.548	1752.46
726.739	1670.7
726.929	1730.95
727.12	1769.12
727.31	1737.93
727.501	1725.92
727.691	1732.31
727.882	1751.68
728.072	1848.75
728.263	1790.82
728.453	1841.78
728.644	1827.44
728.834	1816.98
729.024	1793.92
729.215	1830.35
729.405	1840.03
729.596	1875.88
729.786	1893.9
729.976	1899.9
730.167	1936.71
730.357	1874.33
730.547	1910.95
730.737	1961.32
730.928	2004.52
731.118	2044.44
731.308	1951.05
731.498	2001.23
731.688	2041.72
731.879	2076.99
732.069	2107.4
732.259	2097.14
732.449	2143.25
732.639	2215.13
732.829	2227.72
733.019	2259.3
733.209	2314.33
733.399	2341.45
733.589	2373.61
733.779	2393.38
733.969	2391.63
734.159	2473.59
734.349	2514.47
734.539	2536.36
734.729	2497.61
734.919	2527.45
735.109	2615.22
735.299	2567.75
735.488	2580.15
735.678	2569.3
735.868	2613.67
736.058	2565.62
736.248	2566
736.437	2535.39
736.627	2520.28
736.817	2685.35
737.007	2612.12
737.196	2667.33
737.386	2652.42
737.576	2614.63
737.765	2660.17
737.955	2675.28
738.144	2764.6
738.334	2779.51
738.524	2663.07
738.713	2730.88
738.903	2715.96
739.092	2716.93
739.282	2775.45
739.471	2753.16
739.661	2751.61
739.85	2842.87
740.04	2799.86
740.229	2839.77
740.419	2883.17
740.608	2878.32
740.797	2857.4
740.987	2919.4
741.176	2915.91
741.365	2854.11
741.555	2812.84
741.744	2914.17
741.933	2907.58
742.123	2922.5
742.312	2930.25
742.501	2984.5
742.69	3022.28
742.88	2888.4
743.069	3024.02
743.258	2944.97
743.447	3044.95
743.636	3045.34
743.825	3008.72
744.014	3043.01
744.204	3080.79
744.393	2992.05
744.582	3056.96
744.771	3057.15
744.96	3027.32
745.149	3081.57
745.338	3035.65
745.527	3062.19
745.716	3049.99
745.905	3072.27
746.094	3100.75
746.283	3075.95
746.471	3078.08
746.66	3162.94
746.849	3148.99
747.038	3184.06
747.227	3084.47
747.416	3114.89
747.604	3063.16
747.793	3074.01
747.982	3150.54
748.171	3109.27
748.359	3128.07
748.548	3126.71
748.737	3127.1
748.926	3107.72
749.114	2999.22
749.303	3106.37
749.491	3117.22
749.68	3077.5
749.869	3123.42
750.057	3059.48
750.246	3065.29
750.434	3098.81
750.623	3098.03
750.811	3095.9
751	3105.2
751.188	3005.62
751.377	3066.84
751.565	3091.06
751.754	3006.97
751.942	2999.22
752.131	3098.03
752.319	3041.46
752.507	3013.37
752.696	3104.82
752.884	3094.16
753.072	3061.03
753.261	3054.25
753.449	3067.23
753.637	3009.1
753.825	3124.38
754.014	3046.11
754.202	3080.21
754.39	3116.05
754.578	3117.6
754.766	3070.33
754.955	3035.26
755.143	3109.08
755.331	3026.54
755.519	3045.34
755.707	3057.15
755.895	3042.04
756.083	3006
756.271	2955.05
756.459	3021.7
756.647	3045.14
756.835	2993.99
757.023	3016.27
757.211	3000.39
757.399	2964.15
757.587	2964.54
757.775	2940.71
757.963	2981.79
758.151	2911.07
758.339	2946.33
758.526	2914.56
758.714	2945.56
758.902	2897.89
759.09	2795.98
759.278	2598.55
759.465	2439.29
759.653	2095.2
759.841	1890.99
760.028	1618.97
760.216	1414.95
760.404	1344.04
760.591	1117.36
760.779	939.69
760.967	806.59
761.154	655.27
761.342	688.4
761.529	699.06
761.717	768.22
761.905	727.34
762.092	785.66
762.28	731.61
762.467	748.85
762.655	675.23
762.842	704.09
763.029	718.04
763.217	740.52
763.404	724.44
763.592	752.34
763.779	708.55
763.966	770.74
764.154	771.13
764.341	835.65
764.528	846.89
764.716	932.52
764.903	948.41
765.09	988.13
765.277	1034.43
765.465	1206.48
765.652	1216.17
765.839	1308.39
766.026	1446.34
766.213	1432
766.4	1550.96
766.588	1708.67
766.775	1714.68
766.962	1800.7
767.149	1889.63
767.336	2034.17
767.523	2019.83
767.71	2109.73
767.897	2198.85
768.084	2248.45
768.271	2305.8
768.458	2368.77
768.645	2409.65
768.832	2402.29
769.019	2424.57
769.206	2447.62
769.392	2508.66
769.579	2619.09
769.766	2552.64
769.953	2544.69
770.14	2609.02
770.327	2600.1
770.513	2633.43
770.7	2741.93
770.887	2594.49
771.073	2702.6
771.26	2660.55
771.447	2655.32
771.634	2644.08
771.82	2755.49
772.007	2622.19
772.193	2659
772.38	2658.62
772.567	2662.3
772.753	2638.08
772.94	2689.23
773.126	2743.48
773.313	2710.93
773.499	2682.06
773.686	2696.98
773.872	2642.73
774.059	2666.37
774.245	2623.35
774.432	2680.51
774.618	2575.3
774.804	2601.27
774.991	2627.03
775.177	2673.15
775.363	2622.58
775.55	2612.5
775.736	2577.24
775.922	2626.07
776.109	2594.49
776.295	2619.67
776.481	2608.63
776.667	2652.22
776.853	2572.98
777.04	2584.22
777.226	2594.87
777.412	2663.65
777.598	2589.84
777.784	2548.57
777.97	2537.33
778.156	2596.81
778.342	2578.4
778.528	2574.34
778.715	2507.49
778.901	2541.59
779.087	2575.3
779.272	2523.57
779.458	2515.24
779.644	2533.26
779.83	2522.8
780.016	2565.62
780.202	2520.47
780.388	2473.97
780.574	2435.81
780.76	2454.79
780.946	2528.22
781.131	2520.28
781.317	2495.48
781.503	2440.46
781.689	2464.67
781.874	2580.15
782.06	2460.22
782.246	2499.74
782.432	2445.88
782.617	2482.5
782.803	2516.21
782.989	2409.07
783.174	2470.1
783.36	2376.71
783.545	2417.21
783.731	2425.54
783.916	2339.32
784.102	2419.53
784.288	2375.74
784.473	2404.42
784.659	2369.54
784.844	2434.84
785.029	2376.13
785.215	2353.66
785.4	2263.37
785.586	2413.14
785.771	2294.95
785.956	2339.51
786.142	2346.68
786.327	2316.26
786.512	2296.89
786.698	2330.21
786.883	2244.19
787.068	2281.97
787.254	2289.72
787.439	2271.12
787.624	2283.52
787.809	2266.47
787.994	2224.82
788.18	2298.25
788.365	2209.32
788.55	2213.38
788.735	2246.32
788.92	2222.88
789.105	2209.9
789.29	2259.5
789.475	2164.75
789.66	2178.32
789.845	2175.6
790.03	2169.02
790.215	2188.78
790.4	2209.9
790.585	2226.56
790.77	2146.93
790.955	2112.25
791.14	2167.08
791.325	2203.89
791.51	2057.42
791.695	2145.96
791.879	2127.36
792.064	2078.34
792.249	2176.57
792.434	2110.5
792.618	2128.72
792.803	2170.37
792.988	2118.06
793.173	2145.19
793.357	2164.56
793.542	2087.45
793.727	2145.77
793.911	2179.48
794.096	2131.62
794.281	2179.67
794.465	2223.65
794.65	2143.05
794.834	2190.13
795.019	2206.8
795.203	2250.39
795.388	2189.75
795.572	2196.53
795.757	2155.07
795.941	2219
796.126	2178.12
796.31	2139.76
796.494	2185.68
796.679	2124.26
796.863	2120.39
797.048	2236.44
797.232	2190.33
797.416	2148.67
797.601	2145.96
797.785	2243.42
797.969	2234.12
798.153	2149.84
798.338	2167.08
798.522	2188.58
798.706	2234.5
798.89	2213
799.074	2287.59
799.258	2269.96
799.443	2184.71
799.627	2191.88
799.811	2238.96
799.995	2198.85
800.179	2160.1
800.363	2196.14
800.547	2201.37
800.731	2231.98
800.915	2131.24
801.099	2150.61
801.283	2180.64
801.467	2172.7
801.651	2158.94
801.835	2201.76
802.019	2182.97
802.202	2173.86
802.386	2121.94
802.57	2132.98
802.754	2177.93
802.938	2096.55
803.121	2110.12
803.305	2231.79
803.489	2166.89
803.673	2182.77
803.856	2181.22
804.04	2141.89
804.224	2196.72
804.407	2141.12
804.591	2120.58
804.775	2155.07
804.958	2182.97
805.142	2204.08
805.326	2141.89
805.509	2178.9
805.693	2205.44
805.876	2208.15
806.06	2198.08
806.243	2207.38
806.427	2227.33
806.61	2250.58
806.794	2177.93
806.977	2244.19
807.16	2226.17
807.344	2223.46
807.527	2206.22
807.71	2133.37
807.894	2193.04
808.077	2219.39
808.26	2179.28
808.444	2128.33
808.627	2188.2
808.81	2113.99
808.993	2087.06
809.177	2082.61
809.36	2108.37
809.543	2153.52
809.726	2058.97
809.909	2052.57
810.092	2058.58
810.276	2045.99
810.459	2077.96
810.642	2026.42
810.825	1966.94
811.008	2030.29
811.191	1952.6
811.374	1980.31
811.557	1987.86
811.74	2043.86
811.923	1926.44
812.106	1894.48
812.289	1896.22
812.472	1865.03
812.654	1931.09
812.837	1853.6
813.02	1807.1
813.203	1818.72
813.386	1683.1
813.569	1685.81
813.751	1671.67
813.934	1713.13
814.117	1666.63
814.3	1618.39
814.482	1585.06
814.665	1536.43
814.848	1569.37
815.03	1498.07
815.213	1507.95
815.396	1473.08
815.578	1451.38
815.761	1437.43
815.943	1483.73
816.126	1381.05
816.309	1404.3
816.491	1329.32
816.674	1277.39
816.856	1364
817.039	1300.64
817.221	1376.4
817.403	1356.25
817.586	1321.37
817.768	1376.59
817.951	1328.54
818.133	1285.92
818.315	1301.03
818.498	1392.48
818.68	1391.51
818.862	1386.28
819.045	1408.75
819.227	1380.47
819.409	1345.98
819.591	1373.1
819.774	1343.46
819.956	1308.39
820.138	1425.03
820.32	1399.06
820.502	1439.75
820.684	1514.15
820.866	1464.75
821.048	1554.64
821.231	1554.45
821.413	1558.13
821.595	1512.6
821.777	1523.06
821.959	1519.96
822.141	1609.09
822.323	1467.07
822.505	1396.55
822.686	1354.89
822.868	1292.31
823.05	1246.59
823.232	1204.16
823.414	1155.52
823.596	1239.61
823.778	1221.98
823.96	1188.46
824.141	1254.72
824.323	1264.22
824.505	1296.57
824.687	1381.82
824.868	1375.82
825.05	1458.74
825.232	1498.07
825.413	1565.11
825.595	1470.75
825.777	1430.26
825.958	1503.69
826.14	1488.77
826.321	1494
826.503	1480.44
826.685	1495.36
826.866	1511.63
827.048	1502.72
827.229	1469.01
827.411	1411.66
827.592	1369.03
827.773	1385.31
827.955	1372.91
828.136	1361.67
828.318	1309.36
828.499	1375.23
828.68	1306.26
828.862	1380.27
829.043	1364.58
829.224	1303.16
829.406	1329.7
829.587	1309.75
829.768	1329.12
829.949	1363.42
830.131	1328.93
830.312	1370.39
830.493	1343.85
830.674	1346.17
830.855	1362.64
831.036	1339.39
831.218	1407.4
831.399	1439.56
831.58	1357.8
831.761	1369.81
831.942	1346.17
832.123	1352.76
832.304	1302
832.485	1324.86
832.666	1327.96
832.847	1351.21
833.028	1330.09
833.209	1346.56
833.389	1330.48
833.57	1313.82
833.751	1316.72
833.932	1386.86
834.113	1313.82
834.294	1311.49
834.475	1353.73
834.655	1383.57
834.836	1412.05
835.017	1395.96
835.198	1334.93
835.378	1379.69
835.559	1426.58
835.74	1380.66
835.92	1377.56
836.101	1356.25
836.281	1392.67
836.462	1415.53
836.643	1417.08
836.823	1443.05
837.004	1414.18
837.184	1491.87
837.365	1449.44
837.545	1425.61
837.726	1384.53
837.906	1469.59
838.087	1430.65
838.267	1430.06
838.448	1355.28
838.628	1406.23
838.808	1395.96
838.989	1478.31
839.169	1376.59
839.349	1414.95
839.53	1447.7
839.71	1435.3
839.89	1375.43
840.07	1476.56
840.251	1393.06
840.431	1413.21
840.611	1393.83
840.791	1379.11
840.971	1433.94
841.151	1396.93
841.332	1369.23
841.512	1413.79
841.692	1351.21
841.872	1397.32
842.052	1382.6
842.232	1411.85
842.412	1329.9
842.592	1378.72
842.772	1413.98
842.952	1432.78
843.132	1343.27
843.312	1369.81
843.492	1336.1
843.672	1400.23
843.851	1323.7
844.031	1387.83
844.211	1362.83
844.391	1354.89
844.571	1376.2
844.751	1403.52
844.93	1363.03
845.11	1334.16
845.29	1402.94
845.47	1373.3
845.649	1362.06
845.829	1409.91
846.009	1363.8
846.188	1389.77
846.368	1372.91
846.547	1362.06
846.727	1373.1
846.907	1347.92
847.086	1356.83
847.266	1396.93
847.445	1344.04
847.625	1319.05
847.804	1298.51
847.984	1341.72
848.163	1312.65
848.343	1312.27
848.522	1348.11
848.701	1336.1
848.881	1296.19
849.06	1340.94
849.239	1318.85
849.419	1319.24
849.598	1267.51
849.777	1284.95
849.957	1245.62
850.136	1199.51
850.315	1190.98
850.494	1217.72
850.674	1204.74
850.853	1258.79
851.032	1225.85
851.211	1283.98
851.39	1273.32
851.569	1216.17
851.748	1160.95
851.927	1261.31
852.107	1247.55
852.286	1178.19
852.465	1180.91
852.644	1247.17
852.823	1246
853.002	1222.75
853.181	1228.18
853.359	1223.14
853.538	1176.26
853.717	1263.83
853.896	1130.72
854.075	1078.61
854.254	1102.24
854.433	1039.28
854.611	1108.83
854.79	1015.64
854.969	1081.51
855.148	1120.07
855.327	1035.98
855.505	1132.66
855.684	1118.13
855.863	1111.35
856.041	1097.01
856.22	1152.62
856.399	1091.01
856.577	1188.46
856.756	1178.77
856.934	1280.69
857.113	1280.3
857.291	1173.74
857.47	1144.67
857.648	1176.06
857.827	1188.27
858.005	1217.91
858.184	1122.98
858.362	1252.79
858.541	1165.6
858.719	1162.31
858.898	1124.53
859.076	1137.31
859.254	1230.5
859.433	1169.47
859.611	1166.76
859.789	1097.21
859.967	1202.8
860.146	1226.05
860.324	1087.52
860.502	1127.63
860.68	1073.18
860.859	1102.24
861.037	1116.78
861.215	1161.34
861.393	1186.52
861.571	1138.86
861.749	1109.22
861.927	1134.6
862.105	1158.62
862.283	1102.24
862.461	1081.13
862.639	1084.03
862.817	1109.8
862.995	1136.15
863.173	1091.2
863.351	1127.24
863.529	1106.7
863.707	1148.94
863.885	1107.09
864.063	1064.85
864.241	1101.28
864.418	1163.27
864.596	1084.81
864.774	1066.01
864.952	1066.01
865.129	1101.47
865.307	1060.39
865.485	1012.93
865.663	1118.52
865.84	988.13
866.018	1041.99
866.196	900.17
866.373	958.68
866.551	924.77
866.728	882.53
866.906	920.32
867.084	957.32
867.261	973.4
867.439	978.44
867.616	1027.26
867.794	1001.3
867.971	1015.25
868.149	1000.53
868.326	1048.58
868.503	1021.26
868.681	1012.54
868.858	964.49
869.035	965.26
869.213	1007.31
869.39	991.23
869.567	1072.6
869.745	993.36
869.922	1010.6
870.099	1011.96
870.276	1023
870.454	1008.08
870.631	1027.07
870.808	988.13
870.985	1024.94
871.162	1052.64
871.339	1013.31
871.517	952.28
871.694	977.66
871.871	974.56
872.048	970.3
872.225	985.03
872.402	1020.1
872.579	936.59
872.756	992.39
872.933	951.9
873.11	941.43
873.287	953.25
873.463	967.59
873.64	938.53
873.817	962.94
873.994	958.87
874.171	922.83
874.348	998.01
874.524	916.05
874.701	970.3
874.878	879.05
875.055	945.5
875.231	940.08
875.408	953.83
875.585	885.63
875.762	912.18
875.938	934.46
876.115	916.44
876.291	952.67
876.468	925.35
876.645	886.6
876.821	880.02
876.998	893.38
877.174	905.59
877.351	906.56
877.527	872.85
877.704	928.84
877.88	887.57
878.057	866.26
878.233	928.65
878.409	902.3
878.586	867.81
878.762	888.54
878.938	865.68
879.115	805.62
879.291	877.3
879.467	823.64
879.644	844.75
879.82	883.5
879.996	855.02
880.172	805.42
880.349	860.06
880.525	883.5
880.701	803.1
880.877	816.66
881.053	848.24
881.229	827.12
881.405	898.62
881.581	820.34
881.757	847.85
881.933	848.63
882.109	864.32
882.285	875.75
882.461	826.15
882.637	843.4
882.813	810.07
882.989	819.37
883.165	888.15
883.341	827.51
883.517	910.63
883.693	823.83
883.869	877.3
884.044	795.35
884.22	827.12
884.396	899.2
884.572	888.15
884.747	887.38
884.923	864.13
885.099	870.33
885.275	912.76
885.45	825.77
885.626	827.12
885.801	814.53
885.977	821.31
886.153	804.84
886.328	875.37
886.504	809.1
886.679	856.19
886.855	784.5
887.03	849.21
887.206	852.5
887.381	836.81
887.557	829.25
887.732	881.76
887.908	856.19
888.083	865.49
888.258	848.05
888.434	830.22
888.609	806.59
888.784	888.35
888.96	819.18
889.135	850.37
889.31	803.68
889.485	808.52
889.661	841.46
889.836	877.11
890.011	824.8
890.186	820.73
890.361	805.81
890.537	841.85
890.712	827.51
890.887	827.51
891.062	851.92
891.237	878.08
891.412	747.69
891.587	816.27
891.762	858.32
891.937	880.98
892.112	770.36
892.287	792.44
892.462	784.69
892.637	757.18
892.812	733.74
892.987	787.79
893.161	745.75
893.336	759.7
893.511	766.87
893.686	748.46
893.861	766.09
894.035	780.62
894.21	750.59
894.385	726.96
894.56	764.35
894.734	685.49
894.909	699.44
895.084	699.25
895.258	687.04
895.433	690.14
895.608	666.12
895.782	613.03
895.957	625.63
896.131	672.32
896.306	590.75
896.48	577.38
896.655	595.01
896.829	557.23
897.004	548.51
897.178	548.71
897.353	526.23
897.527	571.18
897.701	584.55
897.876	490
898.05	634.93
898.224	567.7
898.399	599.47
898.573	567.31
898.747	469.27
898.921	535.53
899.096	422.39
899.27	449.9
899.444	453.97
899.618	458.42
899.792	474.89
899.967	485.16
900.141	539.6
900.315	465.2
900.489	485.74
900.663	484.58
900.837	493.1
901.011	443.5
901.185	541.35
901.359	506.67
901.533	495.82
901.707	492.72
901.881	475.28
902.055	434.2
902.229	456.29
902.403	540.76
902.576	513.83
902.75	497.17
902.924	612.64
903.098	536.31
903.272	576.41
903.446	589.4
903.619	573.7
903.793	600.83
903.967	603.93
904.14	633.96
904.314	658.18
904.488	605.67
904.661	601.41
904.835	582.42
905.009	650.43
905.182	647.91
905.356	615.74
905.529	631.05
905.703	591.33
905.876	556.07
906.05	549.48
906.223	563.82
906.397	517.51
906.57	503.57
906.744	456.29
906.917	492.52
907.09	502.02
907.264	474.7
907.437	457.84
907.61	437.88
907.784	462.1
907.957	479.54
908.13	432.07
908.304	484.19
908.477	417.74
908.65	457.07
908.823	398.17
908.996	486.32
909.17	418.12
909.343	397.97
909.516	426.26
909.689	436.33
909.862	405.92
910.035	433.62
910.208	393.13
910.381	409.79
910.554	500.47
910.727	431.88
910.9	399.14
911.073	421.42
911.246	484.97
911.419	456.68
911.592	457.45
911.765	406.5
911.938	403.79
912.11	416.57
912.283	422.58
912.456	491.17
912.629	463.46
912.802	401.85
912.974	363.68
913.147	343.14
913.32	295.29
913.493	361.16
913.665	360.58
913.838	360.77
914.01	355.54
914.183	356.12
914.356	374.14
914.528	380.15
914.701	427.23
914.873	418.9
915.046	379.76
915.218	358.64
915.391	294.51
915.563	299.74
915.736	350.89
915.908	390.8
916.081	356.7
916.253	343.53
916.425	386.35
916.598	380.73
916.77	370.07
916.942	343.14
917.115	304.59
917.287	364.07
917.459	347.21
917.632	297.61
917.804	285.41
917.976	321.83
918.148	324.16
918.32	326.09
918.493	392.74
918.665	413.28
918.837	384.02
919.009	421.22
919.181	397.2
919.353	378.02
919.525	375.5
919.697	395.84
919.869	396.81
920.041	469.66
920.213	484.97
920.385	413.47
920.557	404.75
920.729	396.23
920.901	406.3
921.073	400.88
921.244	374.14
921.416	408.05
921.588	419.29
921.76	378.02
921.932	441.18
922.103	389.45
922.275	378.99
922.447	397.59
922.619	326.48
922.79	376.85
922.962	362.9
923.134	412.89
923.305	341.01
923.477	336.56
923.648	309.43
923.82	357.29
923.991	287.15
924.163	294.12
924.335	338.49
924.506	313.89
924.677	381.12
924.849	339.46
925.02	323.96
925.192	340.04
925.363	312.14
925.535	321.25
925.706	321.44
925.877	372.79
926.049	307.49
926.22	322.22
926.391	347.02
926.562	336.17
926.734	313.69
926.905	347.6
927.076	281.92
927.247	294.12
927.419	258.09
927.59	236
927.761	272.62
927.932	270.68
928.103	270.29
928.274	244.53
928.445	219.14
928.616	236.97
928.787	237.94
928.958	277.85
929.129	259.06
929.3	226.7
929.471	215.46
929.642	144.75
929.813	104.45
929.984	249.95
930.155	112.2
930.326	186.79
930.496	158.89
930.667	98.25
930.838	131.76
931.009	104.06
931.18	139.13
931.35	107.16
931.521	142.03
931.692	76.16
931.863	46.32
932.033	131.18
932.204	99.6
932.374	99.21
932.545	67.05
932.716	111.42
932.886	125.18
933.057	17.45
933.227	77.9
933.398	127.11
933.568	48.26
933.739	31.02
933.909	28.69
934.08	69.57
934.25	-6.18
934.421	26.75
934.591	72.09
934.761	33.15
934.932	-14.51
935.102	18.81
935.272	34.12
935.443	27.33
935.613	38.77
935.783	61.63
935.953	9.9
936.123	170.32
936.294	27.72
936.464	16.1
936.634	19.39
936.804	-0.37
936.974	-5.99
937.144	57.75
937.314	58.33
937.484	19.78
937.655	29.85
937.825	89.14
937.995	15.13
938.165	75.97
938.334	30.05
938.504	49.03
938.674	11.06
938.844	50.97
939.014	95.53
939.184	61.24
939.354	137.38
939.524	101.93
939.694	67.83
939.863	90.88
940.033	137.38
940.203	122.85
940.373	90.11
940.542	96.31
940.712	73.64
940.882	118.98
941.051	106.38
941.221	96.31
941.391	151.53
941.56	67.63
941.73	65.89
941.899	172.45
942.069	34.31
942.238	76.93
942.408	59.5
942.577	97.66
942.747	49.23
942.916	20.75
943.086	27.14
943.255	115.3
943.425	80.23
943.594	32.57
943.763	-5.6
943.933	33.73
944.102	-13.16
944.271	50.39
944.441	85.26
944.61	33.53
944.779	46.9
944.948	134.67
945.117	18.23
945.287	70.15
945.456	-11.41
945.625	27.53
945.794	56.2
945.963	10.28
946.132	71.12
946.301	32.37
946.47	73.06
946.639	-17.42
946.808	51.17
946.977	76.55
947.146	92.05
947.315	41.87
947.484	65.12
947.653	56.98
947.822	46.13
947.991	21.13
948.16	118.2
948.329	114.52
948.498	61.63
948.666	59.88
948.835	92.05
949.004	1.57
949.173	27.92
949.341	38.77
949.51	75.19
949.679	86.04
949.847	82.75
950.016	115.3
950.185	91.08
950.353	59.11
950.522	59.88
950.69	107.74
950.859	30.05
951.028	106.58
951.196	68.02
951.365	24.62
951.533	33.73
951.701	98.63
951.87	77.13
952.038	30.05
952.207	81.58
952.375	118.01
952.543	45.35
952.712	61.24
952.88	41.28
953.048	114.91
953.217	66.28
953.385	29.08
953.553	112.2
953.721	19.58
953.89	48.45
954.058	26.75
954.226	32.95
954.394	74.03
954.562	35.28
954.73	62.6
954.898	63.37
955.067	93.01
955.235	45.35
955.403	109.68
955.571	137.38
955.739	92.43
955.907	55.43
956.075	27.33
956.243	31.6
956.41	82.75
956.578	1.57
956.746	37.02
956.914	56.2
957.082	78.87
957.25	61.63
957.418	34.31
957.585	80.61
957.753	119.17
957.921	37.8
958.089	69.77
958.256	95.73
958.424	81.58
958.592	72.28
958.759	29.08
958.927	69.18
959.095	47.48
959.262	52.91
959.43	66.08
959.597	44.19
959.765	68.99
959.932	21.72
960.1	74.61
960.267	49.42
960.435	72.48
960.602	94.76
960.77	52.13
960.937	26.17
961.104	41.28
961.272	28.88
961.439	44.77
961.606	70.15
961.774	94.56
961.941	30.82
962.108	105.8
962.275	78.48
962.443	110.84
962.61	88.75
962.777	143.39
962.944	87.4
963.111	78.68
963.278	90.11
963.446	56.01
963.613	59.5
963.78	94.76
963.947	69.18
964.114	78.29
964.281	134.09
964.448	87.2
964.615	75
964.782	81.39
964.949	109.29
965.116	122.08
965.282	83.13
965.449	70.35
965.616	37.22
965.783	83.33
965.95	97.47
966.117	25.01
966.283	81
966.45	72.67
966.617	88.56
966.784	110.45
966.95	126.92
967.117	100.76
967.284	30.82
967.45	63.57
967.617	119.36
967.784	99.41
967.95	131.18
968.117	64.15
968.283	130.8
968.45	163.54
968.616	86.04
968.783	124.98
968.949	107.55
969.116	134.28
969.282	82.94
969.449	96.7
969.615	107.35
969.781	64.15
969.948	78.68
970.114	53.49
970.28	135.64
970.447	78.29
970.613	137.96
970.779	87.01
970.945	105.22
971.112	100.96
971.278	82.16
971.444	96.89
971.61	109.48
971.776	90.11
971.942	115.88
972.108	118.01
972.275	84.68
972.441	113.55
972.607	154.82
972.773	88.56
972.939	116.46
973.105	67.83
973.271	94.76
973.437	72.28
973.602	60.27
973.768	117.43
973.934	76.55
974.1	98.44
974.266	31.4
974.432	101.73
974.598	86.23
974.763	104.83
974.929	79.65
975.095	133.51
975.261	58.53
975.426	64.92
975.592	70.54
975.758	158.5
975.923	30.63
976.089	41.09
976.255	86.43
976.42	103.09
976.586	111.42
976.751	88.95
976.917	146.88
977.082	108.9
977.248	57.95
977.413	22.3
977.579	75.97
977.744	92.82
977.91	39.54
978.075	63.95
978.24	84.3
978.406	68.8
978.571	53.88
978.736	61.63
978.902	98.25
979.067	53.1
979.232	3.7
979.397	80.61
979.563	128.86
979.728	50.78
979.893	66.67
980.058	75.19
980.223	93.6
980.388	53.3
980.554	80.23
980.719	58.72
980.884	81.78
981.049	93.21
981.214	69.77
981.379	114.33
981.544	65.31
981.709	89.91
981.874	75.19
982.039	78.48
982.204	106.58
982.368	78.48
982.533	53.49
982.698	94.18
982.863	103.67
983.028	58.72
983.193	118.01
983.357	122.66
983.522	81.39
983.687	60.27
983.852	64.92
984.016	83.52
984.181	67.05
984.346	65.89
984.51	79.65
984.675	77.32
984.839	71.51
985.004	77.9
985.168	118.98
985.333	112.39
985.498	73.64
985.662	110.06
985.827	82.16
985.991	61.05
986.155	81.97
986.32	82.55
986.484	149.59
986.649	83.13
986.813	9.12
986.977	63.57
987.142	92.05
987.306	47.29
987.47	45.35
987.634	65.7
987.799	95.15
987.963	84.3
988.127	112.78
988.291	161.02
988.455	82.75
988.62	72.67
988.784	85.85
988.948	99.8
989.112	43.03
989.276	93.79
989.44	75.58
989.604	44.77
989.768	49.42
989.932	161.99
990.096	41.67
990.26	43.03
990.424	40.12
990.588	85.65
990.752	137.96
990.915	108.32
991.079	63.18
991.243	48.07
991.407	63.37
991.571	93.98
991.734	105.61
991.898	105.03
992.062	156.95
992.226	75.38
992.389	39.93
992.553	32.57
992.717	44
992.88	64.15
993.044	53.3
993.207	70.73
993.371	105.61
993.535	95.34
993.698	50.78
993.862	95.15
994.025	111.81
994.189	114.13
994.352	80.61
994.515	64.34
994.679	106.19
994.842	84.49
995.006	96.89
995.169	30.43
995.332	33.92
995.496	100.57
995.659	25.78
995.822	70.15
995.985	62.02
996.149	103.86
996.312	74.03
996.475	129.25
996.638	33.53
996.801	99.6
996.964	122.85
997.128	64.15
997.291	43.22
997.454	76.74
997.617	29.27
997.78	81.97
997.943	33.15
998.106	91.27
998.269	44.77
998.432	58.92
998.595	57.37
998.758	7.57
998.92	58.72
999.083	28.5
999.246	34.12
999.409	17.26
999.572	-2.89
999.735	42.45
999.897	93.01
1000.06	53.68
1000.223	52.13
1000.386	75.19
1000.548	73.45
1000.711	80.23
1000.874	63.37
1001.036	2.73
1001.199	77.13
1001.361	47.68
1001.524	65.7
1001.687	83.33
1001.849	15.52
1002.012	49.42
1002.174	60.66
1002.337	86.43
1002.499	57.17
1002.661	85.46
1002.824	14.16
1002.986	17.84
1003.149	63.95
1003.311	19.58
1003.473	115.3
1003.636	17.07
1003.798	69.77
1003.96	81
1004.123	52.33
1004.285	29.27
1004.447	75.77
1004.609	43.22
1004.771	86.43
1004.933	-1.34
1005.096	28.11
1005.258	30.63
1005.42	33.73
1005.582	78.29
1005.744	43.61
1005.906	3.12
1006.068	45.74
1006.23	12.03
1006.392	-14.13
1006.554	18.81
1006.716	70.73
1006.878	67.83
1007.04	2.15
1007.202	20.94
1007.363	29.66
1007.525	58.72
1007.687	59.69
1007.849	81.2
1008.011	-11.03
1008.172	23.85
1008.334	37.02
1008.496	37.99
1008.658	-6.57
1008.819	17.07
1008.981	6.41
1009.143	2.92
1009.304	9.51
1009.466	80.61
1009.627	94.56
1009.789	134.28
1009.95	60.27
1010.112	9.12
1010.273	29.66
1010.435	35.47
1010.596	24.43
1010.758	33.92
1010.919	4.86
1011.081	14.74
1011.242	16.68
1011.403	62.4
1011.565	-6.96
1011.726	64.15
1011.887	22.88
1012.049	28.11
1012.21	46.32
1012.371	90.5
1012.532	-50.94
1012.693	33.15
1012.855	32.76
1013.016	50.2
1013.177	64.92
1013.338	41.48
1013.499	117.62
1013.66	75.77
1013.821	74.42
1013.982	45.74
1014.143	25.78
1014.304	24.04
1014.465	43.42
1014.626	69.38
1014.787	26.17
1014.948	110.26
1015.109	-29.05
1015.27	61.05
1015.431	11.64
1015.592	9.12
1015.752	78.29
1015.913	29.66
1016.074	29.08
1016.235	26.37
1016.395	34.12
1016.556	20.94
1016.717	35.28
1016.877	70.35
1017.038	29.85
1017.199	57.37
1017.359	58.53
1017.52	34.31
1017.681	25.2
1017.841	51.17
1018.002	15.52
1018.162	19.97
1018.323	74.61
1018.483	32.76
1018.644	16.68
1018.804	0.4
1018.964	-4.83
1019.125	-15.68
1019.285	38.57
1019.446	-0.95
1019.606	-27.3
1019.766	-20.13
1019.926	23.07
1020.087	35.67
1020.247	-33.31
1020.407	39.73
1020.567	59.69
1020.728	16.29
1020.888	-18.78
1021.048	13.38
1021.208	-1.92
1021.368	-0.37
1021.528	73.45
1021.688	47.1
1021.848	26.95
1022.008	14.16
1022.168	13.77
1022.328	37.02
1022.488	24.43
1022.648	16.48
1022.808	15.32
1022.968	22.49
1023.128	0.4
1023.288	-0.57
1023.448	49.23
1023.608	16.1
1023.767	48.45
1023.927	-9.28
1024.087	-10.06
1024.247	-20.52
1024.406	20.55
1024.566	-19.55
1024.726	8.15
1024.885	6.02
1025.045	35.67
1025.205	6.02
1025.364	31.98
1025.524	28.69
1025.683	7.38
1025.843	82.55
1026.003	27.72
1026.162	75.19
1026.321	68.6
1026.481	12.42
1026.64	-3.28
1026.8	36.05
1026.959	43.42
1027.119	3.7
1027.278	-3.67
1027.437	12.8
1027.597	17.26
1027.756	11.64
1027.915	38.38
1028.074	47.87
1028.234	13.97
1028.393	14.93
1028.552	-0.18
1028.711	-48.23
1028.87	70.54
1029.03	-18.2
1029.189	1.37
1029.348	-56.75
1029.507	-4.05
1029.666	2.34
1029.825	-22.46
1029.984	-6.77
1030.143	24.62
1030.302	-10.06
1030.461	-22.85
1030.62	6.22
1030.779	31.21
1030.938	-1.92
1031.097	6.6
1031.255	25.78
1031.414	49.62
1031.573	51.94
1031.732	-22.07
1031.891	19.2
1032.049	53.49
1032.208	35.08
1032.367	-13.35
1032.525	9.12
1032.684	-4.25
1032.843	7.18
1033.001	-17.61
1033.16	173.42
1033.319	38.57
1033.477	17.45
1033.636	-0.95
1033.794	-24.4
1033.953	39.73
1034.111	40.12
1034.27	11.06
1034.428	22.49
1034.587	-29.05
1034.745	29.47
1034.903	17.45
1035.062	18.23
1035.22	-28.08
1035.378	43.61
1035.537	17.84
1035.695	33.92
1035.853	-9.67
1036.011	26.17
1036.17	12.61
1036.328	-58.11
1036.486	22.1
1036.644	15.71
1036.802	-44.93
1036.96	-1.73
1037.119	1.57
1037.277	-13.35
1037.435	-49.78
1037.593	-13.55
1037.751	7.96
1037.909	33.92
1038.067	33.92
