Data from oakcork_FLMT105791__215__17-32-46-055.txt Node

Date: Mon Mar 20 17:32:46 GMT 2023
User: antho
Spectrometer: FLMT10579
Trigger mode: 0
Integration Time (sec): 1.000000E-1
Scans to average: 10
Electric dark correction enabled: true
Nonlinearity correction enabled: false
Boxcar width: 0
XAxis mode: Wavelengths
Number of Pixels in Spectrum: 3648
>>>>>Begin Spectral Data<<<<<
345.248	-151.37
345.464	-151.37
345.681	-151.37
345.898	-171.71
346.114	-171.51
346.331	-39.96
346.548	17.97
346.764	-5.09
346.981	-17.68
347.197	-4.31
347.414	31.34
347.631	-5.47
347.847	53.23
348.064	-7.8
348.28	22.23
348.497	-48.29
348.713	3.83
348.93	20.88
349.146	-7.22
349.363	-7.41
349.579	-6.44
349.796	22.43
350.012	-9.93
350.229	31.34
350.445	10.61
350.661	-9.74
350.878	11.77
351.094	15.84
351.311	14.68
351.527	2.28
351.743	-10.51
351.96	46.06
352.176	59.04
352.392	26.3
352.609	26.69
352.825	-18.07
353.041	13.13
353.257	41.22
353.474	6.35
353.69	25.91
353.906	10.61
354.122	-20.78
354.339	33.66
354.555	0.73
354.771	3.83
354.987	55.36
355.203	79.78
355.42	-11.29
355.636	-13.22
355.852	-8.57
356.068	12.16
356.284	-38.41
356.5	58.66
356.716	11
356.932	-10.12
357.148	45.87
357.364	-2.18
357.58	43.16
357.796	84.62
358.012	46.84
358.228	47.81
358.444	-53.72
358.66	50.91
358.876	37.34
359.092	-30.47
359.308	43.74
359.524	21.26
359.74	-4.5
359.956	-23.49
360.172	6.35
360.388	35.41
360.604	4.41
360.819	100.7
361.035	20.68
361.251	39.48
361.467	4.41
361.683	67.18
361.898	35.02
362.114	16.42
362.33	24.75
362.546	35.79
362.762	11.58
362.977	31.14
363.193	-57.59
363.409	37.93
363.624	-23.1
363.84	-0.24
364.056	13.51
364.271	4.6
364.487	30.37
364.703	12.35
364.918	-20.2
365.134	-6.44
365.35	-1.02
365.565	98.38
365.781	21.84
365.996	23.59
366.212	72.41
366.427	44.71
366.643	1.89
366.858	-14.58
367.074	-1.21
367.289	59.82
367.505	125.5
367.72	-19.42
367.936	-4.12
368.151	20.68
368.367	21.07
368.582	30.76
368.798	4.02
369.013	66.99
369.228	13.32
369.444	12.55
369.659	55.17
369.874	35.79
370.09	50.33
370.305	-34.34
370.52	14.48
370.736	69.31
370.951	-7.22
371.166	64.47
371.381	63.31
371.597	49.94
371.812	5.76
372.027	-0.82
372.242	12.74
372.458	92.76
372.673	-16.9
372.888	23.2
373.103	15.45
373.318	86.17
373.533	44.71
373.749	14.68
373.964	-7.6
374.179	68.73
374.394	-15.16
374.609	64.47
374.824	-29.5
375.039	63.69
375.254	-1.79
375.469	66.41
375.684	30.76
375.899	66.79
376.114	27.85
376.329	42.58
376.544	47.23
376.759	39.86
376.974	-0.63
377.189	23.2
377.404	13.9
377.619	59.82
377.834	-7.41
378.049	8.28
378.264	-9.35
378.478	29.59
378.693	36.18
378.908	47.03
379.123	39.28
379.338	54.39
379.553	20.49
379.767	34.44
379.982	64.08
380.197	75.13
380.412	-2.57
380.626	62.92
380.841	116.2
381.056	46.84
381.271	98.76
381.485	12.55
381.7	-1.6
381.915	26.88
382.129	20.68
382.344	33.47
382.559	31.14
382.773	44.13
382.988	-1.6
383.202	28.24
383.417	5.96
383.632	115.42
383.846	17.97
384.061	19.91
384.275	13.9
384.49	27.46
384.704	36.18
384.919	34.63
385.133	40.25
385.348	88.49
385.562	7.12
385.777	59.63
385.991	39.86
386.206	24.36
386.42	22.23
386.634	75.13
386.849	46.64
387.063	54.98
387.277	-8.38
387.492	28.63
387.706	-0.82
387.92	22.04
388.135	69.31
388.349	33.47
388.563	41.8
388.778	17.97
388.992	61.76
389.206	59.24
389.42	119.49
389.635	56.91
389.849	59.82
390.063	102.06
390.277	76.87
390.491	82.29
390.706	58.08
390.92	66.99
391.134	46.84
391.348	88.88
391.562	-4.7
391.776	41.03
391.99	8.86
392.205	67.76
392.419	21.07
392.633	21.26
392.847	95.08
393.061	15.06
393.275	114.84
393.489	34.44
393.703	26.88
393.917	46.64
394.131	40.83
394.345	73.58
394.559	53.43
394.773	40.44
394.986	46.06
395.2	62.92
395.414	84.04
395.628	31.34
395.842	69.7
396.056	14.68
396.27	31.14
396.484	73.77
396.697	40.25
396.911	84.62
397.125	67.38
397.339	77.26
397.553	66.6
397.766	84.81
397.98	64.28
398.194	107.68
398.408	68.93
398.621	91.59
398.835	76.29
399.049	65.83
399.262	92.56
399.476	105.54
399.69	102.83
399.903	117.36
400.117	81.33
400.331	78.42
400.544	87.91
400.758	187.31
400.971	108.84
401.185	130.54
401.398	45.09
401.612	117.17
401.826	104.58
402.039	138.67
402.253	74.35
402.466	89.66
402.68	84.43
402.893	103.61
403.106	91.59
403.32	104.58
403.533	125.31
403.747	100.12
403.96	94.11
404.174	78.23
404.387	59.63
404.6	74.54
404.814	138.29
405.027	80.36
405.24	71.44
405.454	78.23
405.667	141.77
405.88	36.96
406.094	81.91
406.307	111.55
406.52	84.62
406.733	56.53
406.947	56.14
407.16	155.72
407.373	128.79
407.586	72.8
407.799	61.37
408.012	160.96
408.226	107.48
408.439	148.56
408.652	43.93
408.865	125.5
409.078	164.25
409.291	108.84
409.504	103.99
409.717	108.45
409.93	138.09
410.143	99.34
410.357	64.66
410.57	81.52
410.783	81.71
410.996	130.34
411.209	101.67
411.421	148.36
411.634	93.53
411.847	75.51
412.06	110.77
412.273	131.51
412.486	123.95
412.699	183.43
412.912	115.42
413.125	132.28
413.338	128.41
413.55	129.37
413.763	131.7
413.976	146.81
414.189	84.81
414.402	98.96
414.615	171.22
414.827	105.54
415.04	148.94
415.253	141.19
415.466	159.99
415.678	194.47
415.891	131.89
416.104	131.12
416.316	111.74
416.529	95.66
416.742	131.89
416.954	166.38
417.167	123.37
417.38	108.45
417.592	160.37
417.805	96.44
418.017	52.84
418.23	135.38
418.442	111.16
418.655	130.92
418.868	149.33
419.08	135.19
419.293	165.61
419.505	146.04
419.718	145.07
419.93	174.71
420.142	112.71
420.355	171.22
420.567	171.03
420.78	161.15
420.992	127.82
421.205	180.14
421.417	99.34
421.629	136.16
421.842	106.9
422.054	88.69
422.266	198.74
422.479	154.17
422.691	122.4
422.903	155.34
423.115	110.97
423.328	136.35
423.54	149.72
423.752	130.34
423.964	109.22
424.177	156.89
424.389	106.13
424.601	212.69
424.813	166.77
425.025	189.05
425.238	182.07
425.45	143.91
425.662	106.71
425.874	447.12
426.086	148.36
426.298	145.65
426.51	147.39
426.722	157.66
426.934	131.31
427.146	162.12
427.358	123.37
427.57	163.67
427.782	138.29
427.994	150.88
428.206	118.91
428.418	125.31
428.63	203.97
428.842	196.41
429.054	166.19
429.266	184.21
429.478	139.45
429.69	147.01
429.902	125.69
430.114	176.07
430.325	144.87
430.537	135.77
430.749	93.73
430.961	73.58
431.173	130.54
431.384	136.16
431.596	79.58
431.808	150.11
432.02	156.89
432.231	177.81
432.443	199.9
432.655	178.39
432.867	145.65
433.078	175.87
433.29	227.22
433.502	200.09
433.713	223.92
433.925	194.28
434.136	201.25
434.348	155.72
434.56	117.56
434.771	237.87
434.983	144.1
435.194	154.76
435.406	151.46
435.617	234.97
435.829	249.11
436.04	195.25
436.252	221.6
436.463	251.82
436.675	234.77
436.886	215.4
437.098	208.04
437.309	235.94
437.521	209.39
437.732	223.73
437.943	214.43
438.155	204.94
438.366	157.47
438.578	267.13
438.789	203.19
439	236.9
439.211	201.64
439.423	209.2
439.634	222.57
439.845	232.25
440.057	199.7
440.268	247.95
440.479	177.81
440.69	226.83
440.902	202.61
441.113	207.45
441.324	208.62
441.535	249.3
441.746	272.55
441.957	205.52
442.168	211.14
442.38	246.01
442.591	224.31
442.802	214.24
443.013	222.95
443.224	228.77
443.435	230.9
443.646	247.37
443.857	214.04
444.068	238.65
444.279	202.03
444.49	329.13
444.701	252.99
444.912	339.4
445.123	280.11
445.334	267.9
445.545	255.5
445.756	262.29
445.967	217.14
446.178	220.05
446.388	275.65
446.599	271.39
446.81	272.75
447.021	236.71
447.232	289.8
447.443	297.35
447.653	225.09
447.864	282.82
448.075	252.02
448.286	296.58
448.496	265.97
448.707	320.22
448.918	250.08
449.129	346.57
449.339	229.93
449.55	246.4
449.761	248.72
449.971	316.53
450.182	270.42
450.393	322.54
450.603	270.62
450.814	330.48
451.024	313.05
451.235	319.44
451.446	339.59
451.656	355.28
451.867	292.51
452.077	290.57
452.288	332.62
452.498	317.89
452.709	281.47
452.919	324.28
453.13	265.77
453.34	326.8
453.55	256.67
453.761	313.24
453.971	268.29
454.182	340.56
454.392	307.62
454.602	392.48
454.813	299.68
455.023	333.97
455.233	261.9
455.444	302.78
455.654	247.56
455.864	302
456.075	313.82
456.285	265.97
456.495	303.75
456.705	316.53
456.916	349.86
457.126	387.06
457.336	291.73
457.546	242.91
457.756	292.12
457.967	365.17
458.177	285.92
458.387	287.47
458.597	277.2
458.807	321.96
459.017	304.91
459.227	299.87
459.437	296.38
459.647	339.2
459.857	343.47
460.068	304.72
460.278	383.38
460.488	330.1
460.698	382.8
460.908	297.55
461.117	278.17
461.327	312.47
461.537	325.83
461.747	311.3
461.957	318.28
462.167	424.45
462.377	370.2
462.587	310.72
462.797	384.93
463.007	355.09
463.216	343.47
463.426	342.69
463.636	383.38
463.846	301.03
464.056	333.78
464.265	385.9
464.475	320.02
464.685	383.57
464.895	368.27
465.104	370.4
465.314	335.52
465.524	323.12
465.733	324.87
465.943	427.36
466.153	435.69
466.362	387.06
466.572	389.58
466.782	368.46
466.991	359.35
467.201	406.05
467.41	308.98
467.62	372.53
467.829	361.87
468.039	390.74
468.249	372.91
468.458	367.68
468.668	401.2
468.877	371.95
469.086	427.55
469.296	423.87
469.505	385.9
469.715	458.55
469.924	405.85
470.134	432.78
470.343	442.08
470.552	356.64
470.762	387.83
470.971	360.71
471.18	395.2
471.39	377.76
471.599	366.91
471.808	423.48
472.018	392.1
472.227	451.19
472.436	434.53
472.645	390.35
472.855	398.88
473.064	455.06
473.273	407.01
473.482	440.92
473.691	497.11
473.901	484.71
474.11	436.46
474.319	508.54
474.528	473.47
474.737	493.43
474.946	480.44
475.155	470.56
475.364	476.76
475.573	451.19
475.783	471.14
475.992	492.65
476.201	494.59
476.41	471.34
476.619	460.88
476.828	487.42
477.037	469.59
477.245	500.21
477.454	501.56
477.663	467.08
477.872	480.64
478.081	556.01
478.29	452.55
478.499	571.51
478.708	515.71
478.917	587.39
479.125	515.9
479.334	515.51
479.543	522.68
479.752	529.27
479.961	538.76
480.169	540.12
480.378	496.72
480.587	652.3
480.796	565.5
481.004	578.87
481.213	558.91
481.422	569.18
481.63	550.58
481.839	585.46
482.048	616.07
482.256	570.34
482.465	589.33
482.674	619.17
482.882	588.17
483.091	657.14
483.299	590.3
483.508	608.9
483.716	600.18
483.925	627.31
484.134	576.35
484.342	589.33
484.551	614.71
484.759	633.31
484.967	651.91
485.176	666.25
485.384	642.03
485.593	655.4
485.801	601.92
486.01	617.62
486.218	582.16
486.426	545.16
486.635	551.55
486.843	551.16
487.051	557.75
487.26	581
487.468	625.17
487.676	624.01
487.885	614.52
488.093	628.47
488.301	659.27
488.509	646.68
488.717	654.62
488.926	625.17
489.134	635.83
489.342	659.27
489.55	649.39
489.758	660.05
489.967	639.32
490.175	769.32
490.383	637.57
490.591	727.08
490.799	649.2
491.007	716.82
491.215	692.02
491.423	710.81
491.631	697.05
491.839	693.37
492.047	726.31
492.255	648.81
492.463	664.5
492.671	683.1
492.879	718.17
493.087	691.82
493.295	723.79
493.503	736.38
493.711	775.91
493.919	760.41
494.127	758.67
494.334	777.65
494.542	707.9
494.75	752.85
494.958	698.41
495.166	783.47
495.374	772.42
495.581	779.59
495.789	765.64
495.997	830.93
496.205	742.58
496.412	731.54
496.62	746.46
496.828	764.48
497.035	763.32
497.243	800.13
497.451	764.67
497.658	806.72
497.866	806.91
498.074	842.17
498.281	750.33
498.489	838.1
498.696	771.45
498.904	756.73
499.112	755.95
499.319	858.83
499.527	786.18
499.734	848.37
499.942	732.32
500.149	743.17
500.357	794.12
500.564	760.8
500.771	802.84
500.979	756.53
501.186	740.65
501.394	766.42
501.601	765.83
501.808	803.23
502.016	757.12
502.223	776.3
502.43	781.53
502.638	783.27
502.845	785.02
503.052	864.84
503.26	765.25
503.467	862.51
503.674	813.88
503.881	799.74
504.089	867.75
504.296	849.34
504.503	780.75
504.71	829
504.917	792.96
505.125	821.44
505.332	824.73
505.539	799.16
505.746	887.9
505.953	878.6
506.16	848.76
506.367	910.18
506.574	916.57
506.781	897.97
506.988	846.05
507.195	902.81
507.402	855.15
507.609	893.71
507.816	857.48
508.023	846.82
508.23	855.15
508.437	820.86
508.644	886.15
508.851	915.6
509.058	896.81
509.265	893.71
509.472	933.81
509.679	966.56
509.885	924.32
510.092	908.43
510.299	902.43
510.506	887.12
510.713	935.94
510.92	894.29
511.126	927.81
511.333	984.38
511.54	946.99
511.746	986.9
511.953	967.91
512.16	983.99
512.367	907.66
512.573	951.64
512.78	923.35
512.987	926.45
513.193	959.39
513.4	885.18
513.606	905.33
513.813	942.34
514.02	932.84
514.226	993.29
514.433	995.62
514.639	908.24
514.846	951.25
515.052	924.32
515.259	949.89
515.465	958.42
515.672	956.87
515.878	1008.02
516.085	971.59
516.291	1018.29
516.497	951.25
516.704	971.01
516.91	881.5
517.117	861.93
517.323	853.6
517.529	880.73
517.736	887.51
517.942	886.15
518.148	913.28
518.354	954.54
518.561	911.14
518.767	927.81
518.973	953.58
519.179	984.96
519.386	962.1
519.592	956.09
519.798	938.46
520.004	1054.32
520.21	1013.44
520.417	1028.94
520.623	1044.83
520.829	1070.99
521.035	1070.21
521.241	1052.77
521.447	1087.07
521.653	1195.37
521.859	1049.09
522.065	1095.59
522.271	1161.47
522.477	1104.5
522.683	1136.67
522.889	1102.18
523.095	1087.65
523.301	1098.5
523.507	1088.81
523.713	1119.42
523.919	1080.29
524.125	1160.11
524.331	1103.34
524.537	1219.2
524.742	1163.02
524.948	1183.36
525.154	1178.32
525.36	1298.06
525.566	1191.88
525.772	1228.7
525.977	1151.59
526.183	1201.38
526.389	1250.78
526.595	1161.85
526.8	1143.45
527.006	1094.43
527.212	1095.59
527.417	1106.83
527.623	1119.81
527.829	1169.41
528.034	1178.32
528.24	1182
528.446	1162.24
528.651	1256.4
528.857	1255.82
529.062	1294.96
529.268	1254.66
529.473	1255.05
529.679	1266.67
529.884	1348.43
530.09	1289.73
530.295	1321.89
530.501	1318.79
530.706	1299.22
530.912	1277.33
531.117	1299.61
531.323	1288.37
531.528	1338.74
531.733	1352.89
531.939	1317.82
532.144	1331
532.35	1332.54
532.555	1344.56
532.76	1342.62
532.966	1334.09
533.171	1301.93
533.376	1314.33
533.581	1251.56
533.787	1297.28
533.992	1359.86
534.197	1366.45
534.402	1337
534.607	1344.56
534.813	1454.61
535.018	1352.69
535.223	1348.82
535.428	1368.39
535.633	1424.38
535.838	1424.19
536.043	1418.57
536.249	1461.19
536.454	1407.91
536.659	1440.85
536.864	1423.99
537.069	1392.03
537.274	1380.01
537.479	1432.71
537.684	1443.56
537.889	1378.46
538.094	1476.89
538.299	1427.29
538.504	1431.74
538.708	1424.77
538.913	1459.26
539.118	1446.47
539.323	1487.16
539.528	1397.26
539.733	1426.9
539.938	1426.32
540.142	1466.42
540.347	1410.82
540.552	1402.29
540.757	1397.84
540.962	1415.66
541.166	1384.86
541.371	1386.6
541.576	1428.45
541.781	1316.08
541.985	1471.66
542.19	1423.41
542.395	1502.85
542.599	1531.91
542.804	1512.15
543.008	1516.6
543.213	1435.23
543.418	1417.79
543.622	1464.87
543.827	1413.34
544.031	1515.25
544.236	1530.17
544.44	1514.09
544.645	1547.6
544.849	1484.83
545.054	1517.96
545.258	1586.16
545.463	1595.65
545.667	1480.76
545.872	1507.5
546.076	1506.34
546.281	1515.44
546.485	1519.7
546.689	1519.51
546.894	1546.25
547.098	1519.32
547.302	1433.49
547.507	1511.57
547.711	1549.54
547.915	1598.37
548.119	1473.21
548.324	1489.09
548.528	1564.27
548.732	1539.85
548.936	1562.14
549.141	1546.05
549.345	1490.06
549.549	1561.36
549.753	1540.24
549.957	1608.25
550.161	1588.87
550.366	1583.06
550.57	1537.53
550.774	1540.24
550.978	1551.09
551.182	1563.69
551.386	1523.58
551.59	1540.82
551.794	1512.92
551.998	1602.63
552.202	1538.11
552.406	1534.43
552.61	1579.19
552.814	1548.57
553.018	1604.76
553.222	1540.05
553.426	1539.08
553.63	1614.83
553.833	1562.33
554.037	1523
554.241	1563.3
554.445	1547.8
554.649	1525.71
554.853	1522.42
555.056	1577.83
555.26	1609.99
555.464	1566.2
555.668	1568.92
555.871	1605.92
556.075	1580.54
556.279	1537.34
556.483	1517.57
556.686	1570.27
556.89	1558.84
557.094	1549.54
557.297	1498.97
557.501	1567.37
557.704	1492
557.908	1523.97
558.112	1515.64
558.315	1570.47
558.519	1556.13
558.722	1518.35
558.926	1490.26
559.129	1416.05
559.333	1445.31
559.536	1453.44
559.74	1429.03
559.943	1442.01
560.147	1409.46
560.35	1491.42
560.553	1440.46
560.757	1423.22
560.96	1523.39
561.164	1422.83
561.367	1519.32
561.57	1475.14
561.774	1476.5
561.977	1444.72
562.18	1441.43
562.384	1539.08
562.587	1430.19
562.79	1469.33
562.993	1455.19
563.197	1490.45
563.4	1533.07
563.603	1485.99
563.806	1578.22
564.009	1442.01
564.212	1468.94
564.416	1440.27
564.619	1454.99
564.822	1389.7
565.025	1467.2
565.228	1431.74
565.431	1444.53
565.634	1338.74
565.837	1410.63
566.04	1376.72
566.243	1386.02
566.446	1289.92
566.649	1421.09
566.852	1320.92
567.055	1344.94
567.258	1371.49
567.461	1434.84
567.664	1409.66
567.867	1295.73
568.07	1352.69
568.273	1364.32
568.475	1415.28
568.678	1352.89
568.881	1309.49
569.084	1336.42
569.287	1231.02
569.489	1293.8
569.692	1353.66
569.895	1336.42
570.098	1286.43
570.3	1274.42
570.503	1201.38
570.706	1232.77
570.909	1265.51
571.111	1208.16
571.314	1183.55
571.516	1221.92
571.719	1223.08
571.922	1260.28
572.124	1250.2
572.327	1251.95
572.529	1185.1
572.732	1196.34
572.935	1221.33
573.137	1269.77
573.34	1215.13
573.542	1261.63
573.745	1253.88
573.947	1253.11
574.15	1229.08
574.352	1214.94
574.554	1287.79
574.757	1153.52
574.959	1183.75
575.162	1186.46
575.364	1210.29
575.566	1284.5
575.769	1192.08
575.971	1193.05
576.173	1107.41
576.376	1163.79
576.578	1219.59
576.78	1213.97
576.982	1102.18
577.185	1149.84
577.387	1105.28
577.589	1127.17
577.791	1162.05
577.993	1183.94
578.196	1145.97
578.398	1162.24
578.6	1198.28
578.802	1074.86
579.004	1129.5
579.206	1097.14
579.408	1157.4
579.61	1156.62
579.812	1181.03
580.014	1118.07
580.216	1155.46
580.418	1152.36
580.62	1125.82
580.822	1094.43
581.024	1103.54
581.226	1180.45
581.428	1151.78
581.63	1233.93
581.832	1110.12
582.034	1193.43
582.236	1145
582.438	1168.83
582.64	1207.77
582.841	1208.93
583.043	1237.42
583.245	1151.2
583.447	1183.75
583.649	1137.44
583.85	1156.43
584.052	1183.55
584.254	1120.2
584.456	1186.85
584.657	1142.09
584.859	1131.24
585.061	1131.63
585.262	1093.46
585.464	1118.45
585.666	1157.2
585.867	1120.78
586.069	1175.22
586.27	1163.21
586.472	1156.24
586.674	1141.9
586.875	1122.91
587.077	1124.27
587.278	1122.72
587.48	1129.69
587.681	1179.29
587.883	1132.02
588.084	1045.22
588.285	1095.4
588.487	1098.11
588.688	1094.24
588.89	993.1
589.091	1022.36
589.292	985.35
589.494	992.71
589.695	976.44
589.896	907.66
590.098	954.16
590.299	1011.7
590.5	954.35
590.702	968.69
590.903	974.11
591.104	1046.77
591.305	1024.29
591.507	1089.97
591.708	1058.59
591.909	1042.31
592.11	1084.74
592.311	1073.5
592.512	1033.98
592.714	992.71
592.915	974.11
593.116	1019.06
593.317	1014.99
593.518	1027.2
593.719	1023.91
593.92	1066.14
594.121	1096.17
594.322	1041.92
594.523	1051.61
594.724	970.82
594.925	1018.67
595.126	1029.52
595.327	1006.47
595.528	1051.22
595.729	1045.8
595.929	1003.76
596.13	1020.22
596.331	1030.69
596.532	1022.16
596.733	1078.74
596.934	1088.42
597.135	1065.17
597.335	1070.21
597.536	1026.04
597.737	1048.51
597.938	984.77
598.138	1055.49
598.339	1030.11
598.54	1027.78
598.74	1015.57
598.941	1045.8
599.142	1078.35
599.342	1066.53
599.543	1003.37
599.744	1048.32
599.944	1056.84
600.145	1027.78
600.345	1044.83
600.546	1083.58
600.746	1128.53
600.947	1099.27
601.147	1046.38
601.348	1059.94
601.548	1014.22
601.749	1037.08
601.949	1006.08
602.15	1007.63
602.35	1000.46
602.551	1052.58
602.751	1033.79
602.951	1029.33
603.152	960.74
603.352	1063.24
603.552	1012.86
603.753	1056.26
603.953	995.04
604.153	1047.74
604.354	1016.54
604.554	1028.94
604.754	1058.78
604.954	987.48
605.155	1069.24
605.355	991.16
605.555	1064.59
605.755	1059.17
605.955	1044.25
606.155	1071.18
606.356	1022.74
606.556	1064.59
606.756	1055.87
606.956	965.78
607.156	1074.86
607.356	1016.74
607.556	1049.87
607.756	1035.53
607.956	1053.94
608.156	1051.61
608.356	1006.47
608.556	1078.54
608.756	1013.25
608.956	984.57
609.156	1002.79
609.356	986.32
609.556	969.27
609.755	975.66
609.955	966.17
610.155	1006.47
610.355	983.22
610.555	966.17
610.755	1003.76
610.954	929.16
611.154	1001.24
611.354	1009.57
611.554	962.88
611.753	980.12
611.953	941.76
612.153	1009.37
612.352	1001.04
612.552	927.61
612.752	897.97
612.951	963.65
613.151	996.78
613.351	892.74
613.55	957.84
613.75	977.21
613.949	961.33
614.149	956.87
614.348	935.56
614.548	918.12
614.747	884.21
614.947	936.72
615.146	868.13
615.346	955.9
615.545	936.14
615.745	946.79
615.944	931.68
616.144	938.08
616.343	962.29
616.542	911.14
616.742	918.51
616.941	921.41
617.14	867.94
617.34	897.39
617.539	924.13
617.738	885.76
617.938	960.36
618.137	924.9
618.336	885.57
618.535	953.96
618.734	933.43
618.934	936.91
619.133	931.49
619.332	950.28
619.531	877.82
619.73	911.53
619.929	970.63
620.128	947.18
620.328	955.9
620.527	878.21
620.726	913.47
620.925	947.57
621.124	902.81
621.323	929.55
621.522	884.6
621.721	850.89
621.92	848.37
622.119	934.78
622.318	831.13
622.517	853.41
622.715	908.24
622.914	836.16
623.113	881.31
623.312	827.64
623.511	873.95
623.71	884.6
623.909	859.03
624.107	901.65
624.306	828.41
624.505	841.01
624.704	860.96
624.902	853.6
625.101	914.63
625.3	852.44
625.499	851.28
625.697	851.66
625.896	841.98
626.095	848.76
626.293	800.9
626.492	815.24
626.69	849.92
626.889	833.65
627.088	893.9
627.286	805.75
627.485	801.87
627.683	777.85
627.882	811.36
628.08	747.43
628.279	807.3
628.477	851.28
628.676	757.31
628.874	829.96
629.073	764.67
629.271	753.05
629.469	815.05
629.668	796.45
629.866	793.73
630.065	776.1
630.263	791.41
630.461	743.94
630.66	819.7
630.858	820.47
631.056	839.46
631.254	798.58
631.453	775.13
631.651	833.26
631.849	799.16
632.047	802.45
632.245	812.91
632.444	827.25
632.642	823.18
632.84	841.78
633.038	788.5
633.236	766.03
633.434	786.57
633.632	775.13
633.83	766.03
634.028	853.8
634.227	819.31
634.425	870.65
634.623	820.86
634.821	807.49
635.019	833.84
635.216	801.1
635.414	843.14
635.612	812.14
635.81	805.75
636.008	872.01
636.206	795.48
636.404	864.45
636.602	791.22
636.8	806.72
636.997	831.13
637.195	819.11
637.393	814.27
637.591	860.58
637.789	817.18
637.986	803.62
638.184	816.21
638.382	869.88
638.58	847.6
638.777	876.27
638.975	823.18
639.173	822.21
639.37	822.41
639.568	847.98
639.765	855.73
639.963	813.11
640.161	853.41
640.358	837.71
640.556	779.4
640.753	763.7
640.951	781.53
641.148	801.1
641.346	781.33
641.543	799.16
641.741	802.45
641.938	752.27
642.136	785.98
642.333	785.4
642.531	847.01
642.728	850.7
642.925	810.59
643.123	781.33
643.32	819.89
643.517	766.42
643.715	792.57
643.912	750.33
644.109	791.22
644.306	773.2
644.504	758.86
644.701	799.74
644.898	768.93
645.095	764.09
645.293	816.98
645.49	800.71
645.687	771.07
645.884	814.85
646.081	713.33
646.278	717.01
646.475	741.42
646.672	751.88
646.87	764.09
647.067	744.91
647.264	749.95
647.461	734.64
647.658	688.14
647.855	737.16
648.052	712.75
648.249	642.8
648.446	702.29
648.642	694.15
648.839	711.2
649.036	709.65
649.233	664.31
649.43	685.82
649.627	646.68
649.824	694.92
650.021	677.1
650.217	688.92
650.414	695.12
650.611	734.25
650.808	731.54
651.004	689.69
651.201	703.64
651.398	801.87
651.595	731.35
651.791	705.39
651.988	735.03
652.185	694.54
652.381	729.6
652.578	672.45
652.775	702.67
652.971	691.05
653.168	720.69
653.364	729.02
653.561	660.82
653.757	703.64
653.954	683.1
654.15	682.14
654.347	724.18
654.543	697.64
654.74	628.08
654.936	638.54
655.133	684.85
655.329	686.4
655.525	657.72
655.722	687.37
655.918	636.6
656.115	653.65
656.311	600.18
656.507	601.54
656.704	557.56
656.9	572.67
657.096	580.22
657.292	572.67
657.489	671.09
657.685	639.51
657.881	613.94
658.077	628.66
658.273	625.37
658.47	686.79
658.666	662.76
658.862	659.85
659.058	650.55
659.254	694.54
659.45	653.46
659.646	678.45
659.842	674.58
660.038	685.04
660.234	643.97
660.43	635.44
660.626	717.01
660.822	698.6
661.018	681.75
661.214	662.76
661.41	634.09
661.606	694.54
661.802	721.27
661.998	667.41
662.194	623.04
662.39	713.72
662.586	682.33
662.781	703.84
662.977	678.26
663.173	689.89
663.369	680.39
663.564	677.49
663.76	680.78
663.956	658.89
664.152	706.74
664.347	610.64
664.543	653.85
664.739	656.95
664.934	600.18
665.13	607.35
665.326	680.39
665.521	687.17
665.717	626.92
665.912	614.32
666.108	571.31
666.304	624.4
666.499	638.93
666.695	600.96
666.89	642.03
667.086	643.97
667.281	667.6
667.477	666.83
667.672	645.9
667.867	629.44
668.063	650.55
668.258	587.78
668.454	599.79
668.649	694.54
668.844	626.34
669.04	659.08
669.235	610.84
669.43	598.05
669.626	574.99
669.821	638.15
670.016	586.23
670.211	629.24
670.407	562.79
670.602	616.84
670.797	616.07
670.992	612.58
671.187	591.66
671.382	656.95
671.578	608.9
671.773	604.64
671.968	558.14
672.163	604.83
672.358	623.62
672.553	564.34
672.748	619.56
672.943	651.33
673.138	600.57
673.333	617.42
673.528	556.59
673.723	620.52
673.918	591.85
674.113	560.66
674.308	651.72
674.503	629.05
674.698	614.52
674.892	610.84
675.087	627.11
675.282	623.43
675.477	576.74
675.672	614.52
675.867	604.44
676.061	578.09
676.256	560.07
676.451	571.51
676.646	589.14
676.84	557.36
677.035	551.16
677.23	545.54
677.424	603.28
677.619	619.56
677.814	610.64
678.008	634.67
678.203	537.6
678.397	564.14
678.592	585.84
678.787	623.62
678.981	573.25
679.176	570.73
679.37	585.65
679.565	559.69
679.759	575.19
679.954	597.86
680.148	617.81
680.342	616.46
680.537	608.32
680.731	593.4
680.926	611.81
681.12	629.44
681.314	545.93
681.509	559.11
681.703	568.41
681.897	603.28
682.092	589.14
682.286	547.67
682.48	628.86
682.674	616.65
682.869	589.52
683.063	567.44
683.257	652.49
683.451	528.3
683.645	605.02
683.839	580.22
684.034	562.21
684.228	587.39
684.422	530.24
684.616	554.07
684.81	603.86
685.004	578.29
685.198	586.42
685.392	594.37
685.586	579.26
685.78	603.09
685.974	602.12
686.168	570.15
686.362	633.5
686.556	531.59
686.75	494.98
686.944	493.04
687.138	515.13
687.331	439.37
687.525	435.11
687.719	400.81
687.913	460.49
688.107	447.51
688.301	440.15
688.494	480.06
688.688	438.01
688.882	425.61
689.076	433.17
689.269	457.78
689.463	533.92
689.657	452.93
689.85	464.17
690.044	486.45
690.238	443.83
690.431	459.13
690.625	488.97
690.818	509.7
691.012	513.96
691.205	564.53
691.399	483.93
691.593	523.46
691.786	558.33
691.98	552.32
692.173	618.01
692.366	547.67
692.56	573.83
692.753	607.93
692.947	574.22
693.14	616.84
693.333	603.09
693.527	529.46
693.72	593.59
693.914	587.59
694.107	574.22
694.3	619.94
694.493	567.63
694.687	632.92
694.88	587.39
695.073	655.4
695.266	659.08
695.46	608.12
695.653	661.79
695.846	657.92
696.039	587.97
696.232	612.58
696.425	670.51
696.618	684.65
696.812	683.88
697.005	736
697.198	763.7
697.391	732.51
697.584	739.68
697.777	762.93
697.97	752.66
698.163	770.48
698.356	754.02
698.549	804.58
698.742	779.98
698.935	779.98
699.127	800.71
699.32	752.08
699.513	747.04
699.706	801.29
699.899	814.85
700.092	751.88
700.285	813.5
700.477	759.63
700.67	801.68
700.863	846.24
701.056	899.13
701.248	845.66
701.441	857.28
701.634	851.28
701.826	929.16
702.019	846.82
702.212	912.69
702.404	879.95
702.597	865.81
702.79	913.08
702.982	952.8
703.175	941.76
703.367	943.31
703.56	976.24
703.752	1012.28
703.945	999.69
704.137	1010.34
704.33	1041.15
704.522	1051.61
704.715	1043.86
704.907	1031.46
705.1	1087.65
705.292	1128.14
705.484	1064.79
705.677	1147.32
705.869	1101.21
706.061	1164.76
706.254	1210.68
706.446	1155.46
706.638	1140.15
706.831	1209.13
707.023	1194.02
707.215	1276.16
707.407	1228.5
707.599	1259.5
707.792	1281.01
707.984	1275.78
708.176	1284.11
708.368	1255.24
708.56	1283.33
708.752	1341.65
708.944	1304.26
709.136	1368
709.329	1330.8
709.521	1443.37
709.713	1408.69
709.905	1388.93
710.097	1440.66
710.289	1421.47
710.481	1426.71
710.672	1447.44
710.864	1439.88
711.056	1504.4
711.248	1475.14
711.44	1545.86
711.632	1495.87
711.824	1531.52
712.016	1566.2
712.207	1545.86
712.399	1563.49
712.591	1645.64
712.783	1581.7
712.975	1619.29
713.166	1596.04
713.358	1584.8
713.55	1672.57
713.741	1669.86
713.933	1622.58
714.125	1658.62
714.316	1662.5
714.508	1720.62
714.7	1713.84
714.891	1711.51
715.083	1766.15
715.274	1687.49
715.466	1746
715.657	1768.09
715.849	1712.1
716.04	1744.06
716.232	1650.68
716.423	1772.54
716.615	1650.29
716.806	1644.67
716.998	1615.42
717.189	1555.94
717.381	1519.51
717.572	1480.37
717.763	1515.05
717.955	1482.12
718.146	1457.32
718.337	1427.29
718.528	1368.39
718.72	1347.08
718.911	1429.81
719.102	1372.46
719.293	1400.36
719.485	1395.13
719.676	1370.33
719.867	1365.68
720.058	1336.42
720.249	1365.29
720.44	1400.16
720.632	1470.69
720.823	1491.22
721.014	1606.12
721.205	1565.82
721.396	1668.89
721.587	1774.09
721.778	1830.48
721.969	1826.99
722.16	1884.34
722.351	1899.06
722.542	1962.61
722.733	2006.01
722.924	1918.05
723.115	1974.24
723.305	1959.9
723.496	1947.5
723.687	1890.92
723.878	1843.26
724.069	1865.74
724.26	1919.99
724.45	1858.18
724.641	1825.24
724.832	1843.26
725.023	1875.23
725.213	1842.1
725.404	1821.18
725.595	1829.7
725.785	1868.45
725.976	1927.93
726.167	1896.93
726.357	1880.46
726.548	2013.95
726.739	1911.66
726.929	1978.3
727.12	2027.13
727.31	2045.34
727.501	1969.78
727.691	1975.59
727.882	2005.04
728.072	2013.57
728.263	2052.7
728.453	2113.15
728.644	2098.23
728.834	2070.72
729.024	2086.42
729.215	2053.48
729.405	2111.8
729.596	2170.5
729.786	2203.25
729.976	2214.29
730.167	2243.16
730.357	2164.5
730.547	2173.21
730.737	2238.31
730.928	2270.48
731.118	2300.89
731.308	2239.09
731.498	2296.05
731.688	2384.79
731.879	2362.31
732.069	2380.14
732.259	2418.89
732.449	2466.16
732.639	2525.83
732.829	2554.32
733.019	2595
733.209	2669.59
733.399	2692.65
733.589	2731.21
733.779	2754.84
733.969	2744.19
734.159	2863.15
734.349	2880.97
734.539	2938.52
734.729	2881.55
734.919	2962.35
735.109	2988.7
735.299	2916.62
735.488	3000.9
735.678	2964.87
735.868	2967
736.058	2955.95
736.248	2966.8
736.437	2929.22
736.627	2913.33
736.817	3031.51
737.007	3014.27
737.196	3080.92
737.386	3025.7
737.576	2981.53
737.765	3116.18
737.955	3057.86
738.144	3142.34
738.334	3109.59
738.524	3054.57
738.713	3142.14
738.903	3125.48
739.092	3138.46
739.282	3140.59
739.471	3150.28
739.661	3201.82
739.85	3213.06
740.04	3198.14
740.229	3184.19
740.419	3260.91
740.608	3269.24
740.797	3272.54
740.987	3287.26
741.176	3330.47
741.365	3266.53
741.555	3258.59
741.744	3349.84
741.933	3282.22
742.123	3369.41
742.312	3353.13
742.501	3377.93
742.69	3413
742.88	3345.58
743.069	3467.83
743.258	3400.99
743.447	3431.41
743.636	3458.15
743.825	3425.79
744.014	3455.05
744.204	3440.9
744.393	3395.57
744.582	3469.96
744.771	3527.31
744.96	3476.75
745.149	3476.75
745.338	3502.32
745.527	3500.96
745.716	3438.38
745.905	3451.17
746.094	3521.11
746.283	3502.32
746.471	3484.3
746.66	3548.04
746.849	3535.06
747.038	3582.73
747.227	3513.17
747.416	3602.68
747.604	3477.71
747.793	3510.07
747.982	3562.38
748.171	3580.98
748.359	3547.46
748.548	3599.19
748.737	3519.18
748.926	3537.58
749.114	3434.7
749.303	3554.44
749.491	3522.66
749.68	3446.71
749.869	3550.37
750.057	3515.5
750.246	3451.95
750.434	3522.86
750.623	3497.86
750.811	3470.74
751	3537.39
751.188	3462.02
751.377	3508.52
751.565	3461.05
751.754	3484.11
751.942	3467.45
752.131	3537.97
752.319	3461.05
752.507	3414.55
752.696	3526.34
752.884	3544.36
753.072	3473.45
753.261	3492.44
753.449	3492.25
753.637	3411.07
753.825	3547.66
754.014	3475
754.202	3479.65
754.39	3496.7
754.578	3434.9
754.766	3448.65
754.955	3398.28
755.143	3510.65
755.331	3429.28
755.519	3456.4
755.707	3400.8
755.895	3415.91
756.083	3476.36
756.271	3375.03
756.459	3414.55
756.647	3447.88
756.835	3374.83
757.023	3409.32
757.211	3384.52
757.399	3394.79
757.587	3397.12
757.775	3334.15
757.963	3332.4
758.151	3367.28
758.339	3305.86
758.526	3298.69
758.714	3299.08
758.902	3238.05
759.09	3145.83
759.278	2921.27
759.465	2678.51
759.653	2337.51
759.841	2107.53
760.028	1802.96
760.216	1579.38
760.404	1455.38
760.591	1181.03
760.779	1005.5
760.967	867.16
761.154	713.72
761.342	755.57
761.529	752.08
761.717	825.31
761.905	763.12
762.092	873.95
762.28	841.4
762.467	773.58
762.655	722.43
762.842	757.31
763.029	772.03
763.217	752.85
763.404	785.98
763.592	799.93
763.779	754.6
763.966	814.27
764.154	853.21
764.341	902.43
764.528	935.56
764.716	990.58
764.903	1028.56
765.09	1121.55
765.277	1143.25
765.465	1290.5
765.652	1369.55
765.839	1430.39
766.026	1584.03
766.213	1591.78
766.4	1713.45
766.588	1917.08
766.775	1921.34
766.962	2051.15
767.149	2116.25
767.336	2213.32
767.523	2211.19
767.71	2358.05
767.897	2473.33
768.084	2524.67
768.271	2581.44
768.458	2648.48
768.645	2698.66
768.832	2705.44
769.019	2722.49
769.206	2727.33
769.392	2811.42
769.579	2945.88
769.766	2843.58
769.953	2888.92
770.14	2948.78
770.327	2881.36
770.513	2948.78
770.7	3025.9
770.887	2923.98
771.073	2989.86
771.26	3043.91
771.447	2956.15
771.634	2935.42
771.82	3055.54
772.007	2928.05
772.193	3041.59
772.38	3018.15
772.567	2978.43
772.753	2995.09
772.94	3063.68
773.126	3025.7
773.313	3052.05
773.499	3011.56
773.686	3027.83
773.872	3022.99
774.059	3032.29
774.245	2964.28
774.432	2999.93
774.618	2949.56
774.804	2981.92
774.991	2925.73
775.177	2990.05
775.363	2932.9
775.55	2966.03
775.736	2926.7
775.922	2942.39
776.109	2935.61
776.295	2973.78
776.481	2950.72
776.667	2948.2
776.853	2891.24
777.04	2880.97
777.226	2935.03
777.412	2968.74
777.598	2875.94
777.784	2917.4
777.97	2897.44
778.156	2934.83
778.342	2891.63
778.528	2869.74
778.715	2823.24
778.901	2833.7
779.087	2874
779.272	2839.51
779.458	2863.92
779.644	2848.62
779.83	2832.92
780.016	2927.86
780.202	2836.02
780.388	2832.54
780.574	2769.37
780.76	2778.67
780.946	2828.47
781.131	2819.17
781.317	2777.32
781.503	2695.56
781.689	2770.73
781.874	2858.89
782.06	2736.24
782.246	2776.54
782.432	2770.54
782.617	2780.22
782.803	2797.08
782.989	2742.64
783.174	2730.04
783.36	2740.51
783.545	2687.42
783.731	2682.19
783.916	2627.36
784.102	2689.36
784.288	2681.03
784.473	2711.83
784.659	2659.52
784.844	2697.11
785.029	2627.55
785.215	2642.28
785.4	2624.84
785.586	2681.22
785.771	2590.55
785.956	2651.96
786.142	2613.41
786.327	2590.93
786.512	2584.35
786.698	2601.98
786.883	2555.28
787.068	2576.98
787.254	2580.28
787.439	2527
787.624	2542.3
787.809	2541.92
787.994	2495.61
788.18	2577.37
788.365	2497.16
788.55	2468.49
788.735	2506.46
788.92	2505.49
789.105	2484.95
789.29	2508.2
789.475	2474.49
789.66	2454.34
789.845	2396.22
790.03	2409.97
790.215	2444.46
790.4	2467.32
790.585	2468.29
790.77	2419.08
790.955	2362.31
791.14	2405.71
791.325	2442.52
791.51	2328.6
791.695	2423.73
791.879	2387.5
792.064	2323.56
792.249	2441.17
792.434	2383.04
792.618	2397.19
792.803	2455.31
792.988	2367.16
793.173	2403.58
793.357	2438.45
793.542	2390.6
793.727	2426.64
793.911	2407.26
794.096	2415.2
794.281	2429.54
794.465	2498.13
794.65	2384.98
794.834	2466.35
795.019	2506.46
795.203	2505.88
795.388	2461.7
795.572	2475.85
795.757	2446.2
795.941	2434.77
796.126	2458.41
796.31	2361.92
796.494	2430.32
796.679	2401.06
796.863	2409.78
797.048	2476.23
797.232	2477.2
797.416	2443.1
797.601	2492.32
797.785	2488.83
797.969	2481.08
798.153	2433.03
798.338	2505.88
798.522	2500.84
798.706	2472.36
798.89	2458.02
799.074	2548.12
799.258	2497.93
799.443	2491.73
799.627	2460.74
799.811	2495.61
799.995	2467.9
800.179	2439.81
800.363	2426.83
800.547	2466.35
800.731	2492.9
800.915	2433.03
801.099	2417.14
801.283	2427.22
801.467	2421.99
801.651	2423.34
801.835	2478.95
802.019	2446.79
802.202	2470.03
802.386	2379.36
802.57	2400.29
802.754	2399.32
802.938	2404.35
803.121	2368.51
803.305	2462.29
803.489	2392.15
803.673	2417.53
803.856	2460.35
804.04	2430.7
804.224	2418.89
804.407	2412.1
804.591	2399.51
804.775	2397.19
804.958	2428.57
805.142	2506.85
805.326	2435.74
805.509	2440.39
805.693	2480.5
805.876	2480.69
806.06	2488.25
806.243	2457.44
806.427	2489.41
806.61	2521.57
806.794	2433.03
806.977	2534.94
807.16	2468.87
807.344	2487.67
807.527	2460.93
807.71	2426.44
807.894	2447.95
808.077	2512.08
808.26	2399.32
808.444	2410.94
808.627	2474.88
808.81	2419.66
808.993	2379.17
809.177	2359.99
809.36	2387.3
809.543	2348.56
809.726	2300.31
809.909	2289.46
810.092	2302.83
810.276	2287.33
810.459	2289.27
810.642	2306.51
810.825	2224.75
811.008	2240.06
811.191	2140.28
811.374	2196.08
811.557	2176.31
811.74	2225.33
811.923	2147.83
812.106	2131.75
812.289	2101.53
812.472	2103.66
812.654	2116.25
812.837	2084.28
813.02	2057.35
813.203	2007.17
813.386	1882.4
813.569	1897.32
813.751	1822.92
813.934	1870.39
814.117	1906.62
814.3	1778.16
814.482	1744.06
814.665	1716.94
814.848	1708.8
815.03	1650.1
815.213	1655.91
815.396	1638.47
815.578	1600.3
815.761	1571.63
815.943	1620.07
816.126	1576.09
816.309	1540.24
816.491	1449.76
816.674	1424.96
816.856	1480.57
817.039	1460.81
817.221	1523.19
817.403	1531.52
817.586	1468.36
817.768	1500.72
817.951	1453.25
818.133	1405.59
818.315	1454.99
818.498	1504.79
818.68	1539.08
818.862	1510.99
819.045	1555.35
819.227	1535.98
819.409	1528.23
819.591	1540.63
819.774	1526.29
819.956	1475.14
820.138	1547.22
820.32	1586.55
820.502	1636.34
820.684	1677.22
820.866	1683.03
821.048	1711.9
821.231	1726.24
821.413	1733.99
821.595	1730.89
821.777	1702.8
821.959	1696.98
822.141	1753.95
822.323	1598.95
822.505	1572.21
822.686	1530.55
822.868	1447.24
823.05	1357.34
823.232	1338.55
823.414	1259.31
823.596	1347.08
823.778	1353.28
823.96	1360.25
824.141	1346.69
824.323	1373.23
824.505	1426.12
824.687	1497.23
824.868	1573.37
825.05	1651.65
825.232	1675.09
825.413	1741.74
825.595	1674.9
825.777	1628.59
825.958	1663.85
826.14	1650.29
826.321	1677.22
826.503	1678.38
826.685	1703.76
826.866	1720.04
827.048	1713.84
827.229	1618.52
827.411	1591.2
827.592	1554.97
827.773	1519.12
827.955	1511.95
828.136	1547.41
828.318	1454.61
828.499	1540.05
828.68	1481.73
828.862	1527.45
829.043	1517.96
829.224	1506.72
829.406	1456.93
829.587	1504.79
829.768	1493.16
829.949	1509.82
830.131	1514.67
830.312	1549.54
830.493	1503.82
830.674	1476.89
830.855	1518.54
831.036	1501.49
831.218	1542.76
831.399	1565.82
831.58	1539.27
831.761	1501.88
831.942	1518.54
832.123	1515.44
832.304	1478.24
832.485	1483.67
832.666	1485.61
832.847	1548.96
833.028	1499.75
833.209	1512.34
833.389	1475.34
833.57	1459.06
833.751	1458.67
833.932	1540.63
834.113	1493.36
834.294	1475.53
834.475	1539.47
834.655	1553.42
834.836	1581.12
835.017	1543.15
835.198	1496.65
835.378	1523.77
835.559	1554.97
835.74	1539.47
835.92	1527.65
836.101	1523.58
836.281	1566.01
836.462	1566.4
836.643	1590.04
836.823	1576.67
837.004	1573.57
837.184	1609.02
837.365	1605.53
837.545	1573.76
837.726	1537.14
837.906	1646.03
838.087	1582.87
838.267	1592.17
838.448	1552.84
838.628	1568.34
838.808	1582.09
838.989	1611.15
839.169	1528.62
839.349	1616.38
839.53	1609.6
839.71	1590.62
839.89	1562.91
840.07	1655.91
840.251	1563.49
840.431	1601.66
840.611	1555.74
840.791	1523.97
840.971	1558.45
841.151	1579.96
841.332	1558.45
841.512	1572.4
841.692	1493.74
841.872	1564.65
842.052	1541.02
842.232	1567.17
842.412	1500.72
842.592	1534.04
842.772	1523.77
842.952	1595.27
843.132	1535.59
843.312	1505.37
843.492	1521.84
843.672	1583.45
843.851	1479.6
844.031	1535.98
844.211	1570.27
844.391	1488.9
844.571	1558.45
844.751	1529.97
844.93	1520.09
845.11	1508.08
845.29	1501.3
845.47	1578.41
845.649	1514.28
845.829	1564.46
846.009	1491.61
846.188	1554.97
846.368	1557.87
846.547	1525.32
846.727	1554.39
846.907	1474.95
847.086	1508.27
847.266	1563.88
847.445	1491.42
847.625	1469.33
847.804	1484.83
847.984	1456.54
848.163	1491.22
848.343	1483.47
848.522	1521.45
848.701	1488.9
848.881	1461.19
849.06	1490.06
849.239	1456.35
849.419	1490.64
849.598	1411.01
849.777	1431.16
849.957	1416.83
850.136	1361.8
850.315	1386.99
850.494	1350.56
850.674	1365.87
850.853	1402.49
851.032	1387.38
851.211	1448.02
851.39	1391.06
851.569	1341.84
851.748	1345.14
851.927	1411.01
852.107	1387.57
852.286	1350.37
852.465	1320.15
852.644	1418.38
852.823	1392.22
853.002	1415.28
853.181	1399.39
853.359	1381.18
853.538	1313.36
853.717	1371.49
853.896	1311.23
854.075	1216.1
854.254	1223.47
854.433	1156.43
854.611	1201.18
854.79	1173.87
854.969	1217.27
855.148	1260.66
855.327	1196.53
855.505	1290.7
855.684	1213.58
855.863	1259.31
856.041	1233.15
856.22	1298.06
856.399	1258.92
856.577	1335.26
856.756	1319.18
856.934	1419.73
857.113	1428.45
857.291	1324.8
857.47	1301.74
857.648	1345.14
857.827	1324.41
858.005	1352.89
858.184	1303.68
858.362	1394.16
858.541	1313.17
858.719	1327.31
858.898	1303.68
859.076	1309.3
859.254	1397.64
859.433	1293.02
859.611	1296.9
859.789	1271.9
859.967	1318.98
860.146	1395.13
860.324	1270.35
860.502	1306.97
860.68	1236.06
860.859	1260.28
861.037	1251.56
861.215	1258.92
861.393	1278.68
861.571	1258.34
861.749	1267.64
861.927	1268.03
862.105	1278.88
862.283	1252.91
862.461	1225.98
862.639	1211.45
862.817	1241.87
862.995	1268.03
863.173	1210.1
863.351	1244.2
863.529	1269.19
863.707	1305.81
863.885	1240.52
864.063	1188.78
864.241	1219.2
864.418	1262.99
864.596	1225.21
864.774	1184.33
864.952	1191.69
865.129	1247.49
865.307	1178.71
865.485	1146.94
865.663	1197.31
865.84	1128.72
866.018	1150.23
866.196	1064.59
866.373	1065.56
866.551	1041.34
866.728	991.16
866.906	1020.22
867.084	1063.24
867.261	1092.88
867.439	1102.57
867.616	1123.88
867.794	1110.9
867.971	1120.59
868.149	1117.1
868.326	1140.15
868.503	1152.55
868.681	1130.08
868.858	1107.22
869.035	1072.15
869.213	1159.72
869.39	1110.9
869.567	1186.46
869.745	1091.72
869.922	1146.16
870.099	1133.76
870.276	1175.42
870.454	1124.65
870.631	1141.12
870.808	1097.53
870.985	1129.89
871.162	1191.88
871.339	1134.92
871.517	1081.45
871.694	1102.37
871.871	1094.62
872.048	1088.81
872.225	1086.1
872.402	1110.9
872.579	1053.16
872.756	1082.03
872.933	1077.57
873.11	1095.4
873.287	1105.47
873.463	1064.98
873.64	1076.41
873.817	1084.35
873.994	1051.03
874.171	1057.62
874.348	1070.21
874.524	1029.72
874.701	1073.89
874.878	982.64
875.055	1053.74
875.231	1051.22
875.408	1042.89
875.585	1008.41
875.762	1049.87
875.938	1051.03
876.115	995.62
876.291	1016.16
876.468	1030.11
876.645	985.74
876.821	1011.89
876.998	1014.61
877.174	990.77
877.351	1025.65
877.527	982.06
877.704	1034.56
877.88	1018.09
878.057	997.36
878.233	1030.3
878.409	976.63
878.586	1008.79
878.762	977.79
878.938	993.68
879.115	952.41
879.291	985.35
879.467	921.61
879.644	964.81
879.82	968.11
879.996	951.06
880.172	926.64
880.349	954.16
880.525	1014.41
880.701	887.51
880.877	921.61
881.053	931.68
881.229	949.31
881.405	993.68
881.581	917.73
881.757	937.3
881.933	984.96
882.109	953.77
882.285	943.31
882.461	888.48
882.637	958.23
882.813	906.88
882.989	918.7
883.165	978.38
883.341	956.48
883.517	952.61
883.693	958.61
883.869	959.19
884.044	935.36
884.22	988.64
884.396	998.14
884.572	961.13
884.747	985.16
884.923	945.83
885.099	975.28
885.275	963.84
885.45	876.66
885.626	939.04
885.801	893.51
885.977	903.39
886.153	871.81
886.328	927.81
886.504	922.96
886.679	938.27
886.855	898.36
887.03	918.12
887.206	988.64
887.381	942.73
887.557	951.06
887.732	947.96
887.908	933.43
888.083	953.19
888.258	905.91
888.434	924.9
888.609	921.22
888.784	989.03
888.96	914.05
889.135	933.23
889.31	903.98
889.485	923.35
889.661	917.15
889.836	958.42
890.011	951.64
890.186	940.01
890.361	897
890.537	950.09
890.712	942.92
890.887	913.66
891.062	956.48
891.237	981.48
891.412	884.41
891.587	932.84
891.762	965.78
891.937	964.04
892.112	859.8
892.287	906.88
892.462	858.25
892.637	866.78
892.812	848.37
892.987	873.56
893.161	839.65
893.336	884.41
893.511	859.8
893.686	814.46
893.861	858.45
894.035	829.38
894.21	860.96
894.385	793.35
894.56	836.94
894.734	763.12
894.909	796.25
895.084	761.77
895.258	737.74
895.433	774.75
895.608	754.79
895.782	701.32
895.957	728.44
896.131	722.82
896.306	645.32
896.48	659.27
896.655	623.24
896.829	599.79
897.004	584.49
897.178	627.5
897.353	607.93
897.527	644.55
897.701	623.62
897.876	560.66
898.05	661.99
898.224	590.69
898.399	659.47
898.573	618.01
898.747	525.39
898.921	555.81
899.096	481.61
899.27	510.28
899.444	498.08
899.618	510.86
899.792	547.09
899.967	544.38
900.141	581.58
900.315	518.42
900.489	536.83
900.663	572.28
900.837	512.41
901.011	500.01
901.185	589.52
901.359	524.04
901.533	532.18
901.707	545.35
901.881	532.95
902.055	491.88
902.229	527.53
902.403	577.71
902.576	550.58
902.75	526.17
902.924	630.99
903.098	591.07
903.272	632.15
903.446	652.1
903.619	639.12
903.793	681.94
903.967	625.76
904.14	688.72
904.314	692.02
904.488	668.96
904.661	734.25
904.835	696.86
905.009	720.3
905.182	715.85
905.356	681.36
905.529	678.26
905.703	646.1
905.876	646.49
906.05	608.51
906.223	594.37
906.397	565.31
906.57	538.96
906.744	556.78
906.917	511.44
907.09	543.99
907.264	542.44
907.437	499.24
907.61	463.39
907.784	508.93
907.957	505.05
908.13	493.04
908.304	524.62
908.477	473.08
908.65	481.22
908.823	444.41
908.996	519.58
909.17	455.84
909.343	452.93
909.516	467.46
909.689	481.41
909.862	465.14
910.035	481.61
910.208	432.01
910.381	435.11
910.554	507.38
910.727	465.14
910.9	473.28
911.073	451.19
911.246	503.31
911.419	525.2
911.592	519.97
911.765	460.49
911.938	416.9
912.11	467.66
912.283	443.63
912.456	508.73
912.629	492.26
912.802	437.63
912.974	392.1
913.147	366.72
913.32	318.86
913.493	386.48
913.665	392.1
913.838	412.25
914.01	380.47
914.183	416.51
914.356	405.66
914.528	436.27
914.701	475.41
914.873	448.48
915.046	381.63
915.218	361.68
915.391	332.03
915.563	323.9
915.736	379.7
915.908	405.46
916.081	409.92
916.253	376.4
916.425	414.18
916.598	407.6
916.77	397.33
916.942	363.62
917.115	338.23
917.287	382.02
917.459	363.81
917.632	305.88
917.804	301.03
917.976	379.11
918.148	379.89
918.32	368.65
918.493	402.75
918.665	439.37
918.837	406.63
919.009	450.61
919.181	447.9
919.353	431.81
919.525	435.88
919.697	423.1
919.869	427.16
920.041	472.69
920.213	537.02
920.385	463.2
920.557	429.88
920.729	482.77
920.901	433.75
921.073	405.27
921.244	413.41
921.416	443.63
921.588	423.68
921.76	423.1
921.932	463.98
922.103	450.22
922.275	428.71
922.447	425.81
922.619	396.94
922.79	418.06
922.962	393.06
923.134	442.28
923.305	362.45
923.477	343.47
923.648	356.25
923.82	406.63
923.991	326.03
924.163	313.24
924.335	358.77
924.506	338.04
924.677	403.91
924.849	340.17
925.02	396.94
925.192	369.62
925.363	395.97
925.535	373.3
925.706	310.72
925.877	396.36
926.049	337.07
926.22	374.66
926.391	364.97
926.562	382.02
926.734	306.85
926.905	386.48
927.076	307.62
927.247	334.55
927.419	289.6
927.59	292.32
927.761	312.47
927.932	283.4
928.103	306.07
928.274	267.9
928.445	246.59
928.616	242.72
928.787	256.67
928.958	270.81
929.129	244.27
929.3	260.54
929.471	215.59
929.642	156.31
929.813	139.45
929.984	231.48
930.155	135.77
930.326	192.34
930.496	157.86
930.667	116.97
930.838	145.84
931.009	155.34
931.18	145.46
931.35	133.25
931.521	128.02
931.692	72.99
931.863	53.43
932.033	117.56
932.204	98.18
932.374	118.91
932.545	57.49
932.716	139.84
932.886	105.54
933.057	42.38
933.227	25.14
933.398	119.49
933.568	44.51
933.739	47.03
933.909	20.68
934.08	76.68
934.25	6.35
934.421	31.73
934.591	54.39
934.761	41.03
934.932	-21.75
935.102	26.3
935.272	22.04
935.443	17.2
935.613	47.03
935.783	47.03
935.953	-2.95
936.123	170.26
936.294	21.84
936.464	39.86
936.634	26.69
936.804	-9.93
936.974	1.7
937.144	55.94
937.314	41.8
937.484	16.61
937.655	21.46
937.825	66.02
937.995	3.25
938.165	58.85
938.334	34.05
938.504	63.11
938.674	16.42
938.844	30.18
939.014	117.94
939.184	109.61
939.354	142.16
939.524	128.6
939.694	91.21
939.863	55.94
940.033	135.77
940.203	106.9
940.373	93.34
940.542	115.62
940.712	89.46
940.882	80.94
941.051	135.19
941.221	108.06
941.391	118.72
941.56	64.66
941.73	72.41
941.899	176.65
942.069	58.85
942.238	75.13
942.408	75.9
942.577	122.59
942.747	50.33
942.916	10.41
943.086	46.64
943.255	92.56
943.425	82.88
943.594	39.09
943.763	7.7
943.933	28.63
944.102	-26.79
944.271	97.41
944.441	68.73
944.61	55.17
944.779	64.28
944.948	131.89
945.117	23.2
945.287	39.28
945.456	3.63
945.625	33.66
945.794	68.73
945.963	44.32
946.132	64.86
946.301	80.16
946.47	83.07
946.639	14.1
946.808	47.81
946.977	89.66
947.146	111.36
947.315	46.84
947.484	86.17
947.653	57.49
947.822	34.24
947.991	64.66
948.16	123.56
948.329	89.08
948.498	32.5
948.666	63.31
948.835	77.06
949.004	12.35
949.173	6.35
949.341	62.92
949.51	55.56
949.679	94.31
949.847	84.04
950.016	153.01
950.185	116.78
950.353	48.19
950.522	51.49
950.69	93.92
950.859	41.99
951.028	84.04
951.196	90.43
951.365	33.47
951.533	32.5
951.701	97.6
951.87	94.89
952.038	20.1
952.207	68.73
952.375	114.65
952.543	58.27
952.712	66.79
952.88	52.46
953.048	93.34
953.217	51.1
953.385	53.23
953.553	92.95
953.721	42.96
953.89	56.72
954.058	42.19
954.226	4.41
954.394	71.06
954.562	19.91
954.73	58.27
954.898	50.13
955.067	78.42
955.235	33.86
955.403	108.06
955.571	110.77
955.739	76.09
955.907	46.06
956.075	49.36
956.243	18.94
956.41	93.14
956.578	8.48
956.746	11.96
956.914	55.75
957.082	97.79
957.25	83.46
957.418	39.28
957.585	76.87
957.753	103.22
957.921	14.68
958.089	60.59
958.256	75.13
958.424	86.94
958.592	73.38
958.759	66.79
958.927	70.28
959.095	45.29
959.262	42.96
959.43	86.17
959.597	55.56
959.765	53.81
959.932	40.25
960.1	86.75
960.267	66.6
960.435	60.59
960.602	67.76
960.77	52.26
960.937	21.65
961.104	62.34
961.272	35.79
961.439	42.77
961.606	82.49
961.774	86.17
961.941	47.61
962.108	87.91
962.275	69.51
962.443	89.46
962.61	103.99
962.777	112.32
962.944	99.93
963.111	69.89
963.278	109.61
963.446	82.68
963.613	72.03
963.78	86.75
963.947	103.61
964.114	77.84
964.281	136.16
964.448	93.14
964.615	70.48
964.782	97.79
964.949	117.75
965.116	118.14
965.282	112.52
965.449	76.87
965.616	72.03
965.783	105.93
965.95	100.51
966.117	64.47
966.283	64.66
966.45	86.75
966.617	65.24
966.784	103.22
966.95	88.88
967.117	119.3
967.284	68.15
967.45	78.03
967.617	132.67
967.784	100.89
967.95	139.45
968.117	77.26
968.283	139.26
968.45	174.91
968.616	96.44
968.783	139.26
968.949	115.62
969.116	132.86
969.282	97.41
969.449	97.41
969.615	119.88
969.781	51.49
969.948	79
970.114	76.68
970.28	130.34
970.447	89.85
970.613	117.75
970.779	68.54
970.945	115.42
971.112	112.91
971.278	109.22
971.444	103.03
971.61	145.65
971.776	82.29
971.942	141.19
972.108	109.22
972.275	93.73
972.441	121.82
972.607	166.77
972.773	66.02
972.939	105.54
973.105	94.69
973.271	50.33
973.437	90.24
973.602	66.21
973.768	112.32
973.934	94.5
974.1	107.87
974.266	48.58
974.432	77.84
974.598	83.07
974.763	99.54
974.929	79.58
975.095	137.71
975.261	44.13
975.426	78.23
975.592	68.54
975.758	150.88
975.923	55.36
976.089	56.72
976.255	129.76
976.42	70.86
976.586	93.92
976.751	95.86
976.917	161.15
977.082	105.74
977.248	53.81
977.413	40.44
977.579	67.96
977.744	100.31
977.91	63.89
978.075	40.44
978.24	86.94
978.406	83.65
978.571	65.05
978.736	72.99
978.902	111.36
979.067	65.05
979.232	11.96
979.397	104.19
979.563	111.36
979.728	61.56
979.893	95.66
980.058	65.24
980.223	93.92
980.388	97.6
980.554	84.23
980.719	72.41
980.884	80.16
981.049	117.75
981.214	76.29
981.379	78.42
981.544	59.63
981.709	84.23
981.874	71.25
982.039	80.74
982.204	113.1
982.368	101.67
982.533	50.33
982.698	122.21
982.863	112.71
983.028	84.81
983.193	88.69
983.357	85.78
983.522	93.14
983.687	82.68
983.852	72.8
984.016	89.27
984.181	94.69
984.346	91.01
984.51	85.01
984.675	73.96
984.839	78.81
985.004	95.66
985.168	119.49
985.333	104.96
985.498	81.71
985.662	111.55
985.827	98.76
985.991	89.85
986.155	68.15
986.32	109.22
986.484	159.6
986.649	83.46
986.813	6.54
986.977	65.83
987.142	91.4
987.306	48.78
987.47	52.26
987.634	79.97
987.799	74.16
987.963	91.59
988.127	91.21
988.291	120.46
988.455	87.91
988.62	62.34
988.784	92.56
988.948	73.19
989.112	59.82
989.276	100.31
989.44	86.17
989.604	42.38
989.768	67.96
989.932	145.07
990.096	54.39
990.26	46.45
990.424	30.76
990.588	74.54
990.752	134.41
990.915	107.09
991.079	71.06
991.243	44.13
991.407	96.83
991.571	70.48
991.734	78.03
991.898	94.11
992.062	135.96
992.226	83.65
992.389	49.74
992.553	23.01
992.717	41.41
992.88	56.33
993.044	65.05
993.207	63.69
993.371	89.85
993.535	115.23
993.698	72.22
993.862	101.86
994.025	85.39
994.189	98.96
994.352	80.36
994.515	92.76
994.679	121.43
994.842	46.64
995.006	85.2
995.169	51.1
995.332	44.9
995.496	115.23
995.659	19.13
995.822	75.9
995.985	51.49
996.149	88.3
996.312	59.43
996.475	130.34
996.638	49.55
996.801	96.83
996.964	128.6
997.128	72.41
997.291	77.26
997.454	78.42
997.617	26.49
997.78	128.79
997.943	36.76
998.106	79.19
998.269	24.17
998.432	58.27
998.595	76.68
998.758	32.11
998.92	45.68
999.083	-4.31
999.246	58.08
999.409	16.42
999.572	15.06
999.735	48.39
999.897	65.05
1000.06	42.96
1000.223	32.31
1000.386	78.61
1000.548	64.28
1000.711	76.87
1000.874	56.14
1001.036	17.39
1001.199	82.49
1001.361	24.94
1001.524	41.41
1001.687	89.27
1001.849	29.59
1002.012	55.75
1002.174	64.66
1002.337	62.73
1002.499	46.45
1002.661	87.33
1002.824	19.52
1002.986	49.16
1003.149	42.77
1003.311	33.47
1003.473	101.09
1003.636	36.18
1003.798	53.81
1003.96	62.14
1004.123	78.03
1004.285	30.76
1004.447	41.61
1004.609	74.16
1004.771	118.91
1004.933	11.19
1005.096	10.61
1005.258	4.6
1005.42	38.89
1005.582	92.76
1005.744	32.5
1005.906	27.85
1006.068	34.24
1006.23	22.43
1006.392	-10.12
1006.554	20.68
1006.716	92.76
1006.878	60.59
1007.04	-2.18
1007.202	36.57
1007.363	43.35
1007.525	52.65
1007.687	60.59
1007.849	89.85
1008.011	2.08
1008.172	1.7
1008.334	9.64
1008.496	62.34
1008.658	14.1
1008.819	35.02
1008.981	-11.67
1009.143	8.28
1009.304	17.97
1009.466	75.13
1009.627	98.96
1009.789	118.72
1009.95	54.39
1010.112	37.34
1010.273	46.06
1010.435	37.15
1010.596	43.54
1010.758	50.13
1010.919	22.04
1011.081	2.66
1011.242	17.2
1011.403	61.76
1011.565	22.04
1011.726	54.39
1011.887	-11.87
1012.049	17.78
1012.21	69.89
1012.371	73.96
1012.532	-40.93
1012.693	31.53
1012.855	2.86
1013.016	37.73
1013.177	48.58
1013.338	26.88
1013.499	109.61
1013.66	43.16
1013.821	39.48
1013.982	37.54
1014.143	24.17
1014.304	22.04
1014.465	54.78
1014.626	50.71
1014.787	26.11
1014.948	103.8
1015.109	-29.3
1015.27	58.66
1015.431	17.97
1015.592	14.48
1015.752	90.82
1015.913	41.8
1016.074	58.46
1016.235	1.7
1016.395	36.76
1016.556	6.73
1016.717	10.22
1016.877	63.69
1017.038	-10.12
1017.199	33.86
1017.359	45.29
1017.52	17.2
1017.681	-3.34
1017.841	38.89
1018.002	8.86
1018.162	-11.67
1018.323	83.65
1018.483	13.51
1018.644	8.86
1018.804	-9.15
1018.964	2.28
1019.125	-1.4
1019.285	34.63
1019.446	-9.35
1019.606	9.25
1019.766	-28.53
1019.926	43.16
1020.087	4.6
1020.247	-15.74
1020.407	35.21
1020.567	44.9
1020.728	17.58
1020.888	-12.45
1021.048	6.54
1021.208	4.41
1021.368	-4.7
1021.528	79.78
1021.688	55.75
1021.848	43.35
1022.008	32.31
1022.168	11.77
1022.328	25.14
1022.488	45.87
1022.648	3.05
1022.808	44.32
1022.968	49.74
1023.128	0.34
1023.288	0.15
1023.448	28.63
1023.608	46.26
1023.767	41.99
1023.927	-0.82
1024.087	12.93
1024.247	-16.9
1024.406	-7.6
1024.566	-8.77
1024.726	-6.44
1024.885	34.63
1025.045	39.67
1025.205	-18.65
1025.364	15.65
1025.524	23.59
1025.683	-0.82
1025.843	55.94
1026.003	11.38
1026.162	37.54
1026.321	39.09
1026.481	11.38
1026.64	38.89
1026.8	16.81
1026.959	23.2
1027.119	14.29
1027.278	-4.12
1027.437	-15.74
1027.597	13.71
1027.756	33.86
1027.915	32.11
1028.074	16.81
1028.234	-10.7
1028.393	-2.57
1028.552	9.06
1028.711	-68.25
1028.87	33.86
1029.03	-10.9
1029.189	23.78
1029.348	-50.23
1029.507	-4.7
1029.666	13.32
1029.825	-22.91
1029.984	-21.94
1030.143	22.81
1030.302	4.99
1030.461	-50.42
1030.62	-6.64
1030.779	32.31
1030.938	-5.86
1031.097	-24.85
1031.255	54.78
1031.414	67.38
1031.573	48.19
1031.732	-38.22
1031.891	-19.04
1032.049	41.22
1032.208	24.75
1032.367	-12.25
1032.525	8.86
1032.684	10.03
1032.843	13.32
1033.001	-20
1033.16	135.38
1033.319	17
1033.477	33.66
1033.636	6.93
1033.794	-36.28
1033.953	46.06
1034.111	26.11
1034.27	15.06
1034.428	9.83
1034.587	-8.77
1034.745	5.96
1034.903	12.93
1035.062	43.35
1035.22	-9.93
1035.378	35.41
1035.537	4.02
1035.695	18.16
1035.853	-8.96
1036.011	56.53
1036.17	32.31
1036.328	-41.32
1036.486	11.58
1036.644	-4.7
1036.802	-64.37
1036.96	0.73
1037.119	5.38
1037.277	6.54
1037.435	-6.83
1037.593	-27.56
1037.751	-0.05
1037.909	17.39
1038.067	17.39
