Data from oakcork_FLMT105791__200__17-32-13-056.txt Node

Date: Mon Mar 20 17:32:13 GMT 2023
User: antho
Spectrometer: FLMT10579
Trigger mode: 0
Integration Time (sec): 1.000000E-1
Scans to average: 10
Electric dark correction enabled: true
Nonlinearity correction enabled: false
Boxcar width: 0
XAxis mode: Wavelengths
Number of Pixels in Spectrum: 3648
>>>>>Begin Spectral Data<<<<<
345.248	-163.31
345.464	-163.31
345.681	-163.31
345.898	-147.23
346.114	-165.06
346.331	2.92
346.548	8.54
346.764	-16.26
346.981	-6.96
347.197	-38.54
347.414	6.22
347.631	-21.49
347.847	56.4
348.064	-29.43
348.28	54.46
348.497	-28.66
348.713	12.8
348.93	42.25
349.146	5.44
349.363	16.48
349.579	17.07
349.796	-11.41
350.012	-11.61
350.229	10.28
350.445	0.79
350.661	-19.75
350.878	-2.5
351.094	25.59
351.311	16.29
351.527	19
351.743	-14.13
351.96	42.83
352.176	14.35
352.392	36.63
352.609	23.65
352.825	-3.08
353.041	-6.57
353.257	-7.15
353.474	1.95
353.69	7.57
353.906	23.65
354.122	-4.44
354.339	56.98
354.555	14.16
354.771	-11.03
354.987	46.71
355.203	52.52
355.42	-17.81
355.636	-17.42
355.852	-5.41
356.068	5.83
356.284	-40.86
356.5	61.82
356.716	19.2
356.932	-21.3
357.148	12.42
357.364	-16.45
357.58	28.3
357.796	77.71
358.012	30.82
358.228	15.9
358.444	-57.91
358.66	53.68
358.876	27.72
359.092	-13.35
359.308	11.06
359.524	22.49
359.74	4.08
359.956	-14.71
360.172	24.62
360.388	31.21
360.604	5.25
360.819	64.73
361.035	-15.68
361.251	23.85
361.467	-9.48
361.683	32.37
361.898	28.5
362.114	47.29
362.33	11.25
362.546	27.72
362.762	9.32
362.977	33.73
363.193	-3.86
363.409	51.94
363.624	4.08
363.84	-10.06
364.056	14.35
364.271	19.58
364.487	31.4
364.703	-21.88
364.918	-21.49
365.134	-5.8
365.35	22.68
365.565	94.76
365.781	17.84
365.996	5.83
366.212	62.21
366.427	25.59
366.643	6.99
366.858	11.06
367.074	-19.94
367.289	48.84
367.505	74.03
367.72	-51.91
367.936	-12.58
368.151	17.84
368.367	44.38
368.582	20.94
368.798	-4.63
369.013	58.53
369.228	20.94
369.444	13
369.659	64.34
369.874	9.7
370.09	45.74
370.305	-41.06
370.52	0.79
370.736	42.06
370.951	2.73
371.166	72.48
371.381	92.63
371.597	53.88
371.812	-8.7
372.027	22.88
372.242	35.08
372.458	96.31
372.673	3.31
372.888	6.6
373.103	52.13
373.318	101.73
373.533	8.54
373.749	20.36
373.964	-49.58
374.179	47.1
374.394	15.52
374.609	62.02
374.824	-22.26
375.039	25.2
375.254	-17.81
375.469	87.01
375.684	25.2
375.899	64.34
376.114	11.83
376.329	17.07
376.544	56.4
376.759	72.48
376.974	-18.78
377.189	18.62
377.404	7.57
377.619	58.33
377.834	-26.33
378.049	-11.61
378.264	-7.73
378.478	13.58
378.693	14.55
378.908	28.11
379.123	-0.18
379.338	31.4
379.553	41.48
379.767	24.04
379.982	39.93
380.197	48.07
380.412	3.5
380.626	44.58
380.841	101.15
381.056	36.83
381.271	83.91
381.485	13.38
381.7	-22.65
381.915	31.6
382.129	0.21
382.344	23.65
382.559	33.34
382.773	40.51
382.988	-34.66
383.202	19.39
383.417	-12.96
383.632	95.53
383.846	24.23
384.061	33.15
384.275	19.58
384.49	37.8
384.704	43.8
384.919	15.52
385.133	25.98
385.348	38.77
385.562	-8.51
385.777	77.13
385.991	30.05
386.206	-5.99
386.42	4.47
386.634	74.8
386.849	30.63
387.063	13.77
387.277	-15.29
387.492	1.18
387.706	-17.61
387.92	-6.57
388.135	51.94
388.349	54.27
388.563	37.41
388.778	11.64
388.992	34.12
389.206	31.02
389.42	96.31
389.635	20.36
389.849	58.33
390.063	48.07
390.277	14.74
390.491	80.23
390.706	43.22
390.92	57.17
391.134	14.55
391.348	68.02
391.562	-18.78
391.776	3.5
391.99	6.41
392.205	43.03
392.419	23.27
392.633	1.37
392.847	51.55
393.061	19.2
393.275	75
393.489	33.34
393.703	36.05
393.917	70.35
394.131	-7.93
394.345	66.86
394.559	72.28
394.773	11.83
394.986	34.7
395.2	24.62
395.414	81.97
395.628	-17.23
395.842	44.77
396.056	10.87
396.27	-42.22
396.484	63.76
396.697	13.19
396.911	71.51
397.125	36.44
397.339	64.34
397.553	19.78
397.766	57.56
397.98	53.88
398.194	84.88
398.408	21.52
398.621	85.65
398.835	68.02
399.049	30.05
399.262	65.5
399.476	59.3
399.69	52.72
399.903	111.61
400.117	37.22
400.331	35.67
400.544	21.72
400.758	136.61
400.971	34.31
401.185	78.68
401.398	15.13
401.612	66.86
401.826	43.22
402.039	71.7
402.253	7.18
402.466	56.01
402.68	18.62
402.893	63.18
403.106	32.18
403.32	42.64
403.533	72.67
403.747	25.59
403.96	55.04
404.174	54.46
404.387	5.25
404.6	20.55
404.814	88.36
405.027	39.15
405.24	53.88
405.454	68.8
405.667	72.28
405.88	-9.67
406.094	50.97
406.307	65.89
406.52	45.16
406.733	24.82
406.947	0.02
407.16	112.78
407.373	97.66
407.586	4.08
407.799	2.92
408.012	62.02
408.226	55.62
408.439	105.8
408.652	36.44
408.865	65.5
409.078	78.1
409.291	53.88
409.504	1.76
409.717	55.62
409.93	88.36
410.143	52.13
410.357	16.87
410.57	15.13
410.783	41.48
410.996	59.11
411.209	57.56
411.421	71.9
411.634	29.47
411.847	32.37
412.06	52.33
412.273	22.68
412.486	60.27
412.699	112.78
412.912	42.25
413.125	84.3
413.338	71.32
413.55	77.32
413.763	40.9
413.976	67.05
414.189	16.48
414.402	46.52
414.615	100.76
414.827	22.49
415.04	81
415.253	70.15
415.466	61.82
415.678	110.06
415.891	49.81
416.104	37.02
416.316	28.11
416.529	44.97
416.742	50.2
416.954	75.38
417.167	42.25
417.38	27.92
417.592	112.58
417.805	12.42
418.017	19.78
418.23	81.97
418.442	44.97
418.655	50.39
418.868	62.79
419.08	89.72
419.293	110.45
419.505	74.22
419.718	70.93
419.93	97.28
420.142	39.73
420.355	93.4
420.567	122.66
420.78	91.46
420.992	47.87
421.205	116.46
421.417	31.79
421.629	20.94
421.842	24.43
422.054	36.25
422.266	67.44
422.479	75.58
422.691	53.1
422.903	80.23
423.115	42.25
423.328	46.9
423.54	71.51
423.752	61.05
423.964	13.19
424.177	71.51
424.389	57.95
424.601	133.31
424.813	94.56
425.025	72.87
425.238	81.97
425.45	36.25
425.662	64.92
425.874	329.39
426.086	62.79
426.298	69.96
426.51	76.16
426.722	66.47
426.934	51.94
427.146	82.94
427.358	19.97
427.57	101.15
427.782	78.68
427.994	60.47
428.206	41.28
428.418	4.08
428.63	94.18
428.842	88.36
429.054	84.88
429.266	111.61
429.478	42.06
429.69	62.98
429.902	23.46
430.114	95.15
430.325	71.51
430.537	32.76
430.749	64.53
430.961	31.79
431.173	78.1
431.384	79.65
431.596	1.76
431.808	56.01
432.02	65.12
432.231	81
432.443	104.64
432.655	88.95
432.867	34.31
433.078	59.88
433.29	131.38
433.502	102.9
433.713	95.53
433.925	64.73
434.136	101.35
434.348	35.08
434.56	-3.67
434.771	176.71
434.983	22.88
435.194	33.34
435.406	62.4
435.617	107.55
435.829	118.59
436.04	108.9
436.252	109.1
436.463	106.96
436.675	104.45
436.886	81.2
437.098	75.38
437.309	121.5
437.521	90.88
437.732	78.87
437.943	80.42
438.155	83.71
438.366	-1.92
438.578	139.51
438.789	111.61
439	117.81
439.211	93.98
439.423	96.7
439.634	102.9
439.845	118.78
440.057	87.59
440.268	100.18
440.479	76.74
440.69	89.53
440.902	68.99
441.113	68.6
441.324	61.43
441.535	99.99
441.746	140.1
441.957	50.39
442.168	69.77
442.38	87.59
442.591	99.21
442.802	78.48
443.013	74.61
443.224	104.06
443.435	88.36
443.646	73.64
443.857	70.35
444.068	59.88
444.279	52.13
444.49	142.61
444.701	85.85
444.912	188.73
445.123	121.11
445.334	103.09
445.545	90.88
445.756	73.64
445.967	73.83
446.178	126.34
446.388	117.23
446.599	130.8
446.81	123.24
447.021	80.03
447.232	128.66
447.443	161.8
447.653	51.36
447.864	130.41
448.075	119.95
448.286	118.4
448.496	105.41
448.707	136.22
448.918	90.11
449.129	186.59
449.339	87.98
449.55	118.78
449.761	92.43
449.971	146.3
450.182	105.22
450.393	117.62
450.603	94.76
450.814	124.21
451.024	111.81
451.235	143
451.446	146.88
451.656	151.14
451.867	79.65
452.077	127.7
452.288	144.55
452.498	181.94
452.709	103.48
452.919	106.96
453.13	90.88
453.34	148.43
453.55	76.74
453.761	143.97
453.971	146.68
454.182	127.89
454.392	117.81
454.602	155.21
454.813	136.41
455.023	147.65
455.233	80.23
455.444	122.46
455.654	64.73
455.864	99.41
456.075	86.23
456.285	96.7
456.495	116.07
456.705	120.33
456.916	181.36
457.126	134.09
457.336	143.58
457.546	63.95
457.756	80.61
457.967	146.88
458.177	134.09
458.387	120.53
458.597	99.02
458.807	110.06
459.017	97.47
459.227	118.98
459.437	116.26
459.647	133.31
459.857	131.18
460.068	68.22
460.278	164.7
460.488	140.1
460.698	159.86
460.908	101.73
461.117	77.52
461.327	98.44
461.537	125.37
461.747	142.81
461.957	130.99
462.167	220.5
462.377	170.51
462.587	122.66
462.797	165.09
463.007	129.83
463.216	145.13
463.426	175.16
463.636	163.35
463.846	90.88
464.056	110.84
464.265	145.52
464.475	101.35
464.685	135.64
464.895	125.18
465.104	118.98
465.314	150.17
465.524	126.92
465.733	129.25
465.943	178.46
466.153	179.04
466.362	155.98
466.572	127.89
466.782	121.5
466.991	147.07
467.201	200.54
467.41	102.31
467.62	138.74
467.829	120.14
468.039	158.5
468.249	132.73
468.458	119.75
468.668	154.63
468.877	163.15
469.086	179.04
469.296	175.94
469.505	118.01
469.715	221.47
469.924	164.9
470.134	178.46
470.343	169.54
470.552	137.19
470.762	168.77
470.971	123.24
471.18	160.63
471.39	133.12
471.599	136.03
471.808	181.17
472.018	128.08
472.227	169.54
472.436	197.44
472.645	136.41
472.855	133.51
473.064	179.81
473.273	167.03
473.482	197.06
473.691	198.03
473.901	185.24
474.11	174.58
474.319	236.58
474.528	174.19
474.737	207.71
474.946	168.58
475.155	168.38
475.364	198.41
475.573	178.07
475.783	170.71
475.992	193.76
476.201	197.25
476.41	159.66
476.619	142.61
476.828	164.9
477.037	177.49
477.245	178.46
477.454	217.01
477.663	165.67
477.872	166.25
478.081	228.25
478.29	160.83
478.499	242.59
478.708	192.99
478.917	230.77
479.125	188.53
479.334	201.32
479.543	164.9
479.752	182.91
479.961	203.06
480.169	212.56
480.378	183.3
480.587	308.07
480.796	208.29
481.004	193.18
481.213	226.7
481.422	216.04
481.63	198.03
481.839	237.36
482.048	259.83
482.256	223.02
482.465	195.89
482.674	226.31
482.882	256.73
483.091	306.14
483.299	241.43
483.508	253.63
483.716	206.74
483.925	220.31
484.134	187.95
484.342	187.76
484.551	261.38
484.759	213.53
484.967	253.83
485.176	245.69
485.384	255.76
485.593	255.57
485.801	229.8
486.01	225.54
486.218	233.87
486.426	180.78
486.635	213.53
486.843	223.02
487.051	224.38
487.26	221.08
487.468	254.21
487.676	256.73
487.885	217.01
488.093	212.36
488.301	243.56
488.509	245.88
488.717	271.46
488.926	225.54
489.134	226.7
489.342	223.6
489.55	211.78
489.758	230.38
489.967	231.74
490.175	337.33
490.383	206.55
490.591	322.41
490.799	211.59
491.007	281.14
491.215	252.66
491.423	234.45
491.631	261.38
491.839	238.91
492.047	269.52
492.255	241.23
492.463	215.27
492.671	245.69
492.879	294.51
493.087	260.22
493.295	259.44
493.503	240.84
493.711	282.69
493.919	279.21
494.127	268.74
494.334	266.03
494.542	230.96
494.75	258.86
494.958	264.87
495.166	292.96
495.374	252.47
495.581	248.98
495.789	290.64
495.997	332.49
496.205	249.18
496.412	254.41
496.62	259.44
496.828	288.7
497.035	267.39
497.243	301.68
497.451	271.84
497.658	311.56
497.866	263.32
498.074	356.32
498.281	234.45
498.489	331.71
498.696	296.45
498.904	251.89
499.112	300.52
499.319	356.7
499.527	303.04
499.734	342.17
499.942	257.51
500.149	269.71
500.357	312.34
500.564	266.42
500.771	295.48
500.979	273.01
501.186	272.62
501.394	318.54
501.601	281.92
501.808	331.71
502.016	275.72
502.223	289.47
502.43	303.04
502.638	285.6
502.845	275.14
503.052	323.77
503.26	265.26
503.467	353.02
503.674	293.93
503.881	309.04
504.089	382.09
504.296	326.87
504.503	254.99
504.71	300.32
504.917	302.26
505.125	313.11
505.332	305.56
505.539	298.19
505.746	372.79
505.953	348.95
506.16	336.36
506.367	357.09
506.574	396.62
506.781	375.3
506.988	273.59
507.195	355.54
507.402	293.35
507.609	363.68
507.816	325.71
508.023	292.19
508.23	335.59
508.437	295.29
508.644	331.71
508.851	392.16
509.058	378.79
509.265	362.32
509.472	362.9
509.679	454.16
509.885	308.27
510.092	359.42
510.299	329.39
510.506	359.22
510.713	350.89
510.92	371.04
511.126	378.6
511.333	395.84
511.54	385.77
511.746	395.26
511.953	409.4
512.16	396.23
512.367	365.04
512.573	365.42
512.78	370.65
512.987	356.7
513.193	400.69
513.4	313.89
513.606	342.37
513.813	369.3
514.02	377.63
514.226	455.9
514.433	398.17
514.639	348.76
514.846	389.06
515.052	365.62
515.259	350.7
515.465	374.92
515.672	396.81
515.878	454.16
516.085	365.81
516.291	412.31
516.497	372.79
516.704	382.09
516.91	332.87
517.117	325.32
517.323	314.66
517.529	386.93
517.736	349.92
517.942	397.39
518.148	372.01
518.354	403.79
518.561	399.33
518.767	404.56
518.973	425.68
519.179	403.98
519.386	392.74
519.592	348.76
519.798	378.6
520.004	446.22
520.21	393.9
520.417	444.86
520.623	464.43
520.829	456.87
521.035	465.01
521.241	439.82
521.447	460.75
521.653	581.06
521.859	439.43
522.065	445.05
522.271	547.74
522.477	459.78
522.683	519.06
522.889	481.67
523.095	502.21
523.301	464.62
523.507	446.99
523.713	510.35
523.919	448.54
524.125	506.28
524.331	476.05
524.537	540.96
524.742	494.27
524.948	557.23
525.154	495.62
525.36	598.5
525.566	518.48
525.772	565.56
525.977	492.13
526.183	536.5
526.389	571.18
526.595	529.53
526.8	501.05
527.006	493.1
527.212	479.73
527.417	468.69
527.623	473.34
527.829	536.11
528.034	539.21
528.24	554.52
528.446	501.63
528.651	552.2
528.857	552
529.062	595.4
529.268	541.35
529.473	561.69
529.679	535.15
529.884	619.23
530.09	569.25
530.295	624.85
530.501	618.65
530.706	602.38
530.912	550.45
531.117	580.68
531.323	610.51
531.528	604.7
531.733	595.01
531.939	575.25
532.144	629.69
532.35	595.01
532.555	627.37
532.76	617.1
532.966	652.17
533.171	616.33
533.376	570.6
533.581	549.87
533.787	571.96
533.992	625.82
534.197	683.75
534.402	597.92
534.607	615.16
534.813	729.47
535.018	605.86
535.223	583
535.428	640.54
535.633	667.28
535.838	657.59
536.043	629.69
536.249	699.44
536.454	646.74
536.659	644.61
536.864	611.09
537.069	601.6
537.274	656.63
537.479	618.65
537.684	672.13
537.889	620.39
538.094	735.87
538.299	672.13
538.504	693.05
538.708	683.36
538.913	672.32
539.118	662.05
539.323	701.77
539.528	642.68
539.733	650.23
539.938	664.76
540.142	677.55
540.347	679.1
540.552	646.74
540.757	654.88
540.962	664.18
541.166	619.81
541.371	612.26
541.576	658.95
541.781	573.12
541.985	653.91
542.19	658.37
542.395	707.39
542.599	746.14
542.804	714.56
543.008	744.59
543.213	619.81
543.418	657.01
543.622	676.58
543.827	653.53
544.031	712.81
544.236	735.67
544.44	698.09
544.645	725.41
544.849	679.88
545.054	707
545.258	787.21
545.463	737.22
545.667	727.92
545.872	723.47
546.076	712.04
546.281	713.97
546.485	676.39
546.689	741.49
546.894	754.66
547.098	701.38
547.302	687.82
547.507	711.46
547.711	726.18
547.915	737.61
548.119	683.36
548.324	709.13
548.528	754.47
548.732	718.62
548.936	739.36
549.141	765.51
549.345	669.61
549.549	729.28
549.753	678.71
549.957	758.73
550.161	782.75
550.366	715.52
550.57	686.27
550.774	718.82
550.978	720.17
551.182	733.16
551.386	711.46
551.59	726.76
551.794	695.76
551.998	757.37
552.202	712.62
552.406	691.89
552.61	715.14
552.814	733.93
553.018	749.24
553.222	698.67
553.426	721.92
553.63	777.14
553.833	726.37
554.037	693.24
554.241	730.44
554.445	726.57
554.649	733.93
554.853	702.93
555.056	728.51
555.26	773.84
555.464	749.82
555.668	710.68
555.871	766.09
556.075	776.56
556.279	691.5
556.483	674.84
556.686	696.92
556.89	719.59
557.094	707.19
557.297	677.36
557.501	780.82
557.704	666.7
557.908	757.18
558.112	681.23
558.315	768.61
558.519	714.56
558.722	714.75
558.926	691.11
559.129	679.29
559.333	641.71
559.536	664.96
559.74	650.62
559.943	652.94
560.147	643.26
560.35	663.79
560.553	642.87
560.757	612.06
560.96	731.02
561.164	664.38
561.367	724.05
561.57	685.3
561.774	676.39
561.977	661.86
562.18	667.48
562.384	749.04
562.587	672.71
562.79	673.87
562.993	654.88
563.197	696.54
563.4	733.16
563.603	698.67
563.806	715.14
564.009	639.96
564.212	656.43
564.416	622.72
564.619	680.84
564.822	625.43
565.025	722.69
565.228	645.78
565.431	633.38
565.634	584.55
565.837	629.31
566.04	587.46
566.243	639.38
566.446	568.66
566.649	653.33
566.852	578.74
567.055	606.44
567.258	624.08
567.461	680.07
567.664	643.45
567.867	569.25
568.07	625.43
568.273	614.97
568.475	671.74
568.678	617.29
568.881	581.06
569.084	624.08
569.287	530.5
569.489	561.88
569.692	615.55
569.895	608.19
570.098	576.41
570.3	563.63
570.503	474.89
570.706	546.19
570.909	543.48
571.111	532.43
571.314	503.57
571.516	532.63
571.719	564.79
571.922	542.7
572.124	530.69
572.327	519.84
572.529	468.11
572.732	505.89
572.935	497.37
573.137	594.05
573.34	520.23
573.542	543.28
573.745	557.62
573.947	533.79
574.15	519.26
574.352	516.74
574.554	550.45
574.757	473.53
574.959	485.93
575.162	487.48
575.364	500.27
575.566	584.55
575.769	490.58
575.971	514.22
576.173	418.7
576.376	481.67
576.578	510.73
576.78	575.83
576.982	426.07
577.185	493.3
577.387	450.67
577.589	447.57
577.791	502.98
577.993	508.22
578.196	478.18
578.398	511.51
578.6	544.83
578.802	442.34
579.004	456.48
579.206	448.35
579.408	475.67
579.61	444.67
579.812	491.36
580.014	464.43
580.216	451.06
580.418	459.58
580.62	463.46
580.822	436.33
581.024	457.26
581.226	497.37
581.428	458.62
581.63	544.06
581.832	451.06
582.034	498.14
582.236	446.41
582.438	461.72
582.64	517.32
582.841	516.93
583.043	529.53
583.245	443.89
583.447	477.02
583.649	484.77
583.85	485.55
584.052	499.3
584.254	442.92
584.456	512.67
584.657	424.52
584.859	497.17
585.061	449.32
585.262	449.9
585.464	419.29
585.666	472.95
585.867	455.52
586.069	500.66
586.27	459.78
586.472	471.21
586.674	413.86
586.875	431.88
587.077	431.1
587.278	463.85
587.48	418.51
587.681	565.18
587.883	443.31
588.084	415.99
588.285	453.97
588.487	446.6
588.688	432.85
588.89	418.12
589.091	372.79
589.292	423.16
589.494	397.78
589.695	398.55
589.896	378.21
590.098	353.8
590.299	448.93
590.5	365.04
590.702	368.91
590.903	402.43
591.104	432.46
591.305	406.5
591.507	464.82
591.708	426.26
591.909	422.19
592.11	467.72
592.311	447.18
592.512	403.2
592.714	366.2
592.915	362.13
593.116	384.99
593.317	400.88
593.518	383.44
593.719	402.62
593.92	398.55
594.121	446.6
594.322	403.01
594.523	411.34
594.724	350.31
594.925	391.77
595.126	428.59
595.327	425.1
595.528	422.77
595.729	411.15
595.929	411.92
596.13	404.95
596.331	413.67
596.532	414.44
596.733	454.93
596.934	420.06
597.135	411.54
597.335	429.94
597.536	377.44
597.737	398.55
597.938	367.36
598.138	413.28
598.339	376.66
598.54	379.37
598.74	406.5
598.941	403.01
599.142	445.44
599.342	416.57
599.543	373.75
599.744	422.77
599.944	387.12
600.145	392.16
600.345	388.67
600.546	480.51
600.746	469.85
600.947	433.04
601.147	434.78
601.348	438.08
601.548	373.37
601.749	421.03
601.949	388.29
602.15	385.38
602.35	398.94
602.551	444.28
602.751	368.33
602.951	389.06
603.152	326.87
603.352	423.94
603.552	362.13
603.753	437.5
603.953	410.57
604.153	381.5
604.354	389.45
604.554	389.25
604.754	380.92
604.954	368.91
605.155	400.88
605.355	380.34
605.555	434.01
605.755	458.03
605.955	398.36
606.155	438.47
606.356	397
606.556	427.81
606.756	389.06
606.956	362.9
607.156	427.81
607.356	379.57
607.556	406.89
607.756	392.74
607.956	447.77
608.156	400.49
608.356	366
608.556	436.72
608.756	406.11
608.956	334.81
609.156	380.73
609.356	371.24
609.556	380.15
609.755	379.95
609.955	387.51
610.155	370.65
610.355	381.5
610.555	329.58
610.755	386.15
610.954	353.02
611.154	376.85
611.354	422.39
611.554	365.04
611.753	355.93
611.953	339.27
612.153	421.03
612.352	394.49
612.552	341.98
612.752	313.5
612.951	338.49
613.151	384.99
613.351	333.46
613.55	365.23
613.75	412.31
613.949	358.84
614.149	375.5
614.348	334.04
614.548	350.12
614.747	332.1
614.947	320.67
615.146	292.57
615.346	397
615.545	359.61
615.745	361.35
615.944	361.55
616.144	360.39
616.343	340.43
616.542	340.82
616.742	348.18
616.941	341.01
617.14	325.71
617.34	340.43
617.539	358.45
617.738	318.34
617.938	399.91
618.137	341.21
618.336	310.21
618.535	348.18
618.734	335.2
618.934	366
619.133	328.22
619.332	348.18
619.531	291.99
619.73	321.83
619.929	366.78
620.128	355.15
620.328	395.07
620.527	295.67
620.726	327.84
620.925	335.01
621.124	317.18
621.323	339.27
621.522	317.37
621.721	301.1
621.92	313.89
622.119	348.76
622.318	304.78
622.517	316.41
622.715	296.84
622.914	264.87
623.113	310.21
623.312	257.7
623.511	337.33
623.71	289.28
623.909	304.2
624.107	378.4
624.306	270.49
624.505	287.15
624.704	299.16
624.902	301.29
625.101	366
625.3	311.95
625.499	306.72
625.697	296.64
625.896	287.73
626.095	306.33
626.293	264.09
626.492	281.34
626.69	304.78
626.889	295.87
627.088	341.79
627.286	259.25
627.485	282.11
627.683	287.54
627.882	315.44
628.08	255.37
628.279	278.24
628.477	361.55
628.676	248.98
628.874	339.46
629.073	269.13
629.271	257.51
629.469	300.52
629.668	269.71
629.866	278.24
630.065	264.29
630.263	297.42
630.461	257.31
630.66	295.67
630.858	307.88
631.056	343.72
631.254	308.07
631.453	275.91
631.651	320.28
631.849	305.17
632.047	288.7
632.245	287.54
632.444	301.1
632.642	298
632.84	284.44
633.038	288.89
633.236	251.11
633.434	240.46
633.632	235.61
633.83	260.99
634.028	313.31
634.227	289.28
634.425	341.98
634.623	290.44
634.821	313.11
635.019	287.92
635.216	253.44
635.414	256.54
635.612	278.24
635.81	281.14
636.008	335.78
636.206	261.38
636.404	295.29
636.602	248.59
636.8	302.07
636.997	300.71
637.195	312.72
637.393	274.17
637.591	341.79
637.789	281.92
637.986	278.82
638.184	279.98
638.382	310.79
638.58	294.71
638.777	341.01
638.975	277.07
639.173	288.89
639.37	289.28
639.568	305.17
639.765	317.37
639.963	277.07
640.161	301.68
640.358	302.84
640.556	257.12
640.753	232.32
640.951	248.01
641.148	287.15
641.346	298.77
641.543	279.21
641.741	308.85
641.938	256.54
642.136	258.67
642.333	255.76
642.531	300.91
642.728	317.57
642.925	281.34
643.123	278.43
643.32	292.96
643.517	275.14
643.715	279.59
643.912	235.03
644.109	267.58
644.306	258.28
644.504	244.14
644.701	283.86
644.898	292.77
645.095	230.58
645.293	273.78
645.49	301.29
645.687	290.83
645.884	309.82
646.081	231.74
646.278	237.94
646.475	254.6
646.672	262.74
646.87	286.18
647.067	266.61
647.264	272.04
647.461	232.9
647.658	225.73
647.855	293.35
648.052	268.16
648.249	173.42
648.446	244.72
648.642	241.43
648.839	228.83
649.036	217.79
649.233	192.21
649.43	232.13
649.627	197.64
649.824	231.74
650.021	223.02
650.217	215.85
650.414	218.76
650.611	239.29
650.808	257.51
651.004	214.69
651.201	248.98
651.398	270.49
651.595	251.5
651.791	224.18
651.988	266.81
652.185	211.2
652.381	291.02
652.578	201.51
652.775	237.36
652.971	215.08
653.168	233.68
653.364	255.57
653.561	196.48
653.757	197.06
653.954	210.81
654.15	213.14
654.347	297.42
654.543	219.34
654.74	179.62
654.936	190.66
655.133	219.14
655.329	234.26
655.525	242.2
655.722	262.16
655.918	218.18
656.115	268.94
656.311	204.42
656.507	168.19
656.704	157.15
656.9	174.58
657.096	166.45
657.292	176.71
657.489	230.58
657.685	199.96
657.881	175.94
658.077	231.54
658.273	212.17
658.47	267.39
658.666	213.91
658.862	218.18
659.058	211.78
659.254	241.62
659.45	188.92
659.646	208.88
659.842	211.59
660.038	249.18
660.234	165.67
660.43	188.34
660.626	282.89
660.822	233.68
661.018	223.79
661.214	206.94
661.41	174.97
661.606	241.62
661.802	250.14
661.998	202.09
662.194	177.88
662.39	238.13
662.586	195.51
662.781	246.46
662.977	238.13
663.173	254.02
663.369	247.82
663.564	234.26
663.76	249.76
663.956	216.82
664.152	250.92
664.347	176.52
664.543	201.71
664.739	212.75
664.934	186.4
665.13	161.8
665.326	237.36
665.521	218.56
665.717	174.19
665.912	159.66
666.108	141.26
666.304	186.4
666.499	214.11
666.695	157.73
666.89	175.94
667.086	224.76
667.281	220.89
667.477	256.15
667.672	182.72
667.867	214.69
668.063	194.54
668.258	175.94
668.454	219.34
668.649	273.2
668.844	197.64
669.04	212.94
669.235	180.01
669.43	187.56
669.626	165.67
669.821	174.39
670.016	178.26
670.211	183.11
670.407	161.8
670.602	184.66
670.797	190.47
670.992	217.21
671.187	168.19
671.382	211.39
671.578	174.39
671.773	196.48
671.968	161.41
672.163	169.74
672.358	193.76
672.553	163.35
672.748	180.98
672.943	250.34
673.138	196.09
673.333	193.57
673.528	176.52
673.723	208.88
673.918	196.09
674.113	163.35
674.308	251.11
674.503	213.91
674.698	188.14
674.892	200.93
675.087	231.74
675.282	201.9
675.477	165.28
675.672	212.36
675.867	171.87
676.061	146.1
676.256	144.16
676.451	169.74
676.646	162.76
676.84	161.99
677.035	146.88
677.23	136.03
677.424	186.21
677.619	254.41
677.814	197.44
678.008	208.88
678.203	154.43
678.397	147.26
678.592	186.79
678.787	225.93
678.981	176.71
679.176	192.79
679.37	183.69
679.565	167.22
679.759	165.48
679.954	213.53
680.148	245.49
680.342	231.54
680.537	210.04
680.731	211.39
680.926	210.04
681.12	253.05
681.314	173.23
681.509	183.3
681.703	199.77
681.897	231.93
682.092	208.29
682.286	191.63
682.48	233.29
682.674	230.77
682.869	215.08
683.063	202.09
683.257	246.08
683.451	165.28
683.645	191.05
683.839	211.78
684.034	171.87
684.228	219.34
684.422	175.55
684.616	176.91
684.81	198.41
685.004	171.68
685.198	166.83
685.392	217.4
685.586	166.83
685.78	187.56
685.974	217.21
686.168	187.37
686.362	263.32
686.556	172.45
686.75	154.05
686.944	175.55
687.138	238.91
687.331	136.22
687.525	193.18
687.719	107.93
687.913	159.86
688.107	187.76
688.301	167.03
688.494	194.15
688.688	141.26
688.882	153.08
689.076	101.54
689.269	177.88
689.463	221.28
689.657	181.36
689.85	151.72
690.044	144.36
690.238	158.7
690.431	167.03
690.625	160.63
690.818	172.26
691.012	177.1
691.205	185.04
691.399	125.37
691.593	206.94
691.786	250.14
691.98	189.11
692.173	225.54
692.366	191.83
692.56	195.51
692.753	246.27
692.947	168.96
693.14	244.53
693.333	241.04
693.527	164.9
693.72	186.79
693.914	184.08
694.107	222.24
694.3	231.16
694.493	215.27
694.687	273.39
694.88	194.15
695.073	245.69
695.266	250.34
695.46	259.25
695.653	281.72
695.846	264.67
696.039	181.36
696.232	204.03
696.425	261.57
696.618	265.64
696.812	244.72
697.005	282.69
697.198	350.7
697.391	283.08
697.584	302.46
697.777	345.85
697.97	334.81
698.163	336.36
698.356	298.39
698.549	377.24
698.742	332.29
698.935	332.49
699.127	338.88
699.32	287.34
699.513	300.91
699.706	355.35
699.899	351.86
700.092	329.77
700.285	362.32
700.477	304.78
700.67	329.39
700.863	374.14
701.056	459.97
701.248	388.87
701.441	415.6
701.634	382.47
701.826	474.31
702.019	376.47
702.212	415.99
702.404	407.08
702.597	405.92
702.79	400.49
702.982	427.62
703.175	462.68
703.367	467.72
703.56	447.96
703.752	519.45
703.945	491.94
704.137	484.58
704.33	515.58
704.522	512.67
704.715	508.22
704.907	530.88
705.1	553.16
705.292	536.5
705.484	548.9
705.677	552.2
705.869	568.47
706.061	596.95
706.254	630.86
706.446	589.59
706.638	596.56
706.831	640.93
707.023	627.76
707.215	709.52
707.407	670.58
707.599	683.36
707.792	710.87
707.984	659.73
708.176	691.5
708.368	669.8
708.56	717.27
708.752	694.6
708.944	680.07
709.136	694.6
709.329	723.27
709.521	801.35
709.713	788.76
709.905	769.39
710.097	841.46
710.289	751.76
710.481	810.65
710.672	805.42
710.864	828.09
711.056	895.52
711.248	836.81
711.44	845.34
711.632	835.26
711.824	863.55
712.016	957.71
712.207	917.99
712.399	916.44
712.591	975.73
712.783	959.26
712.975	947.05
713.166	921.28
713.358	920.51
713.55	975.73
713.741	992.39
713.933	978.44
714.125	1012.15
714.316	991.03
714.508	1035.98
714.7	1055.74
714.891	1057.1
715.083	1112.51
715.274	1047.41
715.466	1079.58
715.657	1128.59
715.849	1041.79
716.04	1118.33
716.232	1054.39
716.423	1136.34
716.615	1055.74
716.806	1048.38
716.998	1025.91
717.189	997.81
717.381	937.56
717.572	954.03
717.763	1000.53
717.955	968.95
718.146	909.66
718.337	957.51
718.528	929.42
718.72	884.86
718.911	939.88
719.102	876.33
719.293	946.47
719.485	942.6
719.676	949.77
719.867	894.55
720.058	910.05
720.249	887.77
720.44	937.95
720.632	962.55
720.823	1001.11
721.014	1077.06
721.205	1125.69
721.396	1136.34
721.587	1241.94
721.778	1234.77
721.969	1231.09
722.16	1279.14
722.351	1301.8
722.542	1390.35
722.733	1411.66
722.924	1310.52
723.115	1376.98
723.305	1392.67
723.496	1382.98
723.687	1315.95
723.878	1309.17
724.069	1359.35
724.26	1353.92
724.45	1294.25
724.641	1294.25
724.832	1353.34
725.023	1305.29
725.213	1313.23
725.404	1317.88
725.595	1351.21
725.785	1342.49
725.976	1377.75
726.167	1362.64
726.357	1372.13
726.548	1460.48
726.739	1405.85
726.929	1451.18
727.12	1491.29
727.31	1507.95
727.501	1458.55
727.691	1462.81
727.882	1466.88
728.072	1496.71
728.263	1535.66
728.453	1565.49
728.644	1566.46
728.834	1580.99
729.024	1520.35
729.215	1527.33
729.405	1577.51
729.596	1662.56
729.786	1654.42
729.976	1672.64
730.167	1698.6
730.357	1669.54
730.547	1642.02
730.737	1700.54
730.928	1708.29
731.118	1810.78
731.308	1711.77
731.498	1776.87
731.688	1794.89
731.879	1802.06
732.069	1858.44
732.259	1939.62
732.449	1920.44
732.639	1977.98
732.829	1993.68
733.019	2025.06
733.209	2091.13
733.399	2090.55
733.589	2137.05
733.779	2187.81
733.969	2167.27
734.159	2207.77
734.349	2257.56
734.539	2255.23
734.729	2277.71
734.919	2354.43
735.109	2407.52
735.299	2340.29
735.488	2345.91
735.678	2350.95
735.868	2374.97
736.058	2368.77
736.248	2385.24
736.437	2339.9
736.627	2317.04
736.817	2448.01
737.007	2387.18
737.196	2489.67
737.386	2467.97
737.576	2431.93
737.765	2482.31
737.955	2467.39
738.144	2567.94
738.334	2563.49
738.524	2516.79
738.713	2533.45
738.903	2578.21
739.092	2574.14
739.282	2569.1
739.471	2607.66
739.661	2595.07
739.85	2655.13
740.04	2639.43
740.229	2671.02
740.419	2686.32
740.608	2702.6
740.797	2665.4
740.987	2729.91
741.176	2766.34
741.365	2720.03
741.555	2690.97
741.744	2767.7
741.933	2727.2
742.123	2798.31
742.312	2779.9
742.501	2849.46
742.69	2845.19
742.88	2777.19
743.069	2903.9
743.258	2844.61
743.447	2898.47
743.636	2897.7
743.825	2870.96
744.014	2866.7
744.204	2938
744.393	2884.14
744.582	2975.39
744.771	2974.81
744.96	2888.59
745.149	2962.61
745.338	2897.51
745.527	2974.81
745.716	2998.64
745.905	2955.24
746.094	3017.24
746.283	2996.12
746.471	2939.74
746.66	3089.7
746.849	3063.16
747.038	3070.13
747.227	3007.55
747.416	2999.42
747.604	3003.87
747.793	2996.9
747.982	3065.87
748.171	3007.36
748.359	3070.52
748.548	3026.74
748.737	3046.69
748.926	3032.94
749.114	2950.59
749.303	3017.82
749.491	2964.93
749.68	2967.25
749.869	3036.04
750.057	3060.06
750.246	3011.82
750.434	2996.7
750.623	3035.26
750.811	3006.2
751	3077.11
751.188	3013.75
751.377	3080.6
751.565	3030.03
751.754	2981.4
751.942	2987.79
752.131	3058.32
752.319	3002.32
752.507	2954.27
752.696	3063.93
752.884	3066.45
753.072	3004.65
753.261	3041.27
753.449	3031.58
753.637	2985.47
753.825	3076.72
754.014	3049.21
754.202	3040.49
754.39	3099.97
754.578	3082.34
754.766	3046.5
754.955	3021.12
755.143	3076.92
755.331	3021.89
755.519	3013.56
755.707	2987.79
755.895	3008.33
756.083	3021.89
756.271	2977.14
756.459	3007.75
756.647	3010.65
756.835	3051.73
757.023	2947.49
757.211	2971.32
757.399	2966.87
757.587	2958.92
757.775	2914.94
757.963	2958.34
758.151	2945.94
758.339	2901.96
758.526	2925.6
758.714	2919.59
758.902	2814.58
759.09	2751.42
759.278	2607.47
759.465	2339.9
759.653	2052.38
759.841	1845.65
760.028	1585.64
760.216	1351.79
760.404	1328.93
760.591	1043.73
760.779	899.78
760.967	796.12
761.154	639.96
761.342	645.39
761.529	723.08
761.717	710.87
761.905	710.87
762.092	771.13
762.28	710.87
762.467	709.71
762.655	652.75
762.842	675.81
763.029	686.46
763.217	728.31
763.404	712.04
763.592	731.99
763.779	694.41
763.966	726.18
764.154	774.42
764.341	806.78
764.528	799.61
764.716	864.32
764.903	898.42
765.09	961
765.277	1017.58
765.465	1179.74
765.652	1201.83
765.839	1315.56
766.026	1413.98
766.213	1455.83
766.4	1541.47
766.588	1707.32
766.775	1671.09
766.962	1823.37
767.149	1896.41
767.336	2018.09
767.523	2002.01
767.71	2084.16
767.897	2215.52
768.084	2282.55
768.271	2306.58
768.458	2350.17
768.645	2395.31
768.832	2405.19
769.019	2400.74
769.206	2422.83
769.392	2556.51
769.579	2605.92
769.766	2571.62
769.953	2540.82
770.14	2608.44
770.327	2619.67
770.513	2663.27
770.7	2734.95
770.887	2656.48
771.073	2690.2
771.26	2681.87
771.447	2653.38
771.634	2627.62
771.82	2760.72
772.007	2650.67
772.193	2666.75
772.38	2733.79
772.567	2669.27
772.753	2708.21
772.94	2724.68
773.126	2689.42
773.313	2726.81
773.499	2717.71
773.686	2750.65
773.872	2667.92
774.059	2710.73
774.245	2627.42
774.432	2637.69
774.618	2607.47
774.804	2673.53
774.991	2681.09
775.177	2661.13
775.363	2629.94
775.55	2688.84
775.736	2607.66
775.922	2651.45
776.109	2646.6
776.295	2678.38
776.481	2663.07
776.667	2696.2
776.853	2633.04
777.04	2583.64
777.226	2600.1
777.412	2679.15
777.598	2614.05
777.784	2611.73
777.97	2614.83
778.156	2620.64
778.342	2625.29
778.528	2572.2
778.715	2547.6
778.901	2579.57
779.087	2606.3
779.272	2539.46
779.458	2563.87
779.644	2538.88
779.83	2541.98
780.016	2624.32
780.202	2553.6
780.388	2569.69
780.574	2465.26
780.76	2515.63
780.946	2566.39
781.131	2522.22
781.317	2508.27
781.503	2469.91
781.689	2501.87
781.874	2583.44
782.06	2489.28
782.246	2523.77
782.432	2466.03
782.617	2497.42
782.803	2545.66
782.989	2463.32
783.174	2471.07
783.36	2426.12
783.545	2427.09
783.731	2442.01
783.916	2365.48
784.102	2411.78
784.288	2400.93
784.473	2401.9
784.659	2346.49
784.844	2457.12
785.029	2372.45
785.215	2355.98
785.4	2330.02
785.586	2437.74
785.771	2355.4
785.956	2407.52
786.142	2329.63
786.327	2355.79
786.512	2337
786.698	2326.15
786.883	2313.55
787.068	2298.63
787.254	2338.93
787.439	2326.73
787.624	2319.75
787.809	2220.75
787.994	2314.71
788.18	2361.6
788.365	2229.27
788.55	2271.12
788.735	2266.66
788.92	2216.87
789.105	2231.98
789.29	2284.1
789.475	2187.03
789.66	2213.58
789.845	2195.37
790.03	2181.22
790.215	2219.97
790.4	2223.46
790.585	2244.38
790.77	2211.45
790.955	2137.44
791.14	2181.61
791.325	2240.9
791.51	2120.39
791.695	2186.07
791.879	2175.8
792.064	2095.2
792.249	2225.4
792.434	2161.07
792.618	2178.32
792.803	2203.7
792.988	2149.45
793.173	2166.5
793.357	2201.37
793.542	2124.26
793.727	2138.4
793.911	2201.37
794.096	2185.48
794.281	2185.68
794.465	2258.14
794.65	2177.73
794.834	2259.5
795.019	2232.76
795.203	2242.45
795.388	2263.37
795.572	2256.78
795.757	2190.72
795.941	2188.58
796.126	2198.66
796.31	2142.67
796.494	2197.5
796.679	2190.72
796.863	2146.74
797.048	2222.68
797.232	2190.72
797.416	2215.32
797.601	2181.22
797.785	2295.34
797.969	2244.77
798.153	2203.7
798.338	2237.41
798.522	2229.85
798.706	2268.41
798.89	2247.68
799.074	2317.04
799.258	2315.3
799.443	2247.48
799.627	2261.05
799.811	2281.39
799.995	2203.31
800.179	2226.95
800.363	2194.4
800.547	2285.07
800.731	2280.61
800.915	2142.67
801.099	2189.75
801.283	2223.07
801.467	2212.22
801.651	2187.81
801.835	2241.28
802.019	2230.43
802.202	2233.15
802.386	2180.25
802.57	2143.83
802.754	2171.92
802.938	2160.1
803.121	2175.41
803.305	2249.03
803.489	2147.32
803.673	2218.23
803.856	2237.6
804.04	2162.24
804.224	2225.78
804.407	2181.8
804.591	2187.81
804.775	2191.1
804.958	2194.59
805.142	2293.98
805.326	2227.92
805.509	2274.03
805.693	2259.88
805.876	2233.53
806.06	2227.72
806.243	2268.8
806.427	2316.65
806.61	2282.16
806.794	2230.05
806.977	2255.62
807.16	2249.23
807.344	2277.71
807.527	2230.43
807.71	2236.44
807.894	2200.79
808.077	2261.24
808.26	2201.95
808.444	2193.23
808.627	2214.16
808.81	2188
808.993	2135.11
809.177	2106.44
809.36	2173.86
809.543	2174.64
809.726	2026.61
809.909	2124.07
810.092	2055.48
810.276	2099.85
810.459	2055.48
810.642	2063.62
810.825	2049.86
811.008	2046.57
811.191	1967.71
811.374	1997.94
811.557	1993.68
811.74	2076.99
811.923	1963.64
812.106	1938.46
812.289	1884.01
812.472	1913.66
812.654	1923.34
812.837	1906.49
813.02	1856.11
813.203	1837.51
813.386	1714.87
813.569	1756.53
813.751	1656.94
813.934	1730.37
814.117	1669.92
814.3	1639.51
814.482	1575.18
814.665	1573.63
814.848	1556.58
815.03	1501.56
815.213	1489.74
815.396	1489.93
815.578	1481.21
815.761	1402.36
815.943	1495.55
816.126	1394.8
816.309	1403.13
816.491	1317.5
816.674	1295.8
816.856	1339.97
817.039	1324.67
817.221	1409.14
817.403	1349.08
817.586	1357.41
817.768	1401.58
817.951	1282.24
818.133	1288.24
818.315	1338.81
818.498	1377.75
818.68	1419.6
818.862	1381.43
819.045	1405.46
819.227	1406.04
819.409	1402.36
819.591	1406.04
819.774	1385.89
819.956	1342.88
820.138	1442.27
820.32	1408.95
820.502	1493.23
820.684	1540.89
820.866	1525.19
821.048	1564.53
821.231	1593.97
821.413	1540.11
821.595	1557.94
821.777	1592.81
821.959	1539.73
822.141	1598.62
822.323	1491.48
822.505	1442.08
822.686	1413.6
822.868	1319.43
823.05	1207.26
823.232	1201.25
823.414	1157.85
823.596	1243.29
823.778	1198.92
823.96	1237.87
824.141	1251.43
824.323	1250.65
824.505	1328.73
824.687	1394.41
824.868	1441.5
825.05	1505.82
825.232	1505.04
825.413	1583.51
825.595	1550.38
825.777	1465.13
825.958	1548.06
826.14	1508.53
826.321	1564.91
826.503	1509.31
826.685	1561.43
826.866	1572.86
827.048	1538.76
827.229	1477.53
827.411	1466.68
827.592	1448.47
827.773	1426.77
827.955	1357.6
828.136	1390.35
828.318	1375.43
828.499	1402.55
828.68	1364.38
828.862	1404.1
829.043	1396.16
829.224	1373.1
829.406	1359.93
829.587	1381.82
829.768	1367.1
829.949	1361.09
830.131	1368.26
830.312	1460.68
830.493	1393.83
830.674	1385.5
830.855	1374.27
831.036	1378.72
831.218	1430.45
831.399	1475.21
831.58	1406.23
831.761	1395.38
831.942	1415.34
832.123	1343.46
832.304	1346.37
832.485	1362.06
832.666	1388.02
832.847	1408.17
833.028	1389.38
833.209	1376.2
833.389	1391.51
833.57	1336.87
833.751	1352.57
833.932	1380.27
834.113	1379.11
834.294	1364.58
834.475	1407.2
834.655	1437.43
834.836	1405.85
835.017	1428.71
835.198	1377.56
835.378	1410.69
835.559	1448.86
835.74	1392.86
835.92	1397.9
836.101	1375.62
836.281	1441.69
836.462	1393.25
836.643	1445.76
836.823	1461.06
837.004	1449.05
837.184	1519.19
837.365	1459.71
837.545	1478.89
837.726	1422.51
837.906	1488.77
838.087	1453.9
838.267	1455.06
838.448	1408.75
838.628	1444.01
838.808	1450.99
838.989	1506.79
839.169	1419.6
839.349	1482.38
839.53	1438.01
839.71	1481.6
839.89	1450.41
840.07	1489.16
840.251	1464.75
840.431	1467.07
840.611	1432.58
840.791	1412.82
840.971	1470.17
841.151	1440.53
841.332	1414.95
841.512	1486.44
841.692	1423.48
841.872	1472.11
842.052	1426.96
842.232	1464.75
842.412	1368.07
842.592	1419.6
842.772	1427.35
842.952	1434.91
843.132	1440.72
843.312	1426.77
843.492	1389.77
843.672	1422.51
843.851	1357.22
844.031	1405.46
844.211	1395.96
844.391	1366.71
844.571	1411.27
844.751	1417.86
844.93	1413.6
845.11	1406.04
845.29	1409.53
845.47	1405.07
845.649	1436.85
845.829	1420.38
846.009	1356.44
846.188	1420.38
846.368	1412.63
846.547	1402.75
846.727	1426.96
846.907	1368.45
847.086	1378.14
847.266	1418.05
847.445	1438.59
847.625	1386.86
847.804	1389.38
847.984	1373.1
848.163	1364.58
848.343	1347.14
848.522	1374.85
848.701	1395.96
848.881	1330.67
849.06	1348.3
849.239	1380.85
849.419	1342.3
849.598	1290.95
849.777	1320.98
849.957	1290.95
850.136	1238.25
850.315	1250.85
850.494	1237.87
850.674	1254.34
850.853	1326.02
851.032	1270.8
851.211	1336.48
851.39	1286.11
851.569	1277.78
851.748	1256.27
851.927	1281.07
852.107	1271.97
852.286	1220.62
852.465	1237.09
852.644	1315.17
852.823	1297.15
853.002	1277.39
853.181	1310.52
853.359	1281.46
853.538	1233.8
853.717	1267.32
853.896	1176.64
854.075	1127.63
854.254	1143.12
854.433	1069.89
854.611	1118.13
854.79	1072.6
854.969	1114.45
855.148	1146.61
855.327	1093.53
855.505	1145.84
855.684	1147
855.863	1124.91
856.041	1121.81
856.22	1160.17
856.399	1142.16
856.577	1202.99
856.756	1223.92
856.934	1339.58
857.113	1317.88
857.291	1211.13
857.47	1223.14
857.648	1230.12
857.827	1220.43
858.005	1246.2
858.184	1181.29
858.362	1292.12
858.541	1216.55
858.719	1199.31
858.898	1178
859.076	1173.16
859.254	1246.2
859.433	1204.74
859.611	1202.02
859.789	1140.41
859.967	1244.26
860.146	1256.27
860.324	1190.21
860.502	1186.33
860.68	1135.18
860.859	1180.13
861.037	1207.64
861.215	1202.02
861.393	1176.64
861.571	1155.33
861.749	1141.96
861.927	1194.86
862.105	1146.22
862.283	1170.25
862.461	1150.29
862.639	1105.73
862.817	1133.24
862.995	1133.44
863.173	1113.29
863.351	1159.4
863.529	1147.19
863.707	1171.8
863.885	1152.42
864.063	1097.79
864.241	1102.63
864.418	1185.94
864.596	1138.28
864.774	1050.51
864.952	1143.51
865.129	1108.83
865.307	1092.36
865.485	1060.2
865.663	1126.46
865.84	1022.61
866.018	1065.82
866.196	941.63
866.373	956.35
866.551	968.17
866.728	915.08
866.906	948.02
867.084	986.77
867.261	992.97
867.439	1041.79
867.616	1050.13
867.794	1034.63
867.971	1036.76
868.149	1039.86
868.326	1058.46
868.503	1064.66
868.681	1054.97
868.858	1033.27
869.035	998.98
869.213	1043.93
869.39	1050.51
869.567	1106.89
869.745	1017.19
869.922	1037.92
870.099	1068.34
870.276	1062.14
870.454	1053.23
870.631	1048.77
870.808	999.56
870.985	1073.38
871.162	1092.36
871.339	1062.91
871.517	991.03
871.694	977.86
871.871	1024.16
872.048	1015.83
872.225	967.01
872.402	1037.34
872.579	993.16
872.756	1041.99
872.933	974.37
873.11	1001.11
873.287	999.56
873.463	976.31
873.64	976.5
873.817	1002.27
873.994	951.51
874.171	955.58
874.348	1008.47
874.524	908.88
874.701	991.42
874.878	927.29
875.055	975.53
875.231	960.42
875.408	979.8
875.585	904.23
875.762	976.11
875.938	938.92
876.115	926.52
876.291	933.1
876.468	936.01
876.645	911.21
876.821	913.92
876.998	941.43
877.174	943.37
877.351	940.47
877.527	914.7
877.704	933.88
877.88	936.98
878.057	901.33
878.233	969.91
878.409	923.42
878.586	918.18
878.762	922.06
878.938	924.19
879.115	839.72
879.291	950.73
879.467	849.79
879.644	896.87
879.82	917.02
879.996	866.26
880.172	847.85
880.349	877.11
880.525	905.78
880.701	836.81
880.877	872.27
881.053	871.88
881.229	877.5
881.405	923.8
881.581	867.03
881.757	883.5
881.933	925.16
882.109	889.7
882.285	860.64
882.461	824.8
882.637	878.66
882.813	855.99
882.989	870.52
883.165	926.13
883.341	846.3
883.517	891.06
883.693	877.3
883.869	881.37
884.044	837.59
884.22	882.73
884.396	932.33
884.572	884.47
884.747	914.7
884.923	887.96
885.099	910.24
885.275	939.69
885.45	851.15
885.626	861.61
885.801	834.1
885.977	862
886.153	806
886.328	875.75
886.504	827.9
886.679	876.14
886.855	854.05
887.03	882.15
887.206	869.94
887.381	854.83
887.557	911.02
887.732	857.35
887.908	869.17
888.083	906.37
888.258	886.41
888.434	857.15
888.609	863.94
888.784	892.61
888.96	871.68
889.135	852.31
889.31	849.4
889.485	846.11
889.661	851.15
889.836	893.19
890.011	884.47
890.186	842.24
890.361	837
890.537	868.78
890.712	855.22
890.887	882.73
891.062	852.89
891.237	924.58
891.412	847.66
891.587	853.09
891.762	915.28
891.937	896.68
892.112	802.13
892.287	873.43
892.462	815.89
892.637	811.04
892.812	776.75
892.987	803.29
893.161	769.77
893.336	788.95
893.511	809.88
893.686	785.08
893.861	784.69
894.035	788.57
894.21	771.52
894.385	729.09
894.56	776.36
894.734	710.29
894.909	715.33
895.084	698.67
895.258	706.22
895.433	729.09
895.608	661.47
895.782	651.98
895.957	660.89
896.131	654.11
896.306	624.46
896.48	606.06
896.655	609.35
896.829	559.36
897.004	543.09
897.178	583
897.353	572.35
897.527	617.88
897.701	583.58
897.876	528.95
898.05	599.47
898.224	598.5
898.399	627.18
898.573	618.84
898.747	479.93
898.921	510.93
899.096	450.48
899.27	469.85
899.444	438.66
899.618	527.78
899.792	504.92
899.967	524.68
900.141	534.37
900.315	487.29
900.489	497.37
900.663	496.78
900.837	510.15
901.011	461.52
901.185	574.48
901.359	523.13
901.533	504.34
901.707	473.53
901.881	490.78
902.055	453.19
902.229	496.98
902.403	562.27
902.576	505.31
902.75	507.63
902.924	610.13
903.098	568.47
903.272	572.93
903.446	628.34
903.619	577.96
903.793	617.68
903.967	590.17
904.14	662.83
904.314	654.69
904.488	635.12
904.661	650.62
904.835	645.78
905.009	645.78
905.182	710.87
905.356	631.44
905.529	642.29
905.703	607.8
905.876	587.85
906.05	606.25
906.223	608.19
906.397	525.65
906.57	497.75
906.744	483.8
906.917	505.31
907.09	514.42
907.264	491.75
907.437	468.3
907.61	432.27
907.784	467.92
907.957	490.58
908.13	423.35
908.304	493.3
908.477	442.73
908.65	468.11
908.823	433.82
908.996	504.73
909.17	426.26
909.343	451.45
909.516	436.72
909.689	437.3
909.862	441.76
910.035	435.56
910.208	358.64
910.381	406.89
910.554	500.66
910.727	443.12
910.9	415.8
911.073	426.45
911.246	498.53
911.419	484
911.592	460.94
911.765	435.37
911.938	421.22
912.11	411.34
912.283	451.25
912.456	453.97
912.629	445.83
912.802	405.72
912.974	381.31
913.147	324.93
913.32	314.86
913.493	359.42
913.665	387.9
913.838	382.86
914.01	360.77
914.183	403.79
914.356	380.92
914.528	418.12
914.701	424.71
914.873	443.5
915.046	386.74
915.218	367.36
915.391	339.85
915.563	311.56
915.736	362.71
915.908	387.9
916.081	372.01
916.253	365.23
916.425	374.34
916.598	395.45
916.77	384.6
916.942	337.91
917.115	288.89
917.287	365.62
917.459	368.72
917.632	303.62
917.804	277.27
917.976	346.44
918.148	346.44
918.32	337.91
918.493	384.41
918.665	425.68
918.837	392.16
919.009	413.86
919.181	459.78
919.353	396.81
919.525	416.96
919.697	391.39
919.869	405.34
920.041	450.09
920.213	506.08
920.385	443.5
920.557	402.62
920.729	427.42
920.901	421.22
921.073	385.57
921.244	353.6
921.416	435.56
921.588	412.31
921.76	363.68
921.932	454.74
922.103	394.68
922.275	401.07
922.447	407.85
922.619	331.71
922.79	387.12
922.962	368.91
923.134	404.95
923.305	340.24
923.477	329.58
923.648	362.32
923.82	343.92
923.991	296.06
924.163	310.21
924.335	340.04
924.506	332.49
924.677	387.7
924.849	322.41
925.02	345.08
925.192	388.29
925.363	342.95
925.535	336.75
925.706	324.16
925.877	405.53
926.049	308.27
926.22	334.42
926.391	348.57
926.562	369.3
926.734	307.49
926.905	356.51
927.076	272.04
927.247	326.09
927.419	289.47
927.59	280.76
927.761	290.06
927.932	255.57
928.103	291.02
928.274	252.28
928.445	234.45
928.616	246.27
928.787	252.86
928.958	270.29
929.129	249.18
929.3	214.49
929.471	207.91
929.642	167.61
929.813	105.61
929.984	203.64
930.155	128.66
930.326	193.57
930.496	157.92
930.667	100.96
930.838	142.61
931.009	116.65
931.18	119.36
931.35	143.2
931.521	118.2
931.692	64.92
931.863	25.4
932.033	89.33
932.204	119.56
932.374	119.17
932.545	64.92
932.716	91.66
932.886	128.08
933.057	17.45
933.227	51.55
933.398	125.37
933.568	57.75
933.739	18.62
933.909	8.73
934.08	91.46
934.25	13.19
934.421	36.63
934.591	55.62
934.761	30.43
934.932	-9.48
935.102	40.9
935.272	21.33
935.443	49.42
935.613	23.27
935.783	29.66
935.953	7.77
936.123	172.84
936.294	-5.41
936.464	5.44
936.634	13.58
936.804	16.48
936.974	0.6
937.144	45.74
937.314	53.88
937.484	25.98
937.655	-2.7
937.825	52.33
937.995	17.45
938.165	61.24
938.334	27.33
938.504	49.42
938.674	43.8
938.844	28.69
939.014	75
939.184	77.13
939.354	123.05
939.524	112.97
939.694	74.61
939.863	63.18
940.033	109.48
940.203	101.93
940.373	86.04
940.542	99.02
940.712	71.51
940.882	92.63
941.051	124.21
941.221	97.86
941.391	120.14
941.56	89.53
941.73	55.82
941.899	163.93
942.069	71.51
942.238	92.43
942.408	70.93
942.577	81.58
942.747	49.23
942.916	50
943.086	53.3
943.255	102.7
943.425	83.52
943.594	41.67
943.763	-1.92
943.933	30.43
944.102	6.99
944.271	47.29
944.441	88.56
944.61	46.13
944.779	58.53
944.948	129.44
945.117	39.54
945.287	50.97
945.456	4.86
945.625	13.58
945.794	85.07
945.963	14.93
946.132	67.05
946.301	31.79
946.47	93.6
946.639	5.05
946.808	19
946.977	69.77
947.146	90.5
947.315	45.74
947.484	49.62
947.653	64.73
947.822	46.71
947.991	36.05
948.16	114.33
948.329	87.2
948.498	37.99
948.666	50.58
948.835	77.13
949.004	3.7
949.173	13.77
949.341	46.9
949.51	85.65
949.679	96.89
949.847	81.78
950.016	110.26
950.185	91.85
950.353	32.95
950.522	46.13
950.69	106
950.859	37.41
951.028	72.48
951.196	63.57
951.365	17.65
951.533	44
951.701	73.64
951.87	67.05
952.038	26.56
952.207	45.74
952.375	103.28
952.543	60.47
952.712	61.82
952.88	43.42
953.048	100.76
953.217	58.33
953.385	33.15
953.553	108.13
953.721	39.35
953.89	50.78
954.058	22.49
954.226	46.71
954.394	54.07
954.562	3.7
954.73	64.34
954.898	45.16
955.067	89.14
955.235	49.42
955.403	101.54
955.571	118.01
955.739	63.95
955.907	25.2
956.075	64.92
956.243	18.42
956.41	81.58
956.578	31.21
956.746	24.82
956.914	47.29
957.082	92.05
957.25	78.29
957.418	38.77
957.585	71.51
957.753	90.69
957.921	36.05
958.089	58.72
958.256	77.71
958.424	96.31
958.592	68.99
958.759	18.03
958.927	92.43
959.095	50.58
959.262	41.67
959.43	77.71
959.597	28.69
959.765	63.95
959.932	39.35
960.1	92.43
960.267	56.98
960.435	62.98
960.602	119.17
960.77	38.38
960.937	26.37
961.104	52.72
961.272	23.65
961.439	29.85
961.606	73.64
961.774	77.13
961.941	33.92
962.108	81.2
962.275	64.92
962.443	80.23
962.61	68.99
962.777	118.01
962.944	81
963.111	85.26
963.278	79.26
963.446	88.56
963.613	81.39
963.78	71.12
963.947	64.34
964.114	57.37
964.281	125.18
964.448	105.03
964.615	52.52
964.782	100.96
964.949	127.89
965.116	94.95
965.282	115.88
965.449	91.08
965.616	30.82
965.783	102.12
965.95	81.97
966.117	36.63
966.283	59.11
966.45	117.81
966.617	87.2
966.784	127.89
966.95	89.91
967.117	100.18
967.284	75.97
967.45	81.78
967.617	118.78
967.784	139.13
967.95	146.68
968.117	67.83
968.283	114.52
968.45	176.52
968.616	125.56
968.783	148.62
968.949	132.35
969.116	124.01
969.282	89.33
969.449	109.87
969.615	92.05
969.781	54.65
969.948	90.69
970.114	67.25
970.28	132.73
970.447	103.67
970.613	164.31
970.779	89.72
970.945	124.4
971.112	112
971.278	96.89
971.444	104.64
971.61	126.92
971.776	88.17
971.942	106.77
972.108	99.99
972.275	83.33
972.441	108.9
972.607	175.55
972.773	92.63
972.939	107.35
973.105	93.4
973.271	37.41
973.437	96.7
973.602	78.1
973.768	98.44
973.934	106
974.1	115.3
974.266	16.48
974.432	105.41
974.598	54.07
974.763	84.88
974.929	78.48
975.095	134.86
975.261	47.1
975.426	40.9
975.592	57.17
975.758	131.18
975.923	57.17
976.089	56.01
976.255	106.96
976.42	100.38
976.586	110.84
976.751	96.11
976.917	171.09
977.082	134.28
977.248	38.18
977.413	61.05
977.579	54.27
977.744	93.79
977.91	49.81
978.075	34.7
978.24	94.56
978.406	96.31
978.571	61.43
978.736	57.56
978.902	97.47
979.067	42.64
979.232	18.42
979.397	103.48
979.563	98.83
979.728	48.84
979.893	80.03
980.058	76.93
980.223	93.6
980.388	89.91
980.554	75.38
980.719	66.47
980.884	47.48
981.049	104.64
981.214	70.35
981.379	90.11
981.544	62.02
981.709	93.21
981.874	60.85
982.039	64.73
982.204	143.39
982.368	86.23
982.533	39.54
982.698	102.9
982.863	112
983.028	67.63
983.193	67.83
983.357	84.68
983.522	86.62
983.687	68.8
983.852	65.7
984.016	61.43
984.181	86.43
984.346	89.53
984.51	119.56
984.675	107.93
984.839	98.05
985.004	71.7
985.168	122.46
985.333	94.56
985.498	80.81
985.662	81.78
985.827	101.35
985.991	82.75
986.155	74.03
986.32	96.31
986.484	120.72
986.649	99.02
986.813	52.91
986.977	85.46
987.142	121.3
987.306	31.98
987.47	41.09
987.634	75.97
987.799	75.77
987.963	56.4
988.127	100.38
988.291	132.35
988.455	79.07
988.62	65.31
988.784	97.47
988.948	108.51
989.112	21.91
989.276	93.79
989.44	94.76
989.604	65.89
989.768	74.42
989.932	119.36
990.096	51.55
990.26	54.46
990.424	29.47
990.588	60.08
990.752	141.26
990.915	88.75
991.079	44.38
991.243	34.5
991.407	107.74
991.571	56.4
991.734	70.54
991.898	87.2
992.062	159.47
992.226	89.33
992.389	65.12
992.553	29.47
992.717	56.59
992.88	40.51
993.044	97.47
993.207	98.25
993.371	84.49
993.535	92.82
993.698	63.57
993.862	95.53
994.025	138.74
994.189	82.55
994.352	56.98
994.515	58.14
994.679	97.47
994.842	75.77
995.006	96.89
995.169	36.44
995.332	16.68
995.496	66.28
995.659	7.38
995.822	65.7
995.985	56.59
996.149	116.07
996.312	45.93
996.475	111.42
996.638	74.22
996.801	97.47
996.964	132.73
997.128	66.67
997.291	61.43
997.454	58.33
997.617	13
997.78	97.28
997.943	54.46
998.106	100.38
998.269	58.33
998.432	31.6
998.595	74.03
998.758	16.1
998.92	6.41
999.083	4.67
999.246	39.54
999.409	18.81
999.572	12.8
999.735	53.3
999.897	84.88
1000.06	48.26
1000.223	16.68
1000.386	65.89
1000.548	78.29
1000.711	78.1
1000.874	73.64
1001.036	22.49
1001.199	83.91
1001.361	42.06
1001.524	49.23
1001.687	83.13
1001.849	22.68
1002.012	56.2
1002.174	63.95
1002.337	53.49
1002.499	36.44
1002.661	74.03
1002.824	15.71
1002.986	31.4
1003.149	39.15
1003.311	27.33
1003.473	87.4
1003.636	32.37
1003.798	69.96
1003.96	48.07
1004.123	46.32
1004.285	43.22
1004.447	38.77
1004.609	37.99
1004.771	103.09
1004.933	14.55
1005.096	25.2
1005.258	-7.35
1005.42	23.65
1005.582	93.01
1005.744	60.66
1005.906	5.63
1006.068	62.79
1006.23	19.78
1006.392	-16.45
1006.554	5.05
1006.716	83.33
1006.878	70.93
1007.04	1.37
1007.202	38.57
1007.363	43.42
1007.525	69.96
1007.687	58.53
1007.849	76.74
1008.011	13.58
1008.172	-0.95
1008.334	32.37
1008.496	61.43
1008.658	20.94
1008.819	-7.35
1008.981	14.55
1009.143	24.82
1009.304	17.65
1009.466	54.46
1009.627	103.86
1009.789	138.16
1009.95	51.94
1010.112	34.89
1010.273	66.28
1010.435	2.92
1010.596	-4.44
1010.758	14.55
1010.919	43.42
1011.081	-0.37
1011.242	33.15
1011.403	54.65
1011.565	23.85
1011.726	47.87
1011.887	10.28
1012.049	25.78
1012.21	51.36
1012.371	104.83
1012.532	-40.67
1012.693	37.6
1012.855	21.52
1013.016	39.93
1013.177	53.1
1013.338	32.18
1013.499	72.67
1013.66	58.53
1013.821	65.31
1013.982	38.57
1014.143	33.53
1014.304	3.7
1014.465	62.21
1014.626	66.47
1014.787	27.92
1014.948	81.39
1015.109	-38.93
1015.27	70.15
1015.431	29.66
1015.592	-3.08
1015.752	82.16
1015.913	41.48
1016.074	46.71
1016.235	19.97
1016.395	-0.37
1016.556	19.39
1016.717	27.14
1016.877	68.02
1017.038	17.26
1017.199	45.35
1017.359	53.68
1017.52	50
1017.681	4.47
1017.841	7.38
1018.002	-5.41
1018.162	22.49
1018.323	69.18
1018.483	18.42
1018.644	10.09
1018.804	3.12
1018.964	-2.5
1019.125	11.06
1019.285	45.74
1019.446	-3.28
1019.606	-18
1019.766	-23.43
1019.926	48.45
1020.087	15.32
1020.247	-20.71
1020.407	56.78
1020.567	49.42
1020.728	15.52
1020.888	-13.16
1021.048	41.67
1021.208	-10.25
1021.368	2.53
1021.528	53.88
1021.688	48.26
1021.848	38.57
1022.008	44.38
1022.168	28.69
1022.328	21.13
1022.488	64.73
1022.648	-5.6
1022.808	37.6
1022.968	51.17
1023.128	-21.3
1023.288	17.65
1023.448	7.57
1023.608	41.87
1023.767	56.2
1023.927	7.96
1024.087	-18.58
1024.247	-7.15
1024.406	14.55
1024.566	-20.13
1024.726	-12.19
1024.885	13.38
1025.045	40.9
1025.205	19.39
1025.364	-3.86
1025.524	46.32
1025.683	13.38
1025.843	13.97
1026.003	30.05
1026.162	77.71
1026.321	46.32
1026.481	24.04
1026.64	0.98
1026.8	23.85
1026.959	7.57
1027.119	21.72
1027.278	13.77
1027.437	5.05
1027.597	16.68
1027.756	23.07
1027.915	23.27
1028.074	51.55
1028.234	31.79
1028.393	5.05
1028.552	-8.31
1028.711	-38.93
1028.87	38.57
1029.03	-34.86
1029.189	1.37
1029.348	-54.62
1029.507	3.89
1029.666	8.15
1029.825	-29.63
1029.984	11.83
1030.143	31.02
1030.302	4.28
1030.461	-41.64
1030.62	-2.12
1030.779	8.54
1030.938	-36.99
1031.097	-17.81
1031.255	31.02
1031.414	51.94
1031.573	53.1
1031.732	-9.48
1031.891	9.7
1032.049	49.03
1032.208	32.76
1032.367	6.41
1032.525	-9.09
1032.684	5.05
1032.843	37.02
1033.001	-36.02
1033.16	154.82
1033.319	43.61
1033.477	4.08
1033.636	-16.26
1033.794	-9.48
1033.953	45.74
1034.111	24.62
1034.27	-25.17
1034.428	24.43
1034.587	-5.6
1034.745	25.98
1034.903	-18.78
1035.062	4.67
1035.22	-23.43
1035.378	33.73
1035.537	-30.4
1035.695	8.54
1035.853	3.7
1036.011	18.62
1036.17	20.36
1036.328	-46.48
1036.486	22.3
1036.644	14.16
1036.802	-59.66
1036.96	-14.9
1037.119	-5.22
1037.277	-0.37
1037.435	-28.85
1037.593	-32.34
1037.751	19.58
1037.909	20.94
1038.067	20.94
