Data from oakcork_FLMT105791__180__17-31-53-057.txt Node

Date: Mon Mar 20 17:31:53 GMT 2023
User: antho
Spectrometer: FLMT10579
Trigger mode: 0
Integration Time (sec): 1.000000E-1
Scans to average: 10
Electric dark correction enabled: true
Nonlinearity correction enabled: false
Boxcar width: 0
XAxis mode: Wavelengths
Number of Pixels in Spectrum: 3648
>>>>>Begin Spectral Data<<<<<
345.248	-138.87
345.464	-138.87
345.681	-138.87
345.898	-146.62
346.114	-149.33
346.331	-45.87
346.548	10.51
346.764	19.81
346.981	-11.38
347.197	-13.51
347.414	14.58
347.631	-4.02
347.847	35.5
348.064	-6.93
348.28	47.9
348.497	-43.35
348.713	-3.25
348.93	26.01
349.146	37.05
349.363	16.13
349.579	-5.18
349.796	-3.44
350.012	4.5
350.229	39.77
350.445	15.35
350.661	-28.43
350.878	0.82
351.094	19.42
351.311	6.44
351.527	29.69
351.743	8.19
351.96	31.44
352.176	14.58
352.392	12.45
352.609	39.38
352.825	-0.15
353.041	5.47
353.257	10.32
353.474	26.98
353.69	11.09
353.906	19.23
354.122	-30.95
354.339	54.1
354.555	16.9
354.771	18.65
354.987	53.91
355.203	43.25
355.42	5.09
355.636	-26.88
355.852	-9.83
356.068	-11.19
356.284	-42.38
356.5	48.1
356.716	26.98
356.932	8.96
357.148	32.6
357.364	14.58
357.58	61.66
357.796	62.44
358.012	47.71
358.228	25.24
358.444	-33.08
358.66	47.71
358.876	10.7
359.092	-26.69
359.308	29.11
359.524	33.37
359.74	5.28
359.956	-39.48
360.172	19.42
360.388	26.98
360.604	15.55
360.819	81.03
361.035	22.52
361.251	20
361.467	-14.48
361.683	58.75
361.898	14.39
362.114	60.11
362.33	24.46
362.546	38.8
362.762	-5.96
362.977	24.07
363.193	-7.9
363.409	23.69
363.624	-4.41
363.84	-5.18
364.056	-10.03
364.271	16.52
364.487	20.78
364.703	17.1
364.918	-6.54
365.134	1.21
365.35	22.52
365.565	102.35
365.781	29.69
365.996	32.02
366.212	76.58
366.427	11.09
366.643	-3.25
366.858	4.89
367.074	-18.36
367.289	43.84
367.505	94.02
367.72	-21.26
367.936	-0.92
368.151	59.92
368.367	15.74
368.582	7.8
368.798	-14.29
369.013	79.87
369.228	34.15
369.444	21.36
369.659	58.37
369.874	26.2
370.09	54.3
370.305	-17.39
370.52	-9.83
370.736	59.53
370.951	2.18
371.166	55.46
371.381	67.47
371.597	57.4
371.812	-10.8
372.027	20.39
372.242	17.87
372.458	109.52
372.673	12.25
372.888	15.94
373.103	38.6
373.318	105.25
373.533	32.02
373.749	35.89
373.964	-12.74
374.179	66.31
374.394	-15.26
374.609	71.54
374.824	9.35
375.039	62.63
375.254	14.77
375.469	64.57
375.684	13.42
375.899	78.9
376.114	5.28
376.329	28.53
376.544	58.56
376.759	42.48
376.974	-12.35
377.189	13.03
377.404	8.57
377.619	63.99
377.834	-29.4
378.049	-11.19
378.264	-13.32
378.478	39.57
378.693	-2.86
378.908	28.92
379.123	33.76
379.338	49.07
379.553	31.82
379.767	27.17
379.982	25.43
380.197	67.67
380.412	16.32
380.626	36.67
380.841	114.75
381.056	45.39
381.271	80.45
381.485	-10.03
381.7	-11.38
381.915	30.08
382.129	4.12
382.344	47.32
382.559	18.07
382.773	56.62
382.988	-13.32
383.202	47.32
383.417	-1.7
383.632	100.02
383.846	31.82
384.061	33.37
384.275	18.45
384.49	68.63
384.704	43.84
384.919	44.42
385.133	23.69
385.348	65.15
385.562	4.5
385.777	68.25
385.991	26.4
386.206	20.97
386.42	15.74
386.634	86.46
386.849	49.07
387.063	30.85
387.277	1.21
387.492	28.14
387.706	-7.12
387.92	7.99
388.135	80.07
388.349	34.73
388.563	45.39
388.778	47.13
388.992	53.72
389.206	39.57
389.42	108.93
389.635	16.32
389.849	51.2
390.063	51.2
390.277	28.34
390.491	88.01
390.706	14.39
390.92	78.13
391.134	34.73
391.348	62.05
391.562	-22.62
391.776	6.25
391.99	28.72
392.205	63.21
392.419	5.09
392.633	56.04
392.847	102.73
393.061	-5.76
393.275	73.48
393.489	25.24
393.703	30.27
393.917	74.06
394.131	-3.63
394.345	16.13
394.559	72.51
394.773	18.65
394.986	36.47
395.2	25.24
395.414	46.16
395.628	-22.62
395.842	13.42
396.056	34.54
396.27	-15.45
396.484	46.74
396.697	54.69
396.911	67.28
397.125	52.75
397.339	67.67
397.553	65.92
397.766	102.35
397.98	54.3
398.194	43.06
398.408	53.14
398.621	60.3
398.835	48.68
399.049	49.07
399.262	88.4
399.476	71.93
399.69	75.42
399.903	114.75
400.117	57.01
400.331	73.87
400.544	29.3
400.758	159.7
400.971	81.23
401.185	91.88
401.398	15.16
401.612	82.39
401.826	62.24
402.039	100.22
402.253	55.65
402.466	82.97
402.68	62.63
402.893	57.01
403.106	57.4
403.32	52.94
403.533	77.35
403.747	63.4
403.96	61.08
404.174	71.35
404.387	13.61
404.6	68.25
404.814	93.63
405.027	77.93
405.24	69.99
405.454	41.12
405.667	106.22
405.88	-2.47
406.094	84.13
406.307	95.76
406.52	71.54
406.733	40.54
406.947	37.64
407.16	104.87
407.373	98.08
407.586	53.33
407.799	9.74
408.012	107.38
408.226	82.78
408.439	93.63
408.652	31.82
408.865	90.14
409.078	100.6
409.291	104.87
409.504	43.25
409.717	70.57
409.93	91.69
410.143	61.47
410.357	25.24
410.57	22.52
410.783	52.75
410.996	79.48
411.209	76.38
411.421	109.13
411.634	55.85
411.847	40.35
412.06	51
412.273	57.59
412.486	59.92
412.699	147.3
412.912	42.29
413.125	92.47
413.338	67.47
413.55	92.66
413.763	48.87
413.976	96.34
414.189	79.1
414.402	61.47
414.615	109.32
414.827	33.76
415.04	99.63
415.253	85.49
415.466	110.68
415.678	139.55
415.891	87.62
416.104	82.39
416.316	70.18
416.529	57.4
416.742	98.08
416.954	103.7
417.167	69.6
417.38	86.27
417.592	129.67
417.805	53.14
418.017	53.14
418.23	95.76
418.442	63.4
418.655	41.7
418.868	93.05
419.08	108.74
419.293	126.95
419.505	90.72
419.718	95.57
419.93	111.07
420.142	57.98
420.355	138.77
420.567	126.18
420.78	117.46
420.992	83.75
421.205	157.76
421.417	58.75
421.629	61.08
421.842	40.93
422.054	46.35
422.266	88.78
422.479	120.37
422.691	99.44
422.903	107.58
423.115	58.75
423.328	73.48
423.54	103.12
423.752	103.12
423.964	50.81
424.177	75.22
424.389	69.8
424.601	164.73
424.813	83.94
425.025	89.75
425.238	109.32
425.45	81.62
425.662	59.72
425.874	366.04
426.086	79.68
426.298	111.45
426.51	86.27
426.722	91.88
426.934	79.68
427.146	118.62
427.358	83.36
427.57	114.55
427.782	68.25
427.994	106.22
428.206	76.58
428.418	55.27
428.63	110.68
428.842	141.87
429.054	104.28
429.266	131.41
429.478	56.43
429.69	87.82
429.902	53.14
430.114	109.71
430.325	87.82
430.537	52.17
430.749	89.56
430.961	26.59
431.173	76
431.384	98.28
431.596	48.49
431.808	87.82
432.02	105.83
432.231	123.27
432.443	137.22
432.655	92.27
432.867	91.88
433.078	121.53
433.29	161.44
433.502	139.35
433.713	143.62
433.925	86.65
434.136	140.9
434.348	87.43
434.56	52.75
434.771	190.11
434.983	77.93
435.194	79.29
435.406	103.12
435.617	151.95
435.829	175.78
436.04	128.89
436.252	141.29
436.463	145.94
436.675	162.21
436.886	100.8
437.098	136.25
437.309	174.42
437.521	129.86
437.732	109.13
437.943	128.5
438.155	109.52
438.366	79.1
438.578	187.98
438.789	134.9
439	141.48
439.211	124.24
439.423	144.58
439.634	149.04
439.845	151.37
440.057	115.72
440.268	170.93
440.479	93.05
440.69	148.65
440.902	110.68
441.113	138.38
441.324	107
441.535	154.46
441.746	186.82
441.957	94.02
442.168	106.22
442.38	146.52
442.591	168.8
442.802	123.08
443.013	130.05
443.224	150.59
443.435	126.57
443.646	128.31
443.857	123.47
444.068	101.57
444.279	115.33
444.49	191.86
444.701	136.64
444.912	224.6
445.123	176.55
445.334	179.07
445.545	164.54
445.756	138.38
445.967	105.25
446.178	155.05
446.388	165.9
446.599	166.48
446.81	174.23
447.021	126.37
447.232	178.68
447.443	201.35
447.653	140.13
447.864	187.98
448.075	141.1
448.286	180.43
448.496	168.22
448.707	185.85
448.918	164.15
449.129	222.28
449.339	160.66
449.55	199.61
449.761	166.48
449.971	208.33
450.182	136.83
450.393	187.4
450.603	162.99
450.814	216.85
451.024	199.61
451.235	206.2
451.446	219.56
451.656	234.48
451.867	170.35
452.077	186.43
452.288	222.66
452.498	237.2
452.709	177.71
452.919	173.65
453.13	160.08
453.34	224.6
453.55	117.46
453.761	198.64
453.971	193.8
454.182	199.41
454.392	205.42
454.602	231.77
454.813	193.02
455.023	230.22
455.233	139.16
455.444	192.83
455.654	126.18
455.864	196.31
456.075	172.87
456.285	170.55
456.495	173.84
456.705	176.55
456.916	227.7
457.126	237
457.336	200.58
457.546	120.37
457.756	166.67
457.967	224.02
458.177	170.55
458.387	188.56
458.597	153.3
458.807	187.79
459.017	199.8
459.227	186.05
459.437	191.66
459.647	203.48
459.857	215.5
460.068	162.21
460.278	246.3
460.488	221.5
460.698	254.44
460.908	213.75
461.117	153.5
461.327	171.9
461.537	200.96
461.747	208.91
461.957	183.33
462.167	301.13
462.377	201.35
462.587	206.39
462.797	248.63
463.007	187.4
463.216	208.33
463.426	248.24
463.636	241.07
463.846	168.8
464.056	183.72
464.265	230.8
464.475	191.08
464.685	186.43
464.895	253.66
465.104	202.9
465.314	224.41
465.524	187.6
465.733	185.46
465.943	272.07
466.153	284.47
466.362	265.09
466.572	219.56
466.782	185.46
466.991	215.69
467.201	255.21
467.41	186.24
467.62	242.23
467.829	207.75
468.039	238.75
468.249	210.26
468.458	219.37
468.668	247.46
468.877	239.33
469.086	274.59
469.296	270.91
469.505	222.86
469.715	309.08
469.924	237.2
470.134	288.54
470.343	271.68
470.552	251.53
470.762	195.73
470.971	216.85
471.18	244.75
471.39	224.6
471.599	237.78
471.808	260.83
472.018	220.53
472.227	263.74
472.436	274.98
472.645	216.08
472.855	235.84
473.064	287.96
473.273	249.79
473.482	297.26
473.691	279.63
473.901	261.41
474.11	266.45
474.319	327.48
474.528	247.66
474.737	307.14
474.946	284.28
475.155	277.88
475.364	338.91
475.573	262.58
475.783	261.8
475.992	283.89
476.201	334.46
476.41	276.53
476.619	233.51
476.828	279.82
477.037	254.83
477.245	285.44
477.454	299.19
477.663	299.78
477.872	252.31
478.081	322.25
478.29	269.94
478.499	344.14
478.708	330.39
478.917	360.61
479.125	310.24
479.334	296.48
479.543	290.48
479.752	302.68
479.961	308.11
480.169	341.82
480.378	311.4
480.587	409.24
480.796	327.29
481.004	309.66
481.213	354.22
481.422	321.28
481.63	335.23
481.839	352.67
482.048	391.81
482.256	338.33
482.465	319.15
482.674	364.1
482.882	360.42
483.091	428.62
483.299	336.01
483.508	378.24
483.716	349.37
483.925	360.61
484.134	336.78
484.342	332.71
484.551	372.43
484.759	381.54
484.967	397.04
485.176	364.68
485.384	408.27
485.593	364.49
485.801	410.02
486.01	370.3
486.218	343.76
486.426	316.63
486.635	340.66
486.843	312.76
487.051	372.24
487.26	339.3
487.468	384.06
487.676	380.76
487.885	361.77
488.093	384.83
488.301	381.15
488.509	393.16
488.717	403.04
488.926	383.28
489.134	375.72
489.342	370.69
489.55	360.03
489.758	382.89
489.967	387.93
490.175	441.4
490.383	377.47
490.591	431.72
490.799	387.35
491.007	444.12
491.215	419.12
491.423	399.94
491.631	415.64
491.839	376.5
492.047	446.44
492.255	389.09
492.463	379.41
492.671	393.36
492.879	445.67
493.087	394.91
493.295	418.54
493.503	448.57
493.711	439.47
493.919	478.41
494.127	463.1
494.334	450.9
494.542	398.59
494.75	453.03
494.958	441.02
495.166	477.05
495.374	440.05
495.581	433.65
495.789	453.22
495.997	492.75
496.205	438.89
496.412	448.38
496.62	449.15
496.828	466.01
497.035	441.6
497.243	480.54
497.451	473.18
497.658	463.88
497.866	451.09
498.074	529.56
498.281	447.22
498.489	556.68
498.696	488.49
498.904	446.64
499.112	453.8
499.319	514.25
499.527	446.64
499.734	497.4
499.942	424.16
500.149	455.35
500.357	504.76
500.564	449.54
500.771	503.98
500.979	475.31
501.186	444.31
501.394	463.88
501.601	466.4
501.808	506.12
502.016	485.39
502.223	464.07
502.43	491.78
502.638	469.5
502.845	464.65
503.052	538.08
503.26	465.04
503.467	560.56
503.674	473.76
503.881	522.58
504.089	587.49
504.296	528.01
504.503	457.49
504.71	519.48
504.917	460.78
505.125	525.68
505.332	478.8
505.539	484.42
505.746	583.03
505.953	550.48
506.16	540.6
506.367	576.83
506.574	567.53
506.781	558.43
506.988	491.39
507.195	542.54
507.402	543.12
507.609	569.47
507.816	521.03
508.023	508.63
508.23	510.38
508.437	511.73
508.644	563.66
508.851	589.43
509.058	563.08
509.265	570.63
509.472	583.42
509.679	640.19
509.885	545.25
510.092	564.24
510.299	573.93
510.506	575.09
510.713	581.29
510.92	596.4
511.126	615.39
511.333	626.24
511.54	609.77
511.746	623.72
511.953	624.11
512.16	645.81
512.367	585.75
512.573	604.54
512.78	579.93
512.987	603.38
513.193	570.44
513.4	529.75
513.606	610.16
513.813	647.16
514.02	619.85
514.226	660.34
514.433	647.75
514.639	547
514.846	617.71
515.052	599.11
515.259	635.15
515.465	619.65
515.672	641.74
515.878	720.4
516.085	614.03
516.291	678.74
516.497	618.68
516.704	611.9
516.91	577.42
517.117	574.51
517.323	555.72
517.529	614.42
517.736	607.64
517.942	618.3
518.148	563.66
518.354	621.59
518.561	642.32
518.767	631.08
518.973	689.59
519.179	662.66
519.386	616.55
519.592	618.68
519.798	633.8
520.004	714.59
520.21	671.58
520.417	721.18
520.623	737.26
520.829	729.12
521.035	770.97
521.241	727.18
521.447	741.91
521.653	822.7
521.859	739
522.065	735.71
522.271	819.41
522.477	765.16
522.683	808.75
522.889	749.08
523.095	776.59
523.301	779.69
523.507	753.14
523.713	799.64
523.919	753.14
524.125	833.16
524.331	773.29
524.537	846.34
524.742	834.91
524.948	849.63
525.154	832.97
525.36	942.24
525.566	832.19
525.772	897.49
525.977	808.75
526.183	880.63
526.389	875.59
526.595	845.17
526.8	829.48
527.006	789.57
527.212	787.24
527.417	767.87
527.623	765.93
527.829	838.97
528.034	881.4
528.24	869.78
528.446	842.66
528.651	882.18
528.857	898.65
529.062	962
529.268	888.77
529.473	927.32
529.679	880.24
529.884	964.52
530.09	956.38
530.295	996.88
530.501	983.32
530.706	936.24
530.912	929.84
531.117	927.71
531.323	943.6
531.528	959.1
531.733	977.5
531.939	916.09
532.144	981.18
532.35	966.27
532.555	1015.28
532.76	1004.82
532.966	997.65
533.171	986.61
533.376	970.14
533.581	936.62
533.787	973.43
533.992	993.2
534.197	1042.8
534.402	989.9
534.607	991.65
534.813	1069.53
535.018	971.3
535.223	999.4
535.428	1023.42
535.633	1070.5
535.838	1056.36
536.043	1032.53
536.249	1108.48
536.454	1020.71
536.659	1062.95
536.864	1033.5
537.069	1036.6
537.274	1052.1
537.479	1055.97
537.684	1040.86
537.889	1013.93
538.094	1138.31
538.299	1054.03
538.504	1091.43
538.708	1088.91
538.913	1080.19
539.118	1059.07
539.323	1063.33
539.528	1054.42
539.733	1066.82
539.938	1067.6
540.142	1074.96
540.347	1044.35
540.552	1065.08
540.757	1074.18
540.962	1056.75
541.166	1012.38
541.371	1059.65
541.576	1076.9
541.781	973.05
541.985	1046.67
542.19	1059.46
542.395	1130.56
542.599	1139.09
542.804	1136.18
543.008	1124.94
543.213	1073.6
543.418	1047.25
543.622	1122.04
543.827	1062.17
544.031	1100.34
544.236	1138.89
544.44	1162.53
544.645	1217.56
544.849	1085.42
545.054	1128.24
545.258	1202.44
545.463	1168.34
545.667	1123.78
545.872	1145.68
546.076	1127.66
546.281	1146.45
546.485	1101.89
546.689	1152.84
546.894	1161.56
547.098	1137.54
547.302	1073.8
547.507	1140.64
547.711	1171.83
547.915	1173.19
548.119	1070.11
548.324	1137.15
548.528	1174.93
548.732	1142.58
548.936	1176.09
549.141	1166.6
549.345	1143.16
549.549	1139.48
549.753	1140.83
549.957	1243.13
550.161	1202.64
550.366	1161.56
550.57	1150.13
550.774	1146.06
550.978	1146.26
551.182	1154.39
551.386	1138.12
551.59	1136.57
551.794	1157.49
551.998	1190.04
552.202	1151.49
552.406	1137.93
552.61	1174.54
552.814	1179
553.018	1234.41
553.222	1131.92
553.426	1141.41
553.63	1238.67
553.833	1163.89
554.037	1154.2
554.241	1193.73
554.445	1140.83
554.649	1141.22
554.853	1152.65
555.056	1194.31
555.26	1205.93
555.464	1195.28
555.668	1173.77
555.871	1197.6
556.075	1200.12
556.279	1146.64
556.483	1117.19
556.686	1151.1
556.89	1163.89
557.094	1156.33
557.297	1092.4
557.501	1172.61
557.704	1104.8
557.908	1193.92
558.112	1104.02
558.315	1167.38
558.519	1107.9
558.722	1127.66
558.926	1129.4
559.129	1084.06
559.333	1050.55
559.536	1084.26
559.74	1095.5
559.943	1065.27
560.147	1070.7
560.35	1077.48
560.553	1056.16
560.757	1008.7
560.96	1134.05
561.164	1092.59
561.367	1154.59
561.57	1079.61
561.774	1101.89
561.977	1079.41
562.18	1064.11
562.384	1169.12
562.587	1080.38
562.79	1040.28
562.993	1069.53
563.197	1092.01
563.4	1132.31
563.603	1118.16
563.806	1128.04
564.009	1058.49
564.212	1067.01
564.416	1028.46
564.619	1072.63
564.822	1005.79
565.025	1097.63
565.228	1027.3
565.431	1029.23
565.634	945.92
565.837	988.35
566.04	960.45
566.243	1028.85
566.446	943.21
566.649	959.87
566.852	963.55
567.055	1011.6
567.258	1004.24
567.461	1040.47
567.664	1034.66
567.867	955.8
568.07	1027.88
568.273	963.36
568.475	1037.56
568.678	974.98
568.881	963.36
569.084	987.97
569.287	885.47
569.489	921.32
569.692	972.27
569.895	995.33
570.098	923.25
570.3	886.44
570.503	860.87
570.706	889.35
570.909	888.77
571.111	851.57
571.314	843.43
571.516	876.75
571.719	875.98
571.922	867.07
572.124	872.1
572.327	869.2
572.529	809.33
572.732	831.61
572.935	891.29
573.137	941.08
573.34	825.41
573.542	864.94
573.745	883.92
573.947	869
574.15	850.02
574.352	816.31
574.554	904.85
574.757	803.13
574.959	853.7
575.162	807.01
575.364	825.02
575.566	924.61
575.769	812.82
575.971	820.37
576.173	748.3
576.376	816.11
576.578	830.45
576.78	871.72
576.982	763.41
577.185	804.29
577.387	754.5
577.589	782.79
577.791	809.14
577.993	852.15
578.196	765.93
578.398	824.44
578.6	822.89
578.802	739.97
579.004	765.93
579.206	766.51
579.408	762.44
579.61	765.16
579.812	825.22
580.014	755.66
580.216	772.71
580.418	762.64
580.62	763.8
580.822	736.48
581.024	791.7
581.226	795.77
581.428	771.16
581.63	811.27
581.832	751.98
582.034	800.22
582.236	787.63
582.438	799.06
582.64	850.41
582.841	865.52
583.043	857.38
583.245	799.06
583.447	778.91
583.649	779.11
583.85	799.45
584.052	803.71
584.254	759.73
584.456	832.97
584.657	726.79
584.859	770.58
585.061	763.41
585.262	734.93
585.464	729.31
585.666	818.24
585.867	732.61
586.069	813.98
586.27	780.07
586.472	768.84
586.674	745.59
586.875	755.08
587.077	772.13
587.278	769.61
587.48	734.54
587.681	858.93
587.883	759.34
588.084	710.33
588.285	733.96
588.487	726.6
588.688	735.13
588.89	661.7
589.091	669.06
589.292	685.91
589.494	667.12
589.695	667.7
589.896	607.83
590.098	590.01
590.299	693.66
590.5	634.96
590.702	674.87
590.903	663.25
591.104	707.81
591.305	664.41
591.507	726.41
591.708	698.31
591.909	667.31
592.11	761.48
592.311	703.16
592.512	668.67
592.714	625.66
592.915	625.27
593.116	649.1
593.317	693.47
593.518	655.11
593.719	627.79
593.92	699.48
594.121	711.29
594.322	689.21
594.523	683.59
594.724	652.59
594.925	637.09
595.126	646.78
595.327	702.77
595.528	680.1
595.729	682.81
595.929	666.93
596.13	705.09
596.331	656.66
596.532	658.21
596.733	712.46
596.934	719.04
597.135	708.58
597.335	703.35
597.536	652.01
597.737	704.13
597.938	672.35
598.138	708.78
598.339	685.33
598.54	721.56
598.74	664.8
598.941	686.3
599.142	721.37
599.342	683.39
599.543	654.91
599.744	675.65
599.944	669.64
600.145	668.48
600.345	670.22
600.546	743.46
600.746	710.52
600.947	726.02
601.147	685.53
601.348	683.2
601.548	653.75
601.749	679.52
601.949	644.06
602.15	656.27
602.35	675.45
602.551	712.84
602.751	634.18
602.951	659.95
603.152	620.62
603.352	689.59
603.552	672.93
603.753	706.84
603.953	676.61
604.153	684.75
604.354	664.8
604.554	649.88
604.754	649.88
604.954	646.58
605.155	672.55
605.355	640.96
605.555	701.99
605.755	701.22
605.955	671.38
606.155	719.04
606.356	648.71
606.556	693.86
606.756	662.86
606.956	622.95
607.156	709.55
607.356	625.46
607.556	673.51
607.756	668.48
607.956	687.66
608.156	667.51
608.356	632.25
608.556	674.87
608.756	667.12
608.956	637.86
609.156	670.03
609.356	631.66
609.556	626.82
609.755	618.1
609.955	622.36
610.155	644.84
610.355	617.13
610.555	625.85
610.755	647.75
610.954	581.68
611.154	619.65
611.354	661.31
611.554	594.66
611.753	633.02
611.953	572.18
612.153	656.08
612.352	628.37
612.552	603.96
612.752	547.38
612.951	609.96
613.151	616.94
613.351	600.08
613.55	605.9
613.75	600.08
613.949	595.05
614.149	626.63
614.348	604.54
614.548	574.12
614.747	540.41
614.947	565.4
615.146	547.77
615.346	619.07
615.545	582.07
615.745	612.29
615.944	612.1
616.144	578.77
616.343	605.7
616.542	581.48
616.742	575.09
616.941	571.99
617.14	528.78
617.34	574.51
617.539	595.82
617.738	532.85
617.938	627.21
618.137	575.28
618.336	529.75
618.535	585.75
618.734	570.63
618.934	553.39
619.133	590.01
619.332	577.42
619.531	523.55
619.73	561.53
619.929	570.83
620.128	563.66
620.328	609.96
620.527	518.71
620.726	554.17
620.925	551.84
621.124	547.38
621.323	583.62
621.522	518.13
621.721	517.55
621.92	529.17
622.119	582.65
622.318	529.37
622.517	531.69
622.715	531.69
622.914	472.79
623.113	560.75
623.312	470.08
623.511	542.54
623.71	548.93
623.909	488.29
624.107	580.32
624.306	474.34
624.505	521.42
624.704	527.82
624.902	518.71
625.101	553.58
625.3	571.99
625.499	507.67
625.697	508.44
625.896	467.75
626.095	537.89
626.293	469.11
626.492	471.05
626.69	518.32
626.889	480.35
627.088	522.58
627.286	474.34
627.485	462.72
627.683	475.12
627.882	501.85
628.08	439.27
628.279	462.72
628.477	549.71
628.676	431.52
628.874	525.3
629.073	483.06
629.271	442.76
629.469	485.97
629.668	483.64
629.866	461.75
630.065	469.89
630.263	459.62
630.461	455.74
630.66	453.61
630.858	497.79
631.056	519.87
631.254	533.24
631.453	447.99
631.651	527.62
631.849	497.01
632.047	477.64
632.245	482.87
632.444	485.77
632.642	495.65
632.84	500.11
633.038	498.75
633.236	457.49
633.434	460
633.632	469.3
633.83	457.87
634.028	514.06
634.227	487.9
634.425	510.96
634.623	482.48
634.821	504.37
635.019	477.83
635.216	490.04
635.414	485.77
635.612	510.18
635.81	460.59
636.008	547.97
636.206	462.91
636.404	513.28
636.602	464.85
636.8	491.78
636.997	519.48
637.195	523.75
637.393	463.3
637.591	518.32
637.789	498.56
637.986	463.1
638.184	483.64
638.382	525.3
638.58	513.09
638.777	529.37
638.975	466.01
639.173	476.09
639.37	505.15
639.568	485.77
639.765	526.27
639.963	495.07
640.161	486.35
640.358	526.85
640.556	453.8
640.753	408.08
640.951	436.17
641.148	521.03
641.346	455.35
641.543	473.57
641.741	506.7
641.938	440.24
642.136	486.74
642.333	438.89
642.531	494.3
642.728	503.4
642.925	487.13
643.123	443.73
643.32	489.45
643.517	457.87
643.715	472.21
643.912	429.78
644.109	460.59
644.306	466.2
644.504	430.36
644.701	466.01
644.898	486.55
645.095	449.15
645.293	433.27
645.49	477.25
645.687	484.42
645.884	526.07
646.081	402.27
646.278	463.49
646.475	431.33
646.672	441.79
646.87	437.72
647.067	448.77
647.264	437.72
647.461	439.27
647.658	376.69
647.855	457.1
648.052	441.6
648.249	349.18
648.446	416.22
648.642	390.06
648.839	401.3
649.036	407.31
649.233	369.52
649.43	364.1
649.627	348.6
649.824	385.22
650.021	387.54
650.217	386.57
650.414	416.8
650.611	409.63
650.808	397.81
651.004	398.01
651.201	428.04
651.398	465.43
651.595	409.44
651.791	388.71
651.988	427.45
652.185	361.19
652.381	420.48
652.578	385.61
652.775	429.59
652.971	389.87
653.168	376.5
653.364	411.57
653.561	346.86
653.757	385.22
653.954	393.16
654.15	386.57
654.347	452.84
654.543	418.15
654.74	361
654.936	368.94
655.133	387.16
655.329	393.55
655.525	363.71
655.722	391.61
655.918	367.97
656.115	403.24
656.311	332.52
656.507	297.84
656.704	274.01
656.9	331.36
657.096	297.45
657.292	340.66
657.489	390.45
657.685	349.76
657.881	327.48
658.077	334.26
658.273	325.74
658.47	399.75
658.666	342.01
658.862	377.66
659.058	309.27
659.254	411.76
659.45	326.32
659.646	402.27
659.842	353.25
660.038	386.96
660.234	336.78
660.43	357.71
660.626	422.22
660.822	391.81
661.018	372.62
661.214	354.61
661.41	304.62
661.606	404.21
661.802	388.12
661.998	348.41
662.194	326.32
662.39	363.91
662.586	362.74
662.781	378.82
662.977	401.49
663.173	404.59
663.369	359.84
663.564	380.96
663.76	396.65
663.956	343.76
664.152	388.32
664.347	305.98
664.543	353.06
664.739	329.61
664.934	277.49
665.13	315.08
665.326	383.47
665.521	359.06
665.717	301.52
665.912	329.22
666.108	269.94
666.304	289.12
666.499	345.69
666.695	270.33
666.89	328.64
667.086	378.05
667.281	337.17
667.477	382.89
667.672	358.48
667.867	318.18
668.063	338.52
668.258	306.75
668.454	329.42
668.649	405.37
668.844	329.42
669.04	364.49
669.235	310.63
669.43	304.23
669.626	270.13
669.821	316.83
670.016	283.31
670.211	334.07
670.407	299.58
670.602	317.79
670.797	328.06
670.992	360.81
671.187	306.56
671.382	350.15
671.578	294.74
671.773	294.93
671.968	295.51
672.163	308.49
672.358	331.55
672.553	301.71
672.748	320.89
672.943	387.35
673.138	297.06
673.333	335.04
673.528	300.16
673.723	322.44
673.918	302.88
674.113	268.19
674.308	389.87
674.503	330.97
674.698	350.92
674.892	328.26
675.087	336.97
675.282	323.99
675.477	294.16
675.672	322.44
675.867	291.25
676.061	282.53
676.256	263.16
676.451	290.48
676.646	309.85
676.84	282.14
677.035	268.97
677.23	250.76
677.424	305.01
677.619	323.8
677.814	320.89
678.008	363.71
678.203	268.58
678.397	299.78
678.592	305.39
678.787	376.5
678.981	290.86
679.176	331.36
679.37	315.28
679.565	268.78
679.759	296.09
679.954	316.83
680.148	359.84
680.342	349.57
680.537	339.49
680.731	286.41
680.926	328.45
681.12	327.09
681.314	292.41
681.509	316.05
681.703	287.96
681.897	330.39
682.092	306.17
682.286	278.46
682.48	373.4
682.674	328.45
682.869	300.94
683.063	306.36
683.257	355.77
683.451	280.21
683.645	321.67
683.839	285.24
684.034	309.27
684.228	340.27
684.422	274.78
684.616	306.56
684.81	348.99
685.004	305.98
685.198	299
685.392	334.07
685.586	301.71
685.78	316.24
685.974	323.99
686.168	328.26
686.362	361.39
686.556	278.08
686.75	281.76
686.944	282.73
687.138	305.01
687.331	250.37
687.525	258.31
687.719	225.38
687.913	286.21
688.107	250.76
688.301	270.13
688.494	287.18
688.688	234.87
688.882	227.51
689.076	238.16
689.269	263.35
689.463	335.42
689.657	264.51
689.85	270.13
690.044	265.29
690.238	251.14
690.431	282.73
690.625	255.6
690.818	305.98
691.012	318.18
691.205	315.08
691.399	259.09
691.593	308.49
691.786	361.58
691.98	345.11
692.173	368.75
692.366	347.82
692.56	379.99
692.753	371.46
692.947	304.62
693.14	390.64
693.333	379.21
693.527	309.08
693.72	380.37
693.914	364.68
694.107	325.74
694.3	392.58
694.493	357.9
694.687	412.15
694.88	323.61
695.073	435.79
695.266	402.07
695.46	385.41
695.653	415.83
695.846	438.69
696.039	369.72
696.232	408.08
696.425	435.01
696.618	438.11
696.812	383.28
697.005	494.49
697.198	543.12
697.391	447.41
697.584	460
697.777	522.58
697.97	508.25
698.163	515.22
698.356	494.1
698.549	616.36
698.742	562.5
698.935	534.79
699.127	552.62
699.32	525.49
699.513	530.92
699.706	565.6
699.899	574.51
700.092	540.41
700.285	602.02
700.477	539.44
700.67	588.46
700.863	606.28
701.056	687.85
701.248	650.85
701.441	659.18
701.634	609.38
701.826	724.66
702.019	607.25
702.212	697.15
702.404	647.75
702.597	632.25
702.79	659.56
702.982	682.04
703.175	737.45
703.367	706.26
703.56	713.62
703.752	799.84
703.945	768.26
704.137	769.03
704.33	786.08
704.522	771.55
704.715	788.79
704.907	801.39
705.1	848.27
705.292	832.77
705.484	823.86
705.677	844.21
705.869	853.89
706.061	917.83
706.254	898.65
706.446	874.04
706.638	893.42
706.831	966.65
707.023	898.65
707.215	1003.85
707.407	1009.67
707.599	962.39
707.792	1023.62
707.984	1028.85
708.176	1041.25
708.368	1001.33
708.56	1061.2
708.752	1037.18
708.944	1045.9
709.136	1082.51
709.329	1079.61
709.521	1172.41
709.713	1129.59
709.905	1148
710.097	1158.85
710.289	1131.73
710.481	1121.26
710.672	1187.72
710.864	1195.86
711.056	1235.19
711.248	1230.92
711.44	1225.69
711.632	1225.69
711.824	1252.24
712.016	1329.93
712.207	1285.95
712.399	1310.36
712.591	1364.61
712.783	1320.05
712.975	1358.41
713.166	1333.42
713.358	1324.5
713.55	1423.12
713.741	1420.02
713.933	1394.06
714.125	1421.96
714.316	1386.12
714.508	1475.05
714.7	1482.21
714.891	1456.83
715.083	1554.48
715.274	1521.35
715.466	1492.48
715.657	1552.74
715.849	1459.93
716.04	1517.09
716.232	1439.2
716.423	1504.5
716.615	1463.23
716.806	1442.88
716.998	1427.97
717.189	1375.27
717.381	1306.49
717.572	1327.41
717.763	1346.59
717.955	1347.56
718.146	1287.89
718.337	1263.67
718.528	1235.19
718.72	1168.73
718.911	1250.69
719.102	1211.55
719.293	1280.72
719.485	1262.89
719.676	1264.83
719.867	1212.71
720.058	1272
720.249	1249.91
720.44	1263.28
720.632	1284.59
720.823	1389.99
721.014	1454.12
721.205	1450.63
721.396	1560.88
721.587	1597.3
721.778	1614.93
721.969	1692.24
722.16	1735.25
722.351	1702.7
722.542	1842.2
722.733	1862.35
722.924	1795.12
723.115	1850.14
723.305	1840.26
723.496	1848.01
723.687	1725.76
723.878	1737.38
724.069	1767.99
724.26	1789.3
724.45	1722.66
724.641	1725.37
724.832	1762.95
725.023	1754.82
725.213	1763.73
725.404	1751.72
725.595	1749.2
725.785	1783.49
725.976	1798.41
726.167	1807.71
726.357	1825.53
726.548	1922.21
726.739	1831.73
726.929	1911.56
727.12	1925.31
727.31	1934.23
727.501	1915.82
727.691	1958.25
727.882	1925.9
728.072	1972.2
728.263	1976.46
728.453	2071.59
728.644	2049.51
728.834	2018.12
729.024	2042.92
729.215	2020.44
729.405	2052.99
729.596	2128.17
729.786	2151.22
729.976	2132.04
730.167	2197.72
730.357	2129.33
730.547	2188.81
730.737	2233.37
730.928	2259.92
731.118	2303.32
731.308	2211.87
731.498	2267.86
731.688	2344
731.879	2352.53
732.069	2402.32
732.259	2452.69
732.449	2471.1
732.639	2540.07
732.829	2561.97
733.019	2642.18
733.209	2690.03
733.399	2676.47
733.589	2787.3
733.779	2785.75
733.969	2787.1
734.159	2845.81
734.349	2915.75
734.539	2936.29
734.729	2951.01
734.919	2971.36
735.109	2982.98
735.299	2961.09
735.488	2997.51
735.678	3019.6
735.868	3017.08
736.058	3001.58
736.248	2997.71
736.437	2983.17
736.627	2941.13
736.817	3118.41
737.007	3094.58
737.196	3140.5
737.386	3081.79
737.576	3100.59
737.765	3184.28
737.955	3145.73
738.144	3208.31
738.334	3189.9
738.524	3135.07
738.713	3223.61
738.903	3175.76
739.092	3219.93
739.282	3261.01
739.471	3281.74
739.661	3290.46
739.85	3340.06
740.04	3334.63
740.229	3360.98
740.419	3385.01
740.608	3404.38
740.797	3381.71
740.987	3459.79
741.176	3407.48
741.365	3428.79
741.555	3355.94
741.744	3495.05
741.933	3438.29
742.123	3537.49
742.312	3485.17
742.501	3546.59
742.69	3568.68
742.88	3498.93
743.069	3631.07
743.258	3582.05
743.447	3604.72
743.636	3616.34
743.825	3601.42
744.014	3611.88
744.204	3641.53
744.393	3603.75
744.582	3676.6
744.771	3651.8
744.96	3648.5
745.149	3657.22
745.338	3639.4
745.527	3729.1
745.716	3689.77
745.905	3715.73
746.094	3740.34
746.283	3742.28
746.471	3705.08
746.66	3803.89
746.849	3743.83
747.038	3778.31
747.227	3735.88
747.416	3778.7
747.604	3700.62
747.793	3755.26
747.982	3764.56
748.171	3755.84
748.359	3769.21
748.548	3787.03
748.737	3771.53
748.926	3738.79
749.114	3682.21
749.303	3754.87
749.491	3733.56
749.68	3692.1
749.869	3752.16
750.057	3721.93
750.246	3768.82
750.434	3775.21
750.623	3747.31
750.811	3705.66
751	3733.56
751.188	3772.31
751.377	3748.86
751.565	3742.08
751.754	3741.11
751.942	3651.8
752.131	3792.65
752.319	3696.94
752.507	3673.5
752.696	3749.06
752.884	3779.09
753.072	3746.54
753.261	3739.95
753.449	3744.41
753.637	3698.49
753.825	3817.45
754.014	3756.03
754.202	3734.33
754.39	3799.04
754.578	3749.64
754.766	3720.96
754.955	3732.01
755.143	3798.46
755.331	3727.94
755.519	3712.44
755.707	3753.71
755.895	3719.03
756.083	3712.83
756.271	3677.95
756.459	3712.63
756.647	3725.42
756.835	3697.33
757.023	3651.8
757.211	3638.43
757.399	3688.8
757.587	3644.24
757.775	3652.57
757.963	3659.55
758.151	3616.15
758.339	3614.4
758.526	3600.07
758.714	3599.29
758.902	3511.33
759.09	3376.29
759.278	3167.04
759.465	2909.36
759.653	2549.57
759.841	2289.95
760.028	1951.86
760.216	1689.14
760.404	1575.41
760.591	1320.44
760.779	1117
760.967	1005.98
761.154	811.85
761.342	871.72
761.529	850.6
761.717	883.34
761.905	877.53
762.092	940.69
762.28	869.39
762.467	886.44
762.655	825.61
762.842	801.19
763.029	846.34
763.217	871.33
763.404	865.13
763.592	877.92
763.779	836.07
763.966	893.8
764.154	933.91
764.341	1005.4
764.528	1020.32
764.716	1081.35
764.903	1132.89
765.09	1206.12
765.277	1263.09
765.465	1419.83
765.652	1506.24
765.839	1555.64
766.026	1698.44
766.213	1785.43
766.4	1880.95
766.588	2084.38
766.775	2099.49
766.962	2213.03
767.149	2298.47
767.336	2473.81
767.523	2430.41
767.71	2615.44
767.897	2700.88
768.084	2736.53
768.271	2810.35
768.458	2912.84
768.645	2993.25
768.832	2938.61
769.019	3022.12
769.206	2978.52
769.392	3104.65
769.579	3182.35
769.766	3153.67
769.953	3147.28
770.14	3225.16
770.327	3221.48
770.513	3236.21
770.7	3282.51
770.887	3231.17
771.073	3278.25
771.26	3277.67
771.447	3255
771.634	3263.91
771.82	3325.53
772.007	3207.34
772.193	3324.75
772.38	3304.21
772.567	3246.86
772.753	3259.85
772.94	3351.49
773.126	3329.01
773.313	3286.39
773.499	3295.5
773.686	3346.64
773.872	3271.66
774.059	3317
774.245	3214.9
774.432	3278.64
774.618	3188.16
774.804	3257.33
774.991	3182.54
775.177	3308.28
775.363	3217.22
775.55	3263.33
775.736	3196.88
775.922	3240.08
776.109	3232.14
776.295	3235.63
776.481	3239.89
776.667	3274.38
776.853	3200.56
777.04	3259.65
777.226	3201.92
777.412	3301.69
777.598	3160.26
777.784	3191.26
777.97	3183.32
778.156	3199.01
778.342	3216.25
778.528	3179.83
778.715	3110.66
778.901	3107.95
779.087	3143.4
779.272	3092.64
779.458	3083.15
779.644	3124.22
779.83	3145.15
780.016	3213.15
780.202	3116.47
780.388	3094.58
780.574	2992.86
780.76	3069.39
780.946	3129.65
781.131	3052.73
781.317	3062.8
781.503	3019.02
781.689	3046.72
781.874	3142.05
782.06	3004.87
782.246	3063.58
782.432	3031.22
782.617	3054.67
782.803	3092.64
782.989	2968.45
783.174	2982.21
783.36	2956.05
783.545	2991.51
783.731	3000.22
783.916	2912.26
784.102	2964.19
784.288	2961.28
784.473	2937.45
784.659	2926.6
784.844	2919.63
785.029	2908.78
785.215	2924.66
785.4	2846.58
785.586	2931.64
785.771	2823.14
785.956	2945.98
786.142	2908
786.327	2916.91
786.512	2933.38
786.698	2870.41
786.883	2796.21
787.068	2838.83
787.254	2842.32
787.439	2806.48
787.624	2830.89
787.809	2796.79
787.994	2742.35
788.18	2857.24
788.365	2737.5
788.55	2783.03
788.735	2813.26
788.92	2778.19
789.105	2744.28
789.29	2726.46
789.475	2663.49
789.66	2688.48
789.845	2675.7
790.03	2663.1
790.215	2709.8
790.4	2719.48
790.585	2733.24
790.77	2724.13
790.955	2608.47
791.14	2681.12
791.325	2726.27
791.51	2587.16
791.695	2637.53
791.879	2650.7
792.064	2573.59
792.249	2710.96
792.434	2641.99
792.618	2650.51
792.803	2666.98
792.988	2638.5
793.173	2639.66
793.357	2695.07
793.542	2614.86
793.727	2664.46
793.911	2697.01
794.096	2663.3
794.281	2677.64
794.465	2782.26
794.65	2674.54
794.834	2740.02
795.019	2722.39
795.203	2726.27
795.388	2771.22
795.572	2741.18
795.757	2707.28
795.941	2686.55
796.126	2690.42
796.31	2668.14
796.494	2662.33
796.679	2645.28
796.863	2653.03
797.048	2700.11
797.232	2710.96
797.416	2693.72
797.601	2719.87
797.785	2750.87
797.969	2757.46
798.153	2699.72
798.338	2798.92
798.522	2741.96
798.706	2747.38
798.89	2767.92
799.074	2852.98
799.258	2796.79
799.443	2722.78
799.627	2759.59
799.811	2757.07
799.995	2727.43
800.179	2700.5
800.363	2717.16
800.547	2773.15
800.731	2712.32
800.915	2632.3
801.099	2709.6
801.283	2717.35
801.467	2692.75
801.651	2696.62
801.835	2766.76
802.019	2727.04
802.202	2724.13
802.386	2628.81
802.57	2653.61
802.754	2697.78
802.938	2679.96
803.121	2668.14
803.305	2758.43
803.489	2714.64
803.673	2714.45
803.856	2690.23
804.04	2629.2
804.224	2683.25
804.407	2652.06
804.591	2657.1
804.775	2680.54
804.958	2701.66
805.142	2781.1
805.326	2738.86
805.509	2744.67
805.693	2726.65
805.876	2746.42
806.06	2731.69
806.243	2764.43
806.427	2781.48
806.61	2787.1
806.794	2722.2
806.977	2736.92
807.16	2706.12
807.344	2715.42
807.527	2757.27
807.71	2732.85
807.894	2730.72
808.077	2731.3
808.26	2673.18
808.444	2666.98
808.627	2739.25
808.81	2683.06
808.993	2608.66
809.177	2573.4
809.36	2612.34
809.543	2634.24
809.726	2544.14
809.909	2577.86
810.092	2546.47
810.276	2536.78
810.459	2549.18
810.642	2536.2
810.825	2468.39
811.008	2496.29
811.191	2399.41
811.374	2457.73
811.557	2444.94
811.74	2500.94
811.923	2365.51
812.106	2368.41
812.289	2330.44
812.472	2329.86
812.654	2320.17
812.837	2288.4
813.02	2232.99
813.203	2228.14
813.386	2093.87
813.569	2121.19
813.751	2032.65
813.934	2095.23
814.117	2065.2
814.3	2014.63
814.482	1995.64
814.665	1911.75
814.848	1909.43
815.03	1854.02
815.213	1786.79
815.396	1821.08
815.578	1774.19
815.761	1767.8
815.943	1827.47
816.126	1704.83
816.309	1714.32
816.491	1619
816.674	1593.23
816.856	1617.26
817.039	1621.33
817.221	1713.36
817.403	1650.39
817.586	1647.09
817.768	1658.33
817.951	1603.31
818.133	1600.21
818.315	1614.93
818.498	1690.69
818.68	1709.29
818.862	1679.26
819.045	1705.61
819.227	1733.89
819.409	1660.85
819.591	1708.9
819.774	1681.39
819.956	1672.28
820.138	1734.86
820.32	1724.4
820.502	1795.31
820.684	1871.65
820.866	1884.24
821.048	1898
821.231	1915.43
821.413	1921.83
821.595	1876.49
821.777	1906.13
821.959	1892.77
822.141	1950.31
822.323	1816.23
822.505	1766.05
822.686	1685.84
822.868	1638.76
823.05	1506.05
823.232	1497.13
823.414	1421.18
823.596	1499.46
823.778	1477.76
823.96	1519.61
824.141	1526.39
824.323	1556.23
824.505	1659.49
824.687	1707.74
824.868	1752.1
825.05	1816.62
825.232	1832.12
825.413	1906.52
825.595	1858.67
825.777	1842.2
825.958	1849.17
826.14	1844.72
826.321	1892.96
826.503	1859.63
826.685	1889.28
826.866	1902.65
827.048	1884.82
827.229	1786.79
827.411	1759.85
827.592	1742.61
827.773	1738.74
827.955	1706.57
828.136	1737.77
828.318	1713.74
828.499	1691.85
828.68	1660.46
828.862	1693.98
829.043	1685.84
829.224	1687.97
829.406	1647.09
829.587	1647.87
829.768	1657.75
829.949	1672.86
830.131	1683.71
830.312	1726.34
830.493	1671.31
830.674	1676.35
830.855	1660.46
831.036	1677.51
831.218	1733.12
831.399	1764.12
831.58	1693.79
831.761	1686.04
831.942	1686.23
832.123	1702.51
832.304	1626.94
832.485	1665.89
832.666	1654.46
832.847	1713.94
833.028	1643.61
833.209	1663.95
833.389	1677.51
833.57	1633.73
833.751	1637.21
833.932	1664.14
834.113	1655.62
834.294	1641.86
834.475	1700.76
834.655	1729.44
834.836	1722.46
835.017	1753.07
835.198	1659.49
835.378	1728.08
835.559	1764.7
835.74	1695.92
835.92	1714.71
836.101	1696.69
836.281	1751.72
836.462	1750.55
836.643	1763.54
836.823	1754.43
837.004	1763.73
837.184	1809.84
837.365	1789.89
837.545	1766.44
837.726	1742.22
837.906	1848.98
838.087	1764.89
838.267	1751.91
838.448	1725.76
838.628	1778.84
838.808	1773.61
838.989	1786.01
839.169	1721.11
839.349	1809.84
839.53	1819.72
839.71	1780.97
839.89	1749.39
840.07	1823.4
840.251	1774.77
840.431	1804.42
840.611	1770.7
840.791	1714.71
840.971	1773.61
841.151	1742.42
841.332	1712.97
841.512	1776.71
841.692	1726.14
841.872	1771.87
842.052	1748.81
842.232	1775.16
842.412	1710.45
842.592	1746.49
842.772	1742.61
842.952	1757.53
843.132	1723.24
843.312	1727.69
843.492	1715.1
843.672	1754.04
843.851	1660.07
844.031	1730.79
844.211	1713.16
844.391	1662.79
844.571	1694.56
844.751	1708.9
844.93	1718.01
845.11	1691.46
845.29	1689.72
845.47	1737.96
845.649	1743
845.829	1744.55
846.009	1700.37
846.188	1709.09
846.368	1726.53
846.547	1734.09
846.727	1753.46
846.907	1651.74
847.086	1697.27
847.266	1720.33
847.445	1710.64
847.625	1668.79
847.804	1678.09
847.984	1706.77
848.163	1663.76
848.343	1641.09
848.522	1665.31
848.701	1672.86
848.881	1643.22
849.06	1656.97
849.239	1673.83
849.419	1665.31
849.598	1565.91
849.777	1549.06
849.957	1556.23
850.136	1513.8
850.315	1495.97
850.494	1503.53
850.674	1562.62
850.853	1562.04
851.032	1550.03
851.211	1605.24
851.39	1533.75
851.569	1528.91
851.748	1501.59
851.927	1598.85
852.107	1560.1
852.286	1506.05
852.465	1498.88
852.644	1581.61
852.823	1554.09
853.002	1532.01
853.181	1535.11
853.359	1548.48
853.538	1483.38
853.717	1535.3
853.896	1446.37
854.075	1352.6
854.254	1379.53
854.433	1291.57
854.611	1329.54
854.79	1287.89
854.969	1353.57
855.148	1364.03
855.327	1364.03
855.505	1364.61
855.684	1386.31
855.863	1416.73
856.041	1361.9
856.22	1452.18
856.399	1415.57
856.577	1476.98
856.756	1491.13
856.934	1570.37
857.113	1561.65
857.291	1497.52
857.47	1450.25
857.648	1524.26
857.827	1507.98
858.005	1516.12
858.184	1438.43
858.362	1561.84
858.541	1487.45
858.719	1492.1
858.898	1443.85
859.076	1469.81
859.254	1516.12
859.433	1463.42
859.611	1451.02
859.789	1411.3
859.967	1538.01
860.146	1486.86
860.324	1429.9
860.502	1439.59
860.68	1393.67
860.859	1371.59
861.037	1432.42
861.215	1432.03
861.393	1442.69
861.571	1400.65
861.749	1382.24
861.927	1407.82
862.105	1414.98
862.283	1408.98
862.461	1393.48
862.639	1345.24
862.817	1370.04
862.995	1394.06
863.173	1418.28
863.351	1392.12
863.529	1404.13
863.707	1427
863.885	1406.85
864.063	1332.84
864.241	1341.94
864.418	1441.14
864.596	1337.87
864.774	1306.1
864.952	1339.81
865.129	1358.6
865.307	1321.99
865.485	1278.39
865.663	1364.61
865.84	1297.77
866.018	1297.38
866.196	1150.52
866.373	1212.52
866.551	1167.57
866.728	1155.36
866.906	1137.15
867.084	1180.16
867.261	1224.92
867.439	1243.52
867.616	1259.6
867.794	1250.88
867.971	1267.16
868.149	1274.71
868.326	1317.72
868.503	1274.13
868.681	1284.4
868.858	1253.4
869.035	1234.8
869.213	1290.02
869.39	1256.5
869.567	1343.3
869.745	1261.15
869.922	1275.68
870.099	1278.59
870.276	1305.13
870.454	1307.84
870.631	1289.44
870.808	1284.79
870.985	1301.06
871.162	1297.96
871.339	1260.76
871.517	1231.12
871.694	1219.11
871.871	1259.02
872.048	1277.23
872.225	1227.44
872.402	1252.04
872.579	1219.88
872.756	1219.11
872.933	1182.1
873.11	1217.75
873.287	1198.96
873.463	1194.69
873.64	1204.57
873.817	1222.4
873.994	1187.72
874.171	1152.65
874.348	1194.31
874.524	1157.11
874.701	1208.84
874.878	1146.84
875.055	1231.89
875.231	1192.37
875.408	1175.9
875.585	1100.73
875.762	1148.39
875.938	1151.29
876.115	1151.88
876.291	1140.06
876.468	1147.81
876.645	1122.04
876.821	1127.46
876.998	1134.83
877.174	1140.44
877.351	1131.73
877.527	1111
877.704	1145.68
877.88	1159.82
878.057	1108.67
878.233	1192.56
878.409	1096.27
878.586	1139.67
878.762	1092.2
878.938	1127.27
879.115	1033.3
879.291	1097.82
879.467	1050.74
879.644	1080.58
879.82	1108.86
879.996	1069.15
880.172	1046.09
880.349	1094.33
880.525	1057.52
880.701	1041.05
880.877	1020.52
881.053	1071.28
881.229	1059.07
881.405	1129.4
881.581	1015.87
881.757	1050.35
881.933	1093.17
882.109	1078.06
882.285	1057.91
882.461	1007.53
882.637	1055.2
882.813	1048.22
882.989	1079.03
883.165	1115.45
883.341	1044.54
883.517	1078.83
883.693	1079.41
883.869	1103.44
884.044	1038.15
884.22	1062.75
884.396	1093.56
884.572	1070.31
884.747	1103.83
884.923	1108.48
885.099	1073.6
885.275	1077.28
885.45	1031.95
885.626	1055
885.801	1019.74
885.977	1036.4
886.153	991.84
886.328	1026.52
886.504	1025.36
886.679	1059.85
886.855	1039.5
887.03	1055
887.206	1091.43
887.381	1057.33
887.557	1066.05
887.732	1066.05
887.908	1060.62
888.083	1083.87
888.258	1037.18
888.434	1021.87
888.609	1042.02
888.784	1089.1
888.96	1031.75
889.135	1025.94
889.31	1013.54
889.485	1066.82
889.661	1012.77
889.836	1077.48
890.011	1036.21
890.186	1067.79
890.361	1027.1
890.537	1053.45
890.712	1051.13
890.887	1061.98
891.062	1029.81
891.237	1114.87
891.412	1007.73
891.587	1035.63
891.762	1065.85
891.937	1066.82
892.112	1010.83
892.287	1015.28
892.462	996.68
892.637	948.63
892.812	954.64
892.987	930.23
893.161	930.42
893.336	939.92
893.511	957.55
893.686	956
893.861	924.22
894.035	945.15
894.21	964.52
894.385	870.94
894.56	932.75
894.734	853.31
894.909	859.12
895.084	872.88
895.258	864.94
895.433	871.91
895.608	836.07
895.782	792.67
895.957	820.37
896.131	804.68
896.306	748.3
896.48	763.22
896.655	741.52
896.829	700.44
897.004	689.01
897.178	707.23
897.353	672.16
897.527	732.8
897.701	707.81
897.876	688.24
898.05	744.04
898.224	723.31
898.399	747.91
898.573	687.46
898.747	567.92
898.921	639.61
899.096	522.39
899.27	552.23
899.444	562.3
899.618	612.1
899.792	615
899.967	608.41
900.141	632.63
900.315	576.06
900.489	591.75
900.663	604.35
900.837	578.38
901.011	550.48
901.185	675.45
901.359	602.21
901.533	588.46
901.707	617.13
901.881	607.64
902.055	564.24
902.229	576.25
902.403	660.34
902.576	602.99
902.75	594.66
902.924	706.45
903.098	662.08
903.272	707.03
903.446	760.51
903.619	722.34
903.793	771.94
903.967	751.79
904.14	786.47
904.314	773.1
904.488	771.16
904.661	798.29
904.835	765.54
905.009	803.91
905.182	838.39
905.356	831.22
905.529	776.01
905.703	711.88
905.876	730.67
906.05	708.97
906.223	670.8
906.397	625.08
906.57	632.63
906.744	625.08
906.917	602.41
907.09	597.18
907.264	570.63
907.437	552.81
907.61	563.27
907.784	556.3
907.957	566.76
908.13	513.48
908.304	589.43
908.477	518.71
908.65	557.07
908.823	500.89
908.996	583.03
909.17	513.28
909.343	535.95
909.516	539.63
909.689	530.33
909.862	499.53
910.035	533.24
910.208	498.56
910.381	524.72
910.554	596.4
910.727	509.41
910.9	534.6
911.073	528.01
911.246	576.25
911.419	588.07
911.592	532.08
911.765	511.54
911.938	476.09
912.11	530.33
912.283	543.32
912.456	596.21
912.629	548.55
912.802	512.7
912.974	474.34
913.147	433.46
913.32	371.66
913.493	419.32
913.665	447.22
913.838	448.19
914.01	445.67
914.183	451.48
914.356	462.72
914.528	495.27
914.701	508.63
914.873	491.97
915.046	451.29
915.218	436.37
915.391	371.07
915.563	400.33
915.736	429.39
915.908	456.71
916.081	446.05
916.253	454.97
916.425	456.13
916.598	468.53
916.77	457.1
916.942	423.97
917.115	368.17
917.287	445.67
917.459	406.72
917.632	378.82
917.804	365.07
917.976	420.87
918.148	457.1
918.32	434.43
918.493	476.09
918.665	466.79
918.837	465.62
919.009	548.16
919.181	517.35
919.353	523.36
919.525	481.7
919.697	513.09
919.869	505.73
920.041	549.9
920.213	607.83
920.385	555.33
920.557	499.72
920.729	498.75
920.901	503.02
921.073	475.31
921.244	452.45
921.416	506.31
921.588	500.69
921.76	493.14
921.932	519.68
922.103	493.72
922.275	486.16
922.447	488.29
922.619	439.66
922.79	470.08
922.962	462.14
923.134	505.73
923.305	428.42
923.477	430.94
923.648	385.41
923.82	449.15
923.991	377.27
924.163	373.21
924.335	419.9
924.506	390.45
924.677	436.37
924.849	384.44
925.02	439.27
925.192	451.67
925.363	438.89
925.535	431.33
925.706	397.42
925.877	469.3
926.049	382.51
926.22	417.38
926.391	437.34
926.562	440.82
926.734	379.99
926.905	442.37
927.076	347.05
927.247	390.45
927.419	338.91
927.59	361.77
927.761	362.55
927.932	322.64
928.103	338.52
928.274	309.27
928.445	275.56
928.616	285.44
928.787	291.06
928.958	314.89
929.129	329.22
929.3	259.86
929.471	238.75
929.642	203.29
929.813	152.33
929.984	243.2
930.155	191.66
930.326	257.54
930.496	205.23
930.667	141.87
930.838	186.82
931.009	123.66
931.18	176.36
931.35	145.36
931.521	154.66
931.692	116.68
931.863	77.55
932.033	118.82
932.204	109.52
932.374	117.46
932.545	75.61
932.716	124.63
932.886	102.73
933.057	64.57
933.227	73.48
933.398	163.96
933.568	45.97
933.739	44.8
933.909	33.76
934.08	83.17
934.25	8.19
934.421	35.89
934.591	57.59
934.761	42.87
934.932	2.37
935.102	82.58
935.272	42.67
935.443	50.81
935.613	32.6
935.783	78.9
935.953	25.43
936.123	175.97
936.294	27.75
936.464	26.01
936.634	67.86
936.804	25.04
936.974	12.84
937.144	56.62
937.314	65.54
937.484	44.22
937.655	9.35
937.825	66.31
937.995	-4.02
938.165	106.8
938.334	31.44
938.504	71.54
938.674	45.58
938.844	81.23
939.014	137.8
939.184	119.78
939.354	158.92
939.524	130.05
939.694	92.47
939.863	67.86
940.033	132.18
940.203	126.18
940.373	91.88
940.542	117.85
940.712	83.36
940.882	116.3
941.051	113.78
941.221	107.77
941.391	145.75
941.56	57.4
941.73	72.7
941.899	177.33
942.069	103.12
942.238	120.95
942.408	58.56
942.577	133.93
942.747	57.4
942.916	53.72
943.086	84.33
943.255	101.96
943.425	103.7
943.594	51.97
943.763	9.54
943.933	41.12
944.102	3.92
944.271	64.37
944.441	103.32
944.61	51.59
944.779	71.54
944.948	139.93
945.117	58.17
945.287	42.87
945.456	13.42
945.625	42.09
945.794	75.22
945.963	50.23
946.132	67.28
946.301	47.13
946.47	61.66
946.639	28.53
946.808	51.2
946.977	86.85
947.146	116.3
947.315	59.92
947.484	97.12
947.653	62.24
947.822	60.89
947.991	32.02
948.16	144
948.329	102.35
948.498	54.1
948.666	65.73
948.835	88.78
949.004	57.01
949.173	52.94
949.341	78.13
949.51	53.72
949.679	121.33
949.847	118.23
950.016	136.25
950.185	123.85
950.353	57.01
950.522	85.49
950.69	115.13
950.859	68.05
951.028	117.65
951.196	91.69
951.365	58.37
951.533	76.97
951.701	128.31
951.87	110.87
952.038	27.95
952.207	47.71
952.375	127.15
952.543	38.8
952.712	56.04
952.88	41.12
953.048	125.4
953.217	78.13
953.385	90.53
953.553	134.7
953.721	36.47
953.89	65.73
954.058	38.8
954.226	56.62
954.394	87.04
954.562	15.35
954.73	74.06
954.898	43.25
955.067	118.62
955.235	74.83
955.403	87.43
955.571	121.53
955.739	85.88
955.907	31.82
956.075	54.3
956.243	48.87
956.41	102.93
956.578	29.89
956.746	1.02
956.914	50.04
957.082	95.18
957.25	93.43
957.418	73.09
957.585	84.52
957.753	121.92
957.921	48.87
958.089	66.7
958.256	99.83
958.424	103.12
958.592	92.66
958.759	18.45
958.927	98.86
959.095	59.34
959.262	68.44
959.43	78.9
959.597	68.83
959.765	85.49
959.932	47.13
960.1	98.28
960.267	74.45
960.435	52.94
960.602	90.53
960.77	71.15
960.937	36.67
961.104	86.65
961.272	29.3
961.439	68.83
961.606	65.34
961.774	99.25
961.941	71.35
962.108	89.56
962.275	81.03
962.443	105.83
962.61	107.77
962.777	169
962.944	109.71
963.111	89.75
963.278	77.35
963.446	84.13
963.613	89.17
963.78	108.93
963.947	114.17
964.114	86.85
964.281	160.47
964.448	118.82
964.615	74.83
964.782	101.57
964.949	104.28
965.116	115.13
965.282	146.13
965.449	90.14
965.616	83.55
965.783	99.05
965.95	84.13
966.117	59.72
966.283	99.63
966.45	107.38
966.617	87.62
966.784	134.7
966.95	130.44
967.117	136.45
967.284	80.84
967.45	75.8
967.617	153.3
967.784	135.67
967.95	164.35
968.117	97.7
968.283	154.66
968.45	201.93
968.616	130.05
968.783	156.6
968.949	135.28
969.116	163.38
969.282	124.24
969.449	126.57
969.615	149.43
969.781	70.38
969.948	102.15
970.114	67.47
970.28	171.32
970.447	109.52
970.613	166.86
970.779	120.95
970.945	150.78
971.112	137.22
971.278	106.8
971.444	87.82
971.61	140.9
971.776	135.48
971.942	133.73
972.108	127.53
972.275	114.17
972.441	107.77
972.607	179.85
972.773	115.91
972.939	140.52
973.105	108.35
973.271	93.43
973.437	108.55
973.602	87.23
973.768	146.72
973.934	86.27
974.1	132.57
974.266	67.28
974.432	122.11
974.598	99.83
974.763	121.14
974.929	71.93
975.095	146.72
975.261	78.9
975.426	49.65
975.592	88.2
975.758	166.86
975.923	43.45
976.089	58.95
976.255	103.12
976.42	92.85
976.586	116.88
976.751	112.62
976.917	164.35
977.082	103.7
977.248	90.53
977.413	36.67
977.579	103.32
977.744	105.83
977.91	89.17
978.075	83.94
978.24	142.07
978.406	90.72
978.571	104.48
978.736	88.4
978.902	118.23
979.067	57.59
979.232	53.52
979.397	93.43
979.563	139.16
979.728	87.43
979.893	88.2
980.058	93.24
980.223	134.7
980.388	113.39
980.554	93.63
980.719	84.91
980.884	113.97
981.049	141.68
981.214	72.9
981.379	153.3
981.544	58.75
981.709	112.03
981.874	101.38
982.039	62.82
982.204	112.81
982.368	81.62
982.533	57.01
982.698	131.8
982.863	133.35
983.028	73.67
983.193	77.74
983.357	125.79
983.522	104.48
983.687	79.68
983.852	84.13
984.016	95.76
984.181	125.6
984.346	111.45
984.51	128.5
984.675	97.7
984.839	126.76
985.004	104.09
985.168	142.26
985.333	109.71
985.498	84.13
985.662	136.64
985.827	129.08
985.991	89.17
986.155	96.15
986.32	120.56
986.484	149.04
986.649	132.96
986.813	72.32
986.977	98.67
987.142	121.92
987.306	53.52
987.47	78.52
987.634	67.28
987.799	118.43
987.963	95.95
988.127	115.72
988.291	190.31
988.455	116.49
988.62	77.55
988.784	105.45
988.948	108.55
989.112	66.5
989.276	100.99
989.44	113.2
989.604	72.9
989.768	87.04
989.932	180.23
990.096	63.79
990.26	64.37
990.424	56.43
990.588	97.31
990.752	160.66
990.915	123.47
991.079	69.41
991.243	76
991.407	113
991.571	85.68
991.734	132.18
991.898	100.22
992.062	170.55
992.226	75.8
992.389	81.42
992.553	73.48
992.717	46.35
992.88	71.15
993.044	80.65
993.207	87.04
993.371	113.58
993.535	94.98
993.698	88.59
993.862	120.75
994.025	130.83
994.189	87.04
994.352	80.45
994.515	92.27
994.679	107.77
994.842	73.48
995.006	93.82
995.169	72.9
995.332	62.05
995.496	106.22
995.659	19.04
995.822	75.03
995.985	78.52
996.149	125.4
996.312	69.8
996.475	128.5
996.638	82.78
996.801	151.17
996.964	128.5
997.128	76.38
997.291	69.8
997.454	82
997.617	35.5
997.78	110.48
997.943	58.56
998.106	104.87
998.269	80.07
998.432	72.12
998.595	81.81
998.758	33.76
998.92	47.52
999.083	34.92
999.246	89.17
999.409	62.63
999.572	30.47
999.735	66.12
999.897	88.98
1000.06	67.08
1000.223	49.26
1000.386	89.56
1000.548	104.28
1000.711	84.33
1000.874	101.18
1001.036	26.01
1001.199	87.43
1001.361	69.02
1001.524	90.92
1001.687	88.01
1001.849	37.83
1002.012	112.42
1002.174	61.08
1002.337	88.98
1002.499	72.7
1002.661	108.16
1002.824	27.95
1002.986	45.39
1003.149	76.97
1003.311	17.68
1003.473	124.82
1003.636	51.39
1003.798	90.53
1003.96	88.98
1004.123	56.24
1004.285	48.29
1004.447	48.49
1004.609	55.85
1004.771	100.41
1004.933	23.69
1005.096	54.1
1005.258	1.02
1005.42	48.29
1005.582	74.64
1005.744	64.18
1005.906	15.94
1006.068	48.68
1006.23	3.34
1006.392	-1.31
1006.554	33.57
1006.716	75.03
1006.878	76.58
1007.04	20.2
1007.202	31.82
1007.363	65.54
1007.525	44.03
1007.687	70.77
1007.849	94.6
1008.011	10.7
1008.172	-1.5
1008.334	49.07
1008.496	77.55
1008.658	-7.51
1008.819	39.77
1008.981	7.99
1009.143	20.2
1009.304	56.62
1009.466	60.69
1009.627	92.66
1009.789	153.11
1009.95	58.75
1010.112	28.34
1010.273	60.89
1010.435	19.42
1010.596	44.8
1010.758	18.84
1010.919	45.97
1011.081	50.62
1011.242	25.43
1011.403	57.79
1011.565	42.29
1011.726	50.23
1011.887	10.32
1012.049	18.07
1012.21	63.79
1012.371	93.05
1012.532	-20.3
1012.693	52.94
1012.855	26.2
1013.016	30.27
1013.177	57.79
1013.338	40.74
1013.499	97.31
1013.66	51.59
1013.821	71.35
1013.982	63.02
1014.143	52.17
1014.304	35.5
1014.465	58.37
1014.626	76.38
1014.787	29.89
1014.948	109.52
1015.109	-39.67
1015.27	69.41
1015.431	17.68
1015.592	28.14
1015.752	95.37
1015.913	39.38
1016.074	53.14
1016.235	26.79
1016.395	43.25
1016.556	16.52
1016.717	9.54
1016.877	73.09
1017.038	15.16
1017.199	56.62
1017.359	39.19
1017.52	40.15
1017.681	3.34
1017.841	57.2
1018.002	20.59
1018.162	8.77
1018.323	66.5
1018.483	31.44
1018.644	25.04
1018.804	-0.34
1018.964	18.26
1019.125	47.32
1019.285	57.01
1019.446	17.1
1019.606	4.89
1019.766	-22.04
1019.926	55.85
1020.087	39.38
1020.247	9.15
1020.407	32.21
1020.567	54.49
1020.728	20
1020.888	-17.2
1021.048	-6.73
1021.208	-17.58
1021.368	11.87
1021.528	60.3
1021.688	76.77
1021.848	58.17
1022.008	48.1
1022.168	35.31
1022.328	45.19
1022.488	52.36
1022.648	11.09
1022.808	41.51
1022.968	43.45
1023.128	17.68
1023.288	15.55
1023.448	2.37
1023.608	54.3
1023.767	37.83
1023.927	1.6
1024.087	-17
1024.247	-0.73
1024.406	14.97
1024.566	0.82
1024.726	23.69
1024.885	32.99
1025.045	31.82
1025.205	22.33
1025.364	12.64
1025.524	40.93
1025.683	11.67
1025.843	23.88
1026.003	43.06
1026.162	76.58
1026.321	64.95
1026.481	11.29
1026.64	31.44
1026.8	35.7
1026.959	22.91
1027.119	31.63
1027.278	-5.18
1027.437	0.44
1027.597	27.17
1027.756	42.87
1027.915	29.69
1028.074	47.71
1028.234	9.35
1028.393	16.9
1028.552	13.22
1028.711	-55.56
1028.87	65.34
1029.03	-2.86
1029.189	13.42
1029.348	-41.8
1029.507	14.19
1029.666	21.17
1029.825	-42.19
1029.984	-17.78
1030.143	4.12
1030.302	2.18
1030.461	-26.3
1030.62	24.65
1030.779	36.67
1030.938	-8.86
1031.097	-17.97
1031.255	42.67
1031.414	57.98
1031.573	45.77
1031.732	-36.18
1031.891	29.5
1032.049	64.37
1032.208	36.67
1032.367	14.39
1032.525	16.9
1032.684	19.42
1032.843	10.32
1033.001	-29.01
1033.16	139.93
1033.319	68.25
1033.477	15.35
1033.636	20.97
1033.794	-34.63
1033.953	51.2
1034.111	33.37
1034.27	-15.06
1034.428	38.41
1034.587	-12.74
1034.745	32.79
1034.903	17.68
1035.062	51
1035.22	-35.41
1035.378	53.72
1035.537	-13.51
1035.695	18.26
1035.853	-12.35
1036.011	54.1
1036.17	34.34
1036.328	-41.22
1036.486	31.63
1036.644	8.19
1036.802	-67.57
1036.96	2.95
1037.119	14.39
1037.277	7.6
1037.435	-49.36
1037.593	-10.03
1037.751	6.44
1037.909	42.67
1038.067	42.67
