Data from oakcork_FLMT105791__270__17-34-16-053.txt Node

Date: Mon Mar 20 17:34:16 GMT 2023
User: antho
Spectrometer: FLMT10579
Trigger mode: 0
Integration Time (sec): 1.000000E-1
Scans to average: 10
Electric dark correction enabled: true
Nonlinearity correction enabled: false
Boxcar width: 0
XAxis mode: Wavelengths
Number of Pixels in Spectrum: 3648
>>>>>Begin Spectral Data<<<<<
345.248	-145.63
345.464	-145.63
345.681	-145.63
345.898	-159.78
346.114	-159.78
346.331	-27.84
346.548	34.36
346.764	-22.8
346.981	0.65
347.197	2.39
347.414	17.5
347.631	-26.29
347.847	46.76
348.064	-1.1
348.28	21.57
348.497	-40.62
348.713	-4.59
348.93	23.51
349.146	8.01
349.363	-12.34
349.579	22.15
349.796	9.75
350.012	-7.69
350.229	28.16
350.445	-1.87
350.661	-6.72
350.878	0.84
351.094	21.96
351.311	33.2
351.527	17.5
351.743	-44.88
351.96	20.21
352.176	49.47
352.392	1.61
352.609	35.33
352.825	-1.68
353.041	14.79
353.257	5.49
353.474	16.15
353.69	15.37
353.906	8.98
354.122	-18.73
354.339	49.66
354.555	3.16
354.771	-2.07
354.987	50.44
355.203	32.42
355.42	-1.87
355.636	-13.5
355.852	-10.01
356.068	-11.37
356.284	-41.98
356.5	33.78
356.716	-4.2
356.932	9.36
357.148	19.25
357.364	-9.82
357.58	33.97
357.796	28.16
358.012	39.4
358.228	22.73
358.444	-51.86
358.66	51.02
358.876	21.57
359.092	4.33
359.308	4.52
359.524	23.9
359.74	15.76
359.956	-3.81
360.172	4.71
360.388	40.95
360.604	20.21
360.819	81.83
361.035	21.38
361.251	12.66
361.467	-4.59
361.683	7.81
361.898	8.2
362.114	35.33
362.33	22.54
362.546	45.6
362.762	14.6
362.977	17.31
363.193	-23.19
363.409	53.35
363.624	-14.85
363.84	-0.13
364.056	-21.83
364.271	8.4
364.487	-0.32
364.703	-21.64
364.918	1.23
365.134	-10.2
365.35	-0.52
365.565	74.66
365.781	35.33
365.996	29.51
366.212	76.21
366.427	18.08
366.643	-13.5
366.858	-4.78
367.074	-38.49
367.289	55.48
367.505	112.44
367.72	-25.12
367.936	-16.99
368.151	38.23
368.367	23.12
368.582	22.15
368.798	14.98
369.013	61.48
369.228	24.48
369.444	20.6
369.659	25.25
369.874	37.26
370.09	37.65
370.305	-42.17
370.52	-1.87
370.736	69.43
370.951	-4
371.166	47.73
371.381	66.91
371.597	34.36
371.812	-15.63
372.027	-13.3
372.242	5.49
372.458	74.85
372.673	4.13
372.888	24.86
373.103	34.55
373.318	76.59
373.533	45.6
373.749	37.85
373.964	-4.39
374.179	42.3
374.394	-7.69
374.609	70.39
374.824	-9.04
375.039	41.72
375.254	-5.94
375.469	58.38
375.684	38.04
375.899	58.77
376.114	17.5
376.329	17.31
376.544	54.7
376.759	27
376.974	-6.14
377.189	27.19
377.404	-3.62
377.619	44.82
377.834	-8.65
378.049	-4.39
378.264	-40.23
378.478	23.31
378.693	10.72
378.908	44.63
379.123	33.39
379.338	42.11
379.553	15.18
379.767	39.59
379.982	46.76
380.197	36.3
380.412	6.65
380.626	33.2
380.841	76.01
381.056	32.23
381.271	81.05
381.485	0.45
381.7	-6.52
381.915	5.3
382.129	-0.52
382.344	39.98
382.559	10.91
382.773	34.75
382.988	-36.36
383.202	26.8
383.417	-9.04
383.632	105.27
383.846	22.35
384.061	28.55
384.275	10.33
384.49	36.68
384.704	42.11
384.919	43.85
385.133	48.7
385.348	44.05
385.562	-4.97
385.777	79.69
385.991	44.63
386.206	-1.29
386.42	-2.84
386.634	57.03
386.849	34.16
387.063	32.42
387.277	8.98
387.492	-2.84
387.706	-4.78
387.92	-7.1
388.135	47.53
388.349	46.18
388.563	29.51
388.778	15.37
388.992	46.76
389.206	47.15
389.42	109.14
389.635	44.24
389.849	47.53
390.063	66.91
390.277	40.17
390.491	87.06
390.706	54.7
390.92	46.56
391.134	37.07
391.348	54.51
391.562	-5.36
391.776	30.48
391.99	9.17
392.205	62.45
392.419	10.33
392.633	13.63
392.847	81.63
393.061	-1.49
393.275	90.35
393.489	29.32
393.703	34.94
393.917	61.68
394.131	-9.04
394.345	59.74
394.559	47.53
394.773	33.58
394.986	35.71
395.2	16.53
395.414	64.39
395.628	14.79
395.842	30.1
396.056	26.03
396.27	-29.58
396.484	46.76
396.697	55.67
396.911	90.93
397.125	38.23
397.339	51.21
397.553	60.51
397.766	106.24
397.98	58.38
398.194	52.96
398.408	37.85
398.621	64.97
398.835	33.2
399.049	55.67
399.262	55.86
399.476	60.32
399.69	69.62
399.903	102.56
400.117	63.23
400.331	61.48
400.544	36.3
400.758	143.24
400.971	69.04
401.185	95.97
401.398	35.33
401.612	84.73
401.826	76.21
402.039	67.88
402.253	48.11
402.466	71.75
402.68	36.49
402.893	77.18
403.106	69.81
403.32	56.06
403.533	73.49
403.747	37.85
403.96	96.16
404.174	81.24
404.387	32.81
404.6	62.45
404.814	74.85
405.027	43.27
405.24	35.91
405.454	48.11
405.667	86.09
405.88	-1.29
406.094	71.36
406.307	104.69
406.52	55.67
406.733	19.63
406.947	13.24
407.16	121.35
407.373	79.31
407.586	49.47
407.799	18.86
408.012	69.43
408.226	68.26
408.439	84.93
408.652	14.01
408.865	76.98
409.078	115.73
409.291	72.72
409.504	42.69
409.717	63.42
409.93	82.6
410.143	50.63
410.357	33.39
410.57	28.93
410.783	38.62
410.996	92.09
411.209	65.74
411.421	100.04
411.634	47.92
411.847	41.91
412.06	69.62
412.273	63.23
412.486	57.03
412.699	134.14
412.912	62.45
413.125	95.78
413.338	88.61
413.55	83.38
413.763	64
413.976	97.71
414.189	38.04
414.402	42.5
414.615	108.18
414.827	36.88
415.04	83.38
415.253	89.96
415.466	94.81
415.678	132.2
415.891	66.13
416.104	61.68
416.316	46.37
416.529	53.15
416.742	89.19
416.954	117.48
417.167	88.61
417.38	60.9
417.592	93.26
417.805	25.06
418.017	46.95
418.23	90.54
418.442	36.68
418.655	58.96
418.868	70.78
419.08	100.81
419.293	102.56
419.505	94.42
419.718	85.7
419.93	91.71
420.142	46.56
420.355	83.18
420.567	127.55
420.78	101.98
420.992	52.38
421.205	125.23
421.417	53.73
421.629	52.76
421.842	24.86
422.054	34.36
422.266	117.09
422.479	103.33
422.691	61.09
422.903	104.49
423.115	65.36
423.328	65.74
423.54	92.48
423.752	59.35
423.964	74.08
424.177	62.64
424.389	63.42
424.601	174.24
424.813	83.76
425.025	106.24
425.238	77.95
425.45	52.57
425.662	71.75
425.874	333.12
426.086	73.3
426.298	102.56
426.51	118.83
426.722	78.14
426.934	61.87
427.146	86.48
427.358	34.36
427.57	104.69
427.782	81.63
427.994	86.28
428.206	55.28
428.418	34.55
428.63	78.73
428.842	103.72
429.054	88.41
429.266	132.98
429.478	44.24
429.69	70.98
429.902	31.84
430.114	115.54
430.325	83.57
430.537	63.61
430.749	92.29
430.961	19.83
431.173	64.19
431.384	111.66
431.596	25.06
431.808	78.73
432.02	97.52
432.231	86.09
432.443	113.21
432.655	82.79
432.867	50.83
433.078	96.94
433.29	139.18
433.502	110.31
433.713	93.64
433.925	75.82
434.136	118.64
434.348	52.18
434.56	31.65
434.771	177.73
434.983	41.91
435.194	80.86
435.406	85.89
435.617	102.36
435.829	154.29
436.04	103.33
436.252	130.26
436.463	132.59
436.675	96.55
436.886	94.61
437.098	93.64
437.309	145.18
437.521	104.11
437.732	101.78
437.943	105.08
438.155	119.41
438.366	34.94
438.578	142.66
438.789	89.96
439	121.54
439.211	97.52
439.423	122.13
439.634	105.85
439.845	95.97
440.057	118.06
440.268	103.33
440.479	95
440.69	113.79
440.902	85.89
441.113	82.79
441.324	87.25
441.535	124.64
441.746	166.3
441.957	73.3
442.168	82.99
442.38	111.08
442.591	116.7
442.802	86.48
443.013	102.36
443.224	95.58
443.435	90.16
443.646	93.45
443.857	89.96
444.068	88.99
444.279	98.88
444.49	139.76
444.701	114.38
444.912	201.17
445.123	145.76
445.334	145.96
445.545	119.22
445.756	110.5
445.967	78.73
446.178	147.89
446.388	139.18
446.599	129.29
446.81	127.55
447.021	90.74
447.232	145.18
447.443	176.96
447.653	79.89
447.864	153.12
448.075	113.6
448.286	149.83
448.496	136.46
448.707	137.82
448.918	114.57
449.129	165.14
449.339	64.78
449.55	140.92
449.761	145.38
449.971	154.67
450.182	116.7
450.393	154.09
450.603	132.59
450.814	130.84
451.024	144.79
451.235	167.85
451.446	157.39
451.656	194.78
451.867	112.63
452.077	145.38
452.288	185.48
452.498	185.67
452.709	124.06
452.919	158.94
453.13	147.12
453.34	147.7
453.55	88.61
453.761	152.93
453.971	138.01
454.182	177.34
454.392	143.63
454.602	198.27
454.813	167.46
455.023	166.3
455.233	106.82
455.444	126.78
455.654	82.02
455.864	116.51
456.075	119.41
456.285	117.67
456.495	124.06
456.705	153.32
456.916	164.94
457.126	164.75
457.336	144.41
457.546	90.74
457.756	125.61
457.967	183.93
458.177	143.05
458.387	135.11
458.597	121.54
458.807	140.14
459.017	147.12
459.227	134.91
459.437	116.31
459.647	189.94
459.857	151.77
460.068	140.92
460.278	184.12
460.488	160.29
460.698	206.79
460.908	147.12
461.117	96.16
461.327	119.41
461.537	128.91
461.747	152.54
461.957	142.86
462.167	246.9
462.377	143.63
462.587	145.96
462.797	192.46
463.007	151.57
463.216	141.69
463.426	189.94
463.636	175.79
463.846	117.09
464.056	134.91
464.265	193.81
464.475	128.71
464.685	142.66
464.895	167.66
465.104	129.68
465.314	195.56
465.524	129.88
465.733	117.48
465.943	225.97
466.153	223.07
466.362	177.92
466.572	136.46
466.782	129.88
466.991	187.03
467.201	221.13
467.41	125.23
467.62	163.59
467.829	149.06
468.039	175.6
468.249	156.22
468.458	169.01
468.668	199.43
468.877	175.21
469.086	198.66
469.296	207.57
469.505	136.85
469.715	248.84
469.924	163.97
470.134	185.67
470.343	209.31
470.552	144.99
470.762	192.26
470.971	136.27
471.18	167.27
471.39	181.8
471.599	115.15
471.808	199.62
472.018	147.51
472.227	179.86
472.436	201.37
472.645	156.03
472.855	164.17
473.064	225.97
473.273	196.52
473.482	207.57
473.691	231.79
473.901	208.34
474.11	181.99
474.319	299.6
474.528	200.4
474.737	224.62
474.946	199.43
475.155	192.84
475.364	237.79
475.573	202.34
475.783	181.02
475.992	180.83
476.201	224.04
476.41	191.1
476.619	152.35
476.828	212.99
477.037	186.84
477.245	216.48
477.454	230.24
477.663	202.34
477.872	181.02
478.081	240.5
478.29	144.41
478.499	266.66
478.708	200.98
478.917	240.89
479.125	210.09
479.334	229.27
479.543	208.54
479.752	224.04
479.961	241.28
480.169	226.36
480.378	176.37
480.587	333.5
480.796	224.23
481.004	209.51
481.213	251.94
481.422	240.7
481.63	225.78
481.839	253.49
482.048	247.29
482.256	198.66
482.465	230.62
482.674	260.07
482.882	278.67
483.091	279.25
483.299	240.89
483.508	261.82
483.716	226.56
483.925	220.36
484.134	236.82
484.342	205.24
484.551	273.44
484.759	283.52
484.967	251.35
485.176	278.87
485.384	272.09
485.593	308.51
485.801	253.87
486.01	243.8
486.218	257.94
486.426	233.53
486.635	242.83
486.843	244.38
487.051	271.5
487.26	208.73
487.468	271.7
487.676	270.15
487.885	217.84
488.093	242.64
488.301	257.17
488.509	264.92
488.717	292.24
488.926	257.55
489.134	254.45
489.342	265.11
489.55	224.23
489.758	265.3
489.967	244.57
490.175	349.58
490.383	248.45
490.591	317.23
490.799	237.21
491.007	318.97
491.215	302.7
491.423	269.57
491.631	261.43
491.839	257.94
492.047	317.81
492.255	286.04
492.463	222.87
492.671	262.2
492.879	315.1
493.087	277.9
493.295	283.52
493.503	322.27
493.711	310.64
493.919	317.23
494.127	315.29
494.334	330.79
494.542	276.15
494.75	291.46
494.958	294.17
495.166	321.68
495.374	293.2
495.581	308.32
495.789	288.75
495.997	341.06
496.205	312.39
496.412	291.46
496.62	310.84
496.828	309.67
497.035	322.07
497.243	350.36
497.451	299.79
497.658	316.07
497.866	287.78
498.074	351.52
498.281	287.97
498.489	339.7
498.696	297.08
498.904	312.58
499.112	297.47
499.319	382.52
499.527	293.79
499.734	347.65
499.942	274.41
500.149	306.96
500.357	307.54
500.564	305.41
500.771	334.86
500.979	300.18
501.186	302.89
501.394	330.79
501.601	312.58
501.808	341.25
502.016	327.88
502.223	296.11
502.43	303.47
502.638	335.63
502.845	281.39
503.052	364.89
503.26	308.9
503.467	379.03
503.674	295.14
503.881	327.88
504.089	400.73
504.296	351.13
504.503	304.83
504.71	333.12
504.917	310.45
505.125	350.55
505.332	308.32
505.539	361.79
505.746	406.16
505.953	368.57
506.16	330.79
506.367	385.43
506.574	405.77
506.781	390.66
506.988	325.95
507.195	346.68
507.402	343.97
507.609	365.47
507.816	336.22
508.023	346.68
508.23	318.78
508.437	294.37
508.644	365.28
508.851	394.53
509.058	353.07
509.265	361.6
509.472	373.42
509.679	411
509.885	354.43
510.092	342.61
510.299	358.11
510.506	377.1
510.713	390.85
510.92	360.82
511.126	361.79
511.333	407.71
511.54	392.21
511.746	408.87
511.953	410.42
512.16	417.59
512.367	360.24
512.573	392.79
512.78	372.83
512.987	367.99
513.193	378.07
513.4	343
513.606	378.26
513.813	402.67
514.02	415.85
514.226	435.61
514.433	413.91
514.639	345.71
514.846	399.57
515.052	358.11
515.259	398.8
515.465	387.75
515.672	376.32
515.878	476.68
516.085	392.79
516.291	420.11
516.497	386.2
516.704	393.76
516.91	340.28
517.117	352.68
517.323	313.94
517.529	394.34
517.736	386.98
517.942	385.43
518.148	357.72
518.354	372.83
518.561	400.15
518.767	364.5
518.973	408.29
519.179	398.6
519.386	388.92
519.592	373.03
519.798	362.57
520.004	456.92
520.21	400.54
520.417	407.13
520.623	444.71
520.829	451.69
521.035	458.08
521.241	434.45
521.447	436.96
521.653	496.44
521.859	416.04
522.065	445.3
522.271	499.54
522.477	472.03
522.683	502.26
522.889	479.78
523.095	473.78
523.301	457.7
523.507	444.13
523.713	471.45
523.919	430.76
524.125	523.38
524.331	478.43
524.537	528.61
524.742	481.53
524.948	481.14
525.154	497.22
525.36	580.73
525.566	506.91
525.772	541.39
525.977	469.51
526.183	501.29
526.389	534.42
526.595	503.03
526.8	477.26
527.006	478.23
527.212	457.11
527.417	443.16
527.623	428.25
527.829	479.59
528.034	511.75
528.24	500.51
528.446	474.75
528.651	540.62
528.857	519.5
529.062	566.19
529.268	526.48
529.473	522.21
529.679	518.73
529.884	558.25
530.09	562.71
530.295	571.43
530.501	574.53
530.706	513.88
530.912	510.98
531.117	529.77
531.323	533.06
531.528	553.6
531.733	542.94
531.939	516.01
532.144	559.41
532.35	553.99
532.555	586.54
532.76	563.48
532.966	616.18
533.171	591.77
533.376	531.9
533.581	523.76
533.787	522.02
533.992	553.21
534.197	616.96
534.402	538.49
534.607	539.46
534.813	649.7
535.018	560.58
535.223	541.98
535.428	568.71
535.633	599.52
535.838	595.64
536.043	590.02
536.249	622.19
536.454	571.04
536.659	613.66
536.864	570.46
537.069	556.7
537.274	607.66
537.479	594.09
537.684	603.39
537.889	552.24
538.094	649.12
538.299	583.82
538.504	600.87
538.708	576.27
538.913	612.31
539.118	607.27
539.323	595.64
539.528	583.44
539.733	589.06
539.938	633.81
540.142	639.04
540.347	598.36
540.552	566.39
540.757	591.38
540.962	581.69
541.166	555.15
541.371	560.77
541.576	576.08
541.781	490.25
541.985	595.06
542.19	594.48
542.395	655.9
542.599	658.22
542.804	625.09
543.008	640.59
543.213	572.59
543.418	566.97
543.622	622.77
543.827	578.01
544.031	655.71
544.236	629.16
544.44	609.21
544.645	702.98
544.849	605.52
545.054	650.09
545.258	687.29
545.463	659.39
545.667	593.9
545.872	609.4
546.076	639.82
546.281	623.16
546.485	580.53
546.689	642.53
546.894	677.4
547.098	619.47
547.302	581.89
547.507	603.39
547.711	619.47
547.915	694.65
548.119	605.14
548.324	617.54
548.528	676.44
548.732	630.52
548.936	646.41
549.141	636.91
549.345	602.04
549.549	614.63
549.753	618.51
549.957	729.91
550.161	679.54
550.366	613.27
550.57	604.17
550.774	645.63
550.978	649.12
551.182	635.36
551.386	623.74
551.59	621.61
551.794	604.56
551.998	634.97
552.202	610.95
552.406	599.71
552.61	617.34
552.814	643.11
553.018	714.41
553.222	656.87
553.426	616.18
553.63	727.59
553.833	632.07
554.037	592.35
554.241	676.63
554.445	652.02
554.649	641.76
554.853	615.02
555.056	654.16
555.26	663.07
555.464	630.13
555.668	619.28
555.871	663.07
556.075	692.32
556.279	614.24
556.483	594.67
556.686	644.86
556.89	644.86
557.094	630.13
557.297	607.07
557.501	686.12
557.704	581.89
557.908	666.94
558.112	599.32
558.315	688.45
558.519	582.47
558.722	615.79
558.926	570.84
559.129	573.56
559.333	549.34
559.536	605.72
559.74	553.99
559.943	574.91
560.147	578.01
560.35	597.77
560.553	585.96
560.757	548.95
560.96	627.42
561.164	584.02
561.367	654.74
561.57	580.14
561.774	620.06
561.977	606.88
562.18	572.39
562.384	677.4
562.587	596.22
562.79	580.73
562.993	593.9
563.197	593.71
563.4	642.53
563.603	618.7
563.806	666.56
564.009	575.69
564.212	616.96
564.416	556.7
564.619	620.06
564.822	541.2
565.025	628.97
565.228	588.09
565.431	585.57
565.634	510.98
565.837	559.03
566.04	546.24
566.243	552.44
566.446	471.65
566.649	603.59
566.852	516.79
567.055	542.56
567.258	577.82
567.461	613.47
567.664	615.79
567.867	489.47
568.07	588.09
568.273	540.43
568.475	588.67
568.678	560.77
568.881	544.88
569.084	561.54
569.287	479.78
569.489	495.67
569.692	565.81
569.895	576.27
570.098	501.09
570.3	497.03
570.503	463.51
570.706	487.34
570.909	482.11
571.111	480.75
571.314	479.98
571.516	481.91
571.719	498.77
571.922	463.12
572.124	473.39
572.327	503.23
572.529	452.27
572.732	473.58
572.935	496.64
573.137	546.43
573.34	470.48
573.542	490.83
573.745	491.99
573.947	495.86
574.15	472.61
574.352	485.01
574.554	550.89
574.757	478.23
574.959	495.48
575.162	472.81
575.364	463.9
575.566	554.18
575.769	464.86
575.971	459.25
576.173	424.37
576.376	436.77
576.578	524.15
576.78	509.23
576.982	421.85
577.185	469.71
577.387	417.2
577.589	430.38
577.791	466.8
577.993	493.93
578.196	449.17
578.398	479.01
578.6	502.06
578.802	424.18
579.004	443.94
579.206	448.4
579.408	448.59
579.61	423.98
579.812	486.95
580.014	431.35
580.216	437.93
580.418	407.9
580.62	419.53
580.822	394.15
581.024	432.51
581.226	471.06
581.428	422.43
581.63	511.56
581.832	412.36
582.034	491.99
582.236	441.03
582.438	469.51
582.64	491.8
582.841	499.93
583.043	533.84
583.245	437.55
583.447	460.02
583.649	451.88
583.85	450.14
584.052	475.52
584.254	409.65
584.456	494.9
584.657	407.9
584.859	430.38
585.061	435.61
585.262	439.29
585.464	402.67
585.666	461.76
585.867	438.9
586.069	497.03
586.27	462.35
586.472	443.36
586.674	412.55
586.875	410.42
587.077	418.56
587.278	457.89
587.48	432.31
587.681	511.36
587.883	458.66
588.084	377.48
588.285	429.02
588.487	415.65
588.688	448.98
588.89	373.61
589.091	375.55
589.292	429.8
589.494	409.84
589.695	374.97
589.896	333.31
590.098	344.16
590.299	409.06
590.5	349.97
590.702	354.23
590.903	396.47
591.104	428.83
591.305	393.57
591.507	442.78
591.708	407.52
591.909	379.42
592.11	446.07
592.311	440.45
592.512	392.98
592.714	358.88
592.915	361.02
593.116	368.57
593.317	394.34
593.518	410.03
593.719	399.18
593.92	393.76
594.121	431.35
594.322	399.77
594.523	391.82
594.724	357.92
594.925	380.39
595.126	405.19
595.327	419.33
595.528	421.66
595.729	419.33
595.929	365.86
596.13	409.84
596.331	390.27
596.532	378.65
596.733	449.36
596.934	426.89
597.135	431.15
597.335	421.08
597.536	359.47
597.737	392.6
597.938	370.51
598.138	418.75
598.339	399.57
598.54	421.46
598.74	380.58
598.941	433.48
599.142	445.3
599.342	416.43
599.543	361.6
599.744	374.77
599.944	383.68
600.145	370.51
600.345	384.65
600.546	467.77
600.746	440.06
600.947	467.96
601.147	402.87
601.348	432.9
601.548	361.6
601.749	412.55
601.949	348.23
602.15	346.1
602.35	392.98
602.551	413.33
602.751	365.67
602.951	375.16
603.152	344.93
603.352	395.7
603.552	399.96
603.753	429.02
603.953	397.25
604.153	394.34
604.354	376.32
604.554	404.8
604.754	377.48
604.954	362.95
605.155	367.02
605.355	396.67
605.555	386.78
605.755	439.1
605.955	401.12
606.155	412.94
606.356	384.85
606.556	417.98
606.756	416.62
606.956	349.39
607.156	450.72
607.356	359.47
607.556	408.1
607.756	401.51
607.956	418.75
608.156	377.29
608.356	361.02
608.556	413.52
608.756	402.09
608.956	378.26
609.156	379.03
609.356	343.38
609.556	349.97
609.755	395.31
609.955	372.83
610.155	368.38
610.355	386.78
610.555	352.68
610.755	395.5
610.954	294.17
611.154	380.58
611.354	406.16
611.554	364.31
611.753	341.83
611.953	316.65
612.153	401.7
612.352	376.13
612.552	353.07
612.752	291.07
612.951	358.5
613.151	360.24
613.351	328.27
613.55	364.89
613.75	379.42
613.949	364.5
614.149	348.23
614.348	358.69
614.548	349.58
614.747	292.82
614.947	309.87
615.146	314.52
615.346	390.47
615.545	357.14
615.745	361.21
615.944	393.18
616.144	363.73
616.343	389.3
616.542	325.56
616.742	376.71
616.941	360.24
617.14	297.27
617.34	339.9
617.539	333.7
617.738	326.53
617.938	425.92
618.137	336.41
618.336	314.71
618.535	353.65
618.734	346.48
618.934	372.06
619.133	349
619.332	355.59
619.531	344.55
619.73	327.3
619.929	401.7
620.128	340.67
620.328	394.73
620.527	318.78
620.726	327.88
620.925	342.61
621.124	320.52
621.323	340.09
621.522	307.54
621.721	327.3
621.92	298.82
622.119	344.16
622.318	310.64
622.517	316.07
622.715	325.56
622.914	269.76
623.113	318.39
623.312	288.55
623.511	340.48
623.71	293.4
623.909	314.9
624.107	382.33
624.306	283.13
624.505	294.37
624.704	309.48
624.902	311.42
625.101	355.2
625.3	340.67
625.499	313.55
625.697	299.99
625.896	269.76
626.095	326.72
626.293	319.75
626.492	297.66
626.69	330.4
626.889	264.34
627.088	316.84
627.286	314.71
627.485	292.82
627.683	289.91
627.882	333.31
628.08	242.25
628.279	293.98
628.477	353.27
628.676	292.24
628.874	310.64
629.073	290.49
629.271	238.57
629.469	309.87
629.668	281.39
629.866	292.62
630.065	284.49
630.263	316.84
630.461	283.52
630.66	292.82
630.858	305.22
631.056	324.4
631.254	332.73
631.453	236.82
631.651	335.25
631.849	307.35
632.047	286.42
632.245	300.57
632.444	308.51
632.642	296.5
632.84	320.14
633.038	321.49
633.236	251.74
633.434	289.72
633.632	282.55
633.83	286.23
634.028	293.4
634.227	279.84
634.425	359.27
634.623	270.92
634.821	288.75
635.019	270.92
635.216	243.99
635.414	316.65
635.612	307.54
635.81	261.62
636.008	353.65
636.206	271.7
636.404	292.82
636.602	268.21
636.8	294.75
636.997	310.64
637.195	329.43
637.393	290.3
637.591	349.97
637.789	309.67
637.986	281
638.184	264.14
638.382	318.2
638.58	319.55
638.777	368.18
638.975	283.52
639.173	297.85
639.37	315.29
639.568	304.64
639.765	326.53
639.963	301.15
640.161	309.29
640.358	333.31
640.556	271.31
640.753	264.72
640.951	241.47
641.148	303.09
641.346	267.63
641.543	297.47
641.741	281.77
641.938	256.59
642.136	283.9
642.333	239.34
642.531	309.67
642.728	309.48
642.925	293.01
643.123	256.97
643.32	274.02
643.517	276.15
643.715	285.65
643.912	247.29
644.109	318
644.306	265.5
644.504	278.48
644.701	282.55
644.898	303.67
645.095	252.52
645.293	282.74
645.49	299.79
645.687	282.16
645.884	314.32
646.081	223.07
646.278	257.75
646.475	236.24
646.672	277.12
646.87	310.64
647.067	296.69
647.264	268.21
647.461	252.13
647.658	232.95
647.855	306.19
648.052	253.68
648.249	172.69
648.446	243.22
648.642	240.12
648.839	260.07
649.036	215.12
649.233	212.02
649.43	226.56
649.627	234.11
649.824	235.85
650.021	250.39
650.217	223.26
650.414	220.36
650.611	252.52
650.808	250
651.004	270.92
651.201	280.22
651.398	288.55
651.595	272.28
651.791	225.39
651.988	273.25
652.185	247.48
652.381	261.04
652.578	204.66
652.775	241.47
652.971	245.93
653.168	236.82
653.364	263.95
653.561	189.16
653.757	208.54
653.954	268.4
654.15	237.21
654.347	283.71
654.543	231.59
654.74	209.12
654.936	219
655.133	247.48
655.329	235.27
655.525	250.39
655.722	266.27
655.918	234.11
656.115	257.75
656.311	179.09
656.507	214.93
656.704	180.06
656.9	216.87
657.096	185.67
657.292	201.76
657.489	220.36
657.685	237.79
657.881	205.05
658.077	224.62
658.273	221.32
658.47	299.02
658.666	219.58
658.862	231.59
659.058	208.92
659.254	245.15
659.45	213.77
659.646	231.01
659.842	216.09
660.038	241.09
660.234	216.09
660.43	221.52
660.626	308.7
660.822	228.69
661.018	237.99
661.214	223.26
661.41	221.32
661.606	220.36
661.802	265.69
661.998	229.07
662.194	199.62
662.39	236.24
662.586	241.09
662.781	228.3
662.977	259.88
663.173	293.4
663.369	224.81
663.564	231.59
663.76	239.73
663.956	213.77
664.152	260.65
664.347	184.51
664.543	244.96
664.739	209.89
664.934	192.65
665.13	176.76
665.326	259.69
665.521	228.3
665.717	207.18
665.912	174.44
666.108	170.95
666.304	216.09
666.499	223.26
666.695	166.88
666.89	214.54
667.086	231.21
667.281	211.44
667.477	247.48
667.672	234.3
667.867	229.66
668.063	256.97
668.258	213.57
668.454	216.48
668.649	275.96
668.844	227.14
669.04	226.56
669.235	210.28
669.43	201.37
669.626	173.66
669.821	212.99
670.016	164.36
670.211	225.39
670.407	190.91
670.602	194.39
670.797	183.54
670.992	238.37
671.187	156.81
671.382	241.86
671.578	204.47
671.773	225.78
671.968	174.24
672.163	210.67
672.358	214.74
672.553	186.45
672.748	190.91
672.943	256.78
673.138	200.21
673.333	218.81
673.528	207.76
673.723	220.94
673.918	192.65
674.113	182.77
674.308	264.72
674.503	250.39
674.698	242.05
674.892	210.47
675.087	247.87
675.282	237.99
675.477	177.73
675.672	242.25
675.867	197.3
676.061	177.34
676.256	155.06
676.451	175.02
676.646	217.84
676.84	164.36
677.035	146.34
677.23	161.26
677.424	243.8
677.619	241.67
677.814	235.27
678.008	223.65
678.203	140.73
678.397	177.15
678.592	185.48
678.787	244.38
678.981	195.17
679.176	233.92
679.37	184.9
679.565	172.89
679.759	192.26
679.954	212.41
680.148	237.02
680.342	230.43
680.537	209.89
680.731	204.27
680.926	221.32
681.12	237.4
681.314	176.18
681.509	214.93
681.703	180.83
681.897	227.33
682.092	211.44
682.286	173.86
682.48	251.16
682.674	253.29
682.869	187.22
683.063	203.5
683.257	258.52
683.451	190.52
683.645	177.15
683.839	198.07
684.034	217.45
684.228	243.6
684.422	179.09
684.616	168.62
684.81	220.16
685.004	191.87
685.198	180.25
685.392	236.24
685.586	174.05
685.78	219
685.974	208.34
686.168	211.83
686.362	265.69
686.556	167.66
686.75	147.7
686.944	211.44
687.138	217.45
687.331	157.97
687.525	188.77
687.719	143.83
687.913	177.73
688.107	168.43
688.301	151.57
688.494	215.51
688.688	159.52
688.882	159.52
689.076	128.33
689.269	164.94
689.463	247.09
689.657	175.99
689.85	148.28
690.044	172.31
690.238	175.79
690.431	156.61
690.625	172.5
690.818	190.52
691.012	193.81
691.205	193.62
691.399	141.89
691.593	177.15
691.786	210.09
691.98	217.26
692.173	244.38
692.366	187.61
692.56	223.07
692.753	267.05
692.947	182.77
693.14	254.65
693.333	219.97
693.527	163.78
693.72	193.23
693.914	183.54
694.107	204.86
694.3	200.59
694.493	206.6
694.687	236.44
694.88	182.57
695.073	243.6
695.266	236.24
695.46	221.32
695.653	243.41
695.846	252.13
696.039	201.95
696.232	232.17
696.425	230.62
696.618	216.48
696.812	231.21
697.005	299.99
697.198	327.11
697.391	266.66
697.584	283.32
697.777	314.52
697.97	287.2
698.163	284.68
698.356	294.37
698.549	349.78
698.742	321.68
698.935	281
699.127	318.59
699.32	286.42
699.513	278.67
699.706	323.43
699.899	314.71
700.092	316.45
700.285	347.84
700.477	276.93
700.67	307.35
700.863	336.8
701.056	423.98
701.248	363.73
701.441	372.83
701.634	325.95
701.826	393.57
702.019	329.43
702.212	407.9
702.404	332.92
702.597	333.5
702.79	334.86
702.982	349.2
703.175	385.23
703.367	387.56
703.56	423.79
703.752	495.09
703.945	384.07
704.137	417.59
704.33	427.08
704.522	451.69
704.715	448.4
704.907	406.55
705.1	453.43
705.292	419.33
705.484	434.45
705.677	467.58
705.869	478.43
706.061	498.19
706.254	506.33
706.446	470.87
706.638	470.87
706.831	525.12
707.023	469.71
707.215	540.81
707.407	525.12
707.599	507.49
707.792	517.76
707.984	520.47
708.176	569.49
708.368	528.8
708.56	555.34
708.752	535.97
708.944	554.18
709.136	571.04
709.329	585.18
709.521	606.69
709.713	586.92
709.905	633.62
710.097	654.93
710.289	565.03
710.481	604.75
710.672	615.41
710.864	639.04
711.056	651.44
711.248	657.06
711.44	651.44
711.632	626.84
711.824	654.16
712.016	716.54
712.207	686.9
712.399	673.72
712.591	744.83
712.783	686.51
712.975	712.28
713.166	668.88
713.358	683.99
713.55	754.32
713.741	740.95
713.933	741.92
714.125	731.07
714.316	710.34
714.508	780.48
714.7	758.78
714.891	765.17
715.083	794.23
715.274	798.69
715.466	779.7
715.657	794.23
715.849	714.6
716.04	776.6
716.232	738.44
716.423	807.41
716.615	752.58
716.806	735.34
716.998	736.89
717.189	689.8
717.381	682.25
717.572	639.82
717.763	743.28
717.955	712.47
718.146	673.14
718.337	671.01
718.528	636.14
718.72	579.37
718.911	665.78
719.102	613.08
719.293	683.6
719.485	631.49
719.676	670.43
719.867	647.37
720.058	619.47
720.249	654.74
720.44	687.67
720.632	695.23
720.823	708.6
721.014	789.58
721.205	768.66
721.396	779.9
721.587	851.2
721.778	847.51
721.969	853.13
722.16	910.48
722.351	873.67
722.542	971.13
722.733	973.26
722.924	913.2
723.115	964.93
723.305	988.95
723.496	978.29
723.687	895.18
723.878	915.13
724.069	882.39
724.26	916.68
724.45	885.88
724.641	851.97
724.832	919.59
725.023	909.71
725.213	894.21
725.404	889.36
725.595	925.98
725.785	849.26
725.976	929.28
726.167	932.18
726.357	943.03
726.548	1014.53
726.739	933.15
726.929	990.69
727.12	1001.16
727.31	1026.34
727.501	992.83
727.691	993.02
727.882	1010.07
728.072	1028.09
728.263	1002.13
728.453	1058.7
728.644	1056.37
728.834	1087.76
729.024	1007.16
729.215	1030.02
729.405	1037.19
729.596	1134.07
729.786	1138.33
729.976	1158.09
730.167	1139.88
730.357	1076.33
730.547	1106.56
730.737	1130.19
730.928	1186.57
731.118	1208.08
731.308	1169.52
731.498	1152.47
731.688	1210.21
731.879	1215.83
732.069	1272.02
732.259	1255.74
732.449	1262.52
732.639	1334.21
732.829	1350.29
733.019	1339.44
733.209	1385.55
733.399	1365.4
733.589	1444.26
733.779	1436.12
733.969	1395.04
734.159	1443.68
734.349	1466.15
734.539	1525.82
734.729	1496.76
734.919	1542.87
735.109	1574.07
735.299	1528.15
735.488	1560.12
735.678	1555.66
735.868	1553.92
736.058	1539.19
736.248	1545
736.437	1499.67
736.627	1528.73
736.817	1598.09
737.007	1574.65
737.196	1627.15
737.386	1583.37
737.576	1554.89
737.765	1607.78
737.955	1620.57
738.144	1684.5
738.334	1646.92
738.524	1604.68
738.713	1641.49
738.903	1624.25
739.092	1718.02
739.282	1684.89
739.471	1681.98
739.661	1686.05
739.85	1708.14
740.04	1702.33
740.229	1740.11
740.419	1748.05
740.608	1735.46
740.797	1728.87
740.987	1819.54
741.176	1802.69
741.365	1704.85
741.555	1694.77
741.744	1767.62
741.933	1747.08
742.123	1799.4
742.312	1788.35
742.501	1841.63
742.69	1835.43
742.88	1773.82
743.069	1867.01
743.258	1813.93
743.447	1862.17
743.636	1890.46
743.825	1798.04
744.014	1843.96
744.204	1851.13
744.393	1821.68
744.582	1900.14
744.771	1930.56
744.96	1866.82
745.149	1909.64
745.338	1867.79
745.527	1882.71
745.716	1869.92
745.905	1839.89
746.094	1898.98
746.283	1927.66
746.471	1885.61
746.66	1948.19
746.849	1921.07
747.038	1934.05
747.227	1873.21
747.416	1949.16
747.604	1860.23
747.793	1886
747.982	1962.92
748.171	1940.06
748.359	1917
748.548	1921.46
748.737	1915.26
748.926	1917.97
749.114	1864.69
749.303	1920.87
749.491	1904.02
749.68	1831.56
749.869	1934.82
750.057	1907.12
750.246	1881.54
750.434	1934.63
750.623	1904.02
750.811	1896.66
751	1915.64
751.188	1879.61
751.377	1903.05
751.565	1867.01
751.754	1881.74
751.942	1880.77
752.131	1933.27
752.319	1859.84
752.507	1840.08
752.696	1916.42
752.884	1952.46
753.072	1922.42
753.261	1879.03
753.449	1908.86
753.637	1875.73
753.825	1978.61
754.014	1885.81
754.202	1911.77
754.39	1962.14
754.578	1921.26
754.766	1881.93
754.955	1918.36
755.143	1951.68
755.331	1867.98
755.519	1886
755.707	1858.1
755.895	1889.88
756.083	1867.01
756.271	1849.77
756.459	1829.81
756.647	1903.24
756.835	1913.12
757.023	1850.93
757.211	1851.13
757.399	1858.49
757.587	1842.21
757.775	1802.3
757.963	1826.52
758.151	1844.93
758.339	1818.38
758.526	1805.01
758.714	1810.44
758.902	1778.08
759.09	1726.16
759.278	1579.1
759.465	1485.91
759.653	1252.06
759.841	1159.06
760.028	972.68
760.216	853.91
760.404	826.98
760.591	692.32
760.779	543.72
760.967	492.57
761.154	394.53
761.342	456.53
761.529	425.73
761.717	472.42
761.905	431.15
762.092	478.62
762.28	412.16
762.467	452.27
762.655	385.23
762.842	429.6
763.029	424.56
763.217	395.7
763.404	412.94
763.592	443.55
763.779	398.41
763.966	450.14
764.154	466.61
764.341	530.93
764.528	502.06
764.716	530.54
764.903	563.09
765.09	591.57
765.277	599.13
765.465	748.12
765.652	750.64
765.839	781.06
766.026	862.63
766.213	880.45
766.4	952.53
766.588	1095.12
766.775	1066.26
766.962	1129.8
767.149	1132.71
767.336	1239.85
767.523	1183.67
767.71	1292.94
767.897	1361.91
768.084	1404.93
768.271	1431.86
768.458	1449.88
768.645	1489.4
768.832	1485.14
769.019	1488.62
769.206	1469.25
769.392	1539.77
769.579	1627.54
769.766	1583.75
769.953	1584.92
770.14	1626.38
770.327	1608.36
770.513	1668.62
770.7	1704.07
770.887	1603.52
771.073	1660.48
771.26	1630.45
771.447	1607.2
771.634	1613.01
771.82	1702.72
772.007	1626.57
772.193	1646.33
772.38	1693.8
772.567	1628.9
772.753	1683.15
772.94	1705.04
773.126	1655.63
773.313	1712.21
773.499	1720.73
773.686	1696.13
773.872	1668.23
774.059	1674.43
774.245	1614.17
774.432	1665.13
774.618	1585.89
774.804	1656.6
774.991	1569.8
775.177	1683.15
775.363	1631.61
775.55	1637.23
775.736	1596.15
775.922	1613.98
776.109	1618.44
776.295	1627.74
776.481	1661.83
776.667	1656.41
776.853	1636.26
777.04	1599.45
777.226	1583.56
777.412	1680.43
777.598	1608.55
777.784	1583.75
777.97	1588.79
778.156	1644.59
778.342	1609.72
778.528	1606.42
778.715	1562.05
778.901	1538.03
779.087	1598.67
779.272	1556.44
779.458	1541.13
779.644	1602.94
779.83	1554.3
780.016	1664.74
780.202	1560.5
780.388	1517.88
780.574	1541.13
780.76	1525.44
780.946	1607.97
781.131	1540.55
781.317	1546.36
781.503	1508.77
781.689	1519.82
781.874	1604.68
782.06	1526.79
782.246	1517.69
782.432	1511.49
782.617	1537.26
782.803	1588.99
782.989	1473.9
783.174	1509.55
783.36	1477.97
783.545	1493.66
783.731	1484.36
783.916	1439.61
784.102	1492.5
784.288	1493.08
784.473	1520.01
784.659	1494.44
784.844	1522.14
785.029	1436.89
785.215	1459.37
785.4	1415.39
785.586	1483.59
785.771	1421.78
785.956	1502.77
786.142	1468.67
786.327	1446.58
786.512	1433.41
786.698	1399.11
786.883	1400.28
787.068	1410.35
787.254	1408.22
787.439	1398.14
787.624	1423.53
787.809	1364.24
787.994	1418.1
788.18	1463.82
788.365	1353.2
788.55	1392.33
788.735	1342.15
788.92	1416.55
789.105	1341.96
789.29	1400.86
789.475	1338.86
789.66	1343.9
789.845	1332.08
790.03	1318.71
790.215	1364.43
790.4	1400.28
790.585	1381.29
790.77	1366.37
790.955	1303.6
791.14	1319.87
791.325	1412.48
791.51	1269.11
791.695	1326.65
791.879	1322.97
792.064	1295.46
792.249	1365.79
792.434	1322.58
792.618	1305.53
792.803	1327.43
792.988	1327.62
793.173	1325.49
793.357	1353.58
793.542	1256.32
793.727	1341.38
793.911	1361.72
794.096	1316.19
794.281	1337.5
794.465	1418.49
794.65	1335.76
794.834	1353.78
795.019	1369.47
795.203	1394.66
795.388	1370.05
795.572	1396.01
795.757	1367.92
795.941	1382.84
796.126	1370.05
796.31	1284.41
796.494	1339.83
796.679	1299.53
796.863	1309.6
797.048	1358.43
797.232	1385.36
797.416	1329.95
797.601	1291
797.785	1392.91
797.969	1342.15
798.153	1340.41
798.338	1356.1
798.522	1368.7
798.706	1388.46
798.89	1349.9
799.074	1451.62
799.258	1435.15
799.443	1332.46
799.627	1348.16
799.811	1397.18
799.995	1394.46
800.179	1364.24
800.363	1331.88
800.547	1377.8
800.731	1389.04
800.915	1309.21
801.099	1312.7
801.283	1327.23
801.467	1371.02
801.651	1345.64
801.835	1376.44
802.019	1387.29
802.202	1344.67
802.386	1321.61
802.57	1313.67
802.754	1337.89
802.938	1273.18
803.121	1297.2
803.305	1379.16
803.489	1345.25
803.673	1336.73
803.856	1368.11
804.04	1327.04
804.224	1387.29
804.407	1295.07
804.591	1346.8
804.775	1366.18
804.958	1386.91
805.142	1429.34
805.326	1344.67
805.509	1343.51
805.693	1400.66
805.876	1354.16
806.06	1361.14
806.243	1327.23
806.427	1385.36
806.61	1429.73
806.794	1309.8
806.977	1399.5
807.16	1320.65
807.344	1374.89
807.527	1363.46
807.71	1340.6
807.894	1347.77
808.077	1376.25
808.26	1364.82
808.444	1312.12
808.627	1380.9
808.81	1326.07
808.993	1296.81
809.177	1287.51
809.36	1326.85
809.543	1313.09
809.726	1246.83
809.909	1255.93
810.092	1276.86
810.276	1227.65
810.459	1282.67
810.642	1245.28
810.825	1244.89
811.008	1220.67
811.191	1171.07
811.374	1211.18
811.557	1196.07
811.74	1271.05
811.923	1140.65
812.106	1147.63
812.289	1120.31
812.472	1136.39
812.654	1175.53
812.837	1146.47
813.02	1110.24
813.203	1111.2
813.386	1039.91
813.569	1039.91
813.751	1014.72
813.934	1062.38
814.117	1014.91
814.3	980.04
814.482	981.78
814.665	921.53
814.848	968.41
815.03	896.15
815.213	902.15
815.396	913.97
815.578	888.59
815.761	867.08
815.943	908.93
816.126	887.62
816.309	818.65
816.491	807.8
816.674	779.51
816.856	819.62
817.039	785.9
817.221	863.21
817.403	803.92
817.586	809.54
817.768	865.92
817.951	793.07
818.133	764.2
818.315	776.99
818.498	800.43
818.68	843.83
818.862	851.58
819.045	854.3
819.227	858.17
819.409	805.67
819.591	840.54
819.774	818.45
819.956	811.67
820.138	864.18
820.32	856.62
820.502	875.22
820.684	938.38
820.866	915.71
821.048	961.05
821.231	974.81
821.413	914.16
821.595	948.07
821.777	937.22
821.959	946.91
822.141	993.02
822.323	887.04
822.505	853.13
822.686	843.64
822.868	798.3
823.05	716.74
823.232	739.21
823.414	673.53
823.596	765.37
823.778	731.65
823.96	732.04
824.141	768.66
824.323	774.28
824.505	799.27
824.687	886.65
824.868	833.18
825.05	900.99
825.232	929.08
825.413	975.58
825.595	895.56
825.777	888.01
825.958	909.13
826.14	910.48
826.321	911.06
826.503	903.9
826.685	979.26
826.866	925.21
827.048	932.18
827.229	921.91
827.411	876.38
827.592	856.43
827.773	857.98
827.955	832.21
828.136	839.77
828.318	803.92
828.499	839.38
828.68	785.52
828.862	836.08
829.043	828.92
829.224	851.39
829.406	785.52
829.587	812.83
829.768	813.61
829.949	838.6
830.131	852.55
830.312	845.19
830.493	833.18
830.674	845.19
830.855	793.27
831.036	806.25
831.218	850.42
831.399	878.32
831.58	816.13
831.761	840.73
831.942	847.32
832.123	818.65
832.304	822.72
832.485	782.03
832.666	824.46
832.847	842.67
833.028	830.27
833.209	851.58
833.389	761.49
833.57	783.19
833.751	814.58
833.932	850.42
834.113	821.94
834.294	826.2
834.475	837.25
834.655	872.12
834.836	866.31
835.017	844.03
835.198	788.62
835.378	832.79
835.559	849.06
835.74	826.78
835.92	806.63
836.101	795.59
836.281	875.41
836.462	849.84
836.643	891.5
836.823	890.14
837.004	874.25
837.184	910.1
837.365	885.1
837.545	886.65
837.726	878.9
837.906	914.16
838.087	860.88
838.267	862.82
838.448	822.91
838.628	852.94
838.808	870.76
838.989	919.59
839.169	820.39
839.349	894.4
839.53	887.62
839.71	904.48
839.89	817.68
840.07	891.11
840.251	839.38
840.431	896.34
840.611	873.86
840.791	844.22
840.971	848.48
841.151	876
841.332	834.53
841.512	906.61
841.692	802.18
841.872	855.46
842.052	855.65
842.232	885.1
842.412	790.55
842.592	821.17
842.772	862.63
842.952	877.74
843.132	843.45
843.312	809.35
843.492	824.65
843.672	879.48
843.851	790.75
844.031	825.23
844.211	857.01
844.391	829.88
844.571	846.35
844.751	837.05
844.93	838.99
845.11	812.64
845.29	853.91
845.47	866.7
845.649	851
845.829	842.67
846.009	837.83
846.188	811.28
846.368	807.22
846.547	831.82
846.727	850.81
846.907	822.52
847.086	827.37
847.266	858.36
847.445	798.88
847.625	799.66
847.804	792.68
847.984	813.42
848.163	799.66
848.343	818.65
848.522	825.82
848.701	824.27
848.881	804.89
849.06	819.03
849.239	806.44
849.419	820
849.598	775.25
849.777	773.7
849.957	746.77
850.136	742.89
850.315	758
850.494	730.1
850.674	726.42
850.853	793.65
851.032	747.93
851.211	802.57
851.39	767.88
851.569	718.48
851.748	719.64
851.927	770.79
852.107	766.33
852.286	696.59
852.465	716.74
852.644	770.79
852.823	758.39
853.002	765.37
853.181	753.55
853.359	777.18
853.538	703.56
853.717	795.98
853.896	694.65
854.075	663.46
854.254	656.48
854.433	611.72
854.611	688.25
854.79	659.77
854.969	659
855.148	707.63
855.327	672.37
855.505	700.07
855.684	685.74
855.863	692.52
856.041	641.76
856.22	686.32
856.399	664.23
856.577	748.32
856.756	701.04
856.934	808.77
857.113	792.88
857.291	702.98
857.47	711.5
857.648	718.87
857.827	749.67
858.005	764.98
858.184	700.85
858.362	803.92
858.541	741.15
858.719	721.97
858.898	701.24
859.076	674.89
859.254	764.59
859.433	698.14
859.611	708.79
859.789	659.77
859.967	744.44
860.146	769.63
860.324	669.46
860.502	710.92
860.68	656.29
860.859	681.09
861.037	691.94
861.215	686.51
861.393	696.2
861.571	702.01
861.749	670.82
861.927	745.41
862.105	706.08
862.283	654.35
862.461	683.6
862.639	675.47
862.817	652.41
862.995	676.82
863.173	667.14
863.351	662.87
863.529	701.82
863.707	723.52
863.885	699.49
864.063	640.79
864.241	632.26
864.418	720.03
864.596	644.86
864.774	626.45
864.952	654.74
865.129	700.85
865.307	648.92
865.485	596.61
865.663	678.18
865.84	602.42
866.018	660.36
866.196	542.17
866.373	592.16
866.551	555.54
866.728	510.59
866.906	532.48
867.084	577.82
867.261	613.66
867.439	609.59
867.616	623.54
867.794	621.22
867.971	593.71
868.149	600.68
868.326	665.2
868.503	618.12
868.681	606.69
868.858	613.86
869.035	569.68
869.213	652.02
869.39	617.15
869.567	672.75
869.745	603.59
869.922	608.04
870.099	645.44
870.276	621.61
870.454	648.73
870.631	647.96
870.808	619.09
870.985	648.34
871.162	688.45
871.339	640.79
871.517	573.36
871.694	592.54
871.871	618.7
872.048	600.49
872.225	602.62
872.402	583.44
872.579	585.57
872.756	600.29
872.933	551.66
873.11	620.25
873.287	629.36
873.463	571.81
873.64	579.18
873.817	618.51
873.994	584.41
874.171	596.03
874.348	581.11
874.524	528.22
874.701	574.72
874.878	518.34
875.055	581.31
875.231	577.63
875.408	592.93
875.585	516.21
875.762	566
875.938	549.73
876.115	537.33
876.291	560.19
876.468	541.78
876.645	538.88
876.821	593.51
876.998	524.34
877.174	585.37
877.351	539.26
877.527	525.31
877.704	555.54
877.88	552.63
878.057	522.02
878.233	608.43
878.409	553.6
878.586	538.88
878.762	561.74
878.938	517.56
879.115	462.35
879.291	547.21
879.467	502.45
879.644	492.76
879.82	537.13
879.996	494.9
880.172	459.83
880.349	534.42
880.525	538.88
880.701	507.49
880.877	468.35
881.053	502.84
881.229	519.89
881.405	569.68
881.581	482.3
881.757	515.04
881.933	522.02
882.109	528.61
882.285	506.52
882.461	467.38
882.637	505.74
882.813	492.76
882.989	504.97
883.165	535.19
883.341	501.29
883.517	538.68
883.693	498.58
883.869	558.06
884.044	479.2
884.22	530.74
884.396	542.17
884.572	521.83
884.747	542.56
884.923	501.68
885.099	538.88
885.275	565.81
885.45	486.56
885.626	505.36
885.801	476.49
885.977	506.52
886.153	450.53
886.328	512.91
886.504	505.16
886.679	531.32
886.855	468.35
887.03	543.91
887.206	527.64
887.381	514.08
887.557	508.46
887.732	532.48
887.908	534.42
888.083	545.85
888.258	503.61
888.434	503.23
888.609	525.51
888.784	532.09
888.96	495.48
889.135	473
889.31	481.53
889.485	535.97
889.661	502.26
889.836	548.37
890.011	548.76
890.186	517.56
890.361	497.61
890.537	513.11
890.712	492.76
890.887	509.81
891.062	516.98
891.237	542.36
891.412	458.86
891.587	529.38
891.762	530.93
891.937	523.18
892.112	468.16
892.287	496.06
892.462	456.53
892.637	440.65
892.812	452.08
892.987	469.32
893.161	437.16
893.336	463.12
893.511	452.66
893.686	500.71
893.861	428.44
894.035	458.08
894.21	445.49
894.385	398.6
894.56	466.8
894.734	402.67
894.909	404.42
895.084	424.56
895.258	424.37
895.433	448.59
895.608	412.75
895.782	379.23
895.957	385.43
896.131	423.01
896.306	330.02
896.48	344.74
896.655	349.2
896.829	313.74
897.004	291.65
897.178	316.65
897.353	308.32
897.527	361.79
897.701	349.58
897.876	281.19
898.05	372.06
898.224	319.17
898.399	394.92
898.573	339.51
898.747	260.65
898.921	322.27
899.096	252.52
899.27	261.04
899.444	272.47
899.618	284.87
899.792	282.35
899.967	269.37
900.141	317.62
900.315	268.02
900.489	279.84
900.663	293.59
900.837	291.27
901.011	254.84
901.185	362.95
901.359	309.48
901.533	290.49
901.707	299.4
901.881	301.54
902.055	247.67
902.229	257.36
902.403	306.38
902.576	285.07
902.75	296.5
902.924	382.91
903.098	297.85
903.272	375.16
903.446	366.63
903.619	347.45
903.793	370.7
903.967	342.22
904.14	396.28
904.314	395.5
904.488	345.52
904.661	376.52
904.835	372.83
905.009	399.38
905.182	421.08
905.356	389.3
905.529	359.08
905.703	354.62
905.876	345.71
906.05	320.52
906.223	347.65
906.397	262.4
906.57	273.05
906.744	277.9
906.917	275.77
907.09	290.88
907.264	287.39
907.437	288.17
907.61	217.06
907.784	283.13
907.957	274.6
908.13	239.73
908.304	292.62
908.477	235.08
908.65	246.9
908.823	228.11
908.996	315.68
909.17	252.71
909.343	285.84
909.516	267.82
909.689	261.24
909.862	225.97
910.035	266.47
910.208	229.66
910.381	238.76
910.554	346.29
910.727	238.76
910.9	244.38
911.073	251.55
911.246	294.37
911.419	261.24
911.592	261.04
911.765	246.32
911.938	238.76
912.11	263.17
912.283	262.98
912.456	260.46
912.629	278.67
912.802	249.42
912.974	208.34
913.147	206.79
913.32	158.94
913.493	199.43
913.665	232.17
913.838	227.91
914.01	216.29
914.183	219.19
914.356	203.31
914.528	222.49
914.701	281.39
914.873	252.71
915.046	235.27
915.218	206.6
915.391	155.45
915.563	181.99
915.736	219.58
915.908	220.16
916.081	207.96
916.253	191.29
916.425	219.97
916.598	245.15
916.77	208.92
916.942	192.26
917.115	145.76
917.287	233.92
917.459	206.99
917.632	189.74
917.804	135.3
917.976	218.61
918.148	219.77
918.32	180.83
918.493	244.19
918.665	247.67
918.837	191.29
919.009	261.82
919.181	247.09
919.353	236.05
919.525	217.06
919.697	265.69
919.869	220.74
920.041	245.15
920.213	301.92
920.385	235.08
920.557	216.29
920.729	246.12
920.901	250.77
921.073	228.3
921.244	216.48
921.416	260.46
921.588	228.69
921.76	205.63
921.932	308.51
922.103	244.19
922.275	234.3
922.447	237.02
922.619	181.22
922.79	215.12
922.962	215.12
923.134	249.22
923.305	222.87
923.477	192.46
923.648	164.75
923.82	194.59
923.991	150.41
924.163	157.58
924.335	175.99
924.506	168.43
924.677	231.79
924.849	173.47
925.02	188
925.192	197.88
925.363	183.16
925.535	208.34
925.706	164.17
925.877	224.62
926.049	164.17
926.22	190.32
926.391	219.39
926.562	228.69
926.734	162.04
926.905	219
927.076	152.16
927.247	177.54
927.419	149.44
927.59	134.72
927.761	167.07
927.932	167.46
928.103	169.98
928.274	129.1
928.445	135.69
928.616	141.89
928.787	159.71
928.958	160.87
929.129	146.34
929.3	156.61
929.471	97.13
929.642	72.72
929.813	33.97
929.984	123.29
930.155	55.48
930.326	98.49
930.496	69.23
930.667	16.15
930.838	113.99
931.009	66.52
931.18	57.8
931.35	82.02
931.521	63.03
931.692	53.54
931.863	8.78
932.033	53.35
932.204	53.73
932.374	77.18
932.545	35.91
932.716	87.06
932.886	61.29
933.057	10.33
933.227	19.83
933.398	97.91
933.568	41.14
933.739	5.49
933.909	48.89
934.08	70.2
934.25	-1.49
934.421	2
934.591	34.36
934.761	4.13
934.932	-18.54
935.102	10.53
935.272	-2.07
935.443	-1.29
935.613	32.42
935.783	43.27
935.953	-4.97
936.123	136.08
936.294	-19.89
936.464	-5.55
936.634	4.52
936.804	-31.9
936.974	-34.03
937.144	14.79
937.314	25.25
937.484	6.46
937.655	-10.79
937.825	59.54
937.995	-29.19
938.165	56.06
938.334	-3.81
938.504	12.46
938.674	-2.84
938.844	8.98
939.014	44.82
939.184	39.2
939.354	88.41
939.524	52.57
939.694	6.65
939.863	31.45
940.033	90.16
940.203	69.43
940.373	52.38
940.542	79.31
940.712	26.41
940.882	32.61
941.051	55.48
941.221	51.21
941.391	80.47
941.56	29.51
941.73	36.3
941.899	129.1
942.069	12.46
942.238	44.24
942.408	16.92
942.577	52.96
942.747	7.81
942.916	-11.95
943.086	9.95
943.255	65.36
943.425	50.63
943.594	34.75
943.763	-38.88
943.933	-6.72
944.102	-48.57
944.271	20.8
944.441	3.36
944.61	2.58
944.779	2.39
944.948	104.88
945.117	6.65
945.287	8.78
945.456	-8.46
945.625	12.85
945.794	35.52
945.963	-13.11
946.132	46.95
946.301	33.39
946.47	44.43
946.639	-18.54
946.808	23.51
946.977	51.6
947.146	73.3
947.315	14.6
947.484	53.35
947.653	14.6
947.822	9.17
947.991	-7.1
948.16	94.81
948.329	43.66
948.498	36.49
948.666	27
948.835	38.81
949.004	-4.59
949.173	-22.41
949.341	31.65
949.51	40.95
949.679	75.82
949.847	45.6
950.016	86.86
950.185	64.78
950.353	2.2
950.522	19.05
950.69	62.06
950.859	17.31
951.028	51.8
951.196	32.23
951.365	10.91
951.533	28.93
951.701	59.54
951.87	70.78
952.038	-13.69
952.207	27.96
952.375	83.18
952.543	-6.91
952.712	21.57
952.88	8.98
953.048	93.45
953.217	24.48
953.385	7.81
953.553	74.66
953.721	-4.97
953.89	33.39
954.058	11.11
954.226	3.75
954.394	42.5
954.562	-9.43
954.73	34.94
954.898	37.85
955.067	54.7
955.235	35.91
955.403	65.16
955.571	113.99
955.739	42.11
955.907	-8.85
956.075	23.51
956.243	17.11
956.41	51.21
956.578	-1.1
956.746	18.47
956.914	2
957.082	27.77
957.25	43.46
957.418	-7.49
957.585	15.76
957.753	69.62
957.921	8.2
958.089	33.39
958.256	46.37
958.424	33.39
958.592	29.71
958.759	19.05
958.927	58.96
959.095	27.58
959.262	52.18
959.43	45.98
959.597	0.26
959.765	24.09
959.932	1.61
960.1	48.7
960.267	27.58
960.435	17.89
960.602	44.43
960.77	12.46
960.937	-12.34
961.104	36.1
961.272	-33.45
961.439	17.89
961.606	32.61
961.774	62.84
961.941	10.33
962.108	46.76
962.275	33.78
962.443	62.84
962.61	49.86
962.777	86.09
962.944	51.6
963.111	26.41
963.278	32.61
963.446	32.61
963.613	36.1
963.78	39.78
963.947	39.4
964.114	37.46
964.281	117.28
964.448	55.67
964.615	2.58
964.782	45.4
964.949	51.6
965.116	39.4
965.282	66.52
965.449	25.64
965.616	16.34
965.783	60.13
965.95	39.01
966.117	31.84
966.283	35.91
966.45	60.32
966.617	38.62
966.784	83.38
966.95	60.71
967.117	76.21
967.284	20.02
967.45	28.74
967.617	89.19
967.784	73.3
967.95	105.27
968.117	15.76
968.283	68.07
968.45	132.2
968.616	57.41
968.783	93.64
968.949	53.93
969.116	75.04
969.282	41.53
969.449	55.86
969.615	90.35
969.781	28.93
969.948	27.58
970.114	9.95
970.28	95.78
970.447	29.13
970.613	96.36
970.779	39.01
970.945	67.49
971.112	42.69
971.278	30.29
971.444	40.75
971.61	63.61
971.776	34.16
971.942	65.55
972.108	65.94
972.275	10.53
972.441	73.11
972.607	133.94
972.773	10.53
972.939	63.61
973.105	72.33
973.271	39.59
973.437	39.2
973.602	25.83
973.768	61.68
973.934	49.28
974.1	52.96
974.266	-3.62
974.432	60.13
974.598	22.35
974.763	83.76
974.929	49.28
975.095	105.66
975.261	45.6
975.426	11.11
975.592	25.45
975.758	95.97
975.923	3.75
976.089	26.8
976.255	58.19
976.42	43.66
976.586	78.34
976.751	40.95
976.917	109.53
977.082	72.33
977.248	2.58
977.413	21.96
977.579	14.98
977.744	60.32
977.91	2
978.075	8.78
978.24	47.15
978.406	28.74
978.571	23.12
978.736	11.88
978.902	74.46
979.067	14.4
979.232	-18.73
979.397	69.23
979.563	83.96
979.728	13.63
979.893	45.4
980.058	38.23
980.223	94.42
980.388	36.1
980.554	30.87
980.719	27.96
980.884	63.42
981.049	81.63
981.214	9.95
981.379	60.71
981.544	27.19
981.709	38.62
981.874	17.7
982.039	40.56
982.204	75.04
982.368	57.22
982.533	18.47
982.698	69.43
982.863	67.68
983.028	22.54
983.193	39.59
983.357	45.79
983.522	41.53
983.687	40.56
983.852	10.91
984.016	4.52
984.181	49.86
984.346	43.85
984.51	70.59
984.675	52.57
984.839	57.8
985.004	66.91
985.168	83.76
985.333	87.06
985.498	28.93
985.662	86.09
985.827	58.77
985.991	29.71
986.155	14.98
986.32	69.04
986.484	88.99
986.649	57.41
986.813	-7.88
986.977	38.81
987.142	70.78
987.306	12.46
987.47	13.05
987.634	34.94
987.799	56.83
987.963	26.22
988.127	41.53
988.291	94.81
988.455	37.85
988.62	38.43
988.784	53.54
988.948	68.26
989.112	19.25
989.276	72.33
989.44	59.16
989.604	15.37
989.768	25.25
989.932	108.56
990.096	4.13
990.26	-6.91
990.424	-21.25
990.588	23.7
990.752	105.08
990.915	70.2
991.079	36.1
991.243	31.84
991.407	75.63
991.571	18.86
991.734	55.67
991.898	47.92
992.062	106.04
992.226	27
992.389	-1.49
992.553	10.53
992.717	22.15
992.88	32.61
993.044	46.18
993.207	17.31
993.371	69.81
993.535	47.34
993.698	57.61
993.862	54.51
994.025	51.02
994.189	38.81
994.352	49.47
994.515	48.31
994.679	73.88
994.842	4.91
995.006	81.63
995.169	18.28
995.332	33
995.496	50.44
995.659	-31.52
995.822	34.75
995.985	31.84
996.149	79.11
996.312	37.26
996.475	91.71
996.638	30.87
996.801	92.68
996.964	105.66
997.128	27.38
997.291	40.95
997.454	46.18
997.617	11.3
997.78	32.61
997.943	8.78
998.106	54.9
998.269	17.5
998.432	24.28
998.595	33.97
998.758	0.84
998.92	-11.17
999.083	-30.16
999.246	56.64
999.409	8.98
999.572	-10.59
999.735	-15.82
999.897	23.31
1000.06	5.49
1000.223	31.45
1000.386	61.87
1000.548	37.46
1000.711	58.38
1000.874	48.89
1001.036	-28.61
1001.199	60.13
1001.361	6.26
1001.524	35.33
1001.687	60.51
1001.849	11.11
1002.012	17.7
1002.174	34.75
1002.337	59.93
1002.499	37.65
1002.661	66.33
1002.824	-16.79
1002.986	7.62
1003.149	25.64
1003.311	1.81
1003.473	65.36
1003.636	17.5
1003.798	55.28
1003.96	57.41
1004.123	30.29
1004.285	-21.25
1004.447	24.86
1004.609	23.31
1004.771	83.38
1004.933	-21.05
1005.096	21.96
1005.258	-25.32
1005.42	22.15
1005.582	55.86
1005.744	25.25
1005.906	-5.94
1006.068	29.13
1006.23	-41.4
1006.392	-14.85
1006.554	11.69
1006.716	38.23
1006.878	28.55
1007.04	-23.38
1007.202	8.01
1007.363	14.21
1007.525	34.94
1007.687	33.97
1007.849	44.24
1008.011	-13.3
1008.172	12.27
1008.334	20.02
1008.496	34.55
1008.658	-31.71
1008.819	8.2
1008.981	-35.58
1009.143	-2.65
1009.304	7.43
1009.466	50.44
1009.627	72.72
1009.789	98.68
1009.95	36.68
1010.112	-14.85
1010.273	44.63
1010.435	14.98
1010.596	12.08
1010.758	28.93
1010.919	17.31
1011.081	-8.07
1011.242	11.11
1011.403	33.78
1011.565	14.01
1011.726	19.25
1011.887	-15.44
1012.049	-4.97
1012.21	37.26
1012.371	82.99
1012.532	-47.79
1012.693	19.63
1012.855	-7.1
1013.016	-17.95
1013.177	42.3
1013.338	7.04
1013.499	70.59
1013.66	21.18
1013.821	3.94
1013.982	29.32
1014.143	16.73
1014.304	15.56
1014.465	13.82
1014.626	41.33
1014.787	22.35
1014.948	100.81
1015.109	-66.39
1015.27	72.72
1015.431	-5.94
1015.592	2.58
1015.752	69.43
1015.913	28.55
1016.074	34.55
1016.235	12.08
1016.395	30.68
1016.556	0.26
1016.717	-3.42
1016.877	57.03
1017.038	4.71
1017.199	30.68
1017.359	23.12
1017.52	13.24
1017.681	2.78
1017.841	-9.82
1018.002	1.42
1018.162	-6.52
1018.323	49.28
1018.483	28.74
1018.644	-10.59
1018.804	-12.53
1018.964	-7.3
1019.125	9.95
1019.285	19.44
1019.446	-16.02
1019.606	-4.2
1019.766	-11.37
1019.926	25.25
1020.087	36.49
1020.247	-22.6
1020.407	33.97
1020.567	18.28
1020.728	-10.98
1020.888	-1.87
1021.048	-8.65
1021.208	-8.27
1021.368	-1.29
1021.528	45.79
1021.688	50.63
1021.848	45.79
1022.008	18.28
1022.168	1.61
1022.328	-4.2
1022.488	24.28
1022.648	9.95
1022.808	26.8
1022.968	36.1
1023.128	-10.01
1023.288	9.36
1023.448	17.5
1023.608	40.17
1023.767	14.98
1023.927	-13.5
1024.087	-10.2
1024.247	-29.19
1024.406	4.33
1024.566	-1.1
1024.726	-27.25
1024.885	13.24
1025.045	34.94
1025.205	9.56
1025.364	19.05
1025.524	24.28
1025.683	-10.01
1025.843	18.47
1026.003	5.88
1026.162	40.36
1026.321	47.53
1026.481	9.75
1026.64	-8.07
1026.8	30.87
1026.959	8.01
1027.119	26.8
1027.278	3.55
1027.437	-0.13
1027.597	8.78
1027.756	23.51
1027.915	-0.13
1028.074	31.84
1028.234	-16.02
1028.393	-1.29
1028.552	-6.33
1028.711	-53.22
1028.87	14.6
1029.03	-29.77
1029.189	8.59
1029.348	-51.08
1029.507	-52.63
1029.666	0.26
1029.825	-40.04
1029.984	-12.53
1030.143	21.18
1030.302	-8.65
1030.461	-50.31
1030.62	0.26
1030.779	22.54
1030.938	-5.55
1031.097	-51.08
1031.255	21.76
1031.414	68.46
1031.573	19.44
1031.732	-59.42
1031.891	1.81
1032.049	29.51
1032.208	28.55
1032.367	-14.85
1032.525	25.64
1032.684	19.44
1032.843	4.71
1033.001	-25.32
1033.16	188
1033.319	55.09
1033.477	14.01
1033.636	-23.38
1033.794	-22.99
1033.953	18.28
1034.111	25.45
1034.27	-11.56
1034.428	24.09
1034.587	-3.81
1034.745	2.2
1034.903	4.91
1035.062	23.51
1035.22	-31.71
1035.378	8.4
1035.537	-14.85
1035.695	26.22
1035.853	-3.23
1036.011	44.82
1036.17	-1.87
1036.328	-57.67
1036.486	-14.27
1036.644	18.47
1036.802	-91.58
1036.96	-24.74
1037.119	8.2
1037.277	-24.74
1037.435	-43.53
1037.593	-11.37
1037.751	0.45
1037.909	21.18
1038.067	21.18
