Data from oakcork_FLMT105791__268__17-34-14-053.txt Node

Date: Mon Mar 20 17:34:14 GMT 2023
User: antho
Spectrometer: FLMT10579
Trigger mode: 0
Integration Time (sec): 1.000000E-1
Scans to average: 10
Electric dark correction enabled: true
Nonlinearity correction enabled: false
Boxcar width: 0
XAxis mode: Wavelengths
Number of Pixels in Spectrum: 3648
>>>>>Begin Spectral Data<<<<<
345.248	-161.13
345.464	-161.13
345.681	-161.13
345.898	-151.06
346.114	-156.48
346.331	-45.47
346.548	32.81
346.764	-10.4
346.981	-22.6
347.197	-4.2
347.414	20.02
347.631	-19.12
347.847	57.41
348.064	7.04
348.28	18.28
348.497	-11.56
348.713	-22.22
348.93	21.96
349.146	29.71
349.363	11.88
349.579	19.63
349.796	19.05
350.012	-21.05
350.229	22.73
350.445	7.81
350.661	-14.08
350.878	-4.78
351.094	7.43
351.311	8.59
351.527	30.1
351.743	-25.32
351.96	19.05
352.176	42.3
352.392	20.41
352.609	29.71
352.825	18.28
353.041	5.88
353.257	3.36
353.474	-16.6
353.69	-4.97
353.906	6.26
354.122	-0.52
354.339	45.98
354.555	43.46
354.771	-7.1
354.987	51.41
355.203	66.52
355.42	-7.88
355.636	8.01
355.852	-23.77
356.068	7.04
356.284	-14.47
356.5	79.5
356.716	2.97
356.932	13.24
357.148	15.37
357.364	-13.89
357.58	28.16
357.796	33
358.012	39.78
358.228	16.53
358.444	-64.45
358.66	60.13
358.876	-0.32
359.092	14.79
359.308	15.76
359.524	21.96
359.74	14.21
359.956	-14.66
360.172	20.41
360.388	39.01
360.604	-24.54
360.819	66.33
361.035	26.22
361.251	39.2
361.467	-30.93
361.683	31.84
361.898	3.94
362.114	38.81
362.33	-0.32
362.546	42.3
362.762	7.43
362.977	15.37
363.193	-18.15
363.409	51.6
363.624	-39.07
363.84	-23.19
364.056	5.88
364.271	43.08
364.487	34.94
364.703	-16.6
364.918	-3.23
365.134	13.05
365.35	29.13
365.565	115.93
365.781	14.21
365.996	18.66
366.212	57.61
366.427	21.38
366.643	7.23
366.858	15.37
367.074	-27.64
367.289	75.43
367.505	118.44
367.72	-50.31
367.936	-2.45
368.151	46.76
368.367	35.71
368.582	31.26
368.798	11.5
369.013	56.83
369.228	35.13
369.444	10.72
369.659	72.91
369.874	26.03
370.09	68.84
370.305	-25.9
370.52	20.41
370.736	34.75
370.951	11.3
371.166	71.36
371.381	58.19
371.597	46.37
371.812	-13.5
372.027	-16.02
372.242	18.08
372.458	59.74
372.673	-11.75
372.888	32.81
373.103	20.02
373.318	85.12
373.533	42.11
373.749	31.84
373.964	-9.82
374.179	48.7
374.394	0.84
374.609	66.71
374.824	-9.43
375.039	68.07
375.254	-22.41
375.469	56.06
375.684	30.87
375.899	42.3
376.114	6.26
376.329	26.8
376.544	44.82
376.759	45.79
376.974	37.46
377.189	11.5
377.404	1.81
377.619	58.38
377.834	-8.85
378.049	-1.29
378.264	4.91
378.478	41.91
378.693	-0.52
378.908	42.11
379.123	15.37
379.338	67.1
379.553	46.76
379.767	0.84
379.982	26.22
380.197	39.01
380.412	9.17
380.626	19.25
380.841	93.06
381.056	39.59
381.271	76.4
381.485	9.17
381.7	-4.2
381.915	32.81
382.129	13.63
382.344	50.63
382.559	26.8
382.773	41.72
382.988	-17.95
383.202	51.41
383.417	23.9
383.632	114.96
383.846	26.03
384.061	35.71
384.275	23.9
384.49	52.76
384.704	48.5
384.919	19.63
385.133	6.65
385.348	65.74
385.562	-2.26
385.777	57.03
385.991	12.85
386.206	5.49
386.42	9.95
386.634	74.85
386.849	35.71
387.063	55.09
387.277	16.34
387.492	22.54
387.706	-0.13
387.92	-11.56
388.135	50.63
388.349	30.1
388.563	27.19
388.778	12.08
388.992	60.32
389.206	39.78
389.42	75.04
389.635	33.97
389.849	59.54
390.063	80.28
390.277	31.84
390.491	84.34
390.706	39.2
390.92	94.03
391.134	44.63
391.348	55.67
391.562	-2.07
391.776	44.63
391.99	4.91
392.205	70.78
392.419	15.18
392.633	28.16
392.847	69.04
393.061	13.82
393.275	93.64
393.489	27.96
393.703	57.22
393.917	75.24
394.131	19.05
394.345	50.63
394.559	66.52
394.773	45.79
394.986	31.06
395.2	24.67
395.414	67.68
395.628	38.04
395.842	36.49
396.056	50.83
396.27	-19.12
396.484	38.23
396.697	31.65
396.911	64.97
397.125	71.94
397.339	55.67
397.553	36.49
397.766	116.31
397.98	68.84
398.194	52.18
398.408	28.55
398.621	58.96
398.835	74.66
399.049	66.13
399.262	99.26
399.476	71.94
399.69	66.33
399.903	128.91
400.117	63.61
400.331	90.93
400.544	10.53
400.758	142.28
400.971	52.38
401.185	69.04
401.398	27.96
401.612	103.72
401.826	88.99
402.039	79.69
402.253	35.71
402.466	67.1
402.68	37.46
402.893	81.05
403.106	71.75
403.32	86.09
403.533	77.76
403.747	70.39
403.96	82.41
404.174	59.93
404.387	36.49
404.6	66.71
404.814	79.89
405.027	71.36
405.24	81.44
405.454	66.13
405.667	106.63
405.88	29.32
406.094	77.37
406.307	103.53
406.52	89.96
406.733	54.7
406.947	12.08
407.16	116.7
407.373	95.19
407.586	45.6
407.799	21.18
408.012	87.64
408.226	69.81
408.439	127.16
408.652	12.46
408.865	57.61
409.078	124.45
409.291	90.74
409.504	39.98
409.717	83.96
409.93	106.43
410.143	87.64
410.357	42.11
410.57	45.01
410.783	81.24
410.996	68.84
411.209	71.36
411.421	123.68
411.634	85.89
411.847	33.97
412.06	57.03
412.273	84.93
412.486	102.75
412.699	138.01
412.912	45.4
413.125	126.39
413.338	95.19
413.55	80.66
413.763	82.02
413.976	94.03
414.189	75.24
414.402	84.93
414.615	119.8
414.827	56.83
415.04	114.18
415.253	118.25
415.466	105.85
415.678	143.63
415.891	78.14
416.104	80.66
416.316	72.72
416.529	66.33
416.742	95.97
416.954	89.58
417.167	59.74
417.38	82.41
417.592	114.57
417.805	51.41
418.017	31.06
418.23	92.87
418.442	60.9
418.655	69.23
418.868	95.97
419.08	124.84
419.293	118.25
419.505	99.65
419.718	117.48
419.93	111.86
420.142	63.61
420.355	121.93
420.567	146.54
420.78	98.68
420.992	69.62
421.205	174.44
421.417	57.03
421.629	64
421.842	63.81
422.054	49.86
422.266	99.26
422.479	130.26
422.691	51.6
422.903	120.38
423.115	90.74
423.328	72.14
423.54	106.82
423.752	70.39
423.964	55.48
424.177	104.69
424.389	99.07
424.601	179.47
424.813	102.94
425.025	119.41
425.238	145.38
425.45	81.05
425.662	90.54
425.874	385.82
426.086	108.56
426.298	113.21
426.51	86.86
426.722	126.39
426.934	88.61
427.146	119.8
427.358	58.96
427.57	124.45
427.782	117.28
427.994	99.84
428.206	64.58
428.418	54.31
428.63	110.69
428.842	128.71
429.054	97.91
429.266	105.27
429.478	64.78
429.69	113.99
429.902	68.84
430.114	123.29
430.325	120.96
430.537	81.83
430.749	92.48
430.961	19.44
431.173	95.78
431.384	96.74
431.596	41.14
431.808	87.44
432.02	99.46
432.231	125.61
432.443	148.47
432.655	106.24
432.867	78.73
433.078	108.95
433.29	161.46
433.502	143.83
433.713	160.87
433.925	133.94
434.136	147.89
434.348	90.35
434.56	76.21
434.771	189.36
434.983	63.42
435.194	93.45
435.406	115.15
435.617	163.39
435.829	155.64
436.04	141.69
436.252	141.69
436.463	155.06
436.675	148.28
436.886	140.14
437.098	155.45
437.309	151.19
437.521	141.31
437.732	150.22
437.943	119.03
438.155	126.19
438.366	99.07
438.578	173.86
438.789	149.25
439	157.19
439.211	142.86
439.423	145.18
439.634	158.94
439.845	146.54
440.057	160.87
440.268	176.96
440.479	129.1
440.69	148.86
440.902	119.22
441.113	126.39
441.324	148.28
441.535	152.93
441.746	184.71
441.957	85.7
442.168	116.12
442.38	175.99
442.591	200.98
442.802	151.77
443.013	103.72
443.224	175.99
443.435	140.34
443.646	142.47
443.857	152.16
444.068	123.29
444.279	131.81
444.49	192.26
444.701	169.79
444.912	237.99
445.123	188.58
445.334	171.14
445.545	164.94
445.756	155.64
445.967	131.43
446.178	153.32
446.388	192.26
446.599	198.46
446.81	188.19
447.021	139.95
447.232	174.82
447.443	201.76
447.653	150.02
447.864	208.54
448.075	158.55
448.286	176.57
448.496	185.67
448.707	190.52
448.918	153.9
449.129	229.85
449.339	162.23
449.55	188.19
449.761	127.55
449.971	215.9
450.182	157
450.393	200.98
450.603	149.25
450.814	194.01
451.024	181.8
451.235	214.54
451.446	210.28
451.656	228.11
451.867	159.91
452.077	178.12
452.288	226.56
452.498	215.71
452.709	163.59
452.919	181.41
453.13	152.93
453.34	191.87
453.55	131.43
453.761	227.33
453.971	197.49
454.182	200.01
454.392	208.73
454.602	258.14
454.813	200.79
455.023	203.89
455.233	154.09
455.444	189.55
455.654	117.09
455.864	192.65
456.075	189.36
456.285	143.83
456.495	161.84
456.705	198.66
456.916	204.86
457.126	239.73
457.336	212.41
457.546	131.04
457.756	166.11
457.967	233.14
458.177	175.41
458.387	219.19
458.597	175.21
458.807	197.88
459.017	196.33
459.227	191.49
459.437	200.59
459.647	217.06
459.857	216.29
460.068	159.91
460.278	250.58
460.488	232.56
460.698	240.31
460.908	171.92
461.117	137.24
461.327	188.97
461.537	200.4
461.747	209.12
461.957	199.24
462.167	306.57
462.377	245.54
462.587	190.32
462.797	229.85
463.007	186.64
463.216	198.46
463.426	240.89
463.636	259.88
463.846	159.13
464.056	189.36
464.265	246.51
464.475	190.13
464.685	223.84
464.895	231.79
465.104	188.97
465.314	231.01
465.524	206.02
465.733	228.11
465.943	276.74
466.153	255.81
466.362	250.39
466.572	216.67
466.782	206.79
466.991	222.68
467.201	288.17
467.41	199.82
467.62	227.33
467.829	221.13
468.039	233.34
468.249	211.44
468.458	211.64
468.668	255.62
468.877	232.56
469.086	268.02
469.296	261.82
469.505	220.36
469.715	309.87
469.924	222.87
470.134	272.47
470.343	277.32
470.552	200.98
470.762	236.05
470.971	229.07
471.18	238.57
471.39	231.79
471.599	195.36
471.808	286.42
472.018	222.68
472.227	284.68
472.436	266.85
472.645	235.27
472.855	209.51
473.064	246.51
473.273	229.85
473.482	273.64
473.691	290.3
473.901	264.14
474.11	232.17
474.319	347.84
474.528	237.99
474.737	302.31
474.946	273.44
475.155	296.89
475.364	314.9
475.573	284.1
475.783	275.38
475.992	300.95
476.201	347.84
476.41	259.3
476.619	249.22
476.828	273.64
477.037	263.17
477.245	286.04
477.454	305.99
477.663	306.57
477.872	271.12
478.081	336.41
478.29	255.62
478.499	345.32
478.708	293.98
478.917	369.35
479.125	289.91
479.334	334.67
479.543	272.67
479.752	285.07
479.961	317.81
480.169	336.8
480.378	287.59
480.587	413.33
480.796	332.53
481.004	324.4
481.213	343
481.422	360.05
481.63	316.07
481.839	359.08
482.048	382.13
482.256	353.27
482.465	344.93
482.674	366.25
482.882	372.45
483.091	415.46
483.299	337.57
483.508	349.2
483.716	356.75
483.925	359.85
484.134	309.29
484.342	336.8
484.551	381.75
484.759	361.98
484.967	391.05
485.176	386.4
485.384	344.74
485.593	382.72
485.801	351.91
486.01	362.95
486.218	365.47
486.426	293.01
486.635	328.08
486.843	321.49
487.051	355.01
487.26	340.48
487.468	356.17
487.676	355.98
487.885	308.32
488.093	371.48
488.301	386.4
488.509	370.51
488.717	417.2
488.926	375.55
489.134	366.25
489.342	392.02
489.55	345.9
489.758	374.97
489.967	318.2
490.175	446.07
490.383	365.28
490.591	450.91
490.799	378.26
491.007	436.19
491.215	383.1
491.423	390.27
491.631	392.02
491.839	405.58
492.047	408.48
492.255	384.46
492.463	369.15
492.671	389.88
492.879	454.6
493.087	404.22
493.295	388.92
493.503	426.5
493.711	428.44
493.919	461.76
494.127	470.48
494.334	463.51
494.542	388.33
494.75	442.58
494.958	419.53
495.166	462.73
495.374	413.33
495.581	436.19
495.789	455.56
495.997	482.69
496.205	430.76
496.412	442.78
496.62	447.43
496.828	437.93
497.035	429.21
497.243	459.44
497.451	465.25
497.658	415.07
497.866	437.55
498.074	521.63
498.281	402.67
498.489	494.7
498.696	438.32
498.904	454.98
499.112	419.72
499.319	517.56
499.527	454.6
499.734	494.31
499.942	422.43
500.149	442
500.357	479.01
500.564	402.87
500.771	488.89
500.979	445.88
501.186	417.98
501.394	437.55
501.601	454.79
501.808	491.99
502.016	458.08
502.223	435.22
502.43	472.81
502.638	472.03
502.845	445.49
503.052	496.44
503.26	439.29
503.467	514.85
503.674	461.57
503.881	491.8
504.089	534.61
504.296	492.96
504.503	421.66
504.71	472.81
504.917	446.46
505.125	480.95
505.332	470.29
505.539	484.43
505.746	531.51
505.953	509.23
506.16	500.9
506.367	541.2
506.574	531.51
506.781	546.82
506.988	469.32
507.195	485.4
507.402	501.48
507.609	529.58
507.816	497.61
508.023	488.11
508.23	495.09
508.437	460.02
508.644	513.3
508.851	541.98
509.058	527.25
509.265	527.83
509.472	538.49
509.679	598.55
509.885	513.11
510.092	509.04
510.299	469.71
510.506	512.72
510.713	506.91
510.92	545.08
511.126	538.29
511.333	549.14
511.54	535.19
511.746	565.61
511.953	571.04
512.16	578.21
512.367	508.84
512.573	549.92
512.78	538.49
512.987	561.74
513.193	528.8
513.4	469.51
513.606	526.28
513.813	548.37
514.02	570.26
514.226	612.89
514.433	606.69
514.639	506.71
514.846	541.01
515.052	557.48
515.259	577.04
515.465	573.56
515.672	567.94
515.878	643.11
516.085	536.74
516.291	580.92
516.497	525.89
516.704	545.08
516.91	521.24
517.117	497.22
517.323	465.83
517.529	549.53
517.736	523.57
517.942	531.51
518.148	546.04
518.354	553.02
518.561	570.65
518.767	544.11
518.973	599.52
519.179	568.33
519.386	548.37
519.592	543.91
519.798	554.18
520.004	595.06
520.21	574.91
520.417	617.73
520.623	605.52
520.829	635.17
521.035	632.84
521.241	590.61
521.447	646.21
521.653	706.27
521.859	611.53
522.065	649.7
522.271	698.91
522.477	664.62
522.683	684.57
522.889	635.36
523.095	666.75
523.301	638.46
523.507	603.59
523.713	641.17
523.919	639.62
524.125	704.53
524.331	665.01
524.537	742.12
524.742	687.67
524.948	721.39
525.154	722.94
525.36	800.24
525.566	696.2
525.772	770.4
525.977	665.01
526.183	752.19
526.389	705.89
526.595	684.19
526.8	686.12
527.006	655.9
527.212	627.22
527.417	641.17
527.623	632.07
527.829	672.17
528.034	705.5
528.24	715.57
528.446	698.91
528.651	732.43
528.857	739.02
529.062	795.98
529.268	740.95
529.473	740.57
529.679	742.89
529.884	806.83
530.09	762.85
530.295	795.98
530.501	791.13
530.706	777.77
530.912	724.29
531.117	760.72
531.323	745.22
531.528	779.9
531.733	769.05
531.939	737.27
532.144	789
532.35	799.66
532.555	793.46
532.76	787.45
532.966	797.33
533.171	803.34
533.376	777.77
533.581	739.4
533.787	761.3
533.992	788.42
534.197	823.3
534.402	785.32
534.607	808.38
534.813	854.68
535.018	762.65
535.223	783.58
535.428	836.08
535.633	843.64
535.838	826.4
536.043	840.54
536.249	890.53
536.454	830.47
536.659	817.29
536.864	764.78
537.069	827.95
537.274	831.82
537.479	822.52
537.684	838.99
537.889	788.81
538.094	873.86
538.299	833.95
538.504	859.14
538.708	837.44
538.913	838.02
539.118	819.62
539.323	828.33
539.528	781.25
539.733	827.17
539.938	826.78
540.142	873.67
540.347	831.63
540.552	814.19
540.757	838.41
540.962	812.25
541.166	777.57
541.371	784.74
541.576	823.88
541.781	730.88
541.985	842.67
542.19	854.88
542.395	896.15
542.599	874.25
542.804	866.31
543.008	888.98
543.213	831.43
543.418	795.59
543.622	855.85
543.827	823.1
544.031	887.04
544.236	891.3
544.44	860.88
544.645	922.3
544.849	873.48
545.054	888.2
545.258	915.52
545.463	892.66
545.667	823.88
545.872	894.79
546.076	895.76
546.281	870.76
546.485	825.43
546.689	901.57
546.894	928.5
547.098	884.33
547.302	853.71
547.507	883.16
547.711	891.69
547.915	950.2
548.119	813.42
548.324	848.68
548.528	925.21
548.732	842.87
548.936	917.26
549.141	945.36
549.345	875.22
549.549	930.83
549.753	858.36
549.957	927.34
550.161	975.58
550.366	886.26
550.57	878.71
550.774	888.78
550.978	880.26
551.182	894.98
551.386	878.32
551.59	889.17
551.794	871.54
551.998	931.41
552.202	887.62
552.406	851.58
552.61	890.33
552.814	899.63
553.018	945.55
553.222	875.22
553.426	884.52
553.63	978.29
553.833	906.41
554.037	846.55
554.241	952.91
554.445	896.34
554.649	885.1
554.853	892.27
555.056	921.91
555.26	923.27
555.464	913.78
555.668	891.88
555.871	958.53
556.075	930.63
556.279	892.85
556.483	854.68
556.686	912.42
556.89	906.41
557.094	914.36
557.297	834.15
557.501	927.73
557.704	834.53
557.908	900.41
558.112	846.35
558.315	902.54
558.519	849.65
558.722	881.61
558.926	835.31
559.129	838.22
559.333	797.14
559.536	796.56
559.74	806.83
559.943	829.69
560.147	804.89
560.35	853.52
560.553	826.98
560.757	773.12
560.96	900.8
561.164	820.2
561.367	881.03
561.57	836.47
561.774	841.12
561.977	853.91
562.18	827.95
562.384	917.46
562.587	825.62
562.79	811.87
562.993	814
563.197	845.77
563.4	875.03
563.603	877.74
563.806	924.82
564.009	797.33
564.212	832.21
564.416	781.83
564.619	863.4
564.822	804.5
565.025	850.81
565.228	789.2
565.431	838.02
565.634	763.82
565.837	779.7
566.04	763.62
566.243	786.87
566.446	724.87
566.649	810.51
566.852	738.82
567.055	807.41
567.258	782.03
567.461	841.51
567.664	843.06
567.867	741.92
568.07	821.94
568.273	764.01
568.475	857.59
568.678	773.5
568.881	762.85
569.084	776.99
569.287	686.32
569.489	704.34
569.692	779.32
569.895	750.64
570.098	699.1
570.3	708.02
570.503	690.39
570.706	693.29
570.909	694.84
571.111	676.44
571.314	667.52
571.516	716.35
571.719	723.9
571.922	691.94
572.124	700.07
572.327	704.14
572.529	651.44
572.732	644.27
572.935	729.72
573.137	767.11
573.34	675.27
573.542	715.57
573.745	693.1
573.947	698.91
574.15	696.2
574.352	665.59
574.554	740.57
574.757	652.41
574.959	656.48
575.162	657.06
575.364	653.19
575.566	747.74
575.769	663.84
575.971	688.64
576.173	596.03
576.376	663.65
576.578	696.2
576.78	728.75
576.982	605.33
577.185	660.94
577.387	618.31
577.589	611.53
577.791	663.65
577.993	673.53
578.196	634.59
578.398	653.96
578.6	687.29
578.802	622.57
579.004	625.48
579.206	622.57
579.408	665.01
579.61	622.38
579.812	662.1
580.014	642.53
580.216	573.56
580.418	640.59
580.62	577.04
580.822	566.97
581.024	637.11
581.226	680.5
581.428	617.34
581.63	693.49
581.832	624.9
582.034	671.79
582.236	637.3
582.438	679.73
582.64	693.68
582.841	681.47
583.043	718.48
583.245	666.36
583.447	682.83
583.649	652.02
583.85	677.4
584.052	693.87
584.254	631.87
584.456	677.21
584.657	617.54
584.859	625.48
585.061	633.42
585.262	624.9
585.464	608.24
585.666	660.16
585.867	620.25
586.069	692.52
586.27	660.36
586.472	645.24
586.674	633.81
586.875	615.02
587.077	625.87
587.278	619.09
587.48	622.96
587.681	716.15
587.883	624.71
588.084	558.44
588.285	586.34
588.487	604.94
588.688	609.01
588.89	571.23
589.091	568.33
589.292	580.14
589.494	561.35
589.695	555.15
589.896	507.68
590.098	507.49
590.299	558.64
590.5	500.71
590.702	537.13
590.903	569.68
591.104	593.71
591.305	583.82
591.507	653.19
591.708	599.71
591.909	561.93
592.11	621.02
592.311	578.59
592.512	580.14
592.714	545.85
592.915	536.94
593.116	556.89
593.317	547.79
593.518	529.38
593.719	542.56
593.92	592.54
594.121	611.72
594.322	592.35
594.523	589.64
594.724	509.81
594.925	591.57
595.126	583.24
595.327	559.99
595.528	572.98
595.729	584.79
595.929	582.86
596.13	565.42
596.331	563.87
596.532	559.8
596.733	639.04
596.934	588.09
597.135	595.45
597.335	587.89
597.536	535.39
597.737	582.28
597.938	554.57
598.138	586.92
598.339	557.28
598.54	573.94
598.74	566.58
598.941	562.71
599.142	609.79
599.342	567.16
599.543	550.31
599.744	563.87
599.944	550.5
600.145	536.16
600.345	565.61
600.546	635.17
600.746	647.37
600.947	629.36
601.147	611.34
601.348	601.07
601.548	551.28
601.749	592.35
601.949	531.9
602.15	525.31
602.35	545.08
602.551	605.14
602.751	503.03
602.951	542.75
603.152	501.87
603.352	567.55
603.552	568.91
603.753	601.07
603.953	559.03
604.153	596.03
604.354	526.86
604.554	535.19
604.754	566.97
604.954	532.09
605.155	607.46
605.355	544.11
605.555	596.42
605.755	612.69
605.955	568.91
606.155	592.74
606.356	578.59
606.556	606.3
606.756	561.35
606.956	517.56
607.156	624.32
607.356	532.29
607.556	598.36
607.756	576.27
607.956	612.31
608.156	574.14
608.356	524.93
608.556	583.44
608.756	582.47
608.956	552.63
609.156	561.74
609.356	540.62
609.556	509.62
609.755	549.73
609.955	548.95
610.155	551.47
610.355	554.76
610.555	562.71
610.755	571.81
610.954	512.33
611.154	538.49
611.354	568.13
611.554	527.83
611.753	516.79
611.953	486.76
612.153	549.34
612.352	541.39
612.552	484.05
612.752	468.55
612.951	505.74
613.151	523.57
613.351	483.66
613.55	528.41
613.75	504
613.949	493.15
614.149	537.71
614.348	501.48
614.548	490.44
614.747	479.59
614.947	489.08
615.146	447.62
615.346	520.86
615.545	514.66
615.745	504.97
615.944	523.38
616.144	500.9
616.343	545.46
616.542	502.26
616.742	503.42
616.941	489.28
617.14	447.62
617.34	498.58
617.539	505.94
617.738	459.05
617.938	548.37
618.137	494.51
618.336	440.65
618.535	498.58
618.734	476.68
618.934	528.8
619.133	485.01
619.332	500.9
619.531	468.16
619.73	487.53
619.929	557.09
620.128	505.16
620.328	531.71
620.527	459.25
620.726	479.4
620.925	504.19
621.124	509.62
621.323	470.68
621.522	460.6
621.721	455.37
621.92	439.68
622.119	510.01
622.318	461.96
622.517	476.68
622.715	465.06
622.914	436.77
623.113	486.95
623.312	419.33
623.511	503.61
623.71	460.41
623.909	466.61
624.107	503.81
624.306	417.2
624.505	439.48
624.704	467.58
624.902	445.3
625.101	518.14
625.3	484.24
625.499	423.4
625.697	460.41
625.896	438.32
626.095	482.3
626.293	412.16
626.492	443.75
626.69	454.4
626.889	433.67
627.088	471.06
627.286	416.04
627.485	438.71
627.683	447.81
627.882	470.48
628.08	375.55
628.279	420.3
628.477	492.18
628.676	398.8
628.874	455.95
629.073	415.07
629.271	394.15
629.469	474.16
629.668	427.28
629.866	410.81
630.065	398.99
630.263	439.48
630.461	406.74
630.66	437.93
630.858	452.46
631.056	442
631.254	452.66
631.453	409.65
631.651	485.4
631.849	417.59
632.047	459.05
632.245	429.41
632.444	431.15
632.642	438.51
632.84	491.99
633.038	443.94
633.236	398.22
633.434	380.39
633.632	410.61
633.83	413.71
634.028	463.9
634.227	414.88
634.425	473.39
634.623	408.48
634.821	451.88
635.019	430.57
635.216	425.92
635.414	444.71
635.612	446.65
635.81	406.93
636.008	464.09
636.206	436
636.404	439.48
636.602	387.56
636.8	413.71
636.997	457.11
637.195	472.81
637.393	443.16
637.591	470.68
637.789	425.34
637.986	435.03
638.184	413.71
638.382	449.95
638.58	464.09
638.777	484.24
638.975	432.7
639.173	418.17
639.37	432.9
639.568	429.99
639.765	470.1
639.963	399.57
640.161	475.33
640.358	467.19
640.556	388.33
640.753	381.94
640.951	395.31
641.148	442.97
641.346	411.2
641.543	436.96
641.741	431.15
641.938	384.65
642.136	405.77
642.333	396.67
642.531	463.31
642.728	452.66
642.925	395.12
643.123	405.58
643.32	435.22
643.517	389.5
643.715	427.47
643.912	413.33
644.109	424.56
644.306	407.9
644.504	378.84
644.701	413.13
644.898	417.98
645.095	400.15
645.293	410.81
645.49	414.49
645.687	416.62
645.884	435.22
646.081	340.67
646.278	387.17
646.475	400.35
646.672	393.18
646.87	403.25
647.067	405.19
647.264	402.48
647.461	380.78
647.658	374.58
647.855	429.41
648.052	361.98
648.249	340.67
648.446	364.31
648.642	367.8
648.839	358.69
649.036	356.17
649.233	328.85
649.43	333.89
649.627	324.98
649.824	346.68
650.021	334.08
650.217	349.78
650.414	349.97
650.611	376.9
650.808	405.97
651.004	391.43
651.201	394.53
651.398	405
651.595	358.3
651.791	373.03
651.988	394.73
652.185	373.61
652.381	374.38
652.578	318.2
652.775	391.24
652.971	329.24
653.168	349.97
653.364	387.37
653.561	293.4
653.757	330.79
653.954	378.26
654.15	329.63
654.347	415.85
654.543	342.8
654.74	332.92
654.936	317.04
655.133	345.13
655.329	361.4
655.525	330.98
655.722	354.62
655.918	289.14
656.115	394.15
656.311	300.37
656.507	294.56
656.704	255.42
656.9	294.17
657.096	298.82
657.292	300.37
657.489	336.6
657.685	331.95
657.881	320.91
658.077	315.87
658.273	299.6
658.47	354.62
658.666	316.26
658.862	362.37
659.058	306.57
659.254	370.32
659.45	315.68
659.646	377.48
659.842	326.14
660.038	370.12
660.234	311.61
660.43	335.83
660.626	424.56
660.822	361.79
661.018	365.67
661.214	316.45
661.41	303.67
661.606	381.17
661.802	371.67
661.998	346.1
662.194	314.13
662.39	350.36
662.586	363.92
662.781	362.57
662.977	343.58
663.173	377.29
663.369	336.99
663.564	326.72
663.76	337.96
663.956	324.98
664.152	364.89
664.347	296.11
664.543	335.83
664.739	327.3
664.934	293.01
665.13	268.99
665.326	352.49
665.521	353.65
665.717	300.57
665.912	300.95
666.108	253.87
666.304	285.26
666.499	323.82
666.695	267.24
666.89	323.82
667.086	323.43
667.281	310.06
667.477	389.5
667.672	304.05
667.867	305.02
668.063	347.26
668.258	280.42
668.454	330.98
668.649	395.89
668.844	316.07
669.04	335.83
669.235	324.2
669.43	306.57
669.626	281.97
669.821	308.9
670.016	293.4
670.211	308.7
670.407	275.96
670.602	318.2
670.797	304.05
670.992	305.02
671.187	301.15
671.382	339.32
671.578	296.11
671.773	325.17
671.968	270.34
672.163	279.25
672.358	333.89
672.553	293.98
672.748	293.98
672.943	369.73
673.138	315.29
673.333	303.86
673.528	261.04
673.723	312.39
673.918	321.88
674.113	265.5
674.308	371.09
674.503	326.92
674.698	330.4
674.892	307.15
675.087	337.38
675.282	316.84
675.477	287
675.672	299.4
675.867	275.38
676.061	283.13
676.256	247.09
676.451	275.96
676.646	305.02
676.84	271.12
677.035	254.07
677.23	265.89
677.424	309.09
677.619	326.33
677.814	330.21
678.008	313.16
678.203	238.37
678.397	275.57
678.592	274.02
678.787	337.77
678.981	277.9
679.176	281.19
679.37	284.68
679.565	274.6
679.759	274.22
679.954	310.25
680.148	354.43
680.342	345.13
680.537	309.87
680.731	285.65
680.926	322.85
681.12	312.97
681.314	286.04
681.509	296.3
681.703	282.74
681.897	332.53
682.092	276.15
682.286	284.49
682.48	369.54
682.674	321.49
682.869	304.83
683.063	303.86
683.257	354.04
683.451	290.3
683.645	314.52
683.839	281.77
684.034	281.97
684.228	328.47
684.422	254.45
684.616	266.85
684.81	312.58
685.004	279.06
685.198	262.01
685.392	333.12
685.586	269.57
685.78	297.66
685.974	308.7
686.168	318.39
686.362	350.55
686.556	263.56
686.75	251.16
686.944	247.09
687.138	301.54
687.331	213.96
687.525	242.83
687.719	205.05
687.913	275.19
688.107	220.55
688.301	229.07
688.494	273.44
688.688	206.99
688.882	202.53
689.076	191.29
689.269	234.89
689.463	294.56
689.657	218.81
689.85	243.02
690.044	245.93
690.238	251.74
690.431	249.42
690.625	240.7
690.818	251.94
691.012	261.62
691.205	297.47
691.399	249.03
691.593	244.38
691.786	343.58
691.98	285.45
692.173	335.05
692.366	303.86
692.56	310.64
692.753	365.47
692.947	272.67
693.14	329.43
693.333	336.22
693.527	254.45
693.72	321.3
693.914	304.83
694.107	304.05
694.3	298.82
694.493	293.98
694.687	344.93
694.88	311.22
695.073	361.21
695.266	341.06
695.46	304.64
695.653	352.68
695.846	349.97
696.039	311.8
696.232	310.64
696.425	376.13
696.618	372.83
696.812	349
697.005	391.82
697.198	452.66
697.391	420.5
697.584	404.61
697.777	441.61
697.97	395.12
698.163	456.73
698.356	425.73
698.549	501.68
698.742	442.39
698.935	414.68
699.127	429.99
699.32	401.9
699.513	416.43
699.706	438.51
699.899	461.76
700.092	401.7
700.285	463.9
700.477	427.08
700.67	484.05
700.863	438.32
701.056	531.9
701.248	517.37
701.441	493.93
701.634	505.74
701.826	578.01
702.019	473.2
702.212	489.47
702.404	461.96
702.597	488.11
702.79	464.86
702.982	513.69
703.175	561.16
703.367	536.16
703.56	545.66
703.752	624.71
703.945	584.99
704.137	577.43
704.33	597
704.522	624.71
704.715	619.67
704.907	597.58
705.1	635.75
705.292	625.87
705.484	618.31
705.677	646.79
705.869	631.29
706.061	654.93
706.254	690.19
706.446	639.62
706.638	639.43
706.831	733.59
707.023	684.77
707.215	742.89
707.407	722.74
707.599	717.9
707.792	753.74
707.984	732.24
708.176	768.27
708.368	725.26
708.56	759.55
708.752	721.58
708.944	750.84
709.136	793.27
709.329	742.12
709.521	862.82
709.713	827.37
709.905	851
710.097	874.45
710.289	815.35
710.481	851.97
710.672	840.93
710.864	808.96
711.056	913.2
711.248	857.98
711.44	881.42
711.632	864.76
711.824	880.06
712.016	936.44
712.207	925.4
712.399	936.06
712.591	969.58
712.783	966.09
712.975	961.44
713.166	891.88
713.358	934.51
713.55	1002.71
713.741	969.77
713.933	980.23
714.125	999.22
714.316	956.59
714.508	1046.49
714.7	1030.8
714.891	994.38
715.083	1061.02
715.274	1000.38
715.466	1041.07
715.657	1058.89
715.849	983.72
716.04	1044.17
716.232	1008.52
716.423	1071.87
716.615	990.11
716.806	983.14
716.998	953.88
717.189	941.68
717.381	867.28
717.572	865.34
717.763	904.86
717.955	924.43
718.146	852.36
718.337	843.06
718.528	820.97
718.72	776.02
718.911	890.53
719.102	808.77
719.293	861.46
719.485	845.96
719.676	847.13
719.867	823.1
720.058	819.03
720.249	807.41
720.44	860.5
720.632	894.01
720.823	919.98
721.014	967.64
721.205	977.71
721.396	1014.33
721.587	1073.23
721.778	1078.46
721.969	1116.24
722.16	1181.92
722.351	1135.81
722.542	1221.45
722.733	1243.73
722.924	1152.28
723.115	1157.12
723.305	1212.15
723.496	1200.91
723.687	1136.39
723.878	1149.57
724.069	1152.28
724.26	1180.76
724.45	1114.11
724.641	1105.97
724.832	1157.51
725.023	1126.51
725.213	1121.86
725.404	1133.68
725.595	1106.36
725.785	1115.27
725.976	1154.99
726.167	1177.47
726.357	1133.1
726.548	1277.44
726.739	1173.79
726.929	1241.21
727.12	1258.65
727.31	1281.32
727.501	1243.92
727.691	1225.32
727.882	1234.23
728.072	1301.27
728.263	1255.16
728.453	1283.83
728.644	1297.4
728.834	1278.41
729.024	1293.33
729.215	1266.98
729.405	1288.68
729.596	1366.76
729.786	1342.15
729.976	1345.64
730.167	1389.43
730.357	1349.71
730.547	1382.45
730.737	1377.41
730.928	1453.17
731.118	1448.71
731.308	1393.88
731.498	1390.78
731.688	1483.97
731.879	1478.16
732.069	1553.53
732.259	1492.89
732.449	1519.62
732.639	1594.8
732.829	1590.54
733.019	1628.51
733.209	1649.63
733.399	1651.18
733.589	1722.48
733.779	1748.83
733.969	1691.67
734.159	1785.45
734.349	1814.7
734.539	1828.26
734.729	1850.54
734.919	1862.94
735.109	1856.36
735.299	1846.28
735.488	1834.85
735.678	1847.83
735.868	1842.79
736.058	1851.51
736.248	1845.89
736.437	1815.28
736.627	1808.31
736.817	1917.39
737.007	1861.39
737.196	1935.79
737.386	1869.73
737.576	1882.9
737.765	1957.69
737.955	1908.28
738.144	2029.37
738.334	1934.82
738.524	1927.27
738.713	1961.56
738.903	1963.69
739.092	1989.07
739.282	1989.46
739.471	1988.1
739.661	1994.5
739.85	2002.83
740.04	1990.04
740.229	2096.22
740.419	2076.45
740.608	2091.18
740.797	2078.97
740.987	2129.35
741.176	2076.84
741.365	2063.67
741.555	2024.14
741.744	2156.08
741.933	2093.7
742.123	2094.08
742.312	2095.05
742.501	2152.02
742.69	2137.68
742.88	2115.98
743.069	2203.36
743.258	2154.15
743.447	2193.48
743.636	2157.83
743.825	2146.98
744.014	2230.48
744.204	2187.66
744.393	2153.76
744.582	2220.6
744.771	2231.06
744.96	2159.18
745.149	2209.56
745.338	2180.3
745.527	2235.52
745.716	2200.26
745.905	2205.3
746.094	2245.21
746.283	2257.61
746.471	2240.17
746.66	2322.71
746.849	2268.07
747.038	2309.34
747.227	2212.27
747.416	2265.36
747.604	2222.93
747.793	2217.31
747.982	2256.83
748.171	2243.27
748.359	2301.98
748.548	2247.53
748.737	2283.57
748.926	2226.03
749.114	2210.53
749.303	2273.88
749.491	2246.95
749.68	2223.7
749.869	2260.51
750.057	2252.96
750.246	2210.53
750.434	2224.48
750.623	2222.54
750.811	2234.16
751	2241.14
751.188	2224.67
751.377	2242.3
751.565	2217.5
751.754	2175.65
751.942	2205.49
752.131	2234.16
752.319	2199.48
752.507	2140.2
752.696	2274.08
752.884	2262.45
753.072	2225.64
753.261	2233.97
753.449	2203.16
753.637	2196.96
753.825	2312.44
754.014	2206.07
754.202	2189.41
754.39	2243.46
754.578	2278.34
754.766	2203.36
754.955	2166.74
755.143	2284.54
755.331	2195.22
755.519	2175.26
755.707	2180.69
755.895	2196.77
756.083	2193.09
756.271	2154.34
756.459	2175.46
756.647	2200.65
756.835	2176.43
757.023	2147.17
757.211	2180.88
757.399	2161.9
757.587	2180.69
757.775	2114.82
757.963	2126.63
758.151	2176.23
758.339	2139.42
758.526	2114.82
758.714	2125.08
758.902	2032.28
759.09	2002.44
759.278	1877.67
759.465	1704.46
759.653	1444.06
759.841	1343.7
760.028	1122.44
760.216	1013.17
760.404	982.94
760.591	767.88
760.779	633.62
760.967	562.9
761.154	447.04
761.342	509.81
761.529	513.11
761.717	538.68
761.905	484.43
762.092	561.74
762.28	501.48
762.467	518.53
762.655	459.25
762.842	492.76
763.029	480.95
763.217	484.63
763.404	476.68
763.592	526.48
763.779	484.63
763.966	518.73
764.154	546.24
764.341	585.37
764.528	579.56
764.716	665.59
764.903	651.44
765.09	703.17
765.277	729.91
765.465	861.46
765.652	864.95
765.839	908.35
766.026	988.95
766.213	1047.07
766.4	1080.59
766.588	1252.64
766.775	1231.13
766.962	1306.7
767.149	1373.15
767.336	1457.04
767.523	1415.19
767.71	1512.84
767.897	1575.81
768.084	1621.34
768.271	1642.85
768.458	1699.81
768.645	1734.3
768.832	1702.91
769.019	1716.28
769.206	1768.4
769.392	1819.93
769.579	1917.58
769.766	1866.63
769.953	1829.81
770.14	1890.07
770.327	1879.99
770.513	1909.25
770.7	1977.06
770.887	1877.28
771.073	1933.27
771.26	1908.67
771.447	1880.77
771.634	1865.66
771.82	2006.12
772.007	1887.55
772.193	1928.43
772.38	1958.07
772.567	1928.43
772.753	1912.74
772.94	1921.07
773.126	1963.5
773.313	1969.12
773.499	1951.29
773.686	1952.26
773.872	1902.27
774.059	1958.46
774.245	1869.53
774.432	1892.98
774.618	1835.82
774.804	1935.99
774.991	1852.48
775.177	1947.81
775.363	1920.49
775.55	1916.42
775.736	1901.5
775.922	1849.96
776.109	1878.25
776.295	1913.71
776.481	1914.87
776.667	1906.54
776.853	1882.13
777.04	1869.73
777.226	1876.31
777.412	1958.07
777.598	1871.08
777.784	1842.79
777.97	1836.01
778.156	1898.79
778.342	1844.15
778.528	1834.27
778.715	1788.35
778.901	1825.55
779.087	1856.16
779.272	1809.08
779.458	1793.2
779.644	1834.66
779.83	1797.26
780.016	1891.23
780.202	1839.11
780.388	1820.9
780.574	1750.76
780.76	1801.72
780.946	1839.89
781.131	1792.61
781.317	1751.73
781.503	1769.95
781.689	1796.49
781.874	1858.49
782.06	1766.07
782.246	1781.38
782.432	1772.46
782.617	1797.65
782.803	1811.79
782.989	1724.22
783.174	1760.84
783.36	1685.67
783.545	1745.34
783.731	1770.14
783.916	1693.03
784.102	1757.93
784.288	1732.55
784.473	1742.43
784.659	1667.84
784.844	1732.94
785.029	1716.08
785.215	1700.97
785.4	1661.83
785.586	1739.14
785.771	1650.6
785.956	1706.59
786.142	1702.13
786.327	1672.3
786.512	1685.47
786.698	1686.05
786.883	1614.37
787.068	1646.14
787.254	1676.56
787.439	1621.73
787.624	1648.08
787.809	1632
787.994	1639.75
788.18	1682.18
788.365	1592.09
788.55	1630.64
788.735	1625.99
788.92	1581.62
789.105	1599.06
789.29	1610.49
789.475	1552.37
789.66	1598.48
789.845	1520.79
790.03	1551.2
790.215	1623.67
790.4	1580.07
790.585	1609.72
790.77	1563.99
790.955	1504.71
791.14	1541.91
791.325	1593.05
791.51	1461.5
791.695	1537.06
791.879	1555.66
792.064	1480.68
792.249	1589.37
792.434	1536.67
792.618	1537.64
792.803	1556.82
792.988	1532.41
793.173	1554.69
793.357	1584.72
793.542	1505.09
793.727	1555.08
793.911	1569.03
794.096	1508.77
794.281	1559.92
794.465	1624.64
794.65	1535.9
794.834	1563.8
795.019	1603.52
795.203	1585.5
795.388	1601.77
795.572	1603.9
795.757	1581.04
795.941	1597.32
796.126	1566.32
796.31	1548.69
796.494	1536.67
796.679	1536.29
796.863	1539.39
797.048	1612.62
797.232	1583.56
797.416	1568.45
797.601	1549.27
797.785	1591.31
797.969	1579.49
798.153	1542.68
798.338	1576.78
798.522	1617.47
798.706	1588.6
798.89	1597.12
799.074	1651.18
799.258	1625.02
799.443	1570
799.627	1595.19
799.811	1606.23
799.995	1564.77
800.179	1521.17
800.363	1620.57
800.547	1560.5
800.731	1569.8
800.915	1531.64
801.099	1584.34
801.283	1539.77
801.467	1580.07
801.651	1536.48
801.835	1605.65
802.019	1545.78
802.202	1581.62
802.386	1536.09
802.57	1522.72
802.754	1522.53
802.938	1520.59
803.121	1547.52
803.305	1626.96
803.489	1529.31
803.673	1534.93
803.856	1595.77
804.04	1545.39
804.224	1568.45
804.407	1567.67
804.591	1520.4
804.775	1578.72
804.958	1536.09
805.142	1674.04
805.326	1580.65
805.509	1595.96
805.693	1607
805.876	1583.56
806.06	1569.8
806.243	1578.33
806.427	1614.75
806.61	1619.02
806.794	1582.2
806.977	1643.62
807.16	1556.44
807.344	1585.3
807.527	1596.54
807.71	1546.94
807.894	1595.77
808.077	1591.5
808.26	1544.62
808.444	1547.33
808.627	1574.84
808.81	1544.23
808.993	1520.21
809.177	1486.11
809.36	1542.87
809.543	1541.91
809.726	1444.06
809.909	1475.26
810.092	1494.24
810.276	1471.96
810.459	1462.47
810.642	1471.96
810.825	1428.95
811.008	1461.31
811.191	1381.48
811.374	1382.06
811.557	1393.11
811.74	1464.79
811.923	1334.4
812.106	1339.83
812.289	1344.86
812.472	1353
812.654	1387.1
812.837	1299.91
813.02	1291.39
813.203	1280.54
813.386	1200.13
813.569	1215.83
813.751	1159.06
813.934	1229.2
814.117	1202.65
814.3	1163.52
814.482	1136.39
814.665	1105.2
814.848	1080.21
815.03	1065.87
815.213	1086.21
815.396	1046.49
815.578	1027.51
815.761	1017.82
815.943	1058.51
816.126	1005.23
816.309	992.83
816.491	932.57
816.674	905.83
816.856	923.27
817.039	895.76
817.221	1008.13
817.403	954.08
817.586	964.34
817.768	960.28
817.951	911.26
818.133	922.11
818.315	968.03
818.498	952.53
818.68	981.98
818.862	972.87
819.045	989.53
819.227	1010.84
819.409	987.21
819.591	993.41
819.774	966.86
819.956	919.01
820.138	990.11
820.32	1015.3
820.502	1012.78
820.684	1061.8
820.866	1070.71
821.048	1087.18
821.231	1123.22
821.413	1087.37
821.595	1099.97
821.777	1105.97
821.959	1105.59
822.141	1123.99
822.323	1035.64
822.505	1004.84
822.686	949.81
822.868	940.13
823.05	892.85
823.232	854.49
823.414	803.53
823.596	873.67
823.778	859.53
823.96	853.13
824.141	846.35
824.323	862.82
824.505	905.06
824.687	975.97
824.868	956.98
825.05	1055.41
825.232	1067.61
825.413	1116.24
825.595	1074.78
825.777	1048.62
825.958	1071.68
826.14	1048.04
826.321	1071.87
826.503	1039.13
826.685	1098.61
826.866	1070.32
827.048	1077.11
827.229	1043.39
827.411	1005.23
827.592	997.09
827.773	998.83
827.955	977.52
828.136	949.04
828.318	938.58
828.499	983.33
828.68	919.59
828.862	982.17
829.043	998.44
829.224	943.61
829.406	892.27
829.587	960.86
829.768	930.63
829.949	989.53
830.131	950.78
830.312	1011.62
830.493	948.07
830.674	976.16
830.855	943.42
831.036	961.24
831.218	986.63
831.399	1018.98
831.58	968.8
831.761	985.27
831.942	979.26
832.123	971.71
832.304	913.78
832.485	967.06
832.666	967.06
832.847	973.06
833.028	957.37
833.209	972.09
833.389	955.82
833.57	902.35
833.751	923.08
833.932	1005.81
834.113	987.21
834.294	969.38
834.475	976.36
834.655	1039.32
834.836	981.78
835.017	974.42
835.198	897.31
835.378	958.53
835.559	988.95
835.74	979.26
835.92	961.05
836.101	938.19
836.281	989.73
836.462	992.44
836.643	1017.43
836.823	1015.88
837.004	1005.42
837.184	1036.42
837.365	1032.35
837.545	1049.59
837.726	990.11
837.906	1061.99
838.087	993.02
838.267	1005.61
838.448	965.51
838.628	998.64
838.808	1010.46
838.989	1058.51
839.169	976.16
839.349	1056.57
839.53	1019.95
839.71	1031.96
839.89	975.78
840.07	1053.08
840.251	1001.93
840.431	1024.79
840.611	1019.95
840.791	969.19
840.971	1022.66
841.151	1008.91
841.332	1000.58
841.512	1038.74
841.692	961.83
841.872	1009.1
842.052	983.72
842.232	1002.32
842.412	1003.09
842.592	1007.55
842.772	978.88
842.952	983.72
843.132	961.63
843.312	965.51
843.492	965.7
843.672	996.12
843.851	915.33
844.031	999.03
844.211	973.84
844.391	980.43
844.571	976.94
844.751	1011.43
844.93	978.49
845.11	952.91
845.29	979.46
845.47	955.63
845.649	971.13
845.829	1019.76
846.009	967.06
846.188	1002.51
846.368	967.64
846.547	971.13
846.727	975
846.907	897.7
847.086	975.78
847.266	967.25
847.445	954.85
847.625	986.04
847.804	933.93
847.984	944.97
848.163	925.79
848.343	960.86
848.522	976.74
848.701	960.08
848.881	925.6
849.06	950.01
849.239	922.69
849.419	941.87
849.598	894.21
849.777	932.57
849.957	909.51
850.136	856.62
850.315	869.99
850.494	838.6
850.674	883.75
850.853	926.95
851.032	877.93
851.211	943.81
851.39	909.51
851.569	852.55
851.748	854.3
851.927	890.14
852.107	894.01
852.286	866.89
852.465	844.61
852.644	931.99
852.823	880.65
853.002	859.33
853.181	904.86
853.359	874.06
853.538	826.78
853.717	883.55
853.896	833.18
854.075	790.36
854.254	777.38
854.433	745.41
854.611	800.43
854.79	736.11
854.969	805.28
855.148	790.75
855.327	726.42
855.505	769.24
855.684	770.6
855.863	787.26
856.041	758.58
856.22	803.73
856.399	775.83
856.577	829.11
856.756	798.3
856.934	942.26
857.113	934.89
857.291	857.78
857.47	846.16
857.648	853.52
857.827	820.78
858.005	887.62
858.184	825.62
858.362	893.63
858.541	810.9
858.719	823.1
858.898	831.24
859.076	808.18
859.254	893.43
859.433	822.52
859.611	833.37
859.789	791.52
859.967	855.26
860.146	858.75
860.324	790.94
860.502	809.35
860.68	778.73
860.859	808.77
861.037	820.2
861.215	814.58
861.393	816.32
861.571	814
861.749	811.87
861.927	825.23
862.105	791.52
862.283	786.48
862.461	775.63
862.639	723.13
862.817	784.55
862.995	791.52
863.173	767.3
863.351	820.39
863.529	779.9
863.707	831.82
863.885	811.87
864.063	758.78
864.241	797.14
864.418	849.84
864.596	762.27
864.774	712.86
864.952	774.86
865.129	787.07
865.307	757.62
865.485	716.35
865.663	794.23
865.84	727.97
866.018	748.51
866.196	669.66
866.373	690.39
866.551	699.49
866.728	612.11
866.906	638.07
867.084	681.09
867.261	713.44
867.439	715.57
867.616	733.2
867.794	738.44
867.971	732.04
868.149	732.43
868.326	774.08
868.503	745.8
868.681	725.84
868.858	713.83
869.035	694.26
869.213	749.87
869.39	703.17
869.567	763.82
869.745	685.93
869.922	736.5
870.099	744.05
870.276	736.89
870.454	723.52
870.631	729.33
870.808	733.79
870.985	752.97
871.162	755.68
871.339	741.92
871.517	667.72
871.694	711.5
871.871	697.17
872.048	686.9
872.225	659.77
872.402	707.24
872.579	676.82
872.756	702.59
872.933	659.77
873.11	667.14
873.287	712.67
873.463	660.74
873.64	671.79
873.817	708.99
873.994	677.99
874.171	674.69
874.348	681.28
874.524	643.11
874.701	667.91
874.878	623.35
875.055	702.01
875.231	665.2
875.408	712.86
875.585	648.92
875.762	671.2
875.938	634.39
876.115	674.69
876.291	613.27
876.468	625.67
876.645	618.89
876.821	665.01
876.998	617.15
877.174	685.35
877.351	672.37
877.527	628.39
877.704	654.16
877.88	643.31
878.057	602.62
878.233	631.68
878.409	640.79
878.586	645.24
878.762	640.21
878.938	627.61
879.115	561.35
879.291	616.37
879.467	594.29
879.644	593.32
879.82	670.82
879.996	603.01
880.172	555.34
880.349	621.22
880.525	634.2
880.701	584.02
880.877	607.46
881.053	619.28
881.229	643.5
881.405	642.72
881.581	593.71
881.757	589.64
881.933	618.89
882.109	654.35
882.285	598.74
882.461	545.85
882.637	605.91
882.813	569.1
882.989	572.01
883.165	643.31
883.341	592.74
883.517	632.07
883.693	623.54
883.869	630.91
884.044	591.57
884.22	610.56
884.396	620.44
884.572	604.75
884.747	641.76
884.923	601.46
885.099	628.58
885.275	612.11
885.45	581.5
885.626	577.24
885.801	537.91
885.977	592.93
886.153	542.17
886.328	619.67
886.504	577.24
886.679	600.68
886.855	548.37
887.03	620.06
887.206	596.22
887.381	562.9
887.557	612.5
887.732	591.77
887.908	626.26
888.083	635.94
888.258	562.13
888.434	565.61
888.609	589.44
888.784	651.25
888.96	584.79
889.135	566.19
889.31	539.84
889.485	590.99
889.661	594.48
889.836	636.33
890.011	601.84
890.186	592.35
890.361	565.81
890.537	614.44
890.712	583.82
890.887	556.12
891.062	608.04
891.237	634.39
891.412	571.62
891.587	582.86
891.762	600.29
891.937	618.51
892.112	546.43
892.287	604.56
892.462	540.81
892.637	523.76
892.812	516.21
892.987	546.63
893.161	553.79
893.336	553.21
893.511	548.95
893.686	552.44
893.861	533.84
894.035	527.44
894.21	565.23
894.385	477.07
894.56	534.61
894.734	471.84
894.909	484.82
895.084	496.83
895.258	485.79
895.433	499.74
895.608	485.79
895.782	458.66
895.957	469.51
896.131	462.54
896.306	413.13
896.48	417.01
896.655	423.79
896.829	388.53
897.004	381.75
897.178	389.11
897.353	371.87
897.527	419.33
897.701	393.57
897.876	360.43
898.05	438.9
898.224	378.65
898.399	441.42
898.573	381.17
898.747	333.89
898.921	391.05
899.096	307.15
899.27	306.19
899.444	319.75
899.618	347.84
899.792	307.54
899.967	325.37
900.141	397.25
900.315	307.35
900.489	333.5
900.663	361.21
900.837	364.89
901.011	286.42
901.185	387.75
901.359	356.75
901.533	320.52
901.707	348.03
901.881	293.79
902.055	286.81
902.229	312.97
902.403	374.58
902.576	326.33
902.75	340.87
902.924	419.53
903.098	382.91
903.272	400.93
903.446	427.66
903.619	398.8
903.793	422.43
903.967	397.63
904.14	445.3
904.314	459.05
904.488	423.79
904.661	456.53
904.835	418.95
905.009	467.38
905.182	491.21
905.356	447.43
905.529	429.8
905.703	419.72
905.876	390.47
906.05	386.4
906.223	375.55
906.397	335.83
906.57	344.74
906.744	334.28
906.917	340.09
907.09	332.73
907.264	340.87
907.437	302.5
907.61	312.77
907.784	329.43
907.957	329.63
908.13	287.59
908.304	330.6
908.477	282.35
908.65	314.71
908.823	265.89
908.996	338.35
909.17	324.4
909.343	295.53
909.516	314.71
909.689	288.17
909.862	279.25
910.035	285.07
910.208	280.42
910.381	281.39
910.554	373.61
910.727	285.45
910.9	295.92
911.073	276.15
911.246	330.4
911.419	355.01
911.592	340.28
911.765	285.45
911.938	285.84
912.11	302.12
912.283	276.93
912.456	314.52
912.629	301.34
912.802	277.9
912.974	246.7
913.147	234.89
913.32	183.54
913.493	237.99
913.665	274.6
913.838	268.21
914.01	254.84
914.183	253.49
914.356	278.67
914.528	259.49
914.701	331.37
914.873	284.87
915.046	249.8
915.218	216.29
915.391	194.59
915.563	199.04
915.736	244.57
915.908	297.27
916.081	248.64
916.253	247.09
916.425	234.3
916.598	256.59
916.77	248.64
916.942	229.85
917.115	166.3
917.287	257.75
917.459	233.72
917.632	188.77
917.804	202.34
917.976	239.92
918.148	247.48
918.32	219.97
918.493	236.24
918.665	311.03
918.837	254.07
919.009	297.47
919.181	289.33
919.353	286.62
919.525	255.62
919.697	260.65
919.869	260.27
920.041	308.12
920.213	357.33
920.385	274.8
920.557	254.45
920.729	302.7
920.901	277.32
921.073	267.82
921.244	270.34
921.416	312.97
921.588	278.87
921.76	265.3
921.932	309.67
922.103	275.19
922.275	265.5
922.447	276.15
922.619	208.73
922.79	303.67
922.962	240.12
923.134	293.98
923.305	228.49
923.477	215.32
923.648	220.36
923.82	250.77
923.991	202.72
924.163	209.7
924.335	255.81
924.506	217.26
924.677	264.34
924.849	193.42
925.02	213.96
925.192	252.9
925.363	237.99
925.535	232.76
925.706	189.16
925.877	257.36
926.049	207.76
926.22	214.74
926.391	208.92
926.562	249.22
926.734	208.73
926.905	248.64
927.076	171.53
927.247	191.68
927.419	151.77
927.59	201.95
927.761	155.84
927.932	175.99
928.103	188.19
928.274	177.54
928.445	147.12
928.616	173.86
928.787	164.75
928.958	216.67
929.129	176.18
929.3	167.07
929.471	120.96
929.642	87.83
929.813	82.99
929.984	160.29
930.155	71.17
930.326	126.58
930.496	112.05
930.667	61.29
930.838	106.24
931.009	70.78
931.18	79.69
931.35	49.66
931.521	67.49
931.692	61.29
931.863	14.4
932.033	90.93
932.204	64
932.374	104.11
932.545	38.62
932.716	82.21
932.886	76.21
933.057	21.96
933.227	34.75
933.398	144.41
933.568	21.96
933.739	19.44
933.909	2.58
934.08	58.58
934.25	-13.11
934.421	-0.32
934.591	46.95
934.761	1.23
934.932	-30.16
935.102	4.91
935.272	0.84
935.443	6.65
935.613	22.73
935.783	35.71
935.953	13.05
936.123	139.95
936.294	3.75
936.464	-16.79
936.634	27.77
936.804	-5.94
936.974	-28.22
937.144	46.37
937.314	25.83
937.484	-9.62
937.655	2.97
937.825	45.4
937.995	4.91
938.165	31.84
938.334	-11.75
938.504	30.1
938.674	2.58
938.844	-4.2
939.014	47.15
939.184	72.72
939.354	76.98
939.524	94.42
939.694	29.13
939.863	49.66
940.033	89.96
940.203	73.49
940.373	42.3
940.542	81.63
940.712	50.83
940.882	71.17
941.051	76.98
941.221	70.01
941.391	102.56
941.56	23.7
941.73	27.58
941.899	122.13
942.069	62.84
942.238	43.66
942.408	19.44
942.577	60.51
942.747	57.22
942.916	14.98
943.086	15.56
943.255	83.57
943.425	36.1
943.594	34.16
943.763	-31.32
943.933	44.24
944.102	-13.69
944.271	39.98
944.441	44.63
944.61	-1.87
944.779	35.52
944.948	98.49
945.117	-7.88
945.287	26.03
945.456	-25.51
945.625	10.91
945.794	37.85
945.963	10.91
946.132	30.48
946.301	1.81
946.47	73.88
946.639	-2.26
946.808	9.17
946.977	46.76
947.146	79.11
947.315	12.27
947.484	47.34
947.653	4.13
947.822	22.93
947.991	1.42
948.16	95.58
948.329	47.34
948.498	34.55
948.666	23.9
948.835	50.05
949.004	-19.31
949.173	-7.1
949.341	19.83
949.51	34.55
949.679	97.91
949.847	70.98
950.016	97.13
950.185	58.58
950.353	-19.7
950.522	29.32
950.69	56.45
950.859	6.07
951.028	60.32
951.196	43.46
951.365	8.59
951.533	53.93
951.701	53.54
951.87	49.47
952.038	-15.63
952.207	38.81
952.375	101.01
952.543	21.96
952.712	31.26
952.88	-0.52
953.048	83.18
953.217	36.3
953.385	20.41
953.553	51.41
953.721	3.94
953.89	15.95
954.058	-13.3
954.226	25.06
954.394	35.71
954.562	-18.54
954.73	55.67
954.898	22.93
955.067	64.39
955.235	11.3
955.403	75.04
955.571	88.8
955.739	51.99
955.907	16.92
956.075	20.02
956.243	30.87
956.41	57.03
956.578	-0.9
956.746	-3.62
956.914	21.18
957.082	21.18
957.25	35.13
957.418	8.98
957.585	32.23
957.753	65.36
957.921	-0.32
958.089	20.02
958.256	64.39
958.424	58.38
958.592	38.62
958.759	16.53
958.927	35.71
959.095	17.5
959.262	51.8
959.43	32.81
959.597	11.88
959.765	31.06
959.932	6.26
960.1	61.29
960.267	35.13
960.435	50.63
960.602	78.34
960.77	16.15
960.937	4.13
961.104	31.45
961.272	-4.59
961.439	16.92
961.606	37.85
961.774	78.34
961.941	14.01
962.108	51.99
962.275	36.68
962.443	74.46
962.61	74.85
962.777	101.59
962.944	52.96
963.111	32.61
963.278	70.59
963.446	48.11
963.613	22.54
963.78	82.6
963.947	76.01
964.114	59.74
964.281	131.62
964.448	86.67
964.615	24.28
964.782	69.62
964.949	75.63
965.116	54.9
965.282	82.99
965.449	20.8
965.616	-3.81
965.783	66.71
965.95	42.69
966.117	20.02
966.283	42.88
966.45	55.86
966.617	29.9
966.784	76.59
966.95	71.17
967.117	67.1
967.284	37.46
967.45	18.08
967.617	80.86
967.784	58.38
967.95	93.45
968.117	43.85
968.283	92.68
968.45	149.44
968.616	82.21
968.783	70.01
968.949	72.53
969.116	108.95
969.282	39.59
969.449	76.59
969.615	67.1
969.781	16.73
969.948	34.55
970.114	5.3
970.28	90.74
970.447	61.48
970.613	85.7
970.779	54.9
970.945	71.94
971.112	47.92
971.278	41.53
971.444	41.33
971.61	100.43
971.776	47.34
971.942	67.49
972.108	63.23
972.275	49.08
972.441	89.96
972.607	113.99
972.773	35.13
972.939	51.6
973.105	60.51
973.271	11.5
973.437	41.33
973.602	35.71
973.768	50.05
973.934	75.43
974.1	58.19
974.266	-5.75
974.432	65.94
974.598	30.87
974.763	82.21
974.929	38.81
975.095	68.07
975.261	29.13
975.426	42.88
975.592	52.38
975.758	101.01
975.923	-5.36
976.089	22.73
976.255	68.84
976.42	59.16
976.586	60.71
976.751	64.58
976.917	144.79
977.082	55.48
977.248	7.62
977.413	-1.49
977.579	59.93
977.744	62.26
977.91	21.57
978.075	30.68
978.24	76.4
978.406	68.07
978.571	40.95
978.736	38.23
978.902	60.71
979.067	28.35
979.232	-0.71
979.397	73.69
979.563	99.26
979.728	22.15
979.893	47.15
980.058	50.83
980.223	69.23
980.388	56.83
980.554	40.56
980.719	24.48
980.884	45.98
981.049	81.44
981.214	47.34
981.379	31.65
981.544	34.55
981.709	35.33
981.874	64.78
982.039	45.6
982.204	74.46
982.368	48.5
982.533	16.53
982.698	63.23
982.863	106.63
983.028	42.69
983.193	59.93
983.357	64.97
983.522	76.01
983.687	30.1
983.852	44.24
984.016	40.95
984.181	62.06
984.346	60.13
984.51	38.23
984.675	39.59
984.839	72.33
985.004	48.31
985.168	89.77
985.333	47.15
985.498	61.29
985.662	59.74
985.827	49.47
985.991	64.58
986.155	44.82
986.32	73.49
986.484	119.99
986.649	58.19
986.813	1.23
986.977	37.26
987.142	82.02
987.306	19.25
987.47	4.33
987.634	44.24
987.799	35.33
987.963	47.15
988.127	61.09
988.291	128.52
988.455	57.8
988.62	44.05
988.784	81.44
988.948	53.35
989.112	27.58
989.276	73.3
989.44	46.76
989.604	42.3
989.768	39.2
989.932	102.56
990.096	30.87
990.26	15.56
990.424	-15.44
990.588	22.93
990.752	99.65
990.915	102.36
991.079	13.43
991.243	20.99
991.407	51.99
991.571	37.26
991.734	55.48
991.898	67.88
992.062	135.69
992.226	42.11
992.389	15.95
992.553	2.78
992.717	-4.97
992.88	33.58
993.044	54.51
993.207	27
993.371	59.54
993.535	69.62
993.698	47.34
993.862	78.92
994.025	82.21
994.189	40.75
994.352	59.54
994.515	38.62
994.679	52.38
994.842	33.2
995.006	48.31
995.169	8.59
995.332	17.31
995.496	83.96
995.659	3.36
995.822	43.08
995.985	21.18
996.149	92.48
996.312	34.16
996.475	110.5
996.638	20.6
996.801	87.25
996.964	85.89
997.128	25.06
997.291	45.01
997.454	44.43
997.617	2.39
997.78	63.03
997.943	16.15
998.106	68.26
998.269	6.85
998.432	0.65
998.595	54.12
998.758	-10.2
998.92	5.68
999.083	-20.28
999.246	28.74
999.409	18.66
999.572	-13.69
999.735	42.5
999.897	51.8
1000.06	19.83
1000.223	-4.97
1000.386	42.88
1000.548	59.74
1000.711	46.95
1000.874	56.06
1001.036	10.72
1001.199	65.16
1001.361	17.11
1001.524	51.41
1001.687	70.78
1001.849	32.03
1002.012	55.28
1002.174	55.48
1002.337	53.35
1002.499	35.13
1002.661	71.94
1002.824	19.83
1002.986	-18.15
1003.149	20.8
1003.311	-4.59
1003.473	73.69
1003.636	21.38
1003.798	33.78
1003.96	70.78
1004.123	26.22
1004.285	25.06
1004.447	21.18
1004.609	8.59
1004.771	86.67
1004.933	-22.8
1005.096	27.77
1005.258	-15.44
1005.42	8.98
1005.582	53.73
1005.744	26.8
1005.906	6.46
1006.068	38.23
1006.23	2.39
1006.392	-25.51
1006.554	12.46
1006.716	69.23
1006.878	30.1
1007.04	0.65
1007.202	17.11
1007.363	30.48
1007.525	10.91
1007.687	41.14
1007.849	68.65
1008.011	-21.83
1008.172	-18.54
1008.334	4.52
1008.496	61.29
1008.658	-27.45
1008.819	-8.46
1008.981	-27.64
1009.143	2.58
1009.304	-17.57
1009.466	33.39
1009.627	66.91
1009.789	99.46
1009.95	23.31
1010.112	-1.1
1010.273	30.29
1010.435	5.1
1010.596	-1.49
1010.758	8.59
1010.919	16.92
1011.081	-15.82
1011.242	40.56
1011.403	54.31
1011.565	22.54
1011.726	37.85
1011.887	-7.3
1012.049	8.2
1012.21	22.73
1012.371	78.34
1012.532	-51.08
1012.693	20.6
1012.855	6.26
1013.016	10.53
1013.177	42.11
1013.338	3.36
1013.499	68.84
1013.66	47.73
1013.821	45.01
1013.982	36.3
1014.143	9.95
1014.304	15.37
1014.465	38.81
1014.626	43.27
1014.787	27.96
1014.948	92.68
1015.109	-57.48
1015.27	65.36
1015.431	-19.5
1015.592	11.11
1015.752	63.42
1015.913	23.12
1016.074	20.02
1016.235	29.9
1016.395	9.56
1016.556	-10.59
1016.717	17.89
1016.877	50.05
1017.038	-13.89
1017.199	11.69
1017.359	0.84
1017.52	16.15
1017.681	-5.36
1017.841	-11.17
1018.002	-4.59
1018.162	3.75
1018.323	55.86
1018.483	8.01
1018.644	3.75
1018.804	-20.09
1018.964	-9.24
1019.125	-8.27
1019.285	28.93
1019.446	-18.73
1019.606	-0.9
1019.766	-34.81
1019.926	29.71
1020.087	23.9
1020.247	-21.44
1020.407	19.05
1020.567	45.01
1020.728	16.53
1020.888	-36.94
1021.048	3.16
1021.208	-5.94
1021.368	-19.12
1021.528	78.73
1021.688	53.54
1021.848	13.82
1022.008	12.46
1022.168	-0.13
1022.328	5.3
1022.488	41.14
1022.648	13.05
1022.808	12.85
1022.968	44.63
1023.128	-17.57
1023.288	13.24
1023.448	5.68
1023.608	46.37
1023.767	35.71
1023.927	-21.64
1024.087	-35.97
1024.247	-52.44
1024.406	-3.42
1024.566	-40.82
1024.726	9.17
1024.885	4.13
1025.045	32.42
1025.205	0.06
1025.364	5.3
1025.524	5.68
1025.683	0.84
1025.843	7.62
1026.003	-2.84
1026.162	49.86
1026.321	35.71
1026.481	20.02
1026.64	1.42
1026.8	7.23
1026.959	7.04
1027.119	-2.07
1027.278	13.82
1027.437	-9.24
1027.597	35.71
1027.756	19.05
1027.915	28.55
1028.074	14.79
1028.234	-0.9
1028.393	4.71
1028.552	0.65
1028.711	-58.45
1028.87	27.77
1029.03	-20.28
1029.189	-9.82
1029.348	-39.27
1029.507	-5.94
1029.666	-3.04
1029.825	-16.21
1029.984	-34.23
1030.143	6.46
1030.302	3.55
1030.461	-41.4
1030.62	-7.88
1030.779	25.06
1030.938	-21.83
1031.097	-18.54
1031.255	36.88
1031.414	50.44
1031.573	12.27
1031.732	-41.78
1031.891	23.31
1032.049	52.38
1032.208	-3.04
1032.367	-4.59
1032.525	-20.28
1032.684	-37.13
1032.843	6.46
1033.001	-37.33
1033.16	153.9
1033.319	29.9
1033.477	16.53
1033.636	15.56
1033.794	-41.59
1033.953	16.73
1034.111	16.15
1034.27	2.39
1034.428	2.39
1034.587	-27.84
1034.745	12.08
1034.903	12.08
1035.062	1.61
1035.22	-29.58
1035.378	22.73
1035.537	-30.16
1035.695	-7.49
1035.853	-7.1
1036.011	36.1
1036.17	9.95
1036.328	-45.27
1036.486	-6.72
1036.644	10.72
1036.802	-64.65
1036.96	-24.15
1037.119	-3.23
1037.277	3.55
1037.435	-48.37
1037.593	-36.36
1037.751	-4.97
1037.909	-4.78
1038.067	-4.78
