Data from oakcork_FLMT105791__45__17-27-20-066.txt Node

Date: Mon Mar 20 17:27:20 GMT 2023
User: antho
Spectrometer: FLMT10579
Trigger mode: 0
Integration Time (sec): 1.000000E-1
Scans to average: 10
Electric dark correction enabled: true
Nonlinearity correction enabled: false
Boxcar width: 0
XAxis mode: Wavelengths
Number of Pixels in Spectrum: 3648
>>>>>Begin Spectral Data<<<<<
345.248	-166.3
345.464	-166.3
345.681	-166.3
345.898	-174.44
346.114	-165.91
346.331	-20.21
346.548	32.87
346.764	-21.96
346.981	-14.01
347.197	-8.01
347.414	37.33
347.631	-41.72
347.847	59.61
348.064	6.14
348.28	30.16
348.497	-47.73
348.713	-12.46
348.93	16.02
349.146	2.07
349.363	-8.98
349.579	19.31
349.796	-9.75
350.012	1.87
350.229	18.92
350.445	-0.45
350.661	-20.21
350.878	-15.95
351.094	5.36
351.311	15.44
351.527	22.99
351.743	-32.23
351.96	10.2
352.176	27.06
352.392	22.99
352.609	23.38
352.825	-19.25
353.041	17.57
353.257	-2.78
353.474	7.69
353.69	17.18
353.906	12.92
354.122	-5.49
354.339	35
354.555	-18.86
354.771	2.65
354.987	44.5
355.203	56.12
355.42	15.05
355.636	-5.49
355.852	-31.06
356.068	3.81
356.284	-21.18
356.5	54.96
356.716	14.08
356.932	-12.27
357.148	47.02
357.364	-17.5
357.58	34.23
357.796	60.38
358.012	42.75
358.228	5.17
358.444	-55.48
358.66	47.79
358.876	14.27
359.092	-18.66
359.308	8.07
359.524	25.9
359.74	19.5
359.956	-10.72
360.172	13.11
360.388	60
360.604	8.85
360.819	44.5
361.035	7.88
361.251	40.62
361.467	-16.92
361.683	48.76
361.898	17.18
362.114	57.48
362.33	5.36
362.546	34.23
362.762	-8.4
362.977	40.62
363.193	-22.15
363.409	46.05
363.624	-28.55
363.84	-5.1
364.056	5.55
364.271	35.97
364.487	38.1
364.703	4
364.918	-4.71
365.134	40.43
365.35	8.65
365.565	96.81
365.781	10.2
365.996	56.9
366.212	76.08
366.427	39.65
366.643	11.37
366.858	-12.08
367.074	-34.55
367.289	63.48
367.505	144.08
367.72	-24.86
367.936	10.59
368.151	40.43
368.367	62.13
368.582	22.41
368.798	0.9
369.013	66.78
369.228	45.08
369.444	31.32
369.659	70.46
369.874	38.68
370.09	58.83
370.305	-41.53
370.52	3.81
370.736	72.59
370.951	5.17
371.166	70.85
371.381	96.23
371.597	59.42
371.812	5.94
372.027	-6.07
372.242	34.03
372.458	91.77
372.673	4.39
372.888	0.9
373.103	29.58
373.318	114.83
373.533	42.95
373.749	28.22
373.964	-16.15
374.179	68.33
374.394	-4.13
374.609	79.95
374.824	-17.89
375.039	82.86
375.254	5.75
375.469	72.2
375.684	48.95
375.899	46.05
376.114	6.14
376.329	30.55
376.544	66.78
376.759	49.15
376.974	-1.81
377.189	12.14
377.404	5.75
377.619	42.37
377.834	-4.91
378.049	-10.91
378.264	3.23
378.478	55.93
378.693	10.01
378.908	52.44
379.123	38.88
379.338	48.37
379.553	31.52
379.767	61.35
379.982	71.82
380.197	53.99
380.412	20.67
380.626	45.27
380.841	113.67
381.056	65.23
381.271	80.34
381.485	-5.1
381.7	3.23
381.915	45.66
382.129	20.09
382.344	34.81
382.559	37.52
382.773	50.31
382.988	-26.41
383.202	63.1
383.417	-10.14
383.632	116.18
383.846	27.45
384.061	38.3
384.275	27.45
384.49	50.7
384.704	22.99
384.919	16.6
385.133	34.81
385.348	56.32
385.562	-3.94
385.777	75.11
385.991	17.18
386.206	18.73
386.42	10.79
386.634	68.72
386.849	47.6
387.063	39.65
387.277	22.8
387.492	6.14
387.706	9.62
387.92	8.85
388.135	76.66
388.349	54.57
388.563	37.13
388.778	45.66
388.992	63.48
389.206	63.48
389.42	128
389.635	45.66
389.849	71.62
390.063	74.72
390.277	59.61
390.491	74.72
390.706	70.07
390.92	82.28
391.134	69.3
391.348	82.47
391.562	15.63
391.776	22.6
391.99	32.68
392.205	68.91
392.419	24.93
392.633	42.56
392.847	105.33
393.061	8.46
393.275	99.91
393.489	41.01
393.703	49.15
393.917	84.41
394.131	19.12
394.345	69.68
394.559	75.88
394.773	27.25
394.986	58.83
395.2	47.6
395.414	79.76
395.628	28.42
395.842	38.3
396.056	27.84
396.27	15.05
396.484	63.29
396.697	59.42
396.911	109.4
397.125	70.46
397.339	81.12
397.553	44.88
397.766	115.6
397.98	81.7
398.194	103.01
398.408	80.15
398.621	102.23
398.835	66.78
399.049	58.45
399.262	131.3
399.476	119.67
399.69	99.52
399.903	131.3
400.117	72.98
400.331	105.53
400.544	61.55
400.758	171.98
400.971	113.28
401.185	115.22
401.398	59.03
401.612	134.59
401.826	132.65
402.039	98.36
402.253	65.62
402.466	132.65
402.68	81.5
402.893	104.17
403.106	95.45
403.32	116.18
403.533	101.65
403.747	87.9
403.96	98.36
404.174	117.15
404.387	53.8
404.6	110.37
404.814	124.51
405.027	104.37
405.24	76.66
405.454	83.05
405.667	143.31
405.88	41.59
406.094	102.43
406.307	120.83
406.52	113.86
406.733	102.82
406.947	24.35
407.16	151.45
407.373	137.69
407.586	65.62
407.799	49.53
408.012	127.23
408.226	125.68
408.439	169.08
408.652	35.97
408.865	127.81
409.078	149.12
409.291	137.11
409.504	60
409.717	135.75
409.93	160.75
410.143	107.66
410.357	44.3
410.57	60.97
410.783	99.13
410.996	122.38
411.209	90.42
411.421	174.7
411.634	98.36
411.847	104.56
412.06	102.23
412.273	117.54
412.486	115.41
412.699	185.55
412.912	116.96
413.125	140.4
413.338	116.76
413.55	169.08
413.763	107.47
413.976	116.96
414.189	97.97
414.402	117.54
414.615	175.47
414.827	92.55
415.04	147.96
415.253	133.43
415.466	166.17
415.678	188.06
415.891	128.2
416.104	120.06
416.316	139.43
416.529	114.83
416.742	168.88
416.954	164.04
417.167	122.38
417.38	134.01
417.592	170.24
417.805	107.85
418.017	92.35
418.23	148.54
418.442	89.83
418.655	108.63
418.868	159.39
419.08	158.42
419.293	170.82
419.505	153
419.718	171.01
419.93	160.16
420.142	130.91
420.355	169.46
420.567	162.88
420.78	155.32
420.992	122.58
421.205	204.73
421.417	83.25
421.629	130.71
421.842	112.5
422.054	100.3
422.266	172.37
422.479	181.86
422.691	90.42
422.903	153.77
423.115	137.3
423.328	156.1
423.54	169.27
423.752	137.11
423.964	116.38
424.177	144.66
424.389	147.38
424.601	221
424.813	158.42
425.025	167.33
425.238	182.45
425.45	134.4
425.662	133.62
425.874	462.6
426.086	152.22
426.298	165.78
426.51	171.21
426.722	163.46
426.934	140.4
427.146	185.93
427.358	104.37
427.57	189.81
427.782	158.42
427.994	138.46
428.206	127.81
428.418	118.7
428.63	128
428.842	196.59
429.054	161.33
429.266	198.33
429.478	112.12
429.69	138.08
429.902	105.53
430.114	160.36
430.325	176.25
430.537	136.72
430.749	108.43
430.961	101.46
431.173	139.43
431.384	155.71
431.596	64.84
431.808	131.3
432.02	161.33
432.231	197.75
432.443	217.71
432.655	210.34
432.867	130.91
433.078	177.99
433.29	243.67
433.502	206.28
433.713	213.06
433.925	195.43
434.136	222.74
434.348	155.32
434.56	138.46
434.771	278.74
434.983	122.96
435.194	133.04
435.406	166.95
435.617	208.41
435.829	245.22
436.04	234.76
436.252	217.13
436.463	257.62
436.675	203.95
436.886	208.79
437.098	256.07
437.309	256.65
437.521	190.39
437.732	236.11
437.943	199.88
438.155	190.78
438.366	142.73
438.578	239.6
438.789	197.36
439	230.11
439.211	159.97
439.423	237.28
439.634	226.04
439.845	225.84
440.057	215.19
440.268	260.91
440.479	196.98
440.69	208.02
440.902	199.3
441.113	217.32
441.324	207.05
441.535	234.95
441.746	271.57
441.957	217.32
442.168	226.81
442.38	246.96
442.591	250.45
442.802	209.96
443.013	223.13
443.224	236.89
443.435	222.74
443.646	233.4
443.857	222.94
444.068	212.67
444.279	231.85
444.49	295.59
444.701	246.77
444.912	334.73
445.123	267.89
445.334	284.16
445.545	255.29
445.756	222.94
445.967	219.06
446.178	270.02
446.388	295.21
446.599	260.91
446.81	265.37
447.021	221
447.232	275.25
447.443	319.04
447.653	240.38
447.864	305.67
448.075	272.73
448.286	295.79
448.496	283.19
448.707	313.03
448.918	253.36
449.129	336.86
449.339	261.88
449.55	300.82
449.761	251.23
449.971	345.77
450.182	262.27
450.393	299.47
450.603	272.34
450.814	300.63
451.024	268.28
451.235	351.39
451.446	344.81
451.656	340.74
451.867	273.51
452.077	291.52
452.288	332.41
452.498	347.71
452.709	292.69
452.919	318.84
453.13	255.68
453.34	312.26
453.55	235.34
453.761	333.76
453.971	283.58
454.182	309.74
454.392	332.41
454.602	347.71
454.813	303.15
455.023	308.57
455.233	281.06
455.444	273.12
455.654	239.6
455.864	290.94
456.075	291.72
456.285	279.32
456.495	320.01
456.705	312.06
456.916	358.17
457.126	373.67
457.336	305.28
457.546	283.58
457.756	276.03
457.967	359.34
458.177	274.48
458.387	324.85
458.597	284.36
458.807	283.58
459.017	336.47
459.227	312.84
459.437	316.13
459.647	320.2
459.857	352.56
460.068	262.46
460.278	344.81
460.488	345.77
460.698	374.64
460.908	300.05
461.117	273.12
461.327	305.09
461.537	333.37
461.747	341.9
461.957	331.44
462.167	411.26
462.377	356.43
462.587	346.16
462.797	352.36
463.007	339.38
463.216	373.29
463.426	379.1
463.636	382
463.846	340.35
464.056	316.91
464.265	376.19
464.475	317.49
464.685	352.36
464.895	360.89
465.104	320.59
465.314	384.91
465.524	318.65
465.733	315.55
465.943	415.14
466.153	413.39
466.362	398.47
466.572	377.74
466.782	335.12
466.991	361.66
467.201	380.84
467.41	299.08
467.62	367.28
467.829	339.77
468.039	385.88
468.249	357.98
468.458	344.42
468.668	384.91
468.877	391.69
469.086	423.47
469.296	399.64
469.505	356.62
469.715	427.34
469.924	402.93
470.134	430.05
470.343	423.85
470.552	361.86
470.762	376.39
470.971	353.72
471.18	382.59
471.39	373.87
471.599	344.42
471.808	409.52
472.018	388.59
472.227	447.3
472.436	419.59
472.645	405.25
472.855	378.13
473.064	450.2
473.273	435.29
473.482	413
473.691	479.27
473.901	441.29
474.11	430.25
474.319	492.83
474.528	451.95
474.737	474.03
474.946	454.85
475.155	446.72
475.364	475.58
475.573	461.83
475.783	457.37
475.992	458.54
476.201	519.57
476.41	434.9
476.619	437.42
476.828	470.93
477.037	442.84
477.245	445.94
477.454	474.42
477.663	475
477.872	475.97
478.081	538.55
478.29	460.28
478.499	554.25
478.708	490.31
478.917	564.13
479.125	479.07
479.334	521.89
479.543	489.73
479.752	494.96
479.961	511.04
480.169	530.8
480.378	479.85
480.587	599.39
480.796	557.54
481.004	518.02
481.213	541.46
481.422	539.91
481.63	532.93
481.839	590.86
482.048	595.9
482.256	553.66
482.465	567.81
482.674	612.76
482.882	583.89
483.091	613.73
483.299	587.18
483.508	605.98
483.716	571.1
483.925	596.87
484.134	554.05
484.342	568.78
484.551	598.23
484.759	605.2
484.967	617.99
485.176	627.29
485.384	611.01
485.593	645.31
485.801	607.72
486.01	603.07
486.218	558.12
486.426	495.73
486.635	520.15
486.843	529.06
487.051	555.41
487.26	529.45
487.468	578.46
487.676	593
487.885	564.9
488.093	594.35
488.301	624.19
488.509	614.5
488.717	647.83
488.926	611.01
489.134	613.92
489.342	644.34
489.55	588.15
489.758	644.73
489.967	616.83
490.175	723.58
490.383	672.04
490.591	735.59
490.799	584.28
491.007	720.29
491.215	666.04
491.423	664.88
491.631	661
491.839	662.55
492.047	680.57
492.255	616.83
492.463	591.83
492.671	606.75
492.879	701.49
493.087	647.83
493.295	674.18
493.503	671.46
493.711	749.16
493.919	737.34
494.127	684.25
494.334	721.64
494.542	670.3
494.75	698.01
494.958	711.96
495.166	765.82
495.374	751.09
495.581	721.26
495.789	750.71
495.997	800.89
496.205	712.15
496.412	704.01
496.62	729.01
496.828	747.8
497.035	717.38
497.243	747.99
497.451	735.21
497.658	724.36
497.866	741.6
498.074	770.86
498.281	732.11
498.489	808.64
498.696	740.82
498.904	692.39
499.112	716.41
499.319	792.94
499.527	738.89
499.734	787.91
499.942	719.51
500.149	738.11
500.357	750.9
500.564	741.79
500.771	776.67
500.979	717.38
501.186	723.19
501.394	749.74
501.601	725.13
501.808	757.49
502.016	748.77
502.223	726.88
502.43	735.21
502.638	739.66
502.845	692.39
503.052	830.72
503.26	742.96
503.467	812.71
503.674	754.77
503.881	791.01
504.089	849.32
504.296	796.82
504.503	739.86
504.71	760.2
504.917	729.01
505.125	766.98
505.332	777.44
505.539	790.23
505.746	841.57
505.953	823.55
506.16	795.46
506.367	829.75
506.574	861.92
506.781	854.94
506.988	803.41
507.195	801.47
507.402	805.15
507.609	853.39
507.816	796.82
508.023	778.99
508.23	794.69
508.437	772.6
508.644	833.63
508.851	864.24
509.058	850.1
509.265	853.97
509.472	845.06
509.679	927.98
509.885	816.19
510.092	817.16
510.299	818.9
510.506	809.8
510.713	863.08
510.92	856.49
511.126	861.72
511.333	869.28
511.54	891.56
511.746	923.72
511.953	909.97
512.16	910.16
512.367	838.09
512.573	854.17
512.78	847.58
512.987	870.05
513.193	877.61
513.4	816.58
513.606	822.2
513.813	869.67
514.02	866.57
514.226	936.9
514.433	905.32
514.639	860.95
514.846	857.65
515.052	835.18
515.259	856.88
515.465	850.49
515.672	913.26
515.878	971.77
516.085	888.27
516.291	899.31
516.497	841.19
516.704	847.77
516.91	816.77
517.117	798.56
517.323	779.38
517.529	801.86
517.736	822.39
517.942	808.64
518.148	816.97
518.354	863.08
518.561	878.77
518.767	855.52
518.973	881.49
519.179	918.1
519.386	832.47
519.592	867.15
519.798	874.32
520.004	947.17
520.21	884
520.417	969.64
520.623	950.27
520.829	958.6
521.035	976.03
521.241	954.92
521.447	974.87
521.653	1075.23
521.859	971.58
522.065	959.95
522.271	1067.68
522.477	1017.3
522.683	1043.85
522.889	996.18
523.095	1004.32
523.301	1001.03
523.507	990.18
523.713	1020.4
523.919	963.05
524.125	1067.1
524.331	994.25
524.537	1090.73
524.742	1023.89
524.948	1084.92
525.154	1050.05
525.36	1173.07
525.566	1084.73
525.772	1119.02
525.977	1051.21
526.183	1110.11
526.389	1094.61
526.595	1051.01
526.8	1054.5
527.006	1007.03
527.212	990.95
527.417	987.47
527.623	1001.41
527.829	1044.43
528.034	1033.58
528.24	1058.76
528.446	1024.08
528.651	1117.28
528.857	1087.44
529.062	1152.15
529.268	1097.9
529.473	1101.58
529.679	1125.99
529.884	1162.03
530.09	1141.3
530.295	1163.97
530.501	1156.03
530.706	1163
530.912	1139.56
531.117	1138.59
531.323	1148.66
531.528	1199.62
531.733	1179.86
531.939	1126.38
532.144	1201.75
532.35	1181.41
532.555	1176.37
532.76	1169.39
532.966	1187.41
533.171	1186.44
533.376	1143.82
533.581	1107.59
533.787	1165.91
533.992	1181.99
534.197	1195.94
534.402	1159.9
534.607	1168.42
534.813	1274.02
535.018	1192.06
535.223	1196.91
535.428	1206.59
535.633	1250.38
535.838	1214.34
536.043	1225.19
536.249	1327.69
536.454	1235.07
536.659	1247.86
536.864	1206.98
537.069	1224.03
537.274	1223.06
537.479	1210.27
537.684	1247.67
537.889	1211.24
538.094	1320.13
538.299	1248.06
538.504	1268.79
538.708	1254.64
538.913	1306.37
539.118	1226.36
539.323	1269.95
539.528	1195.74
539.733	1256
539.938	1232.56
540.142	1277.7
540.347	1213.57
540.552	1215.12
540.757	1212.99
540.962	1203.3
541.166	1192.06
541.371	1163
541.576	1192.45
541.781	1112.43
541.985	1242.05
542.19	1225.97
542.395	1304.05
542.599	1314.9
542.804	1260.07
543.008	1314.9
543.213	1228.68
543.418	1224.22
543.622	1283.51
543.827	1190.9
544.031	1314.9
544.236	1297.46
544.44	1266.85
544.645	1328.85
544.849	1259.87
545.054	1277.89
545.258	1384.84
545.463	1352.1
545.667	1264.14
545.872	1314.32
546.076	1334.85
546.281	1280.02
546.485	1274.02
546.689	1328.07
546.894	1326.52
547.098	1315.48
547.302	1282.93
547.507	1330.98
547.711	1319.16
547.915	1356.36
548.119	1225.19
548.324	1312.19
548.528	1348.8
548.732	1296.88
548.936	1319.35
549.141	1357.33
549.345	1313.93
549.549	1314.51
549.753	1301.72
549.957	1390.27
550.161	1395.11
550.366	1306.57
550.57	1316.84
550.774	1346.09
550.978	1337.95
551.182	1371.47
551.386	1323.62
551.59	1336.79
551.794	1300.95
551.998	1342.8
552.202	1290.1
552.406	1288.55
552.61	1334.85
552.814	1329.82
553.018	1402.08
553.222	1349.19
553.426	1304.82
553.63	1404.99
553.833	1311.99
554.037	1268.4
554.241	1347.83
554.445	1323.62
554.649	1330.2
554.853	1305.99
555.056	1377.67
555.26	1357.13
555.464	1360.82
555.668	1346.87
555.871	1372.05
556.075	1370.5
556.279	1322.84
556.483	1281.57
556.686	1316.84
556.89	1328.27
557.094	1314.51
557.297	1253.67
557.501	1326.33
557.704	1238.76
557.908	1330.01
558.112	1273.05
558.315	1350.35
558.519	1291.45
558.722	1322.65
558.926	1268.2
559.129	1229.26
559.333	1212.79
559.536	1205.62
559.74	1207.56
559.943	1223.06
560.147	1207.95
560.35	1223.06
560.553	1215.12
560.757	1180.24
560.96	1285.45
561.164	1216.09
561.367	1326.72
561.57	1257.74
561.774	1277.89
561.977	1227.13
562.18	1179.27
562.384	1336.4
562.587	1240.5
562.79	1242.63
562.993	1252.9
563.197	1272.85
563.4	1315.48
563.603	1299.01
563.806	1325.75
564.009	1210.27
564.212	1255.8
564.416	1189.35
564.619	1213.96
564.822	1190.32
565.025	1297.07
565.228	1212.21
565.431	1218.99
565.634	1118.83
565.837	1207.76
566.04	1138.98
566.243	1179.27
566.446	1109.33
566.649	1209.5
566.852	1167.46
567.055	1168.04
567.258	1160.68
567.461	1237.79
567.664	1177.34
567.867	1096.16
568.07	1147.31
568.273	1193.22
568.475	1242.05
568.678	1114.56
568.881	1144.21
569.084	1172.3
569.287	1043.46
569.489	1114.76
569.692	1169.59
569.895	1150.02
570.098	1078.33
570.3	1073.88
570.503	1062.64
570.706	1067.48
570.909	1036.1
571.111	1029.9
571.314	1021.95
571.516	1061.09
571.719	1073.3
571.922	1057.99
572.124	1039.2
572.327	1085.11
572.529	1025.83
572.732	1039.58
572.935	1083.56
573.137	1126.58
573.34	1023.89
573.542	1102.36
573.745	1083.56
573.947	1092.67
574.15	1052.37
574.352	1043.07
574.554	1114.76
574.757	1027.18
574.959	998.7
575.162	992.31
575.364	1015.75
575.566	1118.05
575.769	953.37
575.971	1046.36
576.173	915.97
576.376	1024.86
576.578	1032.41
576.78	1099.06
576.982	931.47
577.185	985.33
577.387	969.83
577.589	950.46
577.791	1025.83
577.993	1027.76
578.196	979.52
578.398	1009.16
578.6	1031.45
578.802	937.48
579.004	915.58
579.206	966.73
579.408	1006.06
579.61	943.1
579.812	1023.89
580.014	952.01
580.216	946.78
580.418	975.26
580.62	954.53
580.822	929.34
581.024	976.42
581.226	1021.56
581.428	982.62
581.63	1040.16
581.832	945.23
582.034	980.68
582.236	984.37
582.438	1014.2
582.64	1006.26
582.841	1048.5
583.043	1093.25
583.245	1014.98
583.447	1004.9
583.649	988.82
583.85	969.45
584.052	1021.37
584.254	941.74
584.456	1047.14
584.657	975.45
584.859	997.15
585.061	961.89
585.262	957.43
585.464	923.33
585.666	1036.48
585.867	937.09
586.069	1002.96
586.27	1011.68
586.472	941.93
586.674	926.82
586.875	936.12
587.077	933.41
587.278	997.93
587.48	959.76
587.681	1033.96
587.883	984.75
588.084	897.18
588.285	921.59
588.487	918.88
588.688	917.33
588.89	876.25
589.091	865.02
589.292	864.05
589.494	848.55
589.695	839.44
589.896	767.76
590.098	775.89
590.299	849.13
590.5	814.26
590.702	828.01
590.903	847.58
591.104	897.95
591.305	879.16
591.507	891.56
591.708	875.48
591.909	866.76
592.11	922.37
592.311	902.41
592.512	847.58
592.714	831.11
592.915	852.81
593.116	835.76
593.317	871.41
593.518	872.19
593.719	867.34
593.92	886.33
594.121	902.41
594.322	879.74
594.523	896.79
594.724	824.91
594.925	873.74
595.126	863.47
595.327	869.86
595.528	857.46
595.729	882.26
595.929	841.77
596.13	867.92
596.331	870.64
596.532	848.74
596.733	959.18
596.934	881.68
597.135	885.55
597.335	888.46
597.536	828.59
597.737	878.77
597.938	853.59
598.138	916.55
598.339	856.1
598.54	865.99
598.74	870.64
598.941	867.92
599.142	907.45
599.342	899.89
599.543	850.1
599.744	890.4
599.944	862.5
600.145	836.73
600.345	890.2
600.546	950.85
600.746	915.58
600.947	947.36
601.147	888.65
601.348	870.05
601.548	842.35
601.749	889.43
601.949	815.61
602.15	845.64
602.35	825.69
602.551	917.91
602.751	814.26
602.951	817.55
603.152	787.52
603.352	903.77
603.552	850.87
603.753	856.88
603.953	864.82
604.153	880.71
604.354	859.98
604.554	855.72
604.754	859.59
604.954	814.84
605.155	839.44
605.355	844.48
605.555	900.28
605.755	921.2
605.955	856.3
606.155	867.54
606.356	840.22
606.556	876.25
606.756	866.57
606.956	810.57
607.156	895.44
607.356	829.56
607.556	841.77
607.756	840.41
607.956	907.83
608.156	867.15
608.356	834.4
608.556	847
608.756	847.39
608.956	813.87
609.156	868.89
609.356	793.33
609.556	831.89
609.755	834.21
609.955	778.61
610.155	849.71
610.355	832.47
610.555	810.38
610.755	816
610.954	750.32
611.154	816.97
611.354	863.08
611.554	790.23
611.753	781.32
611.953	753.03
612.153	815.61
612.352	831.5
612.552	754.97
612.752	737.14
612.951	805.92
613.151	813.29
613.351	788.1
613.55	762.72
613.75	835.18
613.949	798.37
614.149	808.44
614.348	767.56
614.548	755.55
614.747	708.08
614.947	792.36
615.146	697.43
615.346	822.97
615.545	763.3
615.745	757.29
615.944	801.27
616.144	772.99
616.343	808.25
616.542	751.48
616.742	765.43
616.941	764.07
617.14	683.67
617.34	757.49
617.539	722.42
617.738	732.11
617.938	804.96
618.137	765.04
618.336	741.02
618.535	747.02
618.734	741.79
618.934	791.78
619.133	760.97
619.332	770.27
619.531	732.69
619.73	741.02
619.929	792.75
620.128	797.98
620.328	820.26
620.527	709.83
620.726	740.24
620.925	766.21
621.124	696.07
621.323	760.2
621.522	688.9
621.721	725.91
621.92	710.02
622.119	764.85
622.318	717.77
622.517	724.94
622.715	726.1
622.914	666.23
623.113	713.7
623.312	671.46
623.511	735.79
623.71	688.71
623.909	692.58
624.107	746.83
624.306	662.16
624.505	681.73
624.704	691.42
624.902	713.7
625.101	774.54
625.3	731.72
625.499	683.67
625.697	667.39
625.896	663.52
626.095	697.81
626.293	638.33
626.492	664.49
626.69	698.98
626.889	665.07
627.088	734.62
627.286	690.45
627.485	654.41
627.683	671.46
627.882	681.34
628.08	581.37
628.279	673.21
628.477	701.49
628.676	615.08
628.874	666.43
629.073	638.91
629.271	640.85
629.469	683.28
629.668	654.03
629.866	651.51
630.065	603.46
630.263	673.4
630.461	614.31
630.66	644.34
630.858	669.33
631.056	690.45
631.254	716.41
631.453	600.16
631.651	675.34
631.849	675.53
632.047	658.68
632.245	663.91
632.444	652.67
632.642	671.27
632.84	666.81
633.038	636.2
633.236	629.03
633.434	648.79
633.632	621.67
633.83	605.78
634.028	700.14
634.227	644.92
634.425	695.88
634.623	608.3
634.821	656.35
635.019	650.34
635.216	618.96
635.414	684.83
635.612	651.7
635.81	623.22
636.008	693.16
636.206	652.67
636.404	660.23
636.602	617.02
636.8	640.85
636.997	656.16
637.195	693.36
637.393	620.12
637.591	699.75
637.789	687.54
637.986	648.02
638.184	640.85
638.382	665.07
638.58	676.89
638.777	690.64
638.975	636.59
639.173	661.58
639.37	667.78
639.568	644.53
639.765	656.16
639.963	609.27
640.161	690.06
640.358	679.02
640.556	606.95
640.753	599.2
640.951	593.38
641.148	684.06
641.346	634.85
641.543	621.86
641.741	655.77
641.938	608.11
642.136	639.69
642.333	613.34
642.531	669.91
642.728	686.58
642.925	622.45
643.123	615.47
643.32	641.43
643.517	637.95
643.715	623.41
643.912	602.68
644.109	628.45
644.306	638.14
644.504	589.51
644.701	652.09
644.898	648.21
645.095	599.58
645.293	611.01
645.49	656.35
645.687	617.21
645.884	648.41
646.081	596.29
646.278	584.66
646.475	595.13
646.672	584.47
646.87	632.13
647.067	616.05
647.264	603.07
647.461	545.33
647.658	531.38
647.855	573.04
648.052	571.68
648.249	491.67
648.446	589.9
648.642	564.51
648.839	537.39
649.036	578.08
649.233	510.65
649.43	550.95
649.627	514.92
649.824	536.62
650.021	536.81
650.217	543.01
650.414	549.79
650.611	569.16
650.808	580.21
651.004	566.65
651.201	571.3
651.398	622.25
651.595	571.1
651.791	529.64
651.988	595.71
652.185	505.42
652.381	581.95
652.578	529.45
652.775	543.78
652.971	542.23
653.168	555.6
653.364	563.16
653.561	481.2
653.757	554.44
653.954	553.28
654.15	548.63
654.347	598.81
654.543	554.63
654.74	492.05
654.936	537.97
655.133	539.72
655.329	545.72
655.525	522.08
655.722	565.1
655.918	494.57
656.115	571.68
656.311	477.52
656.507	450.4
656.704	431.99
656.9	455.24
657.096	443.62
657.292	453.89
657.489	517.05
657.685	512.2
657.881	491.47
658.077	469.58
658.273	515.11
658.47	563.74
658.666	508.91
658.862	549.6
659.058	499.03
659.254	523.44
659.45	492.25
659.646	522.47
659.842	525.38
660.038	551.92
660.234	499.42
660.43	526.15
660.626	564.9
660.822	550.57
661.018	543.4
661.214	522.08
661.41	467.83
661.606	546.5
661.802	518.98
661.998	516.08
662.194	507.55
662.39	544.56
662.586	542.23
662.781	545.72
662.977	521.31
663.173	556.76
663.369	547.47
663.564	530.61
663.76	523.83
663.956	509.3
664.152	550.18
664.347	459.89
664.543	507.75
664.739	496.32
664.934	448.85
665.13	427.34
665.326	558.12
665.521	508.13
665.717	463.96
665.912	489.73
666.108	444
666.304	473.26
666.499	501.16
666.695	453.69
666.89	484.88
667.086	531
667.281	511.82
667.477	556.57
667.672	499.22
667.867	524.99
668.063	497.09
668.258	450.79
668.454	520.53
668.649	571.88
668.844	491.28
669.04	523.05
669.235	478.68
669.43	464.74
669.626	436.06
669.821	462.99
670.016	463.19
670.211	518.21
670.407	455.82
670.602	495.15
670.797	480.62
670.992	524.22
671.187	476.17
671.382	498.64
671.578	453.3
671.773	511.43
671.968	473.07
672.163	471.52
672.358	486.82
672.553	472.29
672.748	451.56
672.943	562.19
673.138	462.41
673.333	525.57
673.528	432.96
673.723	513.56
673.918	450.01
674.113	445.75
674.308	546.69
674.503	495.93
674.698	518.98
674.892	503.87
675.087	502.13
675.282	489.15
675.477	450.59
675.672	501.93
675.867	459.5
676.061	458.34
676.256	423.85
676.451	460.67
676.646	450.79
676.84	441.68
677.035	407
677.23	417.07
677.424	496.51
677.619	492.83
677.814	495.73
678.008	493.6
678.203	417.65
678.397	428.12
678.592	478.3
678.787	509.3
678.981	449.43
679.176	501.93
679.37	472.29
679.565	435.48
679.759	453.5
679.954	447.3
680.148	517.82
680.342	502.9
680.537	482.17
680.731	433.93
680.926	467.45
681.12	487.79
681.314	418.24
681.509	479.27
681.703	473.65
681.897	462.8
682.092	442.07
682.286	443.81
682.48	516.85
682.674	526.73
682.869	472.87
683.063	456.6
683.257	495.54
683.451	447.49
683.645	465.51
683.839	477.72
684.034	453.69
684.228	530.22
684.422	394.21
684.616	445.75
684.81	484.69
685.004	434.51
685.198	436.45
685.392	490.7
685.586	442.26
685.78	476.36
685.974	482.17
686.168	454.47
686.362	514.92
686.556	421.14
686.75	385.69
686.944	399.64
687.138	440.9
687.331	350.42
687.525	360.5
687.719	304.31
687.913	385.49
688.107	416.88
688.301	338.99
688.494	405.25
688.688	329.11
688.882	324.07
689.076	336.86
689.269	374.26
689.463	452.92
689.657	362.05
689.85	380.45
690.044	399.05
690.238	368.44
690.431	372.12
690.625	379.49
690.818	406.22
691.012	419.01
691.205	432.57
691.399	402.15
691.593	419.59
691.786	454.08
691.98	468.22
692.173	487.6
692.366	463.57
692.56	431.8
692.753	497.87
692.947	425.99
693.14	484.5
693.333	472.1
693.527	418.62
693.72	459.31
693.914	440.9
694.107	450.98
694.3	456.79
694.493	448.46
694.687	486.43
694.88	443.42
695.073	530.22
695.266	475
695.46	445.94
695.653	517.82
695.846	514.72
696.039	443.04
696.232	452.34
696.425	505.81
696.618	531.77
696.812	490.89
697.005	556.96
697.198	602.49
697.391	562.19
697.584	545.72
697.777	612.18
697.97	573.43
698.163	605.78
698.356	578.27
698.549	648.02
698.742	616.25
698.935	606.56
699.127	591.45
699.32	597.06
699.513	575.95
699.706	582.15
699.899	622.64
700.092	589.12
700.285	608.5
700.477	567.61
700.67	644.73
700.863	640.08
701.056	704.98
701.248	691.61
701.441	657.71
701.634	644.34
701.826	751.29
702.019	663.33
702.212	719.51
702.404	613.73
702.597	639.88
702.79	677.86
702.982	678.83
703.175	707.89
703.367	728.42
703.56	712.34
703.752	809.02
703.945	747.41
704.137	775.7
704.33	763.69
704.522	797.01
704.715	805.92
704.907	809.99
705.1	840.6
705.292	840.6
705.484	824.14
705.677	880.52
705.869	860.37
706.061	901.64
706.254	898.73
706.446	866.76
706.638	853.2
706.831	919.27
707.023	889.43
707.215	984.17
707.407	935.54
707.599	941.35
707.792	955.69
707.984	977.58
708.176	996.96
708.368	949.1
708.56	982.62
708.752	990.37
708.944	967.9
709.136	1006.45
709.329	971.97
709.521	1074.26
709.713	1062.25
709.905	1048.11
710.097	1114.76
710.289	1064.38
710.481	1086.47
710.672	1087.05
710.864	1070.2
711.056	1156.99
711.248	1142.08
711.44	1141.11
711.632	1113.21
711.824	1139.56
712.016	1214.15
712.207	1178.5
712.399	1156.03
712.591	1257.35
712.783	1231.39
712.975	1244.57
713.166	1219.19
713.358	1211.44
713.55	1265.69
713.741	1279.64
713.933	1256.97
714.125	1263.36
714.316	1271.5
714.508	1299.01
714.7	1333.3
714.891	1297.07
715.083	1367.4
715.274	1317.8
715.466	1315.87
715.657	1390.27
715.849	1278.67
716.04	1336.21
716.232	1282.74
716.423	1359.85
716.615	1328.07
716.806	1268.01
716.998	1261.81
717.189	1235.07
717.381	1187.41
717.572	1105.65
717.763	1179.27
717.955	1178.31
718.146	1146.73
718.337	1104.29
718.528	1059.35
718.72	1045.98
718.911	1088.21
719.102	1053.53
719.293	1090.93
719.485	1113.21
719.676	1083.18
719.867	1033.38
720.058	1056.63
720.249	1053.34
720.44	1088.99
720.632	1140.91
720.823	1175.59
721.014	1280.6
721.205	1279.44
721.396	1323.23
721.587	1406.54
721.778	1397.24
721.969	1437.15
722.16	1462.53
722.351	1426.3
722.542	1581.11
722.733	1590.99
722.924	1484.43
723.115	1547.01
723.305	1573.94
723.496	1543.71
723.687	1429.21
723.878	1476.87
724.069	1448.2
724.26	1501.48
724.45	1445.29
724.641	1446.26
724.832	1489.27
725.023	1455.56
725.213	1489.66
725.404	1469.12
725.595	1478.23
725.785	1466.21
725.976	1537.13
726.167	1485.98
726.357	1536.93
726.548	1602.61
726.739	1523.37
726.929	1617.14
727.12	1620.05
727.31	1629.74
727.501	1584.79
727.691	1614.24
727.882	1621.21
728.072	1648.53
728.263	1639.62
728.453	1708.59
728.644	1691.15
728.834	1683.6
729.024	1663.64
729.215	1659.77
729.405	1696.77
729.596	1764.59
729.786	1780.28
729.976	1764.39
730.167	1798.88
730.357	1732.04
730.547	1774.85
730.737	1816.12
730.928	1848.09
731.118	1892.46
731.308	1841.31
731.498	1829.49
731.688	1922.49
731.879	1902.53
732.069	1945.93
732.259	2006.96
732.449	2022.85
732.639	2064.7
732.829	2092.79
733.019	2115.85
733.209	2178.04
733.399	2178.43
733.589	2217.57
733.779	2252.25
733.969	2220.28
734.159	2301.07
734.349	2346.8
734.539	2376.25
734.729	2365.59
734.919	2394.84
735.109	2450.64
735.299	2392.91
735.488	2392.71
735.678	2414.8
735.868	2428.56
736.058	2462.46
736.248	2420.03
736.437	2379.15
736.627	2399.11
736.817	2519.23
737.007	2478.93
737.196	2502.37
737.386	2505.67
737.576	2469.83
737.765	2549.46
737.955	2508.77
738.144	2630.64
738.334	2555.27
738.524	2512.06
738.713	2533.96
738.903	2589.75
739.092	2620.17
739.282	2612.04
739.471	2649.43
739.661	2581.62
739.85	2671.13
740.04	2638.77
740.229	2647.3
740.419	2721.89
740.608	2704.84
740.797	2727.7
740.987	2738.36
741.176	2722.67
741.365	2706.39
741.555	2670.93
741.744	2747.08
741.933	2752.5
742.123	2758.9
742.312	2774.4
742.501	2816.25
742.69	2830
742.88	2761.41
743.069	2901.11
743.258	2807.33
743.447	2859.06
743.636	2857.32
743.825	2824.58
744.014	2883.86
744.204	2883.09
744.393	2842.01
744.582	2887.54
744.771	2917.19
744.96	2881.93
745.149	2886.19
745.338	2910.79
745.527	2937.92
745.716	2915.83
745.905	2866.23
746.094	2935.98
746.283	2944.51
746.471	2940.82
746.66	3015.22
746.849	2945.09
747.038	2981.12
747.227	2929.01
747.416	3000.11
747.604	2937.92
747.793	2950.32
747.982	2953.22
748.171	3019.29
748.359	2990.42
748.548	2966.59
748.737	2994.3
748.926	2951.87
749.114	2898.78
749.303	3002.05
749.491	2980.35
749.68	2886.19
749.869	3017.16
750.057	2890.64
750.246	2863.52
750.434	2935.59
750.623	2906.73
750.811	2940.82
751	2938.11
751.188	2929.78
751.377	2963.3
751.565	2919.71
751.754	2859.45
751.942	2906.92
752.131	2945.28
752.319	2846.08
752.507	2846.28
752.696	2974.15
752.884	2915.64
753.072	2910.21
753.261	2921.26
753.449	2937.53
753.637	2912.92
753.825	3011.74
754.014	2859.26
754.202	2916.02
754.39	2983.45
754.578	2931.52
754.766	2872.63
754.955	2852.09
755.143	2981.51
755.331	2878.44
755.519	2920.87
755.707	2940.44
755.895	2880.76
756.083	2871.08
756.271	2857.71
756.459	2870.69
756.647	2936.56
756.835	2863.71
757.023	2853.25
757.211	2833.29
757.399	2837.36
757.587	2849.76
757.775	2767.81
757.963	2815.66
758.151	2812.76
758.339	2783.31
758.526	2767.03
758.714	2795.51
758.902	2727.51
759.09	2645.36
759.278	2466.34
759.465	2289.64
759.653	1980.23
759.841	1794.03
760.028	1540.23
760.216	1346.28
760.404	1267.62
760.591	1016.72
760.779	860.17
760.967	814.26
761.154	634.26
761.342	659.64
761.529	685.41
761.717	695.49
761.905	707.89
762.092	776.86
762.28	686.77
762.467	724.94
762.655	646.47
762.842	703.43
763.029	682.31
763.217	673.79
763.404	679.02
763.592	721.45
763.779	687.16
763.966	713.31
764.154	741.21
764.341	831.89
764.528	840.99
764.716	851.65
764.903	920.43
765.09	955.88
765.277	1016.33
765.465	1126.58
765.652	1186.64
765.839	1247.28
766.026	1361.4
766.213	1392.2
766.4	1479.97
766.588	1661.51
766.775	1657.83
766.962	1784.73
767.149	1796.75
767.336	1936.83
767.523	1887.42
767.71	1990.49
767.897	2083.3
768.084	2188.31
768.271	2180.37
768.458	2247.21
768.645	2268.52
768.832	2281.12
769.019	2337.11
769.206	2339.43
769.392	2395.81
769.579	2520.59
769.766	2465.76
769.953	2436.89
770.14	2525.62
770.327	2507.22
770.513	2524.27
770.7	2574.64
770.887	2440.57
771.073	2515.74
771.26	2568.64
771.447	2524.85
771.634	2501.21
771.82	2593.82
772.007	2511.67
772.193	2553.72
772.38	2537.25
772.567	2532.6
772.753	2545.39
772.94	2557.4
773.126	2586.85
773.313	2569.41
773.499	2607.77
773.686	2606.42
773.872	2510.12
774.059	2568.25
774.245	2520.97
774.432	2521.36
774.618	2438.24
774.804	2520.78
774.991	2455.88
775.177	2547.71
775.363	2508.77
775.55	2525.04
775.736	2503.34
775.922	2491.91
776.109	2511.29
776.295	2512.26
776.481	2503.92
776.667	2556.24
776.853	2483.19
777.04	2448.9
777.226	2474.09
777.412	2547.32
777.598	2429.53
777.784	2497.14
777.97	2460.14
778.156	2464.01
778.342	2448.71
778.528	2393.1
778.715	2393.29
778.901	2409.96
779.087	2446.96
779.272	2382.83
779.458	2364.04
779.644	2395.62
779.83	2353.77
780.016	2452.58
780.202	2375.47
780.388	2357.45
780.574	2313.28
780.76	2367.91
780.946	2406.66
781.131	2337.3
781.317	2372.56
781.503	2330.13
781.689	2345.05
781.874	2419.26
782.06	2372.56
782.246	2332.26
782.432	2345.83
782.617	2359.39
782.803	2412.67
782.989	2284.6
783.174	2306.69
783.36	2261.74
783.545	2278.98
783.731	2298.36
783.916	2202.45
784.102	2305.72
784.288	2275.69
784.473	2267.75
784.659	2241.4
784.844	2282.47
785.029	2214.08
785.215	2248.95
785.4	2198.97
785.586	2319.28
785.771	2202.84
785.956	2254.96
786.142	2196.06
786.327	2206.33
786.512	2208.07
786.698	2194.32
786.883	2164.29
787.068	2158.67
787.254	2191.22
787.439	2146.85
787.624	2137.94
787.809	2167.77
787.994	2119.53
788.18	2188.12
788.365	2113.91
788.55	2117.01
788.735	2129.99
788.92	2098.02
789.105	2083.3
789.29	2123.6
789.475	2096.47
789.66	2115.46
789.845	2091.63
790.03	2049.2
790.215	2079.23
790.4	2107.13
790.585	2106.36
790.77	2043
790.955	2000.38
791.14	2053.85
791.325	2084.66
791.51	1969.96
791.695	2041.84
791.879	2016.65
792.064	1977.51
792.249	2049.2
792.434	2005.99
792.618	2025.56
792.803	2090.47
792.988	2037.38
793.173	2041.26
793.357	2079.04
793.542	1995.92
793.727	2046.29
793.911	2051.52
794.096	2061.79
794.281	2031.76
794.465	2165.64
794.65	2067.8
794.834	2074
795.019	2110.81
795.203	2125.54
795.388	2106.94
795.572	2099.96
795.757	2093.57
795.941	2070.51
796.126	2058.11
796.31	2032.73
796.494	2025.18
796.679	2032.34
796.863	1996.5
797.048	2095.12
797.232	2092.21
797.416	2048.42
797.601	2042.81
797.785	2129.6
797.969	2078.07
798.153	2016.46
798.338	2094.92
798.522	2094.54
798.706	2112.75
798.89	2112.17
799.074	2177.85
799.258	2176.1
799.443	2121.08
799.627	2097.06
799.811	2106.55
799.995	2075.74
800.179	2074.58
800.363	2056.76
800.547	2084.66
800.731	2120.89
800.915	2012
801.099	2053.46
801.283	2089.11
801.467	2057.92
801.651	2087.37
801.835	2084.46
802.019	2070.12
802.202	2096.67
802.386	2033.31
802.57	2024.4
802.754	2051.14
802.938	1993.4
803.121	2007.16
803.305	2088.34
803.489	2060.63
803.673	2053.07
803.856	2099.96
804.04	2047.46
804.224	2059.08
804.407	2061.6
804.591	2035.06
804.775	2042.22
804.958	2075.55
805.142	2143.75
805.326	2038.54
805.509	2077.87
805.693	2085.62
805.876	2143.55
806.06	2070.51
806.243	2116.82
806.427	2150.53
806.61	2120.31
806.794	2082.14
806.977	2098.22
807.16	2070.12
807.344	2129.22
807.527	2082.91
807.71	2078.65
807.894	2112.17
808.077	2078.84
808.26	2067.8
808.444	2015.68
808.627	2094.73
808.81	2080.2
808.993	1998.24
809.177	1985.26
809.36	1998.83
809.543	2059.86
809.726	1955.62
809.909	1950.2
810.092	1937.8
810.276	1939.54
810.459	1976.93
810.642	1913.19
810.825	1889.16
811.008	1908.73
811.191	1850.03
811.374	1872.5
811.557	1854.68
811.74	1889.36
811.923	1809.92
812.106	1814.77
812.289	1764.2
812.472	1796.75
812.654	1774.27
812.837	1767.3
813.02	1725.84
813.203	1727.19
813.386	1602.61
813.569	1608.42
813.751	1572.97
813.934	1610.94
814.117	1562.31
814.3	1557.86
814.482	1499.54
814.665	1470.28
814.848	1447.23
815.03	1424.75
815.213	1410.42
815.396	1385.62
815.578	1381.93
815.761	1354.42
815.943	1440.06
816.126	1317.8
816.309	1325.94
816.491	1282.15
816.674	1182.76
816.856	1254.25
817.039	1238.37
817.221	1318.77
817.403	1272.85
817.586	1262.39
817.768	1327.88
817.951	1242.44
818.133	1208.92
818.315	1253.48
818.498	1283.9
818.68	1309.09
818.862	1302.11
819.045	1357.72
819.227	1333.5
819.409	1309.67
819.591	1306.37
819.774	1318.77
819.956	1294.75
820.138	1344.73
820.32	1316.45
820.502	1362.95
820.684	1410.22
820.866	1442.58
821.048	1473.96
821.231	1512.71
821.413	1467.76
821.595	1453.81
821.777	1465.63
821.959	1423.01
822.141	1530.15
822.323	1368.18
822.505	1367.02
822.686	1314.51
822.868	1231.97
823.05	1169.59
823.232	1149.24
823.414	1118.83
823.596	1133.94
823.778	1116.69
823.96	1153.31
824.141	1188.38
824.323	1194.19
824.505	1229.46
824.687	1305.79
824.868	1334.27
825.05	1413.71
825.232	1374.57
825.413	1533.64
825.595	1433.66
825.777	1365.27
825.958	1395.11
826.14	1400.73
826.321	1435.02
826.503	1419.13
826.685	1431.53
826.866	1448.97
827.048	1421.07
827.229	1393.56
827.411	1349.19
827.592	1313.15
827.773	1336.02
827.955	1297.27
828.136	1294.36
828.318	1279.05
828.499	1295.52
828.68	1241.86
828.862	1270.34
829.043	1319.55
829.224	1273.44
829.406	1246.31
829.587	1273.44
829.768	1233.33
829.949	1280.8
830.131	1299.2
830.312	1323.62
830.493	1289.9
830.674	1305.6
830.855	1276.34
831.036	1266.65
831.218	1322.45
831.399	1323.42
831.58	1279.64
831.761	1299.01
831.942	1296.49
832.123	1278.86
832.304	1239.92
832.485	1280.8
832.666	1279.64
832.847	1319.16
833.028	1292.62
833.209	1285.84
833.389	1246.51
833.57	1241.08
833.751	1216.09
833.932	1291.84
834.113	1262.2
834.294	1267.43
834.475	1301.72
834.655	1311.41
834.836	1336.79
835.017	1305.79
835.198	1251.35
835.378	1288.55
835.559	1307.92
835.74	1274.21
835.92	1274.6
836.101	1301.53
836.281	1314.51
836.462	1315.67
836.643	1358.1
836.823	1355.97
837.004	1355.58
837.184	1387.55
837.365	1339.7
837.545	1363.92
837.726	1327.1
837.906	1405.38
838.087	1339.31
838.267	1339.7
838.448	1314.51
838.628	1310.05
838.808	1334.08
838.989	1395.11
839.169	1310.05
839.349	1385.81
839.53	1383.87
839.71	1380.97
839.89	1327.49
840.07	1372.63
840.251	1311.6
840.431	1361.2
840.611	1338.73
840.791	1295.33
840.971	1365.47
841.151	1327.1
841.332	1287.58
841.512	1406.35
841.692	1260.07
841.872	1322.26
842.052	1321.1
842.232	1356.36
842.412	1263.75
842.592	1291.26
842.772	1313.35
842.952	1332.92
843.132	1293.78
843.312	1305.21
843.492	1249.99
843.672	1324.78
843.851	1271.5
844.031	1318.97
844.211	1282.54
844.391	1274.4
844.571	1313.35
844.751	1309.67
844.93	1305.4
845.11	1267.04
845.29	1274.4
845.47	1334.66
845.649	1289.52
845.829	1314.12
846.009	1266.27
846.188	1314.51
846.368	1285.25
846.547	1279.44
846.727	1339.12
846.907	1291.26
847.086	1281.19
847.266	1298.04
847.445	1280.22
847.625	1263.55
847.804	1219.38
847.984	1264.72
848.163	1224.42
848.343	1274.99
848.522	1288.55
848.701	1268.2
848.881	1259.68
849.06	1259.49
849.239	1254.25
849.419	1274.99
849.598	1202.72
849.777	1226.16
849.957	1206.4
850.136	1157.96
850.315	1153.31
850.494	1132.97
850.674	1168.42
850.853	1216.47
851.032	1187.02
851.211	1236.43
851.39	1187.8
851.569	1157.58
851.748	1141.49
851.927	1224.42
852.107	1153.89
852.286	1130.45
852.465	1157.96
852.644	1185.28
852.823	1171.52
853.002	1183.34
853.181	1183.73
853.359	1168.81
853.538	1122.31
853.717	1165.32
853.896	1111.27
854.075	1045.2
854.254	1042.68
854.433	971.97
854.611	1021.76
854.79	969.06
854.969	1031.25
855.148	1023.89
855.327	996.96
855.505	1052.76
855.684	1012.46
855.863	1067.68
856.041	1028.15
856.22	1028.15
856.399	1018.08
856.577	1121.73
856.756	1121.73
856.934	1204.07
857.113	1205.82
857.291	1124.06
857.47	1087.44
857.648	1139.36
857.827	1117.66
858.005	1160.48
858.184	1102.16
858.362	1161.84
858.541	1134.33
858.719	1105.84
858.898	1110.88
859.076	1075.43
859.254	1194.58
859.433	1082.79
859.611	1095.19
859.789	1043.26
859.967	1127.35
860.146	1125.8
860.324	1074.85
860.502	1072.71
860.68	1023.89
860.859	1082.98
861.037	1060.51
861.215	1086.47
861.393	1081.43
861.571	1083.56
861.749	1005.68
861.927	1051.79
862.105	1045.4
862.283	1058.18
862.461	1028.15
862.639	1004.51
862.817	1040.16
862.995	1052.37
863.173	1039.97
863.351	1051.79
863.529	1027.96
863.707	1122.7
863.885	1099.64
864.063	997.35
864.241	1034.35
864.418	1082.98
864.596	1003.55
864.774	991.15
864.952	1046.36
865.129	1009.55
865.307	1002.38
865.485	940.97
865.663	1053.73
865.84	932.83
866.018	1008
866.196	838.67
866.373	917.52
866.551	897.57
866.728	799.53
866.906	859.98
867.084	922.37
867.261	930.31
867.439	930.7
867.616	967.32
867.794	940.19
867.971	962.47
868.149	941.16
868.326	950.07
868.503	985.33
868.681	952.98
868.858	961.89
869.035	925.85
869.213	1006.65
869.39	914.81
869.567	997.35
869.745	929.73
869.922	963.25
870.099	941.93
870.276	975.45
870.454	965.96
870.631	953.17
870.808	938.64
870.985	992.31
871.162	1025.05
871.339	946.78
871.517	905.51
871.694	918.49
871.871	964.41
872.048	917.72
872.225	902.6
872.402	929.53
872.579	908.03
872.756	981.65
872.933	868.12
873.11	889.43
873.287	958.02
873.463	896.02
873.64	895.63
873.817	943.1
873.994	912.48
874.171	869.86
874.348	932.63
874.524	869.86
874.701	885.36
874.878	832.66
875.055	899.12
875.231	898.92
875.408	929.53
875.585	824.91
875.762	888.27
875.938	883.23
876.115	850.87
876.291	887.3
876.468	878.77
876.645	822.97
876.821	828.98
876.998	829.56
877.174	874.12
877.351	855.52
877.527	846.61
877.704	887.1
877.88	879.35
878.057	836.73
878.233	867.54
878.409	826.46
878.586	850.49
878.762	812.51
878.938	846.8
879.115	775.31
879.291	813.29
879.467	778.61
879.644	786.74
879.82	846.8
879.996	796.62
880.172	748.38
880.349	786.36
880.525	853.59
880.701	798.37
880.877	790.42
881.053	810.19
881.229	800.69
881.405	850.87
881.581	790.62
881.757	800.31
881.933	817.35
882.109	859.59
882.285	783.64
882.461	770.86
882.637	792.36
882.813	783.64
882.989	790.81
883.165	859.01
883.341	769.89
883.517	795.27
883.693	817.74
883.869	809.22
884.044	787.71
884.22	799.72
884.396	858.62
884.572	795.85
884.747	846.8
884.923	822.2
885.099	831.89
885.275	835.76
885.45	791.78
885.626	777.25
885.801	772.79
885.977	743.15
886.153	723.78
886.328	799.72
886.504	751.48
886.679	791.2
886.855	775.12
887.03	809.41
887.206	849.9
887.381	790.23
887.557	791.01
887.732	813.48
887.908	800.69
888.083	811.54
888.258	754.97
888.434	760.59
888.609	751.48
888.784	812.12
888.96	791.97
889.135	763.49
889.31	753.81
889.485	799.72
889.661	751.09
889.836	823.17
890.011	801.27
890.186	793.72
890.361	761.94
890.537	798.56
890.712	804.57
890.887	793.72
891.062	776.67
891.237	852.81
891.412	729.01
891.587	782.29
891.762	794.69
891.937	859.79
892.112	743.54
892.287	769.69
892.462	724.16
892.637	735.59
892.812	699.36
892.987	730.36
893.161	712.73
893.336	704.4
893.511	733.85
893.686	724.16
893.861	690.45
894.035	726.88
894.21	710.99
894.385	672.24
894.56	699.75
894.734	638.91
894.909	661.19
895.084	650.73
895.258	667.2
895.433	642.59
895.608	646.28
895.782	576.33
895.957	637.75
896.131	618.18
896.306	534.29
896.48	547.66
896.655	546.88
896.829	497.09
897.004	515.3
897.178	524.6
897.353	495.93
897.527	564.71
897.701	523.44
897.876	503.68
898.05	586.6
898.224	543.98
898.399	590.86
898.573	501.35
898.747	441.87
898.921	467.45
899.096	414.55
899.27	429.28
899.444	449.62
899.618	472.87
899.792	482.17
899.967	453.5
900.141	481.01
900.315	431.02
900.489	461.83
900.663	473.84
900.837	453.89
901.011	436.06
901.185	492.44
901.359	462.02
901.533	445.55
901.707	472.68
901.881	450.79
902.055	402.15
902.229	476.94
902.403	506.39
902.576	461.25
902.75	452.34
902.924	571.1
903.098	513.56
903.272	578.85
903.446	572.46
903.619	551.53
903.793	565.29
903.967	562.19
904.14	610.24
904.314	610.05
904.488	569.36
904.661	590.09
904.835	594.55
905.009	600.16
905.182	673.4
905.356	596.48
905.529	598.23
905.703	525.38
905.876	563.74
906.05	552.12
906.223	514.33
906.397	478.3
906.57	492.25
906.744	458.73
906.917	470.35
907.09	447.69
907.264	459.31
907.437	418.43
907.61	406.42
907.784	398.86
907.957	432.19
908.13	401.96
908.304	455.44
908.477	388.59
908.65	427.73
908.823	367.86
908.996	456.79
909.17	372.71
909.343	376.19
909.516	413.39
909.689	398.09
909.862	368.44
910.035	409.32
910.208	360.11
910.381	395.37
910.554	474.81
910.727	396.54
910.9	392.08
911.073	376
911.246	457.57
911.419	439.16
911.592	440.52
911.765	393.82
911.938	398.47
912.11	370.77
912.283	405.06
912.456	431.41
912.629	389.37
912.802	356.04
912.974	362.24
913.147	346.55
913.32	295.98
913.493	312.06
913.665	349.84
913.838	343.06
914.01	353.72
914.183	343.84
914.356	361.47
914.528	381.62
914.701	425.99
914.873	377.36
915.046	344.22
915.218	325.24
915.391	264.79
915.563	252
915.736	316.13
915.908	366.51
916.081	344.42
916.253	334.73
916.425	344.42
916.598	358.95
916.77	328.34
916.942	312.45
917.115	249.87
917.287	329.5
917.459	307.8
917.632	291.91
917.804	227.98
917.976	314.77
918.148	306.64
918.32	309.54
918.493	351.78
918.665	365.34
918.837	350.42
919.009	395.57
919.181	384.14
919.353	353.72
919.525	335.31
919.697	327.56
919.869	358.95
920.041	431.22
920.213	466.87
920.385	383.75
920.557	353.52
920.729	393.44
920.901	377.55
921.073	375.42
921.244	360.31
921.416	404.67
921.588	377.36
921.76	349.84
921.932	409.13
922.103	365.92
922.275	369.8
922.447	374.06
922.619	292.69
922.79	358.76
922.962	331.05
923.134	402.35
923.305	303.15
923.477	302.57
923.648	305.09
923.82	331.82
923.991	276.41
924.163	287.07
924.335	310.9
924.506	274.09
924.677	330.86
924.849	296.95
925.02	345
925.192	334.73
925.363	300.24
925.535	327.76
925.706	270.21
925.877	358.95
926.049	296.17
926.22	313.61
926.391	329.69
926.562	333.76
926.734	296.76
926.905	323.88
927.076	262.46
927.247	287.26
927.419	256.84
927.59	254.52
927.761	241.15
927.932	257.81
928.103	279.32
928.274	187.1
928.445	213.06
928.616	226.62
928.787	227.01
928.958	249.87
929.129	215.19
929.3	219.84
929.471	196.59
929.642	125.29
929.813	98.17
929.984	207.24
930.155	115.99
930.326	189.03
930.496	143.11
930.667	103.78
930.838	131.68
931.009	115.22
931.18	132.46
931.35	138.08
931.521	128.58
931.692	84.22
931.863	53.8
932.033	97.78
932.204	81.5
932.374	112.31
932.545	48.76
932.716	137.5
932.886	110.57
933.057	23.38
933.227	51.28
933.398	105.72
933.568	39.46
933.739	-13.43
933.909	33.65
934.08	78.79
934.25	7.49
934.421	15.24
934.591	56.51
934.761	29.38
934.932	-15.18
935.102	10.98
935.272	37.33
935.443	10.2
935.613	26.87
935.783	66
935.953	-9.36
936.123	154.93
936.294	3.23
936.464	36.94
936.634	15.24
936.804	-4.91
936.974	-1.03
937.144	15.24
937.314	47.79
937.484	16.6
937.655	10.4
937.825	63.68
937.995	-5.49
938.165	63.68
938.334	0.9
938.504	38.1
938.674	23.38
938.844	31.9
939.014	82.28
939.184	79.18
939.354	116.96
939.524	106.88
939.694	26.09
939.863	37.72
940.033	113.08
940.203	86.54
940.373	62.13
940.542	83.25
940.712	50.31
940.882	108.05
941.051	93.71
941.221	129.94
941.391	102.43
941.56	55.73
941.73	38.68
941.899	139.63
942.069	68.52
942.238	78.79
942.408	58.06
942.577	93.71
942.747	48.37
942.916	18.92
943.086	31.13
943.255	95.07
943.425	60.38
943.594	27.64
943.763	2.65
943.933	35.97
944.102	-14.79
944.271	75.5
944.441	75.3
944.61	34.62
944.779	39.07
944.948	119.48
945.117	11.37
945.287	46.43
945.456	4.39
945.625	20.09
945.794	65.03
945.963	31.9
946.132	48.57
946.301	15.05
946.47	95.07
946.639	-22.54
946.808	30.74
946.977	57.87
947.146	99.91
947.315	20.86
947.484	59.42
947.653	49.92
947.822	42.75
947.991	29
948.16	99.33
948.329	79.57
948.498	31.71
948.666	43.33
948.835	67.36
949.004	7.3
949.173	32.87
949.341	37.72
949.51	56.12
949.679	94.87
949.847	95.84
950.016	100.68
950.185	82.08
950.353	47.4
950.522	50.12
950.69	95.65
950.859	32.87
951.028	96.23
951.196	63.87
951.365	60.38
951.533	40.04
951.701	71.04
951.87	61.74
952.038	7.3
952.207	60.38
952.375	128
952.543	47.4
952.712	40.62
952.88	20.86
953.048	96.23
953.217	35.2
953.385	53.41
953.553	124.71
953.721	16.6
953.89	65.81
954.058	16.6
954.226	23.77
954.394	42.95
954.562	-1.03
954.73	34.42
954.898	22.41
955.067	67.36
955.235	49.15
955.403	83.83
955.571	120.25
955.739	97.39
955.907	36.55
956.075	16.6
956.243	19.5
956.41	93.71
956.578	-11.5
956.746	-28.35
956.914	63.1
957.082	83.25
957.25	69.1
957.418	23.57
957.585	56.12
957.753	104.56
957.921	27.64
958.089	41.01
958.256	79.18
958.424	58.64
958.592	71.23
958.759	41.98
958.927	61.55
959.095	-16.15
959.262	47.79
959.43	32.68
959.597	18.15
959.765	41.59
959.932	10.79
960.1	86.15
960.267	70.27
960.435	61.74
960.602	97.58
960.77	41.2
960.937	8.65
961.104	47.6
961.272	17.37
961.439	22.99
961.606	59.8
961.774	101.85
961.941	66
962.108	80.15
962.275	51.86
962.443	94.48
962.61	71.82
962.777	124.13
962.944	107.66
963.111	90.03
963.278	105.14
963.446	54.57
963.613	29.97
963.78	95.84
963.947	90.61
964.114	70.65
964.281	145.05
964.448	66.2
964.615	30.16
964.782	70.46
964.949	80.73
965.116	73.95
965.282	100.49
965.449	65.03
965.616	26.67
965.783	75.3
965.95	63.87
966.117	48.95
966.283	70.27
966.45	49.73
966.617	91
966.784	108.43
966.95	106.88
967.117	95.26
967.284	38.68
967.45	56.51
967.617	130.91
967.784	70.46
967.95	140.98
968.117	72.78
968.283	110.57
968.45	154.35
968.616	82.28
968.783	126.65
968.949	86.15
969.116	126.06
969.282	47.6
969.449	106.11
969.615	97.58
969.781	41.2
969.948	30.16
970.114	81.89
970.28	147.76
970.447	56.32
970.613	137.69
970.779	92.16
970.945	103.4
971.112	92.93
971.278	77.43
971.444	72.4
971.61	96.03
971.776	82.86
971.942	102.04
972.108	86.15
972.275	77.24
972.441	65.23
972.607	151.83
972.773	69.68
972.939	83.63
973.105	71.43
973.271	39.65
973.437	53.22
973.602	43.33
973.768	102.82
973.934	66.97
974.1	102.04
974.266	27.84
974.432	103.2
974.598	62.52
974.763	95.84
974.929	36.36
975.095	124.32
975.261	60
975.426	43.33
975.592	62.52
975.758	140.01
975.923	13.69
976.089	44.88
976.255	119.86
976.42	67.55
976.586	81.5
976.751	99.33
976.917	164.81
977.082	86.15
977.248	28.8
977.413	14.27
977.579	73.75
977.744	79.18
977.91	39.65
978.075	52.05
978.24	88.67
978.406	59.42
978.571	70.65
978.736	56.7
978.902	79.57
979.067	57.67
979.232	16.4
979.397	71.82
979.563	101.65
979.728	48.95
979.893	28.22
980.058	50.31
980.223	88.48
980.388	57.28
980.554	56.12
980.719	30.93
980.884	84.02
981.049	114.05
981.214	41.01
981.379	91.77
981.544	56.32
981.709	65.81
981.874	68.72
982.039	71.23
982.204	99.13
982.368	74.53
982.533	30.93
982.698	114.83
982.863	109.98
983.028	39.85
983.193	88.09
983.357	72.4
983.522	74.53
983.687	74.53
983.852	52.63
984.016	65.03
984.181	55.35
984.346	56.7
984.51	56.9
984.675	65.62
984.839	99.52
985.004	94.48
985.168	123.93
985.333	70.07
985.498	41.2
985.662	81.5
985.827	85.57
985.991	68.52
986.155	54.57
986.32	133.04
986.484	148.15
986.649	108.43
986.813	19.31
986.977	54.18
987.142	117.54
987.306	32.48
987.47	35.58
987.634	54.77
987.799	53.6
987.963	94.68
988.127	58.45
988.291	136.14
988.455	96.62
988.62	58.45
988.784	94.68
988.948	72.4
989.112	40.43
989.276	64.07
989.44	85.18
989.604	58.25
989.768	78.4
989.932	134.59
990.096	16.02
990.26	43.33
990.424	29.58
990.588	30.74
990.752	105.92
990.915	105.72
991.079	54.57
991.243	21.25
991.407	67.94
991.571	73.37
991.734	71.82
991.898	74.33
992.062	144.08
992.226	77.43
992.389	16.21
992.553	8.65
992.717	45.08
992.88	60.38
993.044	65.03
993.207	61.55
993.371	87.9
993.535	77.24
993.698	63.1
993.862	82.67
994.025	99.13
994.189	78.21
994.352	67.94
994.515	64.45
994.679	98.94
994.842	38.49
995.006	90.8
995.169	52.83
995.332	32.29
995.496	101.27
995.659	20.67
995.822	32.68
995.985	42.56
996.149	106.3
996.312	41.98
996.475	130.52
996.638	22.22
996.801	84.22
996.964	117.35
997.128	52.44
997.291	67.36
997.454	57.09
997.617	-0.65
997.78	113.08
997.943	50.7
998.106	85.77
998.269	38.49
998.432	20.09
998.595	61.93
998.758	4.59
998.92	7.3
999.083	-3.94
999.246	43.33
999.409	38.3
999.572	3.23
999.735	34.42
999.897	61.55
1000.06	21.25
1000.223	16.21
1000.386	51.86
1000.548	80.92
1000.711	75.5
1000.874	44.3
1001.036	-3.36
1001.199	67.36
1001.361	29
1001.524	39.65
1001.687	74.33
1001.849	19.5
1002.012	27.84
1002.174	57.48
1002.337	82.28
1002.499	51.86
1002.661	72.4
1002.824	13.89
1002.986	41.78
1003.149	32.29
1003.311	22.02
1003.473	100.68
1003.636	19.12
1003.798	68.91
1003.96	55.35
1004.123	38.3
1004.285	50.7
1004.447	31.9
1004.609	49.34
1004.771	90.22
1004.933	-1.42
1005.096	37.13
1005.258	-16.73
1005.42	23.77
1005.582	71.82
1005.744	35.78
1005.906	-2.78
1006.068	41.01
1006.23	5.17
1006.392	-30.48
1006.554	-3.16
1006.716	67.94
1006.878	58.45
1007.04	-14.79
1007.202	15.05
1007.363	52.63
1007.525	54.96
1007.687	52.05
1007.849	65.03
1008.011	-14.21
1008.172	-20.02
1008.334	22.02
1008.496	61.55
1008.658	-13.05
1008.819	14.66
1008.981	-13.63
1009.143	6.33
1009.304	24.54
1009.466	55.93
1009.627	64.07
1009.789	127.03
1009.95	42.37
1010.112	22.02
1010.273	39.85
1010.435	-7.23
1010.596	12.34
1010.758	31.13
1010.919	-13.24
1011.081	-11.3
1011.242	37.33
1011.403	51.86
1011.565	22.99
1011.726	50.31
1011.887	-10.14
1012.049	13.69
1012.21	58.06
1012.371	99.13
1012.532	-46.95
1012.693	32.1
1012.855	-3.36
1013.016	13.69
1013.177	72.78
1013.338	28.8
1013.499	64.65
1013.66	54.77
1013.821	47.21
1013.982	47.6
1014.143	26.67
1014.304	10.98
1014.465	31.52
1014.626	59.61
1014.787	11.17
1014.948	96.81
1015.109	-30.87
1015.27	80.34
1015.431	16.6
1015.592	-4.71
1015.752	92.16
1015.913	9.62
1016.074	33.84
1016.235	50.7
1016.395	6.72
1016.556	22.99
1016.717	16.99
1016.877	50.7
1017.038	10.2
1017.199	42.37
1017.359	50.5
1017.52	6.91
1017.681	9.82
1017.841	17.18
1018.002	33.07
1018.162	1.49
1018.323	54.77
1018.483	31.52
1018.644	14.08
1018.804	-11.11
1018.964	8.07
1019.125	-4.13
1019.285	40.82
1019.446	-9.36
1019.606	-19.63
1019.766	-36.88
1019.926	41.59
1020.087	38.68
1020.247	-24.09
1020.407	48.18
1020.567	60.38
1020.728	-1.03
1020.888	-7.62
1021.048	15.24
1021.208	0.71
1021.368	3.04
1021.528	45.08
1021.688	57.09
1021.848	60.77
1022.008	3.42
1022.168	21.44
1022.328	34.81
1022.488	34.62
1022.648	0.32
1022.808	3.81
1022.968	23.57
1023.128	-10.91
1023.288	-3.75
1023.448	27.64
1023.608	40.82
1023.767	52.25
1023.927	-2.78
1024.087	-22.15
1024.247	-37.85
1024.406	6.52
1024.566	-22.73
1024.726	-25.45
1024.885	0.52
1025.045	16.21
1025.205	5.94
1025.364	-3.55
1025.524	26.87
1025.683	1.87
1025.843	2.65
1026.003	13.3
1026.162	70.65
1026.321	23.19
1026.481	-1.81
1026.64	2.65
1026.8	16.79
1026.959	4.39
1027.119	32.68
1027.278	18.73
1027.437	-37.85
1027.597	31.52
1027.756	28.8
1027.915	13.5
1028.074	16.79
1028.234	-23.7
1028.393	16.02
1028.552	-23.9
1028.711	-65.16
1028.87	42.37
1029.03	-16.92
1029.189	3.23
1029.348	-57.03
1029.507	-14.4
1029.666	-12.66
1029.825	-36.49
1029.984	-5.49
1030.143	19.12
1030.302	1.68
1030.461	-57.41
1030.62	7.49
1030.779	30.16
1030.938	4.2
1031.097	-39.98
1031.255	40.62
1031.414	24.93
1031.573	47.21
1031.732	-32.81
1031.891	3.62
1032.049	35.2
1032.208	29
1032.367	-3.94
1032.525	-10.14
1032.684	3.23
1032.843	22.99
1033.001	-39.01
1033.16	135.17
1033.319	57.67
1033.477	43.33
1033.636	18.92
1033.794	-6.46
1033.953	33.26
1034.111	17.76
1034.27	-18.47
1034.428	15.82
1034.587	-27.77
1034.745	21.25
1034.903	-8.78
1035.062	4.2
1035.22	-34.75
1035.378	41.01
1035.537	-5.49
1035.695	49.34
1035.853	5.94
1036.011	46.82
1036.17	26.87
1036.328	-55.28
1036.486	21.83
1036.644	-11.88
1036.802	-81.24
1036.96	-18.86
1037.119	-9.75
1037.277	-28.16
1037.435	-45.01
1037.593	-17.89
1037.751	-4.33
1037.909	33.65
1038.067	33.65
