Data from oakcork_FLMT105791__282__17-34-28-052.txt Node

Date: Mon Mar 20 17:34:28 GMT 2023
User: antho
Spectrometer: FLMT10579
Trigger mode: 0
Integration Time (sec): 1.000000E-1
Scans to average: 10
Electric dark correction enabled: true
Nonlinearity correction enabled: false
Boxcar width: 0
XAxis mode: Wavelengths
Number of Pixels in Spectrum: 3648
>>>>>Begin Spectral Data<<<<<
345.248	-142.15
345.464	-142.15
345.681	-142.15
345.898	-160.16
346.114	-142.15
346.331	-36.55
346.548	20.99
346.764	14.98
346.981	-5.55
347.197	-37.13
347.414	8.98
347.631	-30.16
347.847	71.75
348.064	13.24
348.28	36.68
348.497	-53.02
348.713	-4.2
348.93	5.49
349.146	29.51
349.363	0.06
349.579	0.45
349.796	1.42
350.012	-6.52
350.229	29.13
350.445	-5.17
350.661	-11.17
350.878	-8.46
351.094	9.36
351.311	-12.72
351.527	19.83
351.743	-12.92
351.96	10.33
352.176	42.3
352.392	8.98
352.609	49.86
352.825	12.66
353.041	0.06
353.257	11.88
353.474	16.15
353.69	12.85
353.906	-2.07
354.122	-9.04
354.339	44.82
354.555	25.64
354.771	-22.22
354.987	62.64
355.203	31.65
355.42	14.21
355.636	-25.32
355.852	-23.57
356.068	-4
356.284	-20.67
356.5	45.4
356.716	17.11
356.932	-11.37
357.148	20.6
357.364	-2.07
357.58	27.96
357.796	64.58
358.012	69.62
358.228	5.68
358.444	-38.1
358.66	47.53
358.876	17.31
359.092	-22.41
359.308	27.96
359.524	65.74
359.74	0.65
359.956	-0.32
360.172	15.76
360.388	30.1
360.604	16.73
360.819	64.19
361.035	34.75
361.251	21.96
361.467	-0.32
361.683	39.78
361.898	16.53
362.114	16.34
362.33	13.24
362.546	54.31
362.762	9.17
362.977	22.54
363.193	-9.04
363.409	26.61
363.624	-21.44
363.84	18.28
364.056	-18.15
364.271	26.61
364.487	24.48
364.703	-7.1
364.918	-2.84
365.134	2.97
365.35	6.85
365.565	80.86
365.781	5.68
365.996	38.04
366.212	39.98
366.427	4.91
366.643	19.63
366.858	4.91
367.074	-13.5
367.289	55.09
367.505	109.73
367.72	-33.84
367.936	-6.52
368.151	37.85
368.367	31.84
368.582	4.71
368.798	-2.65
369.013	65.36
369.228	40.17
369.444	1.61
369.659	39.78
369.874	17.89
370.09	76.98
370.305	-37.33
370.52	-5.17
370.736	58.96
370.951	19.44
371.166	59.16
371.381	72.14
371.597	24.86
371.812	-6.14
372.027	-10.4
372.242	8.98
372.458	59.74
372.673	-2.45
372.888	-18.92
373.103	43.46
373.318	104.49
373.533	46.56
373.749	13.24
373.964	-24.74
374.179	61.48
374.394	-22.99
374.609	41.91
374.824	-3.04
375.039	56.06
375.254	-4.2
375.469	74.46
375.684	7.43
375.899	73.11
376.114	4.52
376.329	-18.73
376.544	46.95
376.759	60.32
376.974	-4.39
377.189	-0.13
377.404	32.61
377.619	59.54
377.834	-27.64
378.049	-38.1
378.264	-34.23
378.478	29.71
378.693	-23.19
378.908	64
379.123	14.79
379.338	64.97
379.553	37.65
379.767	19.25
379.982	56.45
380.197	23.9
380.412	43.08
380.626	29.9
380.841	66.71
381.056	45.4
381.271	59.74
381.485	3.36
381.7	4.52
381.915	45.01
382.129	-14.27
382.344	31.65
382.559	3.36
382.773	31.06
382.988	-33.45
383.202	34.36
383.417	-28.22
383.632	86.86
383.846	3.55
384.061	36.49
384.275	-14.08
384.49	19.44
384.704	50.25
384.919	19.83
385.133	30.29
385.348	34.16
385.562	-35.97
385.777	36.3
385.991	20.02
386.206	0.45
386.42	20.99
386.634	60.32
386.849	43.46
387.063	56.83
387.277	-25.12
387.492	20.8
387.706	0.26
387.92	-1.29
388.135	49.86
388.349	38.81
388.563	20.6
388.778	30.48
388.992	44.63
389.206	32.03
389.42	88.41
389.635	10.91
389.849	38.62
390.063	81.05
390.277	40.95
390.491	88.41
390.706	63.23
390.92	32.81
391.134	26.8
391.348	51.41
391.562	-19.5
391.776	4.33
391.99	-27.06
392.205	32.61
392.419	23.51
392.633	19.44
392.847	57.22
393.061	-14.66
393.275	79.89
393.489	37.85
393.703	24.28
393.917	65.94
394.131	-10.01
394.345	58
394.559	61.48
394.773	21.57
394.986	38.04
395.2	20.21
395.414	71.17
395.628	7.62
395.842	24.67
396.056	11.69
396.27	-1.29
396.484	48.7
396.697	47.73
396.911	91.9
397.125	53.15
397.339	80.08
397.553	20.6
397.766	91.9
397.98	73.49
398.194	56.45
398.408	41.91
398.621	74.66
398.835	34.16
399.049	54.12
399.262	83.76
399.476	71.36
399.69	62.45
399.903	103.53
400.117	30.48
400.331	47.73
400.544	17.89
400.758	122.9
400.971	73.49
401.185	58
401.398	31.26
401.612	74.46
401.826	60.51
402.039	78.34
402.253	9.56
402.466	53.35
402.68	39.01
402.893	59.74
403.106	43.66
403.32	26.61
403.533	54.7
403.747	48.11
403.96	76.01
404.174	82.79
404.387	14.4
404.6	30.48
404.814	72.14
405.027	66.13
405.24	49.86
405.454	24.09
405.667	82.99
405.88	-12.72
406.094	43.08
406.307	84.54
406.52	62.84
406.733	33.78
406.947	18.28
407.16	126.78
407.373	76.01
407.586	11.3
407.799	21.96
408.012	63.42
408.226	57.22
408.439	88.03
408.652	12.85
408.865	63.23
409.078	70.39
409.291	57.41
409.504	19.83
409.717	70.98
409.93	64.97
410.143	68.84
410.357	5.1
410.57	-3.42
410.783	55.28
410.996	46.76
411.209	62.26
411.421	87.44
411.634	58.77
411.847	43.27
412.06	42.11
412.273	63.03
412.486	65.94
412.699	125.61
412.912	58.19
413.125	82.99
413.338	88.8
413.55	87.64
413.763	69.04
413.976	56.83
414.189	52.18
414.402	56.64
414.615	81.83
414.827	41.91
415.04	73.88
415.253	70.98
415.466	89.77
415.678	130.65
415.891	49.66
416.104	47.15
416.316	46.37
416.529	54.51
416.742	66.91
416.954	83.18
417.167	44.24
417.38	51.21
417.592	89.58
417.805	46.37
418.017	22.35
418.23	87.44
418.442	31.65
418.655	50.05
418.868	71.75
419.08	86.28
419.293	108.18
419.505	78.73
419.718	93.84
419.93	89.77
420.142	34.94
420.355	74.85
420.567	117.67
420.78	93.26
420.992	74.85
421.205	112.05
421.417	25.45
421.629	51.8
421.842	23.31
422.054	14.01
422.266	79.11
422.479	84.93
422.691	23.31
422.903	73.69
423.115	36.3
423.328	59.35
423.54	95.39
423.752	70.01
423.964	66.13
424.177	57.61
424.389	84.15
424.601	152.35
424.813	73.88
425.025	88.22
425.238	101.39
425.45	58.58
425.662	52.57
425.874	331.76
426.086	66.13
426.298	91.51
426.51	64.58
426.722	63.23
426.934	59.35
427.146	101.39
427.358	26.61
427.57	94.03
427.782	83.76
427.994	64.19
428.206	72.72
428.418	45.6
428.63	94.23
428.842	96.94
429.054	103.53
429.266	100.43
429.478	46.37
429.69	78.73
429.902	24.86
430.114	98.49
430.325	90.16
430.537	16.34
430.749	72.53
430.961	31.84
431.173	73.3
431.384	87.25
431.596	-4.78
431.808	62.64
432.02	68.65
432.231	79.5
432.443	86.86
432.655	85.89
432.867	62.26
433.078	105.85
433.29	139.95
433.502	149.25
433.713	99.26
433.925	101.01
434.136	120.19
434.348	59.16
434.56	34.36
434.771	151.57
434.983	46.56
435.194	73.11
435.406	83.96
435.617	94.23
435.829	110.69
436.04	106.04
436.252	97.33
436.463	127.16
436.675	84.34
436.886	104.3
437.098	91.51
437.309	114.76
437.521	63.61
437.732	95.58
437.943	62.84
438.155	89.96
438.366	51.02
438.578	106.63
438.789	61.87
439	113.99
439.211	69.62
439.423	125.03
439.634	114.38
439.845	106.82
440.057	93.06
440.268	88.99
440.479	58.38
440.69	101.39
440.902	90.16
441.113	81.05
441.324	89.77
441.535	110.69
441.746	130.84
441.957	67.49
442.168	70.01
442.38	102.75
442.591	135.88
442.802	67.68
443.013	97.13
443.224	104.88
443.435	71.36
443.646	68.65
443.857	84.93
444.068	66.13
444.279	58.38
444.49	166.49
444.701	100.81
444.912	169.4
445.123	118.44
445.334	128.33
445.545	109.92
445.756	105.85
445.967	61.48
446.178	136.27
446.388	124.84
446.599	148.47
446.81	116.12
447.021	71.36
447.232	101.98
447.443	132.39
447.653	84.54
447.864	122.71
448.075	100.43
448.286	129.1
448.496	101.98
448.707	132.59
448.918	80.66
449.129	183.74
449.339	60.13
449.55	126
449.761	104.11
449.971	149.44
450.182	105.08
450.393	137.24
450.603	91.9
450.814	120.38
451.024	111.08
451.235	119.8
451.446	155.64
451.656	181.22
451.867	93.26
452.077	144.79
452.288	170.76
452.498	171.72
452.709	97.71
452.919	137.04
453.13	110.11
453.34	156.03
453.55	68.46
453.761	140.53
453.971	144.41
454.182	159.13
454.392	113.21
454.602	191.49
454.813	148.28
455.023	168.24
455.233	84.54
455.444	115.93
455.654	79.11
455.864	110.31
456.075	126.19
456.285	105.66
456.495	81.83
456.705	139.37
456.916	154.87
457.126	183.35
457.336	134.53
457.546	79.69
457.756	106.43
457.967	146.15
458.177	80.86
458.387	144.99
458.597	118.83
458.807	109.53
459.017	105.85
459.227	129.49
459.437	112.63
459.647	146.73
459.857	146.73
460.068	113.6
460.278	150.22
460.488	127.16
460.698	189.94
460.908	126.39
461.117	99.26
461.327	99.07
461.537	125.03
461.747	131.62
461.957	133.36
462.167	216.48
462.377	178.31
462.587	158.36
462.797	142.47
463.007	124.45
463.216	153.51
463.426	172.31
463.636	182.38
463.846	99.26
464.056	102.56
464.265	167.85
464.475	112.44
464.685	140.34
464.895	166.88
465.104	152.35
465.314	168.82
465.524	117.09
465.733	122.32
465.943	194.59
466.153	198.07
466.362	181.8
466.572	173.27
466.782	113.79
466.991	147.7
467.201	162.04
467.41	105.27
467.62	167.66
467.829	138.01
468.039	144.02
468.249	133.36
468.458	143.63
468.668	171.92
468.877	157.77
469.086	177.73
469.296	198.07
469.505	130.26
469.715	202.53
469.924	163.2
470.134	193.81
470.343	195.75
470.552	155.06
470.762	150.61
470.971	139.18
471.18	147.51
471.39	158.16
471.599	130.07
471.808	166.88
472.018	108.76
472.227	198.85
472.436	222.68
472.645	149.83
472.855	144.99
473.064	213.96
473.273	165.72
473.482	219.19
473.691	209.89
473.901	184.51
474.11	173.08
474.319	256
474.528	180.83
474.737	211.83
474.946	173.27
475.155	181.61
475.364	229.07
475.573	190.52
475.783	175.99
475.992	208.92
476.201	216.67
476.41	165.33
476.619	153.12
476.828	159.71
477.037	165.72
477.245	181.61
477.454	220.36
477.663	184.12
477.872	187.42
478.081	211.25
478.29	148.09
478.499	260.85
478.708	181.99
478.917	245.54
479.125	203.89
479.334	202.92
479.543	182.19
479.752	185.48
479.961	182.57
480.169	235.66
480.378	177.92
480.587	276.54
480.796	243.41
481.004	197.3
481.213	238.57
481.422	214.16
481.63	220.74
481.839	239.15
482.048	268.6
482.256	243.41
482.465	224.62
482.674	250
482.882	249.03
483.091	262.4
483.299	229.07
483.508	235.27
483.716	214.54
483.925	213.77
484.134	222.87
484.342	216.67
484.551	251.16
484.759	260.27
484.967	234.11
485.176	277.12
485.384	244.38
485.593	271.12
485.801	255.23
486.01	229.46
486.218	245.74
486.426	207.37
486.635	261.62
486.843	211.25
487.051	243.41
487.26	199.43
487.468	243.02
487.676	236.44
487.885	210.28
488.093	238.37
488.301	260.07
488.509	239.92
488.717	284.29
488.926	241.86
489.134	217.06
489.342	259.69
489.55	212.61
489.758	257.55
489.967	204.86
490.175	334.08
490.383	222.87
490.591	337.18
490.799	195.36
491.007	292.62
491.215	250.19
491.423	283.13
491.631	242.44
491.839	251.55
492.047	309.09
492.255	229.66
492.463	215.32
492.671	244.77
492.879	291.27
493.087	253.87
493.295	282.55
493.503	276.93
493.711	288.17
493.919	310.45
494.127	303.47
494.334	289.91
494.542	231.79
494.75	276.74
494.958	278.29
495.166	318.97
495.374	279.25
495.581	271.89
495.789	282.16
495.997	326.33
496.205	291.85
496.412	278.67
496.62	247.48
496.828	290.88
497.035	270.92
497.243	323.04
497.451	299.79
497.658	284.87
497.866	250.39
498.074	332.73
498.281	262.4
498.489	368.77
498.696	291.46
498.904	301.54
499.112	283.9
499.319	337.38
499.527	274.99
499.734	333.12
499.942	261.24
500.149	269.37
500.357	298.63
500.564	267.82
500.771	284.1
500.979	273.83
501.186	268.21
501.394	299.99
501.601	302.89
501.808	309.48
502.016	302.89
502.223	312.58
502.43	330.98
502.638	295.14
502.845	281.58
503.052	369.35
503.26	263.17
503.467	347.45
503.674	281.97
503.881	332.53
504.089	372.45
504.296	350.17
504.503	244.57
504.71	296.89
504.917	272.28
505.125	322.27
505.332	312.58
505.539	326.53
505.746	347.84
505.953	334.28
506.16	324.2
506.367	361.6
506.574	349.2
506.781	366.83
506.988	272.09
507.195	343.58
507.402	315.68
507.609	355.2
507.816	313.55
508.023	331.95
508.23	315.87
508.437	273.44
508.644	320.14
508.851	334.28
509.058	351.33
509.265	343.58
509.472	329.63
509.679	444.52
509.885	331.37
510.092	350.17
510.299	331.18
510.506	345.9
510.713	345.52
510.92	330.98
511.126	327.88
511.333	364.5
511.54	373.03
511.746	384.85
511.953	404.8
512.16	390.66
512.367	345.32
512.573	309.87
512.78	350.36
512.987	344.93
513.193	375.55
513.4	312.77
513.606	340.87
513.813	356.95
514.02	362.18
514.226	436.38
514.433	399.96
514.639	324.2
514.846	366.63
515.052	359.66
515.259	358.3
515.465	360.05
515.672	364.7
515.878	453.63
516.085	365.86
516.291	381.55
516.497	326.53
516.704	353.46
516.91	326.53
517.117	320.72
517.323	298.63
517.529	344.35
517.736	314.32
517.942	344.74
518.148	318.2
518.354	375.74
518.561	341.45
518.767	360.05
518.973	397.83
519.179	385.04
519.386	365.67
519.592	355.59
519.798	336.6
520.004	416.04
520.21	343.58
520.417	411
520.623	417.2
520.829	433.67
521.035	429.6
521.241	419.14
521.447	419.14
521.653	489.28
521.859	401.9
522.065	411.78
522.271	491.02
522.477	448.98
522.683	459.25
522.889	442.2
523.095	465.45
523.301	425.34
523.507	425.34
523.713	450.72
523.919	383.3
524.125	433.09
524.331	440.84
524.537	471.45
524.742	493.54
524.948	486.18
525.154	457.5
525.36	547.98
525.566	479.98
525.772	530.35
525.977	437.55
526.183	493.15
526.389	508.07
526.595	453.63
526.8	466.61
527.006	418.56
527.212	422.82
527.417	429.6
527.623	432.51
527.829	483.27
528.034	442.2
528.24	466.41
528.446	412.75
528.651	509.43
528.857	482.5
529.062	524.73
529.268	498.96
529.473	492.38
529.679	460.6
529.884	542.17
530.09	524.54
530.295	559.03
530.501	530.74
530.706	518.34
530.912	451.5
531.117	509.62
531.323	506.13
531.528	519.5
531.733	523.96
531.939	489.86
532.144	519.89
532.35	494.31
532.555	566.58
532.76	537.52
532.966	583.05
533.171	551.86
533.376	502.26
533.581	483.46
533.787	519.5
533.992	553.02
534.197	570.07
534.402	493.73
534.607	526.09
534.813	587.31
535.018	530.54
535.223	504
535.428	549.53
535.633	591.77
535.838	541.78
536.043	551.47
536.249	598.55
536.454	532.68
536.659	552.44
536.864	534.42
537.069	555.54
537.274	551.86
537.479	576.85
537.684	536.55
537.889	494.31
538.094	615.99
538.299	534.03
538.504	611.72
538.708	569.29
538.913	562.32
539.118	575.88
539.323	585.57
539.528	533.06
539.733	547.4
539.938	551.08
540.142	581.5
540.347	555.73
540.552	562.9
540.757	575.11
540.962	567.36
541.166	494.9
541.371	535.19
541.576	545.85
541.781	500.32
541.985	573.56
542.19	548.95
542.395	603.78
542.599	610.95
542.804	606.49
543.008	624.9
543.213	558.83
543.418	562.51
543.622	584.02
543.827	540.43
544.031	585.18
544.236	640.98
544.44	556.31
544.645	666.75
544.849	575.49
545.054	595.64
545.258	642.14
545.463	609.79
545.667	573.56
545.872	586.15
546.076	594.48
546.281	604.36
546.485	590.02
546.689	589.25
546.894	640.01
547.098	599.52
547.302	532.09
547.507	591.77
547.711	614.24
547.915	633.62
548.119	578.21
548.324	612.31
548.528	675.47
548.732	612.11
548.936	618.7
549.141	640.59
549.345	592.74
549.549	597.97
549.753	610.76
549.957	693.68
550.161	648.15
550.366	619.28
550.57	577.04
550.774	599.13
550.978	598.16
551.182	622.77
551.386	603.97
551.59	591.77
551.794	577.43
551.998	613.08
552.202	568.33
552.406	566
552.61	584.21
552.814	579.56
553.018	679.54
553.222	604.56
553.426	639.82
553.63	651.25
553.833	580.34
554.037	535.19
554.241	637.3
554.445	618.12
554.649	603.78
554.853	581.5
555.056	645.82
555.26	637.49
555.464	627.42
555.668	635.75
555.871	634.78
556.075	652.22
556.279	614.82
556.483	594.87
556.686	606.88
556.89	572.01
557.094	602.62
557.297	565.61
557.501	629.94
557.704	553.02
557.908	618.51
558.112	573.36
558.315	645.63
558.519	585.76
558.722	588.09
558.926	574.33
559.129	551.28
559.333	536.55
559.536	537.52
559.74	543.53
559.943	540.62
560.147	560.96
560.35	574.14
560.553	537.33
560.757	525.31
560.96	597.39
561.164	541.59
561.367	621.22
561.57	553.99
561.774	577.82
561.977	548.37
562.18	539.26
562.384	621.99
562.587	554.76
562.79	535
562.993	556.51
563.197	608.62
563.4	610.95
563.603	604.75
563.806	673.34
564.009	533.84
564.212	594.67
564.416	514.27
564.619	592.54
564.822	548.56
565.025	565.42
565.228	531.13
565.431	545.08
565.634	490.83
565.837	545.66
566.04	518.73
566.243	553.41
566.446	500.9
566.649	543.91
566.852	489.66
567.055	510.78
567.258	577.24
567.461	583.82
567.664	581.11
567.867	478.81
568.07	537.52
568.273	531.51
568.475	565.61
568.678	530.35
568.881	526.67
569.084	525.51
569.287	465.64
569.489	475.33
569.692	529.38
569.895	563.29
570.098	493.73
570.3	451.5
570.503	433.48
570.706	464.67
570.909	459.25
571.111	440.06
571.314	435.61
571.516	472.42
571.719	507.88
571.922	462.93
572.124	473.97
572.327	473.39
572.529	410.03
572.732	425.34
572.935	475.71
573.137	539.84
573.34	460.8
573.542	477.07
573.745	491.21
573.947	484.82
574.15	462.93
574.352	440.45
574.554	496.44
574.757	445.1
574.959	447.81
575.162	427.66
575.364	447.43
575.566	521.83
575.769	428.44
575.971	447.04
576.173	388.14
576.376	455.37
576.578	474.55
576.78	508.26
576.982	387.95
577.185	408.48
577.387	390.08
577.589	412.55
577.791	430.18
577.993	425.92
578.196	414.3
578.398	462.15
578.6	464.28
578.802	394.34
579.004	428.83
579.206	424.95
579.408	436.19
579.61	413.13
579.812	461.76
580.014	391.63
580.216	413.33
580.418	404.42
580.62	409.06
580.822	370.9
581.024	420.69
581.226	465.25
581.428	398.6
581.63	479.01
581.832	405.19
582.034	444.13
582.236	427.66
582.438	430.57
582.64	470.87
582.841	481.33
583.043	507.1
583.245	444.13
583.447	457.5
583.649	436.77
583.85	428.44
584.052	452.27
584.254	433.86
584.456	460.99
584.657	373.22
584.859	409.45
585.061	413.33
585.262	403.06
585.464	353.27
585.666	449.75
585.867	406.16
586.069	485.21
586.27	447.81
586.472	408.1
586.674	412.36
586.875	401.12
587.077	395.12
587.278	426.7
587.48	388.33
587.681	487.73
587.883	436.77
588.084	352.68
588.285	405.38
588.487	392.21
588.688	417.4
588.89	380.78
589.091	357.53
589.292	364.5
589.494	367.6
589.695	380
589.896	318.39
590.098	322.65
590.299	360.24
590.5	331.37
590.702	318.78
590.903	369.93
591.104	395.5
591.305	368.57
591.507	455.37
591.708	421.85
591.909	359.08
592.11	433.09
592.311	390.85
592.512	381.17
592.714	293.79
592.915	357.92
593.116	342.8
593.317	371.67
593.518	363.15
593.719	355.01
593.92	392.02
594.121	395.5
594.322	385.43
594.523	372.25
594.724	332.34
594.925	374
595.126	365.28
595.327	381.94
595.528	412.75
595.729	379.03
595.929	354.62
596.13	368.38
596.331	380.2
596.532	394.53
596.733	397.83
596.934	408.29
597.135	390.27
597.335	379.23
597.536	351.33
597.737	357.92
597.938	343.77
598.138	384.07
598.339	384.85
598.54	374.77
598.74	376.71
598.941	381.55
599.142	385.04
599.342	382.13
599.543	353.65
599.744	365.28
599.944	369.15
600.145	349.97
600.345	389.88
600.546	445.3
600.746	417.2
600.947	421.08
601.147	396.28
601.348	391.82
601.548	356.37
601.749	357.14
601.949	350.55
602.15	349.97
602.35	379.03
602.551	445.3
602.751	351.91
602.951	352.88
603.152	319.55
603.352	382.91
603.552	344.55
603.753	393.18
603.953	384.27
604.153	364.5
604.354	358.88
604.554	397.25
604.754	382.91
604.954	320.91
605.155	367.02
605.355	364.31
605.555	395.7
605.755	406.16
605.955	378.45
606.155	392.4
606.356	386.78
606.556	390.27
606.756	374
606.956	328.27
607.156	416.81
607.356	342.61
607.556	375.16
607.756	358.3
607.956	397.25
608.156	370.7
608.356	339.51
608.556	379.42
608.756	373.61
608.956	324.01
609.156	353.07
609.356	332.73
609.556	345.13
609.755	369.54
609.955	319.94
610.155	357.92
610.355	379.81
610.555	334.86
610.755	368.77
610.954	308.51
611.154	353.85
611.354	412.16
611.554	317.04
611.753	351.72
611.953	304.83
612.153	381.17
612.352	347.45
612.552	312.77
612.752	288.36
612.951	338.54
613.151	353.46
613.351	335.05
613.55	336.22
613.75	358.88
613.949	344.55
614.149	371.67
614.348	341.25
614.548	314.52
614.747	284.49
614.947	299.21
615.146	266.85
615.346	322.27
615.545	339.32
615.745	334.28
615.944	355.2
616.144	344.93
616.343	354.82
616.542	298.82
616.742	318
616.941	321.68
617.14	272.47
617.34	326.53
617.539	308.32
617.738	292.62
617.938	383.88
618.137	314.9
618.336	273.25
618.535	358.5
618.734	299.6
618.934	331.37
619.133	329.63
619.332	353.46
619.531	298.63
619.73	298.82
619.929	343
620.128	350.17
620.328	361.02
620.527	297.27
620.726	308.7
620.925	337.96
621.124	293.4
621.323	329.82
621.522	302.89
621.721	282.35
621.92	258.52
622.119	322.27
622.318	257.55
622.517	305.6
622.715	309.48
622.914	227.52
623.113	286.04
623.312	240.89
623.511	294.56
623.71	298.63
623.909	291.46
624.107	358.11
624.306	272.67
624.505	285.45
624.704	296.89
624.902	313.35
625.101	349
625.3	313.94
625.499	258.33
625.697	289.91
625.896	259.69
626.095	330.6
626.293	272.28
626.492	273.83
626.69	316.84
626.889	252.32
627.088	323.82
627.286	249.22
627.485	272.09
627.683	271.89
627.882	313.74
628.08	226.36
628.279	261.62
628.477	328.08
628.676	257.94
628.874	275.57
629.073	261.04
629.271	246.32
629.469	280.42
629.668	256.39
629.866	257.17
630.065	244.57
630.263	295.14
630.461	253.49
630.66	274.41
630.858	319.75
631.056	282.16
631.254	308.9
631.453	236.63
631.651	299.6
631.849	271.5
632.047	272.28
632.245	253.49
632.444	295.92
632.642	280.61
632.84	279.64
633.038	271.7
633.236	247.87
633.434	247.48
633.632	238.18
633.83	258.52
634.028	302.89
634.227	257.17
634.425	338.73
634.623	281.97
634.821	269.37
635.019	274.22
635.216	236.82
635.414	273.44
635.612	287.39
635.81	263.95
636.008	324.98
636.206	273.64
636.404	275.77
636.602	262.2
636.8	261.43
636.997	286.81
637.195	312.39
637.393	258.14
637.591	305.8
637.789	288.17
637.986	263.95
638.184	280.61
638.382	295.14
638.58	281.97
638.777	311.8
638.975	280.03
639.173	283.32
639.37	270.54
639.568	283.71
639.765	291.85
639.963	261.04
640.161	322.27
640.358	299.02
640.556	246.12
640.753	254.26
640.951	233.53
641.148	294.17
641.346	268.99
641.543	262.01
641.741	271.7
641.938	251.35
642.136	281
642.333	290.88
642.531	290.49
642.728	315.29
642.925	284.49
643.123	252.32
643.32	279.64
643.517	241.09
643.715	266.66
643.912	238.37
644.109	257.94
644.306	245.35
644.504	205.05
644.701	235.66
644.898	277.12
645.095	249.61
645.293	267.63
645.49	268.4
645.687	280.03
645.884	308.51
646.081	225.39
646.278	238.76
646.475	256.39
646.672	227.52
646.87	290.1
647.067	255.04
647.264	258.52
647.461	230.62
647.658	193.62
647.855	290.88
648.052	245.93
648.249	162.04
648.446	225.59
648.642	200.98
648.839	225.39
649.036	206.99
649.233	198.27
649.43	183.93
649.627	237.21
649.824	229.07
650.021	243.41
650.217	208.92
650.414	233.14
650.611	232.95
650.808	260.46
651.004	248.06
651.201	223.65
651.398	302.7
651.595	217.26
651.791	198.85
651.988	265.11
652.185	202.34
652.381	247.29
652.578	204.66
652.775	228.69
652.971	237.4
653.168	233.34
653.364	211.44
653.561	184.32
653.757	225.01
653.954	212.22
654.15	196.52
654.347	278.67
654.543	213.77
654.74	190.71
654.936	167.27
655.133	231.21
655.329	209.31
655.525	212.99
655.722	261.82
655.918	203.11
656.115	267.63
656.311	180.44
656.507	171.34
656.704	160.29
656.9	171.14
657.096	175.79
657.292	181.41
657.489	234.69
657.685	212.02
657.881	190.13
658.077	215.12
658.273	185.87
658.47	274.8
658.666	219
658.862	238.57
659.058	182.77
659.254	217.84
659.45	185.87
659.646	225.78
659.842	187.81
660.038	239.34
660.234	196.33
660.43	218.81
660.626	271.5
660.822	219.19
661.018	213.77
661.214	220.74
661.41	156.22
661.606	228.69
661.802	222.29
661.998	240.7
662.194	170.56
662.39	234.5
662.586	248.45
662.781	224.42
662.977	229.27
663.173	249.03
663.369	221.71
663.564	223.07
663.76	261.43
663.956	195.94
664.152	230.24
664.347	158.36
664.543	213.38
664.739	191.29
664.934	185.09
665.13	142.47
665.326	228.11
665.521	202.53
665.717	184.12
665.912	193.04
666.108	132.39
666.304	184.71
666.499	198.66
666.695	130.65
666.89	187.81
667.086	225.01
667.281	219.77
667.477	272.47
667.672	216.87
667.867	210.28
668.063	233.14
668.258	175.21
668.454	200.01
668.649	249.42
668.844	206.79
669.04	207.76
669.235	193.62
669.43	194.39
669.626	174.63
669.821	177.34
670.016	163.97
670.211	204.66
670.407	153.32
670.602	192.65
670.797	166.3
670.992	220.16
671.187	178.89
671.382	233.53
671.578	199.82
671.773	216.67
671.968	154.87
672.163	165.52
672.358	225.59
672.553	181.41
672.748	150.41
672.943	269.18
673.138	194.2
673.333	216.87
673.528	186.64
673.723	207.57
673.918	183.35
674.113	147.12
674.308	259.3
674.503	191.1
674.698	231.98
674.892	214.54
675.087	211.44
675.282	210.09
675.477	179.47
675.672	218.61
675.867	192.26
676.061	180.64
676.256	139.37
676.451	162.81
676.646	197.11
676.84	163.2
677.035	144.41
677.23	141.11
677.424	181.22
677.619	200.4
677.814	217.26
678.008	205.05
678.203	150.41
678.397	176.57
678.592	183.35
678.787	222.68
678.981	187.42
679.176	172.11
679.37	204.27
679.565	139.95
679.759	173.27
679.954	224.42
680.148	230.43
680.342	244.77
680.537	192.65
680.731	184.32
680.926	182.96
681.12	184.12
681.314	182.96
681.509	166.69
681.703	200.01
681.897	207.76
682.092	203.89
682.286	155.06
682.48	223.84
682.674	214.16
682.869	169.59
683.063	194.97
683.257	235.47
683.451	164.17
683.645	201.17
683.839	180.64
684.034	159.13
684.228	209.89
684.422	136.85
684.616	156.61
684.81	203.31
685.004	199.43
685.198	201.56
685.392	219.19
685.586	168.62
685.78	199.43
685.974	197.11
686.168	202.14
686.362	260.65
686.556	215.32
686.75	146.92
686.944	184.9
687.138	226.75
687.331	114.76
687.525	162.23
687.719	115.34
687.913	168.04
688.107	170.95
688.301	143.24
688.494	171.72
688.688	119.22
688.882	115.93
689.076	138.98
689.269	124.84
689.463	223.84
689.657	135.11
689.85	165.52
690.044	158.55
690.238	134.72
690.431	149.25
690.625	140.53
690.818	137.82
691.012	186.84
691.205	184.9
691.399	105.46
691.593	154.87
691.786	198.07
691.98	204.27
692.173	219.77
692.366	202.34
692.56	220.36
692.753	253.49
692.947	141.11
693.14	238.37
693.333	209.31
693.527	150.8
693.72	216.67
693.914	195.94
694.107	175.41
694.3	212.02
694.493	181.22
694.687	239.34
694.88	209.31
695.073	250.97
695.266	223.46
695.46	202.72
695.653	275.19
695.846	235.66
696.039	157.19
696.232	212.99
696.425	231.01
696.618	218.42
696.812	207.37
697.005	282.35
697.198	333.89
697.391	249.22
697.584	252.52
697.777	331.18
697.97	290.49
698.163	293.4
698.356	272.09
698.549	331.18
698.742	309.09
698.935	273.83
699.127	297.85
699.32	288.94
699.513	256
699.706	285.45
699.899	282.55
700.092	276.35
700.285	310.45
700.477	245.74
700.67	304.05
700.863	319.17
701.056	379.03
701.248	361.21
701.441	346.29
701.634	296.3
701.826	424.18
702.019	296.69
702.212	354.23
702.404	303.47
702.597	303.47
702.79	317.23
702.982	366.25
703.175	359.66
703.367	383.88
703.56	382.72
703.752	442.39
703.945	385.82
704.137	390.27
704.33	410.03
704.522	415.85
704.715	381.17
704.907	455.76
705.1	443.36
705.292	445.1
705.484	432.12
705.677	436.19
705.869	461.18
706.061	479.4
706.254	488.11
706.446	432.12
706.638	450.72
706.831	537.13
707.023	447.62
707.215	540.04
707.407	538.1
707.599	479.59
707.792	553.41
707.984	512.72
708.176	551.28
708.368	506.91
708.56	544.49
708.752	481.33
708.944	516.98
709.136	528.8
709.329	510.98
709.521	606.3
709.713	576.85
709.905	595.26
710.097	594.48
710.289	573.36
710.481	584.6
710.672	584.21
710.864	590.41
711.056	653.38
711.248	612.11
711.44	623.93
711.632	622.38
711.824	651.83
712.016	694.45
712.207	676.24
712.399	650.09
712.591	717.51
712.783	688.84
712.975	695.62
713.166	648.54
713.358	667.72
713.55	725.84
713.741	751.42
713.933	708.6
714.125	722.74
714.316	708.79
714.508	760.13
714.7	772.34
714.891	730.49
715.083	806.63
715.274	735.14
715.466	731.46
715.657	784.74
715.849	702.4
716.04	774.28
716.232	706.66
716.423	808.18
716.615	723.52
716.806	739.4
716.998	702.98
717.189	678.57
717.381	662.1
717.572	633.23
717.763	689.61
717.955	693.29
718.146	662.29
718.337	630.32
718.528	609.4
718.72	593.51
718.911	631.87
719.102	602.04
719.293	667.14
719.485	638.46
719.676	656.87
719.867	618.89
720.058	596.42
720.249	639.82
720.44	652.22
720.632	675.66
720.823	669.07
721.014	743.67
721.205	726.62
721.396	761.3
721.587	840.93
721.778	855.07
721.969	851.78
722.16	903.7
722.351	832.21
722.542	932.57
722.733	971.51
722.924	878.9
723.115	907.77
723.305	913.2
723.496	943.42
723.687	851.97
723.878	878.13
724.069	873.86
724.26	890.53
724.45	861.27
724.641	861.27
724.832	875.41
725.023	894.01
725.213	883.36
725.404	839.38
725.595	882.58
725.785	830.27
725.976	924.63
726.167	900.6
726.357	865.53
726.548	985.27
726.739	928.11
726.929	943.42
727.12	968.41
727.31	995.73
727.501	956.4
727.691	975.39
727.882	991.86
728.072	983.53
728.263	1008.71
728.453	1033.12
728.644	1031.57
728.834	1027.7
729.024	1008.13
729.215	991.28
729.405	1041.46
729.596	1087.18
729.786	1103.26
729.976	1063.54
730.167	1111.2
730.357	1075.36
730.547	1086.02
730.737	1089.31
730.928	1140.65
731.118	1160.42
731.308	1116.05
731.498	1133.87
731.688	1195.1
731.879	1189.09
732.069	1188.7
732.259	1213.5
732.449	1237.53
732.639	1276.08
732.829	1301.08
733.019	1299.53
733.209	1364.43
733.399	1338.28
733.589	1387.68
733.779	1391.36
733.969	1369.28
734.159	1407.25
734.349	1464.99
734.539	1496.76
734.729	1463.05
734.919	1507.03
735.109	1519.43
735.299	1484.75
735.488	1547.91
735.678	1513.23
735.868	1512.84
736.058	1541.91
736.248	1484.94
736.437	1440.38
736.627	1495.6
736.817	1577.55
737.007	1525.05
737.196	1514.59
737.386	1521.95
737.576	1530.09
737.765	1592.67
737.955	1565.15
738.144	1640.91
738.334	1630.64
738.524	1591.7
738.713	1599.45
738.903	1598.29
739.092	1660.87
739.282	1653.5
739.471	1637.81
739.661	1636.84
739.85	1658.35
740.04	1684.5
740.229	1673.27
740.419	1694.38
740.608	1736.62
740.797	1690.32
740.987	1757.16
741.176	1749.99
741.365	1697.48
741.555	1687.6
741.744	1757.93
741.933	1722.48
742.123	1751.54
742.312	1740.88
742.501	1760.65
742.69	1783.31
742.88	1735.85
743.069	1797.26
743.258	1773.63
743.447	1813.54
743.636	1810.63
743.825	1799.4
744.014	1794.16
744.204	1805.79
744.393	1781.57
744.582	1819.16
744.771	1880.58
744.96	1796.3
745.149	1818.77
745.338	1823.23
745.527	1857.71
745.716	1834.46
745.905	1805.01
746.094	1855.78
746.283	1869.14
746.471	1861.78
746.66	1907.31
746.849	1867.21
747.038	1895.49
747.227	1879.03
747.416	1882.71
747.604	1824
747.793	1848.41
747.982	1870.5
748.171	1873.02
748.359	1917.77
748.548	1927.66
748.737	1864.69
748.926	1859.46
749.114	1785.83
749.303	1846.28
749.491	1857.52
749.68	1819.74
749.869	1898.01
750.057	1861.01
750.246	1843.57
750.434	1837.18
750.623	1858.88
750.811	1845.51
751	1893.17
751.188	1854.81
751.377	1862.94
751.565	1870.31
751.754	1860.04
751.942	1835.82
752.131	1927.85
752.319	1863.14
752.507	1785.06
752.696	1876.7
752.884	1908.86
753.072	1839.11
753.261	1834.27
753.449	1853.84
753.637	1795.52
753.825	1918.55
754.014	1840.28
754.202	1866.04
754.39	1930.56
754.578	1859.46
754.766	1841.05
754.955	1815.67
755.143	1883.29
755.331	1824.39
755.519	1867.21
755.707	1836.98
755.895	1832.91
756.083	1823.42
756.271	1790.29
756.459	1811.79
756.647	1852.09
756.835	1791.65
757.023	1799.4
757.211	1815.09
757.399	1801.14
757.587	1823.42
757.775	1775.56
757.963	1767.43
758.151	1764.91
758.339	1792.81
758.526	1749.02
758.714	1786.41
758.902	1718.6
759.09	1682.57
759.278	1559.73
759.465	1432.83
759.653	1216.99
759.841	1162.94
760.028	964.34
760.216	850.03
760.404	818.45
760.591	660.36
760.779	531.9
760.967	465.06
761.154	374.19
761.342	410.81
761.529	430.57
761.717	474.94
761.905	433.09
762.092	452.08
762.28	413.71
762.467	411.2
762.655	376.71
762.842	399.18
763.029	418.56
763.217	427.47
763.404	412.94
763.592	450.33
763.779	398.41
763.966	446.65
764.154	460.21
764.341	491.99
764.528	462.54
764.716	525.12
764.903	555.15
765.09	588.09
765.277	615.02
765.465	708.02
765.652	738.05
765.839	790.75
766.026	865.34
766.213	878.9
766.4	926.76
766.588	1046.69
766.775	1047.85
766.962	1101.32
767.149	1127.48
767.336	1212.73
767.523	1157.9
767.71	1287.51
767.897	1312.7
768.084	1388.26
768.271	1405.12
768.458	1412.09
768.645	1466.54
768.832	1417.91
769.019	1428.18
769.206	1470.41
769.392	1534.74
769.579	1590.73
769.766	1520.79
769.953	1512.46
770.14	1590.15
770.327	1595.77
770.513	1590.92
770.7	1666.87
770.887	1617.27
771.073	1651.18
771.26	1597.32
771.447	1601.58
771.634	1575.04
771.82	1675.4
772.007	1635.87
772.193	1620.57
772.38	1669.78
772.567	1623.67
772.753	1626.19
772.94	1680.82
773.126	1631.8
773.313	1656.8
773.499	1644.2
773.686	1662.03
773.872	1623.86
774.059	1636.84
774.245	1565.54
774.432	1593.05
774.618	1551.59
774.804	1634.32
774.991	1579.1
775.177	1660.48
775.363	1624.83
775.55	1649.63
775.736	1582.2
775.922	1582.98
776.109	1634.13
776.295	1618.63
776.481	1595.38
776.667	1623.67
776.853	1547.72
777.04	1582.98
777.226	1592.86
777.412	1648.66
777.598	1559.34
777.784	1566.51
777.97	1579.3
778.156	1576.97
778.342	1569.61
778.528	1587.63
778.715	1553.72
778.901	1531.06
779.087	1569.61
779.272	1520.4
779.458	1491.14
779.644	1560.31
779.83	1534.74
780.016	1633.16
780.202	1543.65
780.388	1496.37
780.574	1481.26
780.76	1530.86
780.946	1563.8
781.131	1533.19
781.317	1521.37
781.503	1502.77
781.689	1488.62
781.874	1621.54
782.06	1464.21
782.246	1472.16
782.432	1513.81
782.617	1487.66
782.803	1532.41
782.989	1441.16
783.174	1511.29
783.36	1458.79
783.545	1455.3
783.731	1482.42
783.916	1418.49
784.102	1503.54
784.288	1452.59
784.473	1429.73
784.659	1420.81
784.844	1461.11
785.029	1413.06
785.215	1409.19
785.4	1396.98
785.586	1466.34
785.771	1402.6
785.956	1461.69
786.142	1434.57
786.327	1404.73
786.512	1434.76
786.698	1409.77
786.883	1350.1
787.068	1402.02
787.254	1363.85
787.439	1364.63
787.624	1407.83
787.809	1366.76
787.994	1365.4
788.18	1429.92
788.365	1340.99
788.55	1380.9
788.735	1348.93
788.92	1348.35
789.105	1347.19
789.29	1388.26
789.475	1340.41
789.66	1321.81
789.845	1316.58
790.03	1302.63
790.215	1349.13
790.4	1340.8
790.585	1395.82
790.77	1337.11
790.955	1240.63
791.14	1303.98
791.325	1331.88
791.51	1266.01
791.695	1265.82
791.879	1265.62
792.064	1248.38
792.249	1336.73
792.434	1285
792.618	1270.85
792.803	1330.91
792.988	1259.62
793.173	1278.6
793.357	1311.73
793.542	1264.85
793.727	1295.07
793.911	1334.4
794.096	1276.86
794.281	1347.77
794.465	1365.6
794.65	1287.71
794.834	1299.53
795.019	1334.6
795.203	1336.34
795.388	1319.48
795.572	1370.63
795.757	1339.63
795.941	1330.91
796.126	1299.72
796.31	1282.09
796.494	1299.14
796.679	1308.83
796.863	1271.63
797.048	1366.37
797.232	1334.79
797.416	1308.63
797.601	1316.38
797.785	1352.03
797.969	1378.38
798.153	1294.88
798.338	1315.41
798.522	1355.91
798.706	1320.45
798.89	1355.91
799.074	1421.98
799.258	1371.79
799.443	1349.32
799.627	1315.41
799.811	1407.83
799.995	1316.38
800.179	1311.54
800.363	1334.98
800.547	1353.78
800.731	1329.95
800.915	1268.92
801.099	1292.75
801.283	1301.08
801.467	1342.35
801.651	1318.9
801.835	1351.65
802.019	1308.44
802.202	1320.65
802.386	1266.78
802.57	1258.07
802.754	1305.73
802.938	1299.72
803.121	1290.81
803.305	1362.88
803.489	1290.23
803.673	1291
803.856	1357.65
804.04	1318.51
804.224	1302.24
804.407	1289.84
804.591	1321.42
804.775	1310.18
804.958	1318.71
805.142	1381.09
805.326	1283.45
805.509	1329.56
805.693	1342.35
805.876	1344.28
806.06	1313.67
806.243	1354.36
806.427	1347.58
806.61	1366.56
806.794	1297.78
806.977	1364.24
807.16	1321.03
807.344	1336.15
807.527	1362.11
807.71	1315.61
807.894	1337.7
808.077	1370.05
808.26	1340.6
808.444	1280.93
808.627	1312.12
808.81	1292.75
808.993	1258.26
809.177	1280.15
809.36	1312.31
809.543	1298.36
809.726	1236.75
809.909	1238.3
810.092	1196.07
810.276	1235.59
810.459	1274.92
810.642	1219.51
810.825	1193.74
811.008	1219.32
811.191	1145.5
811.374	1151.12
811.557	1187.35
811.74	1242.57
811.923	1136.78
812.106	1145.89
812.289	1108.69
812.472	1148.6
812.654	1147.82
812.837	1100.55
813.02	1072.65
813.203	1066.84
813.386	1025.37
813.569	989.34
813.751	945.74
813.934	1008.91
814.117	1026.34
814.3	962.02
814.482	960.66
814.665	937.03
814.848	911.65
815.03	857.2
815.213	861.27
815.396	892.27
815.578	867.28
815.761	831.24
815.943	905.45
816.126	837.25
816.309	816.9
816.491	778.93
816.674	727.97
816.856	810.9
817.039	769.82
817.221	826.4
817.403	792.68
817.586	779.12
817.768	812.25
817.951	779.7
818.133	740.57
818.315	789.97
818.498	799.08
818.68	861.46
818.862	826.78
819.045	843.06
819.227	833.95
819.409	816.32
819.591	824.46
819.774	821.94
819.956	750.06
820.138	859.53
820.32	841.12
820.502	868.44
820.684	897.31
820.866	877.74
821.048	929.66
821.231	923.27
821.413	893.05
821.595	886.46
821.777	926.56
821.959	880.84
822.141	947.1
822.323	856.81
822.505	870.96
822.686	822.13
822.868	786.87
823.05	709.57
823.232	724.49
823.414	669.46
823.596	716.74
823.778	696.59
823.96	762.07
824.141	742.12
824.323	737.47
824.505	775.05
824.687	812.25
824.868	837.05
825.05	907
825.232	889.17
825.413	957.95
825.595	929.66
825.777	863.79
825.958	898.66
826.14	884.33
826.321	906.22
826.503	903.7
826.685	896.34
826.866	892.08
827.048	880.45
827.229	860.11
827.411	867.47
827.592	811.48
827.773	809.73
827.955	801.98
828.136	811.09
828.318	752.58
828.499	815.35
828.68	783.77
828.862	830.66
829.043	860.69
829.224	801.79
829.406	796.95
829.587	798.3
829.768	784.74
829.949	798.11
830.131	785.71
830.312	871.54
830.493	790.36
830.674	821.36
830.855	816.13
831.036	808.57
831.218	845.19
831.399	894.79
831.58	809.35
831.761	789.2
831.942	827.17
832.123	796.17
832.304	790.17
832.485	788.62
832.666	793.65
832.847	817.29
833.028	801.21
833.209	794.04
833.389	776.02
833.57	783.77
833.751	760.52
833.932	833.37
834.113	824.27
834.294	765.95
834.475	838.8
834.655	874.45
834.836	829.11
835.017	823.3
835.198	756.45
835.378	807.41
835.559	846.16
835.74	801.79
835.92	784.35
836.101	800.43
836.281	853.33
836.462	814.19
836.643	856.81
836.823	876
837.004	858.75
837.184	892.27
837.365	861.08
837.545	872.12
837.726	827.37
837.906	858.56
838.087	854.1
838.267	844.61
838.448	832.98
838.628	857.59
838.808	838.02
838.989	878.71
839.169	826.98
839.349	886.85
839.53	878.71
839.71	841.51
839.89	836.28
840.07	899.63
840.251	810.9
840.431	868.25
840.611	852.16
840.791	815.35
840.971	849.65
841.151	833.18
841.332	814.58
841.512	828.53
841.692	783.19
841.872	834.34
842.052	836.28
842.232	831.63
842.412	791.52
842.592	814.77
842.772	851.97
842.952	833.76
843.132	826.01
843.312	810.12
843.492	800.82
843.672	864.18
843.851	776.99
844.031	882.58
844.211	825.23
844.391	770.4
844.571	811.48
844.751	830.08
844.93	807.8
845.11	788.81
845.29	811.28
845.47	842.09
845.649	823.68
845.829	863.98
846.009	778.35
846.188	820.58
846.368	798.69
846.547	833.57
846.727	804.5
846.907	795.4
847.086	794.62
847.266	832.21
847.445	785.71
847.625	782.42
847.804	778.15
847.984	802.37
848.163	778.15
848.343	789.2
848.522	818.07
848.701	819.62
848.881	778.54
849.06	821.17
849.239	808.77
849.419	824.27
849.598	736.5
849.777	745.02
849.957	776.22
850.136	721.39
850.315	713.44
850.494	722.35
850.674	698.72
850.853	771.95
851.032	745.6
851.211	821.94
851.39	765.17
851.569	724.68
851.748	717.7
851.927	751.22
852.107	739.21
852.286	694.07
852.465	717.32
852.644	770.6
852.823	719.64
853.002	752.39
853.181	708.99
853.359	738.82
853.538	675.47
853.717	772.73
853.896	700.07
854.075	643.89
854.254	656.48
854.433	628.39
854.611	649.51
854.79	603.97
854.969	662.1
855.148	683.8
855.327	602.23
855.505	653.19
855.684	671.01
855.863	660.94
856.041	635.17
856.22	671.79
856.399	665.39
856.577	700.46
856.756	715.19
856.934	795.2
857.113	776.41
857.291	687.48
857.47	672.75
857.648	667.33
857.827	710.15
858.005	745.99
858.184	658.22
858.362	777.96
858.541	672.37
858.719	723.52
858.898	675.27
859.076	677.79
859.254	754.13
859.433	705.89
859.611	655.51
859.789	659.97
859.967	723.52
860.146	730.3
860.324	671.98
860.502	672.37
860.68	649.7
860.859	656.29
861.037	665.97
861.215	701.04
861.393	685.74
861.571	685.15
861.749	646.79
861.927	693.1
862.105	696
862.283	634.2
862.461	633.42
862.639	636.33
862.817	656.67
862.995	658.61
863.173	653.19
863.351	645.44
863.529	677.02
863.707	719.84
863.885	645.63
864.063	614.82
864.241	625.67
864.418	698.52
864.596	631.49
864.774	626.64
864.952	628.97
865.129	658.81
865.307	626.06
865.485	587.89
865.663	655.9
865.84	583.82
866.018	620.64
866.196	519.69
866.373	569.1
866.551	566.78
866.728	486.56
866.906	552.83
867.084	564.64
867.261	566.39
867.439	597.58
867.616	614.44
867.794	570.46
867.971	596.03
868.149	586.92
868.326	650.67
868.503	653.96
868.681	601.84
868.858	566.58
869.035	546.43
869.213	619.28
869.39	599.32
869.567	683.99
869.745	584.21
869.922	594.09
870.099	605.33
870.276	597.77
870.454	618.7
870.631	594.48
870.808	580.73
870.985	642.92
871.162	660.94
871.339	603.78
871.517	557.67
871.694	577.82
871.871	615.6
872.048	586.54
872.225	585.37
872.402	623.16
872.579	552.24
872.756	614.82
872.933	569.29
873.11	557.09
873.287	596.81
873.463	561.74
873.64	541.01
873.817	569.68
873.994	576.08
874.171	555.93
874.348	583.63
874.524	510.98
874.701	565.23
874.878	518.92
875.055	561.54
875.231	541.78
875.408	601.26
875.585	504.19
875.762	550.31
875.938	549.14
876.115	528.61
876.291	533.64
876.468	563.48
876.645	505.55
876.821	538.88
876.998	525.51
877.174	554.57
877.351	517.37
877.527	502.64
877.704	537.71
877.88	572.98
878.057	520.47
878.233	567.55
878.409	507.49
878.586	529.96
878.762	514.08
878.938	526.28
879.115	477.46
879.291	503.03
879.467	496.64
879.644	530.35
879.82	542.17
879.996	494.7
880.172	464.48
880.349	510.59
880.525	537.52
880.701	513.11
880.877	470.29
881.053	539.46
881.229	515.82
881.405	538.49
881.581	490.63
881.757	490.25
881.933	500.13
882.109	533.45
882.285	509.04
882.461	449.56
882.637	513.3
882.813	483.66
882.989	471.65
883.165	557.28
883.341	464.67
883.517	519.31
883.693	508.26
883.869	525.7
884.044	480.36
884.22	522.79
884.396	527.06
884.572	517.76
884.747	540.04
884.923	535
885.099	505.16
885.275	529.58
885.45	487.73
885.626	458.66
885.801	481.53
885.977	488.7
886.153	438.32
886.328	508.07
886.504	495.48
886.679	497.22
886.855	452.85
887.03	512.72
887.206	499.35
887.381	513.3
887.557	494.51
887.732	505.36
887.908	515.04
888.083	523.57
888.258	497.99
888.434	502.26
888.609	499.93
888.784	529.38
888.96	463.12
889.135	477.26
889.31	441.61
889.485	510.98
889.661	467.58
889.836	503.42
890.011	495.28
890.186	485.21
890.361	458.86
890.537	474.16
890.712	477.85
890.887	480.17
891.062	501.87
891.237	544.69
891.412	447.43
891.587	500.32
891.762	516.21
891.937	517.18
892.112	454.79
892.287	497.41
892.462	433.86
892.637	434.64
892.812	436.58
892.987	446.07
893.161	423.6
893.336	465.83
893.511	460.99
893.686	439.48
893.861	444.52
894.035	439.87
894.21	421.85
894.385	420.88
894.56	436.96
894.734	367.22
894.909	379.03
895.084	427.08
895.258	368.57
895.433	421.85
895.608	399.57
895.782	355.59
895.957	369.73
896.131	398.02
896.306	347.84
896.48	351.33
896.655	361.02
896.829	306.96
897.004	306.96
897.178	329.05
897.353	318.59
897.527	371.48
897.701	343.58
897.876	299.99
898.05	349.58
898.224	320.72
898.399	375.16
898.573	339.32
898.747	255.62
898.921	320.52
899.096	251.16
899.27	281
899.444	286.23
899.618	258.91
899.792	282.94
899.967	288.17
900.141	308.32
900.315	261.62
900.489	282.94
900.663	280.22
900.837	299.6
901.011	243.41
901.185	324.59
901.359	278.67
901.533	296.11
901.707	281.58
901.881	267.05
902.055	245.15
902.229	285.45
902.403	337.57
902.576	261.82
902.75	281.19
902.924	377.87
903.098	323.23
903.272	359.66
903.446	362.95
903.619	306.38
903.793	353.27
903.967	342.22
904.14	381.17
904.314	348.42
904.488	360.43
904.661	346.68
904.835	367.99
905.009	400.73
905.182	389.69
905.356	367.6
905.529	373.42
905.703	323.04
905.876	324.01
906.05	303.67
906.223	317.23
906.397	265.69
906.57	266.08
906.744	271.12
906.917	260.46
907.09	294.95
907.264	289.91
907.437	243.02
907.61	232.56
907.784	253.1
907.957	249.8
908.13	249.22
908.304	307.93
908.477	246.7
908.65	283.32
908.823	232.76
908.996	295.53
909.17	248.25
909.343	229.46
909.516	227.72
909.689	253.87
909.862	241.28
910.035	262.2
910.208	234.11
910.381	249.03
910.554	319.17
910.727	254.65
910.9	238.76
911.073	224.04
911.246	292.82
911.419	277.32
911.592	252.9
911.765	228.69
911.938	225.39
912.11	238.76
912.283	237.79
912.456	291.27
912.629	268.4
912.802	242.44
912.974	220.16
913.147	195.75
913.32	170.37
913.493	188.77
913.665	220.94
913.838	228.49
914.01	183.54
914.183	218.03
914.356	181.61
914.528	225.01
914.701	289.91
914.873	254.65
915.046	246.51
915.218	160.1
915.391	167.46
915.563	167.46
915.736	185.87
915.908	236.44
916.081	225.2
916.253	173.47
916.425	205.44
916.598	207.96
916.77	196.14
916.942	202.72
917.115	137.43
917.287	225.01
917.459	201.76
917.632	170.76
917.804	135.69
917.976	201.17
918.148	182.38
918.32	221.13
918.493	203.11
918.665	267.05
918.837	196.14
919.009	262.2
919.181	242.44
919.353	209.12
919.525	200.79
919.697	219.19
919.869	207.57
920.041	274.6
920.213	306.38
920.385	238.76
920.557	233.72
920.729	243.22
920.901	231.98
921.073	246.51
921.244	211.25
921.416	260.27
921.588	189.55
921.76	192.65
921.932	275.77
922.103	214.74
922.275	192.46
922.447	210.86
922.619	172.11
922.79	212.8
922.962	179.47
923.134	229.07
923.305	190.32
923.477	159.91
923.648	157.58
923.82	203.89
923.991	133.56
924.163	147.7
924.335	184.12
924.506	169.59
924.677	237.99
924.849	171.53
925.02	168.24
925.192	208.34
925.363	190.13
925.535	193.62
925.706	139.37
925.877	235.85
926.049	169.01
926.22	196.52
926.391	168.43
926.562	202.72
926.734	181.99
926.905	213.38
927.076	139.76
927.247	163.2
927.419	129.49
927.59	171.53
927.761	182.77
927.932	126
928.103	166.88
928.274	111.86
928.445	102.56
928.616	126
928.787	143.44
928.958	173.27
929.129	160.68
929.3	158.16
929.471	114.18
929.642	84.73
929.813	37.65
929.984	140.73
930.155	63.42
930.326	115.34
930.496	86.48
930.667	45.21
930.838	112.83
931.009	49.28
931.18	63.61
931.35	79.31
931.521	93.45
931.692	54.9
931.863	-9.82
932.033	78.53
932.204	79.11
932.374	65.16
932.545	23.31
932.716	72.53
932.886	61.68
933.057	13.43
933.227	41.91
933.398	92.48
933.568	37.85
933.739	5.88
933.909	24.28
934.08	64.39
934.25	-18.34
934.421	20.41
934.591	40.75
934.761	-7.49
934.932	-7.3
935.102	10.14
935.272	15.37
935.443	-0.32
935.613	12.27
935.783	33
935.953	-17.37
936.123	126.78
936.294	5.49
936.464	6.07
936.634	19.63
936.804	-1.49
936.974	-52.44
937.144	42.3
937.314	28.55
937.484	-7.88
937.655	-15.24
937.825	14.79
937.995	-2.65
938.165	34.36
938.334	-5.55
938.504	20.02
938.674	-15.05
938.844	-0.9
939.014	51.02
939.184	61.48
939.354	91.9
939.524	47.73
939.694	21.96
939.863	2.78
940.033	88.99
940.203	64.78
940.373	54.7
940.542	61.87
940.712	22.73
940.882	83.38
941.051	50.83
941.221	63.81
941.391	39.2
941.56	24.86
941.73	22.15
941.899	121.16
942.069	17.11
942.238	21.76
942.408	40.36
942.577	66.13
942.747	35.91
942.916	6.26
943.086	7.81
943.255	60.13
943.425	60.71
943.594	3.36
943.763	-31.71
943.933	0.45
944.102	-27.64
944.271	16.53
944.441	54.7
944.61	7.23
944.779	0.06
944.948	92.09
945.117	-5.94
945.287	13.43
945.456	-23.57
945.625	15.56
945.794	48.31
945.963	9.17
946.132	53.54
946.301	35.33
946.47	50.44
946.639	-25.32
946.808	-7.3
946.977	18.28
947.146	71.36
947.315	11.69
947.484	62.26
947.653	5.1
947.822	0.26
947.991	-2.65
948.16	102.56
948.329	59.54
948.498	25.64
948.666	33.39
948.835	53.73
949.004	-7.69
949.173	-0.71
949.341	34.55
949.51	23.9
949.679	69.81
949.847	66.52
950.016	115.54
950.185	51.6
950.353	10.53
950.522	-3.23
950.69	78.14
950.859	-0.32
951.028	71.94
951.196	60.51
951.365	32.81
951.533	10.53
951.701	50.44
951.87	60.13
952.038	4.52
952.207	11.11
952.375	100.81
952.543	-10.2
952.712	33.58
952.88	17.7
953.048	62.84
953.217	25.25
953.385	25.83
953.553	84.15
953.721	-21.64
953.89	40.95
954.058	-1.1
954.226	26.8
954.394	26.41
954.562	-15.63
954.73	26.22
954.898	22.15
955.067	55.09
955.235	29.51
955.403	73.88
955.571	94.23
955.739	65.94
955.907	19.83
956.075	4.91
956.243	-10.2
956.41	36.3
956.578	-13.11
956.746	-27.45
956.914	27.19
957.082	16.92
957.25	30.48
957.418	-11.37
957.585	19.25
957.753	61.48
957.921	-17.57
958.089	31.84
958.256	39.59
958.424	45.79
958.592	52.96
958.759	19.83
958.927	45.4
959.095	15.95
959.262	40.17
959.43	35.52
959.597	-19.31
959.765	-0.32
959.932	2.78
960.1	50.44
960.267	29.51
960.435	38.81
960.602	69.81
960.77	11.3
960.937	-0.32
961.104	37.26
961.272	-7.49
961.439	-0.13
961.606	39.01
961.774	60.51
961.941	19.44
962.108	45.79
962.275	32.61
962.443	46.76
962.61	39.01
962.777	82.21
962.944	73.3
963.111	35.33
963.278	76.59
963.446	50.05
963.613	50.05
963.78	46.37
963.947	55.67
964.114	47.92
964.281	104.11
964.448	53.35
964.615	17.31
964.782	64.19
964.949	58.96
965.116	56.25
965.282	91.51
965.449	-3.81
965.616	5.1
965.783	45.01
965.95	53.35
966.117	12.85
966.283	29.13
966.45	63.42
966.617	49.28
966.784	76.4
966.95	58.19
967.117	92.87
967.284	-5.17
967.45	16.92
967.617	61.29
967.784	51.21
967.95	101.39
968.117	29.32
968.283	76.98
968.45	126.19
968.616	63.61
968.783	72.91
968.949	41.14
969.116	80.47
969.282	39.78
969.449	44.05
969.615	52.76
969.781	12.66
969.948	14.6
970.114	2.2
970.28	79.31
970.447	39.78
970.613	83.76
970.779	32.61
970.945	15.56
971.112	58.96
971.278	42.69
971.444	45.79
971.61	81.63
971.776	38.43
971.942	80.66
972.108	70.39
972.275	15.18
972.441	39.2
972.607	123.68
972.773	13.63
972.939	80.66
973.105	40.36
973.271	3.16
973.437	32.03
973.602	30.87
973.768	69.81
973.934	63.81
974.1	56.45
974.266	-16.21
974.432	66.71
974.598	41.14
974.763	52.18
974.929	14.6
975.095	85.12
975.261	27.58
975.426	9.95
975.592	51.02
975.758	124.64
975.923	2.2
976.089	17.7
976.255	82.99
976.42	43.27
976.586	69.62
976.751	94.42
976.917	105.27
977.082	73.69
977.248	-10.01
977.413	-2.45
977.579	37.85
977.744	57.61
977.91	10.72
978.075	6.65
978.24	62.45
978.406	50.05
978.571	23.31
978.736	17.5
978.902	58.58
979.067	-18.34
979.232	-27.64
979.397	48.89
979.563	76.98
979.728	35.52
979.893	25.64
980.058	30.48
980.223	70.01
980.388	43.85
980.554	44.82
980.719	20.21
980.884	39.2
981.049	67.29
981.214	38.04
981.379	64.78
981.544	0.65
981.709	39.59
981.874	30.29
982.039	30.68
982.204	59.93
982.368	26.61
982.533	2.97
982.698	65.55
982.863	72.53
983.028	29.32
983.193	62.64
983.357	45.6
983.522	-2.07
983.687	18.08
983.852	23.9
984.016	26.22
984.181	31.26
984.346	39.98
984.51	45.6
984.675	30.48
984.839	55.28
985.004	47.53
985.168	68.46
985.333	38.23
985.498	30.1
985.662	53.54
985.827	33.39
985.991	28.35
986.155	16.34
986.32	69.81
986.484	89.19
986.649	62.64
986.813	2.78
986.977	24.48
987.142	73.49
987.306	7.62
987.47	28.93
987.634	44.05
987.799	54.9
987.963	43.85
988.127	60.32
988.291	91.32
988.455	26.8
988.62	32.81
988.784	56.06
988.948	71.94
989.112	13.05
989.276	50.05
989.44	23.7
989.604	-3.42
989.768	30.48
989.932	103.33
990.096	2.97
990.26	7.81
990.424	0.26
990.588	47.92
990.752	96.74
990.915	59.74
991.079	30.29
991.243	8.78
991.407	52.96
991.571	26.41
991.734	51.02
991.898	78.14
992.062	101.39
992.226	54.9
992.389	-6.72
992.553	-18.15
992.717	15.37
992.88	33.78
993.044	17.89
993.207	30.68
993.371	73.69
993.535	39.59
993.698	18.66
993.862	70.2
994.025	86.67
994.189	41.33
994.352	54.7
994.515	48.11
994.679	71.75
994.842	51.8
995.006	42.69
995.169	-20.67
995.332	9.95
995.496	61.09
995.659	-22.41
995.822	40.17
995.985	15.37
996.149	74.85
996.312	53.73
996.475	98.88
996.638	13.05
996.801	63.23
996.964	93.26
997.128	47.53
997.291	19.25
997.454	49.08
997.617	-18.92
997.78	55.86
997.943	13.05
998.106	45.4
998.269	2
998.432	28.74
998.595	25.06
998.758	-10.01
998.92	-0.52
999.083	-23.96
999.246	46.18
999.409	8.78
999.572	-11.75
999.735	9.17
999.897	56.06
1000.06	12.46
1000.223	5.1
1000.386	57.8
1000.548	60.9
1000.711	58
1000.874	30.29
1001.036	-18.34
1001.199	55.48
1001.361	3.94
1001.524	38.62
1001.687	59.93
1001.849	-2.45
1002.012	54.7
1002.174	30.29
1002.337	73.49
1002.499	31.06
1002.661	62.45
1002.824	-3.23
1002.986	3.36
1003.149	21.38
1003.311	5.88
1003.473	89.38
1003.636	16.34
1003.798	31.06
1003.96	34.94
1004.123	19.25
1004.285	15.56
1004.447	9.17
1004.609	15.95
1004.771	95.39
1004.933	-9.04
1005.096	1.81
1005.258	-16.6
1005.42	27.19
1005.582	29.13
1005.744	29.9
1005.906	-20.67
1006.068	24.67
1006.23	23.12
1006.392	-16.4
1006.554	1.23
1006.716	59.93
1006.878	33.78
1007.04	-25.32
1007.202	9.95
1007.363	34.75
1007.525	27.96
1007.687	39.2
1007.849	58
1008.011	0.45
1008.172	-11.95
1008.334	-2.45
1008.496	47.92
1008.658	-20.47
1008.819	-16.79
1008.981	-11.56
1009.143	10.91
1009.304	-3.23
1009.466	44.63
1009.627	69.04
1009.789	65.94
1009.95	31.26
1010.112	11.3
1010.273	36.3
1010.435	-3.81
1010.596	19.44
1010.758	-4
1010.919	1.61
1011.081	-31.71
1011.242	20.6
1011.403	46.37
1011.565	33.2
1011.726	35.13
1011.887	-24.54
1012.049	3.55
1012.21	37.07
1012.371	58.77
1012.532	-60
1012.693	19.25
1012.855	-6.33
1013.016	29.71
1013.177	43.27
1013.338	3.94
1013.499	75.24
1013.66	53.73
1013.821	35.33
1013.982	19.05
1014.143	7.62
1014.304	17.7
1014.465	35.52
1014.626	14.21
1014.787	2
1014.948	98.1
1015.109	-46.82
1015.27	49.66
1015.431	-2.84
1015.592	-0.71
1015.752	62.26
1015.913	11.5
1016.074	34.36
1016.235	-18.34
1016.395	-0.13
1016.556	7.43
1016.717	-7.1
1016.877	86.48
1017.038	-11.56
1017.199	13.05
1017.359	-4.39
1017.52	18.86
1017.681	-10.98
1017.841	11.69
1018.002	-15.05
1018.162	-4.39
1018.323	68.65
1018.483	9.75
1018.644	5.1
1018.804	-17.57
1018.964	-38.3
1019.125	-24.54
1019.285	22.15
1019.446	-47.79
1019.606	-24.35
1019.766	3.36
1019.926	32.81
1020.087	39.98
1020.247	-26.48
1020.407	39.59
1020.567	53.35
1020.728	8.4
1020.888	-36.75
1021.048	19.83
1021.208	-10.2
1021.368	-7.3
1021.528	61.29
1021.688	35.13
1021.848	16.15
1022.008	17.7
1022.168	-21.25
1022.328	25.25
1022.488	0.26
1022.648	11.69
1022.808	2.78
1022.968	25.64
1023.128	-6.52
1023.288	2
1023.448	8.78
1023.608	27.38
1023.767	32.42
1023.927	-28.61
1024.087	-15.05
1024.247	-37.72
1024.406	2.2
1024.566	-23.57
1024.726	-31.13
1024.885	1.81
1025.045	47.15
1025.205	-3.62
1025.364	0.06
1025.524	10.14
1025.683	-12.72
1025.843	26.41
1026.003	12.27
1026.162	76.21
1026.321	39.78
1026.481	9.36
1026.64	0.26
1026.8	23.51
1026.959	-3.81
1027.119	16.34
1027.278	2.78
1027.437	-26.67
1027.597	15.18
1027.756	6.46
1027.915	0.84
1028.074	24.67
1028.234	-7.88
1028.393	6.85
1028.552	-18.92
1028.711	-67.94
1028.87	42.69
1029.03	-48.37
1029.189	-3.04
1029.348	-51.67
1029.507	-7.69
1029.666	-2.65
1029.825	-33.65
1029.984	-17.76
1030.143	21.96
1030.302	-18.34
1030.461	-56.32
1030.62	6.26
1030.779	25.25
1030.938	-26.48
1031.097	-36.55
1031.255	12.08
1031.414	16.53
1031.573	50.44
1031.732	-24.93
1031.891	9.75
1032.049	35.33
1032.208	19.25
1032.367	-13.11
1032.525	-14.85
1032.684	9.75
1032.843	22.15
1033.001	-45.85
1033.16	128.52
1033.319	53.15
1033.477	44.82
1033.636	-14.27
1033.794	-22.02
1033.953	32.23
1034.111	40.36
1034.27	-17.37
1034.428	7.62
1034.587	-24.74
1034.745	13.43
1034.903	8.01
1035.062	25.25
1035.22	-27.45
1035.378	39.98
1035.537	-24.54
1035.695	23.12
1035.853	-11.75
1036.011	31.45
1036.17	29.51
1036.328	-35.78
1036.486	6.85
1036.644	-6.91
1036.802	-84.6
1036.96	-10.59
1037.119	2.78
1037.277	-10.2
1037.435	-49.15
1037.593	-8.27
1037.751	-3.62
1037.909	11.3
1038.067	11.3
