Data from oakcork_FLMT105791__245__17-33-16-054.txt Node

Date: Mon Mar 20 17:33:16 GMT 2023
User: antho
Spectrometer: FLMT10579
Trigger mode: 0
Integration Time (sec): 1.000000E-1
Scans to average: 10
Electric dark correction enabled: true
Nonlinearity correction enabled: false
Boxcar width: 0
XAxis mode: Wavelengths
Number of Pixels in Spectrum: 3648
>>>>>Begin Spectral Data<<<<<
345.248	-138.45
345.464	-138.45
345.681	-138.45
345.898	-161.5
346.114	-135.93
346.331	-40.8
346.548	27.98
346.764	-15.61
346.981	1.05
347.197	-21.23
347.414	15
347.631	-8.25
347.847	44.84
348.064	-33.44
348.28	28.76
348.497	-22.78
348.713	24.49
348.93	36.7
349.146	19.46
349.363	-22.98
349.579	51.42
349.796	-4.38
350.012	3.96
350.229	66.54
350.445	9.57
350.661	-23.36
350.878	17.52
351.094	18.68
351.311	30.69
351.527	37.09
351.743	-0.31
351.96	17.91
352.176	34.57
352.392	26.43
352.609	18.1
352.825	-21.62
353.041	17.32
353.257	5.31
353.474	10.35
353.69	35.15
353.906	4.34
354.122	3.37
354.339	53.55
354.555	10.35
354.771	-8.25
354.987	71.77
355.203	58.98
355.42	-11.74
355.636	-22.59
355.852	1.05
356.068	-10.19
356.284	-16
356.5	72.54
356.716	5.89
356.932	15
357.148	47.36
357.364	9.57
357.58	64.4
357.796	70.02
358.012	38.06
358.228	27.4
358.444	-45.64
358.66	54.14
358.876	45.81
359.092	-6.7
359.308	12.67
359.524	22.17
359.74	-3.41
359.956	15
360.172	9.38
360.388	61.5
360.604	-2.05
360.819	86.49
361.035	41.93
361.251	41.74
361.467	10.74
361.683	51.23
361.898	21.78
362.114	29.34
362.33	40.19
362.546	46.77
362.762	20.04
362.977	33.21
363.193	-3.6
363.409	40.96
363.624	15.77
363.84	-0.11
364.056	-6.51
364.271	51.23
364.487	35.15
364.703	0.86
364.918	-3.41
365.134	27.4
365.35	15.19
365.565	119.82
365.781	50.65
365.996	38.06
366.212	96.76
366.427	39.22
366.643	-6.7
366.858	-3.41
367.074	-21.81
367.289	105.67
367.505	94.63
367.72	-14.26
367.936	-0.69
368.151	67.5
368.367	24.49
368.582	25.66
368.798	13.84
369.013	102.57
369.228	33.41
369.444	36.89
369.659	74.87
369.874	48.13
370.09	65.18
370.305	-27.43
370.52	4.34
370.736	87.27
370.951	8.41
371.166	76.61
371.381	77.39
371.597	44.84
371.812	15.39
372.027	12.09
372.242	39.22
372.458	88.24
372.673	9.96
372.888	20.23
373.103	45.03
373.318	98.12
373.533	63.05
373.749	53.36
373.964	-21.62
374.179	59.95
374.394	16.94
374.609	50.84
374.824	11.32
375.039	97.34
375.254	29.53
375.469	83
375.684	32.44
375.899	74.67
376.114	21.59
376.329	45.03
376.544	58.59
376.759	67.31
376.974	25.07
377.189	47.74
377.404	6.47
377.619	54.33
377.834	6.86
378.049	15.39
378.264	6.47
378.478	47.16
378.693	14.03
378.908	46.97
379.123	41.16
379.338	83.39
379.553	61.5
379.767	38.64
379.982	53.55
380.197	57.04
380.412	40.96
380.626	56.07
380.841	106.84
381.056	39.02
381.271	128.54
381.485	15.19
381.7	-0.89
381.915	23.33
382.129	27.98
382.344	44.06
382.559	43.29
382.773	80.29
382.988	2.21
383.202	55.1
383.417	23.91
383.632	127.37
383.846	52.59
384.061	27.98
384.275	28.56
384.49	66.15
384.704	67.12
384.919	66.15
385.133	38.06
385.348	47.16
385.562	-3.99
385.777	105.87
385.991	26.82
386.206	30.5
386.42	-4.18
386.634	94.44
386.849	67.12
387.063	71.38
387.277	52.97
387.492	29.14
387.706	3.96
387.92	38.64
388.135	82.42
388.349	48.13
388.563	51.81
388.778	73.9
388.992	102.77
389.206	68.67
389.42	110.52
389.635	88.04
389.849	73.9
390.063	108.77
390.277	52
390.491	128.34
390.706	78.16
390.92	81.84
391.134	78.35
391.348	128.92
391.562	42.9
391.776	75.25
391.99	48.91
392.205	103.15
392.419	29.92
392.633	31.47
392.847	101.41
393.061	51.62
393.275	98.12
393.489	41.93
393.703	48.52
393.917	96.76
394.131	17.71
394.345	47.36
394.559	103.74
394.773	46.39
394.986	102.77
395.2	59.56
395.414	94.24
395.628	55.49
395.842	94.63
396.056	63.63
396.27	1.05
396.484	86.49
396.697	80.87
396.911	118.85
397.125	86.1
397.339	114.78
397.553	95.99
397.766	120.98
397.98	101.6
398.194	101.41
398.408	74.48
398.621	136.29
398.835	125.82
399.049	108.19
399.262	125.63
399.476	112.07
399.69	126.4
399.903	172.13
400.117	100.64
400.331	142.29
400.544	92.11
400.758	207.78
400.971	135.12
401.185	157.4
401.398	112.65
401.612	161.28
401.826	153.53
402.039	158.37
402.253	114.78
402.466	162.83
402.68	134.54
402.893	146.17
403.106	122.53
403.32	139.77
403.533	154.69
403.747	134.93
403.96	145.97
404.174	157.21
404.387	125.63
404.6	146.94
404.814	174.26
405.027	134.54
405.24	119.24
405.454	117.69
405.667	152.95
405.88	102.57
406.094	142.1
406.307	148.3
406.52	138.03
406.733	108.58
406.947	100.44
407.16	201.19
407.373	177.36
407.586	143.84
407.799	100.44
408.012	160.31
408.226	128.73
408.439	176.39
408.652	110.13
408.865	170
409.078	186.08
409.291	165.35
409.504	104.7
409.717	198.87
409.93	168.06
410.143	162.44
410.357	103.74
410.57	119.43
410.783	124.08
410.996	174.84
411.209	144.42
411.421	212.62
411.634	148.68
411.847	158.95
412.06	173.1
412.273	179.1
412.486	184.53
412.699	258.15
412.912	163.99
413.125	200.03
413.338	159.15
413.55	182.78
413.763	154.3
413.976	199.45
414.189	167.28
414.402	174.84
414.615	217.85
414.827	154.69
415.04	206.42
415.253	199.83
415.466	235.68
415.678	241.68
415.891	186.66
416.104	190.15
416.316	196.35
416.529	150.23
416.742	215.14
416.954	195.18
417.167	219.02
417.38	183.56
417.592	234.9
417.805	152.37
418.017	147.52
418.23	179.3
418.442	155.08
418.655	171.35
418.868	203.9
419.08	217.85
419.293	204.1
419.505	189.76
419.718	203.71
419.93	222.31
420.142	174.45
420.355	232.96
420.567	239.94
420.78	235.87
420.992	213.2
421.205	265.51
421.417	187.43
421.629	189.95
421.842	164.96
422.054	161.86
422.266	238.2
422.479	255.05
422.691	182.98
422.903	238.2
423.115	168.25
423.328	205.26
423.54	227.73
423.752	222.12
423.964	178.91
424.177	225.8
424.389	187.43
424.601	340.69
424.813	214.95
425.025	244.4
425.238	238.2
425.45	221.53
425.662	175.62
425.874	500.72
426.086	211.65
426.298	239.94
426.51	231.61
426.722	227.15
426.934	214.17
427.146	262.22
427.358	195.57
427.57	250.79
427.782	219.4
427.994	209.91
428.206	189.18
428.418	183.37
428.63	238.39
428.842	282.18
429.054	245.17
429.266	263
429.478	189.57
429.69	205.84
429.902	173.48
430.114	235.68
430.325	224.25
430.537	195.96
430.749	211.07
430.961	156.63
431.173	184.33
431.384	219.79
431.596	156.05
431.808	212.82
432.02	219.98
432.231	281.6
432.443	296.71
432.655	263.58
432.867	210.1
433.078	284.89
433.29	302.91
433.502	308.91
433.713	309.11
433.925	273.46
434.136	295.74
434.348	237.42
434.56	199.64
434.771	313.95
434.983	206.03
435.194	242.65
435.406	286.63
435.617	323.83
435.829	318.21
436.04	317.63
436.252	331.97
436.463	350.96
436.675	342.82
436.886	338.36
437.098	303.3
437.309	354.06
437.521	312.98
437.732	317.63
437.943	302.52
438.155	314.34
438.366	254.86
438.578	354.25
438.789	271.71
439	318.21
439.211	276.56
439.423	317.83
439.634	334.1
439.845	332.16
440.057	322.28
440.268	345.73
440.479	295.35
440.69	329.84
440.902	303.1
441.113	295.16
441.324	326.74
441.535	353.28
441.746	391.45
441.957	305.81
442.168	323.83
442.38	356.58
442.591	361.61
442.802	329.64
443.013	343.79
443.224	369.94
443.435	356.58
443.646	331.58
443.857	324.99
444.068	342.63
444.279	362
444.49	433.49
444.701	365.29
444.912	457.32
445.123	396.1
445.334	371.88
445.545	363.94
445.756	361.42
445.967	306.59
446.178	364.13
446.388	402.49
446.599	398.43
446.81	386.41
447.021	346.11
447.232	395.71
447.443	424.77
447.653	374.79
447.864	437.76
448.075	397.07
448.286	405.98
448.496	407.34
448.707	434.46
448.918	404.43
449.129	474.37
449.339	377.69
449.55	413.92
449.761	388.16
449.971	451.51
450.182	382.54
450.393	465.27
450.603	407.14
450.814	486.19
451.024	432.52
451.235	460.04
451.446	488.13
451.656	491.23
451.867	416.25
452.077	443.76
452.288	472.82
452.498	459.46
452.709	438.53
452.919	417.61
453.13	371.49
453.34	459.46
453.55	353.09
453.761	424
453.971	448.22
454.182	483.09
454.392	439.31
454.602	491.23
454.813	448.02
455.023	461.97
455.233	402.11
455.444	462.94
455.654	382.34
455.864	405.59
456.075	445.31
456.285	441.24
456.495	436.4
456.705	450.16
456.916	487.36
457.126	474.57
457.336	457.13
457.546	397.84
457.756	460.04
457.967	479.41
458.177	447.44
458.387	456.74
458.597	426.32
458.807	447.83
459.017	447.83
459.227	448.8
459.437	449.38
459.647	496.65
459.857	476.31
460.068	447.44
460.278	485.03
460.488	468.17
460.698	542.77
460.908	480.19
461.117	459.07
461.327	477.28
461.537	493.75
461.747	496.27
461.957	495.69
462.167	606.51
462.377	531.14
462.587	471.08
462.797	520.49
463.007	487.36
463.216	509.25
463.426	555.75
463.636	532.11
463.846	479.41
464.056	503.82
464.265	539.86
464.475	473.6
464.685	510.02
464.895	534.44
465.104	475.54
465.314	518.16
465.524	485.03
465.733	488.13
465.943	566.99
466.153	601.47
466.362	525.91
466.572	530.37
466.782	528.24
466.991	535.21
467.201	553.62
467.41	494.52
467.62	570.47
467.829	522.23
468.039	559.62
468.249	539.28
468.458	559.24
468.668	591.78
468.877	572.8
469.086	596.05
469.296	582.48
469.505	576.67
469.715	635.18
469.924	567.76
470.134	610.58
470.343	618.72
470.552	558.07
470.762	590.82
470.971	529.2
471.18	616
471.39	585.58
471.599	566.21
471.808	661.53
472.018	597.6
472.227	623.95
472.436	679.75
472.645	634.41
472.855	609.42
473.064	658.24
473.273	639.45
473.482	659.79
473.691	675.48
473.901	659.21
474.11	612.71
474.319	701.83
474.528	685.95
474.737	735.35
474.946	683.04
475.155	723.15
475.364	713.85
475.573	701.45
475.783	709.39
475.992	726.05
476.201	733.8
476.41	710.55
476.619	693.7
476.828	709.2
477.037	687.88
477.245	711.52
477.454	758.21
477.663	715.59
477.872	721.6
478.081	804.52
478.29	720.24
478.499	803.36
478.708	774.49
478.917	826.22
479.125	735.55
479.334	776.43
479.543	759.76
479.752	812.27
479.961	777.2
480.169	841.14
480.378	769.06
480.587	941.5
480.796	841.14
481.004	834.36
481.213	869.81
481.422	855.47
481.63	850.44
481.839	888.99
482.048	943.05
482.256	846.17
482.465	892.48
482.674	911.66
482.882	923.87
483.091	971.53
483.299	874.07
483.508	910.11
483.716	886.28
483.925	915.34
484.134	860.9
484.342	903.72
484.551	926.97
484.759	927.74
484.967	936.46
485.176	949.44
485.384	937.04
485.593	962.81
485.801	946.73
486.01	911.47
486.218	846.95
486.426	797.35
486.635	835.52
486.843	796.38
487.051	867.29
487.26	856.83
487.468	890.35
487.676	925.8
487.885	921.16
488.093	951.96
488.301	970.75
488.509	955.84
488.717	1009.89
488.926	976.57
489.134	957.19
489.342	960.1
489.55	945.37
489.758	995.17
489.967	987.03
490.175	1075.38
490.383	1044.77
490.591	1142.03
490.799	1035.47
491.007	1086.03
491.215	1042.05
491.423	1037.6
491.631	1029.46
491.839	1027.72
492.047	1088.75
492.255	1003.69
492.463	1023.84
492.671	1003.69
492.879	1091.27
493.087	1054.65
493.295	1111.61
493.503	1104.44
493.711	1156.17
493.919	1143.77
494.127	1158.88
494.334	1118
494.542	1059.3
494.75	1113.16
494.958	1119.55
495.166	1145.9
495.374	1159.08
495.581	1168.57
495.789	1155.98
495.997	1187.94
496.205	1087
496.412	1137.76
496.62	1177.68
496.828	1134.86
497.035	1159.46
497.243	1193.76
497.451	1166.44
497.658	1189.11
497.866	1182.52
498.074	1237.35
498.281	1128.08
498.489	1227.66
498.696	1184.85
498.904	1132.53
499.112	1140.86
499.319	1229.99
499.527	1136.6
499.734	1217.39
499.942	1138.35
500.149	1148.81
500.357	1200.54
500.564	1151.91
500.771	1167.8
500.979	1130.4
501.186	1126.72
501.394	1184.46
501.601	1140.09
501.808	1217.78
502.016	1160.05
502.223	1140.28
502.43	1181.55
502.638	1160.24
502.845	1162.76
503.052	1251.49
503.26	1150.36
503.467	1246.84
503.674	1238.51
503.881	1173.22
504.089	1238.32
504.296	1208.09
504.503	1139.51
504.71	1184.07
504.917	1158.5
505.125	1209.06
505.332	1214.49
505.539	1233.09
505.746	1303.61
505.953	1260.99
506.16	1248.2
506.367	1302.06
506.574	1320.27
506.781	1316.98
506.988	1272.03
507.195	1289.08
507.402	1271.84
507.609	1306.52
507.816	1224.37
508.023	1247.04
508.23	1258.47
508.437	1231.15
508.644	1271.45
508.851	1324.73
509.058	1318.72
509.265	1303.61
509.472	1329.57
509.679	1372
509.885	1304.58
510.092	1329.77
510.299	1313.3
510.506	1319.11
510.713	1314.85
510.92	1294.31
511.126	1337.71
511.333	1400.68
511.54	1343.33
511.746	1376.27
511.953	1383.24
512.16	1391.19
512.367	1372.2
512.573	1352.05
512.78	1362.51
512.987	1354.57
513.193	1367.94
513.4	1269.51
513.606	1333.84
513.813	1348.95
514.02	1341.39
514.226	1398.35
514.433	1406.1
514.639	1331.71
514.846	1342.17
515.052	1336.74
515.259	1375.88
515.465	1369.49
515.672	1369.1
515.878	1440.59
516.085	1377.43
516.291	1445.63
516.497	1345.07
516.704	1364.25
516.91	1289.86
517.117	1244.52
517.323	1205.19
517.529	1265.44
517.736	1257.5
517.942	1228.83
518.148	1248.01
518.354	1308.26
518.561	1295.28
518.767	1275.13
518.973	1327.06
519.179	1394.29
519.386	1327.25
519.592	1317.56
519.798	1322.99
520.004	1426.64
520.21	1408.04
520.417	1438.46
520.623	1478.18
520.829	1460.74
521.035	1483.99
521.241	1477.21
521.447	1483.02
521.653	1612.25
521.859	1499.88
522.065	1521
522.271	1584.35
522.477	1535.33
522.683	1605.08
522.889	1512.08
523.095	1530.88
523.301	1530.3
523.507	1507.24
523.713	1558.78
523.919	1514.6
524.125	1561.88
524.331	1569.43
524.537	1668.44
524.742	1619.61
524.948	1647.71
525.154	1654.29
525.36	1707.77
525.566	1602.18
525.772	1680.84
525.977	1600.63
526.183	1660.88
526.389	1665.34
526.595	1596.56
526.8	1623.3
527.006	1542.5
527.212	1496.97
527.417	1464.23
527.623	1450.28
527.829	1537.27
528.034	1593.26
528.24	1588.81
528.446	1593.65
528.651	1675.22
528.857	1677.74
529.062	1720.94
529.268	1708.93
529.473	1701.57
529.679	1700.21
529.884	1780.42
530.09	1717.26
530.295	1781.97
530.501	1766.47
530.706	1695.95
530.912	1680.26
531.117	1752.52
531.323	1781.39
531.528	1804.64
531.733	1820.53
531.939	1762.6
532.144	1794.96
532.35	1792.63
532.555	1795.34
532.76	1775.39
532.966	1802.51
533.171	1754.07
533.376	1739.74
533.581	1689.36
533.787	1746.52
533.992	1749.04
534.197	1764.15
534.402	1769.96
534.607	1794.76
534.813	1868.58
535.018	1792.63
535.223	1801.93
535.428	1814.52
535.633	1877.1
535.838	1873.04
536.043	1844.17
536.249	1952.08
536.454	1869.94
536.659	1907.33
536.864	1874
537.069	1849.79
537.274	1870.32
537.479	1877.69
537.684	1854.05
537.889	1798.83
538.094	1944.92
538.299	1893.57
538.504	1908.88
538.708	1882.14
538.913	1941.62
539.118	1883.69
539.323	1920.31
539.528	1837.77
539.733	1898.61
539.938	1893.96
540.142	1904.23
540.347	1878.85
540.552	1832.35
540.757	1825.76
540.962	1810.45
541.166	1830.99
541.371	1828.47
541.576	1851.92
541.781	1783.91
541.985	1903.26
542.19	1861.22
542.395	1943.95
542.599	1998.97
542.804	1941.43
543.008	1966.23
543.213	1897.25
543.418	1875.94
543.622	1949.57
543.827	1879.24
544.031	1947.24
544.236	1995.1
544.44	1963.52
544.645	2052.06
544.849	1954.99
545.054	1993.74
545.258	2052.06
545.463	2052.83
545.667	1940.46
545.872	2019.7
546.076	1985.6
546.281	1995.87
546.485	1969.72
546.689	1963.52
546.894	1990.25
547.098	1989.86
547.302	1951.89
547.507	1967.58
547.711	2013.31
547.915	2039.85
548.119	1956.93
548.324	1962.93
548.528	1977.46
548.732	1960.61
548.936	2026.48
549.141	2027.65
549.345	1983.86
549.549	2030.94
549.753	2016.6
549.957	2093.91
550.161	2060.2
550.366	2026.1
550.57	1979.6
550.774	2013.5
550.978	2009.63
551.182	2039.46
551.386	2025.32
551.59	2026.29
551.794	1999.55
551.998	2062.52
552.202	2020.28
552.406	1966.23
552.61	2029.58
552.814	2024.74
553.018	2079.38
553.222	2000.52
553.426	2038.69
553.63	2087.71
553.833	2010.79
554.037	1981.15
554.241	2019.9
554.445	2019.31
554.649	2015.25
554.853	2005.95
555.056	2078.21
555.26	2046.63
555.464	2048.57
555.668	2080.73
555.871	2088.87
556.075	2080.54
556.279	2041.79
556.483	1966.62
556.686	2037.33
556.89	2042.95
557.094	2029
557.297	1965.26
557.501	2014.28
557.704	1928.64
557.908	2007.3
558.112	1943.95
558.315	2039.66
558.519	1966.81
558.722	1963.52
558.926	1925.54
559.129	1885.63
559.333	1897.64
559.536	1869.74
559.74	1872.84
559.943	1870.52
560.147	1875.36
560.35	1867.42
560.553	1902.1
560.757	1871.1
560.96	1988.12
561.164	1910.23
561.367	1968.17
561.57	1911.98
561.774	1908.49
561.977	1898.03
562.18	1899.58
562.384	1966.81
562.587	1901.32
562.79	1911.4
562.993	1894.35
563.197	1916.43
563.4	1963.32
563.603	1967.97
563.806	2006.53
564.009	1862.38
564.212	1897.64
564.416	1877.1
564.619	1888.15
564.822	1847.65
565.025	1875.36
565.228	1895.7
565.431	1890.47
565.634	1813.94
565.837	1822.27
566.04	1826.54
566.243	1816.46
566.446	1729.08
566.649	1828.67
566.852	1758.34
567.055	1798.25
567.258	1808.71
567.461	1888.34
567.664	1883.3
567.867	1776.74
568.07	1803.09
568.273	1800.96
568.475	1854.44
568.678	1756.01
568.881	1759.69
569.084	1749.04
569.287	1680.64
569.489	1723.85
569.692	1732.37
569.895	1767.25
570.098	1685.88
570.3	1683.55
570.503	1608.57
570.706	1695.56
570.909	1633.56
571.111	1620
571.314	1621.75
571.516	1638.99
571.719	1643.25
571.922	1615.74
572.124	1629.69
572.327	1657.98
572.529	1605.08
572.732	1656.43
572.935	1650.23
573.137	1719.97
573.34	1627.75
573.542	1685.29
573.745	1673.48
573.947	1660.3
574.15	1626.78
574.352	1630.85
574.554	1702.73
574.757	1647.71
574.959	1579.7
575.162	1601.21
575.364	1619.81
575.566	1681.61
575.769	1618.06
575.971	1616.32
576.173	1485.35
576.376	1573.11
576.578	1601.98
576.78	1627.17
576.982	1528.94
577.185	1557.81
577.387	1533.78
577.589	1545.6
577.791	1587.26
577.993	1599.85
578.196	1579.51
578.398	1587.65
578.6	1590.75
578.802	1491.55
579.004	1509.57
579.206	1490
579.408	1555.87
579.61	1533.01
579.812	1607.8
580.014	1491.16
580.216	1542.89
580.418	1568.27
580.62	1545.6
580.822	1493.48
581.024	1584.55
581.226	1583.38
581.428	1549.28
581.63	1656.23
581.832	1551.61
582.034	1631.04
582.236	1577.18
582.438	1612.25
582.64	1635.89
582.841	1651.58
583.043	1695.18
583.245	1596.95
583.447	1647.13
583.649	1604.7
583.85	1588.42
584.052	1618.84
584.254	1560.13
584.456	1655.46
584.657	1588.23
584.859	1591.13
585.061	1545.6
585.262	1567.3
585.464	1549.28
585.666	1624.65
585.867	1605.08
586.069	1631.43
586.27	1588.03
586.472	1545.02
586.674	1550.06
586.875	1534.75
587.077	1541.73
587.278	1547.73
587.48	1524.48
587.681	1671.15
587.883	1598.3
588.084	1484.38
588.285	1507.05
588.487	1494.26
588.688	1529.91
588.89	1421.41
589.091	1357.47
589.292	1443.11
589.494	1377.43
589.695	1372.59
589.896	1319.89
590.098	1322.6
590.299	1378.2
590.5	1349.72
590.702	1389.83
590.903	1389.64
591.104	1453.18
591.305	1416.57
591.507	1455.32
591.708	1451.25
591.909	1427.8
592.11	1479.15
592.311	1479.34
592.512	1432.45
592.714	1404.17
592.915	1406.1
593.116	1420.05
593.317	1448.92
593.518	1448.15
593.719	1433.42
593.92	1457.25
594.121	1487.28
594.322	1439.62
594.523	1410.37
594.724	1401.45
594.925	1405.52
595.126	1406.1
595.327	1433.62
595.528	1429.94
595.729	1426.06
595.929	1380.53
596.13	1405.52
596.331	1431.49
596.532	1468.88
596.733	1511.12
596.934	1471.4
597.135	1473.14
597.335	1445.82
597.536	1404.36
597.737	1455.7
597.938	1415.4
598.138	1461.13
598.339	1445.24
598.54	1435.75
598.74	1419.86
598.941	1438.85
599.142	1483.22
599.342	1443.11
599.543	1421.8
599.744	1433.81
599.944	1412.5
600.145	1468.1
600.345	1421.02
600.546	1498.91
600.746	1502.4
600.947	1551.61
601.147	1449.5
601.348	1491.93
601.548	1415.21
601.749	1428.97
601.949	1405.14
602.15	1422.19
602.35	1430.9
602.551	1454.54
602.751	1374.52
602.951	1412.3
603.152	1368.9
603.352	1419.28
603.552	1440.2
603.753	1480.31
603.953	1480.31
604.153	1456.87
604.354	1435.36
604.554	1419.67
604.754	1445.05
604.954	1379.17
605.155	1440.98
605.355	1424.9
605.555	1455.32
605.755	1451.25
605.955	1431.1
606.155	1464.03
606.356	1442.34
606.556	1467.52
606.756	1462.48
606.956	1413.08
607.156	1473.33
607.356	1391.19
607.556	1427.22
607.756	1437.49
607.956	1471.4
608.156	1443.3
608.356	1408.04
608.556	1428.39
608.756	1412.5
608.956	1399.52
609.156	1411.14
609.356	1410.95
609.556	1366
609.755	1402.81
609.955	1404.55
610.155	1402.62
610.355	1417.15
610.555	1395.64
610.755	1409.4
610.954	1331.51
611.154	1370.26
611.354	1419.28
611.554	1360.57
611.753	1397.77
611.953	1332.09
612.153	1391.77
612.352	1398.16
612.552	1344.11
612.752	1294.7
612.951	1374.52
613.151	1395.64
613.351	1327.64
613.55	1341.01
613.75	1348.17
613.949	1303.03
614.149	1345.27
614.348	1357.28
614.548	1294.51
614.747	1286.17
614.947	1308.26
615.146	1263.51
615.346	1364.45
615.545	1363.48
615.745	1332.09
615.944	1365.61
616.144	1338.49
616.343	1309.42
616.542	1304.58
616.742	1305.94
616.941	1316.79
617.14	1257.31
617.34	1317.17
617.539	1312.52
617.738	1284.24
617.938	1347.21
618.137	1309.23
618.336	1279.01
618.535	1340.81
618.734	1297.61
618.934	1308.26
619.133	1327.44
619.332	1328.22
619.531	1286.56
619.73	1293.15
619.929	1317.76
620.128	1324.15
620.328	1355.92
620.527	1270.48
620.726	1310.39
620.925	1321.63
621.124	1307.87
621.323	1288.5
621.522	1231.54
621.721	1268.74
621.92	1235.8
622.119	1305.74
622.318	1266.22
622.517	1287.53
622.715	1272.42
622.914	1232.89
623.113	1261.76
623.312	1184.85
623.511	1302.26
623.71	1270.29
623.909	1236.19
624.107	1283.27
624.306	1226.5
624.505	1216.43
624.704	1228.83
624.902	1238.51
625.101	1261.18
625.3	1220.49
625.499	1194.92
625.697	1189.11
625.896	1211.58
626.095	1235.03
626.293	1171.09
626.492	1174.38
626.69	1241.03
626.889	1206.93
627.088	1238.9
627.286	1183.49
627.485	1152.68
627.683	1166.44
627.882	1173.03
628.08	1111.41
628.279	1129.82
628.477	1216.43
628.676	1132.34
628.874	1182.71
629.073	1143.77
629.271	1112.96
629.469	1133.7
629.668	1120.52
629.866	1147.26
630.065	1125.36
630.263	1154.04
630.461	1108.12
630.66	1130.21
630.858	1160.63
631.056	1190.27
631.254	1177.1
631.453	1116.65
631.651	1193.76
631.849	1157.14
632.047	1164.5
632.245	1143.19
632.444	1174.77
632.642	1152.3
632.84	1182.33
633.038	1144.74
633.236	1099.6
633.434	1147.65
633.632	1135.83
633.83	1114.71
634.028	1185.81
634.227	1152.3
634.425	1201.89
634.623	1137.57
634.821	1180.78
635.019	1180.97
635.216	1183.88
635.414	1214.1
635.612	1165.66
635.81	1150.75
636.008	1211.39
636.206	1166.63
636.404	1193.37
636.602	1147.26
636.8	1162.37
636.997	1200.73
637.195	1188.53
637.393	1196.47
637.591	1247.43
637.789	1188.33
637.986	1160.63
638.184	1211.39
638.382	1216.62
638.58	1207.32
638.777	1250.91
638.975	1185.62
639.173	1217.39
639.37	1173.03
639.568	1195.31
639.765	1201.31
639.963	1165.86
640.161	1191.43
640.358	1219.14
640.556	1162.37
640.753	1152.49
640.951	1141.45
641.148	1184.65
641.346	1119.94
641.543	1158.11
641.741	1176.13
641.938	1110.83
642.136	1152.68
642.333	1135.25
642.531	1192.4
642.728	1199.76
642.925	1138.35
643.123	1111.03
643.32	1188.91
643.517	1156.75
643.715	1148.23
643.912	1127.3
644.109	1162.76
644.306	1161.6
644.504	1076.54
644.701	1147.06
644.898	1159.46
645.095	1085.65
645.293	1143.77
645.49	1187.56
645.687	1143.96
645.884	1146.29
646.081	1069.18
646.278	1114.32
646.475	1085.45
646.672	1059.68
646.87	1129.05
647.067	1094.17
647.264	1095.14
647.461	1039.73
647.658	1029.65
647.855	1089.13
648.052	1067.63
648.249	1012.6
648.446	1058.52
648.642	1037.98
648.839	1030.04
649.036	1025.2
649.233	1052.71
649.43	998.85
649.627	995.75
649.824	1028.68
650.021	992.65
650.217	1024.03
650.414	1031.4
650.611	1037.6
650.808	1049.03
651.004	1070.92
651.201	1082.74
651.398	1117.81
651.595	1064.33
651.791	1003.5
651.988	1080.22
652.185	1031.01
652.381	1071.5
652.578	994.39
652.775	1082.74
652.971	1050.77
653.168	1019.19
653.364	1075.77
653.561	981.99
653.757	1016.28
653.954	1040.12
654.15	1036.63
654.347	1089.72
654.543	1058.72
654.74	993.23
654.936	976.95
655.133	1024.42
655.329	1013.38
655.525	1018.61
655.722	1051.16
655.918	967.27
656.115	977.15
656.311	888.61
656.507	882.79
656.704	838.04
656.9	890.35
657.096	903.91
657.292	880.27
657.489	946.73
657.685	930.84
657.881	954.29
658.077	912.44
658.273	934.33
658.47	1049.42
658.666	943.44
658.862	994
659.058	966.49
659.254	1037.02
659.45	1008.15
659.646	1032.75
659.842	968.24
660.038	1023.84
660.234	980.05
660.43	986.25
660.626	1054.26
660.822	1028.1
661.018	1052.9
661.214	1006.21
661.41	998.85
661.606	1039.73
661.802	1042.63
661.998	968.24
662.194	992.07
662.39	1029.46
662.586	1022.68
662.781	1028.3
662.977	1038.95
663.173	1000.2
663.369	1023.84
663.564	1011.64
663.76	1027.13
663.956	995.55
664.152	1034.5
664.347	929.49
664.543	965.72
664.739	1007.37
664.934	918.25
665.13	913.41
665.326	1008.34
665.521	1012.99
665.717	946.54
665.912	945.18
666.108	910.69
666.304	952.15
666.499	963.39
666.695	884.73
666.89	969.01
667.086	997.69
667.281	977.54
667.477	1042.83
667.672	971.72
667.867	982.19
668.063	989.55
668.258	940.92
668.454	975.79
668.649	1028.49
668.844	968.04
669.04	1032.75
669.235	971.14
669.43	973.08
669.626	923.29
669.821	960.49
670.016	911.66
670.211	972.69
670.407	926.97
670.602	982.57
670.797	965.72
670.992	990.52
671.187	938.4
671.382	986.84
671.578	935.3
671.773	945.37
671.968	885.51
672.163	953.7
672.358	967.07
672.553	945.76
672.748	931.81
672.943	1002.72
673.138	913.41
673.333	952.54
673.528	909.14
673.723	976.57
673.918	924.84
674.113	900.81
674.308	1014.35
674.503	941.89
674.698	968.24
674.892	918.06
675.087	952.15
675.282	931.62
675.477	891.32
675.672	962.04
675.867	919.8
676.061	935.1
676.256	879.5
676.451	901.59
676.646	929.29
676.84	908.56
677.035	893.06
677.23	884.34
677.424	935.69
677.619	982.96
677.814	987.22
678.008	956.03
678.203	915.92
678.397	891.51
678.592	936.07
678.787	973.47
678.981	907.59
679.176	932.59
679.37	879.5
679.565	911.66
679.759	939.37
679.954	919.8
680.148	947.7
680.342	940.53
680.537	935.49
680.731	933.17
680.926	948.28
681.12	937.04
681.314	886.67
681.509	908.37
681.703	931.62
681.897	912.24
682.092	895
682.286	879.5
682.48	983.93
682.674	923.87
682.869	919.02
683.063	885.31
683.257	942.27
683.451	852.18
683.645	884.15
683.839	894.22
684.034	864
684.228	910.69
684.422	830.09
684.616	863.42
684.81	926.39
685.004	882.21
685.198	876.98
685.392	925.42
685.586	869.23
685.78	858.77
685.974	875.43
686.168	899.46
686.362	901.59
686.556	785.73
686.75	761.51
686.944	742.33
687.138	706.87
687.331	643.9
687.525	668.7
687.719	609.8
687.913	651.07
688.107	665.8
688.301	642.35
688.494	695.05
688.688	669.86
688.882	647
689.076	599.73
689.269	652.82
689.463	735.55
689.657	679.55
689.85	684.2
690.044	694.08
690.238	672
690.431	678.58
690.625	691.95
690.818	708.61
691.012	727.02
691.205	750.27
691.399	721.79
691.593	783.01
691.786	797.16
691.98	829.51
692.173	851.99
692.366	819.83
692.56	847.53
692.753	859.35
692.947	764.03
693.14	855.67
693.333	847.14
693.527	785.14
693.72	844.62
693.914	809.94
694.107	826.99
694.3	805.68
694.493	812.85
694.687	898.1
694.88	805.88
695.073	860.51
695.266	870.78
695.46	855.47
695.653	902.17
695.846	886.47
696.039	847.14
696.232	850.63
696.425	925.42
696.618	941.89
696.812	917.47
697.005	975.79
697.198	1033.53
697.391	981.6
697.584	982.57
697.777	1018.22
697.97	1014.35
698.163	1028.88
698.356	998.65
698.549	1089.52
698.742	1051.16
698.935	998.07
699.127	1007.37
699.32	1020.35
699.513	1019
699.706	1024.62
699.899	1057.75
700.092	1021.71
700.285	1068.98
700.477	1000.59
700.67	1055.42
700.863	1084.1
701.056	1151.52
701.248	1137.38
701.441	1143
701.634	1118.2
701.826	1155.01
702.019	1094.17
702.212	1148.81
702.404	1116.65
702.597	1091.85
702.79	1154.04
702.982	1129.43
703.175	1206.54
703.367	1211.39
703.56	1226.69
703.752	1275.71
703.945	1266.99
704.137	1257.31
704.33	1297.02
704.522	1299.54
704.715	1313.49
704.907	1327.64
705.1	1374.52
705.292	1346.43
705.484	1346.43
705.677	1378.01
705.869	1403.2
706.061	1425.87
706.254	1450.08
706.446	1383.44
706.638	1414.05
706.831	1508.98
707.023	1471.98
707.215	1543.08
707.407	1542.31
707.599	1538.82
707.792	1528.75
707.984	1558.39
708.176	1594.43
708.368	1544.25
708.56	1567.88
708.752	1572.92
708.944	1578.35
709.136	1648.48
709.329	1618.45
709.521	1709.71
709.713	1685.49
709.905	1658.94
710.097	1738.96
710.289	1642.28
710.481	1697.69
710.672	1726.76
710.864	1734.7
711.056	1781.01
711.248	1828.09
711.44	1813.94
711.632	1804.64
711.824	1835.06
712.016	1846.88
712.207	1847.85
712.399	1848.62
712.591	1926.7
712.783	1900.55
712.975	1895.12
713.166	1891.83
713.358	1926.7
713.55	1964.48
713.741	1955.38
713.933	1960.61
714.125	1952.47
714.316	1937.75
714.508	1997.42
714.7	1999.55
714.891	2046.63
715.083	2048.57
715.274	2032.49
715.466	2029.2
715.657	2081.12
715.849	2010.4
716.04	2072.01
716.232	1979.4
716.423	2013.7
716.615	1975.14
716.806	1942.98
716.998	1915.85
717.189	1832.15
717.381	1755.04
717.572	1711.84
717.763	1751.17
717.955	1753.88
718.146	1698.66
718.337	1650.03
718.528	1635.5
718.72	1564.78
718.911	1604.5
719.102	1600.43
719.293	1639.96
719.485	1624.46
719.676	1598.88
719.867	1585.71
720.058	1581.83
720.249	1602.56
720.44	1654.49
720.632	1663.4
720.823	1728.31
721.014	1832.93
721.205	1876.52
721.396	1926.7
721.587	2037.14
721.778	2095.07
721.969	2101.46
722.16	2189.04
722.351	2166.17
722.542	2318.46
722.733	2301.6
722.924	2237.28
723.115	2288.04
723.305	2247.35
723.496	2290.17
723.687	2121.42
723.878	2157.26
724.069	2135.18
724.26	2174.7
724.45	2098.94
724.641	2099.33
724.832	2133.04
725.023	2155.13
725.213	2115.61
725.404	2098.36
725.595	2094.49
725.785	2115.03
725.976	2157.65
726.167	2179.74
726.357	2171.6
726.548	2282.23
726.739	2201.82
726.929	2289.98
727.12	2312.45
727.31	2322.92
727.501	2292.89
727.691	2308.97
727.882	2313.81
728.072	2335.32
728.263	2356.43
728.453	2429.09
728.644	2423.66
728.834	2391.12
729.024	2377.17
729.215	2375.42
729.405	2406.03
729.596	2498.06
729.786	2503.1
729.976	2539.91
730.167	2514.53
730.357	2476.17
730.547	2502.91
730.737	2529.06
730.928	2543.59
731.118	2621.67
731.308	2597.07
731.498	2584.86
731.688	2688.71
731.879	2686.97
732.069	2717.39
732.259	2777.45
732.449	2808.45
732.639	2891.76
732.829	2924.5
733.019	2947.94
733.209	3021.38
733.399	3052.18
733.589	3122.7
733.779	3134.14
733.969	3136.27
734.159	3225.78
734.349	3286.61
734.539	3292.43
734.729	3282.35
734.919	3331.56
735.109	3413.91
735.299	3299.79
735.488	3349.78
735.678	3356.36
735.868	3400.73
736.058	3334.86
736.248	3335.25
736.437	3344.16
736.627	3314.13
736.817	3427.47
737.007	3352.49
737.196	3467.77
737.386	3458.28
737.576	3441.23
737.765	3529.77
737.955	3443.36
738.144	3568.13
738.334	3509.23
738.524	3438.51
738.713	3520.47
738.903	3527.83
739.092	3550.3
739.282	3565.61
739.471	3603.39
739.661	3573.17
739.85	3631.1
740.04	3621.02
740.229	3671.01
740.419	3712.08
740.608	3698.33
740.797	3678.37
740.987	3730.1
741.176	3738.43
741.365	3708.98
741.555	3703.17
741.744	3790.94
741.933	3755.29
742.123	3766.33
742.312	3800.82
742.501	3826.59
742.69	3806.63
742.88	3805.28
743.069	3957.56
743.258	3859.33
743.447	3884.91
743.636	3906.41
743.825	3859.53
744.014	3902.54
744.204	3917.84
744.393	3888.39
744.582	3969.96
744.771	3958.53
744.96	3883.55
745.149	3964.73
745.338	3875.99
745.527	3963.76
745.716	3910.87
745.905	3893.43
746.094	3988.75
746.283	3986.24
746.471	3937.99
746.66	3961.05
746.849	3981.97
747.038	4029.83
747.227	3950.2
747.416	3981.97
747.604	3963.96
747.793	3967.64
747.982	4001.15
748.171	4034.09
748.359	4000.38
748.548	3992.63
748.737	3978.1
748.926	3962.21
749.114	3860.49
749.303	3995.73
749.491	3954.07
749.68	3966.09
749.869	3985.85
750.057	3918.42
750.246	3894.98
750.434	3921.72
750.623	3882
750.811	3943.03
751	3952.52
751.188	3935.47
751.377	3934.7
751.565	3890.91
751.754	3958.34
751.942	3901.37
752.131	3968.22
752.319	3898.27
752.507	3874.06
752.696	3929.66
752.884	3951.17
753.072	3887.23
753.261	3937.02
753.449	3946.13
753.637	3886.26
753.825	3945.74
754.014	3902.34
754.202	3890.91
754.39	3949.62
754.578	3940.32
754.766	3869.6
754.955	3809.15
755.143	3938.77
755.331	3841.31
755.519	3877.54
755.707	3891.69
755.895	3833.18
756.083	3869.6
756.271	3781.83
756.459	3870.76
756.647	3884.52
756.835	3794.23
757.023	3829.11
757.211	3816.51
757.399	3798.69
757.587	3799.08
757.775	3670.23
757.963	3736.5
758.151	3766.14
758.339	3701.43
758.526	3717.7
758.714	3693.29
758.902	3613.08
759.09	3473
759.278	3279.06
759.465	2998.9
759.653	2633.69
759.841	2371.35
760.028	2018.93
760.216	1731.6
760.404	1619.61
760.591	1307.1
760.779	1143
760.967	974.63
761.154	828.74
761.342	895
761.529	829.51
761.717	898.87
761.905	921.35
762.092	943.05
762.28	894.03
762.467	871.75
762.655	833.39
762.842	864.97
763.029	894.42
763.217	877.56
763.404	887.83
763.592	888.99
763.779	857.99
763.966	909.72
764.154	938.98
764.341	1018.8
764.528	1002.14
764.716	1094.37
764.903	1166.44
765.09	1240.64
765.277	1279.39
765.465	1480.31
765.652	1501.82
765.839	1575.25
766.026	1771.32
766.213	1798.44
766.4	1899.38
766.588	2113.86
766.775	2129.75
766.962	2273.51
767.149	2381.43
767.336	2517.63
767.523	2517.63
767.71	2639.31
767.897	2791.4
768.084	2805.35
768.271	2896.99
768.458	2952.4
768.645	3045.59
768.832	3010.53
769.019	3033.77
769.206	3121.93
769.392	3187.8
769.579	3263.17
769.766	3228.68
769.953	3213.38
770.14	3330.21
770.327	3252.9
770.513	3306.76
770.7	3380.58
770.887	3293.01
771.073	3367.6
771.26	3376.13
771.447	3315.1
771.634	3298.05
771.82	3423.01
772.007	3335.83
772.193	3362.95
772.38	3331.37
772.567	3335.83
772.753	3363.92
772.94	3413.13
773.126	3406.93
773.313	3410.03
773.499	3348.23
773.686	3470.09
773.872	3328.85
774.059	3387.94
774.245	3307.35
774.432	3331.18
774.618	3297.27
774.804	3341.45
774.991	3305.21
775.177	3339.12
775.363	3339.31
775.55	3329.82
775.736	3298.63
775.922	3280.61
776.109	3342.41
776.295	3320.33
776.481	3301.73
776.667	3303.86
776.853	3288.94
777.04	3250
777.226	3267.24
777.412	3360.43
777.598	3257.94
777.784	3239.53
777.97	3213.77
778.156	3275.77
778.342	3227.52
778.528	3189.16
778.715	3172.11
778.901	3151.96
779.087	3230.23
779.272	3199.62
779.458	3170.37
779.644	3212.6
779.83	3132.78
780.016	3265.3
780.202	3149.83
780.388	3149.64
780.574	3082.41
780.76	3140.53
780.946	3149.25
781.131	3144.4
781.317	3064.19
781.503	3106.04
781.689	3113.4
781.874	3202.14
782.06	3078.14
782.246	3126.77
782.432	3098.49
782.617	3126.19
782.803	3128.52
782.989	3050.05
783.174	3041.52
783.36	3033
783.545	3049.08
783.731	3033.19
783.916	2942.91
784.102	3028.35
784.288	3001.61
784.473	3038.23
784.659	2964.41
784.844	3024.09
785.029	2980.69
785.215	2945.81
785.4	2931.09
785.586	3032.42
785.771	2917.14
785.956	2951.24
786.142	2971.78
786.327	2954.92
786.512	2952.98
786.698	2879.94
786.883	2834.41
787.068	2874.9
787.254	2882.07
787.439	2866.96
787.624	2838.28
787.809	2829.37
787.994	2828.98
788.18	2865.41
788.365	2770.47
788.55	2782.29
788.735	2762.53
788.92	2817.17
789.105	2771.63
789.29	2812.9
789.475	2731.14
789.66	2766.98
789.845	2724.17
790.03	2656.36
790.215	2765.43
790.4	2745.67
790.585	2737.92
790.77	2710.99
790.955	2690.84
791.14	2705.76
791.325	2768.53
791.51	2646.28
791.695	2695.3
791.879	2702.47
792.064	2638.53
792.249	2718.35
792.434	2668.37
792.618	2682.51
792.803	2751.87
792.988	2679.8
793.173	2704.6
793.357	2721.84
793.542	2663.33
793.727	2684.25
793.911	2761.37
794.096	2697.43
794.281	2720.68
794.465	2815.03
794.65	2708.86
794.834	2797.21
795.019	2781.32
795.203	2778.42
795.388	2739.09
795.572	2771.83
795.757	2737.34
795.941	2710.02
796.126	2736.18
796.31	2667.4
796.494	2690.07
796.679	2680.57
796.863	2638.34
797.048	2776.67
797.232	2723.39
797.416	2701.89
797.601	2729.01
797.785	2767.76
797.969	2806.32
798.153	2721.84
798.338	2761.75
798.522	2796.43
798.706	2823.95
798.89	2797.6
799.074	2879.16
799.258	2787.13
799.443	2755.17
799.627	2810.77
799.811	2799.73
799.995	2735.79
800.179	2703.24
800.363	2752.26
800.547	2765.43
800.731	2790.23
800.915	2660.23
801.099	2724.36
801.283	2677.09
801.467	2738.5
801.651	2717.97
801.835	2766.6
802.019	2748
802.202	2754.97
802.386	2713.9
802.57	2689.1
802.754	2725.52
802.938	2660.42
803.121	2709.64
803.305	2747.8
803.489	2729.4
803.673	2703.44
803.856	2722.81
804.04	2707.12
804.224	2739.86
804.407	2694.91
804.591	2686.77
804.775	2737.92
804.958	2702.66
805.142	2832.28
805.326	2731.92
805.509	2755.55
805.693	2803.8
805.876	2790.82
806.06	2748.77
806.243	2768.92
806.427	2854.36
806.61	2843.52
806.794	2792.37
806.977	2783.84
807.16	2747.03
807.344	2760.78
807.527	2739.28
807.71	2766.4
807.894	2748
808.077	2781.32
808.26	2726.88
808.444	2725.72
808.627	2822.4
808.81	2681.15
808.993	2637.76
809.177	2635.62
809.36	2635.62
809.543	2649.19
809.726	2582.15
809.909	2545.92
810.092	2589.9
810.276	2587.38
810.459	2555.99
810.642	2577.89
810.825	2539.14
811.008	2540.11
811.191	2423.86
811.374	2423.66
811.557	2479.66
811.74	2506.78
811.923	2402.16
812.106	2364.77
812.289	2367.67
812.472	2349.65
812.654	2364.96
812.837	2337.83
813.02	2259.17
813.203	2213.06
813.386	2137.31
813.569	2169.47
813.751	2074.73
813.934	2131.11
814.117	2055.74
814.3	2004.4
814.482	1972.04
814.665	1932.52
814.848	1881.17
815.03	1843.39
815.213	1851.34
815.396	1799.6
815.578	1812.39
815.761	1762.79
815.943	1831.19
816.126	1729.27
816.309	1686.07
816.491	1648.68
816.674	1597.14
816.856	1667.86
817.039	1639.38
817.221	1724.82
817.403	1671.93
817.586	1697.89
817.768	1668.24
817.951	1589.97
818.133	1580.09
818.315	1629.3
818.498	1693.24
818.68	1712.03
818.862	1674.44
819.045	1757.76
819.227	1673.86
819.409	1666.5
819.591	1733.34
819.774	1676.19
819.956	1679.29
820.138	1759.5
820.32	1745.74
820.502	1786.82
820.684	1886.02
820.866	1853.85
821.048	1900.74
821.231	1951.7
821.413	1922.25
821.595	1872.07
821.777	1938.72
821.959	1916.05
822.141	1956.54
822.323	1844.75
822.505	1736.64
822.686	1695.56
822.868	1623.49
823.05	1522.74
823.232	1475.08
823.414	1440.59
823.596	1480.31
823.778	1493.87
823.96	1517.9
824.141	1554.51
824.323	1552.58
824.505	1632.01
824.687	1707.96
824.868	1750.39
825.05	1839.13
825.232	1891.25
825.413	1915.66
825.595	1894.93
825.777	1809.1
825.958	1836.8
826.14	1859.28
826.321	1877.3
826.503	1882.53
826.685	1878.85
826.866	1935.23
827.048	1882.14
827.229	1820.92
827.411	1801.93
827.592	1771.9
827.773	1730.05
827.955	1695.56
828.136	1723.46
828.318	1676.58
828.499	1724.24
828.68	1654.29
828.862	1681.23
829.043	1683.94
829.224	1658.94
829.406	1635.5
829.587	1652.74
829.768	1675.99
829.949	1673.86
830.131	1698.08
830.312	1758.14
830.493	1685.29
830.674	1711.06
830.855	1651.39
831.036	1669.02
831.218	1742.84
831.399	1787.59
831.58	1686.26
831.761	1723.07
831.942	1706.41
832.123	1685.68
832.304	1639.57
832.485	1670.96
832.666	1659.14
832.847	1708.54
833.028	1656.23
833.209	1710.09
833.389	1654.29
833.57	1634.34
833.751	1651.58
833.932	1727.92
834.113	1684.52
834.294	1674.44
834.475	1704.48
834.655	1733.92
834.836	1715.71
835.017	1726.37
835.198	1688.78
835.378	1681.61
835.559	1759.5
835.74	1732.18
835.92	1661.08
836.101	1677.74
836.281	1748.26
836.462	1725.79
836.643	1781.59
836.823	1751.56
837.004	1777.91
837.184	1815.3
837.365	1794.96
837.545	1826.92
837.726	1719.78
837.906	1805.8
838.087	1754.46
838.267	1795.73
838.448	1733.92
838.628	1742.06
838.808	1743.22
838.989	1769.19
839.169	1754.46
839.349	1791.08
839.53	1777.32
839.71	1817.43
839.89	1789.14
840.07	1811.23
840.251	1761.05
840.431	1801.93
840.611	1737.22
840.791	1765.31
840.971	1764.54
841.151	1761.24
841.332	1729.08
841.512	1785.85
841.692	1716.87
841.872	1762.41
842.052	1747.68
842.232	1798.44
842.412	1709.51
842.592	1721.72
842.772	1743.22
842.952	1755.43
843.132	1740.71
843.312	1697.11
843.492	1701.96
843.672	1802.9
843.851	1681.42
844.031	1723.46
844.211	1690.91
844.391	1691.49
844.571	1732.18
844.751	1732.18
844.93	1719.59
845.11	1679.09
845.29	1707.96
845.47	1725.59
845.649	1718.42
845.829	1739.54
846.009	1683.94
846.188	1721.91
846.368	1688.2
846.547	1715.52
846.727	1753.3
846.907	1642.86
847.086	1716.29
847.266	1730.24
847.445	1682.58
847.625	1666.89
847.804	1645.58
847.984	1694.79
848.163	1688.78
848.343	1668.24
848.522	1682
848.701	1703.31
848.881	1640.93
849.06	1670.96
849.239	1668.83
849.419	1651.39
849.598	1585.51
849.777	1562.26
849.957	1570.4
850.136	1521.77
850.315	1534.75
850.494	1521.19
850.674	1529.52
850.853	1557.03
851.032	1525.65
851.211	1573.89
851.39	1524.29
851.569	1537.08
851.748	1496
851.927	1565.36
852.107	1560.33
852.286	1518.87
852.465	1524.1
852.644	1570.79
852.823	1537.85
853.002	1522.35
853.181	1526.03
853.359	1566.72
853.538	1520.03
853.717	1542.31
853.896	1438.46
854.075	1378.98
854.254	1376.46
854.433	1292.76
854.611	1368.32
854.79	1294.51
854.969	1370.07
855.148	1378.2
855.327	1359.22
855.505	1378.59
855.684	1395.06
855.863	1429.55
856.041	1383.44
856.22	1443.89
856.399	1417.73
856.577	1509.76
856.756	1431.87
856.934	1586.68
857.113	1575.05
857.291	1477.79
857.47	1431.1
857.648	1494.65
857.827	1494.65
858.005	1550.45
858.184	1468.68
858.362	1505.88
858.541	1480.5
858.719	1492.9
858.898	1466.55
859.076	1471.59
859.254	1519.06
859.433	1490.77
859.611	1453.77
859.789	1420.83
859.967	1470.04
860.146	1487.28
860.324	1437.49
860.502	1430.71
860.68	1373.36
860.859	1415.21
861.037	1412.3
861.215	1403
861.393	1448.73
861.571	1425.09
861.749	1416.95
861.927	1408.62
862.105	1428.39
862.283	1362.12
862.461	1393.32
862.639	1392.93
862.817	1397.58
862.995	1380.72
863.173	1367.74
863.351	1391.38
863.529	1386.15
863.707	1415.79
863.885	1409.98
864.063	1314.27
864.241	1371.42
864.418	1430.13
864.596	1363.29
864.774	1318.53
864.952	1342.94
865.129	1384.4
865.307	1315.82
865.485	1326.09
865.663	1360.96
865.84	1256.92
866.018	1278.62
866.196	1160.05
866.373	1182.91
866.551	1166.25
866.728	1116.65
866.906	1190.27
867.084	1182.33
867.261	1248.59
867.439	1249.75
867.616	1265.25
867.794	1231.54
867.971	1269.71
868.149	1259.24
868.326	1310.97
868.503	1273.19
868.681	1266.99
868.858	1232.7
869.035	1205.77
869.213	1262.54
869.39	1208.87
869.567	1339.46
869.745	1215.65
869.922	1225.53
870.099	1275.52
870.276	1286.17
870.454	1249.75
870.631	1253.63
870.808	1264.09
870.985	1290.63
871.162	1323.57
871.339	1273.19
871.517	1219.53
871.694	1236.58
871.871	1248.39
872.048	1234.83
872.225	1258.28
872.402	1235.41
872.579	1185.43
872.756	1267.58
872.933	1189.3
873.11	1227.47
873.287	1248.78
873.463	1191.24
873.64	1147.45
873.817	1191.63
873.994	1189.69
874.171	1167.99
874.348	1215.46
874.524	1124.01
874.701	1167.21
874.878	1093.01
875.055	1177.1
875.231	1186.78
875.408	1192.59
875.585	1101.92
875.762	1151.33
875.938	1159.66
876.115	1138.54
876.291	1143
876.468	1119.36
876.645	1102.89
876.821	1161.01
876.998	1128.27
877.174	1167.41
877.351	1140.86
877.527	1087.97
877.704	1135.63
877.88	1121.88
878.057	1116.45
878.233	1163.92
878.409	1111.22
878.586	1107.15
878.762	1098.24
878.938	1143.58
879.115	1062.01
879.291	1113.74
879.467	1047.09
879.644	1054.26
879.82	1090.88
879.996	1078.28
880.172	1049.61
880.349	1074.6
880.525	1082.35
880.701	1043.8
880.877	1040.5
881.053	1086.03
881.229	1032.75
881.405	1097.85
881.581	1051.74
881.757	1042.83
881.933	1090.68
882.109	1121.88
882.285	1063.56
882.461	1007.95
882.637	1067.05
882.813	1006.21
882.989	1063.56
883.165	1088.94
883.341	1042.83
883.517	1076.93
883.693	1066.47
883.869	1082.55
884.044	1047.09
884.22	1100.18
884.396	1108.51
884.572	1064.92
884.747	1098.24
884.923	1077.9
885.099	1098.82
885.275	1051.35
885.45	1037.6
885.626	1037.02
885.801	1017.45
885.977	1042.05
886.153	1009.31
886.328	1063.17
886.504	1018.22
886.679	1047.87
886.855	1031.01
887.03	1048.06
887.206	1084.48
887.381	1051.93
887.557	1069.18
887.732	1022.1
887.908	1051.74
888.083	1077.32
888.258	1021.9
888.434	1036.63
888.609	1048.64
888.784	1097.47
888.96	1057.75
889.135	991.68
889.31	1014.15
889.485	1051.16
889.661	1058.52
889.836	1099.98
890.011	1090.3
890.186	1035.85
890.361	1036.82
890.537	1049.61
890.712	1069.18
890.887	1036.63
891.062	1044.96
891.237	1076.15
891.412	1001.56
891.587	1026.17
891.762	1058.52
891.937	1097.08
892.112	997.3
892.287	1027.33
892.462	983.15
892.637	973.47
892.812	931.42
892.987	995.17
893.161	922.32
893.336	964.94
893.511	941.11
893.686	975.21
893.861	950.99
894.035	925.61
894.21	936.65
894.385	902.94
894.56	923.87
894.734	874.46
894.909	856.06
895.084	864.97
895.258	853.92
895.433	858.57
895.608	830.29
895.782	755.89
895.957	765.96
896.131	775.65
896.306	703.77
896.48	729.93
896.655	706.68
896.829	684.4
897.004	669.67
897.178	679.55
897.353	632.28
897.527	750.85
897.701	683.62
897.876	635.18
898.05	695.83
898.224	741.36
898.399	708.61
898.573	655.53
898.747	591.78
898.921	620.85
899.096	568.54
899.27	552.84
899.444	560.59
899.618	584.81
899.792	611.16
899.967	592.17
900.141	648.17
900.315	559.24
900.489	557.3
900.663	591.78
900.837	606.32
901.011	520.87
901.185	646.62
901.359	572.6
901.533	623.75
901.707	601.28
901.881	623.95
902.055	544.12
902.229	560.59
902.403	642.93
902.576	605.35
902.75	608.64
902.924	706.68
903.098	642.74
903.272	698.54
903.446	734.38
903.619	716.75
903.793	765.96
903.967	718.3
904.14	791.34
904.314	778.56
904.488	730.7
904.661	785.73
904.835	768.87
905.009	784.18
905.182	824.28
905.356	778.36
905.529	759.18
905.703	757.05
905.876	738.45
906.05	703.38
906.223	688.66
906.397	628.21
906.57	593.72
906.744	568.34
906.917	595.85
907.09	601.08
907.264	600.12
907.437	552.65
907.61	546.06
907.784	540.44
907.957	576.09
908.13	521.84
908.304	583.26
908.477	528.04
908.65	564.66
908.823	487.94
908.996	562.92
909.17	531.92
909.343	526.88
909.516	541.22
909.689	566.99
909.862	500.72
910.035	517.19
910.208	469.92
910.381	491.04
910.554	581.13
910.727	528.04
910.9	534.44
911.073	515.84
911.246	578.03
911.419	570.47
911.592	556.52
911.765	499.37
911.938	509.44
912.11	524.55
912.283	527.85
912.456	522.62
912.629	532.11
912.802	481.35
912.974	454.81
913.147	418.77
913.32	377.89
913.493	426.13
913.665	435.43
913.838	436.79
914.01	452.09
914.183	472.44
914.356	465.07
914.528	511.19
914.701	522.04
914.873	495.88
915.046	455.39
915.218	444.15
915.391	379.05
915.563	375.95
915.736	428.07
915.908	466.04
916.081	444.34
916.253	437.95
916.425	455.97
916.598	457.32
916.77	460.04
916.942	427.29
917.115	380.21
917.287	405.4
917.459	408.5
917.632	382.54
917.804	323.64
917.976	433.49
918.148	404.62
918.32	410.24
918.493	472.82
918.665	474.57
918.837	431.36
919.009	521.26
919.181	517.97
919.353	473.21
919.525	455.58
919.697	468.37
919.869	470.31
920.041	538.12
920.213	597.6
920.385	530.75
920.557	471.27
920.729	507.31
920.901	499.17
921.073	476.7
921.244	460.62
921.416	494.91
921.588	473.6
921.76	461.01
921.932	512.74
922.103	506.73
922.275	483.09
922.447	488.13
922.619	419.16
922.79	450.35
922.962	480.19
923.134	477.86
923.305	428.46
923.477	404.62
923.648	418.77
923.82	419.35
923.991	364.91
924.163	368.59
924.335	438.14
924.506	393.78
924.677	430.39
924.849	391.06
925.02	423.03
925.192	426.71
925.363	416.64
925.535	434.07
925.706	375.95
925.877	451.32
926.049	382.54
926.22	423.03
926.391	413.92
926.562	440.86
926.734	386.61
926.905	434.27
927.076	330.81
927.247	372.08
927.419	356.38
927.59	333.91
927.761	328.87
927.932	323.83
928.103	340.49
928.274	275.4
928.445	271.52
928.616	300.97
928.787	298.26
928.958	321.12
929.129	256.6
929.3	255.25
929.471	231.41
929.642	183.56
929.813	158.57
929.984	238.97
930.155	183.95
930.326	212.62
930.496	171.74
930.667	159.92
930.838	182.59
931.009	152.17
931.18	146.55
931.35	123.3
931.521	155.27
931.692	109.35
931.863	81.07
932.033	134.15
932.204	116.33
932.374	132.22
932.545	63.63
932.716	104.32
932.886	101.8
933.057	25.27
933.227	59.95
933.398	127.37
933.568	44.84
933.739	9.96
933.909	29.92
934.08	79.71
934.25	23.52
934.421	7.44
934.591	41.74
934.761	48.32
934.932	-0.11
935.102	45.42
935.272	18.68
935.443	21.78
935.613	57.43
935.783	58.79
935.953	17.13
936.123	175.23
936.294	9.38
936.464	15.97
936.634	12.67
936.804	12.48
936.974	2.21
937.144	56.27
937.314	30.5
937.484	10.54
937.655	28.17
937.825	70.22
937.995	14.42
938.165	102.77
938.334	15.19
938.504	62.08
938.674	30.89
938.844	67.7
939.014	90.17
939.184	118.07
939.354	146.94
939.524	102.96
939.694	83.39
939.863	97.34
940.033	147.52
940.203	136.09
940.373	106.06
940.542	115.55
940.712	80.49
940.882	107.61
941.051	98.31
941.221	108
941.391	125.44
941.56	80.1
941.73	55.1
941.899	193.63
942.069	73.7
942.238	93.08
942.408	78.55
942.577	109.55
942.747	70.8
942.916	38.06
943.086	70.8
943.255	129.5
943.425	83.59
943.594	67.5
943.763	21.78
943.933	62.08
944.102	-13.29
944.271	59.56
944.441	61.11
944.61	52
944.779	78.55
944.948	144.62
945.117	25.27
945.287	60.92
945.456	-4.76
945.625	29.92
945.794	67.31
945.963	29.53
946.132	82.23
946.301	49.87
946.47	89.79
946.639	-1.28
946.808	40.38
946.977	82.81
947.146	107.22
947.315	52.97
947.484	71.38
947.653	58.79
947.822	62.66
947.991	67.31
948.16	128.15
948.329	101.41
948.498	45.81
948.666	75.06
948.835	84.17
949.004	44.06
949.173	30.89
949.341	79.9
949.51	83.59
949.679	89.79
949.847	102.77
950.016	128.73
950.185	129.31
950.353	48.32
950.522	39.8
950.69	113.62
950.859	53.55
951.028	87.07
951.196	72.74
951.365	48.52
951.533	73.7
951.701	99.47
951.87	84.55
952.038	14.03
952.207	63.82
952.375	137.64
952.543	47.55
952.712	57.62
952.88	42.32
953.048	115.94
953.217	88.04
953.385	55.88
953.553	119.82
953.721	35.92
953.89	79.13
954.058	29.34
954.226	41.35
954.394	90.17
954.562	10.74
954.73	74.48
954.898	39.02
955.067	74.09
955.235	51.04
955.403	101.6
955.571	124.85
955.739	85.72
955.907	52.39
956.075	61.3
956.243	40.96
956.41	73.7
956.578	25.66
956.746	45.22
956.914	55.3
957.082	96.57
957.25	102.77
957.418	40.19
957.585	53.94
957.753	114.97
957.921	33.02
958.089	68.09
958.256	104.7
958.424	77.77
958.592	82.62
958.759	54.52
958.927	57.62
959.095	21.2
959.262	70.22
959.43	77.39
959.597	36.51
959.765	58.59
959.932	44.84
960.1	76.42
960.267	80.29
960.435	56.27
960.602	106.45
960.77	55.88
960.937	54.14
961.104	83.39
961.272	44.26
961.439	40.19
961.606	66.15
961.774	89.79
961.941	68.86
962.108	95.99
962.275	102.19
962.443	108.39
962.61	110.9
962.777	144.81
962.944	115.36
963.111	89.2
963.278	106.84
963.446	107.42
963.613	78.35
963.78	69.05
963.947	88.82
964.114	80.1
964.281	155.27
964.448	83.39
964.615	95.99
964.782	108
964.949	110.9
965.116	106.25
965.282	152.95
965.449	87.07
965.616	50.84
965.783	101.6
965.95	76.42
966.117	43.09
966.283	94.44
966.45	95.79
966.617	103.15
966.784	133.38
966.95	113.23
967.117	120.79
967.284	66.73
967.45	72.35
967.617	131.05
967.784	116.14
967.95	147.91
968.117	106.64
968.283	146.55
968.45	199.64
968.616	138.42
968.783	127.37
968.949	122.14
969.116	143.26
969.282	129.12
969.449	133.96
969.615	121.56
969.781	89.59
969.948	113.04
970.114	67.89
970.28	165.54
970.447	106.84
970.613	164.77
970.779	108.39
970.945	140.35
971.112	116.91
971.278	106.45
971.444	100.64
971.61	151.2
971.776	101.22
971.942	124.27
972.108	140.93
972.275	102.38
972.441	135.9
972.607	171.35
972.773	80.49
972.939	135.51
973.105	106.45
973.271	62.47
973.437	84.55
973.602	69.05
973.768	130.09
973.934	75.25
974.1	117.1
974.266	32.24
974.432	135.12
974.598	78.55
974.763	125.44
974.929	50.07
975.095	149.46
975.261	70.41
975.426	77
975.592	91.53
975.758	164.96
975.923	31.47
976.089	83
976.255	120.79
976.42	114.97
976.586	97.34
976.751	94.05
976.917	180.07
977.082	106.45
977.248	83.59
977.413	28.56
977.579	91.53
977.744	103.15
977.91	66.15
978.075	63.05
978.24	130.09
978.406	97.54
978.571	107.61
978.736	80.29
978.902	97.34
979.067	68.09
979.232	38.64
979.397	82.62
979.563	157.6
979.728	37.67
979.893	91.92
980.058	80.49
980.223	129.89
980.388	112.07
980.554	115.55
980.719	73.12
980.884	134.15
981.049	138.03
981.214	95.21
981.379	104.51
981.544	73.7
981.709	94.82
981.874	90.17
982.039	80.29
982.204	126.4
982.368	97.15
982.533	71.96
982.698	105.87
982.863	115.75
983.028	105.09
983.193	123.3
983.357	113.04
983.522	89.98
983.687	77.97
983.852	83.78
984.016	94.24
984.181	94.82
984.346	78.94
984.51	127.95
984.675	85.33
984.839	111.68
985.004	92.11
985.168	120.2
985.333	109.74
985.498	111.29
985.662	122.53
985.827	108.77
985.991	96.18
986.155	101.02
986.32	110.9
986.484	167.87
986.649	137.45
986.813	76.42
986.977	97.73
987.142	108.97
987.306	74.87
987.47	75.06
987.634	93.47
987.799	126.6
987.963	86.69
988.127	110.52
988.291	173.1
988.455	98.31
988.62	65.37
988.784	119.04
988.948	114.78
989.112	63.82
989.276	115.55
989.44	102.19
989.604	66.73
989.768	104.51
989.932	200.22
990.096	74.87
990.26	81.45
990.424	48.13
990.588	62.08
990.752	159.53
990.915	106.64
991.079	94.05
991.243	56.65
991.407	108.39
991.571	83.39
991.734	123.3
991.898	114.39
992.062	180.27
992.226	83.2
992.389	71.96
992.553	38.25
992.717	78.35
992.88	58.2
993.044	62.66
993.207	63.44
993.371	98.31
993.535	98.89
993.698	91.14
993.862	139
994.025	120.01
994.189	83.78
994.352	94.82
994.515	97.73
994.679	125.82
994.842	49.1
995.006	116.52
995.169	66.15
995.332	72.15
995.496	109.16
995.659	15.19
995.822	77.39
995.985	73.51
996.149	135.9
996.312	91.34
996.475	140.93
996.638	67.12
996.801	132.41
996.964	147.13
997.128	67.31
997.291	68.86
997.454	89.98
997.617	53.36
997.78	122.14
997.943	37.67
998.106	99.47
998.269	74.67
998.432	60.14
998.595	73.51
998.758	34.57
998.92	57.24
999.083	15.58
999.246	52.59
999.409	32.44
999.572	44.64
999.735	62.27
999.897	101.22
1000.06	51.62
1000.223	29.72
1000.386	77.19
1000.548	84.17
1000.711	93.66
1000.874	54.72
1001.036	28.17
1001.199	88.04
1001.361	51.04
1001.524	80.68
1001.687	105.87
1001.849	49.87
1002.012	71.38
1002.174	84.94
1002.337	81.65
1002.499	77
1002.661	95.99
1002.824	51.42
1002.986	53.94
1003.149	51.23
1003.311	36.89
1003.473	111.1
1003.636	31.86
1003.798	72.54
1003.96	86.49
1004.123	48.91
1004.285	34.18
1004.447	57.82
1004.609	73.12
1004.771	127.76
1004.933	24.69
1005.096	15
1005.258	16.74
1005.42	31.86
1005.582	104.7
1005.744	56.65
1005.906	31.86
1006.068	71.96
1006.23	10.35
1006.392	27.98
1006.554	9.19
1006.716	82.04
1006.878	58.01
1007.04	21.59
1007.202	33.02
1007.363	78.35
1007.525	55.69
1007.687	44.64
1007.849	91.92
1008.011	5.51
1008.172	37.09
1008.334	32.44
1008.496	83.97
1008.658	16.74
1008.819	34.37
1008.981	14.22
1009.143	26.24
1009.304	61.3
1009.466	50.84
1009.627	108.39
1009.789	146.75
1009.95	69.05
1010.112	21.01
1010.273	62.47
1010.435	21.2
1010.596	20.62
1010.758	18.49
1010.919	58.01
1011.081	2.41
1011.242	44.26
1011.403	60.92
1011.565	41.74
1011.726	68.47
1011.887	5.7
1012.049	30.11
1012.21	64.21
1012.371	109.74
1012.532	-10.38
1012.693	45.22
1012.855	37.09
1013.016	11.9
1013.177	103.15
1013.338	40.57
1013.499	122.92
1013.66	53.75
1013.821	64.99
1013.982	44.84
1014.143	13.26
1014.304	15
1014.465	43.09
1014.626	79.9
1014.787	44.06
1014.948	125.82
1015.109	-22.2
1015.27	79.71
1015.431	20.04
1015.592	24.88
1015.752	89.98
1015.913	39.41
1016.074	27.4
1016.235	37.67
1016.395	42.12
1016.556	26.62
1016.717	18.1
1016.877	79.13
1017.038	2.6
1017.199	45.22
1017.359	46.97
1017.52	28.95
1017.681	19.26
1017.841	38.06
1018.002	8.02
1018.162	28.76
1018.323	82.23
1018.483	28.56
1018.644	36.31
1018.804	2.02
1018.964	20.62
1019.125	-1.28
1019.285	37.47
1019.446	15.19
1019.606	-4.76
1019.766	-17.36
1019.926	14.42
1020.087	38.83
1020.247	-15.23
1020.407	62.66
1020.567	66.34
1020.728	26.43
1020.888	-19.68
1021.048	17.52
1021.208	-3.79
1021.368	-12.71
1021.528	66.73
1021.688	52.97
1021.848	49.29
1022.008	36.51
1022.168	16.94
1022.328	29.92
1022.488	40.19
1022.648	13.26
1022.808	44.06
1022.968	24.11
1023.128	-7.67
1023.288	8.41
1023.448	15.97
1023.608	45.22
1023.767	36.7
1023.927	-3.99
1024.087	28.76
1024.247	-6.7
1024.406	20.81
1024.566	-23.17
1024.726	-19.29
1024.885	9.38
1025.045	15.97
1025.205	17.32
1025.364	30.69
1025.524	34.57
1025.683	2.02
1025.843	17.91
1026.003	6.09
1026.162	65.37
1026.321	59.56
1026.481	9.57
1026.64	26.43
1026.8	29.14
1026.959	15.19
1027.119	24.69
1027.278	15.97
1027.437	-7.86
1027.597	-1.28
1027.756	50.46
1027.915	61.69
1028.074	26.04
1028.234	7.25
1028.393	27.01
1028.552	17.13
1028.711	-50.87
1028.87	29.92
1029.03	5.51
1029.189	-24.91
1029.348	-66.57
1029.507	13.84
1029.666	16.55
1029.825	-20.65
1029.984	-7.67
1030.143	39.41
1030.302	-11.74
1030.461	-27.24
1030.62	20.81
1030.779	39.22
1030.938	3.37
1031.097	-13.09
1031.255	45.03
1031.414	41.35
1031.573	44.84
1031.732	-26.08
1031.891	9.57
1032.049	67.89
1032.208	39.22
1032.367	-0.11
1032.525	-16.58
1032.684	16.36
1032.843	27.98
1033.001	-43.9
1033.16	130.28
1033.319	52.2
1033.477	63.05
1033.636	14.81
1033.794	-39.83
1033.953	44.06
1034.111	27.98
1034.27	-7.86
1034.428	35.73
1034.587	-21.04
1034.745	-11.16
1034.903	9.38
1035.062	14.22
1035.22	-19.1
1035.378	48.52
1035.537	-18.71
1035.695	40.96
1035.853	14.03
1036.011	43.09
1036.17	22.94
1036.328	-52.81
1036.486	15
1036.644	45.81
1036.802	-49.71
1036.96	-6.12
1037.119	19.84
1037.277	-9.41
1037.435	-39.44
1037.593	7.44
1037.751	1.05
1037.909	35.92
1038.067	35.92
