Data from oakcork_FLMT105791__261__17-34-07-053.txt Node

Date: Mon Mar 20 17:34:07 GMT 2023
User: antho
Spectrometer: FLMT10579
Trigger mode: 0
Integration Time (sec): 1.000000E-1
Scans to average: 10
Electric dark correction enabled: true
Nonlinearity correction enabled: false
Boxcar width: 0
XAxis mode: Wavelengths
Number of Pixels in Spectrum: 3648
>>>>>Begin Spectral Data<<<<<
345.248	-124.34
345.464	-124.34
345.681	-124.34
345.898	-162.51
346.114	-161.92
346.331	-36.38
346.548	15.74
346.764	-5.76
346.981	1.99
347.197	3.73
347.414	32.99
347.631	1.6
347.847	39.96
348.064	-12.93
348.28	10.12
348.497	-32.69
348.713	-18.36
348.93	29.69
349.146	29.69
349.363	4.5
349.579	17.29
349.796	6.25
350.012	17.68
350.229	23.49
350.445	11.67
350.661	-25.53
350.878	-1.89
351.094	7.6
351.311	14.97
351.527	35.12
351.743	-7.12
351.96	28.92
352.176	55.27
352.392	45.19
352.609	39.57
352.825	15.16
353.041	2.18
353.257	-17.78
353.474	22.33
353.69	22.14
353.906	4.89
354.122	-9.83
354.339	58.37
354.555	8.96
354.771	-6.73
354.987	53.72
355.203	63.4
355.42	37.25
355.636	2.76
355.852	-20.1
356.068	23.3
356.284	-31.34
356.5	59.92
356.716	14.58
356.932	13.03
357.148	36.28
357.364	7.8
357.58	34.54
357.796	56.04
358.012	52.94
358.228	32.21
358.444	-10.8
358.66	66.7
358.876	19.62
359.092	-17
359.308	2.76
359.524	37.44
359.74	-2.47
359.956	-8.86
360.172	7.41
360.388	27.17
360.604	14.77
360.819	90.53
361.035	36.28
361.251	36.47
361.467	-16.23
361.683	51.2
361.898	30.85
362.114	56.62
362.33	26.79
362.546	30.85
362.762	9.35
362.977	15.35
363.193	-12.35
363.409	40.74
363.624	-20.1
363.84	-5.57
364.056	1.79
364.271	57.2
364.487	18.65
364.703	10.7
364.918	-6.93
365.134	-9.64
365.35	15.35
365.565	89.95
365.781	32.99
365.996	34.34
366.212	91.11
366.427	27.17
366.643	0.82
366.858	-0.15
367.074	-2.47
367.289	35.5
367.505	80.07
367.72	-25.53
367.936	15.16
368.151	50.62
368.367	39.57
368.582	23.3
368.798	7.02
369.013	78.71
369.228	33.76
369.444	28.14
369.659	50.04
369.874	43.64
370.09	79.68
370.305	-22.23
370.52	15.74
370.736	76.19
370.951	-7.12
371.166	85.88
371.381	81.42
371.597	35.31
371.812	1.21
372.027	-8.86
372.242	22.33
372.458	90.33
372.673	-11.96
372.888	18.45
373.103	44.03
373.318	113.78
373.533	46.94
373.749	28.92
373.964	-32.31
374.179	76.77
374.394	2.57
374.609	78.32
374.824	11.87
375.039	65.54
375.254	1.79
375.469	83.55
375.684	46.35
375.899	53.72
376.114	12.06
376.329	25.62
376.544	62.05
376.759	45.97
376.974	-6.93
377.189	4.12
377.404	28.53
377.619	35.5
377.834	-12.35
378.049	14.39
378.264	-14.68
378.478	45.58
378.693	-2.86
378.908	42.87
379.123	21.94
379.338	71.73
379.553	53.91
379.767	17.87
379.982	63.6
380.197	64.57
380.412	20.97
380.626	76.97
380.841	121.33
381.056	44.22
381.271	89.17
381.485	-3.05
381.7	-23.39
381.915	42.67
382.129	16.52
382.344	35.7
382.559	32.21
382.773	34.92
382.988	-5.76
383.202	39.96
383.417	12.45
383.632	105.83
383.846	16.52
384.061	11.29
384.275	27.56
384.49	26.4
384.704	49.45
384.919	39.96
385.133	40.54
385.348	56.62
385.562	8.96
385.777	48.68
385.991	32.99
386.206	25.43
386.42	4.7
386.634	73.48
386.849	32.6
387.063	57.4
387.277	29.3
387.492	22.52
387.706	8.77
387.92	13.8
388.135	44.03
388.349	67.67
388.563	22.52
388.778	46.35
388.992	56.82
389.206	63.99
389.42	115.13
389.635	37.05
389.849	62.05
390.063	77.55
390.277	42.87
390.491	100.99
390.706	36.28
390.92	62.44
391.134	58.17
391.348	65.15
391.562	-8.48
391.776	40.15
391.99	20
392.205	60.3
392.419	33.37
392.633	38.22
392.847	83.75
393.061	27.37
393.275	77.16
393.489	45.97
393.703	69.22
393.917	67.67
394.131	38.41
394.345	56.43
394.559	76.58
394.773	30.08
394.986	62.63
395.2	15.55
395.414	81.42
395.628	31.82
395.842	62.44
396.056	30.27
396.27	1.79
396.484	43.84
396.697	38.8
396.911	108.93
397.125	68.63
397.339	46.35
397.553	36.47
397.766	109.32
397.98	79.1
398.194	58.17
398.408	64.18
398.621	53.14
398.835	56.62
399.049	64.57
399.262	98.28
399.476	111.65
399.69	80.84
399.903	124.05
400.117	63.6
400.331	87.62
400.544	51.78
400.758	154.08
400.971	82.97
401.185	120.75
401.398	46.35
401.612	114.75
401.826	108.35
402.039	84.52
402.253	25.43
402.466	95.18
402.68	60.89
402.893	77.74
403.106	68.63
403.32	49.84
403.533	71.93
403.747	66.12
403.96	81.81
404.174	97.5
404.387	74.25
404.6	74.83
404.814	108.35
405.027	67.47
405.24	77.55
405.454	63.6
405.667	108.35
405.88	43.25
406.094	68.05
406.307	88.59
406.52	111.07
406.733	76.77
406.947	24.85
407.16	149.43
407.373	88.59
407.586	55.65
407.799	72.12
408.012	129.08
408.226	78.52
408.439	115.91
408.652	34.92
408.865	85.88
409.078	114.94
409.291	102.15
409.504	21.17
409.717	104.28
409.93	75.03
410.143	74.06
410.357	43.45
410.57	50.42
410.783	81.03
410.996	85.88
411.209	70.38
411.421	108.55
411.634	87.23
411.847	78.13
412.06	68.63
412.273	93.05
412.486	89.56
412.699	155.82
412.912	87.04
413.125	115.33
413.338	85.49
413.55	102.54
413.763	90.72
413.976	120.56
414.189	61.85
414.402	67.08
414.615	140.13
414.827	35.31
415.04	101.38
415.253	127.92
415.466	117.27
415.678	150.78
415.891	106.22
416.104	94.79
416.316	79.87
416.529	103.7
416.742	123.08
416.954	106.8
417.167	117.46
417.38	81.23
417.592	126.37
417.805	59.34
418.017	62.44
418.23	103.32
418.442	57.79
418.655	84.91
418.868	100.6
419.08	111.07
419.293	123.27
419.505	131.02
419.718	132.18
419.93	132.18
420.142	102.73
420.355	129.08
420.567	138.97
420.78	138.19
420.992	99.44
421.205	139.16
421.417	49.84
421.629	76.38
421.842	59.34
422.054	71.15
422.266	120.95
422.479	121.92
422.691	69.41
422.903	117.46
423.115	67.28
423.328	86.65
423.54	98.28
423.752	87.62
423.964	62.63
424.177	104.67
424.389	81.03
424.601	183.91
424.813	126.57
425.025	114.94
425.238	134.9
425.45	89.56
425.662	80.65
425.874	344.53
426.086	113
426.298	96.15
426.51	137.03
426.722	113.39
426.934	87.82
427.146	110.1
427.358	76.38
427.57	138.58
427.782	101.77
427.994	88.4
428.206	98.47
428.418	78.71
428.63	147.49
428.842	178.3
429.054	125.4
429.266	135.48
429.478	84.91
429.69	85.3
429.902	60.11
430.114	127.92
430.325	110.48
430.537	78.13
430.749	107.38
430.961	49.45
431.173	92.27
431.384	117.65
431.596	24.07
431.808	107.38
432.02	119.78
432.231	114.94
432.443	125.21
432.655	106.42
432.867	63.99
433.078	95.76
433.29	139.55
433.502	126.57
433.713	140.71
433.925	118.82
434.136	161.44
434.348	91.11
434.56	57.79
434.771	198.64
434.983	75.42
435.194	94.6
435.406	101.38
435.617	166.28
435.829	166.28
436.04	136.83
436.252	129.47
436.463	163.38
436.675	141.48
436.886	122.11
437.098	150.98
437.309	169
437.521	127.92
437.732	138.58
437.943	145.75
438.155	147.68
438.366	82.78
438.578	180.23
438.789	140.9
439	155.24
439.211	141.1
439.423	135.48
439.634	136.45
439.845	157.56
440.057	126.18
440.268	155.05
440.479	109.9
440.69	143.81
440.902	118.43
441.113	133.35
441.324	115.72
441.535	142.07
441.746	169.19
441.957	103.32
442.168	131.22
442.38	173.84
442.591	167.25
442.802	114.17
443.013	114.94
443.224	144
443.435	122.11
443.646	144.39
443.857	147.1
444.068	119.98
444.279	125.6
444.49	215.5
444.701	131.6
444.912	223.44
445.123	168.03
445.334	150.01
445.545	161.63
445.756	120.17
445.967	113.58
446.178	140.52
446.388	170.16
446.599	183.14
446.81	185.85
447.021	136.25
447.232	172.29
447.443	188.18
447.653	114.17
447.864	153.69
448.075	147.3
448.286	173.06
448.496	159.5
448.707	174.03
448.918	157.37
449.129	239.52
449.339	140.9
449.55	178.3
449.761	152.72
449.971	227.51
450.182	139.55
450.393	188.76
450.603	167.64
450.814	171.71
451.024	178.49
451.235	181.4
451.446	212.59
451.656	195.73
451.867	140.9
452.077	185.46
452.288	227.31
452.498	235.45
452.709	148.46
452.919	214.53
453.13	154.85
453.34	211.04
453.55	126.76
453.761	201.55
453.971	194.96
454.182	173.06
454.392	200.19
454.602	233.32
454.813	166.86
455.023	225.38
455.233	151.56
455.444	175
455.654	137.22
455.864	166.67
456.075	157.76
456.285	180.23
456.495	163.57
456.705	209.49
456.916	215.5
457.126	231.19
457.336	169.77
457.546	126.57
457.756	164.93
457.967	210.46
458.177	189.15
458.387	159.31
458.597	159.31
458.807	171.71
459.017	154.66
459.227	159.11
459.437	142.45
459.647	216.46
459.857	204.45
460.068	168.8
460.278	217.82
460.488	200.58
460.698	240.68
460.908	170.74
461.117	145.55
461.327	156.21
461.537	177.33
461.747	179.85
461.957	170.55
462.167	273.62
462.377	252.5
462.587	166.48
462.797	220.92
463.007	183.72
463.216	198.25
463.426	199.8
463.636	240.88
463.846	190.7
464.056	146.52
464.265	245.33
464.475	179.65
464.685	186.63
464.895	220.92
465.104	195.54
465.314	251.92
465.524	184.5
465.733	202.51
465.943	260.25
466.153	263.74
466.362	213.56
466.572	193.99
466.782	200
466.991	205.42
467.201	246.49
467.41	148.27
467.62	221.7
467.829	198.25
468.039	225.18
468.249	206.97
468.458	224.41
468.668	240.68
468.877	233.71
469.086	248.04
469.296	261.61
469.505	191.28
469.715	275.36
469.924	195.73
470.134	247.85
470.343	263.74
470.552	201.16
470.762	234.1
470.971	183.33
471.18	211.81
471.39	195.73
471.599	200.19
471.808	223.63
472.018	185.27
472.227	245.91
472.436	282.92
472.645	206.2
472.855	183.91
473.064	256.57
473.273	247.85
473.482	242.04
473.691	275.36
473.901	249.01
474.11	215.11
474.319	305.78
474.528	236.61
474.737	288.54
474.946	265.68
475.155	266.06
475.364	295.32
475.573	246.88
475.783	265.87
475.992	287.38
476.201	296.09
476.41	222.86
476.619	200.58
476.828	276.14
477.037	224.6
477.245	252.5
477.454	297.06
477.663	239.33
477.872	259.67
478.081	301.71
478.29	229.45
478.499	309.85
478.708	254.63
478.917	320.12
479.125	270.71
479.334	266.26
479.543	213.95
479.752	266.45
479.961	281.37
480.169	292.22
480.378	267.42
480.587	380.18
480.796	289.7
481.004	265.68
481.213	291.64
481.422	296.09
481.63	298.42
481.839	332.71
482.048	346.27
482.256	321.09
482.465	310.04
482.674	308.3
482.882	327.87
483.091	357.71
483.299	315.08
483.508	326.9
483.716	307.91
483.925	313.34
484.134	300.16
484.342	310.24
484.551	334.26
484.759	324.58
484.967	303.46
485.176	360.61
485.384	357.32
485.593	372.82
485.801	336.01
486.01	327.87
486.218	296.87
486.426	290.86
486.635	305.01
486.843	305.39
487.051	320.51
487.26	302.88
487.468	333.29
487.676	385.41
487.885	305.78
488.093	320.12
488.301	335.23
488.509	350.34
488.717	361
488.926	335.81
489.134	344.34
489.342	340.46
489.55	333.68
489.758	359.45
489.967	338.72
490.175	438.89
490.383	344.14
490.591	386.19
490.799	299
491.007	382.89
491.215	352.09
491.423	339.69
491.631	358.09
491.839	377.47
492.047	384.25
492.255	312.37
492.463	317.02
492.671	332.32
492.879	392.19
493.087	357.51
493.295	383.67
493.503	396.07
493.711	402.27
493.919	388.51
494.127	411.96
494.334	411.76
494.542	373.21
494.75	372.82
494.958	395.68
495.166	415.83
495.374	398.2
495.581	382.7
495.789	391.61
495.997	429.97
496.205	387.35
496.412	377.47
496.62	395.87
496.828	406.72
497.035	403.62
497.243	404.4
497.451	405.17
497.658	402.66
497.866	392.58
498.074	454
498.281	367.01
498.489	475.5
498.696	401.69
498.904	375.92
499.112	413.51
499.319	457.49
499.527	401.11
499.734	431.91
499.942	394.13
500.149	374.37
500.357	420.09
500.564	372.24
500.771	399.36
500.979	378.63
501.186	406.72
501.394	412.92
501.601	401.11
501.808	435.01
502.016	423
502.223	406.14
502.43	408.86
502.638	393.16
502.845	383.86
503.052	445.09
503.26	412.54
503.467	442.37
503.674	392
503.881	439.27
504.089	478.41
504.296	467.37
504.503	395.68
504.71	436.95
504.917	392.58
505.125	415.05
505.332	406.53
505.539	411.37
505.746	498.95
505.953	453.22
506.16	439.27
506.367	486.55
506.574	460.2
506.781	495.07
506.988	404.98
507.195	481.9
507.402	433.65
507.609	475.5
507.816	443.92
508.023	434.62
508.23	439.66
508.437	421.45
508.644	459.81
508.851	474.34
509.058	484.03
509.265	448.19
509.472	474.15
509.679	537.31
509.885	438.69
510.092	472.79
510.299	460.39
510.506	474.34
510.713	478.02
510.92	450.12
511.126	481.12
511.333	497.4
511.54	503.4
511.746	508.25
511.953	521.23
512.16	540.02
512.367	452.45
512.573	458.84
512.78	482.09
512.987	477.25
513.193	500.89
513.4	422.42
513.606	482.09
513.813	494.3
514.02	474.34
514.226	546.03
514.433	535.95
514.639	450.32
514.846	468.53
515.052	448.19
515.259	484.42
515.465	506.5
515.672	500.3
515.878	567.53
516.085	506.12
516.291	511.35
516.497	477.05
516.704	480.54
516.91	447.41
517.117	454.77
517.323	425.13
517.529	479.19
517.736	484.8
517.942	462.14
518.148	432.1
518.354	495.85
518.561	523.36
518.767	457.87
518.973	528.2
519.179	530.33
519.386	464.07
519.592	473.18
519.798	484.22
520.004	550.48
520.21	493.72
520.417	542.93
520.623	554.75
520.829	566.18
521.035	544.09
521.241	536.15
521.447	563.66
521.653	657.24
521.859	557.07
522.065	549.32
522.271	644.45
522.477	575.48
522.683	602.6
522.889	599.11
523.095	580.71
523.301	571.6
523.507	553.78
523.713	579.93
523.919	560.17
524.125	633.41
524.331	550.1
524.537	667.51
524.742	631.47
524.948	630.5
525.154	603.18
525.36	715.17
525.566	627.6
525.772	683.39
525.977	608.41
526.183	624.5
526.389	650.85
526.595	584.58
526.8	608.22
527.006	606.09
527.212	550.29
527.417	569.86
527.623	567.34
527.829	625.66
528.034	595.82
528.24	620.23
528.446	570.44
528.651	681.65
528.857	643.48
529.062	657.82
529.268	619.07
529.473	655.69
529.679	631.86
529.884	707.03
530.09	666.54
530.295	700.44
530.501	687.46
530.706	678.36
530.912	640.38
531.117	653.36
531.323	681.46
531.528	711.1
531.733	683.98
531.939	662.86
532.144	676.03
532.35	677.78
532.555	733.38
532.76	686.3
532.966	701.8
533.171	671.58
533.376	681.46
533.581	634.76
533.787	668.48
533.992	682.04
534.197	726.02
534.402	687.66
534.607	707.81
534.813	803.52
535.018	695.99
535.223	678.55
535.428	718.27
535.633	758.18
535.838	719.43
536.043	732.41
536.249	784.53
536.454	732.99
536.659	732.41
536.864	683.39
537.069	667.9
537.274	723.5
537.479	757.79
537.684	751.4
537.889	695.6
538.094	787.24
538.299	730.28
538.504	739.78
538.708	745.2
538.913	785.89
539.118	738.61
539.323	727.18
539.528	701.41
539.733	720.79
539.938	749.27
540.142	762.25
540.347	750.24
540.552	702.58
540.757	742.68
540.962	710.91
541.166	694.63
541.371	712.46
541.576	707.03
541.781	652.4
541.985	759.73
542.19	732.8
542.395	792.67
542.599	784.92
542.804	761.48
543.008	805.07
543.213	711.88
543.418	712.65
543.622	739.19
543.827	711.1
544.031	800.03
544.236	806.23
544.44	759.34
544.645	827.16
544.849	755.47
545.054	775.81
545.258	827.74
545.463	806.04
545.667	715.75
545.872	779.49
546.076	767.48
546.281	774.84
546.485	768.64
546.689	802.55
546.894	789.57
547.098	772.52
547.302	768.26
547.507	782.98
547.711	777.75
547.915	810.49
548.119	760.12
548.324	738.81
548.528	797.12
548.732	756.63
548.936	775.42
549.141	839.56
549.345	763.22
549.549	773.87
549.753	766.9
549.957	833.16
550.161	801.58
550.366	780.85
550.57	749.08
550.774	787.05
550.978	755.86
551.182	795.96
551.386	779.11
551.59	746.94
551.794	764.57
551.998	809.33
552.202	762.25
552.406	757.41
552.61	782.98
552.814	771.55
553.018	821.15
553.222	775.62
553.426	761.48
553.63	859.9
553.833	776.78
554.037	739.97
554.241	798.29
554.445	786.27
554.649	799.84
554.853	753.53
555.056	818.63
555.26	813.4
555.464	780.46
555.668	808.17
555.871	852.92
556.075	817.47
556.279	794.61
556.483	749.66
556.686	781.62
556.89	776.2
557.094	797.71
557.297	729.12
557.501	815.34
557.704	734.93
557.908	812.43
558.112	750.43
558.315	800.81
558.519	763.41
558.722	755.08
558.926	749.46
559.129	741.71
559.333	702.58
559.536	711.49
559.74	729.89
559.943	722.34
560.147	716.33
560.35	756.63
560.553	703.74
560.757	665.57
560.96	802.55
561.164	717.3
561.367	800.22
561.57	724.86
561.774	737.06
561.977	727.96
562.18	732.99
562.384	823.28
562.587	735.13
562.79	710.52
562.993	724.28
563.197	748.88
563.4	804.49
563.603	767.09
563.806	834.32
564.009	723.31
564.212	751.01
564.416	673.71
564.619	752.18
564.822	654.72
565.025	758.57
565.228	733.38
565.431	740.94
565.634	648.91
565.837	688.63
566.04	679.71
566.243	678.36
566.446	622.75
566.649	725.63
566.852	668.48
567.055	697.54
567.258	686.49
567.461	770.77
567.664	742.1
567.867	604.93
568.07	690.18
568.273	705.29
568.475	713.81
568.678	672.35
568.881	689.01
569.084	707.61
569.287	600.66
569.489	626.43
569.692	687.85
569.895	672.35
570.098	609
570.3	627.4
570.503	564.43
570.706	630.7
570.909	620.62
571.111	589.43
571.314	573.15
571.516	621.01
571.719	650.46
571.922	639.61
572.124	609
572.327	654.14
572.529	582.26
572.732	572.96
572.935	613.65
573.137	687.66
573.34	576.45
573.542	639.22
573.745	628.37
573.947	639.03
574.15	593.5
574.352	594.27
574.554	674.1
574.757	558.62
574.959	563.08
575.162	567.15
575.364	576.25
575.566	652.59
575.769	573.54
575.971	610.16
576.173	507.28
576.376	576.25
576.578	621.78
576.78	658.4
576.982	524.91
577.185	564.82
577.387	525.49
577.589	547
577.791	552.03
577.993	599.31
578.196	566.37
578.398	589.04
578.6	587.3
578.802	557.85
579.004	559.98
579.206	555.91
579.408	581.29
579.61	564.82
579.812	605.31
580.014	542.35
580.216	549.13
580.418	540.22
580.62	541.18
580.822	505.53
581.024	595.05
581.226	602.41
581.428	551.07
581.63	592.72
581.832	516.38
582.034	617.52
582.236	564.43
582.438	583.62
582.64	609
582.841	608.03
583.043	634.96
583.245	561.33
583.447	600.08
583.649	569.08
583.85	566.95
584.052	639.41
584.254	560.75
584.456	606.86
584.657	519.29
584.859	574.51
585.061	555.13
585.262	556.88
585.464	534.02
585.666	573.73
585.867	529.75
586.069	606.28
586.27	571.02
586.472	559.2
586.674	530.72
586.875	531.3
587.077	536.92
587.278	573.15
587.48	528.59
587.681	655.88
587.883	546.8
588.084	507.08
588.285	524.72
588.487	543.32
588.688	545.25
588.89	497.01
589.091	483.45
589.292	523.94
589.494	520.84
589.695	489.65
589.896	431.33
590.098	459.81
590.299	479.19
590.5	466.2
590.702	487.32
590.903	513.28
591.104	544.28
591.305	494.88
591.507	536.34
591.708	539.44
591.909	494.3
592.11	562.11
592.311	537.31
592.512	491.39
592.714	451.09
592.915	462.52
593.116	498.37
593.317	476.67
593.518	500.69
593.719	496.24
593.92	533.63
594.121	538.08
594.322	507.86
594.523	517.35
594.724	467.17
594.925	475.7
595.126	511.35
595.327	516.38
595.528	507.67
595.729	498.37
595.929	515.03
596.13	543.32
596.331	477.44
596.532	502.24
596.733	568.5
596.934	518.13
597.135	534.4
597.335	510.57
597.536	488.49
597.737	523.36
597.938	461.55
598.138	533.24
598.339	507.08
598.54	507.67
598.74	489.65
598.941	521.42
599.142	549.32
599.342	501.27
599.543	485.19
599.744	478.41
599.944	450.7
600.145	475.5
600.345	512.32
600.546	571.8
600.746	562.88
600.947	569.08
601.147	527.62
601.348	551.26
601.548	494.69
601.749	493.72
601.949	468.92
602.15	474.34
602.35	488.68
602.551	552.62
602.751	479.19
602.951	488.87
603.152	411.18
603.352	523.36
603.552	497.59
603.753	497.01
603.953	527.04
604.153	540.41
604.354	488.29
604.554	493.91
604.754	495.65
604.954	481.32
605.155	528.59
605.355	490.23
605.555	559.4
605.755	548.93
605.955	479.57
606.155	551.84
606.356	512.32
606.556	523.94
606.756	521.03
606.956	431.91
607.156	547.19
607.356	475.5
607.556	513.67
607.756	500.5
607.956	535.57
608.156	495.27
608.356	489.07
608.556	547.19
608.756	521.62
608.956	466.98
609.156	503.4
609.356	470.66
609.556	484.8
609.755	488.87
609.955	471.24
610.155	498.75
610.355	483.25
610.555	461.17
610.755	496.43
610.954	422.42
611.154	497.2
611.354	506.5
611.554	455.16
611.753	470.08
611.953	423
612.153	482.09
612.352	502.82
612.552	437.92
612.752	423.97
612.951	454.77
613.151	489.26
613.351	434.24
613.55	488.87
613.75	463.1
613.949	459.04
614.149	507.67
614.348	454.58
614.548	429.97
614.747	419.32
614.947	420.29
615.146	422.22
615.346	485
615.545	440.05
615.745	462.14
615.944	487.9
616.144	467.95
616.343	476.28
616.542	440.63
616.742	477.44
616.941	447.6
617.14	404.4
617.34	444.7
617.539	451.87
617.738	398.01
617.938	472.6
618.137	447.6
618.336	406.34
618.535	465.43
618.734	454
618.934	451.29
619.133	474.54
619.332	470.08
619.531	453.61
619.73	420.87
619.929	469.11
620.128	445.47
620.328	489.45
620.527	417.19
620.726	409.24
620.925	448.96
621.124	428.62
621.323	433.07
621.522	410.79
621.721	397.62
621.92	406.34
622.119	452.64
622.318	427.26
622.517	387.35
622.715	430.94
622.914	377.47
623.113	418.54
623.312	376.5
623.511	446.44
623.71	408.08
623.909	403.24
624.107	458.07
624.306	365.84
624.505	393.94
624.704	381.54
624.902	394.71
625.101	442.95
625.3	394.52
625.499	382.89
625.697	385.22
625.896	404.59
626.095	443.92
626.293	360.61
626.492	400.52
626.69	435.2
626.889	352.86
627.088	410.21
627.286	394.13
627.485	387.93
627.683	351.51
627.882	405.17
628.08	336.2
628.279	376.5
628.477	429.97
628.676	375.34
628.874	397.04
629.073	327.09
629.271	329.03
629.469	387.16
629.668	362.74
629.866	382.12
630.065	354.41
630.263	400.52
630.461	376.69
630.66	388.32
630.858	423.19
631.056	409.24
631.254	428.81
631.453	353.64
631.651	421.06
631.849	383.28
632.047	388.71
632.245	355.38
632.444	361.19
632.642	406.14
632.84	411.76
633.038	361.39
633.236	360.61
633.434	348.79
633.632	334.07
633.83	329.81
634.028	385.8
634.227	373.4
634.425	415.06
634.623	403.04
634.821	393.16
635.019	349.96
635.216	341.04
635.414	401.3
635.612	376.31
635.81	369.72
636.008	433.27
636.206	404.21
636.404	409.63
636.602	355.38
636.8	382.7
636.997	389.29
637.195	413.51
637.393	402.27
637.591	437.53
637.789	391.42
637.986	383.67
638.184	372.04
638.382	449.15
638.58	408.08
638.777	430.75
638.975	358.09
639.173	397.42
639.37	379.99
639.568	404.79
639.765	398.59
639.963	374.95
640.161	409.44
640.358	442.57
640.556	350.92
640.753	366.42
640.951	351.7
641.148	388.71
641.346	346.86
641.543	372.62
641.741	380.96
641.938	365.46
642.136	354.8
642.333	355.57
642.531	401.69
642.728	398.2
642.925	375.72
643.123	360.81
643.32	371.46
643.517	354.22
643.715	400.91
643.912	377.47
644.109	353.64
644.306	373.4
644.504	340.46
644.701	355.38
644.898	390.84
645.095	331.55
645.293	392.58
645.49	381.73
645.687	359.64
645.884	402.07
646.081	311.79
646.278	352.47
646.475	378.05
646.672	331.74
646.87	366.62
647.067	378.44
647.264	352.47
647.461	326.32
647.658	324.58
647.855	381.34
648.052	343.37
648.249	286.02
648.446	327.48
648.642	327.29
648.839	299.97
649.036	332.52
649.233	316.05
649.43	293.58
649.627	305.59
649.824	301.52
650.021	317.41
650.217	302.68
650.414	314.31
650.611	352.67
650.808	350.54
651.004	341.82
651.201	333.29
651.398	381.15
651.595	327.87
651.791	320.7
651.988	322.25
652.185	320.51
652.381	347.82
652.578	282.53
652.775	328.45
652.971	316.63
653.168	322.25
653.364	356.35
653.561	247.46
653.757	318.96
653.954	317.79
654.15	316.24
654.347	379.41
654.543	299.58
654.74	276.14
654.936	295.51
655.133	326.32
655.329	329.61
655.525	297.06
655.722	356.35
655.918	281.18
656.115	349.57
656.311	276.14
656.507	276.91
656.704	238.16
656.9	256.57
657.096	253.47
657.292	252.31
657.489	315.86
657.685	309.08
657.881	284.08
658.077	274.78
658.273	272.84
658.47	351.89
658.666	270.33
658.862	293.96
659.058	301.91
659.254	330.58
659.45	277.69
659.646	316.05
659.842	278.08
660.038	351.12
660.234	284.28
660.43	318.96
660.626	363.71
660.822	324.19
661.018	348.79
661.214	309.66
661.41	291.06
661.606	334.07
661.802	302.88
661.998	290.67
662.194	288.93
662.39	301.33
662.586	313.53
662.781	329.61
662.977	334.07
663.173	368.56
663.369	313.34
663.564	322.06
663.76	324.58
663.956	305.39
664.152	358.09
664.347	273.23
664.543	304.04
664.739	289.89
664.934	239.52
665.13	220.34
665.326	322.25
665.521	315.47
665.717	261.61
665.912	266.84
666.108	226.35
666.304	283.11
666.499	309.66
666.695	245.53
666.89	276.91
667.086	318.76
667.281	307.33
667.477	332.71
667.672	286.6
667.867	298.23
668.063	303.46
668.258	267.81
668.454	285.83
668.649	338.33
668.844	283.69
669.04	288.93
669.235	270.33
669.43	272.26
669.626	235.65
669.821	242.43
670.016	262.38
670.211	263.74
670.407	245.53
670.602	276.33
670.797	261.22
670.992	301.91
671.187	227.7
671.382	284.47
671.578	286.02
671.773	310.63
671.968	261.41
672.163	255.79
672.358	316.63
672.553	256.57
672.748	257.54
672.943	328.06
673.138	283.5
673.333	301.71
673.528	287.96
673.723	283.69
673.918	263.54
674.113	238.16
674.308	334.84
674.503	275.94
674.698	298.23
674.892	288.93
675.087	310.43
675.282	289.89
675.477	230.61
675.672	274.2
675.867	256.76
676.061	238.55
676.256	241.07
676.451	274.98
676.646	255.41
676.84	262.77
677.035	212.01
677.23	208.13
677.424	298.42
677.619	298.23
677.814	304.23
678.008	276.33
678.203	205.81
678.397	247.66
678.592	285.05
678.787	320.31
678.981	274.59
679.176	261.61
679.37	271.49
679.565	249.59
679.759	263.93
679.954	283.31
680.148	344.53
680.342	322.83
680.537	279.82
680.731	245.14
680.926	282.53
681.12	301.33
681.314	232.55
681.509	262.96
681.703	270.71
681.897	302.68
682.092	231.19
682.286	247.08
682.48	333.68
682.674	299.78
682.869	249.21
683.063	232.16
683.257	336.01
683.451	227.51
683.645	275.75
683.839	272.84
684.034	258.7
684.228	284.86
684.422	215.69
684.616	233.9
684.81	272.26
685.004	247.66
685.198	236.61
685.392	272.46
685.586	230.61
685.78	265.09
685.974	257.93
686.168	287.38
686.362	312.95
686.556	269.55
686.75	218.79
686.944	214.91
687.138	308.11
687.331	211.81
687.525	232.16
687.719	184.3
687.913	224.41
688.107	208.71
688.301	187.98
688.494	251.92
688.688	212.78
688.882	194.38
689.076	191.86
689.269	211.62
689.463	270.71
689.657	224.41
689.85	202.9
690.044	224.41
690.238	210.85
690.431	194.57
690.625	216.66
690.818	223.05
691.012	253.28
691.205	245.53
691.399	198.45
691.593	226.54
691.786	270.52
691.98	274.39
692.173	315.86
692.366	275.17
692.56	281.76
692.753	321.48
692.947	239.91
693.14	302.29
693.333	292.41
693.527	219.95
693.72	281.95
693.914	254.44
694.107	252.31
694.3	251.53
694.493	264.9
694.687	311.59
694.88	241.26
695.073	319.34
695.266	282.53
695.46	279.43
695.653	320.51
695.846	304.81
696.039	237.58
696.232	271.1
696.425	317.41
696.618	309.46
696.812	281.18
697.005	340.66
697.198	387.74
697.391	334.65
697.584	357.9
697.777	370.11
697.97	346.86
698.163	359.06
698.356	365.46
698.549	439.85
698.742	389.67
698.935	343.17
699.127	393.74
699.32	347.24
699.513	385.02
699.706	376.31
699.899	381.92
700.092	360.42
700.285	407.11
700.477	320.89
700.67	394.13
700.863	414.28
701.056	497.01
701.248	441.6
701.441	440.82
701.634	404.4
701.826	501.47
702.019	401.11
702.212	462.33
702.404	430.75
702.597	424.16
702.79	422.22
702.982	460.2
703.175	457.29
703.367	450.9
703.56	456.52
703.752	524.52
703.945	505.53
704.137	522.39
704.33	494.88
704.522	508.44
704.715	535.95
704.907	518.32
705.1	571.6
705.292	528.98
705.484	551.84
705.677	540.99
705.869	567.92
706.061	580.52
706.254	599.11
706.446	567.34
706.638	606.09
706.831	648.33
707.023	600.28
707.215	615.97
707.407	629.73
707.599	605.9
707.792	675.06
707.984	621.2
708.176	652.78
708.368	618.68
708.56	638.64
708.752	632.05
708.944	622.95
709.136	685.53
709.329	655.5
709.521	745.01
709.713	731.25
709.905	687.27
710.097	763.41
710.289	638.45
710.481	715.94
710.672	711.88
710.864	722.14
711.056	752.37
711.248	768.26
711.44	765.35
711.632	775.23
711.824	784.34
712.016	844.01
712.207	781.04
712.399	796.16
712.591	854.09
712.783	841.88
712.975	830.45
713.166	791.51
713.358	834.91
713.55	876.56
713.741	866.68
713.933	852.73
714.125	867.84
714.316	843.24
714.508	910.27
714.7	913.18
714.891	900.78
715.083	949.6
715.274	901.17
715.466	907.56
715.657	947.08
715.849	850.02
716.04	899.04
716.232	854.67
716.423	932.94
716.615	875.79
716.806	877.53
716.998	855.83
717.189	834.71
717.381	730.09
717.572	764.77
717.763	824.44
717.955	815.92
718.146	779.88
718.337	778.14
718.528	728.15
718.72	714.2
718.911	768.26
719.102	726.21
719.293	768.45
719.485	724.08
719.676	720.4
719.867	714.59
720.058	702.77
720.249	726.41
720.44	767.67
720.632	794.99
720.823	825.61
721.014	931
721.205	882.95
721.396	903.88
721.587	970.33
721.778	972.85
721.969	990.1
722.16	1005.98
722.351	1018.97
722.542	1129.59
722.733	1127.66
722.924	1059.07
723.115	1088.52
723.305	1092.98
723.496	1074.38
723.687	1027.1
723.878	1044.93
724.069	1056.16
724.26	1042.21
724.45	1006.37
724.641	982.54
724.832	1014.7
725.023	1022.45
725.213	1010.63
725.404	1003.85
725.595	1032.14
725.785	1017.61
725.976	1051.9
726.167	1054.42
726.357	1069.73
726.548	1153.04
726.739	1096.46
726.929	1118.55
727.12	1106.73
727.31	1138.31
727.501	1111.77
727.691	1138.51
727.882	1145.09
728.072	1153.43
728.263	1163.5
728.453	1189.08
728.644	1192.76
728.834	1193.34
729.024	1167.38
729.215	1168.73
729.405	1189.66
729.596	1237.51
729.786	1258.82
729.976	1230.54
730.167	1259.99
730.357	1223.76
730.547	1208.26
730.737	1280.91
730.928	1279.94
731.118	1353.76
731.308	1291.95
731.498	1278.2
731.688	1353.57
731.879	1359.19
732.069	1439.98
732.259	1445.02
732.449	1393.09
732.639	1480.66
732.829	1515.93
733.019	1510.7
733.209	1535.5
733.399	1508.37
733.589	1612.03
733.779	1595.17
733.969	1596.91
734.159	1643.8
734.349	1704.06
734.539	1661.62
734.729	1657.75
734.919	1726.14
735.109	1754.43
735.299	1657.75
735.488	1719.36
735.678	1748.04
735.868	1709.29
736.058	1729.82
736.248	1721.3
736.437	1685.07
736.627	1690.69
736.817	1790.47
737.007	1761.02
737.196	1779.42
737.386	1784.46
737.576	1787.95
737.765	1798.8
737.955	1793.95
738.144	1868.93
738.334	1838.52
738.524	1805.58
738.713	1820.3
738.903	1831.54
739.092	1828.44
739.282	1877.85
739.471	1884.24
739.661	1833.67
739.85	1881.33
740.04	1909.43
740.229	1909.43
740.419	1964.06
740.608	1949.15
740.797	1894.7
740.987	2006.49
741.176	2007.46
741.365	1933.06
741.555	1921.25
741.744	1978.21
741.933	1990.03
742.123	1993.71
742.312	2040.4
742.501	2041.37
742.69	2036.14
742.88	1968.13
743.069	2102.79
743.258	1998.16
743.447	2080.12
743.636	2061.33
743.825	2033.23
744.014	2053.58
744.204	2088.06
744.393	2017.73
744.582	2062.68
744.771	2133.59
744.96	2056.29
745.149	2098.33
745.338	2049.12
745.527	2103.56
745.716	2057.45
745.905	2073.53
746.094	2090.39
746.283	2124.49
746.471	2119.64
746.66	2147.16
746.849	2111.89
747.038	2202.18
747.227	2117.71
747.416	2165.17
747.604	2148.12
747.793	2131.85
747.982	2178.15
748.171	2161.11
748.359	2168.27
748.548	2164.01
748.737	2134.76
748.926	2085.54
749.114	2079.73
749.303	2170.21
749.491	2147.35
749.68	2086.51
749.869	2169.24
750.057	2171.76
750.246	2140.37
750.434	2094.26
750.623	2116.74
750.811	2121.19
751	2141.73
751.188	2095.81
751.377	2117.51
751.565	2096.01
751.754	2097.17
751.942	2078.57
752.131	2170.02
752.319	2085.54
752.507	2073.34
752.696	2120.03
752.884	2117.9
753.072	2058.03
753.261	2146.38
753.449	2149.87
753.637	2086.71
753.825	2181.25
754.014	2108.02
754.202	2068.69
754.39	2178.35
754.578	2149.09
754.766	2091.94
754.955	2087.87
755.143	2158.78
755.331	2104.34
755.519	2070.43
755.707	2098.52
755.895	2073.92
756.083	2095.23
756.271	2055.13
756.459	2058.61
756.647	2113.83
756.835	2055.51
757.023	2077.41
757.211	2075.08
757.399	2054.74
757.587	2037.49
757.775	2008.24
757.963	2059.78
758.151	2085.74
758.339	2036.72
758.526	1963.48
758.714	2028.78
758.902	1924.54
759.09	1910.01
759.278	1778.45
759.465	1662.98
759.653	1411.88
759.841	1293.89
760.028	1087.75
760.216	922.87
760.404	903.1
760.591	737.45
760.779	612.1
760.967	528.4
761.154	438.3
761.342	475.31
761.529	457.49
761.717	507.08
761.905	486.74
762.092	538.86
762.28	504.18
762.467	495.27
762.655	470.08
762.842	451.67
763.029	509.22
763.217	485.39
763.404	484.61
763.592	498.95
763.779	435.2
763.966	464.65
764.154	535.18
764.341	567.92
764.528	586.33
764.716	615.2
764.903	629.92
765.09	665.96
765.277	703.16
765.465	799.26
765.652	825.61
765.839	879.66
766.026	967.62
766.213	984.09
766.4	1060.62
766.588	1186.36
766.775	1162.14
766.962	1266.77
767.149	1270.45
767.336	1391.54
767.523	1381.66
767.71	1451.6
767.897	1528.71
768.084	1553.51
768.271	1583.74
768.458	1613.58
768.645	1675.38
768.832	1619.78
769.019	1634.31
769.206	1703.09
769.392	1724.98
769.579	1831.15
769.766	1774.19
769.953	1764.31
770.14	1821.27
770.327	1795.5
770.513	1852.08
770.7	1889.47
770.887	1790.66
771.073	1830.77
771.26	1838.52
771.447	1833.48
771.634	1816.62
771.82	1889.08
772.007	1788.92
772.193	1833.28
772.38	1862.15
772.567	1817.98
772.753	1797.25
772.94	1877.65
773.126	1894.12
773.313	1858.86
773.499	1922.8
773.686	1879.98
773.872	1838.71
774.059	1900.32
774.245	1779.04
774.432	1839.29
774.618	1791.82
774.804	1856.34
774.991	1764.31
775.177	1865.64
775.363	1803.45
775.55	1858.47
775.736	1767.8
775.922	1780.59
776.109	1779.23
776.295	1823.4
776.481	1825.53
776.667	1830.77
776.853	1773.42
777.04	1818.37
777.226	1820.88
777.412	1880.75
777.598	1792.21
777.784	1801.9
777.97	1758.3
778.156	1795.5
778.342	1791.44
778.528	1770.51
778.715	1714.52
778.901	1761.6
779.087	1775.94
779.272	1723.62
779.458	1703.47
779.644	1772.25
779.83	1728.66
780.016	1828.05
780.202	1737.96
780.388	1714.71
780.574	1656.01
780.76	1707.93
780.946	1764.89
781.131	1738.74
781.317	1709.29
781.503	1685.07
781.689	1716.65
781.874	1828.44
782.06	1675.38
782.246	1708.51
782.432	1706.77
782.617	1735.25
782.803	1726.53
782.989	1640.12
783.174	1690.49
783.36	1687.97
783.545	1660.66
783.731	1651.94
783.916	1576.57
784.102	1657.36
784.288	1608.15
784.473	1672.28
784.659	1666.08
784.844	1699.21
785.029	1605.83
785.215	1645.74
785.4	1602.73
785.586	1662.98
785.771	1581.61
785.956	1649.22
786.142	1614.93
786.327	1603.31
786.512	1599.43
786.698	1601.56
786.883	1543.44
787.068	1577.73
787.254	1600.4
787.439	1599.63
787.624	1564.94
787.809	1545.76
787.994	1564.75
788.18	1630.24
788.365	1533.56
788.55	1538.98
788.735	1528.33
788.92	1524.26
789.105	1555.45
789.29	1538.01
789.475	1497.91
789.66	1490.74
789.845	1476.4
790.03	1485.12
790.215	1530.85
790.4	1531.23
790.585	1539.95
790.77	1500.43
790.955	1432.62
791.14	1506.05
791.325	1517.28
791.51	1443.66
791.695	1454.12
791.879	1433.58
792.064	1470.78
792.249	1522.9
792.434	1471.75
792.618	1448.12
792.803	1479.7
792.988	1470.01
793.173	1465.94
793.357	1505.27
793.542	1412.66
793.727	1464.58
793.911	1476.6
794.096	1458
794.281	1508.18
794.465	1571.34
794.65	1464.78
794.834	1510.5
795.019	1541.11
795.203	1515.54
795.388	1533.75
795.572	1572.89
795.757	1470.78
795.941	1498.3
796.126	1522.32
796.31	1438.04
796.494	1471.75
796.679	1457.42
796.863	1455.87
797.048	1497.33
797.232	1468.85
797.416	1493.26
797.601	1509.15
797.785	1549.64
797.969	1544.41
798.153	1450.25
798.338	1510.11
798.522	1529.1
798.706	1507.01
798.89	1477.76
799.074	1601.37
799.258	1559.91
799.443	1537.82
799.627	1504.88
799.811	1534.91
799.995	1500.04
800.179	1486.48
800.363	1514.38
800.547	1515.93
800.731	1545.76
800.915	1449.47
801.099	1522.32
801.283	1500.04
801.467	1509.73
801.651	1456.25
801.835	1535.3
802.019	1505.27
802.202	1515.73
802.386	1427
802.57	1466.33
802.754	1456.64
802.938	1469.43
803.121	1456.25
803.305	1528.33
803.489	1507.98
803.673	1464.2
803.856	1506.63
804.04	1492.29
804.224	1531.81
804.407	1488.22
804.591	1471.95
804.775	1458
804.958	1488.03
805.142	1581.03
805.326	1485.12
805.509	1505.46
805.693	1528.71
805.876	1514.96
806.06	1530.26
806.243	1531.43
806.427	1518.25
806.61	1553.9
806.794	1504.3
806.977	1542.66
807.16	1510.7
807.344	1517.28
807.527	1465.94
807.71	1482.21
807.894	1509.92
808.077	1548.48
808.26	1498.1
808.444	1481.83
808.627	1498.88
808.81	1481.44
808.993	1433.78
809.177	1399.29
809.36	1460.32
809.543	1482.02
809.726	1379.72
809.909	1390.96
810.092	1426.61
810.276	1384.37
810.459	1398.9
810.642	1402.2
810.825	1390.18
811.008	1389.8
811.191	1314.04
811.374	1316.75
811.557	1347.17
811.74	1380.69
811.923	1335.94
812.106	1296.41
812.289	1272
812.472	1269.48
812.654	1328.19
812.837	1259.99
813.02	1224.34
813.203	1239.06
813.386	1134.24
813.569	1135.41
813.751	1088.52
813.934	1126.69
814.117	1138.31
814.3	1103.44
814.482	1047.06
814.665	1082.13
814.848	1056.16
815.03	971.11
815.213	1012.96
815.396	999.78
815.578	974.02
815.761	966.65
815.943	988.93
816.126	965.49
816.309	931.97
816.491	884.7
816.674	856.22
816.856	902.33
817.039	887.41
817.221	977.12
817.403	931.59
817.586	921.51
817.768	951.73
817.951	878.11
818.133	883.92
818.315	897.87
818.498	935.85
818.68	972.47
818.862	904.65
819.045	961.62
819.227	964.91
819.409	924.61
819.591	930.04
819.774	931.59
819.956	907.37
820.138	967.82
820.32	938.17
820.502	988.74
820.684	1042.6
820.866	1015.67
821.048	1067.79
821.231	1061.59
821.413	1099.76
821.595	1039.11
821.777	1026.13
821.959	1024.39
822.141	1095.69
822.323	967.82
822.505	936.82
822.686	920.74
822.868	905.62
823.05	817.27
823.232	844.01
823.414	790.54
823.596	859.12
823.778	810.88
823.96	844.01
824.141	830.45
824.323	860.87
824.505	888.38
824.687	942.24
824.868	945.73
825.05	1021.29
825.232	1027.88
825.413	1082.51
825.595	1020.9
825.777	998.62
825.958	994.36
826.14	1006.95
826.321	1067.6
826.503	1013.54
826.685	1023.03
826.866	1035.43
827.048	1043.96
827.229	997.27
827.411	981.38
827.592	940.3
827.773	966.07
827.955	897.29
828.136	907.37
828.318	881.4
828.499	935.85
828.68	912.21
828.862	937.98
829.043	946.12
829.224	943.02
829.406	891.48
829.587	898.84
829.768	896.71
829.949	904.46
830.131	913.57
830.312	957.35
830.493	909.5
830.674	928.49
830.855	910.85
831.036	895.55
831.218	964.52
831.399	963.36
831.58	918.41
831.761	926.94
831.942	934.1
832.123	943.79
832.304	855.25
832.485	895.16
832.666	911.82
832.847	925.19
833.028	925.39
833.209	918.02
833.389	937.2
833.57	847.31
833.751	914.54
833.932	951.73
834.113	901.17
834.294	887.02
834.475	916.67
834.655	983.51
834.836	958.9
835.017	942.24
835.198	860.48
835.378	905.24
835.559	965.88
835.74	910.85
835.92	886.64
836.101	907.17
836.281	944.95
836.462	987.77
836.643	983.51
836.823	984.67
837.004	973.63
837.184	1011.6
837.365	956.97
837.545	1007.53
837.726	960.07
837.906	1023.81
838.087	976.73
838.267	958.52
838.448	902.91
838.628	996.3
838.808	941.66
838.989	1024
839.169	936.62
839.349	1002.88
839.53	977.5
839.71	975.18
839.89	951.93
840.07	1032.72
840.251	953.09
840.431	979.83
840.611	981.77
840.791	957.16
840.971	973.82
841.151	944.37
841.332	917.25
841.512	1016.45
841.692	904.27
841.872	962.58
842.052	941.66
842.232	976.73
842.412	919.77
842.592	978.86
842.772	967.23
842.952	956.77
843.132	943.02
843.312	917.83
843.492	881.02
843.672	960.26
843.851	885.09
844.031	953.28
844.211	940.69
844.391	921.7
844.571	926.16
844.751	942.82
844.93	946.31
845.11	915.31
845.29	939.14
845.47	975.95
845.649	956.38
845.829	962
846.009	894.97
846.188	938.37
846.368	932.75
846.547	918.6
846.727	974.6
846.907	900.97
847.086	963.36
847.266	932.36
847.445	922.29
847.625	922.67
847.804	881.6
847.984	940.5
848.163	884.31
848.343	894.39
848.522	884.89
848.701	909.89
848.881	877.34
849.06	913.57
849.239	923.84
849.419	890.9
849.598	851.18
849.777	886.44
849.957	868.23
850.136	799.84
850.315	814.17
850.494	828.32
850.674	819.21
850.853	909.69
851.032	848.27
851.211	890.32
851.39	837.62
851.569	805.84
851.748	816.31
851.927	881.79
852.107	836.46
852.286	821.73
852.465	810.3
852.644	839.56
852.823	838.39
853.002	824.06
853.181	825.99
853.359	845.76
853.538	780.27
853.717	861.84
853.896	798.67
854.075	757.99
854.254	736.29
854.433	701.22
854.611	780.27
854.79	713.04
854.969	778.14
855.148	774.26
855.327	703.16
855.505	751.79
855.684	737.26
855.863	773.68
856.041	732.99
856.22	794.22
856.399	722.73
856.577	808.56
856.756	803.52
856.934	882.37
857.113	893.42
857.291	791.89
857.47	788.02
857.648	792.86
857.827	780.85
858.005	840.91
858.184	789.18
858.362	875.4
858.541	795.19
858.719	817.47
858.898	773.49
859.076	784.34
859.254	862.61
859.433	763.22
859.611	770
859.789	760.89
859.967	850.6
860.146	867.45
860.324	756.44
860.502	765.93
860.68	734.93
860.859	759.73
861.037	785.69
861.215	757.02
861.393	778.52
861.571	783.56
861.749	752.18
861.927	796.74
862.105	775.04
862.283	791.12
862.461	758.18
862.639	734.54
862.817	762.44
862.995	776.78
863.173	758.38
863.351	756.44
863.529	744.23
863.707	794.41
863.885	737.84
864.063	680.88
864.241	717.69
864.418	778.14
864.596	712.84
864.774	728.15
864.952	730.28
865.129	749.66
865.307	720.4
865.485	675.84
865.663	752.95
865.84	695.41
866.018	713.62
866.196	606.86
866.373	640.96
866.551	628.18
866.728	608.22
866.906	630.31
867.084	660.73
867.261	684.36
867.439	688.82
867.616	713.23
867.794	648.91
867.971	688.63
868.149	713.23
868.326	758.57
868.503	704.13
868.681	692.69
868.858	691.34
869.035	660.15
869.213	694.24
869.39	695.21
869.567	751.79
869.745	695.6
869.922	697.54
870.099	699.67
870.276	704.51
870.454	711.1
870.631	717.3
870.808	674.68
870.985	697.73
871.162	763.8
871.339	703.93
871.517	646.78
871.694	659.95
871.871	691.34
872.048	678.36
872.225	672.16
872.402	685.33
872.579	629.53
872.756	667.7
872.933	620.43
873.11	663.25
873.287	675.26
873.463	648.33
873.64	664.21
873.817	665.18
873.994	667.7
874.171	615.58
874.348	691.53
874.524	619.65
874.701	631.08
874.878	599.5
875.055	677.97
875.231	654.14
875.408	640.19
875.585	609
875.762	652.2
875.938	636.31
876.115	620.43
876.291	648.33
876.468	605.9
876.645	579.74
876.821	637.48
876.998	597.76
877.174	654.14
877.351	616.36
877.527	615.78
877.704	622.17
877.88	651.23
878.057	617.71
878.233	672.55
878.409	605.9
878.586	628.37
878.762	625.08
878.938	576.25
879.115	529.37
879.291	610.16
879.467	568.31
879.644	567.92
879.82	638.83
879.996	570.83
880.172	529.95
880.349	551.84
880.525	612.48
880.701	539.63
880.877	557.85
881.053	621.01
881.229	563.08
881.405	629.73
881.581	553.78
881.757	562.88
881.933	582.26
882.109	596.6
882.285	556.3
882.461	521.62
882.637	549.9
882.813	566.18
882.989	584.78
883.165	582.07
883.341	543.7
883.517	606.48
883.693	560.56
883.869	616.94
884.044	539.25
884.22	567.34
884.396	588.27
884.572	605.51
884.747	614.23
884.923	603.18
885.099	621.2
885.275	597.95
885.45	565.79
885.626	559.59
885.801	579.35
885.977	561.53
886.153	543.12
886.328	582.84
886.504	546.03
886.679	591.36
886.855	565.21
887.03	576.06
887.206	594.27
887.381	579.93
887.557	587.88
887.732	567.92
887.908	575.48
888.083	612.29
888.258	577.22
888.434	523.36
888.609	574.51
888.784	594.85
888.96	553
889.135	521.03
889.31	544.48
889.485	564.82
889.661	545.06
889.836	588.85
890.011	575.09
890.186	547.38
890.361	562.88
890.537	587.1
890.712	574.32
890.887	563.85
891.062	554.55
891.237	595.82
891.412	520.84
891.587	559.4
891.762	594.85
891.937	601.25
892.112	519.1
892.287	547.19
892.462	513.87
892.637	494.88
892.812	496.04
892.987	533.43
893.161	514.83
893.336	494.88
893.511	529.95
893.686	523.55
893.861	517.35
894.035	502.44
894.21	524.91
894.385	471.44
894.56	491.39
894.734	447.22
894.909	485.39
895.084	471.63
895.258	453.61
895.433	457.29
895.608	471.24
895.782	429.39
895.957	429.97
896.131	447.41
896.306	382.12
896.48	380.18
896.655	407.11
896.829	353.83
897.004	367.78
897.178	367.59
897.353	354.41
897.527	401.88
897.701	375.72
897.876	350.92
898.05	404.21
898.224	368.17
898.399	424.74
898.573	382.12
898.747	313.73
898.921	391.22
899.096	268.19
899.27	282.92
899.444	279.63
899.618	313.92
899.792	351.89
899.967	313.53
900.141	341.24
900.315	275.56
900.489	336.2
900.663	327.29
900.837	328.84
901.011	260.25
901.185	368.17
901.359	326.51
901.533	351.7
901.707	337.36
901.881	358.67
902.055	267.42
902.229	323.61
902.403	386.57
902.576	320.12
902.75	347.24
902.924	426.87
903.098	375.92
903.272	412.92
903.446	422.61
903.619	371.46
903.793	422.8
903.967	382.51
904.14	417.19
904.314	443.73
904.488	421.45
904.661	443.34
904.835	435.01
905.009	431.33
905.182	472.99
905.356	455.94
905.529	425.13
905.703	378.44
905.876	382.89
906.05	373.98
906.223	390.06
906.397	320.31
906.57	314.11
906.744	329.61
906.917	313.34
907.09	313.53
907.264	343.56
907.437	318.57
907.61	300.36
907.784	303.46
907.957	311.01
908.13	290.86
908.304	351.12
908.477	299.58
908.65	302.68
908.823	268.19
908.996	334.46
909.17	296.29
909.343	309.08
909.516	300.55
909.689	303.07
909.862	264.51
910.035	261.8
910.208	249.59
910.381	260.83
910.554	352.09
910.727	299
910.9	262.77
911.073	272.65
911.246	341.43
911.419	322.64
911.592	306.94
911.765	268.97
911.938	255.41
912.11	295.9
912.283	301.52
912.456	308.11
912.629	294.74
912.802	272.26
912.974	266.26
913.147	235.26
913.32	186.05
913.493	233.32
913.665	243.2
913.838	273.43
914.01	253.28
914.183	241.07
914.356	224.6
914.528	257.73
914.701	314.11
914.873	283.11
915.046	259.67
915.218	215.11
915.391	175.97
915.563	178.49
915.736	253.86
915.908	280.98
916.081	241.26
916.253	244.36
916.425	247.85
916.598	247.66
916.77	261.8
916.942	205.42
917.115	160.86
917.287	261.41
917.459	223.25
917.632	212.78
917.804	181.78
917.976	263.16
918.148	224.99
918.32	224.8
918.493	248.82
918.665	303.65
918.837	229.25
919.009	289.89
919.181	281.76
919.353	291.44
919.525	241.65
919.697	241.26
919.869	262.19
920.041	307.72
920.213	347.24
920.385	296.48
920.557	261.03
920.729	276.72
920.901	264.9
921.073	254.83
921.244	255.21
921.416	299.78
921.588	283.69
921.76	215.3
921.932	324.38
922.103	273.81
922.275	251.73
922.447	262.96
922.619	205.03
922.79	240.49
922.962	234.48
923.134	270.13
923.305	211.23
923.477	221.7
923.648	189.92
923.82	243.01
923.991	187.21
924.163	186.05
924.335	198.06
924.506	204.84
924.677	280.59
924.849	208.33
925.02	244.56
925.192	243.98
925.363	212.01
925.535	217.24
925.706	200.77
925.877	253.47
926.049	205.61
926.22	254.63
926.391	208.52
926.562	246.3
926.734	175.2
926.905	241.65
927.076	165.9
927.247	196.7
927.419	180.43
927.59	150.2
927.761	194.38
927.932	197.09
928.103	195.54
928.274	165.51
928.445	157.18
928.616	183.72
928.787	155.05
928.958	195.35
929.129	174.42
929.3	154.66
929.471	142.26
929.642	84.33
929.813	54.88
929.984	166.86
930.155	73.87
930.326	136.25
930.496	106.03
930.667	51.2
930.838	86.46
931.009	65.15
931.18	83.55
931.35	92.27
931.521	114.55
931.692	69.99
931.863	35.89
932.033	101.57
932.204	78.52
932.374	89.56
932.545	39.38
932.716	104.67
932.886	97.5
933.057	23.49
933.227	39.77
933.398	115.52
933.568	25.24
933.739	12.84
933.909	29.3
934.08	88.59
934.25	-26.88
934.421	8.19
934.591	45.39
934.761	6.64
934.932	-10.41
935.102	2.95
935.272	18.26
935.443	29.3
935.613	17.1
935.783	46.55
935.953	9.54
936.123	138.77
936.294	-13.13
936.464	2.37
936.634	38.41
936.804	-21.46
936.974	-12.35
937.144	58.95
937.314	-10.03
937.484	32.21
937.655	-20.88
937.825	60.5
937.995	4.31
938.165	46.16
938.334	10.51
938.504	55.46
938.674	23.88
938.844	29.5
939.014	80.07
939.184	38.41
939.354	109.71
939.524	62.63
939.694	35.89
939.863	32.02
940.033	67.28
940.203	84.91
940.373	75.42
940.542	118.23
940.712	45.19
940.882	89.37
941.051	101.57
941.221	89.37
941.391	75.42
941.56	22.72
941.73	42.09
941.899	142.07
942.069	16.9
942.238	89.75
942.408	54.69
942.577	70.77
942.747	36.86
942.916	15.94
943.086	21.94
943.255	106.03
943.425	42.67
943.594	38.02
943.763	-8.28
943.933	22.52
944.102	-18.75
944.271	48.87
944.441	57.01
944.61	41.7
944.779	40.93
944.948	105.25
945.117	21.17
945.287	19.81
945.456	-8.28
945.625	4.5
945.794	50.62
945.963	14.97
946.132	38.8
946.301	15.35
946.47	69.41
946.639	-35.41
946.808	13.42
946.977	77.55
947.146	76.19
947.315	22.91
947.484	50.62
947.653	42.87
947.822	5.86
947.991	5.47
948.16	100.99
948.329	59.53
948.498	9.35
948.666	39.57
948.835	59.92
949.004	-17.39
949.173	11.48
949.341	6.05
949.51	41.9
949.679	96.73
949.847	74.45
950.016	117.27
950.185	84.91
950.353	10.12
950.522	21.94
950.69	76.97
950.859	40.93
951.028	88.01
951.196	45.77
951.365	10.32
951.533	23.49
951.701	80.26
951.87	68.05
952.038	18.65
952.207	42.09
952.375	79.48
952.543	9.93
952.712	27.75
952.88	11.67
953.048	97.5
953.217	51
953.385	19.62
953.553	80.26
953.721	1.99
953.89	33.76
954.058	-9.06
954.226	9.15
954.394	42.29
954.562	-11.19
954.73	41.51
954.898	19.81
955.067	65.34
955.235	30.27
955.403	54.1
955.571	122.3
955.739	60.89
955.907	-4.99
956.075	17.49
956.243	-2.66
956.41	57.59
956.578	34.34
956.746	19.23
956.914	10.32
957.082	60.11
957.25	43.45
957.418	33.76
957.585	35.31
957.753	78.71
957.921	17.1
958.089	35.5
958.256	50.42
958.424	72.12
958.592	51.39
958.759	18.26
958.927	96.34
959.095	20.2
959.262	30.08
959.43	40.54
959.597	1.99
959.765	38.41
959.932	13.8
960.1	65.15
960.267	36.47
960.435	33.76
960.602	70.38
960.77	44.61
960.937	3.15
961.104	32.21
961.272	16.52
961.439	46.74
961.606	52.55
961.774	66.31
961.941	26.98
962.108	69.22
962.275	33.57
962.443	50.62
962.61	58.56
962.777	110.48
962.944	80.65
963.111	53.33
963.278	72.32
963.446	53.14
963.613	44.03
963.78	66.12
963.947	55.65
964.114	66.7
964.281	128.31
964.448	56.04
964.615	28.92
964.782	50.42
964.949	101.96
965.116	41.9
965.282	89.56
965.449	31.82
965.616	26.98
965.783	68.83
965.95	64.37
966.117	19.23
966.283	70.96
966.45	68.63
966.617	39.57
966.784	62.44
966.95	76.38
967.117	99.44
967.284	15.35
967.45	18.07
967.617	92.66
967.784	60.5
967.95	113.97
968.117	57.59
968.283	84.91
968.45	151.75
968.616	79.1
968.783	92.66
968.949	76.97
969.116	106.42
969.282	68.63
969.449	58.17
969.615	56.43
969.781	28.92
969.948	49.65
970.114	45.19
970.28	97.31
970.447	45.58
970.613	94.4
970.779	57.4
970.945	79.87
971.112	82.97
971.278	53.14
971.444	45.39
971.61	71.73
971.776	55.85
971.942	90.14
972.108	98.08
972.275	40.35
972.441	80.45
972.607	126.95
972.773	48.87
972.939	73.87
973.105	77.93
973.271	32.79
973.437	5.86
973.602	14.97
973.768	80.45
973.934	55.46
974.1	62.82
974.266	10.32
974.432	61.85
974.598	40.74
974.763	84.13
974.929	49.84
975.095	119.98
975.261	43.64
975.426	12.25
975.592	53.91
975.758	137.8
975.923	25.82
976.089	43.25
976.255	97.31
976.42	52.55
976.586	75.42
976.751	50.42
976.917	135.28
977.082	70.57
977.248	14
977.413	-1.31
977.579	33.95
977.744	39.57
977.91	41.32
978.075	74.06
978.24	82
978.406	51.97
978.571	31.63
978.736	33.37
978.902	67.47
979.067	49.07
979.232	21.36
979.397	61.08
979.563	91.69
979.728	11.29
979.893	48.87
980.058	45.58
980.223	48.68
980.388	61.85
980.554	66.31
980.719	56.24
980.884	64.57
981.049	73.28
981.214	31.44
981.379	70.38
981.544	43.64
981.709	56.24
981.874	64.76
982.039	73.28
982.204	77.55
982.368	66.7
982.533	45.58
982.698	86.27
982.863	81.62
983.028	28.34
983.193	73.09
983.357	57.59
983.522	44.61
983.687	38.99
983.852	43.06
984.016	36.09
984.181	73.28
984.346	63.99
984.51	83.55
984.675	49.45
984.839	79.29
985.004	51.78
985.168	95.37
985.333	69.6
985.498	43.45
985.662	82.97
985.827	78.13
985.991	68.44
986.155	55.07
986.32	76.77
986.484	106.22
986.649	65.54
986.813	-14.48
986.977	67.28
987.142	84.72
987.306	2.57
987.47	32.21
987.634	40.54
987.799	67.47
987.963	41.32
988.127	67.08
988.291	128.31
988.455	58.56
988.62	37.83
988.784	77.93
988.948	75.03
989.112	52.36
989.276	76.97
989.44	75.03
989.604	30.27
989.768	60.3
989.932	120.56
990.096	10.51
990.26	9.93
990.424	20.2
990.588	55.07
990.752	140.32
990.915	60.69
991.079	40.35
991.243	28.14
991.407	54.3
991.571	46.94
991.734	63.6
991.898	66.89
992.062	139.93
992.226	60.5
992.389	13.42
992.553	-15.06
992.717	19.42
992.88	31.05
993.044	45.19
993.207	44.03
993.371	64.95
993.535	27.56
993.698	30.47
993.862	78.13
994.025	94.02
994.189	45.97
994.352	55.46
994.515	46.16
994.679	90.53
994.842	29.89
995.006	114.36
995.169	1.4
995.332	19.81
995.496	75.61
995.659	19.62
995.822	39.38
995.985	30.47
996.149	97.12
996.312	51.39
996.475	138
996.638	29.5
996.801	101.57
996.964	105.06
997.128	68.25
997.291	32.02
997.454	57.59
997.617	-5.76
997.78	90.53
997.943	24.85
998.106	51.2
998.269	25.82
998.432	59.92
998.595	41.7
998.758	20
998.92	25.43
999.083	-2.47
999.246	56.82
999.409	3.15
999.572	-13.9
999.735	25.82
999.897	71.93
1000.06	20.97
1000.223	26.4
1000.386	61.66
1000.548	59.14
1000.711	55.65
1000.874	45.39
1001.036	-18.16
1001.199	73.48
1001.361	21.17
1001.524	2.37
1001.687	75.03
1001.849	2.57
1002.012	41.12
1002.174	40.35
1002.337	49.07
1002.499	10.32
1002.661	95.18
1002.824	19.62
1002.986	24.85
1003.149	43.45
1003.311	9.93
1003.473	88.4
1003.636	9.54
1003.798	53.91
1003.96	43.45
1004.123	42.67
1004.285	31.44
1004.447	44.03
1004.609	54.69
1004.771	99.44
1004.933	8.57
1005.096	24.27
1005.258	-8.28
1005.42	29.3
1005.582	72.32
1005.744	29.5
1005.906	-6.35
1006.068	49.65
1006.23	-3.05
1006.392	-2.47
1006.554	12.06
1006.716	48.1
1006.878	52.17
1007.04	-16.42
1007.202	8.19
1007.363	24.46
1007.525	25.82
1007.687	49.65
1007.849	56.43
1008.011	-18.55
1008.172	11.87
1008.334	14
1008.496	45.39
1008.658	-15.84
1008.819	20.39
1008.981	3.54
1009.143	-5.18
1009.304	22.52
1009.466	44.8
1009.627	74.06
1009.789	120.37
1009.95	39.77
1010.112	40.54
1010.273	41.7
1010.435	9.15
1010.596	14
1010.758	26.2
1010.919	-10.03
1011.081	7.6
1011.242	42.09
1011.403	45
1011.565	36.86
1011.726	15.55
1011.887	-3.44
1012.049	38.99
1012.21	46.94
1012.371	86.46
1012.532	-22.23
1012.693	16.71
1012.855	0.82
1013.016	44.61
1013.177	50.04
1013.338	19.81
1013.499	68.83
1013.66	44.61
1013.821	72.32
1013.982	57.2
1014.143	43.06
1014.304	22.72
1014.465	26.79
1014.626	51.2
1014.787	1.02
1014.948	91.3
1015.109	-45.29
1015.27	49.65
1015.431	29.69
1015.592	-7.31
1015.752	80.07
1015.913	49.07
1016.074	23.88
1016.235	20.39
1016.395	18.45
1016.556	1.99
1016.717	19.23
1016.877	57.98
1017.038	8.19
1017.199	35.89
1017.359	11.29
1017.52	21.55
1017.681	19.62
1017.841	-5.57
1018.002	18.65
1018.162	20.78
1018.323	54.88
1018.483	5.47
1018.644	-5.96
1018.804	-27.85
1018.964	-14.48
1019.125	10.32
1019.285	14.39
1019.446	14.97
1019.606	-5.38
1019.766	-27.66
1019.926	16.9
1020.087	31.44
1020.247	-47.42
1020.407	60.3
1020.567	48.68
1020.728	4.5
1020.888	-15.45
1021.048	-4.21
1021.208	-12.55
1021.368	-4.6
1021.528	67.86
1021.688	61.47
1021.848	14.19
1022.008	5.28
1022.168	-13.32
1022.328	3.15
1022.488	5.09
1022.648	-12.93
1022.808	45.97
1022.968	52.55
1023.128	-2.66
1023.288	-9.25
1023.448	7.6
1023.608	38.22
1023.767	44.42
1023.927	-28.82
1024.087	-10.03
1024.247	-26.49
1024.406	-0.34
1024.566	3.92
1024.726	-4.41
1024.885	-10.22
1025.045	34.34
1025.205	28.53
1025.364	30.66
1025.524	16.32
1025.683	23.49
1025.843	38.8
1026.003	-6.15
1026.162	71.15
1026.321	38.8
1026.481	19.42
1026.64	1.21
1026.8	29.5
1026.959	7.22
1027.119	20.2
1027.278	18.26
1027.437	-23.78
1027.597	8.96
1027.756	11.48
1027.915	28.34
1028.074	27.75
1028.234	-33.47
1028.393	16.71
1028.552	0.05
1028.711	-60.21
1028.87	46.55
1029.03	-1.11
1029.189	12.64
1029.348	-44.71
1029.507	9.93
1029.666	6.44
1029.825	5.28
1029.984	-0.53
1030.143	23.3
1030.302	-0.92
1030.461	-13.13
1030.62	-2.47
1030.779	30.08
1030.938	11.87
1031.097	-19.13
1031.255	28.72
1031.414	46.16
1031.573	45.39
1031.732	-27.66
1031.891	4.12
1032.049	77.55
1032.208	21.94
1032.367	-1.7
1032.525	16.13
1032.684	-0.15
1032.843	4.31
1033.001	-51.49
1033.16	102.54
1033.319	38.99
1033.477	30.08
1033.636	-4.21
1033.794	-20.68
1033.953	43.45
1034.111	26.01
1034.27	9.15
1034.428	17.49
1034.587	-23.39
1034.745	29.89
1034.903	11.29
1035.062	26.79
1035.22	-27.08
1035.378	17.87
1035.537	-15.26
1035.695	14.19
1035.853	-11
1036.011	45
1036.17	6.05
1036.328	-57.3
1036.486	-2.66
1036.644	39.77
1036.802	-58.08
1036.96	-20.88
1037.119	1.99
1037.277	13.42
1037.435	-28.24
1037.593	-25.33
1037.751	14.97
1037.909	4.12
1038.067	4.12
