Data from oakcork_FLMT105791__38__17-27-13-066.txt Node

Date: Mon Mar 20 17:27:13 GMT 2023
User: antho
Spectrometer: FLMT10579
Trigger mode: 0
Integration Time (sec): 1.000000E-1
Scans to average: 10
Electric dark correction enabled: true
Nonlinearity correction enabled: false
Boxcar width: 0
XAxis mode: Wavelengths
Number of Pixels in Spectrum: 3648
>>>>>Begin Spectral Data<<<<<
345.248	-169.87
345.464	-169.87
345.681	-169.87
345.898	-166.19
346.114	-162.89
346.331	-42.96
346.548	40.93
346.764	-13.71
346.981	7.41
347.197	-8.86
347.414	29.89
347.631	-5.57
347.847	37.64
348.064	-6.54
348.28	3.15
348.497	-45.29
348.713	3.92
348.93	27.56
349.146	12.06
349.363	12.64
349.579	43.64
349.796	7.8
350.012	10.7
350.229	22.72
350.445	27.95
350.661	-13.13
350.878	11.29
351.094	38.22
351.311	13.42
351.527	33.76
351.743	-12.35
351.96	60.69
352.176	23.1
352.392	52.17
352.609	36.47
352.825	-12.74
353.041	2.95
353.257	5.47
353.474	14
353.69	19.81
353.906	8.57
354.122	-27.27
354.339	45.19
354.555	20.59
354.771	-2.28
354.987	56.62
355.203	62.82
355.42	-14.48
355.636	-0.53
355.852	4.5
356.068	21.55
356.284	-12.35
356.5	95.18
356.716	35.31
356.932	20
357.148	57.59
357.364	6.05
357.58	45.19
357.796	75.61
358.012	60.11
358.228	27.56
358.444	-65.24
358.66	65.15
358.876	47.9
359.092	-5.18
359.308	17.49
359.524	49.45
359.74	7.6
359.956	-13.9
360.172	4.5
360.388	28.14
360.604	-11.38
360.819	85.68
361.035	9.93
361.251	30.66
361.467	-12.16
361.683	51.39
361.898	33.37
362.114	64.18
362.33	41.9
362.546	72.7
362.762	16.13
362.977	21.94
363.193	-43.54
363.409	40.74
363.624	2.57
363.84	14
364.056	25.62
364.271	39.96
364.487	34.15
364.703	15.94
364.918	-31.73
365.134	-4.21
365.35	-7.12
365.565	123.08
365.781	28.72
365.996	50.62
366.212	83.55
366.427	7.41
366.643	-39.09
366.858	15.55
367.074	8.38
367.289	88.98
367.505	121.72
367.72	-23.39
367.936	7.8
368.151	49.45
368.367	52.75
368.582	16.13
368.798	6.64
369.013	81.62
369.228	28.34
369.444	37.25
369.659	80.65
369.874	44.61
370.09	89.75
370.305	-25.72
370.52	7.8
370.736	56.24
370.951	41.9
371.166	80.26
371.381	89.75
371.597	63.4
371.812	8.77
372.027	6.05
372.242	17.49
372.458	116.68
372.673	14.58
372.888	21.17
373.103	51.39
373.318	114.94
373.533	47.13
373.749	47.13
373.964	-11.77
374.179	55.07
374.394	27.75
374.609	76
374.824	10.7
375.039	71.54
375.254	3.15
375.469	71.54
375.684	33.95
375.899	63.99
376.114	27.37
376.329	25.04
376.544	61.08
376.759	58.95
376.974	9.54
377.189	6.83
377.404	36.09
377.619	82.39
377.834	-13.71
378.049	-10.41
378.264	-16.23
378.478	32.99
378.693	26.01
378.908	60.69
379.123	22.52
379.338	82
379.553	51.78
379.767	43.06
379.982	47.32
380.197	79.87
380.412	37.64
380.626	73.28
380.841	109.32
381.056	81.03
381.271	90.14
381.485	21.17
381.7	17.1
381.915	68.63
382.129	44.61
382.344	40.74
382.559	15.55
382.773	86.46
382.988	-3.63
383.202	42.48
383.417	-5.38
383.632	137.42
383.846	64.37
384.061	32.4
384.275	10.51
384.49	49.26
384.704	48.68
384.919	46.74
385.133	37.25
385.348	56.24
385.562	11.67
385.777	74.45
385.991	38.6
386.206	45.58
386.42	41.9
386.634	77.35
386.849	53.33
387.063	41.9
387.277	24.46
387.492	34.15
387.706	20.78
387.92	32.79
388.135	78.32
388.349	59.72
388.563	35.5
388.778	58.37
388.992	54.1
389.206	91.11
389.42	92.66
389.635	44.8
389.849	60.11
390.063	80.45
390.277	44.03
390.491	103.51
390.706	62.24
390.92	72.7
391.134	78.32
391.348	89.17
391.562	-11.19
391.776	74.06
391.99	28.14
392.205	76.58
392.419	16.13
392.633	37.44
392.847	81.03
393.061	27.75
393.275	106.22
393.489	57.98
393.703	59.92
393.917	98.28
394.131	19.62
394.345	39.19
394.559	100.8
394.773	48.68
394.986	45
395.2	72.51
395.414	68.25
395.628	29.89
395.842	62.05
396.056	31.63
396.27	6.44
396.484	79.48
396.697	66.89
396.911	90.14
397.125	89.37
397.339	101.57
397.553	75.42
397.766	123.66
397.98	119.59
398.194	122.69
398.408	59.72
398.621	95.95
398.835	94.98
399.049	68.83
399.262	132.77
399.476	109.32
399.69	114.36
399.903	137.61
400.117	80.45
400.331	105.06
400.544	89.17
400.758	185.08
400.971	94.4
401.185	131.8
401.398	68.63
401.612	140.32
401.826	141.29
402.039	119.2
402.253	82.58
402.466	138.19
402.68	113.78
402.893	83.36
403.106	93.05
403.32	88.78
403.533	143.62
403.747	97.12
403.96	108.93
404.174	140.32
404.387	69.22
404.6	97.5
404.814	114.55
405.027	113.2
405.24	117.85
405.454	95.76
405.667	149.04
405.88	58.56
406.094	92.08
406.307	132.77
406.52	101.77
406.733	102.93
406.947	51.59
407.16	165.12
407.373	141.87
407.586	100.41
407.799	99.44
408.012	129.28
408.226	123.08
408.439	145.17
408.652	72.9
408.865	138.19
409.078	148.07
409.291	118.82
409.504	94.4
409.717	112.23
409.93	161.83
410.143	147.49
410.357	77.74
410.57	71.73
410.783	113.78
410.996	117.07
411.209	130.44
411.421	177.13
411.634	121.14
411.847	82
412.06	137.8
412.273	151.56
412.486	123.47
412.699	197.86
412.912	125.02
413.125	177.13
413.338	122.3
413.55	135.67
413.763	146.72
413.976	137.8
414.189	115.13
414.402	143.23
414.615	172.87
414.827	112.42
415.04	143.03
415.253	161.05
415.466	180.62
415.678	203.68
415.891	110.29
416.104	122.69
416.316	122.3
416.529	129.47
416.742	150.2
416.954	207.16
417.167	122.88
417.38	112.81
417.592	188.95
417.805	116.88
418.017	74.83
418.23	180.43
418.442	133.54
418.655	106.22
418.868	143.81
419.08	159.31
419.293	195.54
419.505	151.95
419.718	135.87
419.93	183.14
420.142	134.9
420.355	183.91
420.567	177.52
420.78	168.8
420.992	177.13
421.205	210.65
421.417	143.42
421.629	153.5
421.842	118.62
422.054	104.48
422.266	173.65
422.479	184.3
422.691	150.01
422.903	182.17
423.115	132.57
423.328	152.72
423.54	175.78
423.752	141.29
423.964	159.5
424.177	151.95
424.389	150.2
424.601	239.13
424.813	169
425.025	177.91
425.238	201.74
425.45	170.74
425.662	171.51
425.874	481.9
426.086	167.25
426.298	200.77
426.51	172.29
426.722	173.45
426.934	162.8
427.146	185.85
427.358	125.79
427.57	213.17
427.782	175.39
427.994	150.4
428.206	143.62
428.418	113.78
428.63	172.29
428.842	185.85
429.054	178.68
429.266	202.51
429.478	136.83
429.69	168.41
429.902	120.75
430.114	203.68
430.325	197.86
430.537	141.87
430.749	148.46
430.961	103.32
431.173	146.13
431.384	191.08
431.596	110.48
431.808	176.75
432.02	191.86
432.231	195.73
432.443	237.58
432.655	168.8
432.867	145.17
433.078	194.57
433.29	238.16
433.502	205.81
433.713	240.49
433.925	191.08
434.136	240.49
434.348	167.25
434.56	132.57
434.771	254.83
434.983	149.23
435.194	181.59
435.406	192.05
435.617	227.9
435.829	260.06
436.04	238.36
436.252	223.44
436.463	266.26
436.675	256.96
436.886	228.28
437.098	216.27
437.309	284.66
437.521	207.94
437.732	217.05
437.943	225.18
438.155	234.29
438.366	172.29
438.578	286.21
438.789	200.58
439	232.55
439.211	227.9
439.423	234.48
439.634	237
439.845	260.25
440.057	240.29
440.268	274.39
440.479	193.21
440.69	218.01
440.902	206
441.113	222.08
441.324	209.3
441.535	267.61
441.746	292.61
441.957	211.04
442.168	231.19
442.38	277.88
442.591	286.99
442.802	228.28
443.013	237.39
443.224	271.88
443.435	251.92
443.646	248.24
443.857	261.03
444.068	212.98
444.279	245.91
444.49	301.33
444.701	288.73
444.912	354.8
445.123	288.73
445.334	281.56
445.545	304.43
445.756	264.13
445.967	232.35
446.178	283.69
446.388	300.36
446.599	283.89
446.81	299.19
447.021	234.87
447.232	300.36
447.443	318.38
447.653	265.29
447.864	304.62
448.075	294.16
448.286	318.57
448.496	311.21
448.707	307.14
448.918	286.02
449.129	369.33
449.339	279.24
449.55	297.26
449.761	268.78
449.971	380.76
450.182	288.73
450.393	326.51
450.603	280.98
450.814	302.49
451.024	307.53
451.235	332.91
451.446	375.14
451.656	358.87
451.867	272.26
452.077	306.75
452.288	376.11
452.498	380.18
452.709	296.68
452.919	326.9
453.13	311.21
453.34	332.71
453.55	236.42
453.761	329.03
453.971	313.53
454.182	348.79
454.392	331.55
454.602	385.61
454.813	363.52
455.023	362.36
455.233	273.43
455.444	316.44
455.654	248.04
455.864	320.51
456.075	312.56
456.285	299.39
456.495	305.98
456.705	337.36
456.916	372.62
457.126	378.05
457.336	347.24
457.546	275.56
457.756	294.16
457.967	349.57
458.177	310.63
458.387	356.93
458.597	278.85
458.807	332.91
459.017	317.6
459.227	321.67
459.437	333.29
459.647	374.95
459.857	365.65
460.068	310.24
460.278	364.68
460.488	361.77
460.698	394.91
460.908	316.05
461.117	321.48
461.327	323.61
461.537	376.69
461.747	355.38
461.957	347.05
462.167	441.21
462.377	382.31
462.587	334.84
462.797	402.85
463.007	353.06
463.216	383.86
463.426	411.76
463.636	397.04
463.846	346.66
464.056	341.04
464.265	399.94
464.475	333.1
464.685	354.41
464.895	346.66
465.104	352.67
465.314	404.79
465.524	360.22
465.733	307.72
465.943	451.87
466.153	408.27
466.362	407.11
466.572	398.2
466.782	386.57
466.991	378.82
467.201	488.1
467.41	323.61
467.62	383.86
467.829	386.96
468.039	404.98
468.249	362.55
468.458	372.04
468.668	412.15
468.877	404.79
469.086	453.8
469.296	462.14
469.505	381.15
469.715	455.16
469.924	408.08
470.134	456.13
470.343	447.22
470.552	397.81
470.762	425.13
470.971	379.6
471.18	414.09
471.39	396.07
471.599	390.26
471.808	439.08
472.018	398.97
472.227	454.97
472.436	445.67
472.645	425.52
472.855	421.64
473.064	500.89
473.273	420.67
473.482	478.99
473.691	478.6
473.901	477.83
474.11	455.74
474.319	536.92
474.528	462.14
474.737	542.73
474.946	486.55
475.155	470.27
475.364	515.42
475.573	480.35
475.783	492.55
475.992	463.49
476.201	527.23
476.41	481.12
476.619	441.21
476.828	480.54
477.037	501.47
477.245	476.47
477.454	507.28
477.663	472.21
477.872	512.12
478.081	584.39
478.29	485
478.499	583.03
478.708	545.25
478.917	599.31
479.125	529.17
479.334	523.75
479.543	516.19
479.752	563.47
479.961	538.47
480.169	561.14
480.378	523.75
480.587	669.25
480.796	581.29
481.004	545.83
481.213	587.68
481.422	559.78
481.63	571.8
481.839	601.83
482.048	654.91
482.256	559.4
482.465	613.45
482.674	644.84
482.882	580.9
483.091	679.71
483.299	608.03
483.508	647.55
483.716	616.55
483.925	621.4
484.134	600.47
484.342	614.03
484.551	682.81
484.759	651.43
484.967	646.97
485.176	678.74
485.384	661.5
485.593	646.39
485.801	626.05
486.01	596.6
486.218	608.03
486.426	538.47
486.635	552.81
486.843	562.3
487.051	609.58
487.26	570.44
487.468	624.88
487.676	660.73
487.885	615
488.093	636.7
488.301	640.58
488.509	662.86
488.717	714.78
488.926	665.18
489.134	647.75
489.342	667.9
489.55	653.75
489.758	687.27
489.967	683.2
490.175	746.17
490.383	673.9
490.591	751.98
490.799	648.71
491.007	769.61
491.215	733.19
491.423	700.64
491.631	716.72
491.839	691.14
492.047	760.12
492.255	673.13
492.463	670.8
492.671	688.43
492.879	749.85
493.087	703.93
493.295	687.66
493.503	730.28
493.711	755.28
493.919	802.94
494.127	770.97
494.334	755.28
494.542	698.12
494.75	734.93
494.958	739.97
495.166	807.01
495.374	773.68
495.581	777.36
495.789	793.83
495.997	835.1
496.205	739.19
496.412	746.17
496.62	746.56
496.828	794.61
497.035	786.86
497.243	789.76
497.451	769.22
497.658	826.38
497.866	797.9
498.074	848.08
498.281	756.63
498.489	860.87
498.696	768.45
498.904	788.99
499.112	782.98
499.319	867.65
499.527	778.33
499.734	863.39
499.942	755.66
500.149	777.17
500.357	812.62
500.564	770.58
500.771	834.13
500.979	751.79
501.186	771.36
501.394	792.09
501.601	759.93
501.808	812.43
502.016	772.13
502.223	750.63
502.43	796.74
502.638	766.71
502.845	752.56
503.052	832.19
503.26	758.57
503.467	862.42
503.674	799.84
503.881	837.81
504.089	882.95
504.296	834.13
504.503	758.76
504.71	792.47
504.917	793.64
505.125	820.96
505.332	804.49
505.539	831.22
505.746	907.95
505.953	856.99
506.16	856.8
506.367	900.2
506.574	908.53
506.781	918.41
506.988	828.71
507.195	891.67
507.402	875.4
507.609	870.94
507.816	828.12
508.023	864.35
508.23	843.82
508.437	788.02
508.644	869.2
508.851	922.48
509.058	866.87
509.265	860.87
509.472	898.07
509.679	967.04
509.885	893.61
510.092	866.49
510.299	895.35
510.506	882.57
510.713	925.77
510.92	856.8
511.126	941.66
511.333	949.8
511.54	919.38
511.746	986.8
511.953	970.72
512.16	949.8
512.367	897.1
512.573	908.53
512.78	915.7
512.987	937.98
513.193	930.62
513.4	852.15
513.606	910.85
513.813	924.03
514.02	907.17
514.226	1013.54
514.433	951.15
514.639	895.74
514.846	952.9
515.052	896.52
515.259	947.47
515.465	931.78
515.672	927.13
515.878	1041.25
516.085	968.2
516.291	955.8
516.497	914.54
516.704	917.83
516.91	878.69
517.117	818.24
517.323	815.72
517.529	873.27
517.736	846.72
517.942	898.65
518.148	871.14
518.354	893.22
518.561	894.77
518.767	897.1
518.973	947.47
519.179	948.05
519.386	910.85
519.592	897.1
519.798	937.2
520.004	1008.12
520.21	965.3
520.417	957.93
520.623	1037.37
520.829	1000.56
521.035	1003.66
521.241	1032.33
521.447	1050.93
521.653	1135.6
521.859	1018.19
522.065	1066.05
522.271	1158.85
522.477	1093.95
522.683	1092.59
522.889	1071.47
523.095	1068.76
523.301	1040.86
523.507	1017.22
523.713	1063.14
523.919	1052.29
524.125	1133.86
524.331	1095.88
524.537	1161.37
524.742	1136.18
524.948	1129.79
525.154	1139.86
525.36	1226.86
525.566	1121.84
525.772	1183.07
525.977	1076.12
526.183	1128.24
526.389	1175.13
526.595	1100.92
526.8	1107.51
527.006	1076.31
527.212	1038.73
527.417	1037.18
527.623	1018
527.829	1120.49
528.034	1123.39
528.24	1123.2
528.446	1086.39
528.651	1168.34
528.857	1152.26
529.062	1243.32
529.268	1183.07
529.473	1220.85
529.679	1191.79
529.884	1278.39
530.09	1212.32
530.295	1241
530.501	1275.68
530.706	1263.09
530.912	1185.98
531.117	1211.74
531.323	1217.75
531.528	1226.08
531.733	1238.67
531.939	1216.97
532.144	1249.91
532.35	1221.43
532.555	1284.4
532.76	1274.71
532.966	1242.36
533.171	1201.28
533.376	1190.82
533.581	1176.87
533.787	1232.28
533.992	1260.57
534.197	1306.29
534.402	1238.09
534.607	1257.86
534.813	1350.08
535.018	1235.38
535.223	1260.57
535.428	1267.54
535.633	1339.23
535.838	1314.43
536.043	1277.04
536.249	1382.82
536.454	1286.14
536.659	1296.02
536.864	1290.99
537.069	1287.31
537.274	1334.19
537.479	1294.28
537.684	1301.45
537.889	1266.57
538.094	1367.13
538.299	1307.84
538.504	1354.73
538.708	1351.24
538.913	1348.53
539.118	1345.82
539.323	1352.02
539.528	1290.79
539.733	1307.45
539.938	1346.59
540.142	1316.75
540.347	1329.93
540.552	1292.54
540.757	1274.32
540.962	1303.58
541.166	1226.08
541.371	1264.44
541.576	1289.24
541.781	1204.57
541.985	1299.51
542.19	1304.94
542.395	1364.22
542.599	1393.87
542.804	1394.06
543.008	1353.76
543.213	1328.77
543.418	1288.47
543.622	1364.03
543.827	1275.68
544.031	1374.1
544.236	1405.1
544.44	1357.44
544.645	1434.94
544.849	1310.17
545.054	1396.38
545.258	1442.11
545.463	1409.37
545.667	1365
545.872	1402.97
546.076	1376.04
546.281	1386.31
546.485	1352.21
546.689	1405.3
546.894	1426.42
547.098	1427
547.302	1357.05
547.507	1355.89
547.711	1386.89
547.915	1449.47
548.119	1356.47
548.324	1391.15
548.528	1399.68
548.732	1389.22
548.936	1438.43
549.141	1442.3
549.345	1373.33
549.549	1367.32
549.753	1397.16
549.957	1481.44
550.161	1477.95
550.366	1414.79
550.57	1374.88
550.774	1379.92
550.978	1390.38
551.182	1408.78
551.386	1422.35
551.59	1359.77
551.794	1391.73
551.998	1383.79
552.202	1408.01
552.406	1365.77
552.61	1407.23
552.814	1418.28
553.018	1468.46
553.222	1357.64
553.426	1418.67
553.63	1500.81
553.833	1375.27
554.037	1368.1
554.241	1443.27
554.445	1422.93
554.649	1409.95
554.853	1363.45
555.056	1382.63
555.26	1440.75
555.464	1405.88
555.668	1409.17
555.871	1432.03
556.075	1426.8
556.279	1387.67
556.483	1396
556.686	1401.03
556.89	1382.63
557.094	1401.42
557.297	1343.69
557.501	1436.1
557.704	1324.5
557.908	1407.82
558.112	1366.16
558.315	1415.76
558.519	1370.81
558.722	1337.49
558.926	1381.85
559.129	1302.8
559.333	1267.93
559.536	1269.09
559.74	1292.92
559.943	1273.16
560.147	1252.62
560.35	1290.99
560.553	1309.78
560.757	1253.79
560.96	1381.85
561.164	1303.39
561.367	1389.99
561.57	1298.93
561.774	1336.9
561.977	1303.19
562.18	1317.34
562.384	1391.35
562.587	1299.9
562.79	1296.41
562.993	1273.16
563.197	1357.83
563.4	1361.9
563.603	1382.05
563.806	1409.56
564.009	1281.11
564.212	1313.46
564.416	1237.12
564.619	1305.32
564.822	1254.76
565.025	1316.95
565.228	1270.64
565.431	1267.35
565.634	1222.79
565.837	1275.1
566.04	1221.04
566.243	1232.86
566.446	1155.17
566.649	1256.89
566.852	1211.55
567.055	1221.24
567.258	1240.42
567.461	1311.33
567.664	1303
567.867	1154.39
568.07	1220.27
568.273	1223.17
568.475	1287.5
568.678	1219.49
568.881	1204.38
569.084	1228.99
569.287	1097.24
569.489	1154.78
569.692	1178.23
569.895	1213.1
570.098	1132.31
570.3	1153.04
570.503	1102.66
570.706	1115.64
570.909	1130.95
571.111	1056.94
571.314	1102.08
571.516	1125.91
571.719	1124.36
571.922	1072.83
572.124	1126.49
572.327	1135.41
572.529	1086.2
572.732	1100.92
572.935	1113.51
573.137	1169.12
573.34	1124.75
573.542	1150.52
573.745	1125.91
573.947	1132.31
574.15	1095.5
574.352	1082.71
574.554	1145.87
574.757	1057.13
574.959	1071.47
575.162	1069.53
575.364	1045.51
575.566	1151.68
575.769	1055.2
575.971	1090.07
576.173	1000.17
576.376	1038.73
576.578	1092.59
576.78	1106.54
576.982	990.29
577.185	1043.57
577.387	1006.95
577.589	1035.82
577.791	1066.24
577.993	1058.49
578.196	1013.54
578.398	1050.74
578.6	1083.1
578.802	1007.73
579.004	1016.45
579.206	1013.73
579.408	1033.5
579.61	991.65
579.812	1060.23
580.014	1002.88
580.216	1038.15
580.418	1033.88
580.62	999.78
580.822	973.24
581.024	1041.83
581.226	1060.81
581.428	993.58
581.63	1111.19
581.832	1005.21
582.034	1060.81
582.236	1044.93
582.438	1036.21
582.64	1088.33
582.841	1109.83
583.043	1097.63
583.245	1094.33
583.447	1074.76
583.649	1018.38
583.85	1072.83
584.052	1094.72
584.254	1035.82
584.456	1079.22
584.657	1011.02
584.859	1042.41
585.061	1023.42
585.262	1003.47
585.464	984.48
585.666	1042.6
585.867	986.42
586.069	1051.71
586.27	1011.22
586.472	1022.07
586.674	1000.17
586.875	1015.67
587.077	976.92
587.278	1029.43
587.48	979.05
587.681	1124.36
587.883	1041.05
588.084	956.97
588.285	977.12
588.487	962
588.688	1012.57
588.89	933.72
589.091	921.51
589.292	925.77
589.494	899.04
589.695	885.28
589.896	804.29
590.098	842.27
590.299	895.16
590.5	827.54
590.702	874.62
590.903	900.97
591.104	960.65
591.305	906.59
591.507	963.17
591.708	936.43
591.909	914.34
592.11	982.54
592.311	942.05
592.512	926.16
592.714	887.41
592.915	897.1
593.116	863.58
593.317	917.64
593.518	910.08
593.719	920.35
593.92	954.64
594.121	975.57
594.322	926.35
594.523	925.58
594.724	894.58
594.925	886.25
595.126	936.82
595.327	962.58
595.528	907.37
595.729	901.17
595.929	906.2
596.13	953.48
596.331	907.95
596.532	946.7
596.733	995.72
596.934	961.23
597.135	947.28
597.335	928.87
597.536	904.65
597.737	950.57
597.938	905.43
598.138	925.97
598.339	913.18
598.54	905.62
598.74	913.18
598.941	922.29
599.142	940.88
599.342	929.84
599.543	874.24
599.744	895.35
599.944	901.17
600.145	899.04
600.345	896.52
600.546	1010.63
600.746	952.7
600.947	987.58
601.147	950.57
601.348	924.03
601.548	880.63
601.749	926.35
601.949	892.45
602.15	891.09
602.35	907.75
602.551	950.18
602.751	879.85
602.951	862.42
603.152	829.29
603.352	918.6
603.552	898.26
603.753	920.74
603.953	922.67
604.153	919.38
604.354	914.54
604.554	864.16
604.754	892.06
604.954	873.27
605.155	911.63
605.355	903.69
605.555	926.16
605.755	949.8
605.955	926.94
606.155	941.08
606.356	899.23
606.556	952.12
606.756	924.61
606.956	866.49
607.156	962.58
607.356	860.67
607.556	880.82
607.756	876.95
607.956	960.84
608.156	921.9
608.356	856.6
608.556	936.43
608.756	892.06
608.956	837.04
609.156	896.13
609.356	848.08
609.556	858.54
609.755	879.66
609.955	843.82
610.155	854.67
610.355	875.79
610.555	858.15
610.755	889.93
610.954	814.95
611.154	878.69
611.354	899.23
611.554	833.94
611.753	842.07
611.953	805.26
612.153	875.4
612.352	856.99
612.552	815.34
612.752	787.24
612.951	844.01
613.151	850.99
613.351	818.24
613.55	839.36
613.75	838.39
613.949	817.08
614.149	850.41
614.348	818.05
614.548	821.54
614.747	773.49
614.947	793.64
615.146	733.19
615.346	842.46
615.545	832
615.745	836.65
615.944	851.76
616.144	810.88
616.343	841.88
616.542	830.45
616.742	803.13
616.941	786.27
617.14	762.44
617.34	806.62
617.539	799.06
617.738	776.2
617.938	876.17
618.137	815.92
618.336	791.31
618.535	825.99
618.734	799.26
618.934	835.68
619.133	820.96
619.332	840.91
619.531	778.91
619.73	805.26
619.929	849.44
620.128	833.94
620.328	870.75
620.527	774.07
620.726	782.21
620.925	816.11
621.124	765.74
621.323	815.14
621.522	745.39
621.721	763.03
621.92	747.91
622.119	810.88
622.318	728.34
622.517	776.39
622.715	770.77
622.914	720.21
623.113	772.32
623.312	728.73
623.511	778.91
623.71	749.66
623.909	780.27
624.107	797.71
624.306	690.56
624.505	749.46
624.704	751.4
624.902	728.73
625.101	806.62
625.3	755.66
625.499	717.11
625.697	736.29
625.896	695.41
626.095	771.94
626.293	692.31
626.492	736.68
626.69	766.71
626.889	693.47
627.088	786.86
627.286	708.78
627.485	739.19
627.683	684.56
627.882	730.67
628.08	649.3
628.279	708
628.477	763.99
628.676	681.84
628.874	698.12
629.073	707.81
629.271	676.03
629.469	680.29
629.668	679.71
629.866	695.21
630.065	707.81
630.263	716.72
630.461	677.97
630.66	713.62
630.858	717.11
631.056	759.34
631.254	738.61
631.453	677.58
631.651	741.91
631.849	691.73
632.047	700.64
632.245	707.03
632.444	733.96
632.642	740.74
632.84	712.26
633.038	663.05
633.236	665.57
633.434	678.16
633.632	684.36
633.83	654.91
634.028	723.31
634.227	684.56
634.425	726.21
634.623	679.13
634.821	711.68
635.019	705.29
635.216	664.6
635.414	713.04
635.612	730.28
635.81	664.99
636.008	742.49
636.206	687.08
636.404	727.96
636.602	659.18
636.8	706.84
636.997	705.09
637.195	742.29
637.393	677.78
637.591	751.79
637.789	707.61
637.986	668.86
638.184	689.21
638.382	732.61
638.58	743.46
638.777	729.31
638.975	711.88
639.173	701.8
639.37	733.19
639.568	708.58
639.765	720.59
639.963	700.83
640.161	747.53
640.358	718.85
640.556	671
640.753	688.43
640.951	659.18
641.148	676.61
641.346	675.45
641.543	672.93
641.741	717.3
641.938	681.84
642.136	669.83
642.333	655.69
642.531	717.49
642.728	754.69
642.925	692.31
643.123	685.72
643.32	710.91
643.517	716.72
643.715	689.79
643.912	667.9
644.109	688.82
644.306	672.16
644.504	641.55
644.701	676.03
644.898	718.85
645.095	639.22
645.293	675.45
645.49	706.64
645.687	711.68
645.884	701.22
646.081	621.59
646.278	638.45
646.475	639.03
646.672	601.83
646.87	702.19
647.067	659.18
647.264	686.11
647.461	582.45
647.658	582.84
647.855	648.33
648.052	615.97
648.249	562.69
648.446	607.25
648.642	596.98
648.839	623.91
649.036	609.19
649.233	569.86
649.43	574.32
649.627	557.46
649.824	598.92
650.021	600.28
650.217	580.71
650.414	598.53
650.611	606.48
650.808	602.02
651.004	616.55
651.201	619.46
651.398	630.11
651.595	612.1
651.791	563.85
651.988	637.09
652.185	565.6
652.381	625.66
652.578	559.2
652.775	604.93
652.971	583.23
653.168	609.19
653.364	589.04
653.561	543.7
653.757	596.4
653.954	598.92
654.15	573.15
654.347	658.4
654.543	595.24
654.74	576.25
654.936	544.87
655.133	572.77
655.329	608.22
655.525	579.55
655.722	591.95
655.918	539.25
656.115	565.6
656.311	496.04
656.507	495.27
656.704	467.56
656.9	507.67
657.096	494.3
657.292	503.21
657.489	552.62
657.685	542.15
657.881	496.04
658.077	506.89
658.273	537.7
658.47	595.24
658.666	554.55
658.862	559.78
659.058	544.87
659.254	581.68
659.45	535.95
659.646	586.91
659.842	558.62
660.038	588.46
660.234	512.32
660.43	558.43
660.626	633.8
660.822	582.26
661.018	617.71
661.214	591.36
661.41	523.75
661.606	612.68
661.802	585.94
661.998	561.72
662.194	561.72
662.39	577.42
662.586	555.91
662.781	573.93
662.977	590.59
663.173	594.85
663.369	599.11
663.564	581.29
663.76	567.15
663.956	560.17
664.152	573.35
664.347	502.82
664.543	566.76
664.739	579.55
664.934	507.67
665.13	523.36
665.326	578.58
665.521	587.3
665.717	506.5
665.912	528.59
666.108	478.6
666.304	540.22
666.499	551.26
666.695	461.17
666.89	555.33
667.086	572.57
667.281	538.67
667.477	596.6
667.672	537.5
667.867	542.15
668.063	547.38
668.258	493.91
668.454	526.85
668.649	596.4
668.844	545.64
669.04	567.73
669.235	529.95
669.43	522.39
669.626	482.67
669.821	521.81
670.016	472.99
670.211	496.82
670.407	514.45
670.602	508.05
670.797	522.2
670.992	558.04
671.187	498.75
671.382	547.19
671.578	506.89
671.773	511.35
671.968	478.41
672.163	525.49
672.358	543.32
672.553	502.43
672.748	492.36
672.943	576.06
673.138	540.41
673.333	534.6
673.528	491.59
673.723	544.09
673.918	503.98
674.113	457.29
674.308	589.62
674.503	533.82
674.698	544.09
674.892	503.98
675.087	542.73
675.282	531.88
675.477	487.9
675.672	527.23
675.867	507.67
676.061	468.34
676.256	462.91
676.451	487.52
676.646	521.42
676.84	458.45
677.035	483.06
677.23	469.89
677.424	505.34
677.619	549.13
677.814	532.08
678.008	546.22
678.203	466.98
678.397	473.37
678.592	490.04
678.787	539.83
678.981	475.12
679.176	526.65
679.37	506.89
679.565	461.36
679.759	464.46
679.954	513.09
680.148	549.32
680.342	534.98
680.537	514.25
680.731	494.1
680.926	532.08
681.12	517.55
681.314	474.15
681.509	481.7
681.703	511.54
681.897	508.25
682.092	482.29
682.286	480.35
682.48	558.43
682.674	486.16
682.869	477.44
683.063	515.8
683.257	540.02
683.451	469.89
683.645	500.3
683.839	492.75
684.034	502.82
684.228	503.02
684.422	472.02
684.616	446.05
684.81	516.58
685.004	491.2
685.198	487.32
685.392	507.08
685.586	472.21
685.78	514.64
685.974	484.61
686.168	517.74
686.362	561.33
686.556	454.77
686.75	429.59
686.944	422.42
687.138	455.16
687.331	370.11
687.525	390.64
687.719	329.61
687.913	381.73
688.107	371.27
688.301	398.01
688.494	402.66
688.688	356.74
688.882	339.3
689.076	334.84
689.269	377.27
689.463	476.86
689.657	377.66
689.85	389.48
690.044	419.51
690.238	408.86
690.431	398.97
690.625	412.15
690.818	398.01
691.012	429.97
691.205	431.52
691.399	401.49
691.593	443.54
691.786	465.82
691.98	487.9
692.173	500.69
692.366	480.93
692.56	478.41
692.753	539.83
692.947	475.31
693.14	505.53
693.333	511.93
693.527	422.42
693.72	492.17
693.914	493.52
694.107	478.02
694.3	481.7
694.493	476.47
694.687	548.55
694.88	469.69
695.073	530.53
695.266	531.3
695.46	500.69
695.653	576.25
695.846	535.95
696.039	485.39
696.232	516.58
696.425	537.31
696.618	536.34
696.812	551.65
697.005	589.04
697.198	653.56
697.391	574.7
697.584	613.06
697.777	648.52
697.97	589.62
698.163	648.91
698.356	593.11
698.549	672.74
698.742	656.08
698.935	623.53
699.127	621.2
699.32	614.42
699.513	586.91
699.706	662.28
699.899	684.36
700.092	625.08
700.285	688.82
700.477	611.51
700.67	681.84
700.863	678.36
701.056	762.44
701.248	716.72
701.441	724.47
701.634	691.92
701.826	813.4
702.019	652.2
702.212	745.39
702.404	691.53
702.597	680.49
702.79	707.81
702.982	727.18
703.175	765.54
703.367	800.61
703.56	741.91
703.752	822.12
703.945	810.69
704.137	830.64
704.33	832.58
704.522	833.74
704.715	819.99
704.907	906.2
705.1	869.2
705.292	906.2
705.484	860.29
705.677	875.01
705.869	887.8
706.061	927.52
706.254	940.69
706.446	913.37
706.638	901.55
706.831	968.4
707.023	930.04
707.215	979.63
707.407	1049.19
707.599	987.19
707.792	1034.66
707.984	967.23
708.176	1039.7
708.368	1002.5
708.56	1064.88
708.752	1037.56
708.944	1035.24
709.136	1069.92
709.329	1068.95
709.521	1163.11
709.713	1152.65
709.905	1141.22
710.097	1131.73
710.289	1108.86
710.481	1135.21
710.672	1134.63
710.864	1162.53
711.056	1246.04
711.248	1190.82
711.44	1164.28
711.632	1166.99
711.824	1202.64
712.016	1300.48
712.207	1265.02
712.399	1262.7
712.591	1309
712.783	1293.12
712.975	1294.47
713.166	1269.29
713.358	1276.46
713.55	1347.75
713.741	1310.55
713.933	1336.71
714.125	1327.41
714.316	1315.98
714.508	1409.75
714.7	1378.56
714.891	1356.09
715.083	1408.4
715.274	1351.63
715.466	1415.18
715.657	1420.8
715.849	1325.67
716.04	1393.67
716.232	1386.31
716.423	1438.43
716.615	1353.95
716.806	1341.94
716.998	1289.82
717.189	1279.56
717.381	1191.4
717.572	1164.86
717.763	1224.34
717.955	1194.89
718.146	1196.83
718.337	1184.04
718.528	1136.57
718.72	1096.46
718.911	1178.03
719.102	1141.03
719.293	1181.33
719.485	1160.01
719.676	1127.08
719.867	1096.27
720.058	1142.38
720.249	1122.43
720.44	1181.13
720.632	1200.51
720.823	1232.47
721.014	1349.5
721.205	1317.34
721.396	1380.69
721.587	1448.31
721.778	1469.62
721.969	1497.52
722.16	1544.6
722.351	1502.95
722.542	1631.4
722.733	1683.52
722.924	1587.23
723.115	1644.38
723.305	1628.49
723.496	1627.91
723.687	1533.17
723.878	1566.3
724.069	1568.43
724.26	1576.96
724.45	1496.94
724.641	1499.65
724.832	1540.73
725.023	1503.14
725.213	1528.91
725.404	1539.76
725.595	1544.41
725.785	1536.08
725.976	1570.56
726.167	1555.64
726.357	1568.43
726.548	1659.69
726.739	1580.06
726.929	1648.26
727.12	1727.69
727.31	1731.57
727.501	1670.92
727.691	1681.39
727.882	1662.01
728.072	1689.72
728.263	1738.15
728.453	1764.7
728.644	1781.75
728.834	1752.49
729.024	1710.64
729.215	1755.79
729.405	1743.19
729.596	1840.07
729.786	1833.09
729.976	1852.08
730.167	1859.05
730.357	1806.16
730.547	1822.24
730.737	1895.28
730.928	1889.86
731.118	1956.9
731.308	1869.9
731.498	1887.92
731.688	2006.3
731.879	1981.89
732.069	2042.34
732.259	2058.61
732.449	2092.71
732.639	2137.86
732.829	2159.75
733.019	2207.22
733.209	2256.62
733.399	2273.09
733.589	2299.44
733.779	2283.17
733.969	2332.57
734.159	2407.55
734.349	2440.1
734.539	2475.56
734.729	2440.1
734.919	2498.03
735.109	2562.16
735.299	2486.79
735.488	2497.64
735.678	2510.63
735.868	2500.36
736.058	2495.51
736.248	2515.47
736.437	2450.95
736.627	2454.83
736.817	2599.94
737.007	2516.44
737.196	2556.16
737.386	2587.16
737.576	2571.27
737.765	2637.72
737.955	2596.84
738.144	2688.29
738.334	2648.57
738.524	2627.26
738.713	2670.27
738.903	2639.27
739.092	2650.7
739.282	2723.55
739.471	2739.83
739.661	2705.92
739.85	2729.56
740.04	2732.66
740.229	2791.75
740.419	2789.81
740.608	2810.35
740.797	2785.75
740.987	2846.58
741.176	2829.15
741.365	2772.38
741.555	2790.78
741.744	2876.23
741.933	2795.63
742.123	2840.38
742.312	2859.76
742.501	2889.98
742.69	2910.71
742.88	2811.51
743.069	2943.84
743.258	2852.2
743.447	2946.75
743.636	2968.06
743.825	2925.05
744.014	2954.5
744.204	2988.6
744.393	2877.78
744.582	2996.35
744.771	2969.22
744.96	2951.01
745.149	2998.67
745.338	3001.77
745.527	2990.15
745.716	2980.66
745.905	2957.6
746.094	3029.87
746.283	3017.47
746.471	3004.87
746.66	3049.44
746.849	3036.65
747.038	3125.77
747.227	3008.17
747.416	3064.35
747.604	3005.84
747.793	3026.96
747.982	3052.73
748.171	3031.42
748.359	3062.8
748.548	3056.22
748.737	3051.57
748.926	3032.19
749.114	2993.83
749.303	3053.5
749.491	2990.73
749.68	2968.64
749.869	3085.86
750.057	3003.52
750.246	3016.11
750.434	3038
750.623	3014.76
750.811	3003.32
751	3094.77
751.188	2995.77
751.377	3052.92
751.565	3016.5
751.754	3026.96
751.942	3016.5
752.131	3005.84
752.319	2989.57
752.507	2922.73
752.696	3035.29
752.884	3058.54
753.072	2991.12
753.261	3011.27
753.449	3016.69
753.637	2998.09
753.825	3095.74
754.014	2981.24
754.202	2995.38
754.39	3030.84
754.578	3040.91
754.766	2994.99
754.955	2960.12
755.143	3035.87
755.331	2950.43
755.519	2987.24
755.707	2944.23
755.895	2977.36
756.083	2993.06
756.271	2921.56
756.459	2986.66
756.647	3005.84
756.835	2921.37
757.023	2943.07
757.211	2933.58
757.399	2948.49
757.587	2942.29
757.775	2892.69
757.963	2914.78
758.151	2910.33
758.339	2891.14
758.526	2911.1
758.714	2901.61
758.902	2789.62
759.09	2733.24
759.278	2579.99
759.465	2373.84
759.653	2040.59
759.841	1852.08
760.028	1612.61
760.216	1381.08
760.404	1294.09
760.591	1033.5
760.779	905.62
760.967	767.09
761.154	640
761.342	686.88
761.529	691.34
761.717	714.2
761.905	727.96
762.092	782.01
762.28	744.62
762.467	727.38
762.655	665.57
762.842	707.42
763.029	680.1
763.217	730.86
763.404	694.83
763.592	724.66
763.779	688.04
763.966	751.59
764.154	765.16
764.341	833.94
764.528	819.21
764.716	892.25
764.903	944.37
765.09	980.02
765.277	999.98
765.465	1180.94
765.652	1190.63
765.839	1284.4
766.026	1386.12
766.213	1403.55
766.4	1553.71
766.588	1682.36
766.775	1702.89
766.962	1851.5
767.149	1862.35
767.336	1990.03
767.523	1970.26
767.71	2061.91
767.897	2190.36
768.084	2224.85
768.271	2228.72
768.458	2312.81
768.645	2379.85
768.832	2361.05
769.019	2362.21
769.206	2409.88
769.392	2477.69
769.579	2578.63
769.766	2499.58
769.953	2506.36
770.14	2561.19
770.327	2561.19
770.513	2633.85
770.7	2651.09
770.887	2567.78
771.073	2610.79
771.26	2627.07
771.447	2532.32
771.634	2570.11
771.82	2703.98
772.007	2550.15
772.193	2621.84
772.38	2649.54
772.567	2637.72
772.753	2652.45
772.94	2625.9
773.126	2635.98
773.313	2622.8
773.499	2629.59
773.686	2654.58
773.872	2622.03
774.059	2641.99
774.245	2538.52
774.432	2577.27
774.618	2562.16
774.804	2595.1
774.991	2523.8
775.177	2595.29
775.363	2598.2
775.55	2635.59
775.736	2572.62
775.922	2570.88
776.109	2570.3
776.295	2611.18
776.481	2601.1
776.667	2623
776.853	2571.07
777.04	2550.92
777.226	2578.24
777.412	2603.04
777.598	2520.12
777.784	2485.05
777.97	2516.82
778.156	2516.05
778.342	2528.26
778.528	2529.81
778.715	2462.58
778.901	2479.24
779.087	2540.46
779.272	2488.34
779.458	2428.86
779.644	2498.03
779.83	2446.88
780.016	2570.49
780.202	2476.72
780.388	2430.99
780.574	2430.8
780.76	2435.45
780.946	2457.34
781.131	2474.01
781.317	2439.52
781.503	2394.18
781.689	2415.5
781.874	2515.86
782.06	2416.27
782.246	2456.96
782.432	2408.13
782.617	2415.11
782.803	2481.56
782.989	2391.86
783.174	2393.8
783.36	2311.65
783.545	2353.69
783.731	2362.41
783.916	2281.23
784.102	2360.47
784.288	2331.99
784.473	2362.21
784.659	2327.92
784.844	2343.81
785.029	2321.53
785.215	2295.37
785.4	2274.83
785.586	2385.85
785.771	2252.55
785.956	2319.59
786.142	2303.32
786.327	2266.89
786.512	2274.64
786.698	2266.12
786.883	2209.74
787.068	2225.82
787.254	2250.23
787.439	2219.81
787.624	2243.45
787.809	2213.42
787.994	2215.16
788.18	2284.52
788.365	2210.12
788.55	2205.28
788.735	2204.12
788.92	2153.55
789.105	2172.73
789.29	2192.1
789.475	2142.89
789.66	2164.2
789.845	2129.14
790.03	2136.5
790.215	2148.71
790.4	2143.28
790.585	2175.44
790.77	2116.16
790.955	2078.76
791.14	2102.21
791.325	2144.83
791.51	2055.71
791.695	2093.49
791.879	2067.72
792.064	2056.48
792.249	2151.81
792.434	2099.69
792.618	2092.32
792.803	2145.8
792.988	2108.79
793.173	2102.98
793.357	2118.48
793.542	2068.3
793.727	2100.66
793.911	2150.45
794.096	2121.77
794.281	2122.74
794.465	2189.2
794.65	2123.71
794.834	2154.52
795.019	2167.5
795.203	2170.02
795.388	2147.93
795.572	2186.1
795.757	2136.11
795.941	2144.83
796.126	2135.14
796.31	2035.36
796.494	2126.81
796.679	2077.21
796.863	2072.95
797.048	2205.09
797.232	2115.19
797.416	2124.49
797.601	2139.21
797.785	2199.47
797.969	2167.5
798.153	2077.79
798.338	2162.27
798.522	2193.27
798.706	2184.35
798.89	2187.84
799.074	2226.2
799.258	2203.15
799.443	2170.02
799.627	2141.73
799.811	2193.07
799.995	2123.52
800.179	2131.85
800.363	2139.02
800.547	2127.97
800.731	2140.37
800.915	2084.38
801.099	2121.19
801.283	2111.89
801.467	2167.3
801.651	2137.08
801.835	2203.92
802.019	2172.73
802.202	2148.12
802.386	2126.62
802.57	2089.61
802.754	2087.87
802.938	2051.06
803.121	2077.79
803.305	2149.29
803.489	2106.08
803.673	2128.94
803.856	2144.06
804.04	2127.78
804.224	2139.6
804.407	2111.31
804.591	2086.51
804.775	2124.29
804.958	2149.09
805.142	2238.02
805.326	2116.35
805.509	2139.02
805.693	2133.59
805.876	2173.31
806.06	2150.64
806.243	2182.61
806.427	2201.99
806.61	2176.41
806.794	2112.09
806.977	2182.42
807.16	2177.57
807.344	2119.45
807.527	2179.32
807.71	2116.16
807.894	2109.76
808.077	2171.57
808.26	2119.06
808.444	2102.79
808.627	2164.4
808.81	2100.85
808.993	2070.63
809.177	2036.33
809.36	2100.46
809.543	2104.92
809.726	2027.23
809.909	2006.49
810.092	1965.03
810.276	1990.8
810.459	2007.66
810.642	2018.7
810.825	1978.98
811.008	1982.28
811.191	1884.43
811.374	1898
811.557	1926.28
811.74	1992.35
811.923	1873.97
812.106	1872.81
812.289	1837.35
812.472	1823.6
812.654	1855.18
812.837	1804.22
813.02	1794.92
813.203	1783.1
813.386	1698.82
813.569	1657.56
813.751	1601.37
813.934	1656.78
814.117	1630.24
814.3	1555.84
814.482	1540.73
814.665	1535.88
814.848	1515.35
815.03	1475.82
815.213	1448.31
815.396	1417.89
815.578	1425.45
815.761	1375.85
815.943	1442.3
816.126	1390.77
816.309	1353.95
816.491	1306.68
816.674	1249.91
816.856	1314.62
817.039	1288.47
817.221	1349.69
817.403	1333.03
817.586	1343.3
817.768	1312.49
817.951	1278.97
818.133	1276.26
818.315	1303.39
818.498	1334.39
818.68	1357.64
818.862	1318.11
819.045	1349.11
819.227	1368.68
819.409	1320.05
819.591	1367.52
819.774	1327.99
819.956	1303.58
820.138	1385.53
820.32	1376.62
820.502	1409.37
820.684	1462.26
820.866	1485.9
821.048	1530.65
821.231	1493.26
821.413	1481.25
821.595	1498.68
821.777	1492.29
821.959	1466.13
822.141	1563.2
822.323	1421.18
822.505	1355.5
822.686	1320.24
822.868	1283.82
823.05	1154.78
823.232	1154.2
823.414	1121.84
823.596	1205.35
823.778	1161.37
823.96	1222.79
824.141	1197.21
824.323	1222.79
824.505	1287.69
824.687	1331.09
824.868	1339.62
825.05	1446.57
825.232	1486.48
825.413	1524.84
825.595	1502.17
825.777	1384.76
825.958	1458.19
826.14	1463.81
826.321	1497.52
826.503	1452.18
826.685	1460.13
826.866	1507.6
827.048	1465.94
827.229	1432.81
827.411	1389.6
827.592	1348.34
827.773	1371.97
827.955	1299.9
828.136	1324.5
828.318	1294.86
828.499	1345.24
828.68	1267.74
828.862	1308.42
829.043	1357.83
829.224	1308.62
829.406	1272.19
829.587	1317.34
829.768	1302.22
829.949	1355.12
830.131	1310.55
830.312	1372.17
830.493	1320.05
830.674	1310.75
830.855	1325.67
831.036	1291.37
831.218	1377.01
831.399	1406.46
831.58	1339.42
831.761	1329.54
831.942	1349.11
832.123	1309.59
832.304	1275.68
832.485	1308.23
832.666	1291.37
832.847	1342.33
833.028	1326.64
833.209	1314.24
833.389	1303.39
833.57	1271.61
833.751	1251.85
833.932	1321.4
834.113	1337.87
834.294	1293.31
834.475	1323.15
834.655	1399.1
834.836	1370.23
835.017	1315.59
835.198	1270.64
835.378	1328.19
835.559	1380.69
835.74	1317.34
835.92	1314.43
836.101	1325.28
836.281	1378.37
836.462	1354.15
836.643	1399.29
836.823	1389.6
837.004	1399.1
837.184	1451.22
837.365	1418.86
837.545	1397.35
837.726	1368.68
837.906	1471.17
838.087	1372.94
838.267	1376.04
838.448	1327.02
838.628	1390.77
838.808	1371.2
838.989	1432.03
839.169	1352.99
839.349	1387.08
839.53	1419.44
839.71	1389.41
839.89	1340.97
840.07	1431.45
840.251	1317.72
840.431	1399.87
840.611	1397.74
840.791	1370.62
840.971	1411.3
841.151	1372.55
841.332	1351.82
841.512	1390.18
841.692	1330.32
841.872	1386.5
842.052	1374.88
842.232	1440.37
842.412	1333.03
842.592	1343.49
842.772	1389.02
842.952	1386.89
843.132	1373.91
843.312	1336.9
843.492	1326.64
843.672	1365.58
843.851	1290.4
844.031	1362.87
844.211	1346.2
844.391	1317.53
844.571	1361.7
844.751	1379.33
844.93	1353.37
845.11	1299.32
845.29	1385.15
845.47	1349.11
845.649	1329.93
845.829	1366.94
846.009	1288.27
846.188	1359.77
846.368	1345.43
846.547	1308.23
846.727	1385.92
846.907	1297.38
847.086	1334.77
847.266	1350.66
847.445	1325.47
847.625	1290.99
847.804	1274.52
847.984	1282.85
848.163	1288.08
848.343	1270.26
848.522	1295.83
848.701	1295.64
848.881	1257.27
849.06	1285.76
849.239	1327.99
849.419	1324.89
849.598	1243.52
849.777	1229.96
849.957	1233.06
850.136	1191.59
850.315	1179.78
850.494	1173.19
850.674	1158.46
850.853	1246.23
851.032	1210.39
851.211	1228.02
851.39	1217.75
851.569	1195.86
851.748	1161.18
851.927	1230.34
852.107	1189.08
852.286	1172.22
852.465	1165.44
852.644	1231.7
852.823	1207.67
853.002	1198.57
853.181	1207.67
853.359	1231.31
853.538	1161.37
853.717	1228.02
853.896	1144.32
854.075	1081.93
854.254	1058.88
854.433	996.49
854.611	1049.19
854.79	1011.22
854.969	1057.13
855.148	1063.91
855.327	1072.05
855.505	1055.39
855.684	1070.5
855.863	1089.49
856.041	1072.83
856.22	1110.41
856.399	1071.66
856.577	1172.99
856.756	1164.66
856.934	1251.46
857.113	1255.92
857.291	1145.09
857.47	1147.81
857.648	1177.45
857.827	1159.63
858.005	1206.71
858.184	1171.64
858.362	1193.73
858.541	1136.38
858.719	1157.11
858.898	1115.45
859.076	1130.76
859.254	1219.11
859.433	1161.18
859.611	1104.41
859.789	1112.55
859.967	1176.48
860.146	1180.36
860.324	1098.98
860.502	1130.95
860.68	1078.45
860.859	1089.3
861.037	1119.91
861.215	1123.2
861.393	1127.46
861.571	1106.15
861.749	1086.78
861.927	1106.35
862.105	1121.46
862.283	1109.83
862.461	1088.71
862.639	1066.24
862.817	1082.71
862.995	1104.6
863.173	1100.92
863.351	1105.18
863.529	1117.97
863.707	1102.47
863.885	1103.44
864.063	1063.72
864.241	1055.97
864.418	1120.49
864.596	1066.82
864.774	1049.77
864.952	1083.68
865.129	1093.36
865.307	1051.9
865.485	1026.33
865.663	1088.13
865.84	995.33
866.018	1022.45
866.196	894.97
866.373	915.89
866.551	931.39
866.728	867.65
866.906	923.45
867.084	922.87
867.261	961.42
867.439	961.23
867.616	1002.11
867.794	955.03
867.971	982.35
868.149	1000.17
868.326	1024.2
868.503	1030.01
868.681	988.55
868.858	975.76
869.035	952.32
869.213	999.59
869.39	947.86
869.567	1016.25
869.745	973.43
869.922	975.76
870.099	999.98
870.276	983.9
870.454	988.55
870.631	1013.93
870.808	975.18
870.985	1025.36
871.162	1056.75
871.339	999.59
871.517	927.52
871.694	934.1
871.871	972.85
872.048	962.2
872.225	949.99
872.402	975.76
872.579	933.91
872.756	961.03
872.933	914.73
873.11	953.87
873.287	968.4
873.463	923.06
873.64	919.77
873.817	964.13
873.994	929.26
874.171	914.15
874.348	949.41
874.524	908.34
874.701	925.58
874.878	873.07
875.055	946.5
875.231	906.79
875.408	945.34
875.585	871.72
875.762	928.1
875.938	927.13
876.115	884.31
876.291	887.6
876.468	878.89
876.645	868.62
876.821	877.14
876.998	887.99
877.174	892.84
877.351	867.07
877.527	887.41
877.704	902.91
877.88	873.07
878.057	876.75
878.233	909.89
878.409	861.45
878.586	877.92
878.762	883.54
878.938	869.39
879.115	807.01
879.291	863.58
879.467	817.27
879.644	842.07
879.82	869.59
879.996	822.89
880.172	775.62
880.349	860.09
880.525	851.57
880.701	801
880.877	807.78
881.053	834.13
881.229	812.24
881.405	870.94
881.581	806.81
881.757	819.02
881.933	828.32
882.109	850.6
882.285	848.66
882.461	755.28
882.637	838.59
882.813	812.43
882.989	825.41
883.165	883.34
883.341	808.17
883.517	836.46
883.693	862.03
883.869	831.03
884.044	797.32
884.22	834.91
884.396	872.3
884.572	846.92
884.747	895.16
884.923	845.95
885.099	866.1
885.275	871.91
885.45	840.72
885.626	806.62
885.801	795.57
885.977	820.76
886.153	737.26
886.328	831.81
886.504	801.77
886.679	812.04
886.855	777.75
887.03	825.61
887.206	860.67
887.381	841.49
887.557	860.67
887.732	815.72
887.908	876.56
888.083	839.36
888.258	787.24
888.434	811.46
888.609	817.47
888.784	852.54
888.96	814.76
889.135	811.46
889.31	798.09
889.485	830.64
889.661	820.76
889.836	826.38
890.011	820.76
890.186	793.06
890.361	794.02
890.537	812.62
890.712	780.66
890.887	829.09
891.062	813.98
891.237	880.24
891.412	797.32
891.587	832.77
891.762	831.42
891.937	866.1
892.112	798.48
892.287	775.04
892.462	760.51
892.637	769.42
892.812	754.69
892.987	764.38
893.161	719.04
893.336	746.75
893.511	764.19
893.686	749.85
893.861	762.44
894.035	729.12
894.21	731.83
894.385	705.68
894.56	715.36
894.734	674.87
894.909	676.42
895.084	681.26
895.258	670.41
895.433	672.55
895.608	657.24
895.782	617.91
895.957	630.7
896.131	650.46
896.306	597.76
896.48	585.94
896.655	584.58
896.829	527.04
897.004	538.67
897.178	535.37
897.353	527.62
897.527	591.95
897.701	538.08
897.876	522.58
898.05	583.42
898.224	540.41
898.399	573.73
898.573	567.73
898.747	443.15
898.921	527.04
899.096	423.77
899.27	434.04
899.444	430.17
899.618	466.4
899.792	475.89
899.967	464.85
900.141	537.89
900.315	459.42
900.489	479.38
900.663	495.07
900.837	454.97
901.011	435.98
901.185	541.18
901.359	490.04
901.533	466.98
901.707	495.27
901.881	501.85
902.055	445.28
902.229	506.89
902.403	520.65
902.576	501.85
902.75	488.1
902.924	588.46
903.098	534.98
903.272	583.23
903.446	594.85
903.619	584.39
903.793	601.25
903.967	572.57
904.14	619.46
904.314	621.78
904.488	612.87
904.661	637.67
904.835	623.53
905.009	625.85
905.182	640
905.356	622.36
905.529	621.01
905.703	612.87
905.876	560.75
906.05	548.74
906.223	558.23
906.397	519.29
906.57	500.11
906.744	463.88
906.917	470.66
907.09	492.75
907.264	461.75
907.437	445.47
907.61	405.56
907.784	459.04
907.957	441.6
908.13	413.12
908.304	477.44
908.477	429.39
908.65	407.5
908.823	371.85
908.996	497.59
909.17	427.45
909.343	407.89
909.516	438.3
909.689	435.59
909.862	374.17
910.035	420.48
910.208	403.04
910.381	390.06
910.554	494.3
910.727	451.67
910.9	412.34
911.073	405.95
911.246	450.7
911.419	441.4
911.592	453.8
911.765	417.77
911.938	408.66
912.11	416.41
912.283	409.82
912.456	469.89
912.629	448.96
912.802	360.42
912.974	348.6
913.147	342.98
913.32	329.42
913.493	335.62
913.665	352.28
913.838	372.82
914.01	345.69
914.183	388.32
914.356	357.9
914.528	398.59
914.701	432.69
914.873	398.78
915.046	379.6
915.218	322.44
915.391	292.03
915.563	299.97
915.736	346.66
915.908	364.87
916.081	352.47
916.253	357.32
916.425	365.07
916.598	373.79
916.77	341.04
916.942	315.66
917.115	262.38
917.287	336.2
917.459	334.84
917.632	298.03
917.804	259.67
917.976	352.28
918.148	355.19
918.32	344.34
918.493	371.07
918.665	422.22
918.837	344.53
919.009	438.11
919.181	410.99
919.353	370.69
919.525	375.34
919.697	400.72
919.869	353.25
920.041	438.5
920.213	477.64
920.385	420.48
920.557	399.94
920.729	419.51
920.901	410.99
921.073	400.14
921.244	338.91
921.416	410.41
921.588	363.32
921.76	375.92
921.932	433.46
922.103	374.17
922.275	378.44
922.447	371.27
922.619	339.69
922.79	362.74
922.962	375.53
923.134	397.42
923.305	329.81
923.477	307.91
923.648	309.66
923.82	338.72
923.991	280.79
924.163	280.4
924.335	314.5
924.506	310.43
924.677	375.72
924.849	314.11
925.02	334.07
925.192	327.29
925.363	341.04
925.535	322.25
925.706	308.69
925.877	354.99
926.049	301.71
926.22	334.26
926.391	342.21
926.562	350.15
926.734	286.41
926.905	345.31
927.076	270.91
927.247	298.61
927.419	255.99
927.59	264.71
927.761	261.22
927.932	262.19
928.103	283.11
928.274	197.86
928.445	221.31
928.616	230.22
928.787	236.81
928.958	252.69
929.129	245.53
929.3	230.41
929.471	201.55
929.642	155.05
929.813	129.47
929.984	216.27
930.155	160.08
930.326	150.01
930.496	151.75
930.667	106.61
930.838	150.2
931.009	121.92
931.18	126.57
931.35	122.88
931.521	137.42
931.692	79.87
931.863	36.67
932.033	111.45
932.204	108.74
932.374	113
932.545	58.75
932.716	127.53
932.886	114.94
933.057	40.93
933.227	66.7
933.398	130.83
933.568	45.19
933.739	22.52
933.909	17.49
934.08	81.03
934.25	2.57
934.421	29.5
934.591	35.89
934.761	33.76
934.932	0.24
935.102	37.05
935.272	13.22
935.443	33.95
935.613	36.28
935.783	63.6
935.953	19.62
936.123	168.22
936.294	18.65
936.464	-7.51
936.634	17.87
936.804	-5.76
936.974	1.99
937.144	38.02
937.314	48.1
937.484	44.22
937.655	-18.75
937.825	67.67
937.995	-4.41
938.165	55.07
938.334	18.07
938.504	52.94
938.674	32.02
938.844	67.08
939.014	95.76
939.184	74.45
939.354	122.88
939.524	122.88
939.694	55.85
939.863	60.3
940.033	128.31
940.203	130.25
940.373	92.66
940.542	96.92
940.712	73.87
940.882	147.68
941.051	82.58
941.221	109.71
941.391	134.32
941.56	74.64
941.73	45.19
941.899	159.5
942.069	58.56
942.238	88.01
942.408	78.13
942.577	114.17
942.747	34.34
942.916	7.22
943.086	47.32
943.255	93.82
943.425	91.5
943.594	67.28
943.763	2.76
943.933	27.95
944.102	-12.16
944.271	40.35
944.441	88.98
944.61	32.21
944.779	25.62
944.948	131.22
945.117	29.3
945.287	42.09
945.456	5.28
945.625	18.26
945.794	77.74
945.963	55.65
946.132	32.99
946.301	22.72
946.47	61.85
946.639	-1.5
946.808	36.28
946.977	73.87
947.146	102.93
947.315	18.84
947.484	66.7
947.653	67.47
947.822	53.52
947.991	24.07
948.16	126.57
948.329	95.95
948.498	54.69
948.666	31.05
948.835	101.77
949.004	23.88
949.173	39.96
949.341	56.82
949.51	83.36
949.679	99.25
949.847	83.36
950.016	131.41
950.185	117.46
950.353	24.85
950.522	43.06
950.69	104.28
950.859	24.65
951.028	88.4
951.196	85.1
951.365	46.35
951.533	34.34
951.701	75.61
951.87	87.82
952.038	28.53
952.207	43.84
952.375	128.89
952.543	39.96
952.712	65.73
952.88	51.2
953.048	109.71
953.217	59.14
953.385	39.57
953.553	117.65
953.721	15.16
953.89	67.86
954.058	-6.54
954.226	29.5
954.394	72.12
954.562	13.42
954.73	74.06
954.898	38.22
955.067	71.35
955.235	47.13
955.403	88.59
955.571	112.42
955.739	69.41
955.907	43.84
956.075	26.79
956.243	26.2
956.41	75.8
956.578	21.55
956.746	9.35
956.914	26.4
957.082	73.67
957.25	86.65
957.418	30.47
957.585	70.18
957.753	90.14
957.921	36.47
958.089	70.18
958.256	85.1
958.424	85.68
958.592	80.84
958.759	47.52
958.927	76.97
959.095	36.47
959.262	56.62
959.43	83.55
959.597	21.94
959.765	76
959.932	48.68
960.1	88.59
960.267	37.44
960.435	59.53
960.602	83.17
960.77	55.65
960.937	31.63
961.104	63.4
961.272	0.05
961.439	30.27
961.606	89.75
961.774	85.3
961.941	26.79
962.108	59.34
962.275	78.52
962.443	84.52
962.61	94.02
962.777	138.97
962.944	95.18
963.111	101.96
963.278	100.99
963.446	91.11
963.613	72.51
963.78	94.6
963.947	75.03
964.114	87.62
964.281	146.52
964.448	93.05
964.615	43.84
964.782	68.63
964.949	85.49
965.116	98.67
965.282	113.2
965.449	63.6
965.616	45.39
965.783	88.59
965.95	73.87
966.117	65.15
966.283	71.54
966.45	74.45
966.617	90.92
966.784	123.08
966.95	106.61
967.117	111.84
967.284	52.36
967.45	59.14
967.617	149.43
967.784	87.23
967.95	134.51
968.117	58.75
968.283	125.21
968.45	179.46
968.616	92.47
968.783	121.92
968.949	99.63
969.116	125.79
969.282	73.09
969.449	73.87
969.615	99.44
969.781	36.86
969.948	74.06
970.114	66.12
970.28	170.74
970.447	94.6
970.613	133.35
970.779	69.41
970.945	106.03
971.112	85.88
971.278	96.92
971.444	117.46
971.61	99.44
971.776	80.26
971.942	85.68
972.108	104.67
972.275	81.81
972.441	98.67
972.607	155.05
972.773	61.27
972.939	111.65
973.105	94.4
973.271	42.29
973.437	44.42
973.602	83.94
973.768	94.21
973.934	81.62
974.1	80.65
974.266	35.12
974.432	87.04
974.598	66.5
974.763	125.79
974.929	61.27
975.095	159.11
975.261	54.3
975.426	30.27
975.592	61.66
975.758	138.19
975.923	31.05
976.089	57.98
976.255	112.03
976.42	96.15
976.586	94.4
976.751	88.98
976.917	155.82
977.082	91.3
977.248	22.52
977.413	12.06
977.579	69.41
977.744	69.22
977.91	74.25
978.075	51.59
978.24	103.7
978.406	83.36
978.571	60.3
978.736	41.12
978.902	100.22
979.067	49.65
979.232	24.27
979.397	102.15
979.563	134.51
979.728	28.14
979.893	89.75
980.058	79.48
980.223	89.56
980.388	100.22
980.554	76.77
980.719	57.4
980.884	78.13
981.049	113.97
981.214	37.44
981.379	103.7
981.544	66.5
981.709	59.72
981.874	96.53
982.039	60.3
982.204	87.04
982.368	51.39
982.533	54.49
982.698	115.33
982.863	110.68
983.028	54.69
983.193	82.2
983.357	92.27
983.522	85.3
983.687	72.12
983.852	57.98
984.016	43.84
984.181	68.25
984.346	84.52
984.51	81.81
984.675	74.83
984.839	91.3
985.004	81.42
985.168	107.19
985.333	81.62
985.498	65.73
985.662	111.26
985.827	86.27
985.991	71.15
986.155	81.42
986.32	105.06
986.484	134.9
986.649	89.37
986.813	19.62
986.977	104.87
987.142	112.42
987.306	27.95
987.47	29.3
987.634	67.86
987.799	86.46
987.963	79.29
988.127	101.96
988.291	141.48
988.455	90.53
988.62	58.56
988.784	101.38
988.948	93.05
989.112	69.22
989.276	61.08
989.44	99.25
989.604	39.57
989.768	61.27
989.932	142.84
990.096	59.92
990.26	40.93
990.424	29.3
990.588	73.87
990.752	157.95
990.915	111.84
991.079	30.27
991.243	32.6
991.407	110.48
991.571	76.38
991.734	117.07
991.898	95.37
992.062	146.52
992.226	68.63
992.389	61.85
992.553	12.25
992.717	72.32
992.88	38.8
993.044	59.72
993.207	82
993.371	99.05
993.535	60.3
993.698	73.09
993.862	76.58
994.025	80.65
994.189	51.97
994.352	82.58
994.515	96.53
994.679	116.88
994.842	58.75
995.006	102.15
995.169	37.64
995.332	7.02
995.496	88.01
995.659	13.61
995.822	56.62
995.985	52.94
996.149	128.89
996.312	57.2
996.475	112.62
996.638	54.1
996.801	108.16
996.964	147.49
997.128	56.82
997.291	53.14
997.454	72.51
997.617	19.23
997.78	87.04
997.943	69.99
998.106	98.86
998.269	38.6
998.432	53.72
998.595	75.03
998.758	19.62
998.92	11.87
999.083	10.32
999.246	65.92
999.409	12.84
999.572	-11.38
999.735	33.57
999.897	55.65
1000.06	26.4
1000.223	32.6
1000.386	67.28
1000.548	75.61
1000.711	58.17
1000.874	76.38
1001.036	24.65
1001.199	81.03
1001.361	21.94
1001.524	74.25
1001.687	94.79
1001.849	48.49
1002.012	86.85
1002.174	75.03
1002.337	76
1002.499	30.66
1002.661	69.41
1002.824	15.35
1002.986	45.58
1003.149	46.55
1003.311	33.95
1003.473	102.15
1003.636	20.39
1003.798	77.35
1003.96	72.9
1004.123	45
1004.285	52.36
1004.447	41.32
1004.609	32.02
1004.771	59.72
1004.933	26.59
1005.096	16.71
1005.258	-4.02
1005.42	32.02
1005.582	61.85
1005.744	55.85
1005.906	11.67
1006.068	53.14
1006.23	25.43
1006.392	-17.97
1006.554	-17.58
1006.716	82.58
1006.878	69.41
1007.04	34.92
1007.202	44.42
1007.363	48.49
1007.525	49.45
1007.687	51.78
1007.849	75.8
1008.011	-6.35
1008.172	2.57
1008.334	55.85
1008.496	68.25
1008.658	-10.61
1008.819	7.22
1008.981	-15.45
1009.143	4.5
1009.304	46.35
1009.466	66.89
1009.627	89.37
1009.789	136.64
1009.95	56.43
1010.112	50.62
1010.273	66.5
1010.435	14.97
1010.596	31.24
1010.758	18.07
1010.919	26.79
1011.081	1.02
1011.242	29.11
1011.403	53.33
1011.565	29.11
1011.726	57.4
1011.887	9.93
1012.049	24.65
1012.21	62.82
1012.371	80.07
1012.532	-54.2
1012.693	57.79
1012.855	15.94
1013.016	72.7
1013.177	72.9
1013.338	34.92
1013.499	81.81
1013.66	83.36
1013.821	89.56
1013.982	34.15
1014.143	31.82
1014.304	5.09
1014.465	46.35
1014.626	44.61
1014.787	-2.47
1014.948	98.28
1015.109	-17.97
1015.27	63.6
1015.431	10.9
1015.592	26.59
1015.752	86.85
1015.913	33.76
1016.074	28.14
1016.235	22.52
1016.395	15.35
1016.556	34.73
1016.717	27.17
1016.877	60.89
1017.038	25.82
1017.199	44.61
1017.359	35.7
1017.52	39.96
1017.681	42.67
1017.841	7.02
1018.002	23.88
1018.162	14.39
1018.323	77.35
1018.483	28.72
1018.644	14.58
1018.804	-26.49
1018.964	-19.13
1019.125	28.34
1019.285	30.27
1019.446	-0.73
1019.606	-9.25
1019.766	-34.44
1019.926	23.49
1020.087	38.02
1020.247	-22.04
1020.407	33.18
1020.567	45.39
1020.728	-3.05
1020.888	-2.28
1021.048	1.02
1021.208	-25.14
1021.368	3.92
1021.528	77.74
1021.688	61.66
1021.848	46.35
1022.008	11.09
1022.168	-14.87
1022.328	24.85
1022.488	51.39
1022.648	13.42
1022.808	21.55
1022.968	7.99
1023.128	-17
1023.288	22.91
1023.448	30.47
1023.608	50.04
1023.767	38.8
1023.927	10.51
1024.087	-13.13
1024.247	-5.38
1024.406	2.95
1024.566	6.05
1024.726	-25.91
1024.885	8.96
1025.045	68.25
1025.205	27.56
1025.364	42.48
1025.524	48.49
1025.683	27.37
1025.843	20.39
1026.003	31.05
1026.162	88.4
1026.321	63.02
1026.481	25.62
1026.64	7.22
1026.8	40.54
1026.959	3.54
1027.119	38.41
1027.278	5.86
1027.437	-29.21
1027.597	41.12
1027.756	39.96
1027.915	37.44
1028.074	28.53
1028.234	-12.74
1028.393	24.65
1028.552	-2.47
1028.711	-60.79
1028.87	52.17
1029.03	-2.66
1029.189	20
1029.348	-53.43
1029.507	-3.83
1029.666	-8.67
1029.825	-5.76
1029.984	-22.81
1030.143	28.92
1030.302	-4.6
1030.461	-42.96
1030.62	22.72
1030.779	62.63
1030.938	-10.22
1031.097	-42.58
1031.255	48.87
1031.414	58.95
1031.573	46.74
1031.732	-8.48
1031.891	-11.96
1032.049	53.91
1032.208	27.56
1032.367	-18.55
1032.525	-1.31
1032.684	9.93
1032.843	26.98
1033.001	-29.79
1033.16	151.56
1033.319	65.92
1033.477	29.11
1033.636	-8.48
1033.794	-19.33
1033.953	43.45
1034.111	41.12
1034.27	-5.18
1034.428	39.38
1034.587	-10.61
1034.745	8.77
1034.903	26.2
1035.062	41.32
1035.22	-49.94
1035.378	50.42
1035.537	-14.1
1035.695	59.34
1035.853	-3.05
1036.011	24.65
1036.17	34.34
1036.328	-43.93
1036.486	26.59
1036.644	8.77
1036.802	-87.72
1036.96	-17.78
1037.119	-2.66
1037.277	-10.03
1037.435	-37.54
1037.593	29.11
1037.751	9.93
1037.909	16.52
1038.067	16.52
