Data from oakcork_FLMT105791__308__17-34-54-051.txt Node

Date: Mon Mar 20 17:34:54 GMT 2023
User: antho
Spectrometer: FLMT10579
Trigger mode: 0
Integration Time (sec): 1.000000E-1
Scans to average: 10
Electric dark correction enabled: true
Nonlinearity correction enabled: false
Boxcar width: 0
XAxis mode: Wavelengths
Number of Pixels in Spectrum: 3648
>>>>>Begin Spectral Data<<<<<
345.248	-142.69
345.464	-142.69
345.681	-142.69
345.898	-159.36
346.114	-146.57
346.331	-39.62
346.548	12.88
346.764	4.55
346.981	-1.65
347.197	-30.71
347.414	9.78
347.631	-26.45
347.847	50.86
348.064	23.54
348.28	46.6
348.497	-44.85
348.713	-4.94
348.93	44.46
349.146	25.87
349.363	-3.2
349.579	7.07
349.796	22.38
350.012	9.59
350.229	19.86
350.445	26.64
350.661	-12.3
350.878	1.84
351.094	3.39
351.311	30.71
351.527	19.67
351.743	-0.1
351.96	55.51
352.176	26.83
352.392	21.6
352.609	37.3
352.825	-8.43
353.041	31.87
353.257	7.27
353.474	3.97
353.69	36.13
353.906	3.58
354.122	-22.38
354.339	38.46
354.555	29.74
354.771	1.45
354.987	40.98
355.203	39.43
355.42	19.47
355.636	-9.2
355.852	-29.16
356.068	-4.75
356.284	-19.08
356.5	50.28
356.716	44.08
356.932	14.43
357.148	24.32
357.364	16.95
357.58	49.11
357.796	60.16
358.012	63.65
358.228	41.75
358.444	-45.43
358.66	46.6
358.876	49.89
359.092	-15.98
359.308	47.76
359.524	35.36
359.74	5.91
359.956	9.2
360.172	30.32
360.388	34.97
360.604	-8.23
360.819	86.9
361.035	32.65
361.251	26.25
361.467	-2.42
361.683	52.02
361.898	49.89
362.114	24.32
362.33	7.85
362.546	49.7
362.762	30.71
362.977	7.65
363.193	-3.78
363.409	32.84
363.624	-33.81
363.84	1.45
364.056	13.47
364.271	27.61
364.487	18.7
364.703	-21.22
364.918	-17.53
365.134	-33.42
365.35	8.04
365.565	71.98
365.781	30.13
365.996	35.55
366.212	68.3
366.427	21.22
366.643	-8.62
366.858	17.34
367.074	-7.07
367.289	60.16
367.505	95.42
367.72	7.85
367.936	-0.1
368.151	34.58
368.367	39.82
368.582	21.41
368.798	13.47
369.013	70.23
369.228	29.55
369.444	0.87
369.659	49.31
369.874	25.67
370.09	60.55
370.305	-43.11
370.52	-9.78
370.736	58.41
370.951	-4.94
371.166	63.06
371.381	86.7
371.597	64.03
371.812	-12.5
372.027	0.87
372.242	-2.23
372.458	52.8
372.673	24.12
372.888	18.5
373.103	43.5
373.318	131.07
373.533	24.51
373.749	13.27
373.964	-13.66
374.179	60.55
374.394	4.55
374.609	61.51
374.824	-7.07
375.039	34.58
375.254	-3
375.469	85.73
375.684	28
375.899	46.79
376.114	10.75
376.329	21.22
376.544	53.76
376.759	49.7
376.974	-3.97
377.189	0.87
377.404	8.82
377.619	36.91
377.834	-28.77
378.049	-17.15
378.264	-30.13
378.478	34.78
378.693	-1.84
378.908	28.19
379.123	24.12
379.338	65.39
379.553	29.93
379.767	34.2
379.982	43.5
380.197	57.45
380.412	16.57
380.626	12.5
380.841	81.47
381.056	49.7
381.271	81.66
381.485	3.58
381.7	-21.41
381.915	18.7
382.129	12.5
382.344	55.9
382.559	8.62
382.773	56.09
382.988	-21.41
383.202	16.18
383.417	20.25
383.632	92.32
383.846	44.66
384.061	33.03
384.275	23.35
384.49	31.29
384.704	44.66
384.919	39.43
385.133	8.23
385.348	38.27
385.562	-8.23
385.777	63.26
385.991	3.97
386.206	19.28
386.42	-1.45
386.634	62.48
386.849	53.38
387.063	53.57
387.277	-19.86
387.492	-1.07
387.706	-20.83
387.92	2.42
388.135	61.32
388.349	51.63
388.563	33.03
388.778	32.07
388.992	42.92
389.206	45.43
389.42	88.64
389.635	24.9
389.849	22.57
390.063	62.48
390.277	23.15
390.491	77.4
390.706	35.36
390.92	88.25
391.134	37.88
391.348	49.5
391.562	-10.17
391.776	23.54
391.99	7.46
392.205	67.13
392.419	18.12
392.633	17.53
392.847	50.66
393.061	0.29
393.275	86.31
393.489	51.63
393.703	35.75
393.917	60.74
394.131	9.59
394.345	45.82
394.559	63.06
394.773	28
394.986	43.5
395.2	22.96
395.414	66.16
395.628	-10.95
395.842	33.23
396.056	16.76
396.27	-8.23
396.484	55.31
396.697	30.32
396.911	88.83
397.125	41.75
397.339	71.2
397.553	50.08
397.766	106.85
397.98	54.35
398.194	60.16
398.408	15.6
398.621	39.43
398.835	44.66
399.049	18.89
399.262	68.88
399.476	59
399.69	54.93
399.903	113.25
400.117	37.68
400.331	77.21
400.544	24.51
400.758	161.68
400.971	43.69
401.185	72.75
401.398	-10.95
401.612	73.33
401.826	52.99
402.039	91.55
402.253	35.55
402.466	59.19
402.68	62.87
402.893	65.78
403.106	62.48
403.32	55.12
403.533	76.24
403.747	62.48
403.96	37.49
404.174	73.91
404.387	3.39
404.6	46.98
404.814	99.1
405.027	69.85
405.24	61.51
405.454	33.23
405.667	56.28
405.88	-11.53
406.094	72.17
406.307	69.85
406.52	80.11
406.733	29.93
406.947	-1.45
407.16	104.53
407.373	63.84
407.586	9.98
407.799	24.51
408.012	71.98
408.226	70.43
408.439	92.9
408.652	14.43
408.865	54.54
409.078	90
409.291	64.81
409.504	2.62
409.717	85.35
409.93	84.57
410.143	36.33
410.357	9.2
410.57	3.97
410.783	43.11
410.996	75.08
411.209	40.01
411.421	97.16
411.634	48.34
411.847	22.38
412.06	68.3
412.273	44.66
412.486	77.98
412.699	120.8
412.912	44.85
413.125	81.86
413.338	37.3
413.55	70.43
413.763	50.47
413.976	70.43
414.189	24.32
414.402	36.33
414.615	101.04
414.827	37.88
415.04	81.86
415.253	77.4
415.466	76.82
415.678	100.65
415.891	29.35
416.104	50.47
416.316	61.13
416.529	24.12
416.742	75.27
416.954	78.37
417.167	44.27
417.38	60.16
417.592	91.16
417.805	47.95
418.017	24.51
418.23	70.04
418.442	52.99
418.655	52.02
418.868	67.33
419.08	81.08
419.293	76.24
419.505	73.91
419.718	70.23
419.93	101.04
420.142	27.61
420.355	96.97
420.567	94.45
420.78	86.7
420.992	39.43
421.205	117.51
421.417	23.54
421.629	57.06
421.842	40.2
422.054	20.44
422.266	84.38
422.479	93.87
422.691	51.83
422.903	82.63
423.115	49.89
423.328	46.79
423.54	71.98
423.752	82.25
423.964	29.55
424.177	80.11
424.389	55.7
424.601	173.5
424.813	55.12
425.025	78.18
425.238	121.19
425.45	47.76
425.662	60.16
425.874	322.1
426.086	64.61
426.298	68.68
426.51	96.97
426.722	71.2
426.934	55.51
427.146	75.66
427.358	35.17
427.57	96.97
427.782	45.82
427.994	68.1
428.206	48.53
428.418	41.95
428.63	70.23
428.842	101.04
429.054	59
429.266	80.7
429.478	50.08
429.69	81.28
429.902	21.99
430.114	82.44
430.325	86.12
430.537	50.86
430.749	64.03
430.961	0.29
431.173	70.04
431.384	70.04
431.596	14.24
431.808	54.15
432.02	58.41
432.231	93.29
432.443	98.71
432.655	80.5
432.867	46.79
433.078	86.7
433.29	142.69
433.502	94.65
433.713	102.59
433.925	71.98
434.136	110.15
434.348	54.73
434.56	22.57
434.771	151.22
434.983	45.82
435.194	65.2
435.406	75.66
435.617	114.8
435.829	133.78
436.04	85.35
436.252	112.66
436.463	120.8
436.675	116.15
436.886	68.49
437.098	72.75
437.309	127
437.521	101.04
437.732	59.96
437.943	84.18
438.155	78.76
438.366	43.3
438.578	127.2
438.789	83.6
439	103.95
439.211	62.87
439.423	99.49
439.634	101.43
439.845	107.63
440.057	98.71
440.268	122.74
440.479	86.31
440.69	99.49
440.902	76.05
441.113	84.96
441.324	59.77
441.535	104.14
441.746	156.06
441.957	83.99
442.168	63.84
442.38	97.55
442.591	103.56
442.802	68.68
443.013	62.29
443.224	76.24
443.435	63.26
443.646	64.42
443.857	91.74
444.068	67.33
444.279	55.9
444.49	142.31
444.701	78.56
444.912	190.16
445.123	110.34
445.334	90.19
445.545	119.45
445.756	86.51
445.967	59.38
446.178	121
446.388	129.13
446.599	135.33
446.81	123.51
447.021	80.89
447.232	125.65
447.443	138.04
447.653	68.88
447.864	126.42
448.075	82.83
448.286	110.15
448.496	93.29
448.707	136.11
448.918	104.14
449.129	178.73
449.339	82.44
449.55	114.02
449.761	100.46
449.971	182.03
450.182	92.71
450.393	109.37
450.603	109.76
450.814	145.6
451.024	131.65
451.235	135.14
451.446	153.16
451.656	153.54
451.867	104.53
452.077	112.47
452.288	178.93
452.498	157.23
452.709	90.77
452.919	118.28
453.13	112.47
453.34	127.2
453.55	53.18
453.761	144.63
453.971	122.16
454.182	136.88
454.392	116.54
454.602	154.9
454.813	139.01
455.023	133.98
455.233	80.31
455.444	112.08
455.654	57.06
455.864	124.87
456.075	103.95
456.285	122.16
456.495	108.01
456.705	132.43
456.916	152.38
457.126	178.15
457.336	130.49
457.546	59
457.756	103.95
457.967	145.6
458.177	105.69
458.387	150.25
458.597	84.76
458.807	133.98
459.017	105.5
459.227	124.87
459.437	109.37
459.647	164.59
459.857	128.75
460.068	109.76
460.278	163.62
460.488	159.16
460.698	173.11
460.908	97.55
461.117	70.62
461.327	99.68
461.537	126.61
461.747	141.73
461.957	132.43
462.167	241.7
462.377	166.33
462.587	113.05
462.797	142.69
463.007	137.27
463.216	165.36
463.426	172.73
463.636	143.08
463.846	86.9
464.056	104.33
464.265	170.59
464.475	108.4
464.685	123.13
464.895	158.97
465.104	134.94
465.314	160.13
465.524	132.62
465.733	105.88
465.943	196.56
466.153	163.43
466.362	161.29
466.572	127.2
466.782	135.91
466.991	95.42
467.201	214.58
467.41	70.23
467.62	122.35
467.829	129.71
468.039	156.64
468.249	155.29
468.458	144.63
468.668	174.47
468.877	163.43
469.086	193.46
469.296	207.02
469.505	127
469.715	199.66
469.924	165.17
470.134	185.51
470.343	180.86
470.552	129.33
470.762	141.14
470.971	137.46
471.18	129.71
471.39	141.34
471.599	89.03
471.808	177.96
472.018	142.69
472.227	169.43
472.436	167.3
472.645	150.64
472.855	123.9
473.064	158.58
473.273	142.5
473.482	187.84
473.691	196.75
473.901	165.36
474.11	154.13
474.319	240.54
474.528	149.48
474.737	187.06
474.946	138.82
475.155	143.08
475.364	202.37
475.573	165.36
475.783	175.05
475.992	206.63
476.201	216.51
476.41	165.94
476.619	119.06
476.828	157.42
477.037	140.37
477.245	153.54
477.454	213.22
477.663	151.22
477.872	141.34
478.081	236.66
478.29	145.02
478.499	238.99
478.708	183.58
478.917	211.48
479.125	163.43
479.334	189.39
479.543	162.46
479.752	184.16
479.961	189.97
480.169	238.79
480.378	167.49
480.587	278.9
480.796	203.34
481.004	179.12
481.213	181.25
481.422	222.13
481.63	170.4
481.839	208.76
482.048	216.13
482.256	213.03
482.465	204.69
482.674	209.73
482.882	219.22
483.091	238.21
483.299	225.04
483.508	232.98
483.716	181.25
483.925	204.5
484.134	172.14
484.342	216.32
484.551	242.67
484.759	228.14
484.967	230.46
485.176	253.52
485.384	251.58
485.593	255.26
485.801	219.22
486.01	220.19
486.218	249.64
486.426	189.39
486.635	191.13
486.843	204.89
487.051	208.18
487.26	207.02
487.468	243.64
487.676	244.99
487.885	190.36
488.093	231.04
488.301	193.65
488.509	232.79
488.717	232.79
488.926	218.26
489.134	208.18
489.342	235.69
489.55	169.82
489.758	206.44
489.967	200.43
490.175	324.24
490.383	181.44
490.591	280.84
490.799	170.59
491.007	254.87
491.215	238.99
491.423	225.23
491.631	229.88
491.839	247.51
492.047	275.02
492.255	199.85
492.463	185.51
492.671	240.73
492.879	293.04
493.087	226.39
493.295	281.42
493.503	238.41
493.711	245.77
493.919	296.92
494.127	267.66
494.334	269.79
494.542	220.77
494.75	257.01
494.958	243.83
495.166	280.64
495.374	274.83
495.581	265.14
495.789	249.84
495.997	302.15
496.205	251.97
496.412	249.06
496.62	267.86
496.828	264.37
497.035	236.27
497.243	269.02
497.451	273.67
497.658	263.59
497.866	262.62
498.074	301.37
498.281	253.71
498.489	314.94
498.696	301.57
498.904	265.72
499.112	256.23
499.319	332.95
499.527	257.59
499.734	305.44
499.942	249.84
500.149	235.11
500.357	269.41
500.564	251.19
500.771	267.66
500.979	265.72
501.186	276.38
501.394	279.29
501.601	264.17
501.808	297.89
502.016	273.47
502.223	284.13
502.43	273.28
502.638	276.38
502.845	253.91
503.052	357.17
503.26	274.83
503.467	301.37
503.674	257.39
503.881	331.6
504.089	317.26
504.296	280.45
504.503	237.63
504.71	291.3
504.917	228.14
505.125	282.58
505.332	283.94
505.539	292.27
505.746	324.62
505.953	314.16
506.16	315.71
506.367	318.23
506.574	331.21
506.781	318.23
506.988	278.71
507.195	296.92
507.402	278.9
507.609	319.39
507.816	269.99
508.023	317.84
508.23	275.61
508.437	267.47
508.644	295.17
508.851	340.7
509.058	342.64
509.265	322.69
509.472	306.41
509.679	377.71
509.885	302.92
510.092	305.44
510.299	312.42
510.506	302.15
510.713	294.21
510.92	325.59
511.126	329.66
511.333	356.98
511.54	325.01
511.746	370.93
511.953	351.17
512.16	347.49
512.367	284.52
512.573	323.65
512.78	337.41
512.987	317.45
513.193	313.58
513.4	246.74
513.606	307.57
513.813	362.99
514.02	319.78
514.226	415.49
514.433	391.27
514.639	324.04
514.846	322.49
515.052	300.21
515.259	316.1
515.465	333.54
515.672	321.91
515.878	380.04
516.085	312.8
516.291	368.99
516.497	308.74
516.704	308.74
516.91	301.76
517.117	268.82
517.323	250.22
517.529	308.35
517.736	322.69
517.942	312.22
518.148	322.1
518.354	337.22
518.561	330.24
518.767	350
518.973	364.15
519.179	373.84
519.386	333.15
519.592	315.71
519.798	327.92
520.004	379.45
520.21	306.02
520.417	355.62
520.623	367.44
520.829	379.45
521.035	374.22
521.241	365.5
521.447	375.58
521.653	448.62
521.859	354.85
522.065	406.77
522.271	456.37
522.477	387.4
522.683	425.95
522.889	415.1
523.095	424.79
523.301	376.94
523.507	353.1
523.713	410.84
523.919	372.09
524.125	379.26
524.331	368.6
524.537	458.5
524.742	436.61
524.948	404.25
525.154	407.16
525.36	533.68
525.566	427.31
525.772	479.23
525.977	389.34
526.183	462.18
526.389	459.67
526.595	412.39
526.8	403.67
527.006	387.4
527.212	384.1
527.417	392.24
527.623	373.25
527.829	437.19
528.034	438.55
528.24	441.65
528.446	394.18
528.651	453.85
528.857	421.11
529.062	506.36
529.268	422.66
529.473	432.73
529.679	425.95
529.884	497.25
530.09	453.85
530.295	507.52
530.501	474.39
530.706	468.77
530.912	430.99
531.117	460.83
531.323	451.33
531.528	462.38
531.733	466.06
531.939	439.52
532.144	494.15
532.35	450.95
532.555	487.56
532.76	498.41
532.966	478.46
533.171	484.46
533.376	453.27
533.581	426.34
533.787	479.04
533.992	490.47
534.197	511.59
534.402	479.43
534.607	484.85
534.813	570.1
535.018	476.91
535.223	470.13
535.428	477.49
535.633	522.63
535.838	505.2
536.043	486.21
536.249	546.85
536.454	470.13
536.659	530
536.864	473.03
537.069	468.77
537.274	517.21
537.479	520.31
537.684	511.4
537.889	482.91
538.094	581.73
538.299	503.26
538.504	555.96
538.708	538.13
538.913	545.5
539.118	501.9
539.323	519.92
539.528	508.49
539.733	530.38
539.938	536.58
540.142	534.26
540.347	487.95
540.552	478.65
540.757	534.84
540.962	508.88
541.166	484.66
541.371	482.14
541.576	499.19
541.781	417.62
541.985	499.38
542.19	552.08
542.395	579.79
542.599	549.56
542.804	551.31
543.008	558.48
543.213	490.28
543.418	475.75
543.622	529.8
543.827	486.98
544.031	544.91
544.236	552.28
544.44	520.31
544.645	598
544.849	514.3
545.054	539.49
545.258	598.39
545.463	598.97
545.667	516.63
545.872	543.95
546.076	543.17
546.281	554.8
546.485	507.33
546.689	520.11
546.894	563.13
547.098	504.23
547.302	497.06
547.507	511.78
547.711	521.47
547.915	579.98
548.119	526.12
548.324	516.63
548.528	594.13
548.732	530.77
548.936	555.96
549.141	571.84
549.345	512.95
549.549	567.39
549.753	566.81
549.957	623.96
550.161	577.66
550.366	525.54
550.57	495.51
550.774	563.51
550.978	526.7
551.182	560.41
551.386	527.86
551.59	532.71
551.794	505.78
551.998	565.45
552.202	523.6
552.406	502.48
552.61	535.81
552.814	546.85
553.018	618.54
553.222	557.51
553.426	541.43
553.63	639.85
553.833	550.92
554.037	500.35
554.241	574.17
554.445	551.5
554.649	540.26
554.853	532.13
555.056	575.53
555.26	582.89
555.464	571.84
555.668	550.34
555.871	593.54
556.075	556.93
556.279	513.33
556.483	512.56
556.686	546.08
556.89	560.03
557.094	580.18
557.297	479.23
557.501	604.2
557.704	495.12
557.908	567.58
558.112	524.96
558.315	586.18
558.519	559.83
558.722	546.85
558.926	542.2
559.129	487.37
559.333	471.68
559.536	499
559.74	499.77
559.943	496.48
560.147	479.62
560.35	515.46
560.553	489.11
560.757	454.63
560.96	550.15
561.164	515.27
561.367	580.95
561.57	506.16
561.774	497.64
561.977	513.72
562.18	480.98
562.384	560.22
562.587	514.69
562.79	526.51
562.993	493.18
563.197	551.11
563.4	547.24
563.603	562.55
563.806	597.81
564.009	485.24
564.212	550.15
564.416	489.31
564.619	519.92
564.822	506.16
565.025	511.78
565.228	510.43
565.431	508.49
565.634	429.05
565.837	479.62
566.04	455.02
566.243	485.63
566.446	403.09
566.649	500.16
566.852	455.02
567.055	454.63
567.258	498.41
567.461	539.68
567.664	533.1
567.867	416.27
568.07	493.18
568.273	494.93
568.475	496.28
568.678	459.86
568.881	468.77
569.084	474
569.287	390.3
569.489	436.22
569.692	475.55
569.895	507.52
570.098	435.25
570.3	425.18
570.503	356.01
570.706	422.66
570.909	401.93
571.111	390.3
571.314	399.8
571.516	435.45
571.719	432.15
571.922	391.47
572.124	415.88
572.327	418.78
572.529	380.81
572.732	420.14
572.935	418.2
573.137	449.4
573.34	376.74
573.542	434.87
573.745	429.83
573.947	422.27
574.15	407.55
574.352	403.09
574.554	477.49
574.757	397.08
574.959	393.98
575.162	377.9
575.364	398.63
575.566	471.29
575.769	393.21
575.971	370.54
576.173	348.65
576.376	417.04
576.578	409.29
576.78	465.87
576.982	334.5
577.185	396.7
577.387	373.64
577.589	357.17
577.791	405.22
577.993	402.9
578.196	386.04
578.398	404.64
578.6	440.68
578.802	376.16
579.004	358.53
579.206	360.27
579.408	419.75
579.61	404.45
579.812	416.07
580.014	368.99
580.216	361.24
580.418	347.29
580.62	343.42
580.822	322.88
581.024	348.26
581.226	403.87
581.428	344
581.63	440.68
581.832	346.71
582.034	441.45
582.236	369.96
582.438	352.72
582.64	440.29
582.841	443.78
583.043	431.38
583.245	392.24
583.447	419.56
583.649	404.25
583.85	410.84
584.052	444.94
584.254	350.97
584.456	409.1
584.657	351.94
584.859	393.4
585.061	388.95
585.262	347.1
585.464	324.04
585.666	391.27
585.867	354.27
586.069	455.79
586.27	399.6
586.472	385.27
586.674	376.74
586.875	376.35
587.077	377.71
587.278	369.77
587.48	356.79
587.681	466.06
587.883	366.28
588.084	331.21
588.285	356.01
588.487	380.23
588.688	377.13
588.89	343.42
589.091	319.97
589.292	358.92
589.494	338.57
589.695	329.08
589.896	281.61
590.098	289.36
590.299	347.68
590.5	297.89
590.702	303.89
590.903	333.15
591.104	391.66
591.305	331.6
591.507	390.3
591.708	344
591.909	314.74
592.11	400.96
592.311	342.84
592.512	351.75
592.714	283.55
592.915	324.24
593.116	321.72
593.317	329.85
593.518	320.55
593.719	319.59
593.92	359.3
594.121	367.44
594.322	353.88
594.523	346.71
594.724	312.22
594.925	341.29
595.126	321.33
595.327	346.9
595.528	354.07
595.729	326.75
595.929	334.12
596.13	330.82
596.331	331.79
596.532	337.6
596.733	414.13
596.934	352.33
597.135	368.41
597.335	369.96
597.536	291.88
597.737	315.13
597.938	307.38
598.138	360.47
598.339	321.52
598.54	357.56
598.74	328.3
598.941	349.23
599.142	391.85
599.342	326.75
599.543	313.97
599.744	349.62
599.944	313
600.145	319.2
600.345	338.57
600.546	413.36
600.746	368.41
600.947	398.63
601.147	342.06
601.348	374.22
601.548	313.19
601.749	342.06
601.949	308.35
602.15	320.94
602.35	345.74
602.551	371.12
602.751	310.09
602.951	317.07
603.152	243.25
603.352	377.52
603.552	322.88
603.753	353.69
603.953	334.7
604.153	357.17
604.354	308.15
604.554	343.8
604.754	333.73
604.954	298.66
605.155	338.19
605.355	297.89
605.555	346.32
605.755	385.46
605.955	360.08
606.155	334.31
606.356	313
606.556	383.14
606.756	348.84
606.956	287.42
607.156	358.72
607.356	329.27
607.556	351.36
607.756	315.71
607.956	390.5
608.156	354.07
608.356	325.98
608.556	343.8
608.756	343.8
608.956	320.17
609.156	338.38
609.356	293.43
609.556	287.23
609.755	331.02
609.955	304.09
610.155	340.51
610.355	328.3
610.555	326.17
610.755	353.69
610.954	264.76
611.154	323.65
611.354	376.94
611.554	321.91
611.753	316.68
611.953	276.19
612.153	338.57
612.352	354.46
612.552	269.99
612.752	243.83
612.951	312.03
613.151	329.85
613.351	279.29
613.55	331.21
613.75	318.42
613.949	310.29
614.149	306.02
614.348	311.64
614.548	289.17
614.747	263.79
614.947	284.32
615.146	258.75
615.346	345.94
615.545	310.87
615.745	317.26
615.944	319.78
616.144	288.97
616.343	331.21
616.542	301.76
616.742	317.45
616.941	294.01
617.14	253.13
617.34	295.76
617.539	306.6
617.738	285.68
617.938	359.69
618.137	298.47
618.336	264.56
618.535	288.97
618.734	282.58
618.934	281.81
619.133	285.87
619.332	312.8
619.531	287.62
619.73	287.04
619.929	294.21
620.128	317.65
620.328	348.07
620.527	281.81
620.726	278.9
620.925	304.67
621.124	259.33
621.323	275.02
621.522	258.94
621.721	226.59
621.92	241.51
622.119	276.96
622.318	289.36
622.517	287.42
622.715	279.87
622.914	216.32
623.113	275.41
623.312	219.42
623.511	311.84
623.71	267.66
623.909	248.29
624.107	313.39
624.306	240.92
624.505	265.53
624.704	250.03
624.902	287.04
625.101	302.15
625.3	281.22
625.499	263.01
625.697	244.8
625.896	251.77
626.095	308.54
626.293	228.72
626.492	233.37
626.69	295.17
626.889	222.91
627.088	303.12
627.286	214.77
627.485	236.66
627.683	248.67
627.882	296.14
628.08	217.29
628.279	243.06
628.477	315.32
628.676	259.14
628.874	267.86
629.073	232.98
629.271	227.36
629.469	289.94
629.668	257.39
629.866	259.14
630.065	230.46
630.263	280.84
630.461	226.39
630.66	261.27
630.858	248.09
631.056	279.09
631.254	279.67
631.453	229.69
631.651	293.82
631.849	243.44
632.047	259.33
632.245	229.69
632.444	235.89
632.642	284.13
632.84	271.34
633.038	246.74
633.236	228.14
633.434	211.28
633.632	199.46
633.83	206.44
634.028	268.44
634.227	228.14
634.425	285.68
634.623	266.69
634.821	244.61
635.019	227.94
635.216	233.37
635.414	288.2
635.612	260.11
635.81	217.87
636.008	298.27
636.206	244.22
636.404	261.27
636.602	210.12
636.8	248.48
636.997	272.7
637.195	267.08
637.393	235.89
637.591	295.76
637.789	256.81
637.986	261.85
638.184	247.12
638.382	315.13
638.58	266.11
638.777	307.77
638.975	251.97
639.173	230.66
639.37	254.1
639.568	275.02
639.765	265.53
639.963	241.31
640.161	313.39
640.358	266.11
640.556	239.76
640.753	208.38
640.951	226.39
641.148	250.22
641.346	245.38
641.543	251.77
641.741	240.34
641.938	241.89
642.136	247.32
642.333	224.26
642.531	270.18
642.728	288.39
642.925	229.3
643.123	245.77
643.32	246.35
643.517	224.46
643.715	256.62
643.912	213.99
644.109	236.66
644.306	244.41
644.504	238.99
644.701	261.66
644.898	266.11
645.095	189
645.293	253.52
645.49	246.35
645.687	260.11
645.884	279.09
646.081	209.73
646.278	224.26
646.475	249.26
646.672	221.36
646.87	250.22
647.067	252.16
647.264	246.35
647.461	198.69
647.658	191.52
647.855	244.61
648.052	205.28
648.249	171.76
648.446	208.18
648.642	193.84
648.839	207.02
649.036	186.09
649.233	184.35
649.43	189
649.627	184.35
649.824	211.86
650.021	211.67
650.217	192.88
650.414	188.03
650.611	233.76
650.808	237.05
651.004	241.31
651.201	229.3
651.398	255.07
651.595	233.37
651.791	207.99
651.988	242.67
652.185	205.47
652.381	233.17
652.578	183.96
652.775	213.41
652.971	184.93
653.168	202.56
653.364	230.07
653.561	142.69
653.757	191.52
653.954	200.82
654.15	170.79
654.347	265.92
654.543	198.69
654.74	182.22
654.936	149.48
655.133	204.89
655.329	190.74
655.525	193.46
655.722	229.88
655.918	188.03
656.115	242.09
656.311	164.59
656.507	129.33
656.704	171.56
656.9	181.06
657.096	170.59
657.292	108.98
657.489	202.18
657.685	211.86
657.881	181.64
658.077	153.54
658.273	174.47
658.47	229.49
658.666	170.79
658.862	215.93
659.058	172.53
659.254	254.68
659.45	170.79
659.646	205.66
659.842	185.32
660.038	210.12
660.234	164.98
660.43	202.37
660.626	230.66
660.822	222.91
661.018	211.86
661.214	170.59
661.41	136.88
661.606	213.22
661.802	201.59
661.998	194.62
662.194	165.94
662.39	202.37
662.586	187.26
662.781	221.36
662.977	220.97
663.173	242.47
663.369	202.56
663.564	201.21
663.76	223.29
663.956	162.07
664.152	228.14
664.347	162.07
664.543	194.04
664.739	177.38
664.934	168.85
665.13	137.66
665.326	193.07
665.521	189.39
665.717	171.95
665.912	161.29
666.108	114.6
666.304	180.09
666.499	176.6
666.695	130.88
666.89	158.78
667.086	213.8
667.281	199.08
667.477	233.37
667.672	189.97
667.867	185.51
668.063	198.11
668.258	176.41
668.454	162.07
668.649	264.56
668.844	158.58
669.04	173.89
669.235	186.09
669.43	155.48
669.626	149.28
669.821	150.64
670.016	157.42
670.211	192.88
670.407	146.38
670.602	152.19
670.797	161.68
670.992	211.48
671.187	147.93
671.382	197.14
671.578	174.28
671.773	201.98
671.968	151.22
672.163	189.78
672.358	207.99
672.553	142.89
672.748	182.22
672.943	236.86
673.138	180.48
673.333	203.92
673.528	155.48
673.723	180.09
673.918	192.29
674.113	138.04
674.308	252.94
674.503	204.31
674.698	220
674.892	196.17
675.087	227.17
675.282	217.29
675.477	152.19
675.672	196.94
675.867	166.91
676.061	148.51
676.256	125.65
676.451	156.84
676.646	195.39
676.84	149.28
677.035	138.82
677.23	131.46
677.424	215.74
677.619	197.53
677.814	223.1
678.008	201.01
678.203	130.1
678.397	164.98
678.592	165.75
678.787	229.69
678.981	166.33
679.176	148.51
679.37	165.75
679.565	152.19
679.759	151.61
679.954	198.69
680.148	231.62
680.342	229.49
680.537	161.88
680.731	181.64
680.926	181.25
681.12	188.23
681.314	160.52
681.509	169.24
681.703	171.76
681.897	193.46
682.092	177.18
682.286	138.63
682.48	226.2
682.674	199.46
682.869	157.61
683.063	161.49
683.257	217.87
683.451	168.27
683.645	190.94
683.839	165.94
684.034	152.96
684.228	195.2
684.422	137.85
684.616	168.85
684.81	176.21
685.004	156.45
685.198	166.72
685.392	200.63
685.586	156.64
685.78	188.61
685.974	184.54
686.168	185.13
686.362	243.44
686.556	158.19
686.75	151.99
686.944	154.32
687.138	179.31
687.331	135.14
687.525	155.87
687.719	107.82
687.913	158.39
688.107	144.05
688.301	149.28
688.494	175.05
688.688	100.07
688.882	104.53
689.076	99.1
689.269	116.93
689.463	203.92
689.657	176.6
689.85	108.21
690.044	127.97
690.238	140.76
690.431	134.94
690.625	123.32
690.818	162.65
691.012	164.78
691.205	147.54
691.399	148.89
691.593	176.79
691.786	190.94
691.98	172.14
692.173	199.46
692.366	179.51
692.56	175.05
692.753	231.24
692.947	144.24
693.14	216.32
693.333	187.84
693.527	146.57
693.72	179.89
693.914	177.76
694.107	140.76
694.3	185.9
694.493	181.06
694.687	221.55
694.88	172.34
695.073	239.57
695.266	212.25
695.46	179.12
695.653	226.78
695.846	200.63
696.039	135.14
696.232	170.01
696.425	180.67
696.618	196.17
696.812	206.63
697.005	252.94
697.198	278.9
697.391	238.79
697.584	221.55
697.777	272.7
697.97	256.42
698.163	232.79
698.356	240.15
698.549	318.23
698.742	258.17
698.935	238.41
699.127	255.65
699.32	238.21
699.513	245.96
699.706	262.43
699.899	275.8
700.092	230.85
700.285	276.77
700.477	224.07
700.67	284.52
700.863	296.53
701.056	338.77
701.248	302.34
701.441	308.15
701.634	275.02
701.826	344
702.019	270.37
702.212	332.18
702.404	271.92
702.597	285.49
702.79	282.97
702.982	309.32
703.175	350.39
703.367	341.48
703.56	351.94
703.752	382.17
703.945	372.09
704.137	360.27
704.33	364.54
704.522	373.06
704.715	379.84
704.907	380.62
705.1	388.95
705.292	387.01
705.484	358.72
705.677	385.85
705.869	375.58
706.061	429.44
706.254	430.22
706.446	410.84
706.638	408.32
706.831	459.08
707.023	397.47
707.215	476.33
707.407	469.74
707.599	458.7
707.792	489.31
707.984	484.27
708.176	488.92
708.368	450.37
708.56	473.62
708.752	458.12
708.944	477.49
709.136	492.21
709.329	484.27
709.521	574.36
709.713	556.54
709.905	533.48
710.097	560.03
710.289	491.05
710.481	529.8
710.672	531.16
710.864	548.4
711.056	609.24
711.248	556.93
711.44	559.64
711.632	573.2
711.824	567.58
712.016	639.46
712.207	613.11
712.399	590.44
712.591	654.58
712.783	582.5
712.975	663.49
713.166	598.19
713.358	599.74
713.55	651.09
713.741	667.17
713.933	641.98
714.125	646.63
714.316	628.03
714.508	691.19
714.7	693.71
714.891	675.89
715.083	712.12
715.274	675.31
715.466	678.99
715.657	722.58
715.849	670.66
716.04	690.61
716.232	641.98
716.423	733.43
716.615	655.16
716.806	642.37
716.998	657.48
717.189	612.34
717.381	581.73
717.572	599.94
717.763	630.36
717.955	650.12
718.146	617.57
718.337	563.9
718.528	581.53
718.72	504.81
718.911	563.13
719.102	542.2
719.293	605.94
719.485	576.3
719.676	581.14
719.867	550.15
720.058	552.47
720.249	569.91
720.44	569.91
720.632	584.24
720.823	643.73
721.014	663.68
721.205	652.44
721.396	692.16
721.587	757.26
721.778	736.72
721.969	760.75
722.16	801.05
722.351	775.47
722.542	871.18
722.733	884.17
722.924	788.84
723.115	833.02
723.305	840.57
723.496	874.48
723.687	780.32
723.878	811.51
724.069	793.49
724.26	848.32
724.45	804.34
724.641	773.73
724.832	831.85
725.023	798.72
725.213	799.3
725.404	762.49
725.595	817.52
725.785	804.15
725.976	835.92
726.167	824.1
726.357	817.13
726.548	907.03
726.739	832.24
726.929	867.31
727.12	897.92
727.31	896.37
727.501	882.81
727.691	904.7
727.882	896.95
728.072	928.73
728.263	910.13
728.453	967.67
728.644	923.11
728.834	958.95
729.024	919.23
729.215	897.92
729.405	926.01
729.596	1002.35
729.786	987.05
729.976	956.43
730.167	1015.33
730.357	960.89
730.547	974.26
730.737	1017.27
730.928	1050.4
731.118	1082.37
731.308	1000.22
731.498	1036.26
731.688	1107.75
731.879	1082.37
732.069	1113.76
732.259	1095.54
732.449	1129.06
732.639	1171.11
732.829	1178.08
733.019	1195.32
733.209	1222.45
733.399	1231.75
733.589	1260.42
733.779	1284.25
733.969	1230.59
734.159	1326.49
734.349	1350.52
734.539	1356.33
734.729	1338.7
734.919	1385.2
735.109	1366.98
735.299	1349.16
735.488	1376.28
735.678	1380.74
735.868	1364.46
736.058	1413.87
736.248	1373.18
736.437	1349.35
736.627	1345.09
736.817	1477.81
737.007	1399.92
737.196	1445.26
737.386	1429.95
737.576	1437.7
737.765	1437.51
737.955	1414.45
738.144	1498.73
738.334	1485.36
738.524	1408.06
738.713	1455.53
738.903	1498.93
739.092	1505.51
739.282	1496.99
739.471	1534.38
739.661	1500.67
739.85	1489.63
740.04	1529.54
740.229	1527.79
740.419	1562.47
740.608	1573.91
740.797	1580.69
740.987	1619.63
741.176	1595.41
741.365	1568.67
741.555	1529.92
741.744	1606.26
741.933	1577.39
742.123	1617.69
742.312	1625.25
742.501	1637.65
742.69	1660.12
742.88	1585.34
743.069	1685.5
743.258	1605.87
743.447	1668.07
743.636	1637.26
743.825	1636.1
744.014	1662.64
744.204	1662.45
744.393	1643.65
744.582	1655.67
744.771	1707.78
744.96	1643.46
745.149	1721.73
745.338	1671.36
745.527	1725.03
745.716	1644.62
745.905	1668.45
746.094	1687.25
746.283	1693.45
746.471	1717.28
746.66	1758.93
746.849	1734.52
747.038	1782.38
747.227	1724.45
747.416	1726.58
747.604	1696.94
747.793	1722.9
747.982	1747.5
748.171	1728.9
748.359	1822.68
748.548	1741.11
748.737	1747.89
748.926	1738.59
749.114	1682.99
749.303	1735.3
749.491	1750.22
749.68	1680.66
749.869	1761.45
750.057	1702.75
750.246	1732.97
750.434	1694.8
750.623	1724.64
750.811	1709.92
751	1778.89
751.188	1756.03
751.377	1731.23
751.565	1683.76
751.754	1681.05
751.942	1694.8
752.131	1743.63
752.319	1689.57
752.507	1655.09
752.696	1720.18
752.884	1757.97
753.072	1682.79
753.261	1694.8
753.449	1735.68
753.637	1685.12
753.825	1788.19
754.014	1702.75
754.202	1701.59
754.39	1735.1
754.578	1763.78
754.766	1695
754.955	1686.09
755.143	1795.94
755.331	1692.09
755.519	1710.3
755.707	1738.4
755.895	1669.04
756.083	1711.85
756.271	1634.94
756.459	1681.63
756.647	1730.26
756.835	1668.65
757.023	1678.72
757.211	1653.54
757.399	1685.7
757.587	1616.34
757.775	1624.67
757.963	1639.78
758.151	1638.23
758.339	1665.94
758.526	1616.92
758.714	1653.92
758.902	1613.43
759.09	1555.5
759.278	1447.58
759.465	1347.42
759.653	1127.71
759.841	1049.04
760.028	913.42
760.216	784.19
760.404	751.25
760.591	598.78
760.779	490.66
760.967	440.87
761.154	335.28
761.342	391.66
761.529	379.26
761.717	410.26
761.905	383.33
762.092	448.43
762.28	380.23
762.467	370.15
762.655	367.64
762.842	383.33
763.029	379.84
763.217	374.42
763.404	339.93
763.592	417.82
763.779	358.72
763.966	402.7
764.154	414.52
764.341	476.33
764.528	440.68
764.716	476.13
764.903	522.83
765.09	528.83
765.277	591.22
765.465	673.56
765.652	701.66
765.839	714.64
766.026	780.51
766.213	808.02
766.4	844.45
766.588	986.08
766.775	951.4
766.962	1022.89
767.149	1053.89
767.336	1144.37
767.523	1103.87
767.71	1157.74
767.897	1248.6
768.084	1287.55
768.271	1288.13
768.458	1290.45
768.645	1353.42
768.832	1314.67
769.019	1334.82
769.206	1376.86
769.392	1411.55
769.579	1492.92
769.766	1434.02
769.953	1443.51
770.14	1466.57
770.327	1442.74
770.513	1488.66
770.7	1534.57
770.887	1455.33
771.073	1505.51
771.26	1498.34
771.447	1466.57
771.634	1493.31
771.82	1571.58
772.007	1475.09
772.193	1507.26
772.38	1556.27
772.567	1494.47
772.753	1527.41
772.94	1540.77
773.126	1543.49
773.313	1523.34
773.499	1549.49
773.686	1552.98
773.872	1487.3
774.059	1523.34
774.245	1453.39
774.432	1496.99
774.618	1461.73
774.804	1493.89
774.991	1456.69
775.177	1523.73
775.363	1470.25
775.55	1513.84
775.736	1467.15
775.922	1470.44
776.109	1453.78
776.295	1471.22
776.481	1522.18
776.667	1504.54
776.853	1444.48
777.04	1482.84
777.226	1448.55
777.412	1555.5
777.598	1483.04
777.784	1445.06
777.97	1441
778.156	1466.38
778.342	1433.63
778.528	1447.97
778.715	1403.02
778.901	1439.64
779.087	1442.93
779.272	1407.67
779.458	1435.96
779.644	1443.13
779.83	1379
780.016	1515.2
780.202	1428.21
780.388	1398.18
780.574	1341.6
780.76	1397.6
780.946	1454.94
781.131	1417.94
781.317	1392.75
781.503	1385.39
781.689	1384.23
781.874	1480.13
782.06	1385.78
782.246	1396.82
782.432	1379.19
782.617	1402.63
782.803	1401.66
782.989	1320.68
783.174	1354.58
783.36	1356.52
783.545	1391.98
783.731	1368.73
783.916	1319.32
784.102	1374.54
784.288	1322.62
784.473	1367.95
784.659	1359.62
784.844	1404.18
785.029	1314.09
785.215	1362.72
785.4	1295.88
785.586	1374.15
785.771	1304.6
785.956	1319.9
786.142	1339.47
786.327	1282.32
786.512	1307.12
786.698	1310.22
786.883	1264.49
787.068	1286
787.254	1311.96
787.439	1298.98
787.624	1276.7
787.809	1284.25
787.994	1273.21
788.18	1327.46
788.365	1236.4
788.55	1283.87
788.735	1252.87
788.92	1280.38
789.105	1251.9
789.29	1289.87
789.475	1222.25
789.66	1237.95
789.845	1188.74
790.03	1170.52
790.215	1244.34
790.4	1266.82
790.585	1259.65
790.77	1226.52
790.955	1152.7
791.14	1209.08
791.325	1272.63
791.51	1139.91
791.695	1172.85
791.879	1168.39
792.064	1155.22
792.249	1222.06
792.434	1162.58
792.618	1198.62
792.803	1214.89
792.988	1181.95
793.173	1191.64
793.357	1220.7
793.542	1149.21
793.727	1180.99
793.911	1208.5
794.096	1187.38
794.281	1183.5
794.465	1274.95
794.65	1220.51
794.834	1220.9
795.019	1262.94
795.203	1228.84
795.388	1260.42
795.572	1242.99
795.757	1213.34
795.941	1235.62
796.126	1209.47
796.31	1172.85
796.494	1217.41
796.679	1182.15
796.863	1179.63
797.048	1256.94
797.232	1232.14
797.416	1208.11
797.601	1229.62
797.785	1244.73
797.969	1245.89
798.153	1183.89
798.338	1225.74
798.522	1228.07
798.706	1224.58
798.89	1280.77
799.074	1306.15
799.258	1282.7
799.443	1234.46
799.627	1243.57
799.811	1279.02
799.995	1217.02
800.179	1191.64
800.363	1216.44
800.547	1229.04
800.731	1229.23
800.915	1167.23
801.099	1206.17
801.283	1212.76
801.467	1231.55
801.651	1197.84
801.835	1255.19
802.019	1245.5
802.202	1250.74
802.386	1172.85
802.57	1195.71
802.754	1191.45
802.938	1205.79
803.121	1216.05
803.305	1246.86
803.489	1193.19
803.673	1219.54
803.856	1221.09
804.04	1196.1
804.224	1233.3
804.407	1205.59
804.591	1183.7
804.775	1234.46
804.958	1225.94
805.142	1311.18
805.326	1214.5
805.509	1225.94
805.693	1228.45
805.876	1249.77
806.06	1233.69
806.243	1215.28
806.427	1246.28
806.61	1270.3
806.794	1235.62
806.977	1269.72
807.16	1214.89
807.344	1214.7
807.527	1229.62
807.71	1199.59
807.894	1234.65
808.077	1259.07
808.26	1228.84
808.444	1210.82
808.627	1213.15
808.81	1213.92
808.993	1172.27
809.177	1162
809.36	1199
809.543	1230.59
809.726	1158.32
809.909	1149.21
810.092	1136.81
810.276	1148.82
810.459	1172.85
810.642	1121.12
810.825	1124.22
811.008	1137.01
811.191	1067.45
811.374	1085.66
811.557	1090.51
811.74	1140.49
811.923	1038.97
812.106	1063.19
812.289	998.67
812.472	1026.57
812.654	1074.62
812.837	1040.13
813.02	986.27
813.203	982.98
813.386	932.8
813.569	941.71
813.751	897.92
813.934	944.42
814.117	931.05
814.3	887.46
814.482	894.63
814.665	881.65
814.848	868.08
815.03	827.01
815.213	855.3
815.396	809.96
815.578	795.43
815.761	790.59
815.943	846.38
816.126	773.15
816.309	775.67
816.491	732.27
816.674	713.47
816.856	747.77
817.039	697.01
817.221	746.8
817.403	726.84
817.586	745.83
817.768	782.84
817.951	701.27
818.133	702.62
818.315	731.11
818.498	765.01
818.68	787.49
818.862	774.89
819.045	812.67
819.227	770.24
819.409	752.42
819.591	802.21
819.774	755.9
819.956	704.37
820.138	780.12
820.32	792.91
820.502	812.29
820.684	831.47
820.866	837.28
821.048	853.55
821.231	873.7
821.413	845.42
821.595	809.38
821.777	835.34
821.959	858.59
822.141	879.71
822.323	798.34
822.505	791.36
822.686	768.69
822.868	758.62
823.05	662.52
823.232	679.37
823.414	604.01
823.596	692.36
823.778	669.49
823.96	672.98
824.141	702.04
824.323	704.56
824.505	724.71
824.687	761.52
824.868	775.09
825.05	851.81
825.232	828.37
825.413	907.8
825.595	853.94
825.777	797.75
825.958	822.17
826.14	832.82
826.321	856.85
826.503	811.51
826.685	859.95
826.866	858.4
827.048	835.92
827.229	796.01
827.411	819.07
827.592	787.68
827.773	776.25
827.955	741.57
828.136	762.1
828.318	720.84
828.499	777.8
828.68	716.57
828.862	738.47
829.043	774.12
829.224	760.75
829.406	711.92
829.587	722
829.768	726.07
829.949	781.09
830.131	743.31
830.312	800.27
830.493	744.47
830.674	748.15
830.855	751.64
831.036	721.81
831.218	763.27
831.399	790.2
831.58	744.09
831.761	770.63
831.942	792.72
832.123	750.09
832.304	699.33
832.485	752.22
832.666	746.02
832.847	753.77
833.028	735.56
833.209	772.18
833.389	726.65
833.57	703.4
833.751	740.99
833.932	781.67
834.113	784.19
834.294	711.54
834.475	773.54
834.655	782.45
834.836	786.32
835.017	784.77
835.198	715.22
835.378	754.55
835.559	761.14
835.74	746.99
835.92	726.26
836.101	720.45
836.281	764.43
836.462	755.32
836.643	792.91
836.823	797.17
837.004	793.1
837.184	831.66
837.365	774.89
837.545	799.3
837.726	768.89
837.906	821
838.087	766.56
838.267	767.53
838.448	745.83
838.628	777.8
838.808	770.63
838.989	821.78
839.169	740.99
839.349	799.69
839.53	806.67
839.71	788.45
839.89	750.87
840.07	849.68
840.251	745.05
840.431	804.73
840.611	807.83
840.791	740.6
840.971	809.96
841.151	771.79
841.332	754.94
841.512	797.37
841.692	710.18
841.872	775.67
842.052	784
842.232	797.95
842.412	717.16
842.592	765.98
842.772	803.18
842.952	773.73
843.132	746.99
843.312	733.82
843.492	738.08
843.672	787.1
843.851	743.89
844.031	751.25
844.211	763.65
844.391	744.28
844.571	762.88
844.751	761.91
844.93	749.12
845.11	736.92
845.29	772.57
845.47	754.94
845.649	753.58
845.829	758.42
846.009	740.21
846.188	787.1
846.368	748.54
846.547	712.31
846.727	807.64
846.907	700.11
847.086	757.07
847.266	785.35
847.445	760.17
847.625	733.62
847.804	713.28
847.984	697.78
848.163	694.1
848.343	728.01
848.522	748.54
848.701	788.65
848.881	696.81
849.06	748.54
849.239	737.11
849.419	760.17
849.598	715.99
849.777	706.89
849.957	709.41
850.136	686.74
850.315	661.16
850.494	667.56
850.674	662.13
850.853	732.27
851.032	675.5
851.211	722
851.39	706.31
851.569	673.56
851.748	673.37
851.927	717.93
852.107	696.23
852.286	621.83
852.465	666.01
852.644	695.84
852.823	684.02
853.002	653.99
853.181	698.56
853.359	689.06
853.538	657.09
853.717	740.41
853.896	647.79
854.075	606.53
854.254	583.86
854.433	581.53
854.611	621.64
854.79	582.89
854.969	616.21
855.148	655.35
855.327	570.29
855.505	602.07
855.684	576.3
855.863	628.42
856.041	603.04
856.22	629.97
856.399	561.38
856.577	662.91
856.756	628.23
856.934	752.42
857.113	748.15
857.291	652.06
857.47	604.78
857.648	639.27
857.827	641.4
858.005	694.87
858.184	626.87
858.362	727.23
858.541	662.13
858.719	646.83
858.898	653.41
859.076	674.14
859.254	711.54
859.433	610.79
859.611	616.41
859.789	641.59
859.967	664.65
860.146	684.02
860.324	594.32
860.502	627.84
860.68	571.65
860.859	595.09
861.037	629.58
861.215	685.57
861.393	621.06
861.571	632.29
861.749	596.06
861.927	639.08
862.105	638.11
862.283	637.53
862.461	600.33
862.639	594.13
862.817	592.58
862.995	624.16
863.173	610.59
863.351	608.66
863.529	626.87
863.707	652.25
863.885	623.38
864.063	550.73
864.241	585.79
864.418	661.36
864.596	598.19
864.774	542.4
864.952	595.68
865.129	629.19
865.307	579.21
865.485	536.58
865.663	636.94
865.84	550.73
866.018	604.78
866.196	473.42
866.373	537.36
866.551	531.35
866.728	476.52
866.906	518.95
867.084	559.64
867.261	545.69
867.439	569.91
867.616	565.84
867.794	549.37
867.971	581.34
868.149	552.66
868.326	595.09
868.503	593.74
868.681	536.2
868.858	553.05
869.035	542.01
869.213	620.67
869.39	558.86
869.567	632.68
869.745	530.58
869.922	566.81
870.099	591.61
870.276	586.38
870.454	591.03
870.631	573.78
870.808	567.39
870.985	590.44
871.162	629.39
871.339	584.44
871.517	538.91
871.694	532.9
871.871	561.96
872.048	537.36
872.225	527.67
872.402	560.22
872.579	515.46
872.756	541.81
872.933	506.94
873.11	537.36
873.287	545.5
873.463	524.18
873.64	528.25
873.817	570.88
873.994	552.08
874.171	521.86
874.348	549.95
874.524	488.53
874.701	517.6
874.878	476.33
875.055	554.21
875.231	503.65
875.408	560.61
875.585	478.85
875.762	527.28
875.938	510.62
876.115	496.09
876.291	497.25
876.468	513.53
876.645	461.99
876.821	484.46
876.998	482.14
877.174	477.49
877.351	507.71
877.527	488.34
877.704	501.9
877.88	526.9
878.057	468.19
878.233	545.5
878.409	506.36
878.586	520.7
878.762	475.75
878.938	497.25
879.115	426.53
879.291	494.15
879.467	422.08
879.644	444.75
879.82	510.23
879.996	469.74
880.172	460.44
880.349	460.44
880.525	492.41
880.701	459.08
880.877	459.47
881.053	474.97
881.229	484.66
881.405	492.02
881.581	449.4
881.757	471.29
881.933	457.53
882.109	497.64
882.285	457.15
882.461	424.02
882.637	448.62
882.813	434.48
882.989	428.08
883.165	477.49
883.341	448.62
883.517	504.42
883.693	470.13
883.869	491.25
884.044	424.02
884.22	482.53
884.396	522.05
884.572	470.9
884.747	505.39
884.923	483.88
885.099	471.1
885.275	493.57
885.45	447.07
885.626	454.63
885.801	421.88
885.977	434.87
886.153	391.47
886.328	462.38
886.504	442.23
886.679	508.49
886.855	421.3
887.03	500.35
887.206	477.49
887.381	465.67
887.557	486.21
887.732	466.83
887.908	468.97
888.083	494.73
888.258	461.22
888.434	445.52
888.609	478.85
888.784	487.95
888.96	450.37
889.135	425.95
889.31	445.91
889.485	440.68
889.661	437.38
889.836	505.39
890.011	473.81
890.186	425.95
890.361	430.02
890.537	444.75
890.712	448.62
890.887	464.12
891.062	473.03
891.237	508.49
891.412	414.72
891.587	449.2
891.762	477.1
891.937	498.22
892.112	408.9
892.287	455.02
892.462	422.27
892.637	397.47
892.812	383.33
892.987	432.93
893.161	412.39
893.336	425.76
893.511	414.33
893.686	463.15
893.861	423.63
894.035	418.98
894.21	407.74
894.385	374.61
894.56	424.4
894.734	358.34
894.909	368.02
895.084	384.49
895.258	366.67
895.433	384.49
895.608	361.82
895.782	314.74
895.957	346.32
896.131	341.67
896.306	311.06
896.48	289.56
896.655	330.44
896.829	299.24
897.004	273.67
897.178	327.53
897.353	279.67
897.527	331.21
897.701	288.39
897.876	274.25
898.05	335.47
898.224	312.8
898.399	364.15
898.573	325.2
898.747	250.61
898.921	302.54
899.096	238.41
899.27	251.97
899.444	239.96
899.618	246.74
899.792	260.49
899.967	220.77
900.141	292.27
900.315	240.34
900.489	268.82
900.663	271.34
900.837	266.5
901.011	237.24
901.185	328.3
901.359	294.59
901.533	293.62
901.707	251
901.881	246.35
902.055	231.24
902.229	258.36
902.403	309.32
902.576	263.59
902.75	267.27
902.924	340.12
903.098	285.29
903.272	314.74
903.446	325.2
903.619	261.85
903.793	340.7
903.967	313.58
904.14	336.64
904.314	341.29
904.488	311.84
904.661	368.6
904.835	325.59
905.009	344.77
905.182	415.1
905.356	340.7
905.529	355.04
905.703	291.11
905.876	326.17
906.05	271.15
906.223	319.39
906.397	256.23
906.57	265.34
906.744	241.51
906.917	273.09
907.09	282.19
907.264	287.62
907.437	243.83
907.61	224.26
907.784	227.75
907.957	239.37
908.13	250.42
908.304	274.44
908.477	226.39
908.65	235.31
908.823	197.91
908.996	287.42
909.17	259.52
909.343	205.08
909.516	259.52
909.689	220.19
909.862	246.54
910.035	252.94
910.208	209.34
910.381	235.11
910.554	303.7
910.727	244.99
910.9	205.47
911.073	190.94
911.246	265.14
911.419	285.68
911.592	262.04
911.765	202.37
911.938	238.41
912.11	234.53
912.283	227.56
912.456	280.06
912.629	239.18
912.802	211.67
912.974	212.06
913.147	218.26
913.32	146.38
913.493	186.48
913.665	199.46
913.838	194.04
914.01	197.14
914.183	197.33
914.356	206.05
914.528	202.18
914.701	255.07
914.873	239.76
915.046	208.76
915.218	173.5
915.391	129.91
915.563	157.61
915.736	228.14
915.908	236.66
916.081	202.95
916.253	203.14
916.425	190.94
916.598	199.85
916.77	164.78
916.942	186.29
917.115	115.57
917.287	225.04
917.459	172.92
917.632	151.03
917.804	95.81
917.976	203.53
918.148	158
918.32	176.99
918.493	220.39
918.665	218.06
918.837	214.96
919.009	273.28
919.181	241.12
919.353	219.61
919.525	174.28
919.697	185.32
919.869	191.71
920.041	254.68
920.213	287.81
920.385	205.28
920.557	196.75
920.729	225.81
920.901	211.67
921.073	224.46
921.244	193.84
921.416	249.64
921.588	204.31
921.76	209.54
921.932	273.09
922.103	220.19
922.275	203.14
922.447	194.43
922.619	163.81
922.79	191.52
922.962	175.63
923.134	220.77
923.305	155.87
923.477	155.68
923.648	152.96
923.82	178.34
923.991	126.42
924.163	130.1
924.335	180.67
924.506	152.96
924.677	238.41
924.849	163.62
925.02	195.01
925.192	207.6
925.363	166.14
925.535	170.21
925.706	156.64
925.877	238.6
926.049	154.32
926.22	195.59
926.391	175.24
926.562	227.36
926.734	133.39
926.905	196.36
927.076	137.08
927.247	132.62
927.419	135.53
927.59	99.49
927.761	123.71
927.932	132.04
928.103	172.73
928.274	126.81
928.445	129.13
928.616	137.46
928.787	126.42
928.958	187.26
929.129	144.63
929.3	146.38
929.471	93.48
929.642	80.89
929.813	46.01
929.984	125.65
930.155	48.53
930.326	104.33
930.496	78.76
930.667	31.87
930.838	87.48
931.009	42.92
931.18	72.36
931.35	47.56
931.521	101.43
931.692	52.6
931.863	8.82
932.033	77.79
932.204	88.83
932.374	72.36
932.545	37.88
932.716	95.23
932.886	84.18
933.057	20.63
933.227	34.78
933.398	96.2
933.568	30.52
933.739	21.6
933.909	21.41
934.08	69.85
934.25	-15.6
934.421	7.65
934.591	43.11
934.761	-18.89
934.932	-24.32
935.102	49.11
935.272	6.88
935.443	2.23
935.613	-3.2
935.783	34.39
935.953	-11.14
936.123	134.36
936.294	-3.2
936.464	23.73
936.634	-8.04
936.804	-15.02
936.974	-41.17
937.144	29.74
937.314	9.4
937.484	24.7
937.655	14.63
937.825	21.41
937.995	-20.63
938.165	55.9
938.334	-17.15
938.504	22.96
938.674	-2.62
938.844	25.67
939.014	55.9
939.184	14.82
939.354	71.2
939.524	52.21
939.694	28
939.863	20.44
940.033	64.61
940.203	57.25
940.373	50.47
940.542	71.4
940.712	22.57
940.882	63.65
941.051	87.09
941.221	47.95
941.391	77.4
941.56	13.85
941.73	14.63
941.899	122.93
942.069	23.73
942.238	71.4
942.408	27.42
942.577	73.33
942.747	22.77
942.916	-3.2
943.086	0.1
943.255	55.51
943.425	24.32
943.594	26.64
943.763	-21.8
943.933	7.07
944.102	-13.47
944.271	37.68
944.441	45.82
944.61	10.37
944.779	13.27
944.948	84.57
945.117	-22.38
945.287	52.6
945.456	-8.62
945.625	-27.42
945.794	51.63
945.963	7.85
946.132	40.4
946.301	-1.65
946.47	36.52
946.639	-33.42
946.808	12.3
946.977	38.46
947.146	63.45
947.315	6.3
947.484	32.26
947.653	34.2
947.822	14.82
947.991	15.6
948.16	85.54
948.329	87.67
948.498	5.72
948.666	18.12
948.835	58.61
949.004	-31.68
949.173	-7.27
949.341	24.32
949.51	41.95
949.679	91.93
949.847	82.44
950.016	118.28
950.185	65.39
950.353	10.56
950.522	17.34
950.69	54.93
950.859	-6.3
951.028	83.02
951.196	55.7
951.365	-5.72
951.533	25.09
951.701	70.81
951.87	52.8
952.038	0.68
952.207	27.61
952.375	84.38
952.543	26.64
952.712	46.21
952.88	15.6
953.048	93.87
953.217	37.1
953.385	15.4
953.553	87.09
953.721	1.84
953.89	19.08
954.058	1.26
954.226	20.63
954.394	34.39
954.562	5.13
954.73	4.36
954.898	8.04
955.067	62.1
955.235	24.12
955.403	70.81
955.571	87.09
955.739	51.44
955.907	-27.03
956.075	-8.04
956.243	13.85
956.41	53.76
956.578	1.26
956.746	-2.62
956.914	19.08
957.082	53.96
957.25	53.57
957.418	-5.91
957.585	-0.29
957.753	59.77
957.921	-7.65
958.089	2.42
958.256	41.37
958.424	42.53
958.592	18.89
958.759	1.84
958.927	53.38
959.095	20.44
959.262	15.6
959.43	37.68
959.597	16.76
959.765	10.17
959.932	3.78
960.1	33.03
960.267	19.28
960.435	17.92
960.602	62.48
960.77	15.02
960.937	-18.7
961.104	31.87
961.272	-25.67
961.439	9.2
961.606	49.7
961.774	53.76
961.941	9.78
962.108	43.88
962.275	18.7
962.443	72.36
962.61	39.43
962.777	84.38
962.944	41.17
963.111	39.23
963.278	45.82
963.446	32.84
963.613	29.16
963.78	49.89
963.947	70.62
964.114	56.67
964.281	94.06
964.448	56.09
964.615	18.7
964.782	27.42
964.949	59.58
965.116	52.99
965.282	70.04
965.449	56.86
965.616	19.86
965.783	69.26
965.95	48.53
966.117	-15.4
966.283	19.08
966.45	39.62
966.617	54.73
966.784	92.71
966.95	43.11
967.117	70.62
967.284	2.23
967.45	-5.72
967.617	90
967.784	20.83
967.95	79.73
968.117	49.31
968.283	64.61
968.45	116.15
968.616	65.39
968.783	99.3
968.949	37.1
969.116	96
969.282	48.53
969.449	80.89
969.615	59.77
969.781	-2.42
969.948	28
970.114	4.55
970.28	100.65
970.447	57.64
970.613	83.6
970.779	42.53
970.945	60.16
971.112	67.33
971.278	14.63
971.444	51.44
971.61	80.7
971.776	33.23
971.942	36.72
972.108	47.56
972.275	43.88
972.441	49.7
972.607	100.26
972.773	21.22
972.939	37.1
973.105	53.76
973.271	17.92
973.437	15.21
973.602	2.42
973.768	41.95
973.934	29.74
974.1	67.52
974.266	-16.37
974.432	63.84
974.598	38.46
974.763	58.8
974.929	30.13
975.095	97.36
975.261	9.4
975.426	4.94
975.592	31.29
975.758	90
975.923	12.88
976.089	26.06
976.255	70.04
976.42	57.45
976.586	50.47
976.751	46.01
976.917	127.58
977.082	62.48
977.248	33.03
977.413	-29.93
977.579	19.47
977.744	66.55
977.91	12.11
978.075	43.3
978.24	75.85
978.406	25.48
978.571	18.89
978.736	-4.75
978.902	66.36
979.067	32.07
979.232	-4.17
979.397	59.58
979.563	99.3
979.728	17.53
979.893	28.77
980.058	12.69
980.223	54.54
980.388	35.94
980.554	52.6
980.719	-7.85
980.884	50.08
981.049	67.91
981.214	18.5
981.379	66.36
981.544	2.03
981.709	56.28
981.874	25.87
982.039	20.63
982.204	68.1
982.368	34
982.533	17.15
982.698	60.35
982.863	66.75
983.028	5.13
983.193	53.96
983.357	25.09
983.522	43.88
983.687	16.76
983.852	19.47
984.016	14.82
984.181	40.59
984.346	51.83
984.51	44.66
984.675	42.72
984.839	63.45
985.004	44.85
985.168	72.75
985.333	36.91
985.498	13.66
985.662	82.44
985.827	53.57
985.991	17.73
986.155	25.48
986.32	67.71
986.484	121
986.649	56.48
986.813	-14.63
986.977	43.11
987.142	47.18
987.306	4.55
987.47	15.98
987.634	34.39
987.799	51.25
987.963	68.3
988.127	75.08
988.291	129.52
988.455	42.92
988.62	28.77
988.784	46.6
988.948	69.07
989.112	15.98
989.276	45.63
989.44	67.33
989.604	17.15
989.768	27.42
989.932	92.32
990.096	-0.29
990.26	24.32
990.424	2.81
990.588	39.43
990.752	116.15
990.915	70.23
991.079	37.88
991.243	20.83
991.407	67.91
991.571	27.03
991.734	29.35
991.898	39.04
992.062	101.62
992.226	39.62
992.389	25.87
992.553	-19.67
992.717	-10.17
992.88	26.83
993.044	21.8
993.207	33.23
993.371	55.31
993.535	41.95
993.698	36.72
993.862	69.26
994.025	102.59
994.189	47.37
994.352	48.73
994.515	56.09
994.679	75.46
994.842	17.73
995.006	59.19
995.169	9.98
995.332	9.59
995.496	60.55
995.659	-13.08
995.822	42.72
995.985	37.88
996.149	88.25
996.312	36.13
996.475	101.23
996.638	28.19
996.801	59.96
996.964	96.2
997.128	37.1
997.291	54.54
997.454	56.86
997.617	-15.79
997.78	40.01
997.943	11.14
998.106	81.28
998.269	6.68
998.432	34.78
998.595	41.37
998.758	-30.71
998.92	4.17
999.083	-15.4
999.246	-12.3
999.409	-2.62
999.572	-20.83
999.735	37.3
999.897	44.08
1000.06	23.73
1000.223	34
1000.386	41.56
1000.548	51.83
1000.711	43.3
1000.874	69.65
1001.036	-28.19
1001.199	75.66
1001.361	-6.49
1001.524	46.01
1001.687	51.63
1001.849	3.39
1002.012	34.78
1002.174	52.21
1002.337	48.15
1002.499	39.43
1002.661	54.35
1002.824	-27.03
1002.986	15.21
1003.149	35.55
1003.311	-22.18
1003.473	92.32
1003.636	-2.81
1003.798	54.73
1003.96	48.92
1004.123	22.57
1004.285	-5.52
1004.447	29.16
1004.609	13.66
1004.771	80.31
1004.933	-23.93
1005.096	2.81
1005.258	-17.53
1005.42	8.62
1005.582	44.08
1005.744	14.43
1005.906	4.36
1006.068	34.78
1006.23	-26.64
1006.392	-28
1006.554	-26.64
1006.716	48.15
1006.878	33.03
1007.04	-18.31
1007.202	7.65
1007.363	24.9
1007.525	31.29
1007.687	43.11
1007.849	57.83
1008.011	-9.78
1008.172	15.02
1008.334	22.96
1008.496	29.35
1008.658	-31.1
1008.819	-14.24
1008.981	-7.85
1009.143	-5.33
1009.304	-0.29
1009.466	12.3
1009.627	77.4
1009.789	109.18
1009.95	28
1010.112	3.58
1010.273	28.19
1010.435	22.96
1010.596	5.13
1010.758	29.16
1010.919	23.54
1011.081	-36.52
1011.242	31.48
1011.403	46.4
1011.565	14.24
1011.726	31.48
1011.887	-12.88
1012.049	7.27
1012.21	42.92
1012.371	61.9
1012.532	-59.38
1012.693	20.63
1012.855	-17.53
1013.016	18.5
1013.177	44.27
1013.338	4.75
1013.499	83.02
1013.66	40.01
1013.821	35.17
1013.982	13.47
1014.143	13.47
1014.304	-10.37
1014.465	26.06
1014.626	34.97
1014.787	6.1
1014.948	91.74
1015.109	-43.88
1015.27	62.29
1015.431	13.08
1015.592	-9.4
1015.752	44.66
1015.913	35.17
1016.074	23.54
1016.235	53.18
1016.395	13.85
1016.556	17.34
1016.717	1.07
1016.877	64.03
1017.038	33.03
1017.199	39.04
1017.359	18.7
1017.52	32.26
1017.681	28
1017.841	7.85
1018.002	10.56
1018.162	-20.44
1018.323	59.77
1018.483	22.18
1018.644	-4.94
1018.804	-29.93
1018.964	-15.21
1019.125	4.17
1019.285	38.46
1019.446	-25.67
1019.606	5.33
1019.766	-38.46
1019.926	23.15
1020.087	31.68
1020.247	4.36
1020.407	9.4
1020.567	41.95
1020.728	-3.58
1020.888	-7.85
1021.048	-1.26
1021.208	-16.18
1021.368	7.27
1021.528	37.1
1021.688	37.1
1021.848	27.42
1022.008	16.57
1022.168	0.68
1022.328	41.56
1022.488	40.01
1022.648	-15.4
1022.808	13.27
1022.968	25.48
1023.128	-17.53
1023.288	-12.3
1023.448	25.09
1023.608	40.2
1023.767	17.92
1023.927	-15.4
1024.087	-26.25
1024.247	-21.22
1024.406	0.1
1024.566	-19.28
1024.726	-32.07
1024.885	1.84
1025.045	17.73
1025.205	8.23
1025.364	10.37
1025.524	34.39
1025.683	-3.97
1025.843	10.56
1026.003	18.7
1026.162	47.37
1026.321	46.01
1026.481	22.57
1026.64	13.27
1026.8	32.45
1026.959	5.33
1027.119	4.94
1027.278	-10.17
1027.437	-4.55
1027.597	14.05
1027.756	6.88
1027.915	37.49
1028.074	57.64
1028.234	18.5
1028.393	0.48
1028.552	-3
1028.711	-52.41
1028.87	38.27
1029.03	9.98
1029.189	22.57
1029.348	-63.06
1029.507	-2.23
1029.666	-9.98
1029.825	-7.27
1029.984	-7.46
1030.143	20.44
1030.302	-22.18
1030.461	-42.53
1030.62	10.95
1030.779	6.49
1030.938	-34.39
1031.097	-4.94
1031.255	17.73
1031.414	41.17
1031.573	48.92
1031.732	-46.6
1031.891	4.75
1032.049	53.96
1032.208	22.77
1032.367	-13.47
1032.525	8.62
1032.684	6.3
1032.843	0.87
1033.001	-28.97
1033.16	142.89
1033.319	21.6
1033.477	24.12
1033.636	-19.28
1033.794	-37.88
1033.953	18.31
1034.111	32.65
1034.27	-26.45
1034.428	33.23
1034.587	-17.15
1034.745	18.12
1034.903	-1.65
1035.062	28.58
1035.22	-10.17
1035.378	30.52
1035.537	-21.41
1035.695	33.62
1035.853	-2.42
1036.011	71.2
1036.17	14.82
1036.328	-57.06
1036.486	37.49
1036.644	-3.78
1036.802	-65.39
1036.96	-10.17
1037.119	-4.17
1037.277	-28.58
1037.435	-43.5
1037.593	-29.16
1037.751	-0.68
1037.909	40.78
1038.067	40.78
