Data from oakcork_FLMT105791__233__17-33-04-044.txt Node

Date: Mon Mar 20 17:33:04 GMT 2023
User: antho
Spectrometer: FLMT10579
Trigger mode: 0
Integration Time (sec): 1.000000E-1
Scans to average: 10
Electric dark correction enabled: true
Nonlinearity correction enabled: false
Boxcar width: 0
XAxis mode: Wavelengths
Number of Pixels in Spectrum: 3648
>>>>>Begin Spectral Data<<<<<
345.248	-157.98
345.464	-157.98
345.681	-157.98
345.898	-153.33
346.114	-157.6
346.331	-39.02
346.548	34.21
346.764	-21.97
346.981	18.52
347.197	5.54
347.414	20.65
347.631	-47.74
347.847	45.26
348.064	18.33
348.28	17.55
348.497	-39.41
348.713	-11.9
348.93	43.32
349.146	44.29
349.363	3.41
349.579	6.89
349.796	8.64
350.012	-3.57
350.229	30.34
350.445	6.51
350.661	-8.8
350.878	5.93
351.094	17.55
351.311	19.49
351.527	16.78
351.743	-20.23
351.96	50.49
352.176	38.09
352.392	22.59
352.609	33.63
352.825	-16.94
353.041	7.28
353.257	28.59
353.474	10.58
353.69	29.37
353.906	2.05
354.122	-15.58
354.339	63.27
354.555	14.84
354.771	4.76
354.987	71.99
355.203	61.14
355.42	5.73
355.636	7.86
355.852	-16.36
356.068	14.45
356.284	-11.9
356.5	58.82
356.716	31.89
356.932	18.33
357.148	15.81
357.364	10.77
357.58	39.25
357.796	61.92
358.012	48.55
358.228	12.13
358.444	-39.02
358.66	58.82
358.876	19.68
359.092	-17.91
359.308	24.91
359.524	29.37
359.74	-6.67
359.956	-7.44
360.172	19.68
360.388	47.97
360.604	25.3
360.819	84.39
361.035	26.85
361.251	35.76
361.467	-4.92
361.683	60.95
361.898	15.23
362.114	56.11
362.33	30.73
362.546	60.56
362.762	4.96
362.977	44.29
363.193	-3.18
363.409	58.82
363.624	0.69
363.84	-11.71
364.056	-2.02
364.271	24.14
364.487	23.36
364.703	-7.06
364.918	-1.44
365.134	18.33
365.35	20.84
365.565	103.19
365.781	20.46
365.996	57.85
366.212	87.88
366.427	61.72
366.643	21.43
366.858	18.91
367.074	-6.86
367.289	68.7
367.505	112.87
367.72	-11.51
367.936	27.04
368.151	64.82
368.367	55.72
368.582	31.5
368.798	30.73
369.013	61.14
369.228	29.37
369.444	12.13
369.659	64.05
369.874	59.4
370.09	73.74
370.305	-51.81
370.52	19.68
370.736	80.91
370.951	15.42
371.166	66.18
371.381	90.79
371.597	36.54
371.812	5.54
372.027	5.15
372.242	28.98
372.458	67.92
372.673	36.73
372.888	32.28
373.103	62.31
373.318	87.88
373.533	14.06
373.749	52.42
373.964	0.69
374.179	71.02
374.394	-0.86
374.609	53.78
374.824	11.35
375.039	69.47
375.254	10.38
375.469	101.06
375.684	38.67
375.899	71.02
376.114	27.43
376.329	48.36
376.544	53.78
376.759	67.92
376.974	14.64
377.189	33.83
377.404	41.38
377.619	56.49
377.834	-10.93
378.049	-1.05
378.264	5.93
378.478	67.73
378.693	9.41
378.908	48.94
379.123	26.66
379.338	79.55
379.553	42.35
379.767	38.28
379.982	57.07
380.197	60.76
380.412	31.31
380.626	42.16
380.841	117.52
381.056	51.26
381.271	102.61
381.485	11.93
381.7	10.96
381.915	62.69
382.129	40.61
382.344	34.21
382.559	22.78
382.773	58.43
382.988	-15.19
383.202	42.35
383.417	4.38
383.632	119.07
383.846	31.11
384.061	65.6
384.275	15.61
384.49	44.29
384.704	70.25
384.919	43.71
385.133	29.18
385.348	65.02
385.562	34.02
385.777	71.99
385.991	58.24
386.206	29.76
386.42	28.79
386.634	98.15
386.849	58.62
387.063	41.57
387.277	10.19
387.492	54.36
387.706	35.57
387.92	22.78
388.135	89.82
388.349	43.71
388.563	58.24
388.778	94.66
388.992	78.77
389.206	51.26
389.42	115.59
389.635	69.67
389.849	102.8
390.063	99.51
390.277	54.75
390.491	92.92
390.706	76.64
390.92	92.34
391.134	68.89
391.348	78
391.562	28.59
391.776	80.71
391.99	33.44
392.205	105.12
392.419	35.18
392.633	68.51
392.847	111.52
393.061	53.2
393.275	104.16
393.489	55.33
393.703	61.92
393.917	84.97
394.131	57.46
394.345	71.22
394.559	91.17
394.773	51.84
394.986	102.99
395.2	82.84
395.414	114.42
395.628	30.73
395.842	71.41
396.056	70.44
396.27	24.33
396.484	96.41
396.697	86.14
396.911	110.74
397.125	62.31
397.339	78.58
397.553	77.42
397.766	125.08
397.98	97.37
398.194	134.96
398.408	75.09
398.621	118.88
398.835	132.83
399.049	113.26
399.262	155.5
399.476	138.64
399.69	127.99
399.903	176.23
400.117	102.61
400.331	119.66
400.544	89.04
400.758	204.9
400.971	148.33
401.185	154.92
401.398	91.76
401.612	187.27
401.826	167.51
402.039	128.57
402.253	98.15
402.466	141.55
402.68	130.89
402.893	167.7
403.106	145.04
403.32	128.18
403.533	153.37
403.747	118.49
403.96	150.65
404.174	149.69
404.387	107.06
404.6	108.03
404.814	155.5
405.027	120.82
405.24	127.21
405.454	116.75
405.667	191.92
405.88	96.21
406.094	128.37
406.307	156.47
406.52	178.94
406.733	98.15
406.947	78
407.16	200.06
407.373	190.76
407.586	109.19
407.799	124.5
408.012	165.19
408.226	160.15
408.439	209.55
408.652	126.44
408.865	181.65
409.078	163.05
409.291	170.61
409.504	134.57
409.717	170.03
409.93	149.49
410.143	147.75
410.357	90.21
410.57	90.4
410.783	166.35
410.996	151.82
411.209	160.73
411.421	191.92
411.634	157.24
411.847	132.05
412.06	158.99
412.273	182.43
412.486	177.2
412.699	234.93
412.912	160.34
413.125	201.42
413.338	174.49
413.55	221.95
413.763	172.94
413.976	194.64
414.189	149.88
414.402	171.39
414.615	236.29
414.827	138.84
415.04	191.15
415.253	204.52
415.466	199.67
415.678	237.65
415.891	184.37
416.104	174.87
416.316	183.4
416.529	153.56
416.742	187.66
416.954	208.97
417.167	209.94
417.38	164.02
417.592	227.57
417.805	146.78
418.017	116.75
418.23	205.87
418.442	145.23
418.655	165.19
418.868	215.17
419.08	222.15
419.293	199.09
419.505	180.88
419.718	182.62
419.93	239.58
420.142	175.65
420.355	253.53
420.567	224.08
420.78	195.41
420.992	209.75
421.205	237.84
421.417	153.17
421.629	203.16
421.842	195.6
422.054	171.39
422.266	212.07
422.479	258.18
422.691	188.05
422.903	237.26
423.115	176.42
423.328	195.41
423.54	213.62
423.752	187.47
423.964	171.19
424.177	233.97
424.389	211.3
424.601	307.98
424.813	216.53
425.025	252.37
425.238	249.27
425.45	203.55
425.662	205.87
425.874	457.94
426.086	204.71
426.298	210.14
426.51	229.9
426.722	222.53
426.934	214.4
427.146	263.42
427.358	180.3
427.57	261.28
427.782	183.01
427.994	221.76
428.206	206.65
428.418	197.93
428.63	264.97
428.842	234.35
429.054	234.35
429.266	258.57
429.478	203.55
429.69	222.53
429.902	166.93
430.114	254.12
430.325	220.98
430.537	202.97
430.749	166.74
430.961	138.84
431.173	208
431.384	222.15
431.596	146.97
431.808	213.04
432.02	232.61
432.231	265.93
432.443	285.5
432.655	240.36
432.867	201.61
433.078	261.87
433.29	316.5
433.502	318.83
433.713	308.56
433.925	291.32
434.136	268.45
434.348	197.15
434.56	184.37
434.771	335.49
434.983	214.78
435.194	242.68
435.406	251.4
435.617	314.76
435.829	315.92
436.04	301.58
436.252	309.72
436.463	323.67
436.675	348.08
436.886	327.93
437.098	292.28
437.309	362.81
437.521	298.1
437.732	301.2
437.943	285.12
438.155	307.2
438.366	249.85
438.578	356.61
438.789	273.3
439	317.66
439.211	289.18
439.423	317.47
439.634	331.61
439.845	321.15
440.057	327.16
440.268	351.18
440.479	303.91
440.69	325.8
440.902	320.96
441.113	310.88
441.324	342.27
441.535	343.43
441.746	376.76
441.957	298.87
442.168	326.77
442.38	345.76
442.591	378.89
442.802	289.77
443.013	322.7
443.224	354.09
443.435	340.91
443.646	312.82
443.857	346.15
444.068	312.82
444.279	320.96
444.49	410.28
444.701	377.15
444.912	452.9
445.123	375.01
445.334	368.43
445.545	364.36
445.756	357.77
445.967	332.78
446.178	366.68
446.388	396.91
446.599	377.15
446.81	377.53
447.021	346.53
447.232	392.45
447.443	373.46
447.653	353.31
447.864	442.24
448.075	373.66
448.286	453.68
448.496	398.26
448.707	414.54
448.918	355.06
449.129	475.37
449.339	369.78
449.55	394.78
449.761	384.51
449.971	438.95
450.182	376.18
450.393	413.38
450.603	364.36
450.814	436.43
451.024	416.67
451.235	452.51
451.446	488.36
451.656	488.74
451.867	399.81
452.077	425.78
452.288	463.75
452.498	445.93
452.709	416.86
452.919	414.34
453.13	392.06
453.34	466.08
453.55	376.56
453.761	440.69
453.971	411.05
454.182	452.13
454.392	438.56
454.602	495.91
454.813	459.68
455.023	429.65
455.233	380.83
455.444	444.38
455.654	378.5
455.864	400.98
456.075	402.72
456.285	421.71
456.495	446.12
456.705	452.9
456.916	452.13
457.126	492.23
457.336	429.84
457.546	393.23
457.756	408.53
457.967	477.51
458.177	457.94
458.387	457.94
458.597	429.07
458.807	439.14
459.017	445.54
459.227	463.17
459.437	420.35
459.647	457.36
459.857	525.56
460.068	427.33
460.278	481.77
460.488	477.89
460.698	516.06
460.908	455.23
461.117	405.63
461.327	442.44
461.537	498.62
461.747	482.93
461.957	478.86
462.167	572.83
462.377	508.89
462.587	497.27
462.797	539.12
463.007	490.49
463.216	508.51
463.426	554.04
463.636	545.71
463.846	437.59
464.056	461.04
464.265	528.46
464.475	473.63
464.685	522.07
464.895	528.27
465.104	508.12
465.314	539.51
465.524	493.2
465.733	487.77
465.943	578.25
466.153	561.98
466.362	531.95
466.572	519.74
466.782	504.82
466.991	510.44
467.201	560.24
467.41	473.24
467.62	528.07
467.829	512.77
468.039	545.51
468.249	532.34
468.458	520.52
468.668	568.95
468.877	549.39
469.086	596.47
469.296	604.8
469.505	530.4
469.715	626.69
469.924	565.47
470.134	602.47
470.343	612.16
470.552	551.52
470.762	558.3
470.971	520.52
471.18	565.85
471.39	568.37
471.599	552.87
471.808	583.49
472.018	578.84
472.227	617.2
472.436	625.34
472.645	587.75
472.855	559.66
473.064	648.78
473.273	605.19
473.482	618.94
473.691	665.44
473.901	660.6
474.11	608.09
474.319	731.32
474.528	611.39
474.737	683.65
474.946	654.01
475.155	680.17
475.364	695.28
475.573	650.91
475.783	703.03
475.992	691.79
476.201	731.51
476.41	654.78
476.619	630.57
476.828	644.52
477.037	666.99
477.245	672.8
477.454	735.77
477.663	690.43
477.872	671.25
478.081	758.05
478.29	672.42
478.499	775.88
478.708	740.23
478.917	769.29
479.125	732.87
479.334	759.21
479.543	733.45
479.752	782.27
479.961	780.14
480.169	782.85
480.378	766.58
480.587	868.1
480.796	804.94
481.004	773.36
481.213	840.2
481.422	776.85
481.63	814.82
481.839	813.46
482.048	881.47
482.256	836.91
482.465	824.31
482.674	834.58
482.882	851.63
483.091	915.76
483.299	852.21
483.508	845.63
483.716	875.08
483.925	892.51
484.134	836.52
484.342	860.16
484.551	882.44
484.759	866.74
484.967	910.53
485.176	919.25
485.384	901.04
485.593	900.84
485.801	856.86
486.01	863.26
486.218	805.33
486.426	746.04
486.635	801.06
486.843	790.6
487.051	799.13
487.26	794.48
487.468	813.85
487.676	879.34
487.885	862.48
488.093	897.36
488.301	918.47
488.509	922.35
488.717	951.61
488.926	924.48
489.134	923.12
489.342	961.49
489.55	892.9
489.758	935.91
489.967	951.99
490.175	1051
490.383	990.55
490.591	1041.89
490.799	967.88
491.007	1018.84
491.215	1019.42
491.423	1001.4
491.631	985.51
491.839	1011.47
492.047	1002.56
492.255	939.79
492.463	958.58
492.671	954.71
492.879	1038.21
493.087	1024.84
493.295	1024.26
493.503	1060.1
493.711	1049.45
493.919	1060.1
494.127	1059.72
494.334	1098.66
494.542	1030.27
494.75	1060.69
494.958	1027.36
495.166	1131.21
495.374	1097.3
495.581	1097.88
495.789	1085.1
495.997	1118.62
496.205	1073.47
496.412	1090.33
496.62	1086.65
496.828	1117.65
497.035	1101.57
497.243	1125.59
497.451	1114.55
497.658	1110.67
497.866	1103.89
498.074	1161.63
498.281	1087.62
498.489	1168.22
498.696	1076.19
498.904	1092.07
499.112	1074.64
499.319	1181.78
499.527	1102.15
499.734	1136.83
499.942	1071.73
500.149	1074.64
500.357	1113.38
500.564	1044.02
500.771	1121.13
500.979	1073.28
501.186	1085.29
501.394	1101.76
501.601	1058.36
501.808	1102.73
502.016	1084.71
502.223	1102.73
502.43	1125.4
502.638	1106.22
502.845	1102.34
503.052	1183.52
503.26	1104.67
503.467	1178.29
503.674	1134.89
503.881	1143.8
504.089	1197.47
504.296	1138.77
504.503	1095.56
504.71	1113.38
504.917	1112.8
505.125	1133.73
505.332	1130.05
505.539	1165.12
505.746	1239.9
505.953	1224.6
506.16	1202.7
506.367	1231.96
506.574	1258.7
506.781	1258.89
506.988	1177.51
507.195	1258.11
507.402	1223.05
507.609	1229.25
507.816	1200.96
508.023	1180.42
508.23	1215.88
508.437	1143.22
508.644	1211.61
508.851	1221.88
509.058	1230.21
509.265	1221.11
509.472	1246.68
509.679	1333.68
509.885	1233.12
510.092	1230.8
510.299	1257.53
510.506	1239.71
510.713	1251.72
510.92	1241.06
511.126	1278.84
511.333	1303.64
511.54	1274
511.746	1365.84
511.953	1299.19
512.16	1370.87
512.367	1294.54
512.573	1290.86
512.78	1276.33
512.987	1238.16
513.193	1296.48
513.4	1222.08
513.606	1243
513.813	1305.78
514.02	1290.08
514.226	1356.34
514.433	1312.56
514.639	1226.92
514.846	1287.95
515.052	1252.88
515.259	1312.17
515.465	1301.13
515.672	1312.94
515.878	1369.91
516.085	1318.37
516.291	1358.47
516.497	1302.29
516.704	1276.91
516.91	1213.36
517.117	1172.86
517.323	1149.81
517.529	1177.13
517.736	1199.21
517.942	1182.36
518.148	1206.19
518.354	1233.9
518.561	1223.63
518.767	1254.63
518.973	1281.75
519.179	1309.46
519.386	1248.43
519.592	1266.83
519.798	1281.17
520.004	1364.48
520.21	1322.63
520.417	1349.76
520.623	1370.49
520.829	1416.99
521.035	1394.9
521.241	1402.07
521.447	1401.1
521.653	1499.33
521.859	1355.96
522.065	1453.8
522.271	1561.72
522.477	1457.48
522.683	1490.8
522.889	1423.96
523.095	1434.42
523.301	1454.77
523.507	1402.65
523.713	1427.06
523.919	1388.51
524.125	1537.11
524.331	1474.14
524.537	1572.37
524.742	1534.98
524.948	1556.29
525.154	1555.32
525.36	1642.9
525.566	1532.85
525.772	1592.91
525.977	1532.65
526.183	1547.57
526.389	1565.59
526.595	1508.24
526.8	1522.19
527.006	1473.37
527.212	1408.07
527.417	1422.02
527.623	1389.86
527.829	1477.63
528.034	1474.53
528.24	1513.28
528.446	1495.07
528.651	1609.76
528.857	1606.08
529.062	1633.98
529.268	1617.32
529.473	1616.74
529.679	1577.22
529.884	1717.29
530.09	1627.4
530.295	1650.84
530.501	1639.8
530.706	1629.14
530.912	1643.28
531.117	1643.09
531.323	1687.07
531.528	1692.3
531.733	1690.95
531.939	1670.41
532.144	1699.86
532.35	1695.6
532.555	1706.44
532.76	1671.57
532.966	1708.96
533.171	1649.29
533.376	1635.92
533.581	1630.11
533.787	1644.45
533.992	1684.75
534.197	1687.46
534.402	1681.45
534.607	1710.71
534.813	1807.77
535.018	1710.51
535.223	1751.01
535.428	1719.62
535.633	1783.56
535.838	1784.33
536.043	1762.24
536.249	1852.14
536.454	1787.62
536.659	1786.66
536.864	1766.31
537.069	1759.73
537.274	1806.22
537.479	1736.67
537.684	1779.68
537.889	1775.23
538.094	1849.43
538.299	1778.91
538.504	1879.46
538.708	1833.35
538.913	1849.43
539.118	1821.72
539.323	1806.81
539.528	1763.6
539.733	1811.65
539.938	1826.57
540.142	1821.92
540.347	1757.01
540.552	1763.99
540.757	1770.58
540.962	1754.88
541.166	1740.74
541.371	1738.99
541.576	1796.54
541.781	1715.36
541.985	1831.61
542.19	1740.54
542.395	1854.27
542.599	1898.06
542.804	1863.96
543.008	1905.81
543.213	1824.24
543.418	1757.79
543.622	1858.92
543.827	1803.71
544.031	1896.7
544.236	1911.24
544.44	1862.41
544.645	1930.8
544.849	1841.87
545.054	1904.07
545.258	1918.79
545.463	1921.5
545.667	1820.56
545.872	1941.65
546.076	1847.49
546.281	1877.33
546.485	1860.47
546.689	1906.78
546.894	1922.28
547.098	1920.34
547.302	1866.87
547.507	1893.41
547.711	1908.72
547.915	1947.66
548.119	1870.55
548.324	1862.02
548.528	1932.74
548.732	1906.97
548.936	1952.12
549.141	1942.62
549.345	1876.36
549.549	1904.07
549.753	1922.09
549.957	2006.37
550.161	1962.97
550.366	1937.2
550.57	1912.01
550.774	1919.57
550.978	1919.18
551.182	1929.84
551.386	1904.65
551.59	1911.82
551.794	1916.27
551.998	1936.23
552.202	1885.66
552.406	1895.54
552.61	1949.99
552.814	1948.63
553.018	1961.42
553.222	1869.39
553.426	1941.27
553.63	1992.03
553.833	1917.82
554.037	1900
554.241	1974.4
554.445	1948.63
554.649	1929.84
554.853	1918.21
555.056	1954.44
555.26	1980.98
555.464	1961.03
555.668	1968.58
555.871	1967.23
556.075	2009.27
556.279	1923.64
556.483	1894.38
556.686	1926.15
556.89	1962.58
557.094	1935.84
557.297	1871.52
557.501	1905.81
557.704	1877.52
557.908	1948.44
558.112	1877.14
558.315	1989.9
558.519	1896.7
558.722	1863.38
558.926	1832.77
559.129	1770.96
559.333	1811.65
559.536	1817.85
559.74	1795.76
559.943	1792.08
560.147	1795.57
560.35	1832.77
560.553	1804.87
560.757	1753.91
560.96	1867.84
561.164	1817.27
561.367	1883.92
561.57	1820.95
561.774	1816.3
561.977	1806.42
562.18	1784.33
562.384	1921.12
562.587	1794.6
562.79	1791.5
562.993	1804.09
563.197	1852.14
563.4	1907.94
563.603	1842.84
563.806	1914.53
564.009	1823.47
564.212	1810.87
564.416	1786.27
564.619	1826.57
564.822	1743.26
565.025	1824.44
565.228	1758.76
565.431	1794.02
565.634	1684.16
565.837	1739.38
566.04	1710.13
566.243	1703.73
566.446	1669.05
566.649	1710.71
566.852	1676.22
567.055	1719.62
567.258	1726.59
567.461	1788.01
567.664	1733.18
567.867	1664.98
568.07	1736.86
568.273	1726.4
568.475	1771.74
568.678	1689.4
568.881	1677.96
569.084	1653.55
569.287	1594.46
569.489	1600.66
569.692	1682.61
569.895	1702.38
570.098	1608.22
570.3	1610.15
570.503	1523.55
570.706	1561.91
570.909	1571.98
571.111	1520.06
571.314	1545.44
571.516	1520.06
571.719	1563.65
571.922	1560.36
572.124	1540.79
572.327	1569.85
572.529	1528.78
572.732	1546.8
572.935	1572.37
573.137	1617.71
573.34	1536.92
573.542	1591.94
573.745	1594.65
573.947	1594.85
574.15	1570.24
574.352	1535.56
574.554	1623.52
574.757	1515.22
574.959	1503.4
575.162	1528.58
575.364	1505.34
575.566	1596.98
575.769	1480.92
575.971	1537.3
576.173	1401.87
576.376	1486.74
576.578	1509.99
576.78	1564.04
576.982	1431.71
577.185	1463.49
577.387	1451.09
577.589	1432.1
577.791	1488.67
577.993	1497.59
578.196	1503.79
578.398	1456.51
578.6	1480.34
578.802	1404.2
579.004	1381.92
579.206	1412.14
579.408	1491.58
579.61	1442.75
579.812	1500.69
580.014	1431.32
580.216	1429.58
580.418	1490.22
580.62	1446.44
580.822	1422.61
581.024	1493.32
581.226	1506.89
581.428	1465.62
581.63	1533.04
581.832	1469.3
582.034	1531.1
582.236	1500.1
582.438	1529.17
582.64	1544.67
582.841	1538.47
583.043	1570.05
583.245	1525.29
583.447	1504.56
583.649	1513.67
583.85	1517.74
584.052	1526.07
584.254	1447.99
584.456	1540.21
584.657	1446.24
584.859	1494.29
585.061	1490.8
585.262	1474.92
585.464	1449.34
585.666	1503.59
585.867	1449.73
586.069	1522.77
586.27	1501.27
586.472	1470.65
586.674	1418.73
586.875	1428.61
587.077	1452.83
587.278	1458.64
587.48	1441.79
587.681	1562.1
587.883	1504.17
588.084	1394.51
588.285	1423.96
588.487	1425.51
588.688	1437.52
588.89	1364.09
589.091	1313.33
589.292	1328.64
589.494	1310.04
589.695	1261.41
589.896	1227.31
590.098	1264.89
590.299	1291.63
590.5	1246.88
590.702	1263.73
590.903	1341.23
591.104	1360.8
591.305	1322.44
591.507	1381.14
591.708	1353.24
591.909	1367.58
592.11	1379.21
592.311	1410.01
592.512	1335.81
592.714	1295.31
592.915	1336.19
593.116	1349.37
593.317	1377.85
593.518	1335.23
593.719	1329.99
593.92	1382.89
594.121	1390.83
594.322	1348.4
594.523	1341.43
594.724	1327.28
594.925	1347.24
595.126	1355.96
595.327	1321.08
595.528	1359.83
595.729	1343.36
595.929	1343.56
596.13	1361.57
596.331	1373.97
596.532	1347.43
596.733	1426.29
596.934	1381.14
597.135	1375.52
597.335	1370.1
597.536	1345.88
597.737	1354.02
597.938	1340.26
598.138	1357.89
598.339	1382.31
598.54	1380.17
598.74	1324.38
598.941	1356.73
599.142	1405.17
599.342	1373.39
599.543	1311.59
599.744	1333.87
599.944	1353.05
600.145	1366.22
600.345	1359.44
600.546	1432.87
600.746	1397.81
600.947	1440.43
601.147	1338.52
601.348	1398.39
601.548	1307.33
601.749	1369.52
601.949	1302.48
602.15	1310.81
602.35	1354.02
602.551	1364.48
602.751	1315.66
602.951	1342.39
603.152	1301.13
603.352	1374.56
603.552	1361.96
603.753	1353.44
603.953	1391.41
604.153	1399.74
604.354	1340.65
604.554	1360.61
604.754	1362.16
604.954	1319.53
605.155	1395.29
605.355	1353.63
605.555	1396.84
605.755	1412.72
605.955	1355.76
606.155	1393.54
606.356	1320.89
606.556	1399.74
606.756	1330.77
606.956	1300.54
607.156	1388.7
607.356	1314.49
607.556	1380.56
607.756	1359.06
607.956	1386.37
608.156	1358.28
608.356	1317.01
608.556	1390.64
608.756	1328.83
608.956	1320.11
609.156	1322.24
609.356	1316.24
609.556	1313.14
609.755	1362.54
609.955	1318.95
610.155	1326.12
610.355	1344.91
610.555	1271.29
610.755	1308.68
610.954	1236.41
611.154	1313.72
611.354	1324.38
611.554	1274
611.753	1300.16
611.953	1273.23
612.153	1325.54
612.352	1327.86
612.552	1251.91
612.752	1224.79
612.951	1247.07
613.151	1266.44
613.351	1248.23
613.55	1267.03
613.75	1302.29
613.949	1280.39
614.149	1262.18
614.348	1263.34
614.548	1206.58
614.747	1225.18
614.947	1218.01
615.146	1184.3
615.346	1278.07
615.545	1273.23
615.745	1266.25
615.944	1259.08
616.144	1272.64
616.343	1268.77
616.542	1224.6
616.742	1238.35
616.941	1233.12
617.14	1171.9
617.34	1234.86
617.539	1204.64
617.738	1215.1
617.938	1243
618.137	1221.3
618.336	1200.96
618.535	1256.56
618.734	1235.64
618.934	1234.86
619.133	1215.1
619.332	1242.81
619.531	1182.94
619.73	1190.69
619.929	1257.73
620.128	1229.83
620.328	1291.24
620.527	1186.43
620.726	1212
620.925	1235.06
621.124	1196.89
621.323	1212.58
621.522	1179.26
621.721	1207.55
621.92	1173.64
622.119	1218.98
622.318	1170.35
622.517	1184.3
622.715	1189.91
622.914	1148.65
623.113	1162.6
623.312	1120.17
623.511	1202.12
623.71	1184.88
623.909	1146.32
624.107	1250.56
624.306	1102.73
624.505	1136.25
624.704	1136.44
624.902	1124.62
625.101	1190.88
625.3	1134.31
625.499	1120.36
625.697	1152.72
625.896	1114.93
626.095	1136.05
626.293	1109.7
626.492	1140.7
626.69	1158.72
626.889	1113.97
627.088	1157.56
627.286	1102.15
627.485	1099.82
627.683	1113.38
627.882	1126.95
628.08	1044.6
628.279	1065.14
628.477	1155.62
628.676	1057.2
628.874	1097.5
629.073	1063.2
629.271	1049.64
629.469	1090.13
629.668	1089.17
629.866	1083.94
630.065	1060.88
630.263	1115.32
630.461	1065.92
630.66	1086.26
630.858	1085.68
631.056	1124.43
631.254	1130.43
631.453	1074.05
631.651	1100.6
631.849	1091.49
632.047	1049.84
632.245	1084.32
632.444	1088.78
632.642	1094.2
632.84	1113
633.038	1051.58
633.236	1046.93
633.434	1062.04
633.632	1055.07
633.83	1063.4
634.028	1133.15
634.227	1070.18
634.425	1160.47
634.623	1106.99
634.821	1103.5
635.019	1124.82
635.216	1095.75
635.414	1112.61
635.612	1099.05
635.81	1107.96
636.008	1126.75
636.206	1091.88
636.404	1103.12
636.602	1062.24
636.8	1071.92
636.997	1131.02
637.195	1131.98
637.393	1094.78
637.591	1171.9
637.789	1091.88
637.986	1119.97
638.184	1078.7
638.382	1161.63
638.58	1154.85
638.777	1160.85
638.975	1110.87
639.173	1112.61
639.37	1106.8
639.568	1118.03
639.765	1101.57
639.963	1062.82
640.161	1157.75
640.358	1137.6
640.556	1061.27
640.753	1082.97
640.951	1067.85
641.148	1089.94
641.346	1076.57
641.543	1060.3
641.741	1104.86
641.938	1034.14
642.136	1075.6
642.333	1061.85
642.531	1136.44
642.728	1119.2
642.925	1102.15
643.123	1061.07
643.32	1089.36
643.517	1057.2
643.715	1087.23
643.912	1038.79
644.109	1094.2
644.306	1097.69
644.504	1029.88
644.701	1090.91
644.898	1090.91
645.095	1025.81
645.293	1070.76
645.49	1063.4
645.687	1060.88
645.884	1115.9
646.081	1000.43
646.278	1046.93
646.475	1018.25
646.672	1021.16
646.87	1049.06
647.067	998.88
647.264	1030.07
647.461	991.91
647.658	976.21
647.855	1002.95
648.052	1009.34
648.249	917.51
648.446	972.14
648.642	976.21
648.839	1003.72
649.036	989.97
649.233	928.36
649.43	906.66
649.627	930.87
649.824	983.96
650.021	951.22
650.217	962.46
650.414	962.84
650.611	985.51
650.808	995.97
651.004	1004.3
651.201	1011.28
651.398	1042.09
651.595	990.55
651.791	980.28
651.988	982.99
652.185	923.12
652.381	997.91
652.578	943.47
652.775	1002.37
652.971	984.16
653.168	956.64
653.364	1008.37
653.561	926.81
653.757	985.32
653.954	966.72
654.15	940.76
654.347	1017.29
654.543	969.43
654.74	944.24
654.936	918.28
655.133	959.36
655.329	956.84
655.525	920.99
655.722	957.22
655.918	893.48
656.115	917.7
656.311	860.16
656.507	808.43
656.704	785.37
656.9	805.71
657.096	847.37
657.292	844.66
657.489	886.7
657.685	898.52
657.881	876.24
658.077	868.49
658.273	906.27
658.47	987.45
658.666	903.56
658.862	942.89
659.058	882.44
659.254	967.49
659.45	916.92
659.646	930.68
659.842	935.91
660.038	972.92
660.234	910.53
660.43	920.99
660.626	1013.6
660.822	942.31
661.018	942.69
661.214	963.62
661.41	870.62
661.606	930.87
661.802	967.69
661.998	973.5
662.194	919.44
662.39	956.84
662.586	948.7
662.781	954.51
662.977	988.03
663.173	981.44
663.369	950.64
663.564	989
663.76	965.75
663.956	956.64
664.152	993.07
664.347	889.22
664.543	927.77
664.739	911.31
664.934	859.96
665.13	865.78
665.326	936.69
665.521	919.25
665.717	895.23
665.912	881.47
666.108	856.67
666.304	919.06
666.499	915.96
666.695	844.85
666.89	910.34
667.086	926.03
667.281	921.38
667.477	982.22
667.672	900.26
667.867	899.29
668.063	924.87
668.258	879.92
668.454	929.52
668.649	952.38
668.844	922.16
669.04	931.65
669.235	908.59
669.43	886.31
669.626	886.51
669.821	884.76
670.016	865
670.211	893.48
670.407	875.27
670.602	857.83
670.797	876.24
670.992	903.17
671.187	888.44
671.382	923.12
671.578	854.34
671.773	914.02
671.968	837.29
672.163	894.84
672.358	887.48
672.553	822.57
672.748	870.81
672.943	945.21
673.138	857.64
673.333	886.89
673.528	885.15
673.723	915.18
673.918	859.77
674.113	808.23
674.308	947.15
674.503	877.79
674.698	891.93
674.892	857.44
675.087	860.93
675.282	884.76
675.477	842.91
675.672	868.88
675.867	847.95
676.061	850.66
676.256	797
676.451	852.41
676.646	879.53
676.84	815.01
677.035	835.55
677.23	799.13
677.424	878.37
677.619	881.08
677.814	895.23
678.008	855.51
678.203	792.15
678.397	840.78
678.592	842.72
678.787	857.06
678.981	833.61
679.176	859.77
679.37	821.8
679.565	814.82
679.759	848.92
679.954	857.44
680.148	878.18
680.342	898.33
680.537	876.04
680.731	824.89
680.926	864.42
681.12	896.97
681.314	842.33
681.509	828.38
681.703	825.67
681.897	872.94
682.092	836.71
682.286	835.55
682.48	891.16
682.674	877.21
682.869	822.76
683.063	841.56
683.257	877.21
683.451	796.8
683.645	863.45
683.839	803.2
684.034	802.61
684.228	820.05
684.422	785.37
684.616	827.61
684.81	851.05
685.004	803.97
685.198	793.9
685.392	851.44
685.586	793.31
685.78	829.35
685.974	863.45
686.168	847.95
686.362	852.41
686.556	766.38
686.75	706.9
686.944	710.97
687.138	718.14
687.331	599.57
687.525	634.05
687.719	550.36
687.913	606.74
688.107	643.35
688.301	597.24
688.494	652.27
688.688	611.97
688.882	605.57
689.076	592.59
689.269	628.63
689.463	695.28
689.657	641.03
689.85	639.29
690.044	655.17
690.238	656.53
690.431	631.73
690.625	626.5
690.818	673
691.012	704.97
691.205	720.85
691.399	682.3
691.593	718.53
691.786	745.46
691.98	777.04
692.173	801.65
692.366	768.13
692.56	806.49
692.753	811.33
692.947	748.36
693.14	805.52
693.333	796.8
693.527	737.51
693.72	773.75
693.914	790.6
694.107	781.11
694.3	760.18
694.493	774.33
694.687	846.21
694.88	743.71
695.073	837.29
695.266	808.81
695.46	797.38
695.653	882.44
695.846	859.58
696.039	792.35
696.232	817.15
696.425	862.48
696.618	877.21
696.812	849.89
697.005	931.26
697.198	975.44
697.391	903.94
697.584	950.83
697.777	990.55
697.97	954.51
698.163	982.8
698.356	943.47
698.549	1035.89
698.742	1001.79
698.935	931.65
699.127	972.53
699.32	952.77
699.513	984.16
699.706	974.08
699.899	1013.99
700.092	980.09
700.285	1006.82
700.477	969.82
700.67	1029.49
700.863	1023.1
701.056	1083.35
701.248	1061.65
701.441	1102.73
701.634	1027.94
701.826	1146.13
702.019	1051.77
702.212	1122.88
702.404	1036.47
702.597	1039.95
702.79	1078.9
702.982	1125.01
703.175	1139.54
703.367	1155.43
703.56	1145.74
703.752	1261.6
703.945	1207.16
704.137	1228.08
704.33	1234.09
704.522	1229.44
704.715	1229.25
704.907	1249.59
705.1	1295.89
705.292	1308.29
705.484	1293.57
705.677	1341.04
705.869	1346.27
706.061	1406.72
706.254	1375.52
706.446	1395.48
706.638	1347.82
706.831	1431.32
707.023	1403.42
707.215	1472.01
707.407	1464.84
707.599	1467.75
707.792	1492.55
707.984	1491.19
708.176	1536.33
708.368	1502.24
708.56	1540.02
708.752	1548.35
708.944	1538.85
709.136	1565.59
709.329	1528.97
709.521	1650.06
709.713	1619.26
709.905	1629.33
710.097	1663.63
710.289	1607.05
710.481	1637.66
710.672	1655.88
710.864	1696.95
711.056	1705.09
711.248	1717.29
711.44	1704.51
711.632	1750.23
711.824	1786.85
712.016	1823.66
712.207	1756.24
712.399	1812.81
712.591	1858.15
712.783	1820.17
712.975	1845.75
713.166	1797.12
713.358	1857.76
713.55	1916.27
713.741	1884.5
713.933	1889.34
714.125	1886.82
714.316	1838.77
714.508	1985.05
714.7	1931.58
714.891	1977.5
715.083	2017.8
715.274	1958.12
715.466	1968
715.657	2000.55
715.849	1946.3
716.04	1971.1
716.232	1926.93
716.423	1990.87
716.615	1866.29
716.806	1860.09
716.998	1817.46
717.189	1753.14
717.381	1716.52
717.572	1676.03
717.763	1693.85
717.955	1687.46
718.146	1653.36
718.337	1603.95
718.528	1595.82
718.72	1501.27
718.911	1590.58
719.102	1576.05
719.293	1581.28
719.485	1556.87
719.676	1544.08
719.867	1527.03
720.058	1526.65
720.249	1540.02
720.44	1568.3
720.632	1634.56
720.823	1692.5
721.014	1805.64
721.205	1770.38
721.396	1877.52
721.587	1975.37
721.778	2043.76
721.969	2067.78
722.16	2125.13
722.351	2148.58
722.542	2232.08
722.733	2250.1
722.924	2176.48
723.115	2221.42
723.305	2196.04
723.496	2205.93
723.687	2092.58
723.878	2116.41
724.069	2097.62
724.26	2138.31
724.45	2031.17
724.641	2072.63
724.832	2128.81
725.023	2071.08
725.213	2062.94
725.404	2044.34
725.595	2075.34
725.785	2072.43
725.976	2154.39
726.167	2087.55
726.357	2143.93
726.548	2284.59
726.739	2160.78
726.929	2214.84
727.12	2238.28
727.31	2271.41
727.501	2210.96
727.691	2264.63
727.882	2250.87
728.072	2295.44
728.263	2274.51
728.453	2356.08
728.644	2360.34
728.834	2329.15
729.024	2322.95
729.215	2318.88
729.405	2348.72
729.596	2430.48
729.786	2417.69
729.976	2460.12
730.167	2505.26
730.357	2380.3
730.547	2457.41
730.737	2495.19
730.928	2525.41
731.118	2559.51
731.308	2544.6
731.498	2569.01
731.688	2646.31
731.879	2633.14
732.069	2723.04
732.259	2735.82
732.449	2765.47
732.639	2830.57
732.829	2866.6
733.019	2916.78
733.209	2968.51
733.399	2981.5
733.589	3034.39
733.779	3096.77
733.969	3052.41
734.159	3166.14
734.349	3212.83
734.539	3204.5
734.729	3257.39
734.919	3291.1
735.109	3337.41
735.299	3274.25
735.488	3310.67
735.678	3300.6
735.868	3271.34
736.058	3310.67
736.248	3303.31
736.437	3269.79
736.627	3262.62
736.817	3375.38
737.007	3301.76
737.196	3383.52
737.386	3386.43
737.576	3413.36
737.765	3418.4
737.955	3396.89
738.144	3498.41
738.334	3423.24
738.524	3416.46
738.713	3491.24
738.903	3475.74
739.092	3511.59
739.282	3517.01
739.471	3505.97
739.661	3519.92
739.85	3615.05
740.04	3519.53
740.229	3634.81
740.419	3651.09
740.608	3630.55
740.797	3594.12
740.987	3728.58
741.176	3667.94
741.365	3629.39
741.555	3614.86
741.744	3747.57
741.933	3669.69
742.123	3761.52
742.312	3734.98
742.501	3739.63
742.69	3796.98
742.88	3745.05
743.069	3861.3
743.258	3765.2
743.447	3819.84
743.636	3808.02
743.825	3796.2
744.014	3835.15
744.204	3877.38
744.393	3796.98
744.582	3901.02
744.771	3869.44
744.96	3854.52
745.149	3904.12
745.338	3829.91
745.527	3913.42
745.716	3893.46
745.905	3827.2
746.094	3888.62
746.283	3937.64
746.471	3914
746.66	3937.64
746.849	3935.31
747.038	3953.33
747.227	3906.06
747.416	3982.39
747.604	3915.36
747.793	3957.01
747.982	3925.43
748.171	3974.45
748.359	3919.23
748.548	3972.32
748.737	3932.02
748.926	3959.34
749.114	3826.04
749.303	3878.93
749.491	3902.18
749.68	3870.02
749.869	3926.4
750.057	3932.02
750.246	3897.92
750.434	3878.55
750.623	3869.63
750.811	3867.11
751	3909.93
751.188	3865.95
751.377	3870.21
751.565	3881.84
751.754	3813.06
751.942	3839.6
752.131	3924.66
752.319	3840.38
752.507	3797.75
752.696	3839.02
752.884	3839.6
753.072	3829.53
753.261	3904.7
753.449	3824.3
753.637	3805.89
753.825	3895.4
754.014	3870.99
754.202	3844.06
754.39	3941.32
754.578	3910.51
754.766	3804.53
754.955	3757.07
755.143	3893.66
755.331	3796.59
755.519	3814.61
755.707	3819.84
755.895	3821.78
756.083	3811.12
756.271	3742.73
756.459	3773.73
756.647	3835.53
756.835	3735.56
757.023	3724.32
757.211	3736.72
757.399	3737.3
757.587	3729.17
757.775	3704.56
757.963	3716.18
758.151	3747.77
758.339	3661.74
758.526	3672.59
758.714	3683.64
758.902	3539.49
759.09	3461.79
759.278	3212.25
759.465	2953.01
759.653	2571.33
759.841	2335.74
760.028	2010.05
760.216	1758.95
760.404	1622.94
760.591	1357.51
760.779	1161.43
760.967	1033.75
761.154	809.01
761.342	867.33
761.529	862.09
761.717	901.62
761.905	889.03
762.092	962.46
762.28	868.1
762.467	889.99
762.655	833.42
762.842	815.6
763.029	824.51
763.217	849.11
763.404	845.43
763.592	898.91
763.779	861.51
763.966	898.33
764.154	901.62
764.341	989.58
764.528	998.1
764.716	1076.96
764.903	1157.56
765.09	1218.2
765.277	1291.05
765.465	1429.97
765.652	1513.67
765.839	1581.09
766.026	1765.93
766.213	1755.85
766.4	1920.34
766.588	2106.73
766.775	2102.27
766.962	2240.8
767.149	2327.4
767.336	2496.16
767.523	2472.72
767.71	2590.51
767.897	2735.44
768.084	2806.15
768.271	2852.46
768.458	2908.84
768.645	2987.11
768.832	2958.05
769.019	3013.46
769.206	3094.26
769.392	3132.42
769.579	3233.75
769.766	3164.2
769.953	3178.54
770.14	3232.59
770.327	3269.02
770.513	3277.73
770.7	3314.93
770.887	3240.73
771.073	3293.43
771.26	3299.05
771.447	3271.15
771.634	3256.81
771.82	3377.51
772.007	3253.32
772.193	3335.47
772.38	3357.36
772.567	3296.72
772.753	3297.3
772.94	3350.58
773.126	3339.15
773.313	3349.03
773.499	3336.05
773.686	3318.42
773.872	3263.01
774.059	3328.69
774.245	3297.69
774.432	3338.57
774.618	3223.29
774.804	3329.66
774.991	3234.53
775.177	3309.9
775.363	3277.93
775.55	3357.56
775.736	3203.72
775.922	3245.19
776.109	3287.23
776.295	3250.8
776.481	3269.79
776.667	3292.65
776.853	3214.19
777.04	3188.61
777.226	3221.55
777.412	3337.02
777.598	3189.39
777.784	3165.75
777.97	3213.99
778.156	3224.84
778.342	3179.31
778.528	3152.38
778.715	3103.94
778.901	3161.87
779.087	3151.8
779.272	3133.97
779.458	3159.55
779.644	3166.14
779.83	3096.97
780.016	3176.6
780.202	3099.87
780.388	3112.66
780.574	3052.21
780.76	3094.26
780.946	3111.11
781.131	3087.86
781.317	3079.34
781.503	3055.89
781.689	3064.03
781.874	3169.04
782.06	3054.15
782.246	3066.16
782.432	3043.88
782.617	3088.44
782.803	3130.29
782.989	2994.67
783.174	2978.2
783.36	2968.51
783.545	3018.31
783.731	2984.21
783.916	2932.48
784.102	2981.88
784.288	2950.5
784.473	2972.78
784.659	2950.88
784.844	3012.3
785.029	2951.66
785.215	2943.52
785.4	2877.84
785.586	2946.81
785.771	2882.49
785.956	2922.01
786.142	2885.2
786.327	2922.01
786.512	2926.47
786.698	2878.62
786.883	2810.42
787.068	2854.4
787.254	2849.94
787.439	2861.18
787.624	2788.91
787.809	2804.6
787.994	2760.24
788.18	2853.62
788.365	2697.85
788.55	2766.82
788.735	2790.46
788.92	2794.14
789.105	2737.57
789.29	2756.36
789.475	2642.05
789.66	2731.37
789.845	2659.29
790.03	2691.26
790.215	2723.42
790.4	2712.57
790.585	2688.36
790.77	2669.17
790.955	2632.36
791.14	2657.55
791.325	2745.12
791.51	2568.04
791.695	2636.24
791.879	2645.93
792.064	2594.19
792.249	2736.6
792.434	2641.08
792.618	2622.29
792.803	2678.47
792.988	2640.31
793.173	2672.47
793.357	2676.54
793.542	2625.58
793.727	2688.16
793.911	2673.63
794.096	2671.5
794.281	2705.79
794.465	2775.93
794.65	2629.07
794.834	2768.76
795.019	2734.66
795.203	2748.8
795.388	2766.82
795.572	2737.76
795.757	2726.91
795.941	2719.16
796.126	2696.88
796.31	2616.09
796.494	2668.98
796.679	2658.52
796.863	2636.24
797.048	2724.2
797.232	2680.22
797.416	2696.69
797.601	2701.34
797.785	2744.16
797.969	2737.96
798.153	2709.67
798.338	2751.13
798.522	2745.9
798.706	2760.43
798.89	2752.29
799.074	2865.44
799.258	2827.27
799.443	2735.05
799.627	2747.84
799.811	2791.43
799.995	2742.02
800.179	2680.61
800.363	2671.11
800.547	2722.46
800.731	2765.66
800.915	2645.93
801.099	2672.86
801.283	2702.5
801.467	2717.61
801.651	2692.42
801.835	2728.85
802.019	2706.18
802.202	2710.44
802.386	2676.15
802.57	2658.52
802.754	2699.01
802.938	2648.64
803.121	2642.63
803.305	2707.34
803.489	2702.31
803.673	2653.09
803.856	2710.83
804.04	2704.05
804.224	2717.81
804.407	2623.64
804.591	2648.83
804.775	2673.63
804.958	2676.54
805.142	2772.25
805.326	2719.55
805.509	2668.01
805.693	2706.96
805.876	2736.99
806.06	2704.24
806.243	2700.76
806.427	2762.95
806.61	2809.84
806.794	2701.14
806.977	2761.01
807.16	2743.57
807.344	2734.86
807.527	2715.87
807.71	2726.52
807.894	2713.35
808.077	2755.78
808.26	2667.62
808.444	2671.5
808.627	2773.6
808.81	2674.6
808.993	2605.43
809.177	2589.54
809.36	2632.94
809.543	2631.59
809.726	2548.86
809.909	2545.95
810.092	2529.1
810.276	2522.31
810.459	2563.39
810.642	2546.92
810.825	2481.24
811.008	2493.25
811.191	2395.99
811.374	2455.28
811.557	2428.35
811.74	2451.4
811.923	2350.46
812.106	2343.29
812.289	2364.22
812.472	2381.27
812.654	2320.82
812.837	2287.11
813.02	2232.27
813.203	2204.57
813.386	2107.5
813.569	2108.66
813.751	2050.35
813.934	2100.53
814.117	2062.94
814.3	1985.44
814.482	1963.55
814.665	1918.21
814.848	1865.51
815.03	1832.57
815.213	1853.69
815.396	1845.36
815.578	1794.79
815.761	1739.58
815.943	1791.31
816.126	1723.88
816.309	1680.68
816.491	1611.12
816.674	1578.77
816.856	1623.33
817.039	1628.17
817.221	1684.55
817.403	1671.57
817.586	1678.74
817.768	1678.35
817.951	1593.49
818.133	1556.29
818.315	1636.31
818.498	1650.65
818.68	1689.01
818.862	1692.11
819.045	1691.91
819.227	1710.32
819.409	1682.23
819.591	1695.21
819.774	1698.69
819.956	1637.86
820.138	1723.3
820.32	1730.28
820.502	1788.4
820.684	1860.67
820.866	1840.71
821.048	1908.52
821.231	1898.84
821.413	1921.12
821.595	1881.2
821.777	1883.34
821.959	1899.03
822.141	1929.06
822.323	1783.56
822.505	1715.74
822.686	1704.51
822.868	1599.69
823.05	1515.02
823.232	1465.62
823.414	1399.94
823.596	1499.14
823.778	1458.25
823.96	1451.09
824.141	1510.37
824.323	1575.08
824.505	1608.02
824.687	1641.73
824.868	1730.28
825.05	1805.06
825.232	1829.28
825.413	1890.12
825.595	1853.69
825.777	1816.3
825.958	1853.11
826.14	1798.67
826.321	1871.52
826.503	1861.25
826.685	1881.59
826.866	1901.35
827.048	1841.1
827.229	1804.48
827.411	1765.34
827.592	1725.63
827.773	1714.39
827.955	1667.5
828.136	1660.14
828.318	1632.82
828.499	1650.06
828.68	1615.58
828.862	1666.92
829.043	1655.3
829.224	1624.1
829.406	1617.71
829.587	1637.86
829.768	1623.91
829.949	1666.92
830.131	1648.13
830.312	1725.04
830.493	1666.34
830.674	1662.85
830.855	1680.68
831.036	1657.81
831.218	1742.29
831.399	1746.55
831.58	1674.09
831.761	1648.32
831.942	1666.15
832.123	1687.26
832.304	1580.51
832.485	1653.55
832.666	1651.61
832.847	1664.4
833.028	1682.03
833.209	1673.31
833.389	1638.05
833.57	1612.86
833.751	1628.56
833.932	1646.58
834.113	1662.66
834.294	1656.26
834.475	1702.18
834.655	1726.01
834.836	1740.93
835.017	1698.5
835.198	1648.13
835.378	1715.55
835.559	1719.04
835.74	1685.52
835.92	1702.57
836.101	1675.25
836.281	1723.3
836.462	1688.62
836.643	1754.3
836.823	1744.81
837.004	1768.06
837.184	1767.48
837.365	1752.75
837.545	1757.59
837.726	1724.66
837.906	1799.25
838.087	1729.31
838.267	1738.22
838.448	1726.98
838.628	1749.84
838.808	1760.69
838.989	1795.57
839.169	1713.61
839.349	1774.26
839.53	1744.61
839.71	1810.29
839.89	1745.19
840.07	1832.57
840.251	1744.81
840.431	1777.55
840.611	1740.35
840.791	1692.11
840.971	1773.29
841.151	1744.23
841.332	1752.56
841.512	1762.05
841.692	1665.37
841.872	1757.01
842.052	1726.01
842.232	1768.25
842.412	1681.26
842.592	1727.95
842.772	1731.44
842.952	1745.78
843.132	1729.31
843.312	1660.91
843.492	1694.43
843.672	1742.09
843.851	1655.49
844.031	1694.63
844.211	1683.78
844.391	1707.99
844.571	1681.06
844.751	1724.46
844.93	1721.75
845.11	1656.65
845.29	1699.28
845.47	1697.73
845.649	1712.26
845.829	1688.62
846.009	1673.31
846.188	1717.29
846.368	1680.87
846.547	1723.69
846.727	1710.51
846.907	1648.71
847.086	1703.34
847.266	1736.09
847.445	1660.72
847.625	1657.04
847.804	1639.21
847.984	1675.06
848.163	1632.82
848.343	1592.13
848.522	1676.8
848.701	1677.19
848.881	1651.03
849.06	1643.86
849.239	1677.96
849.419	1641.93
849.598	1584.77
849.777	1551.45
849.957	1540.79
850.136	1503.59
850.315	1477.63
850.494	1504.75
850.674	1494.1
850.853	1544.28
851.032	1554.16
851.211	1569.85
851.39	1514.83
851.569	1463.49
851.748	1495.07
851.927	1564.43
852.107	1528.2
852.286	1510.37
852.465	1485.57
852.644	1534.78
852.823	1557.84
853.002	1516.77
853.181	1532.65
853.359	1523.55
853.538	1484.41
853.717	1541.37
853.896	1425.32
854.075	1364.29
854.254	1373.97
854.433	1278.07
854.611	1339.1
854.79	1269.16
854.969	1343.36
855.148	1342.98
855.327	1292.02
855.505	1359.06
855.684	1342.01
855.863	1387.34
856.041	1337.36
856.22	1422.41
856.399	1416.6
856.577	1489.64
856.756	1460.77
856.934	1560.36
857.113	1530.91
857.291	1488.29
857.47	1458.84
857.648	1479.37
857.827	1461.16
858.005	1503.2
858.184	1436.55
858.362	1507.08
858.541	1471.43
858.719	1448.76
858.898	1439.07
859.076	1439.27
859.254	1491.97
859.433	1420.47
859.611	1417.76
859.789	1386.18
859.967	1474.14
860.146	1502.24
860.324	1379.79
860.502	1440.04
860.68	1370.68
860.859	1402.07
861.037	1394.51
861.215	1419.51
861.393	1413.31
861.571	1386.57
861.749	1409.04
861.927	1413.5
862.105	1396.45
862.283	1354.21
862.461	1387.34
862.639	1373.2
862.817	1386.37
862.995	1406.33
863.173	1380.17
863.351	1367.19
863.529	1392.96
863.707	1407.49
863.885	1385.99
864.063	1313.33
864.241	1338.33
864.418	1407.88
864.596	1323.21
864.774	1325.15
864.952	1344.53
865.129	1361.77
865.307	1317.21
865.485	1278.26
865.663	1360.22
865.84	1287.18
866.018	1289.11
866.196	1153.49
866.373	1163.18
866.551	1175.38
866.728	1086.65
866.906	1150.58
867.084	1156.78
867.261	1217.04
867.439	1226.34
867.616	1227.5
867.794	1229.05
867.971	1234.09
868.149	1226.73
868.326	1282.91
868.503	1287.56
868.681	1264.12
868.858	1221.3
869.035	1199.6
869.213	1285.63
869.39	1215.68
869.567	1329.61
869.745	1244.94
869.922	1239.71
870.099	1267.03
870.276	1259.47
870.454	1273.23
870.631	1241.06
870.808	1243
870.985	1264.89
871.162	1308.49
871.339	1259.66
871.517	1174.03
871.694	1187.01
871.871	1238.16
872.048	1203.67
872.225	1227.31
872.402	1244.75
872.579	1166.28
872.756	1228.47
872.933	1181.97
873.11	1191.08
873.287	1189.91
873.463	1187.2
873.64	1186.23
873.817	1207.16
873.994	1166.67
874.171	1169.38
874.348	1160.85
874.524	1135.08
874.701	1195.34
874.878	1084.13
875.055	1165.31
875.231	1157.17
875.408	1188.36
875.585	1091.1
875.762	1165.12
875.938	1112.8
876.115	1116.87
876.291	1112.61
876.468	1095.37
876.645	1092.46
876.821	1116.87
876.998	1122.3
877.174	1136.44
877.351	1112.03
877.527	1090.72
877.704	1126.37
877.88	1071.92
878.057	1088
878.233	1167.05
878.409	1074.05
878.586	1086.65
878.762	1093.62
878.938	1080.84
879.115	1021.74
879.291	1108.35
879.467	1072.12
879.644	1055.45
879.82	1095.56
879.996	1046.54
880.172	1017.87
880.349	1056.81
880.525	1109.51
880.701	1044.8
880.877	1006.63
881.053	1058.55
881.229	1062.43
881.405	1083.35
881.581	1006.05
881.757	1059.72
881.933	1077.35
882.109	1084.71
882.285	1045.77
882.461	1015.15
882.637	1036.47
882.813	1017.09
882.989	1044.22
883.165	1112.22
883.341	1022.13
883.517	1062.62
883.693	1051.77
883.869	1057.2
884.044	1018.06
884.22	1050.61
884.396	1094.2
884.572	1085.68
884.747	1096.53
884.923	1057
885.099	1060.49
885.275	1077.74
885.45	1027.17
885.626	1014.19
885.801	999.65
885.977	1031.62
886.153	973.5
886.328	1011.28
886.504	1013.6
886.679	1053.32
886.855	1023.49
887.03	1043.05
887.206	1039.37
887.381	1043.05
887.557	1034.72
887.732	1053.9
887.908	1044.41
888.083	1044.02
888.258	1014.38
888.434	1015.93
888.609	1039.95
888.784	1081.22
888.96	1022.32
889.135	982.99
889.31	995.59
889.485	1043.44
889.661	1010.12
889.836	1037.24
890.011	1031.24
890.186	980.09
890.361	1014.38
890.537	1036.66
890.712	1052.35
890.887	1060.3
891.062	1024.26
891.237	1093.43
891.412	1005.47
891.587	1023.29
891.762	1065.92
891.937	1074.64
892.112	943.66
892.287	984.54
892.462	951.61
892.637	942.69
892.812	934.94
892.987	944.44
893.161	940.56
893.336	933.39
893.511	970.4
893.686	976.02
893.861	898.52
894.035	917.89
894.21	959.55
894.385	889.41
894.56	894.64
894.734	855.89
894.909	881.66
895.084	853.38
895.258	805.91
895.433	826.44
895.608	821.6
895.782	762.51
895.957	790.8
896.131	804.94
896.306	720.66
896.48	722.98
896.655	711.55
896.829	664.47
897.004	642.77
897.178	673.19
897.353	658.08
897.527	735.77
897.701	675.9
897.876	653.23
898.05	711.75
898.224	706.71
898.399	705.74
898.573	641.61
898.747	549.19
898.921	631.15
899.096	541.44
899.27	559.07
899.444	573.22
899.618	586
899.792	603.05
899.967	591.43
900.141	650.33
900.315	544.54
900.489	563.14
900.663	565.85
900.837	592.2
901.011	561.59
901.185	640.84
901.359	597.63
901.533	577.48
901.707	626.5
901.881	595.3
902.055	524.2
902.229	591.62
902.403	644.9
902.576	589.69
902.75	628.82
902.924	712.91
903.098	653.23
903.272	688.11
903.446	727.44
903.619	705.93
903.793	741.39
903.967	732.48
904.14	755.73
904.314	775.49
904.488	728.22
904.661	775.49
904.835	783.63
905.009	797.77
905.182	821.6
905.356	773.16
905.529	768.13
905.703	715.82
905.876	695.08
906.05	699.93
906.223	688.3
906.397	608.87
906.57	599.57
906.744	595.89
906.917	575.93
907.09	596.47
907.264	582.71
907.437	567.79
907.61	529.62
907.784	539.51
907.957	551.71
908.13	524.01
908.304	561.98
908.477	529.43
908.65	548.42
908.823	487.39
908.996	561.98
909.17	506.18
909.343	515.29
909.516	515.87
909.689	513.35
909.862	466.66
910.035	512.77
910.208	486.22
910.381	493.01
910.554	555.59
910.727	505.41
910.9	497.27
911.073	506.18
911.246	561.2
911.419	575.74
911.592	555.97
911.765	514.9
911.938	497.46
912.11	494.56
912.283	499.01
912.456	537.57
912.629	537.76
912.802	480.61
912.974	443.79
913.147	432.94
913.32	373.27
913.493	414.93
913.665	442.05
913.838	444.18
914.01	437.21
914.183	485.64
914.356	457.94
914.528	464.53
914.701	526.33
914.873	505.6
915.046	412.79
915.218	407.18
915.391	340.53
915.563	388.58
915.736	440.69
915.908	425.39
916.081	427.52
916.253	443.6
916.425	430.81
916.598	469.95
916.77	443.41
916.942	397.1
917.115	359.32
917.287	419.19
917.459	377.73
917.632	355.45
917.804	318.83
917.976	412.21
918.148	406.01
918.32	410.66
918.493	459.29
918.665	465.11
918.837	485.06
919.009	516.06
919.181	502.31
919.353	452.9
919.525	478.47
919.697	490.68
919.869	464.14
920.041	529.24
920.213	564.69
920.385	520.32
920.557	511.41
920.729	526.72
920.901	505.6
921.073	488.55
921.244	471.69
921.416	499.21
921.588	474.79
921.76	433.72
921.932	545.12
922.103	500.37
922.275	485.06
922.447	460.65
922.619	446.89
922.79	475.76
922.962	447.67
923.134	455.42
923.305	451.16
923.477	381.02
923.648	386.06
923.82	402.72
923.991	379.86
924.163	352.73
924.335	406.98
924.506	378.7
924.677	440.69
924.849	380.63
925.02	412.41
925.192	408.73
925.363	417.25
925.535	440.69
925.706	411.83
925.877	438.37
926.049	394.78
926.22	411.24
926.391	429.07
926.562	462.78
926.734	397.49
926.905	427.13
927.076	329.29
927.247	358.16
927.419	343.43
927.59	330.26
927.761	314.76
927.932	293.45
928.103	317.08
928.274	255.47
928.445	293.06
928.616	282.98
928.787	283.76
928.958	302.55
929.129	287.83
929.3	278.33
929.471	231.45
929.642	175.84
929.813	171.97
929.984	222.34
930.155	171.39
930.326	210.33
930.496	191.34
930.667	142.32
930.838	166.93
931.009	107.26
931.18	139.22
931.35	135.54
931.521	159.76
931.692	133.8
931.863	78
932.033	136.9
932.204	114.04
932.374	96.6
932.545	68.7
932.716	122.37
932.886	128.18
933.057	42.74
933.227	51.84
933.398	132.25
933.568	68.12
933.739	33.63
933.909	47.58
934.08	82.65
934.25	7.86
934.421	14.45
934.591	34.6
934.761	44.29
934.932	-8.02
935.102	47.77
935.272	24.33
935.443	35.38
935.613	32.08
935.783	42.35
935.953	0.5
936.123	167.12
936.294	5.15
936.464	38.28
936.634	48.36
936.804	13.68
936.974	-16.16
937.144	56.49
937.314	53.39
937.484	47.77
937.655	29.37
937.825	95.63
937.995	24.33
938.165	75.48
938.334	36.15
938.504	72.96
938.674	42.74
938.844	45.84
939.014	99.51
939.184	96.6
939.354	148.33
939.524	115.01
939.694	87.3
939.863	84.78
940.033	121.4
940.203	121.59
940.373	116.94
940.542	115.97
940.712	76.64
940.882	119.85
941.051	130.89
941.221	107.45
941.391	163.64
941.56	48.94
941.73	65.41
941.899	164.8
942.069	80.52
942.238	89.04
942.408	91.76
942.577	132.64
942.747	84.01
942.916	24.91
943.086	50.68
943.255	116.36
943.425	96.99
943.594	67.54
943.763	2.63
943.933	22.78
944.102	22.98
944.271	39.25
944.441	83.42
944.61	71.22
944.779	64.63
944.948	139.03
945.117	33.83
945.287	56.11
945.456	10.38
945.625	18.33
945.794	55.72
945.963	38.47
946.132	57.27
946.301	51.84
946.47	91.17
946.639	19.68
946.808	44.87
946.977	74.71
947.146	90.4
947.315	52.62
947.484	85.94
947.653	58.82
947.822	52.81
947.991	32.47
948.16	154.14
948.329	119.27
948.498	58.43
948.666	51.84
948.835	68.51
949.004	63.66
949.173	10.96
949.341	60.95
949.51	65.6
949.679	96.41
949.847	114.62
950.016	126.05
950.185	117.14
950.353	54.75
950.522	77.61
950.69	114.23
950.859	63.47
951.028	112.87
951.196	94.66
951.365	44.87
951.533	64.24
951.701	100.47
951.87	87.69
952.038	16.58
952.207	70.64
952.375	135.35
952.543	60.95
952.712	50.68
952.88	43.71
953.048	111.91
953.217	81.49
953.385	72.77
953.553	115.78
953.721	54.75
953.89	88.66
954.058	23.17
954.226	31.5
954.394	68.12
954.562	12.71
954.73	66.76
954.898	53.01
955.067	80.32
955.235	75.09
955.403	116.36
955.571	111.91
955.739	92.34
955.907	25.69
956.075	69.09
956.243	30.92
956.41	100.28
956.578	45.64
956.746	25.49
956.914	40.99
957.082	84.97
957.25	68.7
957.418	47
957.585	87.69
957.753	102.02
957.921	45.84
958.089	51.26
958.256	80.32
958.424	105.12
958.592	80.71
958.759	61.14
958.927	82.84
959.095	33.63
959.262	54.94
959.43	82.84
959.597	31.89
959.765	51.46
959.932	30.92
960.1	85.56
960.267	95.63
960.435	58.62
960.602	98.15
960.77	44.09
960.937	35.18
961.104	91.76
961.272	33.44
961.439	57.07
961.606	80.71
961.774	94.66
961.941	73.74
962.108	90.01
962.275	62.5
962.443	98.73
962.61	78.19
962.777	134.77
962.944	96.99
963.111	93.89
963.278	114.62
963.446	117.91
963.613	71.02
963.78	114.62
963.947	111.71
964.114	75.09
964.281	163.83
964.448	118.3
964.615	74.71
964.782	100.28
964.949	104.54
965.116	117.72
965.282	107.64
965.449	114.04
965.616	56.3
965.783	117.52
965.95	92.72
966.117	58.82
966.283	73.93
966.45	98.34
966.617	106.48
966.784	134.38
966.95	117.14
967.117	112.49
967.284	66.37
967.45	76.45
967.617	143.49
967.784	149.49
967.95	134.57
968.117	90.01
968.283	135.74
968.45	209.75
968.616	123.53
968.783	130.31
968.949	107.84
969.116	146
969.282	116.17
969.449	121.98
969.615	110.94
969.781	65.02
969.948	100.28
970.114	88.66
970.28	154.72
970.447	120.62
970.613	152.59
970.779	111.91
970.945	121.98
971.112	128.76
971.278	120.62
971.444	120.82
971.61	167.12
971.776	105.51
971.942	106.48
972.108	133.41
972.275	92.14
972.441	140.39
972.607	160.92
972.773	78.77
972.939	136.32
973.105	110.36
973.271	74.32
973.437	76.06
973.602	85.36
973.768	156.47
973.934	99.12
974.1	119.66
974.266	37.31
974.432	95.63
974.598	76.64
974.763	119.27
974.929	80.52
975.095	144.65
975.261	104.35
975.426	77.22
975.592	79.55
975.758	131.86
975.923	71.99
976.089	77.81
976.255	100.86
976.42	115.78
976.586	117.33
976.751	102.22
976.917	168.87
977.082	123.14
977.248	49.13
977.413	67.54
977.579	96.79
977.744	109.97
977.91	71.22
978.075	109.39
978.24	139.61
978.406	89.04
978.571	89.62
978.736	76.64
978.902	107.26
979.067	57.66
979.232	31.5
979.397	93.11
979.563	139.03
979.728	81.29
979.893	98.92
980.058	84.59
980.223	112.1
980.388	86.72
980.554	111.32
980.719	89.24
980.884	96.99
981.049	125.47
981.214	72.96
981.379	115.59
981.544	84.39
981.709	103.77
981.874	79.74
982.039	96.99
982.204	102.02
982.368	71.99
982.533	63.27
982.698	110.74
982.863	135.15
983.028	90.21
983.193	98.92
983.357	107.64
983.522	108.22
983.687	87.11
983.852	77.81
984.016	77.42
984.181	100.86
984.346	117.52
984.51	123.53
984.675	97.96
984.839	124.11
985.004	119.07
985.168	141.16
985.333	94.47
985.498	78.97
985.662	102.99
985.827	98.34
985.991	97.76
986.155	98.15
986.32	141.74
986.484	138.06
986.649	99.12
986.813	70.06
986.977	98.54
987.142	108.42
987.306	51.84
987.47	85.36
987.634	77.03
987.799	102.99
987.963	93.31
988.127	105.51
988.291	146.78
988.455	106.29
988.62	94.86
988.784	87.11
988.948	105.32
989.112	77.81
989.276	94.47
989.44	74.51
989.604	53.78
989.768	75.87
989.932	154.34
990.096	76.45
990.26	56.11
990.424	75.29
990.588	104.35
990.752	160.15
990.915	113.26
991.079	72.96
991.243	64.05
991.407	121.79
991.571	78.58
991.734	96.79
991.898	107.06
992.062	170.8
992.226	87.88
992.389	77.61
992.553	34.79
992.717	79.16
992.88	86.14
993.044	96.02
993.207	89.24
993.371	115.2
993.535	126.44
993.698	70.83
993.862	110.16
994.025	119.85
994.189	71.41
994.352	87.49
994.515	78.39
994.679	121.79
994.842	60.17
995.006	112.49
995.169	58.43
995.332	75.09
995.496	107.06
995.659	45.45
995.822	51.26
995.985	86.52
996.149	121.01
996.312	73.54
996.475	133.02
996.638	54.75
996.801	104.35
996.964	133.02
997.128	81.29
997.291	73.54
997.454	73.74
997.617	39.25
997.78	124.69
997.943	53.39
998.106	114.42
998.269	45.84
998.432	38.67
998.595	71.8
998.758	20.84
998.92	35.57
999.083	26.85
999.246	59.59
999.409	52.62
999.572	-2.21
999.735	50.1
999.897	69.28
1000.06	50.49
1000.223	48.55
1000.386	96.41
1000.548	83.04
1000.711	66.57
1000.874	87.49
1001.036	32.66
1001.199	95.63
1001.361	49.71
1001.524	68.89
1001.687	64.05
1001.849	34.02
1002.012	88.07
1002.174	55.52
1002.337	85.94
1002.499	80.32
1002.661	91.95
1002.824	17.94
1002.986	67.54
1003.149	73.35
1003.311	13.48
1003.473	86.14
1003.636	48.16
1003.798	64.82
1003.96	61.34
1004.123	60.95
1004.285	47.58
1004.447	51.26
1004.609	42.35
1004.771	86.52
1004.933	23.17
1005.096	19.68
1005.258	15.03
1005.42	44.09
1005.582	114.62
1005.744	58.24
1005.906	28.79
1006.068	59.79
1006.23	9.8
1006.392	5.34
1006.554	3.21
1006.716	98.15
1006.878	87.11
1007.04	-1.05
1007.202	23.75
1007.363	42.16
1007.525	47.77
1007.687	72.96
1007.849	63.08
1008.011	21.43
1008.172	20.65
1008.334	42.54
1008.496	74.71
1008.658	-10.93
1008.819	39.06
1008.981	14.45
1009.143	37.7
1009.304	27.43
1009.466	79.74
1009.627	81.68
1009.789	158.21
1009.95	66.18
1010.112	31.5
1010.273	45.45
1010.435	48.94
1010.596	49.71
1010.758	42.35
1010.919	33.44
1011.081	1.66
1011.242	47.77
1011.403	44.29
1011.565	24.91
1011.726	62.89
1011.887	2.05
1012.049	28.98
1012.21	72.38
1012.371	93.11
1012.532	-8.61
1012.693	62.69
1012.855	14.84
1013.016	43.32
1013.177	73.16
1013.338	46.81
1013.499	105.12
1013.66	59.21
1013.821	67.54
1013.982	53.39
1014.143	51.26
1014.304	25.3
1014.465	67.92
1014.626	47.39
1014.787	43.51
1014.948	79.16
1015.109	-35.54
1015.27	58.24
1015.431	33.05
1015.592	15.03
1015.752	108.03
1015.913	34.99
1016.074	34.99
1016.235	30.73
1016.395	39.64
1016.556	16
1016.717	48.16
1016.877	100.28
1017.038	11.54
1017.199	23.36
1017.359	55.33
1017.52	36.34
1017.681	37.89
1017.841	53.59
1018.002	34.02
1018.162	-14.22
1018.323	86.14
1018.483	11.74
1018.644	19.49
1018.804	-6.09
1018.964	5.54
1019.125	8.06
1019.285	36.73
1019.446	-2.6
1019.606	2.24
1019.766	-19.07
1019.926	55.52
1020.087	40.02
1020.247	-27.4
1020.407	66.18
1020.567	35.18
1020.728	38.86
1020.888	5.93
1021.048	26.85
1021.208	-29.14
1021.368	12.32
1021.528	71.8
1021.688	35.57
1021.848	54.75
1022.008	41.38
1022.168	-4.54
1022.328	29.95
1022.488	55.91
1022.648	-0.86
1022.808	36.34
1022.968	54.75
1023.128	5.54
1023.288	11.35
1023.448	1.66
1023.608	28.59
1023.767	44.48
1023.927	3.02
1024.087	-21.39
1024.247	-16.55
1024.406	13.48
1024.566	9.61
1024.726	19.68
1024.885	20.46
1025.045	55.91
1025.205	-12.29
1025.364	17.74
1025.524	25.49
1025.683	18.52
1025.843	37.7
1026.003	36.73
1026.162	77.03
1026.321	57.66
1026.481	23.75
1026.64	-6.67
1026.8	39.06
1026.959	27.24
1027.119	44.48
1027.278	-1.63
1027.437	-11.32
1027.597	37.31
1027.756	34.02
1027.915	10.19
1028.074	32.66
1028.234	-3.57
1028.393	13.29
1028.552	-1.24
1028.711	-38.44
1028.87	42.35
1029.03	-26.43
1029.189	12.32
1029.348	-46.19
1029.507	5.15
1029.666	12.13
1029.825	-19.46
1029.984	-14.03
1030.143	-8.02
1030.302	-11.51
1030.461	-26.24
1030.62	2.83
1030.779	37.31
1030.938	-13.64
1031.097	-17.91
1031.255	36.15
1031.414	66.18
1031.573	56.3
1031.732	-32.44
1031.891	11.35
1032.049	58.43
1032.208	38.86
1032.367	-7.64
1032.525	3.6
1032.684	22.98
1032.843	23.56
1033.001	-38.83
1033.16	121.59
1033.319	62.5
1033.477	28.98
1033.636	3.99
1033.794	-29.53
1033.953	46.81
1034.111	5.15
1034.27	3.99
1034.428	27.04
1034.587	-7.44
1034.745	38.09
1034.903	30.34
1035.062	42.54
1035.22	-18.1
1035.378	21.62
1035.537	-5.89
1035.695	50.1
1035.853	-18.1
1036.011	27.04
1036.17	48.55
1036.328	-53.94
1036.486	29.76
1036.644	30.53
1036.802	-63.24
1036.96	9.41
1037.119	10.77
1037.277	-0.86
1037.435	-29.72
1037.593	-19.26
1037.751	-1.24
1037.909	35.76
1038.067	35.76
