Data from oakcork_FLMT105791__288__17-34-34-052.txt Node

Date: Mon Mar 20 17:34:34 GMT 2023
User: antho
Spectrometer: FLMT10579
Trigger mode: 0
Integration Time (sec): 1.000000E-1
Scans to average: 10
Electric dark correction enabled: true
Nonlinearity correction enabled: false
Boxcar width: 0
XAxis mode: Wavelengths
Number of Pixels in Spectrum: 3648
>>>>>Begin Spectral Data<<<<<
345.248	-146.86
345.464	-146.86
345.681	-146.86
345.898	-160.23
346.114	-149.19
346.331	-5.81
346.548	41.85
346.764	-5.04
346.981	-12.59
347.197	-13.56
347.414	13.95
347.631	-33.71
347.847	52.51
348.064	12.01
348.28	37.39
348.497	-58.9
348.713	-28.09
348.93	18.6
349.146	32.36
349.363	-9.69
349.579	-12.59
349.796	6.97
350.012	-9.11
350.229	14.34
350.445	18.21
350.661	-21.7
350.878	7.17
351.094	28.87
351.311	21.7
351.527	24.99
351.743	-15.89
351.96	41.27
352.176	57.93
352.392	12.4
352.609	13.17
352.825	-9.88
353.041	12.4
353.257	-9.69
353.474	18.21
353.69	14.34
353.906	12.4
354.122	-23.64
354.339	36.81
354.555	13.56
354.771	-20.92
354.987	33.32
355.203	57.54
355.42	-21.31
355.636	-5.04
355.852	3.49
356.068	-15.69
356.284	-4.07
356.5	84.86
356.716	-0.39
356.932	-6.39
357.148	23.83
357.364	-17.82
357.58	26.54
357.796	58.32
358.012	14.92
358.228	43.79
358.444	-25.38
358.66	47.86
358.876	15.69
359.092	-42.04
359.308	27.32
359.524	5.62
359.74	-14.92
359.956	21.7
360.172	3.29
360.388	52.51
360.604	-4.26
360.819	62.39
361.035	1.94
361.251	30.81
361.467	5.81
361.683	34.29
361.898	23.64
362.114	28.48
362.33	12.21
362.546	44.76
362.762	2.32
362.977	12.79
363.193	-11.04
363.409	26.54
363.624	-29.06
363.84	-7.94
364.056	-12.21
364.271	37.39
364.487	30.42
364.703	7.36
364.918	-31.58
365.134	-15.31
365.35	-14.53
365.565	101.91
365.781	19.76
365.996	8.14
366.212	83.51
366.427	-1.94
366.643	13.56
366.858	-1.16
367.074	4.07
367.289	41.85
367.505	81.37
367.72	-18.99
367.936	-8.72
368.151	41.85
368.367	10.27
368.582	10.66
368.798	-20.34
369.013	56.96
369.228	15.69
369.444	16.66
369.659	51.73
369.874	12.21
370.09	72.07
370.305	-51.15
370.52	-25.96
370.736	43.79
370.951	-1.16
371.166	56.77
371.381	69.17
371.597	39.14
371.812	-12.79
372.027	-21.89
372.242	29.26
372.458	69.36
372.673	-20.54
372.888	-0.97
373.103	12.4
373.318	84.67
373.533	31.39
373.749	32.16
373.964	-28.09
374.179	55.8
374.394	-7.75
374.609	55.61
374.824	-37.39
375.039	43.01
375.254	-8.52
375.469	55.99
375.684	10.27
375.899	28.67
376.114	10.46
376.329	12.21
376.544	40.69
376.759	24.99
376.974	0.77
377.189	-6.78
377.404	-8.52
377.619	64.91
377.834	-32.74
378.049	-13.56
378.264	-29.06
378.478	33.91
378.693	-1.36
378.908	12.98
379.123	-4.07
379.338	40.88
379.553	13.56
379.767	12.98
379.982	55.02
380.197	-4.07
380.412	17.44
380.626	31.58
380.841	93.77
381.056	28.09
381.271	80.02
381.485	11.62
381.7	-9.69
381.915	18.6
382.129	-5.42
382.344	26.35
382.559	1.74
382.773	40.11
382.988	-23.64
383.202	28.87
383.417	-16.66
383.632	100.75
383.846	18.79
384.061	31.19
384.275	4.65
384.49	34.29
384.704	26.35
384.919	36.04
385.133	32.94
385.348	43.01
385.562	-25.96
385.777	37.2
385.991	43.59
386.206	3.29
386.42	-14.72
386.634	52.31
386.849	14.53
387.063	31.19
387.277	-16.27
387.492	7.36
387.706	-58.32
387.92	-3.68
388.135	48.44
388.349	15.31
388.563	23.83
388.778	5.42
388.992	38.17
389.206	41.66
389.42	70.91
389.635	16.47
389.849	25.57
390.063	33.91
390.277	25.38
390.491	69.94
390.706	31.39
390.92	34.87
391.134	31.58
391.348	32.55
391.562	-26.16
391.776	1.55
391.99	0.58
392.205	48.82
392.419	1.74
392.633	-9.69
392.847	39.33
393.061	-2.91
393.275	71.11
393.489	35.84
393.703	24.99
393.917	59.87
394.131	5.23
394.345	44.37
394.559	41.46
394.773	20.54
394.986	19.96
395.2	22.47
395.414	38.75
395.628	-20.92
395.842	57.16
396.056	1.36
396.27	-40.69
396.484	34.1
396.697	35.65
396.911	89.12
397.125	47.66
397.339	60.06
397.553	14.34
397.766	92.03
397.98	48.05
398.194	73.82
398.408	24.61
398.621	43.98
398.835	62.97
399.049	32.36
399.262	65.1
399.476	60.84
399.69	62.58
399.903	80.79
400.117	28.09
400.331	32.16
400.544	4.65
400.758	131.36
400.971	53.67
401.185	62.39
401.398	-5.42
401.612	103.27
401.826	79.24
402.039	51.73
402.253	20.34
402.466	52.31
402.68	49.02
402.893	44.56
403.106	87.38
403.32	16.66
403.533	56.77
403.747	41.66
403.96	33.71
404.174	68.97
404.387	12.21
404.6	38.36
404.814	59.67
405.027	39.52
405.24	51.54
405.454	27.9
405.667	67.04
405.88	-25.77
406.094	55.22
406.307	73.82
406.52	39.91
406.733	23.64
406.947	-2.91
407.16	108.5
407.373	88.93
407.586	0
407.799	-5.42
408.012	56.19
408.226	65.87
408.439	91.64
408.652	-0.19
408.865	40.69
409.078	73.43
409.291	58.71
409.504	9.49
409.717	53.09
409.93	61.03
410.143	41.27
410.357	6.01
410.57	26.35
410.783	18.21
410.996	73.24
411.209	44.56
411.421	49.99
411.634	42.43
411.847	35.84
412.06	11.24
412.273	38.36
412.486	52.89
412.699	113.15
412.912	48.63
413.125	51.15
413.338	49.21
413.55	90.48
413.763	18.02
413.976	54.44
414.189	29.06
414.402	41.07
414.615	76.53
414.827	21.12
415.04	45.34
415.253	65.87
415.466	88.35
415.678	100.75
415.891	36.62
416.104	43.59
416.316	43.4
416.529	29.84
416.742	71.11
416.954	69.75
417.167	61.42
417.38	18.02
417.592	79.05
417.805	2.71
418.017	-7.94
418.23	66.46
418.442	31.39
418.655	43.4
418.868	68.97
419.08	69.75
419.293	77.69
419.505	70.91
419.718	56.77
419.93	67.81
420.142	22.86
420.355	97.45
420.567	79.44
420.78	35.26
420.992	42.82
421.205	97.65
421.417	11.82
421.629	55.99
421.842	-4.26
422.054	1.36
422.266	77.69
422.479	87.57
422.691	38.56
422.903	60.45
423.115	38.17
423.328	66.26
423.54	65.49
423.752	50.18
423.964	44.17
424.177	68.39
424.389	28.67
424.601	161.97
424.813	58.71
425.025	73.04
425.238	83.12
425.45	65.29
425.662	30.81
425.874	300.5
426.086	55.8
426.298	87.38
426.51	56.77
426.722	61.03
426.934	25.38
427.146	71.49
427.358	11.82
427.57	72.85
427.782	89.9
427.994	72.07
428.206	60.26
428.418	0.97
428.63	52.12
428.842	79.44
429.054	65.49
429.266	61.03
429.478	16.47
429.69	55.41
429.902	9.3
430.114	72.27
430.325	54.06
430.537	46.69
430.749	65.1
430.961	41.27
431.173	46.69
431.384	62.77
431.596	9.49
431.808	30.42
432.02	80.02
432.231	63.55
432.443	110.05
432.655	62.77
432.867	43.79
433.078	55.02
433.29	110.82
433.502	87.96
433.713	91.84
433.925	53.28
434.136	83.31
434.348	42.43
434.56	26.74
434.771	142.02
434.983	34.87
435.194	19.76
435.406	52.31
435.617	111.02
435.829	132.33
436.04	83.51
436.252	81.96
436.463	118.38
436.675	105.79
436.886	72.46
437.098	89.9
437.309	103.85
437.521	61.42
437.732	71.49
437.943	93.97
438.155	96.68
438.366	37.01
438.578	118.19
438.789	99
439	93.77
439.211	63.55
439.423	75.56
439.634	67.04
439.845	88.15
440.057	62.77
440.268	83.31
440.479	42.62
440.69	99.2
440.902	89.7
441.113	53.28
441.324	67.81
441.535	95.32
441.746	137.17
441.957	56.77
442.168	61.22
442.38	97.26
442.591	102.3
442.802	45.14
443.013	54.83
443.224	70.91
443.435	73.43
443.646	56.96
443.857	81.96
444.068	75.17
444.279	68.39
444.49	115.09
444.701	84.67
444.912	183.09
445.123	88.35
445.334	73.43
445.545	71.69
445.756	85.64
445.967	52.89
446.178	108.11
446.388	129.81
446.599	99.97
446.81	107.53
447.021	79.63
447.232	106.56
447.443	117.02
447.653	60.45
447.864	114.12
448.075	76.53
448.286	120.12
448.496	80.99
448.707	106.56
448.918	97.26
449.129	180.18
449.339	58.51
449.55	102.1
449.761	66.46
449.971	148.6
450.182	61.22
450.393	105.59
450.603	69.94
450.814	122.64
451.024	81.96
451.235	133.3
451.446	139.89
451.656	119.35
451.867	65.29
452.077	81.76
452.288	142.21
452.498	157.71
452.709	81.37
452.919	117.99
453.13	61.61
453.34	124
453.55	36.23
453.761	129.23
453.971	105.98
454.182	113.15
454.392	108.5
454.602	157.71
454.813	138.72
455.023	117.6
455.233	72.27
455.444	94.16
455.654	70.33
455.864	121.29
456.075	105.4
456.285	57.74
456.495	105.79
456.705	105.2
456.916	147.05
457.126	141.44
457.336	112.18
457.546	44.17
457.756	79.24
457.967	143.18
458.177	92.03
458.387	101.91
458.597	61.22
458.807	93
459.017	73.62
459.227	86.02
459.437	116.83
459.647	137.95
459.857	97.65
460.068	92.8
460.278	153.64
460.488	102.3
460.698	158.29
460.908	118.96
461.117	107.53
461.327	59.29
461.537	96.49
461.747	126.52
461.957	92.03
462.167	181.73
462.377	136.01
462.587	101.33
462.797	136.01
463.007	96.1
463.216	106.17
463.426	128.26
463.636	136.2
463.846	72.66
464.056	86.8
464.265	154.03
464.475	91.25
464.685	99
464.895	135.24
465.104	124.97
465.314	159.84
465.524	100.36
465.733	69.75
465.943	196.46
466.153	159.45
466.362	119.15
466.572	126.32
466.782	117.22
466.991	102.3
467.201	165.65
467.41	55.99
467.62	122.25
467.829	106.56
468.039	163.33
468.249	103.46
468.458	129.81
468.668	133.88
468.877	114.12
469.086	144.73
469.296	126.32
469.505	92.22
469.715	157.52
469.924	145.12
470.134	177.28
470.343	177.47
470.552	120.51
470.762	113.54
470.971	91.45
471.18	118.38
471.39	105.59
471.599	111.99
471.808	160.42
472.018	89.32
472.227	155.77
472.436	136.01
472.645	111.79
472.855	86.8
473.064	164.49
473.273	118.77
473.482	137.56
473.691	156.94
473.901	153.45
474.11	122.06
474.319	205.57
474.528	154.61
474.737	182.12
474.946	149.19
475.155	149.57
475.364	185.61
475.573	140.47
475.783	115.47
475.992	161.97
476.201	177.67
476.41	160.04
476.619	95.9
476.828	129.62
477.037	150.93
477.245	147.44
477.454	178.05
477.663	138.34
477.872	161.39
478.081	163.72
478.29	111.99
478.499	215.83
478.708	140.08
478.917	211.18
479.125	144.34
479.334	185.03
479.543	124
479.752	143.95
479.961	150.93
480.169	166.24
480.378	133.49
480.587	261.37
480.796	175.73
481.004	162.17
481.213	165.85
481.422	173.02
481.63	158.87
481.839	178.44
482.048	210.99
482.256	170.11
482.465	159.45
482.674	192.39
482.882	179.99
483.091	221.65
483.299	185.03
483.508	197.04
483.716	160.42
483.925	161
484.134	161.78
484.342	128.07
484.551	193.55
484.759	199.75
484.967	174.57
485.176	216.8
485.384	182.9
485.593	221.07
485.801	190.26
486.01	201.3
486.218	177.86
486.426	148.41
486.635	183.87
486.843	174.57
487.051	177.28
487.26	187.35
487.468	186.38
487.676	192.2
487.885	165.27
488.093	181.93
488.301	195.1
488.509	207.5
488.717	210.22
488.926	160.04
489.134	182.7
489.342	178.83
489.55	159.07
489.758	169.53
489.967	178.63
490.175	266.4
490.383	180.57
490.591	239.08
490.799	130.97
491.007	221.07
491.215	202.08
491.423	199.56
491.631	191.81
491.839	207.89
492.047	220.1
492.255	159.65
492.463	145.89
492.671	199.17
492.879	227.46
493.087	172.24
493.295	225.33
493.503	192.2
493.711	199.75
493.919	228.82
494.127	230.17
494.334	237.73
494.542	161.2
494.75	195.88
494.958	210.02
495.166	217.58
495.374	218.16
495.581	234.43
495.789	223.58
495.997	248.97
496.205	221.26
496.412	216.8
496.62	199.37
496.828	240.83
497.035	198.59
497.243	237.73
497.451	220.29
497.658	204.02
497.866	225.13
498.074	252.45
498.281	190.07
498.489	266.79
498.696	234.24
498.904	212.54
499.112	217
499.319	291.78
499.527	207.7
499.734	269.7
499.942	175.15
500.149	218.35
500.357	225.13
500.564	202.66
500.771	238.12
500.979	202.66
501.186	199.75
501.394	225.91
501.601	220.68
501.808	261.75
502.016	208.67
502.223	214.09
502.43	238.7
502.638	219.13
502.845	203.24
503.052	267.76
503.26	211.38
503.467	283.45
503.674	236.76
503.881	234.43
504.089	284.03
504.296	257.88
504.503	173.79
504.71	229.4
504.917	202.85
505.125	209.83
505.332	239.28
505.539	250.13
505.746	291.78
505.953	260.01
506.16	246.45
506.367	288.49
506.574	284.03
506.781	326.46
506.988	221.65
507.195	246.64
507.402	236.57
507.609	283.84
507.816	242.38
508.023	239.28
508.23	219.52
508.437	216.22
508.644	263.11
508.851	321.62
509.058	282.1
509.265	229.59
509.472	252.84
509.679	347
509.885	231.33
510.092	243.54
510.299	245.28
510.506	261.56
510.713	279.38
510.92	268.15
511.126	290.81
511.333	268.53
511.54	276.28
511.746	295.66
511.953	295.85
512.16	293.72
512.367	234.24
512.573	254.78
512.78	263.69
512.987	280.16
513.193	261.56
513.4	183.67
513.606	260.2
513.813	293.72
514.02	295.66
514.226	317.36
514.433	325.88
514.639	260.98
514.846	289.07
515.052	238.12
515.259	259.23
515.465	256.33
515.672	255.36
515.878	343.9
516.085	250.13
516.291	294.11
516.497	235.6
516.704	267.18
516.91	213.12
517.117	231.53
517.323	198.4
517.529	259.23
517.736	244.51
517.942	266.21
518.148	215.83
518.354	266.79
518.561	280.74
518.767	267.76
518.973	297.01
519.179	273.18
519.386	241.6
519.592	254.58
519.798	247.22
520.004	305.73
520.21	273.96
520.417	306.12
520.623	332.28
520.829	301.28
521.035	311.55
521.241	311.35
521.447	303.6
521.653	397.57
521.859	290.23
522.065	315.23
522.271	373.16
522.477	344.29
522.683	340.03
522.889	325.88
523.095	337.51
523.301	326.08
523.507	301.28
523.713	338.28
523.919	272.02
524.125	339.45
524.331	315.61
524.537	381.29
524.742	329.18
524.948	331.5
525.154	345.65
525.36	442.91
525.566	370.25
525.772	390.01
525.977	290.04
526.183	336.93
526.389	376.64
526.595	334.6
526.8	344.29
527.006	313.87
527.212	305.15
527.417	284.61
527.623	315.03
527.829	331.11
528.034	356.49
528.24	336.15
528.446	310.77
528.651	377.81
528.857	335.18
529.062	411.71
529.268	322.01
529.473	363.66
529.679	333.83
529.884	411.52
530.09	372.96
530.295	385.94
530.501	416.56
530.706	385.36
530.912	327.43
531.117	376.06
531.323	359.01
531.528	362.5
531.733	376.06
531.939	355.53
532.144	378.39
532.35	344.29
532.555	414.62
532.76	380.52
532.966	444.07
533.171	396.21
533.376	378.97
533.581	367.73
533.787	369.48
533.992	398.73
534.197	431.86
534.402	354.36
534.607	381.49
534.813	470.81
535.018	373.74
535.223	359.79
535.428	390.4
535.633	442.13
535.838	410.94
536.043	358.43
536.249	418.69
536.454	383.04
536.659	391.56
536.864	370.25
537.069	354.17
537.274	420.04
537.479	416.17
537.684	417.33
537.889	378
538.094	457.44
538.299	422.56
538.504	425.66
538.708	415.01
538.913	411.71
539.118	375.09
539.323	411.52
539.528	393.11
539.733	383.04
539.938	409.19
540.142	450.66
540.347	401.64
540.552	396.41
540.757	405.71
540.962	384.98
541.166	381.68
541.371	379.94
541.576	394.08
541.781	307.28
541.985	421.59
542.19	428.76
542.395	452.21
542.599	451.82
542.804	412.29
543.008	470.61
543.213	375.87
543.418	362.89
543.622	435.16
543.827	381.49
544.031	456.27
544.236	436.71
544.44	419.46
544.645	488.24
544.849	436.13
545.054	446.97
545.258	485.72
545.463	468.29
545.667	403.19
545.872	442.91
546.076	438.26
546.281	439.61
546.485	422.37
546.689	436.32
546.894	447.36
547.098	412.1
547.302	398.73
547.507	431.67
547.711	431.86
547.915	485.92
548.119	380.91
548.324	439.81
548.528	464.41
548.732	442.71
548.936	468.29
549.141	466.54
549.345	419.27
549.549	420.24
549.753	383.62
549.957	498.51
550.161	484.17
550.366	433.99
550.57	435.93
550.774	419.08
550.978	420.24
551.182	435.74
551.386	430.31
551.59	397.18
551.794	413.26
551.998	456.86
552.202	406.68
552.406	391.56
552.61	414.04
552.814	433.61
553.018	459.96
553.222	435.54
553.426	419.66
553.63	509.94
553.833	410.36
554.037	392.73
554.241	459.76
554.445	438.64
554.649	416.75
554.853	418.69
555.056	475.46
555.26	436.13
555.464	425.86
555.668	427.41
555.871	457.05
556.075	474.68
556.279	424.11
556.483	405.32
556.686	433.99
556.89	438.84
557.094	438.26
557.297	407.64
557.501	464.22
557.704	388.66
557.908	450.85
558.112	402.03
558.315	499.29
558.519	422.76
558.722	454.14
558.926	412.1
559.129	372.96
559.333	372.58
559.536	420.24
559.74	402.8
559.943	385.56
560.147	389.63
560.35	410.16
560.553	387.3
560.757	377.42
560.96	460.73
561.164	354.75
561.367	472.55
561.57	391.56
561.774	396.99
561.977	412.68
562.18	404.74
562.384	487.86
562.587	389.82
562.79	387.49
562.993	377.03
563.197	447.56
563.4	457.44
563.603	430.51
563.806	506.07
564.009	382.26
564.212	404.35
564.416	380.91
564.619	402.41
564.822	362.11
565.025	465.38
565.228	402.22
565.431	401.06
565.634	318.71
565.837	373.93
566.04	371.22
566.243	382.26
566.446	301.86
566.649	431.48
566.852	354.94
567.055	381.88
567.258	417.33
567.461	410.94
567.664	403.96
567.867	354.56
568.07	390.4
568.273	389.24
568.475	407.45
568.678	384.39
568.881	367.54
569.084	395.05
569.287	317.16
569.489	344.29
569.692	377.03
569.895	432.44
570.098	358.43
570.3	344.68
570.503	314.84
570.706	338.09
570.909	359.4
571.111	308.45
571.314	319.3
571.516	330.15
571.719	357.27
571.922	355.33
572.124	350.1
572.327	355.14
572.529	304.38
572.732	329.56
572.935	334.8
573.137	391.76
573.34	333.44
573.542	374.13
573.745	343.71
573.947	348.94
574.15	340.61
574.352	308.45
574.554	386.33
574.757	309.61
574.959	296.43
575.162	313.1
575.364	322.98
575.566	434.38
575.769	308.83
575.971	322.01
576.173	276.48
576.376	299.73
576.578	341
576.78	381.29
576.982	232.11
577.185	310.96
577.387	296.82
577.589	282.48
577.791	324.53
577.993	337.12
578.196	297.4
578.398	333.83
578.6	351.07
578.802	292.36
579.004	270.86
579.206	292.75
579.408	318.71
579.61	298.95
579.812	359.59
580.014	301.66
580.216	297.4
580.418	306.12
580.62	303.41
580.822	243.73
581.024	313.29
581.226	303.02
581.428	278.61
581.63	383.62
581.832	286.94
582.034	350.49
582.236	332.66
582.438	320.26
582.64	315.42
582.841	329.18
583.043	386.91
583.245	360.56
583.447	323.17
583.649	289.07
583.85	307.86
584.052	351.07
584.254	273.57
584.456	355.91
584.657	282.68
584.859	305.54
585.061	331.31
585.262	262.72
585.464	253.81
585.666	334.6
585.867	283.45
586.069	374.71
586.27	325.88
586.472	282.87
586.674	288.3
586.875	304.76
587.077	302.25
587.278	332.66
587.48	279.58
587.681	377.42
587.883	343.32
588.084	263.5
588.285	291.59
588.487	307.09
588.688	301.66
588.89	250.52
589.091	267.76
589.292	306.9
589.494	314.65
589.695	290.62
589.896	262.33
590.098	239.47
590.299	281.32
590.5	251.29
590.702	248
590.903	282.87
591.104	343.9
591.305	260.78
591.507	318.71
591.708	281.32
591.909	262.14
592.11	374.13
592.311	324.72
592.512	274.73
592.714	235.6
592.915	256.13
593.116	274.73
593.317	278.8
593.518	264.66
593.719	273.57
593.92	298.76
594.121	317.55
594.322	283.45
594.523	293.91
594.724	249.35
594.925	250.71
595.126	266.79
595.327	298.95
595.528	304.38
595.729	308.64
595.929	280.16
596.13	273.96
596.331	284.03
596.532	290.81
596.733	326.85
596.934	320.85
597.135	298.76
597.335	295.08
597.536	248.19
597.737	268.53
597.938	279.19
598.138	294.3
598.339	271.63
598.54	277.06
598.74	266.6
598.941	302.63
599.142	323.75
599.342	286.75
599.543	221.07
599.744	267.56
599.944	271.63
600.145	274.93
600.345	277.06
600.546	334.02
600.746	336.35
600.947	351.84
601.147	298.76
601.348	293.14
601.548	248.77
601.749	296.24
601.949	251.1
602.15	252.84
602.35	296.24
602.551	330.73
602.751	260.59
602.951	259.62
603.152	227.46
603.352	310.19
603.552	274.35
603.753	288.1
603.953	295.66
604.153	262.91
604.354	285
604.554	265.24
604.754	260.4
604.954	248.58
605.155	292.56
605.355	253.23
605.555	305.54
605.755	322.78
605.955	260.59
606.155	295.27
606.356	264.66
606.556	289.46
606.756	266.01
606.956	239.86
607.156	299.34
607.356	258.46
607.556	295.66
607.756	278.41
607.956	314.45
608.156	281.32
608.356	253.42
608.556	276.67
608.756	283.45
608.956	252.26
609.156	261.17
609.356	264.46
609.556	263.5
609.755	280.93
609.955	228.43
610.155	255.17
610.355	286.94
610.555	229.01
610.755	284.23
610.954	222.42
611.154	266.21
611.354	283.84
611.554	265.82
611.753	247.22
611.953	233.85
612.153	307.86
612.352	271.63
612.552	253.62
612.752	211.57
612.951	263.5
613.151	278.22
613.351	267.56
613.55	254.39
613.75	276.09
613.949	264.46
614.149	269.11
614.348	273.38
614.548	246.45
614.747	195.68
614.947	225.13
615.146	194.33
615.346	261.56
615.545	257.49
615.745	248.19
615.944	252.07
616.144	255.55
616.343	316.39
616.542	257.68
616.742	278.03
616.941	257.1
617.14	221.26
617.34	224.94
617.539	257.68
617.738	217.77
617.938	312.32
618.137	249.55
618.336	224.55
618.535	289.26
618.734	228.04
618.934	279.77
619.133	239.08
619.332	237.92
619.531	251.1
619.73	243.93
619.929	288.3
620.128	281.9
620.328	300.31
620.527	247.8
620.726	250.52
620.925	263.88
621.124	239.28
621.323	262.14
621.522	207.12
621.721	210.22
621.92	231.33
622.119	271.05
622.318	209.63
622.517	236.95
622.715	242.57
622.914	191.42
623.113	190.65
623.312	215.06
623.511	211.57
623.71	258.85
623.909	204.79
624.107	289.46
624.306	178.44
624.505	213.51
624.704	210.02
624.902	218.16
625.101	273.38
625.3	237.73
625.499	191.23
625.697	204.02
625.896	199.17
626.095	246.25
626.293	175.53
626.492	190.45
626.69	264.66
626.889	189.87
627.088	265.82
627.286	198.2
627.485	213.51
627.683	194.72
627.882	250.52
628.08	191.23
628.279	222.03
628.477	294.3
628.676	189.87
628.874	240.63
629.073	216.8
629.271	215.06
629.469	235.21
629.668	212.35
629.866	228.23
630.065	224.17
630.263	253.03
630.461	194.33
630.66	225.13
630.858	243.73
631.056	243.73
631.254	236.57
631.453	172.05
631.651	232.11
631.849	226.49
632.047	237.15
632.245	201.69
632.444	254.2
632.642	214.67
632.84	234.63
633.038	209.63
633.236	188.52
633.434	160.23
633.632	147.05
633.83	175.73
634.028	235.6
634.227	223.39
634.425	263.88
634.623	198.98
634.821	203.05
635.019	204.21
635.216	169.14
635.414	223.2
635.612	233.66
635.81	173.79
636.008	248.58
636.206	187.35
636.404	242.38
636.602	201.88
636.8	232.88
636.997	225.72
637.195	214.48
637.393	212.15
637.591	234.05
637.789	222.23
637.986	180.96
638.184	192
638.382	223.58
638.58	271.44
638.777	260.78
638.975	202.66
639.173	205.37
639.37	214.09
639.568	223.39
639.765	252.45
639.963	198.59
640.161	252.45
640.358	260.78
640.556	194.91
640.753	182.7
640.951	180.18
641.148	211.57
641.346	200.53
641.543	216.22
641.741	226.3
641.938	187.16
642.136	210.22
642.333	182.12
642.531	252.65
642.728	265.05
642.925	208.08
643.123	188.32
643.32	203.24
643.517	230.95
643.715	214.28
643.912	186.38
644.109	227.07
644.306	198.59
644.504	173.79
644.701	195.68
644.898	240.25
645.095	178.44
645.293	221.07
645.49	224.94
645.687	221.84
645.884	255.17
646.081	161.39
646.278	182.51
646.475	209.25
646.672	216.42
646.87	235.02
647.067	224.36
647.264	200.53
647.461	178.44
647.658	119.74
647.855	208.67
648.052	198.98
648.249	130.2
648.446	164.88
648.642	151.12
648.839	208.86
649.036	174.95
649.233	161.2
649.43	162.17
649.627	183.28
649.824	166.24
650.021	174.18
650.217	166.82
650.414	155.58
650.611	198.4
650.808	201.11
651.004	176.12
651.201	217
651.398	228.04
651.595	186.58
651.791	173.4
651.988	223
652.185	150.15
652.381	197.43
652.578	157.9
652.775	175.73
652.971	184.83
653.168	180.77
653.364	210.99
653.561	104.04
653.757	168.17
653.954	175.15
654.15	142.02
654.347	216.03
654.543	183.28
654.74	168.56
654.936	137.95
655.133	174.37
655.329	164.1
655.525	148.22
655.722	208.08
655.918	164.1
656.115	197.23
656.311	154.42
656.507	140.85
656.704	128.84
656.9	137.37
657.096	147.44
657.292	122.45
657.489	196.65
657.685	162.55
657.881	140.66
658.077	133.3
658.273	152.67
658.47	224.55
658.666	177.47
658.862	179.99
659.058	163.52
659.254	194.91
659.45	128.07
659.646	155.39
659.842	137.95
660.038	209.83
660.234	113.34
660.43	158.49
660.626	248.38
660.822	212.93
661.018	186.77
661.214	191.23
661.41	130.39
661.606	165.46
661.802	174.18
661.998	156.74
662.194	132.72
662.39	186.77
662.586	198.01
662.781	172.44
662.977	188.9
663.173	194.13
663.369	189.87
663.564	194.72
663.76	176.5
663.956	164.88
664.152	202.47
664.347	118.77
664.543	195.68
664.739	173.79
664.934	115.47
665.13	86.22
665.326	182.32
665.521	169.72
665.717	170.3
665.912	132.33
666.108	83.89
666.304	136.2
666.499	163.91
666.695	106.56
666.89	166.62
667.086	184.06
667.281	156.16
667.477	195.1
667.672	170.3
667.867	172.24
668.063	169.34
668.258	146.86
668.454	159.84
668.649	227.27
668.844	182.9
669.04	166.82
669.235	152.67
669.43	115.86
669.626	138.53
669.821	153.64
670.016	124.19
670.211	144.34
670.407	107.34
670.602	161.78
670.797	145.7
670.992	169.72
671.187	128.26
671.382	176.5
671.578	147.44
671.773	181.73
671.968	120.51
672.163	148.8
672.358	190.65
672.553	160.42
672.748	121.48
672.943	212.35
673.138	146.28
673.333	177.67
673.528	110.44
673.723	158.29
673.918	135.82
674.113	118.57
674.308	187.16
674.503	172.24
674.698	173.21
674.892	167.98
675.087	175.92
675.282	179.22
675.477	154.61
675.672	186
675.867	131.75
676.061	133.1
676.256	91.45
676.451	113.15
676.646	153.25
676.84	123.03
677.035	110.44
677.23	95.9
677.424	174.37
677.619	188.52
677.814	178.05
678.008	203.24
678.203	78.86
678.397	92.8
678.592	137.17
678.787	195.1
678.981	136.59
679.176	155.77
679.37	147.64
679.565	129.81
679.759	135.24
679.954	166.04
680.148	201.11
680.342	187.55
680.537	152.87
680.731	143.57
680.926	147.83
681.12	177.08
681.314	145.89
681.509	130.78
681.703	142.99
681.897	170.89
682.092	163.72
682.286	138.72
682.48	203.63
682.674	181.54
682.869	147.64
683.063	133.49
683.257	209.83
683.451	147.83
683.645	141.82
683.839	155
684.034	140.08
684.228	179.8
684.422	126.13
684.616	121.48
684.81	151.32
685.004	139.11
685.198	123.22
685.392	177.08
685.586	112.18
685.78	159.84
685.974	164.88
686.168	172.82
686.362	205.57
686.556	151.7
686.75	129.04
686.944	136.59
687.138	188.13
687.331	89.7
687.525	132.33
687.719	75.95
687.913	150.74
688.107	135.24
688.301	101.33
688.494	159.84
688.688	131.36
688.882	79.63
689.076	107.72
689.269	109.66
689.463	207.31
689.657	102.3
689.85	108.89
690.044	143.37
690.238	110.82
690.431	96.1
690.625	112.95
690.818	150.15
691.012	111.02
691.205	122.25
691.399	88.54
691.593	145.31
691.786	172.63
691.98	168.95
692.173	191.03
692.366	147.64
692.56	127.49
692.753	214.67
692.947	108.69
693.14	182.32
693.333	176.31
693.527	99
693.72	139.89
693.914	131.55
694.107	126.52
694.3	165.27
694.493	116.44
694.687	166.04
694.88	114.7
695.073	207.31
695.266	187.16
695.46	153.64
695.653	196.65
695.846	192.2
696.039	123.42
696.232	149.19
696.425	195.1
696.618	170.89
696.812	169.14
697.005	213.32
697.198	272.8
697.391	184.06
697.584	197.04
697.777	241.22
697.97	193.75
698.163	203.05
698.356	205.57
698.549	272.41
698.742	229.2
698.935	192.78
699.127	220.1
699.32	192.58
699.513	168.56
699.706	201.88
699.899	203.05
700.092	184.64
700.285	221.07
700.477	186
700.67	214.28
700.863	257.68
701.056	320.07
701.248	268.73
701.441	260.59
701.634	225.91
701.826	309.8
702.019	219.71
702.212	274.93
702.404	209.25
702.597	209.05
702.79	231.92
702.982	239.86
703.175	266.79
703.367	268.34
703.56	278.61
703.752	335.57
703.945	300.89
704.137	304.38
704.33	311.55
704.522	299.15
704.715	319.1
704.907	347.97
705.1	319.3
705.292	330.73
705.484	291.78
705.677	341.77
705.869	319.88
706.061	363.28
706.254	350.29
706.446	342.55
706.638	319.3
706.831	403.38
707.023	331.5
707.215	415.59
707.407	385.75
707.599	357.08
707.792	410.16
707.984	382.46
708.176	398.15
708.368	382.07
708.56	383.04
708.752	375.48
708.944	367.54
709.136	396.21
709.329	369.86
709.521	502.77
709.713	438.84
709.905	419.46
710.097	470.61
710.289	430.89
710.481	430.31
710.672	448.72
710.864	423.14
711.056	482.24
711.248	468.48
711.44	487.86
711.632	445.23
711.824	448.52
712.016	520.99
712.207	506.84
712.399	492.31
712.591	530.48
712.783	489.79
712.975	544.04
713.166	479.72
713.358	491.54
713.55	581.63
713.741	558.57
713.933	535.32
714.125	531.06
714.316	508.97
714.508	575.04
714.7	570.59
714.891	567.68
715.083	589.96
715.274	574.46
715.466	559.74
715.657	577.95
715.849	511.11
716.04	607.98
716.232	551.02
716.423	609.34
716.615	539.2
716.806	556.05
716.998	569.42
717.189	555.28
717.381	494.64
717.572	490.57
717.763	532.61
717.955	536.29
718.146	465.19
718.337	496.38
718.528	454.72
718.72	451.82
718.911	502.39
719.102	484.76
719.293	508.39
719.485	474.87
719.676	496.77
719.867	475.65
720.058	444.84
720.249	469.26
720.44	484.76
720.632	529.7
720.823	506.84
721.014	586.47
721.205	545.79
721.396	602.55
721.587	666.49
721.778	652.93
721.969	655.25
722.16	648.28
722.351	633.17
722.542	748.25
722.733	749.03
722.924	675.02
723.115	712.6
723.305	725.78
723.496	721.32
723.687	665.13
723.878	666.3
724.069	697.1
724.26	722.68
724.45	657.77
724.641	638.59
724.832	683.35
725.023	702.72
725.213	654.09
725.404	656.8
725.595	660.87
725.785	652.93
725.976	721.13
726.167	700.01
726.357	688
726.548	759.3
726.739	680.25
726.929	738.37
727.12	765.11
727.31	784.1
727.501	749.22
727.691	785.06
727.882	773.83
728.072	788.55
728.263	790.1
728.453	812.19
728.644	790.29
728.834	806.96
729.024	783.51
729.215	779.83
729.405	803.47
729.596	884.65
729.786	880.97
729.976	870.12
730.167	878.64
730.357	860.82
730.547	847.84
730.737	906.35
730.928	904.22
731.118	910.03
731.308	896.47
731.498	904.99
731.688	933.67
731.879	955.56
732.069	990.05
732.259	980.36
732.449	958.08
732.639	1054.18
732.829	1038.49
733.019	1046.24
733.209	1083.24
733.399	1110.75
733.589	1113.08
733.779	1147.56
733.969	1106.1
734.159	1164.23
734.349	1154.35
734.539	1177.4
734.729	1177.21
734.919	1192.32
735.109	1232.81
735.299	1215.57
735.488	1228.36
735.678	1242.5
735.868	1229.71
736.058	1202.78
736.248	1223.71
736.437	1181.86
736.627	1182.25
736.817	1262.07
737.007	1257.61
737.196	1291.91
737.386	1210.73
737.576	1224.48
737.765	1256.26
737.955	1256.45
738.144	1361.46
738.334	1313.8
738.524	1283.77
738.713	1303.34
738.903	1328.33
739.092	1318.84
739.282	1328.52
739.471	1321.16
739.661	1316.51
739.85	1370.76
740.04	1335.69
740.229	1362.62
740.419	1407.77
740.608	1376.38
740.797	1404.47
740.987	1446.71
741.176	1425.2
741.365	1399.82
741.555	1391.11
741.744	1412.42
741.933	1419.2
742.123	1465.7
742.312	1462.4
742.501	1487.98
742.69	1501.93
742.88	1387.42
743.069	1536.03
743.258	1436.44
743.447	1469.57
743.636	1512
743.825	1439.35
744.014	1495.92
744.204	1512.39
744.393	1472.67
744.582	1526.34
744.771	1562.57
744.96	1502.12
745.149	1527.12
745.338	1448.26
745.527	1518.4
745.716	1518.2
745.905	1495.92
746.094	1540.1
746.283	1530.22
746.471	1533.51
746.66	1608.49
746.849	1552.3
747.038	1606.94
747.227	1521.11
747.416	1562.96
747.604	1558.7
747.793	1535.06
747.982	1570.9
748.171	1565.28
748.359	1614.11
748.548	1588.92
748.737	1551.92
748.926	1574.78
749.114	1502.12
749.303	1573.81
749.491	1523.82
749.68	1528.86
749.869	1605.2
750.057	1556.37
750.246	1543.97
750.434	1553.27
750.623	1571.48
750.811	1549.98
751	1557.92
751.188	1537.19
751.377	1591.05
751.565	1584.85
751.754	1512
751.942	1526.53
752.131	1574.39
752.319	1521.11
752.507	1494.37
752.696	1563.54
752.884	1537.58
753.072	1526.34
753.261	1565.28
753.449	1556.95
753.637	1544.94
753.825	1626.9
754.014	1557.15
754.202	1562.18
754.39	1611.78
754.578	1597.06
754.766	1561.41
754.955	1558.12
755.143	1638.91
755.331	1526.73
755.519	1554.05
755.707	1546.88
755.895	1553.27
756.083	1555.79
756.271	1514.91
756.459	1533.32
756.647	1593.18
756.835	1533.12
757.023	1485.27
757.211	1509.68
757.399	1506.97
757.587	1518.4
757.775	1483.52
757.963	1506.77
758.151	1525.95
758.339	1476.74
758.526	1465.7
758.714	1515.68
758.902	1462.6
759.09	1434.5
759.278	1335.89
759.465	1220.61
759.653	1036.94
759.841	988.11
760.028	814.51
760.216	683.54
760.404	713.76
760.591	537.45
760.779	466.93
760.967	417.14
761.154	305.93
761.342	362.31
761.529	328.21
761.717	368.12
761.905	371.61
762.092	387.49
762.28	346.81
762.467	354.94
762.655	291.59
762.842	300.7
763.029	341
763.217	355.72
763.404	354.36
763.592	385.56
763.779	318.33
763.966	368.51
764.154	390.01
764.341	423.34
764.528	407.45
764.716	455.11
764.903	464.02
765.09	508.78
765.277	527.77
765.465	611.27
765.652	620.77
765.839	644.4
766.026	736.05
766.213	732.17
766.4	767.43
766.588	880.97
766.775	876.9
766.962	960.02
767.149	933.28
767.336	1063.28
767.523	961.76
767.71	1073.94
767.897	1130.71
768.084	1170.23
768.271	1174.5
768.458	1226.61
768.645	1254.71
768.832	1195.61
769.019	1209.18
769.206	1260.91
769.392	1354.68
769.579	1383.55
769.766	1316.9
769.953	1289.78
770.14	1380.84
770.327	1348.09
770.513	1362.04
770.7	1425.01
770.887	1333.37
771.073	1381.22
771.26	1369.99
771.447	1314.19
771.634	1353.91
771.82	1418.81
772.007	1337.82
772.193	1388.59
772.38	1413.97
772.567	1392.66
772.753	1376.96
772.94	1412.8
773.126	1403.7
773.313	1379.67
773.499	1400.02
773.686	1393.62
773.872	1373.67
774.059	1395.37
774.245	1304.11
774.432	1357.01
774.618	1310.51
774.804	1344.8
774.991	1385.1
775.177	1401.18
775.363	1349.45
775.55	1387.23
775.736	1332.98
775.922	1352.94
776.109	1352.55
776.295	1364.76
776.481	1342.67
776.667	1380.26
776.853	1367.66
777.04	1332.79
777.226	1359.72
777.412	1367.27
777.598	1316.9
777.784	1332.01
777.97	1354.68
778.156	1340.92
778.342	1317.29
778.528	1306.05
778.715	1244.44
778.901	1288.23
779.087	1310.51
779.272	1267.69
779.458	1262.65
779.644	1322.91
779.83	1264.2
780.016	1365.34
780.202	1288.03
780.388	1271.56
780.574	1263.62
780.76	1265.56
780.946	1318.64
781.131	1296.17
781.317	1301.79
781.503	1251.03
781.689	1276.99
781.874	1369.41
782.06	1263.23
782.246	1266.53
782.432	1276.21
782.617	1307.02
782.803	1347.9
782.989	1222.74
783.174	1246.18
783.36	1198.71
783.545	1240.56
783.731	1237.46
783.916	1202.98
784.102	1256.84
784.288	1184.38
784.473	1225.45
784.659	1243.08
784.844	1246.76
785.029	1208.98
785.215	1205.69
785.4	1153.96
785.586	1262.84
785.771	1197.75
785.956	1217.12
786.142	1248.51
786.327	1162.29
786.512	1193.87
786.698	1177.4
786.883	1170.43
787.068	1164.23
787.254	1168.88
787.439	1169.26
787.624	1170.43
787.809	1145.43
787.994	1170.43
788.18	1222.74
788.365	1111.92
788.55	1157.64
788.735	1170.23
788.92	1139.81
789.105	1114.43
789.29	1165.58
789.475	1112.88
789.66	1124.32
789.845	1123.73
790.03	1089.83
790.215	1144.46
790.4	1188.45
790.585	1172.36
790.77	1115.98
790.955	1065.42
791.14	1101.65
791.325	1165.39
791.51	1063.48
791.695	1089.44
791.879	1078.78
792.064	1037.13
792.249	1129.74
792.434	1105.52
792.618	1086.73
792.803	1113.27
792.988	1088.67
793.173	1099.32
793.357	1134
793.542	1048.95
793.727	1098.93
793.911	1124.7
794.096	1090.02
794.281	1121.22
794.465	1145.24
794.65	1098.74
794.834	1121.41
795.019	1148.92
795.203	1139.23
795.388	1129.93
795.572	1128.19
795.757	1106.3
795.941	1141.95
796.126	1106.1
796.31	1071.62
796.494	1103
796.679	1076.27
796.863	1059.41
797.048	1152.8
797.232	1105.91
797.416	1121.41
797.601	1098.93
797.785	1154.93
797.969	1167.71
798.153	1085.95
798.338	1133.03
798.522	1166.94
798.706	1126.45
798.89	1135.36
799.074	1227.97
799.258	1144.66
799.443	1100.68
799.627	1110.95
799.811	1176.24
799.995	1148.73
800.179	1104.17
800.363	1114.82
800.547	1124.51
800.731	1148.34
800.915	1081.88
801.099	1098.93
801.283	1087.7
801.467	1111.92
801.651	1091.38
801.835	1171.78
802.019	1111.72
802.202	1116.76
802.386	1109.4
802.57	1072
802.754	1091.96
802.938	1066.19
803.121	1086.92
803.305	1128.58
803.489	1128.38
803.673	1144.08
803.856	1112.5
804.04	1104.55
804.224	1109.01
804.407	1107.07
804.591	1114.05
804.775	1114.63
804.958	1102.62
805.142	1242.89
805.326	1128.77
805.509	1114.43
805.693	1162.87
805.876	1140.98
806.06	1106.68
806.243	1148.15
806.427	1185.15
806.61	1158.22
806.794	1087.89
806.977	1157.45
807.16	1117.53
807.344	1128
807.527	1130.32
807.71	1106.68
807.894	1128.38
808.077	1143.88
808.26	1108.23
808.444	1118.12
808.627	1146.6
808.81	1088.47
808.993	1065.61
809.177	1033.45
809.36	1078.4
809.543	1112.88
809.726	1041.59
809.909	1061.35
810.092	1023.57
810.276	1051.08
810.459	1058.83
810.642	1059.6
810.825	1028.41
811.008	1042.75
811.191	978.62
811.374	987.72
811.557	994.12
811.74	1053.4
811.923	953.43
812.106	985.2
812.289	957.31
812.472	959.44
812.654	952.27
812.837	939.09
813.02	905.19
813.203	901.12
813.386	828.27
813.569	859.66
813.751	816.26
813.934	853.46
814.117	843.19
814.3	826.91
814.482	803.28
814.665	783.71
814.848	789.71
815.03	741.66
815.213	744.57
815.396	756.58
815.578	730.43
815.761	719.77
815.943	758.33
816.126	705.82
816.309	687.61
816.491	662.62
816.674	625.61
816.856	638.01
817.039	622.9
817.221	731.01
817.403	687.61
817.586	633.94
817.768	706.98
817.951	641.5
818.133	640.53
818.315	668.82
818.498	694.78
818.68	746.31
818.862	695.75
819.045	713.96
819.227	722.87
819.409	689.35
819.591	726.75
819.774	675.6
819.956	668.43
820.138	708.73
820.32	712.02
820.502	712.41
820.684	782.55
820.866	770.15
821.048	782.74
821.231	809.67
821.413	789.52
821.595	793.98
821.777	773.63
821.959	765.88
822.141	813.93
822.323	742.44
822.505	725
822.686	701.17
822.868	693.62
823.05	626.19
823.232	609.53
823.414	572.72
823.596	630.26
823.778	608.17
823.96	622.9
824.141	629.29
824.323	624.83
824.505	649.05
824.687	677.73
824.868	689.93
825.05	778.09
825.232	777.51
825.413	817.03
825.595	784.48
825.777	700.01
825.958	765.5
826.14	745.54
826.321	772.66
826.503	737.4
826.685	747.67
826.866	784.1
827.048	757.36
827.229	723.45
827.411	711.25
827.592	688.97
827.773	686.25
827.955	662.23
828.136	694.78
828.318	639.95
828.499	728.1
828.68	660.1
828.862	674.82
829.043	708.53
829.224	723.45
829.406	650.8
829.587	656.03
829.768	659.71
829.949	681.8
830.131	643.63
830.312	757.94
830.493	663
830.674	652.93
830.855	669.59
831.036	680.44
831.218	682.38
831.399	717.45
831.58	687.03
831.761	672.88
831.942	712.6
832.123	671.72
832.304	638.2
832.485	663.58
832.666	673.85
832.847	684.12
833.028	686.64
833.209	687.8
833.389	649.63
833.57	653.32
833.751	669.98
833.932	723.65
834.113	674.82
834.294	668.43
834.475	682.77
834.655	708.53
834.836	734.88
835.017	731.4
835.198	619.41
835.378	671.53
835.559	694.97
835.74	682.77
835.92	699.43
836.101	681.22
836.281	724.23
836.462	708.34
836.643	726.94
836.823	732.36
837.004	710.28
837.184	768.21
837.365	707.37
837.545	741.86
837.726	701.17
837.906	754.65
838.087	721.9
838.267	746.9
838.448	681.6
838.628	733.72
838.808	705.24
838.989	793.2
839.169	707.37
839.349	737.4
839.53	756.2
839.71	731.98
839.89	706.21
840.07	793.59
840.251	693.81
840.431	758.91
840.611	722.48
840.791	652.35
840.971	745.73
841.151	707.18
841.332	660.29
841.512	745.93
841.692	673.27
841.872	727.52
842.052	700.59
842.232	726.75
842.412	659.52
842.592	726.55
842.772	712.99
842.952	684.12
843.132	684.9
843.312	656.22
843.492	642.08
843.672	692.07
843.851	645.57
844.031	698.27
844.211	667.65
844.391	657.77
844.571	702.53
844.751	701.17
844.93	709.7
845.11	642.08
845.29	705.63
845.47	713.76
845.649	649.05
845.829	709.89
846.009	655.06
846.188	679.08
846.368	697.88
846.547	677.92
846.727	721.51
846.907	666.1
847.086	706.79
847.266	696.33
847.445	665.72
847.625	656.03
847.804	682.38
847.984	656.22
848.163	659.71
848.343	651.38
848.522	708.92
848.701	677.34
848.881	627.55
849.06	673.27
849.239	704.85
849.419	688.97
849.598	632.58
849.777	662.42
849.957	668.82
850.136	591.7
850.315	613.6
850.494	587.25
850.674	588.99
850.853	686.45
851.032	632.39
851.211	692.26
851.39	647.31
851.569	593.84
851.748	604.3
851.927	644.79
852.107	619.22
852.286	577.56
852.465	578.72
852.644	635.1
852.823	629.68
853.002	638.4
853.181	638.78
853.359	631.62
853.538	582.6
853.717	620.77
853.896	588.41
854.075	565.35
854.254	552.76
854.433	535.9
854.611	558.96
854.79	524.47
854.969	570.78
855.148	596.35
855.327	535.32
855.505	568.07
855.684	570.2
855.863	573.49
856.041	521.18
856.22	573.69
856.399	550.24
856.577	625.22
856.756	563.42
856.934	687.22
857.113	699.81
857.291	602.75
857.47	586.86
857.648	601.39
857.827	582.02
858.005	597.13
858.184	611.08
858.362	659.52
858.541	579.69
858.719	593.84
858.898	582.99
859.076	561.87
859.254	634.52
859.433	577.17
859.611	560.32
859.789	544.82
859.967	648.08
860.146	654.28
860.324	546.17
860.502	573.1
860.68	520.02
860.859	557.6
861.037	559.54
861.215	578.14
861.393	570.97
861.571	540.36
861.749	546.75
861.927	577.37
862.105	577.17
862.283	564.77
862.461	556.25
862.639	523.12
862.817	579.69
862.995	557.8
863.173	554.31
863.351	573.69
863.529	550.82
863.707	624.25
863.885	552.76
864.063	507.62
864.241	508.78
864.418	595.19
864.596	511.88
864.774	502.58
864.952	522.54
865.129	565.16
865.307	520.41
865.485	519.24
865.663	560.51
865.84	508.78
866.018	548.5
866.196	431.67
866.373	475.84
866.551	459.57
866.728	429.34
866.906	476.81
867.084	482.43
867.261	503.36
867.439	505.87
867.616	518.08
867.794	489.99
867.971	518.08
868.149	498.51
868.326	527.77
868.503	545.4
868.681	499.29
868.858	490.96
869.035	486.31
869.213	558.57
869.39	479.72
869.567	585.7
869.745	472.94
869.922	505.68
870.099	497.93
870.276	550.05
870.454	535.13
870.631	541.52
870.808	509.94
870.985	549.66
871.162	553.92
871.339	510.91
871.517	465.19
871.694	483.98
871.871	488.63
872.048	496.38
872.225	459.96
872.402	522.34
872.579	470.61
872.756	502
872.933	462.67
873.11	462.09
873.287	481.46
873.463	472.74
873.64	445.81
873.817	541.91
873.994	487.47
874.171	477.59
874.348	500.06
874.524	420.04
874.701	485.14
874.878	449.11
875.055	501.61
875.231	473.13
875.408	517.11
875.585	450.27
875.762	486.31
875.938	481.27
876.115	467.51
876.291	459.37
876.468	461.89
876.645	427.41
876.821	426.44
876.998	474.49
877.174	481.46
877.351	450.46
877.527	446.97
877.704	470.22
877.88	453.56
878.057	452.01
878.233	512.46
878.409	469.84
878.586	489.02
878.762	441.36
878.938	442.91
879.115	390.01
879.291	442.52
879.467	418.11
879.644	438.84
879.82	457.24
879.996	440.97
880.172	386.33
880.349	438.84
880.525	452.59
880.701	409.78
880.877	433.99
881.053	433.22
881.229	441.55
881.405	456.27
881.581	404.35
881.757	416.75
881.933	432.25
882.109	471
882.285	434.19
882.461	378.19
882.637	427.02
882.813	401.83
882.989	416.94
883.165	434.19
883.341	411.33
883.517	453.56
883.693	437.67
883.869	457.05
884.044	405.71
884.22	458.79
884.396	438.06
884.572	478.17
884.747	481.66
884.923	446.59
885.099	452.79
885.275	459.96
885.45	380.52
885.626	392.34
885.801	411.33
885.977	410.55
886.153	374.51
886.328	459.57
886.504	411.52
886.679	415.78
886.855	404.74
887.03	451.82
887.206	461.12
887.381	422.76
887.557	430.31
887.732	433.41
887.908	453.76
888.083	447.94
888.258	405.13
888.434	403.19
888.609	422.95
888.784	454.34
888.96	403.38
889.135	379.16
889.31	362.69
889.485	404.35
889.661	404.93
889.836	439.81
890.011	412.88
890.186	399.12
890.361	416.94
890.537	444.46
890.712	435.54
890.887	405.9
891.062	419.46
891.237	483.98
891.412	384.01
891.587	437.09
891.762	437.29
891.937	450.66
892.112	384.98
892.287	420.04
892.462	362.69
892.637	364.83
892.812	365.41
892.987	375.68
893.161	380.91
893.336	384.78
893.511	400.67
893.686	363.28
893.861	372.19
894.035	368.7
894.21	372.19
894.385	335.96
894.56	377.23
894.734	323.95
894.909	347.97
895.084	324.91
895.258	338.67
895.433	366.96
895.608	328.6
895.782	311.35
895.957	330.92
896.131	325.88
896.306	293.91
896.48	306.31
896.655	307.86
896.829	245.67
897.004	270.47
897.178	260.98
897.353	263.88
897.527	302.25
897.701	278.61
897.876	225.52
898.05	302.05
898.224	284.81
898.399	316
898.573	264.27
898.747	216.8
898.921	278.41
899.096	196.65
899.27	209.44
899.444	225.91
899.618	224.36
899.792	224.17
899.967	225.72
900.141	266.79
900.315	228.62
900.489	230.56
900.663	258.07
900.837	252.26
901.011	227.65
901.185	302.05
901.359	224.94
901.533	253.42
901.707	257.1
901.881	229.4
902.055	175.73
902.229	225.13
902.403	296.82
902.576	251.1
902.75	252.84
902.924	313.87
903.098	273.38
903.272	274.73
903.446	303.02
903.619	305.54
903.793	279.77
903.967	288.3
904.14	321.62
904.314	296.82
904.488	322.01
904.661	322.2
904.835	302.25
905.009	327.05
905.182	343.71
905.356	320.07
905.529	291.59
905.703	297.6
905.876	272.02
906.05	266.98
906.223	255.94
906.397	207.7
906.57	240.63
906.744	219.9
906.917	232.11
907.09	213.51
907.264	266.79
907.437	219.9
907.61	188.9
907.784	223
907.957	220.48
908.13	208.28
908.304	247.42
908.477	213.51
908.65	206.34
908.823	189.68
908.996	280.16
909.17	183.09
909.343	197.62
909.516	239.67
909.689	196.27
909.862	220.1
910.035	219.32
910.208	197.43
910.381	194.33
910.554	306.31
910.727	215.64
910.9	215.25
911.073	200.14
911.246	244.12
911.419	241.02
911.592	226.49
911.765	179.02
911.938	166.04
912.11	224.55
912.283	196.65
912.456	268.73
912.629	214.48
912.802	181.93
912.974	190.84
913.147	166.62
913.32	144.54
913.493	183.87
913.665	182.32
913.838	212.35
914.01	177.67
914.183	165.85
914.356	139.11
914.528	203.63
914.701	233.85
914.873	244.7
915.046	184.06
915.218	149.19
915.391	136.98
915.563	145.5
915.736	189.87
915.908	229.2
916.081	158.49
916.253	177.28
916.425	165.65
916.598	181.15
916.77	152.09
916.942	162.75
917.115	137.95
917.287	193.55
917.459	195.3
917.632	147.05
917.804	111.4
917.976	166.62
918.148	163.72
918.32	167.59
918.493	185.61
918.665	210.41
918.837	157.71
919.009	213.12
919.181	209.05
919.353	201.88
919.525	167.2
919.697	196.27
919.869	186
920.041	235.98
920.213	277.25
920.385	196.46
920.557	157.13
920.729	201.88
920.901	218.55
921.073	185.8
921.244	186.97
921.416	229.78
921.588	190.45
921.76	169.14
921.932	269.5
922.103	195.49
922.275	172.24
922.447	200.33
922.619	125.16
922.79	177.28
922.962	162.75
923.134	197.82
923.305	155
923.477	167.59
923.648	148.6
923.82	184.45
923.991	155.19
924.163	106.75
924.335	136.01
924.506	145.7
924.677	199.75
924.849	138.14
925.02	154.22
925.192	171.85
925.363	171.08
925.535	158.68
925.706	155.77
925.877	218.74
926.049	141.63
926.22	163.91
926.391	153.45
926.562	183.09
926.734	127.29
926.905	199.56
927.076	104.62
927.247	167.79
927.419	128.45
927.59	112.57
927.761	123.42
927.932	120.32
928.103	137.37
928.274	79.82
928.445	109.85
928.616	86.8
928.787	119.93
928.958	153.64
929.129	138.14
929.3	143.76
929.471	75.17
929.642	62.19
929.813	-0.97
929.984	94.74
930.155	45.34
930.326	100.94
930.496	69.36
930.667	43.21
930.838	58.51
931.009	21.7
931.18	73.62
931.35	66.26
931.521	56.96
931.692	33.91
931.863	16.47
932.033	67.42
932.204	80.02
932.374	67.04
932.545	43.01
932.716	87.77
932.886	65.87
933.057	8.91
933.227	38.36
933.398	112.95
933.568	12.4
933.739	11.24
933.909	-3.87
934.08	78.47
934.25	-22.47
934.421	-6.97
934.591	16.66
934.761	-13.76
934.932	-29.06
935.102	-1.74
935.272	-7.94
935.443	2.71
935.613	15.89
935.783	25.38
935.953	-13.37
936.123	139.5
936.294	-35.07
936.464	-5.62
936.634	9.88
936.804	-18.79
936.974	-22.86
937.144	10.46
937.314	22.67
937.484	-2.91
937.655	-29.45
937.825	62
937.995	-25.38
938.165	48.63
938.334	3.87
938.504	13.56
938.674	7.94
938.844	-5.04
939.014	8.33
939.184	12.59
939.354	68.97
939.524	41.66
939.694	9.3
939.863	16.47
940.033	76.53
940.203	74.59
940.373	43.4
940.542	75.37
940.712	22.47
940.882	39.91
941.051	55.22
941.221	61.61
941.391	52.51
941.56	31
941.73	-19.57
941.899	144.92
942.069	4.46
942.238	55.8
942.408	12.59
942.577	62.58
942.747	17.44
942.916	-16.86
943.086	22.67
943.255	33.91
943.425	43.01
943.594	1.94
943.763	-25.38
943.933	-9.3
944.102	-48.44
944.271	11.82
944.441	15.89
944.61	26.93
944.779	9.49
944.948	87.38
945.117	-20.92
945.287	6.97
945.456	-24.8
945.625	6.97
945.794	29.06
945.963	-17.05
946.132	31
946.301	12.59
946.47	43.98
946.639	-33.52
946.808	16.47
946.977	41.46
947.146	60.45
947.315	-17.82
947.484	46.69
947.653	0.97
947.822	5.62
947.991	-24.99
948.16	69.56
948.329	47.27
948.498	-1.74
948.666	4.65
948.835	57.35
949.004	-24.41
949.173	-23.64
949.341	37.01
949.51	27.32
949.679	57.16
949.847	45.53
950.016	101.91
950.185	73.62
950.353	-2.32
950.522	18.79
950.69	31
950.859	3.1
951.028	58.9
951.196	18.99
951.365	8.91
951.533	33.32
951.701	52.89
951.87	55.61
952.038	-3.49
952.207	43.21
952.375	84.86
952.543	18.02
952.712	31.39
952.88	24.22
953.048	75.17
953.217	24.8
953.385	22.09
953.553	71.88
953.721	-8.52
953.89	25.19
954.058	-9.3
954.226	18.99
954.394	45.53
954.562	-21.51
954.73	44.95
954.898	3.68
955.067	49.41
955.235	9.88
955.403	49.99
955.571	63.55
955.739	27.71
955.907	14.14
956.075	2.71
956.243	-5.04
956.41	32.94
956.578	-24.02
956.746	-16.66
956.914	22.28
957.082	40.69
957.25	33.32
957.418	-28.48
957.585	24.99
957.753	59.29
957.921	-6.39
958.089	16.66
958.256	43.4
958.424	57.93
958.592	29.26
958.759	-4.07
958.927	45.34
959.095	-1.16
959.262	56.19
959.43	8.72
959.597	-21.31
959.765	33.91
959.932	-14.72
960.1	34.49
960.267	31.19
960.435	-0.97
960.602	80.21
960.77	34.68
960.937	-24.99
961.104	11.82
961.272	-3.87
961.439	14.14
961.606	43.59
961.774	70.91
961.941	4.84
962.108	41.66
962.275	35.65
962.443	62.39
962.61	41.85
962.777	97.65
962.944	55.8
963.111	18.99
963.278	49.79
963.446	40.3
963.613	23.25
963.78	32.74
963.947	52.12
964.114	24.41
964.281	96.68
964.448	67.23
964.615	33.13
964.782	55.8
964.949	55.41
965.116	44.76
965.282	67.23
965.449	35.46
965.616	3.29
965.783	50.18
965.95	44.37
966.117	24.8
966.283	45.34
966.45	47.47
966.617	59.87
966.784	81.96
966.95	39.52
967.117	31.58
967.284	-2.52
967.45	21.12
967.617	77.89
967.784	51.34
967.95	74.21
968.117	9.49
968.283	48.44
968.45	128.26
968.616	37.2
968.783	59.87
968.949	37.97
969.116	63.55
969.282	6.01
969.449	41.66
969.615	50.57
969.781	7.36
969.948	36.81
970.114	5.62
970.28	92.61
970.447	6.59
970.613	93.77
970.779	40.88
970.945	47.08
971.112	25.57
971.278	8.52
971.444	39.72
971.61	77.69
971.776	20.92
971.942	51.15
972.108	79.44
972.275	46.11
972.441	54.64
972.607	98.62
972.773	8.72
972.939	55.99
973.105	58.9
973.271	18.6
973.437	22.47
973.602	5.04
973.768	68.01
973.934	18.79
974.1	40.88
974.266	-31
974.432	48.44
974.598	23.25
974.763	66.07
974.929	2.32
975.095	84.67
975.261	21.7
975.426	6.78
975.592	46.5
975.758	96.87
975.923	-17.24
976.089	-3.68
976.255	79.44
976.42	43.01
976.586	52.31
976.751	48.44
976.917	125.16
977.082	51.15
977.248	-1.74
977.413	-11.62
977.579	9.3
977.744	49.99
977.91	10.46
978.075	18.21
978.24	50.76
978.406	20.92
978.571	8.72
978.736	-19.37
978.902	54.25
979.067	-6.2
979.232	-15.11
979.397	78.86
979.563	84.67
979.728	10.07
979.893	40.88
980.058	-13.17
980.223	84.47
980.388	66.46
980.554	22.28
980.719	7.56
980.884	46.89
981.049	56.38
981.214	27.32
981.379	41.46
981.544	-1.36
981.709	29.26
981.874	35.46
982.039	38.56
982.204	72.85
982.368	47.86
982.533	-2.13
982.698	62.39
982.863	86.99
983.028	0.39
983.193	39.14
983.357	28.09
983.522	31.58
983.687	1.94
983.852	30.03
984.016	22.67
984.181	33.32
984.346	42.62
984.51	52.31
984.675	29.26
984.839	66.84
985.004	45.14
985.168	45.92
985.333	29.64
985.498	30.61
985.662	61.81
985.827	27.51
985.991	31.19
986.155	13.37
986.32	54.83
986.484	64.13
986.649	24.8
986.813	-9.49
986.977	40.11
987.142	40.69
987.306	-11.82
987.47	19.96
987.634	21.89
987.799	46.69
987.963	64.71
988.127	48.05
988.291	104.24
988.455	41.85
988.62	32.16
988.784	60.26
988.948	44.37
989.112	21.31
989.276	42.82
989.44	16.66
989.604	17.05
989.768	-6.01
989.932	103.07
990.096	-7.17
990.26	-29.84
990.424	0.97
990.588	41.66
990.752	82.34
990.915	53.67
991.079	25.38
991.243	7.75
991.407	52.12
991.571	55.02
991.734	47.66
991.898	53.47
992.062	120.32
992.226	27.32
992.389	6.2
992.553	-12.01
992.717	26.16
992.88	30.81
993.044	15.11
993.207	35.07
993.371	54.83
993.535	37.78
993.698	24.02
993.862	43.79
994.025	51.15
994.189	37.39
994.352	41.85
994.515	23.44
994.679	65.68
994.842	33.71
995.006	68.78
995.169	13.56
995.332	8.72
995.496	65.49
995.659	-6.59
995.822	22.47
995.985	23.83
996.149	89.9
996.312	53.28
996.475	50.76
996.638	14.92
996.801	69.94
996.964	89.7
997.128	24.8
997.291	21.31
997.454	30.22
997.617	-17.44
997.78	48.05
997.943	26.16
998.106	40.3
998.269	1.74
998.432	6.01
998.595	18.02
998.758	-25.19
998.92	12.01
999.083	-34.1
999.246	56.77
999.409	6.59
999.572	-27.51
999.735	10.27
999.897	25.57
1000.06	-6.2
1000.223	14.72
1000.386	34.29
1000.548	36.81
1000.711	31.39
1000.874	11.62
1001.036	-36.04
1001.199	64.13
1001.361	-2.52
1001.524	42.24
1001.687	47.08
1001.849	8.14
1002.012	42.43
1002.174	37.2
1002.337	44.95
1002.499	24.41
1002.661	48.82
1002.824	-3.87
1002.986	-11.04
1003.149	18.02
1003.311	-11.04
1003.473	75.76
1003.636	-5.23
1003.798	13.95
1003.96	27.51
1004.123	28.09
1004.285	2.91
1004.447	28.29
1004.609	11.82
1004.771	74.4
1004.933	-31.77
1005.096	-9.88
1005.258	-24.99
1005.42	-2.32
1005.582	67.04
1005.744	28.29
1005.906	-13.37
1006.068	37.2
1006.23	-21.89
1006.392	-50.57
1006.554	14.34
1006.716	38.75
1006.878	27.12
1007.04	-33.13
1007.202	25.77
1007.363	17.05
1007.525	33.32
1007.687	35.07
1007.849	37.97
1008.011	-13.76
1008.172	-18.02
1008.334	26.74
1008.496	38.94
1008.658	-19.18
1008.819	-9.69
1008.981	-22.28
1009.143	5.04
1009.304	-7.75
1009.466	46.11
1009.627	54.44
1009.789	100.75
1009.95	18.41
1010.112	-14.53
1010.273	31
1010.435	18.6
1010.596	-5.04
1010.758	6.59
1010.919	-7.56
1011.081	-25.96
1011.242	2.13
1011.403	14.14
1011.565	-12.01
1011.726	33.52
1011.887	-6.78
1012.049	-10.66
1012.21	39.72
1012.371	64.52
1012.532	-43.98
1012.693	11.24
1012.855	-10.27
1013.016	11.62
1013.177	56.57
1013.338	-1.36
1013.499	50.76
1013.66	38.56
1013.821	24.61
1013.982	27.12
1014.143	19.37
1014.304	-13.76
1014.465	17.82
1014.626	54.06
1014.787	18.21
1014.948	66.07
1015.109	-62.97
1015.27	55.99
1015.431	-10.66
1015.592	5.04
1015.752	51.34
1015.913	0.19
1016.074	31.97
1016.235	31.77
1016.395	13.37
1016.556	12.4
1016.717	-3.68
1016.877	61.03
1017.038	0.58
1017.199	34.49
1017.359	12.21
1017.52	15.69
1017.681	-6.97
1017.841	24.99
1018.002	-2.91
1018.162	-30.22
1018.323	50.76
1018.483	21.7
1018.644	-2.91
1018.804	-15.5
1018.964	-30.81
1019.125	-13.17
1019.285	16.47
1019.446	-19.18
1019.606	-6.59
1019.766	-44.95
1019.926	23.83
1020.087	-3.1
1020.247	12.4
1020.407	27.71
1020.567	66.65
1020.728	4.65
1020.888	-52.89
1021.048	-8.72
1021.208	-22.67
1021.368	-34.68
1021.528	63.74
1021.688	33.52
1021.848	48.05
1022.008	17.05
1022.168	7.36
1022.328	19.18
1022.488	32.55
1022.648	-27.9
1022.808	25.57
1022.968	24.22
1023.128	-23.44
1023.288	3.87
1023.448	6.01
1023.608	28.09
1023.767	15.31
1023.927	-20.34
1024.087	-17.63
1024.247	-42.43
1024.406	-22.28
1024.566	-6.2
1024.726	-38.36
1024.885	29.26
1025.045	4.46
1025.205	9.49
1025.364	-6.97
1025.524	31.39
1025.683	-7.36
1025.843	46.5
1026.003	-8.33
1026.162	52.51
1026.321	44.17
1026.481	16.27
1026.64	3.1
1026.8	21.89
1026.959	7.17
1027.119	2.91
1027.278	-1.94
1027.437	-30.03
1027.597	13.76
1027.756	9.88
1027.915	30.42
1028.074	29.84
1028.234	-44.56
1028.393	20.73
1028.552	-7.75
1028.711	-43.79
1028.87	36.81
1029.03	-31.77
1029.189	-4.26
1029.348	-49.79
1029.507	-4.65
1029.666	12.01
1029.825	-26.16
1029.984	-22.47
1030.143	12.4
1030.302	-22.86
1030.461	-51.15
1030.62	20.54
1030.779	17.82
1030.938	-14.92
1031.097	-51.34
1031.255	32.55
1031.414	67.23
1031.573	42.62
1031.732	-53.86
1031.891	-1.36
1032.049	44.37
1032.208	16.08
1032.367	-15.11
1032.525	-3.29
1032.684	-2.13
1032.843	24.8
1033.001	-35.84
1033.16	111.02
1033.319	56.38
1033.477	10.66
1033.636	4.46
1033.794	-40.69
1033.953	29.26
1034.111	12.98
1034.27	-16.47
1034.428	12.4
1034.587	-31.77
1034.745	2.52
1034.903	-19.96
1035.062	16.27
1035.22	-33.91
1035.378	20.73
1035.537	-37.97
1035.695	21.7
1035.853	-11.24
1036.011	2.52
1036.17	28.48
1036.328	-53.67
1036.486	15.69
1036.644	-7.94
1036.802	-59.29
1036.96	-16.08
1037.119	10.66
1037.277	-10.07
1037.435	-38.56
1037.593	-5.23
1037.751	-4.26
1037.909	36.42
1038.067	36.42
