Data from oakcork_FLMT105791__241__17-33-12-055.txt Node

Date: Mon Mar 20 17:33:12 GMT 2023
User: antho
Spectrometer: FLMT10579
Trigger mode: 0
Integration Time (sec): 1.000000E-1
Scans to average: 10
Electric dark correction enabled: true
Nonlinearity correction enabled: false
Boxcar width: 0
XAxis mode: Wavelengths
Number of Pixels in Spectrum: 3648
>>>>>Begin Spectral Data<<<<<
345.248	-158.15
345.464	-158.15
345.681	-158.15
345.898	-155.63
346.114	-158.15
346.331	-40.93
346.548	37.54
346.764	-2.37
346.981	-17.1
347.197	-5.67
347.414	25.33
347.631	-18.84
347.847	48.19
348.064	0.73
348.28	29.59
348.497	-44.8
348.713	-11.67
348.93	33.86
349.146	3.05
349.363	-19.04
349.579	17.97
349.796	-0.44
350.012	0.53
350.229	3.44
350.445	15.26
350.661	-12.06
350.878	3.83
351.094	16.42
351.311	23.01
351.527	25.14
351.743	-13.03
351.96	41.61
352.176	48.19
352.392	50.13
352.609	26.69
352.825	-42.87
353.041	8.09
353.257	-6.25
353.474	-0.44
353.69	17.39
353.906	-7.6
354.122	-38.02
354.339	45.68
354.555	-5.47
354.771	6.73
354.987	15.65
355.203	77.26
355.42	-13.8
355.636	21.26
355.852	0.34
356.068	3.63
356.284	-8.57
356.5	63.11
356.716	18.94
356.932	3.63
357.148	37.54
357.364	16.03
357.58	47.23
357.796	54.01
358.012	57.69
358.228	21.84
358.444	-58.17
358.66	54.39
358.876	47.61
359.092	-31.05
359.308	18.36
359.524	43.54
359.74	-5.67
359.956	-13.03
360.172	-12.06
360.388	50.91
360.604	-6.83
360.819	87.14
361.035	13.13
361.251	35.6
361.467	5.57
361.683	34.24
361.898	46.06
362.114	47.42
362.33	23.01
362.546	43.54
362.762	32.31
362.977	4.02
363.193	-9.15
363.409	57.88
363.624	-20
363.84	14.68
364.056	3.83
364.271	26.49
364.487	26.88
364.703	5.38
364.918	-19.62
365.134	11.19
365.35	-3.54
365.565	94.11
365.781	11.77
365.996	28.43
366.212	79.97
366.427	38.12
366.643	12.35
366.858	9.25
367.074	-21.75
367.289	83.46
367.505	124.72
367.72	-7.8
367.936	16.61
368.151	35.99
368.367	56.14
368.582	26.49
368.798	10.22
369.013	67.38
369.228	29.98
369.444	41.03
369.659	68.93
369.874	47.42
370.09	81.71
370.305	-18.45
370.52	-3.73
370.736	67.57
370.951	61.37
371.166	75.9
371.381	74.54
371.597	57.88
371.812	-7.99
372.027	11.77
372.242	13.9
372.458	96.05
372.673	23.01
372.888	21.65
373.103	39.48
373.318	97.41
373.533	66.02
373.749	32.89
373.964	-22.91
374.179	67.96
374.394	21.26
374.609	91.79
374.824	-19.81
375.039	64.47
375.254	23.2
375.469	83.84
375.684	34.44
375.899	74.16
376.114	29.4
376.329	55.75
376.544	72.61
376.759	51.88
376.974	13.71
377.189	51.68
377.404	34.44
377.619	45.68
377.834	-41.12
378.049	-5.86
378.264	-2.57
378.478	57.3
378.693	7.51
378.908	57.69
379.123	39.86
379.338	92.95
379.553	52.84
379.767	38.12
379.982	71.64
380.197	58.66
380.412	38.89
380.626	69.12
380.841	125.31
381.056	54.2
381.271	101.09
381.485	17
381.7	33.86
381.915	56.91
382.129	13.13
382.344	50.52
382.559	61.37
382.773	72.03
382.988	-7.99
383.202	72.8
383.417	25.33
383.632	110.97
383.846	50.33
384.061	37.73
384.275	36.96
384.49	53.62
384.704	68.93
384.919	55.75
385.133	62.73
385.348	56.72
385.562	23.59
385.777	77.64
385.991	42.77
386.206	36.57
386.42	6.73
386.634	80.94
386.849	55.75
387.063	63.89
387.277	18.75
387.492	32.89
387.706	13.9
387.92	-11.87
388.135	74.93
388.349	58.08
388.563	59.24
388.778	70.48
388.992	68.15
389.206	65.63
389.42	124.14
389.635	64.08
389.849	86.56
390.063	116.01
390.277	69.31
390.491	95.47
390.706	59.63
390.92	94.69
391.134	54.98
391.348	91.98
391.562	30.76
391.776	71.06
391.99	77.64
392.205	89.85
392.419	36.38
392.633	37.54
392.847	107.87
393.061	29.79
393.275	95.08
393.489	48.97
393.703	43.74
393.917	89.27
394.131	47.81
394.345	69.51
394.559	87.91
394.773	49.94
394.986	103.22
395.2	61.18
395.414	109.03
395.628	53.62
395.842	81.52
396.056	77.64
396.27	47.23
396.484	85.01
396.697	89.85
396.911	119.49
397.125	75.71
397.339	100.12
397.553	83.84
397.766	118.91
397.98	114.46
398.194	126.66
398.408	114.65
398.621	96.05
398.835	136.35
399.049	119.49
399.262	176.46
399.476	143.13
399.69	137.12
399.903	196.8
400.117	128.02
400.331	122.4
400.544	105.93
400.758	225.09
400.971	142.36
401.185	138.67
401.398	83.84
401.612	147.01
401.826	168.12
402.039	146.23
402.253	120.07
402.466	172.58
402.68	142.16
402.893	150.11
403.106	149.14
403.32	122.98
403.533	123.56
403.747	133.44
403.96	141.19
404.174	155.14
404.387	107.87
404.6	145.84
404.814	175.1
405.027	159.21
405.24	130.73
405.454	160.18
405.667	157.47
405.88	90.04
406.094	124.14
406.307	183.62
406.52	166.19
406.733	117.75
406.947	98.57
407.16	161.34
407.373	179.56
407.586	107.48
407.799	106.32
408.012	189.63
408.226	152.82
408.439	189.63
408.652	118.91
408.865	140.03
409.078	194.09
409.291	149.91
409.504	137.32
409.717	170.26
409.93	180.52
410.143	159.79
410.357	123.76
410.57	103.03
410.783	150.69
410.996	176.07
411.209	181.88
411.421	182.66
411.634	157.47
411.847	157.86
412.06	183.43
412.273	161.54
412.486	154.56
412.699	241.36
412.912	163.09
413.125	195.25
413.338	164.06
413.55	187.11
413.763	171.03
413.976	178.97
414.189	155.72
414.402	159.02
414.615	239.42
414.827	165.8
415.04	223.54
415.253	206.1
415.466	213.27
415.678	230.12
415.891	160.57
416.104	172.97
416.316	177.04
416.529	144.1
416.742	213.46
416.954	214.04
417.167	174.52
417.38	186.92
417.592	196.8
417.805	167.35
418.017	126.08
418.23	208.04
418.442	161.34
418.655	185.76
418.868	180.91
419.08	237.1
419.293	215.01
419.505	185.56
419.718	193.12
419.93	224.7
420.142	169.87
420.355	230.51
420.567	257.44
420.78	227.8
420.992	194.09
421.205	256.67
421.417	179.94
421.629	167.93
421.842	175.29
422.054	172.19
422.266	193.51
422.479	250.85
422.691	200.67
422.903	240.2
423.115	179.56
423.328	193.31
423.54	228.57
423.752	222.95
423.964	203.19
424.177	209.97
424.389	211.72
424.601	347.15
424.813	219.08
425.025	236.52
425.238	215.59
425.45	191.96
425.662	184.01
425.874	487.03
426.086	219.47
426.298	250.08
426.51	233.22
426.722	220.05
426.934	230.9
427.146	252.99
427.358	220.63
427.57	261.7
427.782	220.05
427.994	216.56
428.206	220.44
428.418	189.05
428.63	233.03
428.842	237.87
429.054	234.77
429.266	260.54
429.478	194.67
429.69	252.6
429.902	170.64
430.114	229.74
430.325	245.43
430.537	171.03
430.749	203.39
430.961	144.68
431.173	164.25
431.384	205.13
431.596	141.19
431.808	213.85
432.02	240
432.231	272.17
432.443	259.96
432.655	262.09
432.867	244.65
433.078	263.84
433.29	292.7
433.502	295.22
433.713	291.35
433.925	243.69
434.136	295.03
434.348	238.26
434.56	211.52
434.771	349.67
434.983	213.65
435.194	254.15
435.406	260.74
435.617	281.27
435.829	325.64
436.04	307.82
436.252	298.71
436.463	340.56
436.675	323.9
436.886	319.25
437.098	330.48
437.309	342.5
437.521	325.83
437.732	294.83
437.943	314.98
438.155	303.55
438.366	245.62
438.578	341.14
438.789	298.13
439	337.07
439.211	280.89
439.423	310.33
439.634	320.22
439.845	339.78
440.057	320.22
440.268	329.52
440.479	281.85
440.69	307.04
440.902	303.36
441.113	298.52
441.324	318.67
441.535	328.93
441.746	361.87
441.957	311.11
442.168	309.56
442.38	334.36
442.591	378.15
442.802	294.25
443.013	330.87
443.224	358.97
443.435	332.81
443.646	322.35
443.857	345.4
444.068	333.78
444.279	340.75
444.49	378.53
444.701	392.68
444.912	439.37
445.123	388.03
445.334	376.21
445.545	350.83
445.756	339.01
445.967	324.67
446.178	351.8
446.388	400.43
446.599	388.8
446.81	392.48
447.021	332.03
447.232	384.35
447.443	429.49
447.653	358.38
447.864	400.81
448.075	415.54
448.286	373.88
448.496	405.66
448.707	425.23
448.918	355.09
449.129	455.84
449.339	387.06
449.55	398.1
449.761	388.41
449.971	422.9
450.182	399.65
450.393	411.28
450.603	395.58
450.814	425.61
451.024	427.94
451.235	436.85
451.446	433.56
451.656	478.31
451.867	401.2
452.077	429.88
452.288	469.98
452.498	475.99
452.709	420
452.919	432.4
453.13	395.78
453.34	445.96
453.55	369.43
453.761	454.29
453.971	454.29
454.182	444.41
454.392	426.97
454.602	465.14
454.813	468.04
455.023	444.8
455.233	366.72
455.444	443.25
455.654	361.87
455.864	432.59
456.075	405.85
456.285	424.26
456.495	406.82
456.705	424.84
456.916	472.89
457.126	498.66
457.336	444.6
457.546	384.73
457.756	437.43
457.967	468.82
458.177	429.1
458.387	443.63
458.597	415.93
458.807	436.46
459.017	441.11
459.227	413.8
459.437	452.93
459.647	469.21
459.857	504.86
460.068	436.27
460.278	503.31
460.488	476.57
460.698	505.05
460.908	461.84
461.117	431.04
461.327	439.37
461.537	477.54
461.747	495.94
461.957	500.21
462.167	586.81
462.377	500.59
462.587	484.13
462.797	532.95
463.007	476.96
463.216	542.25
463.426	523.46
463.636	522.88
463.846	436.85
464.056	477.15
464.265	546.51
464.475	435.5
464.685	497.49
464.895	521.52
465.104	481.61
465.314	535.28
465.524	481.99
465.733	464.75
465.943	572.47
466.153	591.85
466.362	544.19
466.572	552.52
466.782	507.18
466.991	518.81
467.201	553.87
467.41	476.18
467.62	516.87
467.829	533.53
468.039	544.58
468.249	542.25
468.458	503.69
468.668	562.4
468.877	570.34
469.086	584.49
469.296	587.2
469.505	558.14
469.715	600.57
469.924	563.95
470.134	592.04
470.343	592.62
470.552	533.92
470.762	551.94
470.971	533.14
471.18	549.61
471.39	554.65
471.599	532.18
471.808	587.2
472.018	530.43
472.227	628.86
472.436	623.24
472.645	562.01
472.855	567.82
473.064	637.77
473.273	639.32
473.482	631.37
473.691	652.3
473.901	655.98
474.11	586.04
474.319	696.86
474.528	623.82
474.737	689.5
474.946	692.21
475.155	672.06
475.364	687.95
475.573	651.52
475.783	679.04
475.992	698.22
476.201	698.8
476.41	662.95
476.619	633.7
476.828	686.01
477.037	662.18
477.245	671.67
477.454	692.6
477.663	683.3
477.872	680.97
478.081	758.67
478.29	669.74
478.499	789.28
478.708	735.8
478.917	787.34
479.125	702.09
479.334	747.04
479.543	764.48
479.752	739.87
479.961	746.27
480.169	774.55
480.378	750.92
480.587	862.32
480.796	820.28
481.004	779.78
481.213	787.15
481.422	795.48
481.63	814.85
481.839	841.2
482.048	858.25
482.256	812.72
482.465	816.4
482.674	822.8
482.882	852.44
483.091	887.9
483.299	847.4
483.508	872.4
483.716	845.08
483.925	889.25
484.134	844.69
484.342	835.97
484.551	857.86
484.759	878.01
484.967	894.48
485.176	896.03
485.384	894.29
485.593	927.81
485.801	859.41
486.01	836.55
486.218	856.9
486.426	736.38
486.635	779.98
486.843	767.38
487.051	796.25
487.26	816.98
487.468	837.91
487.676	872.4
487.885	830.16
488.093	903.39
488.301	913.47
488.509	889.64
488.717	925.87
488.926	920.44
489.134	890.03
489.342	936.53
489.55	901.65
489.758	941.76
489.967	945.05
490.175	1013.25
490.383	939.43
490.591	1035.34
490.799	942.34
491.007	1013.06
491.215	990
491.423	976.44
491.631	978.57
491.839	1011.89
492.047	998.52
492.255	942.14
492.463	912.5
492.671	923.74
492.879	1031.07
493.087	991.74
493.295	996.97
493.503	1030.3
493.711	1023.32
493.919	1066.14
494.127	1070.79
494.334	1070.02
494.542	1017.12
494.75	1055.1
494.958	1036.11
495.166	1113.22
495.374	1100.44
495.581	1097.72
495.789	1066.72
495.997	1150.42
496.205	1071.76
496.412	1060.72
496.62	1067.5
496.828	1054.32
497.035	1077.77
497.243	1115.16
497.451	1107.22
497.658	1099.08
497.866	1079.9
498.074	1134.54
498.281	1085.9
498.489	1147.52
498.696	1095.98
498.904	1052.19
499.112	1061.49
499.319	1139.38
499.527	1097.92
499.734	1115.94
499.942	1067.11
500.149	1090.75
500.357	1108.19
500.564	1059.75
500.771	1099.27
500.979	1088.23
501.186	1049.67
501.394	1095.4
501.601	1091.52
501.808	1083.39
502.016	1082.42
502.223	1041.92
502.43	1096.17
502.638	1064.21
502.845	1056.65
503.052	1137.44
503.26	1091.72
503.467	1203.9
503.674	1155.85
503.881	1122.14
504.089	1201.57
504.296	1133.57
504.503	1091.33
504.71	1107.99
504.917	1096.56
505.125	1143.45
505.332	1130.27
505.539	1169.99
505.746	1219.01
505.953	1189.95
506.16	1211.45
506.367	1211.65
506.574	1220.75
506.781	1229.47
506.988	1203.51
507.195	1211.65
507.402	1189.17
507.609	1208.74
507.816	1168.63
508.023	1171.35
508.23	1163.79
508.437	1145.97
508.644	1185.68
508.851	1243.23
509.058	1235.09
509.265	1227.34
509.472	1225.4
509.679	1295.54
509.885	1245.16
510.092	1200.99
510.299	1210.48
510.506	1228.31
510.713	1233.73
510.92	1232.18
511.126	1243.23
511.333	1277.71
511.54	1266.28
511.746	1310.65
511.953	1294.18
512.16	1288.95
512.367	1290.31
512.573	1265.12
512.78	1273.26
512.987	1260.66
513.193	1247.3
513.4	1167.86
513.606	1210.87
513.813	1305.23
514.02	1281.4
514.226	1329.45
514.433	1309.68
514.639	1218.23
514.846	1256.4
515.052	1233.54
515.259	1246.33
515.465	1278.3
515.672	1278.88
515.878	1368
516.085	1310.07
516.291	1305.42
516.497	1256.79
516.704	1269.19
516.91	1177.35
517.117	1157.4
517.323	1144.8
517.529	1160.3
517.736	1168.25
517.942	1182.97
518.148	1175.03
518.354	1219.59
518.561	1222.11
518.767	1221.72
518.973	1291.28
519.179	1277.52
519.386	1252.53
519.592	1266.86
519.798	1281.98
520.004	1355.21
520.21	1302.71
520.417	1343.01
520.623	1398.03
520.829	1402.88
521.035	1370.52
521.241	1375.75
521.447	1365.68
521.653	1500.52
521.859	1403.84
522.065	1427.09
522.271	1490.64
522.477	1455.19
522.683	1492.97
522.889	1446.27
523.095	1445.69
523.301	1436.2
523.507	1399.19
523.713	1448.02
523.919	1386.21
524.125	1474.76
524.331	1444.34
524.537	1555.74
524.742	1514.86
524.948	1546.25
525.154	1513.31
525.36	1593.52
525.566	1516.99
525.772	1607.47
525.977	1487.93
526.183	1529.2
526.389	1584.22
526.595	1471.07
526.8	1466.81
527.006	1416.44
527.212	1399.58
527.417	1413.73
527.623	1388.15
527.829	1474.95
528.034	1499.75
528.24	1490.64
528.446	1502.66
528.651	1562.72
528.857	1595.07
529.062	1630.72
529.268	1607.86
529.473	1628.98
529.679	1593.91
529.884	1652.23
530.09	1654.75
530.295	1649.52
530.501	1652.03
530.706	1623.75
530.912	1589.84
531.117	1636.15
531.323	1656.49
531.528	1687.1
531.733	1695.82
531.939	1639.83
532.144	1702.99
532.35	1660.95
532.555	1694.85
532.76	1650.1
532.966	1688.85
533.171	1666.76
533.376	1616
533.581	1582.29
533.787	1635.76
533.992	1672.57
534.197	1673.54
534.402	1666.76
534.607	1679.55
534.813	1780.68
535.018	1640.02
535.223	1716.55
535.428	1721.98
535.633	1773.13
535.838	1753.17
536.043	1732.44
536.249	1843.26
536.454	1735.15
536.659	1737.86
536.864	1723.91
537.069	1701.44
537.274	1779.52
537.479	1770.41
537.684	1753.17
537.889	1751.43
538.094	1851.79
538.299	1773.13
538.504	1834.35
538.708	1816.72
538.913	1818.85
539.118	1769.64
539.323	1801.61
539.528	1766.54
539.733	1766.73
539.938	1783.39
540.142	1792.69
540.347	1765.57
540.552	1738.64
540.757	1757.63
540.962	1761.31
541.166	1730.89
541.371	1691.75
541.576	1752.98
541.781	1681.87
541.985	1763.44
542.19	1800.06
542.395	1853.14
542.599	1882.79
542.804	1832.22
543.008	1844.04
543.213	1828.73
543.418	1746.78
543.622	1831.25
543.827	1758.4
544.031	1871.16
544.236	1857.79
544.44	1854.5
544.645	1938.78
544.849	1826.6
545.054	1881.82
545.258	1952.34
545.463	1891.31
545.667	1824.28
545.872	1883.95
546.076	1888.41
546.281	1879.88
546.485	1837.84
546.689	1909.72
546.894	1931.22
547.098	1877.75
547.302	1850.63
547.507	1883.37
547.711	1899.64
547.915	1934.52
548.119	1816.91
548.324	1848.88
548.528	1915.72
548.732	1860.51
548.936	1903.71
549.141	1915.53
549.345	1877.56
549.549	1926.38
549.753	1897.51
549.957	1973.07
550.161	1931.81
550.366	1909.72
550.57	1857.02
550.774	1872.91
550.978	1928.9
551.182	1926.57
551.386	1908.17
551.59	1882.01
551.794	1897.71
551.998	1948.47
552.202	1875.62
552.406	1881.04
552.61	1945.75
552.814	1934.71
553.018	1946.14
553.222	1879.49
553.426	1887.24
553.63	1955.44
553.833	1911.85
554.037	1845.39
554.241	1908.94
554.445	1935.68
554.649	1910.69
554.853	1867.87
555.056	1969
555.26	1949.44
555.464	1932.19
555.668	1945.75
555.871	1948.66
556.075	1974.24
556.279	1916.69
556.483	1905.26
556.686	1879.49
556.89	1890.92
557.094	1931.61
557.297	1839.58
557.501	1946.34
557.704	1815.75
557.908	1877.17
558.112	1870.77
558.315	1944.59
558.519	1895.19
558.722	1823.5
558.926	1839.58
559.129	1784.94
559.333	1742.51
559.536	1783.2
559.74	1762.66
559.943	1765.38
560.147	1779.71
560.35	1775.45
560.553	1788.43
560.757	1741.35
560.96	1876.97
561.164	1786.88
561.367	1840.74
561.57	1803.74
561.774	1856.82
561.977	1786.69
562.18	1818.08
562.384	1882.4
562.587	1778.16
562.79	1801.22
562.993	1784.56
563.197	1829.31
563.4	1871.16
563.603	1829.12
563.806	1868.06
564.009	1807.03
564.212	1784.17
564.416	1756.08
564.619	1783.59
564.822	1708.03
565.025	1835.71
565.228	1790.95
565.431	1813.81
565.634	1658.43
565.837	1746.58
566.04	1704.93
566.243	1687.3
566.446	1611.73
566.649	1752.2
566.852	1674.32
567.055	1700.66
567.258	1701.25
567.461	1749.3
567.664	1750.65
567.867	1644.28
568.07	1681.29
568.273	1675.87
568.475	1727.21
568.678	1658.04
568.881	1649.13
569.084	1671.8
569.287	1550.9
569.489	1639.63
569.692	1628.59
569.895	1659.2
570.098	1595.07
570.3	1601.27
570.503	1554.58
570.706	1526.87
570.909	1559.23
571.111	1479.02
571.314	1499.75
571.516	1538.5
571.719	1535.79
571.922	1533.07
572.124	1563.88
572.327	1559.62
572.529	1524.94
572.732	1535.59
572.935	1589.07
573.137	1582.48
573.34	1530.17
573.542	1621.23
573.745	1550.51
573.947	1585
574.15	1531.91
574.352	1508.66
574.554	1574.73
574.757	1513.31
574.959	1463.52
575.162	1486.38
575.364	1479.6
575.566	1560
575.769	1488.71
575.971	1483.09
576.173	1432.71
576.376	1514.28
576.578	1513.31
576.78	1531.14
576.982	1436.01
577.185	1448.02
577.387	1410.43
577.589	1467.2
577.791	1466.23
577.993	1477.08
578.196	1448.21
578.398	1457.12
578.6	1489.29
578.802	1389.89
579.004	1423.02
579.206	1419.34
579.408	1454.8
579.61	1437.56
579.812	1505.76
580.014	1431.36
580.216	1401.52
580.418	1450.73
580.62	1430
580.822	1401.91
581.024	1428.64
581.226	1483.67
581.428	1443.76
581.63	1521.84
581.832	1433.87
582.034	1509.44
582.236	1496.46
582.438	1484.83
582.64	1518.15
582.841	1528.81
583.043	1567.17
583.245	1487.35
583.447	1487.54
583.649	1484.64
583.85	1483.09
584.052	1487.74
584.254	1448.02
584.456	1523.77
584.657	1440.66
584.859	1497.23
585.061	1440.46
585.262	1449.57
585.464	1411.59
585.666	1496.26
585.867	1450.34
586.069	1508.27
586.27	1476.11
586.472	1469.52
586.674	1426.12
586.875	1444.72
587.077	1429.61
587.278	1460.61
587.48	1437.36
587.681	1496.26
587.883	1482.31
588.084	1375.17
588.285	1394.93
588.487	1397.06
588.688	1421.09
588.89	1350.76
589.091	1308.33
589.292	1307.36
589.494	1289.15
589.695	1257.76
589.896	1196.92
590.098	1218.62
590.299	1277.13
590.5	1258.34
590.702	1260.08
590.903	1288.56
591.104	1353.47
591.305	1335.64
591.507	1330.61
591.708	1354.24
591.909	1297.67
592.11	1387.96
592.311	1374.01
592.512	1273.06
592.714	1326.93
592.915	1339.52
593.116	1289.73
593.317	1327.51
593.518	1335.26
593.719	1343.98
593.92	1372.07
594.121	1368.78
594.322	1301.93
594.523	1340.68
594.724	1269.77
594.925	1322.28
595.126	1313.56
595.327	1339.33
595.528	1306.39
595.729	1316.66
595.929	1287.01
596.13	1324.41
596.331	1344.17
596.532	1319.37
596.733	1404.62
596.934	1366.84
597.135	1380.79
597.335	1363.93
597.536	1318.6
597.737	1361.41
597.938	1310.07
598.138	1344.94
598.339	1331.77
598.54	1352.5
598.74	1331.19
598.941	1358.51
599.142	1350.18
599.342	1368.78
599.543	1324.41
599.744	1342.43
599.944	1352.31
600.145	1339.13
600.345	1366.64
600.546	1399
600.746	1404.23
600.947	1413.34
601.147	1368.19
601.348	1385.83
601.548	1301.35
601.749	1345.33
601.949	1275
602.15	1308.91
602.35	1322.08
602.551	1339.91
602.751	1302.51
602.951	1321.89
603.152	1245.55
603.352	1337.97
603.552	1335.26
603.753	1375.17
603.953	1350.76
604.153	1327.9
604.354	1350.18
604.554	1314.33
604.754	1355.99
604.954	1296.31
605.155	1336.81
605.355	1304.06
605.555	1364.13
605.755	1385.44
605.955	1324.8
606.155	1353.08
606.356	1331.38
606.556	1354.05
606.756	1353.08
606.956	1302.9
607.156	1398.23
607.356	1279.65
607.556	1369.55
607.756	1344.36
607.956	1385.44
608.156	1332.35
608.356	1299.61
608.556	1331.38
608.756	1335.84
608.956	1275.58
609.156	1292.83
609.356	1320.53
609.556	1286.05
609.755	1291.86
609.955	1274.42
610.155	1316.85
610.355	1329.25
610.555	1257.56
610.755	1261.05
610.954	1221.92
611.154	1275.2
611.354	1323.05
611.554	1281.78
611.753	1232.38
611.953	1248.85
612.153	1302.32
612.352	1289.15
612.552	1231.41
612.752	1206.8
612.951	1250.98
613.151	1262.41
613.351	1239.16
613.55	1225.4
613.75	1271.51
613.949	1273.26
614.149	1258.34
614.348	1250.4
614.548	1200.99
614.747	1173.87
614.947	1206.42
615.146	1215.52
615.346	1248.85
615.545	1244.78
615.745	1250.4
615.944	1294.38
616.144	1209.52
616.343	1273.84
616.542	1210.87
616.742	1218.04
616.941	1215.13
617.14	1157.59
617.34	1218.43
617.539	1203.51
617.738	1171.54
617.938	1252.72
618.137	1194.4
618.336	1174.45
618.535	1201.96
618.734	1213.39
618.934	1212.23
619.133	1200.02
619.332	1245.55
619.531	1192.47
619.73	1174.64
619.929	1229.08
620.128	1236.06
620.328	1272.29
620.527	1175.61
620.726	1184.72
620.925	1229.28
621.124	1213.2
621.323	1216.88
621.522	1134.34
621.721	1163.98
621.92	1132.6
622.119	1237.61
622.318	1184.33
622.517	1176.19
622.715	1170.38
622.914	1107.02
623.113	1167.47
623.312	1146.35
623.511	1200.41
623.71	1162.05
623.909	1096.17
624.107	1199.44
624.306	1104.5
624.505	1119.62
624.704	1118.26
624.902	1112.45
625.101	1190.14
625.3	1151.59
625.499	1081.45
625.697	1124.46
625.896	1105.47
626.095	1152.36
626.293	1054.52
626.492	1090.55
626.69	1140.54
626.889	1101.02
627.088	1159.53
627.286	1087.84
627.485	1112.64
627.683	1086.1
627.882	1086.49
628.08	1027.2
628.279	1044.06
628.477	1107.6
628.676	1043.28
628.874	1103.34
629.073	1045.61
629.271	994.84
629.469	1103.15
629.668	1073.7
629.866	1044.25
630.065	1062.27
630.263	1101.6
630.461	1036.5
630.66	1048.71
630.858	1082.42
631.056	1113.42
631.254	1089.59
631.453	1038.05
631.651	1103.54
631.849	1076.41
632.047	1062.27
632.245	1052.19
632.444	1084.74
632.642	1105.28
632.84	1111.09
633.038	1094.43
633.236	1074.09
633.434	1057.04
633.632	1072.54
633.83	1072.73
634.028	1101.79
634.227	1062.27
634.425	1161.85
634.623	1080.29
634.821	1077.19
635.019	1098.5
635.216	1073.5
635.414	1136.67
635.612	1114.19
635.81	1074.67
636.008	1137.83
636.206	1107.02
636.404	1087.84
636.602	1059.56
636.8	1105.28
636.997	1130.66
637.195	1117.1
637.393	1136.47
637.591	1135.89
637.789	1108.38
637.986	1083.19
638.184	1097.14
638.382	1131.24
638.58	1157.2
638.777	1173.67
638.975	1109.93
639.173	1109.15
639.37	1128.14
639.568	1078.93
639.765	1156.04
639.963	1073.12
640.161	1136.47
640.358	1107.02
640.556	1062.66
640.753	1054.71
640.951	1038.82
641.148	1061.49
641.346	1061.88
641.543	1066.92
641.741	1074.28
641.938	1042.12
642.136	1082.8
642.333	1032.43
642.531	1119.81
642.728	1125.62
642.925	1076.8
643.123	1049.48
643.32	1079.51
643.517	1067.5
643.715	1053.36
643.912	1046.19
644.109	1059.36
644.306	1043.47
644.504	1023.91
644.701	1030.49
644.898	1099.27
645.095	1020.61
645.293	1051.61
645.49	1045.41
645.687	1049.87
645.884	1073.89
646.081	1000.46
646.278	1012.09
646.475	1007.82
646.672	1026.04
646.87	1037.08
647.067	1035.92
647.264	994.84
647.461	948.73
647.658	973.34
647.855	998.14
648.052	970.24
648.249	913.66
648.446	983.02
648.642	947.18
648.839	955.32
649.036	926.64
649.233	883.44
649.43	932.84
649.627	927.42
649.824	921.8
650.021	932.46
650.217	935.94
650.414	962.1
650.611	985.93
650.808	985.93
651.004	963.65
651.201	978.57
651.398	1022.74
651.595	978.18
651.791	944.28
651.988	1003.37
652.185	956.48
652.381	970.04
652.578	907.46
652.775	953.58
652.971	947.57
653.168	943.31
653.364	982.44
653.561	916.57
653.757	949.7
653.954	970.63
654.15	933.81
654.347	985.74
654.543	965.98
654.74	886.54
654.936	909.4
655.133	917.54
655.329	953.96
655.525	909.01
655.722	919.48
655.918	879.76
656.115	938.66
656.311	824.15
656.507	817.18
656.704	791.8
656.9	834.81
657.096	825.12
657.292	795.87
657.489	888.28
657.685	885.18
657.881	847.79
658.077	858.45
658.273	882.47
658.47	965.01
658.666	871.43
658.862	931.1
659.058	876.46
659.254	943.5
659.45	888.48
659.646	933.43
659.842	888.86
660.038	945.83
660.234	889.06
660.43	903.78
660.626	1001.24
660.822	964.62
661.018	946.6
661.214	924.71
661.41	877.82
661.606	927.03
661.802	955.51
661.998	928.78
662.194	877.63
662.39	938.08
662.586	940.4
662.781	981.67
662.977	953.38
663.173	960.36
663.369	956.87
663.564	938.85
663.76	964.43
663.956	921.41
664.152	946.21
664.347	885.38
664.543	924.71
664.739	916.57
664.934	892.35
665.13	890.41
665.326	933.23
665.521	928.19
665.717	875.3
665.912	885.96
666.108	844.11
666.304	891
666.499	877.05
666.695	835.39
666.89	894.29
667.086	910.76
667.281	894.87
667.477	930.13
667.672	898.94
667.867	903.78
668.063	935.17
668.258	872.78
668.454	877.63
668.649	953.96
668.844	905.33
669.04	909.21
669.235	869.49
669.43	882.47
669.626	872.98
669.821	856.12
670.016	838.1
670.211	889.25
670.407	843.53
670.602	893.71
670.797	855.15
670.992	930.91
671.187	863.1
671.382	900.49
671.578	841.01
671.773	892.93
671.968	809.23
672.163	878.79
672.358	872.98
672.553	846.82
672.748	852.63
672.943	927.03
673.138	853.21
673.333	896.42
673.528	852.44
673.723	872.98
673.918	865.42
674.113	827.83
674.308	911.53
674.503	896.61
674.698	872.01
674.892	866.58
675.087	852.44
675.282	879.37
675.477	821.44
675.672	884.21
675.867	843.91
676.061	815.24
676.256	798.77
676.451	849.92
676.646	859.22
676.84	820.28
677.035	812.33
677.23	820.47
677.424	879.37
677.619	896.61
677.814	878.6
678.008	852.44
678.203	791.6
678.397	835.58
678.592	842.56
678.787	896.03
678.981	833.45
679.176	847.79
679.37	843.14
679.565	850.11
679.759	850.31
679.954	851.28
680.148	901.84
680.342	879.56
680.537	881.31
680.731	830.93
680.926	861.55
681.12	849.53
681.314	805.17
681.509	811.36
681.703	834.81
681.897	869.3
682.092	840.81
682.286	803.81
682.48	886.54
682.674	845.46
682.869	842.95
683.063	818.92
683.257	892.93
683.451	832.1
683.645	805.36
683.839	820.28
684.034	816.98
684.228	846.24
684.422	791.8
684.616	799.16
684.81	844.88
685.004	819.11
685.198	816.98
685.392	879.18
685.586	788.7
685.78	806.52
685.974	841.2
686.168	828.22
686.362	847.79
686.556	736.19
686.75	700.35
686.944	681.17
687.138	716.43
687.331	614.32
687.525	659.27
687.719	570.73
687.913	631.18
688.107	617.81
688.301	611.42
688.494	653.85
688.688	620.52
688.882	582.36
689.076	614.32
689.269	627.11
689.463	696.67
689.657	620.52
689.85	649.2
690.044	656.37
690.238	680
690.431	636.99
690.625	665.86
690.818	687.75
691.012	691.63
691.205	714.88
691.399	671.09
691.593	695.89
691.786	758.47
691.98	735.03
692.173	804.2
692.366	759.83
692.56	760.99
692.753	796.06
692.947	736.19
693.14	819.89
693.333	762.54
693.527	745.49
693.72	770.29
693.914	747.82
694.107	762.15
694.3	767.58
694.493	741.81
694.687	809.23
694.88	766.61
695.073	846.63
695.266	826.86
695.46	795.28
695.653	837.71
695.846	862.13
696.039	756.15
696.232	831.51
696.425	854.96
696.618	866.97
696.812	851.66
697.005	936.53
697.198	976.05
697.391	906.3
697.584	963.84
697.777	1000.85
697.97	971.79
698.163	965.59
698.356	949.31
698.549	1041.15
698.742	983.22
698.935	963.84
699.127	994.07
699.32	920.06
699.513	959.58
699.706	991.16
699.899	1039.21
700.092	975.28
700.285	997.36
700.477	962.49
700.67	1019.26
700.863	1019.84
701.056	1095.79
701.248	1096.37
701.441	1089.78
701.634	1039.99
701.826	1163.02
702.019	1030.3
702.212	1137.64
702.404	1044.83
702.597	1094.24
702.79	1089.97
702.982	1136.28
703.175	1154.1
703.367	1171.15
703.56	1174.06
703.752	1226.76
703.945	1217.27
704.137	1225.4
704.33	1231.6
704.522	1255.05
704.715	1264.73
704.907	1278.88
705.1	1336.42
705.292	1287.21
705.484	1311.62
705.677	1314.14
705.869	1315.5
706.061	1402.68
706.254	1380.01
706.446	1337.97
706.638	1364.32
706.831	1423.99
707.023	1391.83
707.215	1476.31
707.407	1452.47
707.599	1471.85
707.792	1485.41
707.984	1521.84
708.176	1525.13
708.368	1489.67
708.56	1564.85
708.752	1522.22
708.944	1528.04
709.136	1574.34
709.329	1560.39
709.521	1622
709.713	1619.48
709.905	1624.13
710.097	1648.35
710.289	1625.49
710.481	1621.62
710.672	1661.53
710.864	1712.29
711.056	1741.55
711.248	1731.66
711.44	1696.01
711.632	1736.12
711.824	1762.47
712.016	1801.99
712.207	1790.56
712.399	1804.32
712.591	1890.15
712.783	1840.94
712.975	1824.08
713.166	1795.21
713.358	1828.73
713.55	1926.38
713.741	1911.27
713.933	1895.77
714.125	1911.27
714.316	1880.85
714.508	1944.2
714.7	1978.69
714.891	1948.27
715.083	1987.41
715.274	1980.24
715.466	2010.27
715.657	2004.07
715.849	1964.55
716.04	1993.42
716.232	1951.18
716.423	1957.77
716.615	1892.47
716.806	1851.98
716.998	1806.45
717.189	1780.49
717.381	1730.5
717.572	1696.6
717.763	1682.06
717.955	1684.58
718.146	1663.85
718.337	1590.62
718.528	1585.39
718.72	1499.94
718.911	1587.13
719.102	1573.57
719.293	1590.42
719.485	1556.13
719.676	1560.39
719.867	1511.95
720.058	1542.37
720.249	1557.49
720.44	1551.67
720.632	1640.8
720.823	1663.66
721.014	1789.01
721.205	1832.22
721.396	1906.04
721.587	1991.87
721.778	2013.57
721.969	2056.38
722.16	2128.26
722.351	2109.67
722.542	2223.01
722.733	2263.31
722.924	2164.88
723.115	2235.41
723.305	2203.05
723.496	2263.5
723.687	2093.2
723.878	2111.41
724.069	2129.81
724.26	2148.03
724.45	2057.74
724.641	2057.35
724.832	2071.11
725.023	2092.03
725.213	2092.23
725.404	2035.07
725.595	2026.74
725.785	2044.18
725.976	2111.41
726.167	2099.01
726.357	2131.17
726.548	2250.52
726.739	2158.68
726.929	2226.69
727.12	2251.49
727.31	2248.19
727.501	2255.36
727.691	2248.78
727.882	2246.26
728.072	2302.25
728.263	2318.72
728.453	2321.62
728.644	2331.7
728.834	2315.23
729.024	2299.15
729.215	2296.82
729.405	2338.09
729.596	2402.42
729.786	2421.21
729.976	2448.92
730.167	2457.83
730.357	2426.64
730.547	2451.82
730.737	2462.87
730.928	2529.13
731.118	2558.38
731.308	2530.87
731.498	2520.99
731.688	2612.05
731.879	2620.19
732.069	2670.95
732.259	2770.92
732.449	2733.92
732.639	2837.38
732.829	2867.41
733.019	2868.19
733.209	2957.7
733.399	2971.65
733.589	3068.13
733.779	3096.61
733.969	3080.92
734.159	3210.34
734.349	3214.22
734.539	3272.34
734.729	3238.05
734.919	3300.63
735.109	3331.82
735.299	3276.6
735.488	3335.31
735.678	3313.8
735.868	3315.16
736.058	3352.75
736.248	3320
736.437	3270.02
736.627	3257.81
736.817	3415.52
737.007	3332.4
737.196	3363.6
737.386	3390.72
737.576	3373.48
737.765	3440.13
737.955	3382.2
738.144	3528.09
738.334	3459.5
738.524	3420.56
738.713	3469.19
738.903	3488.37
739.092	3544.75
739.282	3532.54
739.471	3574.78
739.661	3508.91
739.85	3573.62
740.04	3578.66
740.229	3585.44
740.419	3617.21
740.608	3638.33
740.797	3625.74
740.987	3729.78
741.176	3686.96
741.365	3663.32
741.555	3652.47
741.744	3707.89
741.933	3674.37
742.123	3709.82
742.312	3735.01
742.501	3793.13
742.69	3783.06
742.88	3731.91
743.069	3840.22
743.258	3809.6
743.447	3838.67
743.636	3827.23
743.825	3766.98
744.014	3806.31
744.204	3848.93
744.393	3787.13
744.582	3917.71
744.771	3960.92
744.96	3860.17
745.149	3900.28
745.338	3863.85
745.527	3917.13
745.716	3870.83
745.905	3846.61
746.094	3973.13
746.283	3949.3
746.471	3914.03
746.66	3988.63
746.849	3917.52
747.038	3962.08
747.227	3961.89
747.416	3954.53
747.604	3908.03
747.793	3982.04
747.982	3932.63
748.171	3976.23
748.359	3960.92
748.548	3968.67
748.737	3948.33
748.926	3937.28
749.114	3804.95
749.303	3931.47
749.491	3928.95
749.68	3864.05
749.869	3931.47
750.057	3923.91
750.246	3891.36
750.434	3902.6
750.623	3914.81
750.811	3885.36
751	3942.71
751.188	3841.96
751.377	3894.66
751.565	3893.3
751.754	3850.68
751.942	3819.48
752.131	3935.54
752.319	3831.5
752.507	3852.62
752.696	3898.15
752.884	3902.8
753.072	3836.15
753.261	3866.56
753.449	3860.37
753.637	3804.95
753.825	3930.11
754.014	3850.1
754.202	3852.81
754.39	3894.08
754.578	3953.75
754.766	3834.79
754.955	3791.78
755.143	3906.09
755.331	3860.56
755.519	3774.92
755.707	3864.24
755.895	3794.1
756.083	3862.5
756.271	3761.75
756.459	3822
756.647	3871.99
756.835	3786.35
757.023	3778.41
757.211	3780.54
757.399	3747.6
757.587	3718.54
757.775	3715.83
757.963	3719.51
758.151	3720.87
758.339	3689.09
758.526	3674.17
758.714	3659.26
758.902	3573.62
759.09	3451.36
759.278	3226.23
759.465	2967.97
759.653	2583.57
759.841	2324.53
760.028	2016.28
760.216	1730.89
760.404	1631.5
760.591	1312.78
760.779	1134.34
760.967	971.98
761.154	800.32
761.342	854.38
761.529	864.06
761.717	903.39
761.905	909.4
762.092	955.71
762.28	885.76
762.467	886.93
762.655	804
762.842	858.25
763.029	834.61
763.217	883.83
763.404	874.33
763.592	885.76
763.779	851.08
763.966	894.29
764.154	929.16
764.341	1030.49
764.528	1018.87
764.716	1081.25
764.903	1174.25
765.09	1208.93
765.277	1279.26
765.465	1462.55
765.652	1495.87
765.839	1574.73
766.026	1772.74
766.213	1758.21
766.4	1923.67
766.588	2117.61
766.775	2130.59
766.962	2261.37
767.149	2329.57
767.336	2495.8
767.523	2467.71
767.71	2627.94
767.897	2714.93
768.084	2817.23
768.271	2864.7
768.458	2897.64
768.645	2982.3
768.832	2998.58
769.019	3057.67
769.206	3019.5
769.392	3137.88
769.579	3227.39
769.766	3185.74
769.953	3117.93
770.14	3253.16
770.327	3265.37
770.513	3257.42
770.7	3354.49
770.887	3291.33
771.073	3323.69
771.26	3316.9
771.447	3283.77
771.634	3277.19
771.82	3385.88
772.007	3284.16
772.193	3291.33
772.38	3348.29
772.567	3295.79
772.753	3308.77
772.94	3374.06
773.126	3368.05
773.313	3359.53
773.499	3330.27
773.686	3327.75
773.872	3330.47
774.059	3363.6
774.245	3334.92
774.432	3273.31
774.618	3240.57
774.804	3302.37
774.991	3218.87
775.177	3291.33
775.363	3278.54
775.55	3316.71
775.736	3209.18
775.922	3237.08
776.109	3297.14
776.295	3311.67
776.481	3320.78
776.667	3304.89
776.853	3232.82
777.04	3221.77
777.226	3228.75
777.412	3322.72
777.598	3169.66
777.784	3235.92
777.97	3181.67
778.156	3216.54
778.342	3209.37
778.528	3171.79
778.715	3159.78
778.901	3139.82
779.087	3179.92
779.272	3139.04
779.458	3157.45
779.644	3143.11
779.83	3153.38
780.016	3228.56
780.202	3140.01
780.388	3134.59
780.574	3077.05
780.76	3113.47
780.946	3130.71
781.131	3128.39
781.317	3125.68
781.503	3051.86
781.689	3088.09
781.874	3188.06
782.06	3080.53
782.246	3081.69
782.432	3094.29
782.617	3107.85
782.803	3108.63
782.989	3028.41
783.174	3048.37
783.36	2994.31
783.545	3004.39
783.731	2984.82
783.916	2912.36
784.102	2955.95
784.288	2957.7
784.473	2975.72
784.659	2937.55
784.844	3006.33
785.029	2931.35
785.215	2918.37
785.4	2954.4
785.586	2995.86
785.771	2887.95
785.956	2967.77
786.142	2898.8
786.327	2905.58
786.512	2874
786.698	2885.43
786.883	2823.82
787.068	2865.86
787.254	2895.12
787.439	2823.62
787.624	2814.32
787.809	2848.04
787.994	2812.97
788.18	2851.52
788.365	2774.02
788.55	2763.37
788.735	2794.37
788.92	2759.11
789.105	2764.53
789.29	2790.88
789.475	2686.45
789.66	2735.47
789.845	2669.21
790.03	2683.54
790.215	2691.29
790.4	2729.66
790.585	2720.94
790.77	2739.34
790.955	2588.41
791.14	2686.06
791.325	2733.72
791.51	2642.47
791.695	2656.61
791.879	2634.72
792.064	2618.06
792.249	2696.91
792.434	2657.39
792.618	2663.98
792.803	2709.89
792.988	2704.86
793.173	2678.7
793.357	2680.25
793.542	2611.86
793.727	2637.63
793.911	2701.18
794.096	2660.68
794.281	2704.28
794.465	2786.04
794.65	2656.03
794.834	2693.43
795.019	2751.36
795.203	2738.37
795.388	2765.69
795.572	2719.58
795.757	2722.88
795.941	2731.59
796.126	2712.8
796.31	2648.09
796.494	2702.53
796.679	2695.17
796.863	2656.81
797.048	2739.73
797.232	2696.14
797.416	2741.28
797.601	2713.19
797.785	2758.14
797.969	2715.51
798.153	2670.18
798.338	2738.37
798.522	2734.11
798.706	2781
798.89	2780.61
799.074	2866.83
799.258	2804.06
799.443	2757.94
799.627	2753.49
799.811	2794.17
799.995	2768.21
800.179	2681.61
800.363	2703.89
800.547	2755.42
800.731	2784.29
800.915	2655.64
801.099	2698.85
801.283	2683.16
801.467	2710.86
801.651	2726.17
801.835	2751.55
802.019	2682.38
802.202	2727.14
802.386	2672.11
802.57	2644.21
802.754	2670.56
802.938	2622.13
803.121	2633.17
803.305	2726.56
803.489	2696.72
803.673	2749.42
803.856	2698.27
804.04	2677.34
804.224	2737.02
804.407	2709.7
804.591	2650.41
804.775	2698.46
804.958	2729.27
805.142	2783.32
805.326	2717.84
805.509	2727.33
805.693	2733.53
805.876	2747.87
806.06	2736.24
806.243	2735.86
806.427	2773.64
806.61	2795.92
806.794	2699.24
806.977	2755.42
807.16	2733.92
807.344	2765.69
807.527	2706.02
807.71	2704.66
807.894	2688.78
808.077	2765.5
808.26	2706.6
808.444	2683.16
808.627	2743.22
808.81	2671.92
808.993	2600.23
809.177	2636.85
809.36	2637.24
809.543	2637.24
809.726	2546.37
809.909	2566.13
810.092	2535.72
810.276	2555.09
810.459	2534.75
810.642	2544.24
810.825	2495.22
811.008	2525.25
811.191	2429.93
811.374	2461.9
811.557	2432.06
811.74	2498.71
811.923	2389.82
812.106	2342.55
812.289	2350.49
812.472	2378.59
812.654	2335.57
812.837	2283.65
813.02	2247.81
813.203	2257.3
813.386	2133.69
813.569	2099.59
813.751	2051.93
813.934	2112.77
814.117	2026.16
814.3	1960.87
814.482	1954.09
814.665	1907.59
814.848	1893.44
815.03	1849.27
815.213	1823.89
815.396	1833.19
815.578	1789.98
815.761	1736.12
815.943	1797.93
816.126	1735.93
816.309	1693.5
816.491	1624.72
816.674	1569.69
816.856	1622.2
817.039	1638.08
817.221	1683.61
817.403	1666.18
817.586	1653.97
817.768	1685.94
817.951	1596.43
818.133	1559.81
818.315	1607.28
818.498	1669.47
818.68	1717.33
818.862	1680.9
819.045	1711.71
819.227	1706.09
819.409	1630.33
819.591	1706.48
819.774	1692.33
819.956	1638.67
820.138	1728.76
820.32	1723.14
820.502	1786.3
820.684	1857.99
820.866	1878.52
821.048	1894.99
821.231	1921.92
821.413	1927.16
821.595	1894.41
821.777	1902.55
821.959	1883.95
822.141	1960.67
822.323	1787.08
822.505	1700.47
822.686	1694.66
822.868	1609.99
823.05	1477.47
823.232	1487.93
823.414	1440.85
823.596	1500.91
823.778	1449.76
823.96	1548.96
824.141	1521.84
824.323	1543.92
824.505	1637.5
824.687	1658.23
824.868	1727.01
825.05	1848.88
825.232	1838.61
825.413	1913.98
825.595	1835.32
825.777	1807.23
825.958	1845.78
826.14	1823.5
826.321	1857.21
826.503	1853.14
826.685	1866.32
826.866	1858.37
827.048	1857.41
827.229	1816.33
827.411	1761.7
827.592	1726.43
827.773	1721.01
827.955	1639.44
828.136	1688.65
828.318	1634.4
828.499	1670.25
828.68	1601.08
828.862	1675.28
829.043	1661.33
829.224	1657.46
829.406	1638.08
829.587	1648.74
829.768	1655.33
829.949	1681.68
830.131	1658.23
830.312	1708.8
830.493	1635.95
830.674	1691.56
830.855	1664.63
831.036	1635.57
831.218	1734.76
831.399	1747.75
831.58	1671.6
831.761	1700.28
831.942	1722.17
832.123	1682.65
832.304	1614.45
832.485	1645.45
832.666	1650.29
832.847	1697.76
833.028	1675.87
833.209	1640.8
833.389	1657.27
833.57	1586.94
833.751	1617.55
833.932	1674.9
834.113	1674.12
834.294	1622.39
834.475	1700.66
834.655	1711.13
834.836	1723.53
835.017	1704.15
835.198	1679.16
835.378	1696.6
835.559	1723.53
835.74	1698.34
835.92	1696.4
836.101	1695.05
836.281	1720.23
836.462	1699.11
836.643	1756.66
836.823	1728.95
837.004	1762.47
837.184	1798.89
837.365	1756.27
837.545	1783.39
837.726	1751.43
837.906	1795.02
838.087	1755.3
838.267	1760.53
838.448	1735.73
838.628	1725.66
838.808	1739.41
838.989	1809.55
839.169	1733.8
839.349	1790.76
839.53	1804.51
839.71	1767.51
839.89	1730.7
840.07	1789.59
840.251	1734.57
840.431	1793.28
840.611	1799.09
840.791	1730.7
840.971	1756.66
841.151	1711.13
841.332	1700.08
841.512	1803.74
841.692	1687.3
841.872	1764.21
842.052	1702.8
842.232	1756.66
842.412	1681.29
842.592	1738.06
842.772	1721.78
842.952	1764.8
843.132	1715.78
843.312	1707.06
843.492	1680.52
843.672	1725.08
843.851	1678.58
844.031	1701.63
844.211	1676.64
844.391	1657.85
844.571	1719.85
844.751	1695.24
844.93	1714.42
845.11	1661.53
845.29	1733.99
845.47	1758.98
845.649	1718.68
845.829	1748.13
846.009	1674.12
846.188	1751.43
846.368	1702.99
846.547	1666.57
846.727	1742.13
846.907	1647
847.086	1660.17
847.266	1718.1
847.445	1687.68
847.625	1668.5
847.804	1651.65
847.984	1682.26
848.163	1631.3
848.343	1648.16
848.522	1636.34
848.701	1684
848.881	1637.12
849.06	1640.8
849.239	1656.88
849.419	1666.95
849.598	1572.99
849.777	1567.95
849.957	1561.55
850.136	1510.6
850.315	1492.77
850.494	1536.56
850.674	1516.6
850.853	1549.74
851.032	1526.87
851.211	1614.64
851.39	1523.19
851.569	1501.3
851.748	1482.7
851.927	1543.34
852.107	1520.09
852.286	1497.23
852.465	1505.17
852.644	1542.18
852.823	1548.96
853.002	1531.52
853.181	1514.67
853.359	1549.93
853.538	1467.78
853.717	1537.34
853.896	1436.39
854.075	1364.71
854.254	1341.07
854.433	1301.74
854.611	1312.2
854.79	1269.77
854.969	1334.87
855.148	1368.58
855.327	1354.83
855.505	1374.01
855.684	1346.69
855.863	1399.19
856.041	1383.11
856.22	1460.22
856.399	1354.83
856.577	1487.54
856.756	1483.86
856.934	1550.7
857.113	1544.5
857.291	1436.97
857.47	1435.42
857.648	1475.72
857.827	1461.19
858.005	1508.08
858.184	1446.27
858.362	1496.26
858.541	1476.5
858.719	1459.64
858.898	1446.27
859.076	1461.77
859.254	1501.3
859.433	1440.27
859.611	1446.66
859.789	1410.63
859.967	1468.75
860.146	1471.66
860.324	1439.3
860.502	1448.6
860.68	1372.07
860.859	1397.84
861.037	1396.09
861.215	1417.79
861.393	1406.75
861.571	1409.08
861.749	1419.15
861.927	1395.51
862.105	1403.07
862.283	1372.26
862.461	1390.48
862.639	1359.86
862.817	1378.27
862.995	1378.27
863.173	1385.83
863.351	1367.23
863.529	1372.84
863.707	1428.26
863.885	1405.59
864.063	1350.95
864.241	1328.67
864.418	1405.78
864.596	1353.47
864.774	1300.77
864.952	1342.04
865.129	1380.59
865.307	1290.7
865.485	1277.33
865.663	1342.43
865.84	1270.55
866.018	1283.91
866.196	1150.42
866.373	1181.42
866.551	1144.03
866.728	1109.54
866.906	1155.65
867.084	1196.53
867.261	1230.44
867.439	1224.43
867.616	1262.6
867.794	1215.52
867.971	1264.54
868.149	1283.33
868.326	1287.79
868.503	1285.85
868.681	1262.8
868.858	1221.92
869.035	1207.38
869.213	1256.98
869.39	1269.77
869.567	1306.78
869.745	1241.87
869.922	1221.72
870.099	1263.76
870.276	1256.98
870.454	1258.53
870.631	1271.51
870.808	1244
870.985	1257.18
871.162	1278.68
871.339	1278.49
871.517	1221.92
871.694	1178.13
871.871	1218.82
872.048	1226.57
872.225	1190.92
872.402	1246.13
872.579	1201.96
872.756	1246.52
872.933	1178.52
873.11	1224.43
873.287	1197.5
873.463	1185.88
873.64	1170.96
873.817	1207.38
873.994	1174.45
874.171	1152.75
874.348	1168.63
874.524	1167.47
874.701	1199.83
874.878	1099.85
875.055	1176.19
875.231	1154.69
875.408	1172.9
875.585	1092.88
875.762	1143.06
875.938	1147.32
876.115	1132.21
876.291	1118.84
876.468	1120.78
876.645	1109.54
876.821	1126.59
876.998	1137.64
877.174	1114.19
877.351	1138.02
877.527	1101.21
877.704	1140.54
877.88	1117.68
878.057	1122.91
878.233	1155.85
878.409	1063.62
878.586	1123.88
878.762	1118.84
878.938	1084.74
879.115	1028.17
879.291	1103.34
879.467	1041.15
879.644	1047.74
879.82	1089.59
879.996	1080.48
880.172	1032.04
880.349	1074.28
880.525	1072.73
880.701	1024.49
880.877	1016.93
881.053	1049.29
881.229	1015.38
881.405	1096.95
881.581	1010.54
881.757	1047.54
881.933	1046.19
882.109	1079.32
882.285	1058.78
882.461	999.11
882.637	1020.42
882.813	999.49
882.989	1048.51
883.165	1095.79
883.341	1021.58
883.517	1087.45
883.693	1068.08
883.869	1069.24
884.044	997.94
884.22	1060.72
884.396	1064.01
884.572	1036.31
884.747	1060.91
884.923	1047.93
885.099	1068.86
885.275	1083.19
885.45	1019.06
885.626	1044.25
885.801	1004.34
885.977	1039.79
886.153	984.96
886.328	1051.81
886.504	1012.86
886.679	1051.22
886.855	1000.27
887.03	1050.26
887.206	1051.22
887.381	1031.27
887.557	1066.14
887.732	1043.86
887.908	1068.66
888.083	1071.76
888.258	1049.48
888.434	998.14
888.609	1030.49
888.784	1079.7
888.96	1040.76
889.135	997.94
889.31	1024.29
889.485	1033.21
889.661	1020.03
889.836	1053.74
890.011	1046.57
890.186	1029.72
890.361	983.61
890.537	1029.52
890.712	1022.55
890.887	1056.84
891.062	1036.5
891.237	1129.11
891.412	1002.4
891.587	1042.7
891.762	1059.94
891.937	1061.49
892.112	990.97
892.287	981.48
892.462	996.39
892.637	975.66
892.812	903.59
892.987	948.15
893.161	919.09
893.336	927.42
893.511	941.95
893.686	927.61
893.861	938.66
894.035	946.6
894.21	939.24
894.385	884.99
894.56	914.63
894.734	879.18
894.909	867.94
895.084	871.81
895.258	821.25
895.433	842.36
895.608	842.17
895.782	775.13
895.957	792.96
896.131	795.28
896.306	728.44
896.48	736.38
896.655	709.84
896.829	653.46
897.004	680.78
897.178	700.74
897.353	659.47
897.527	716.04
897.701	711.39
897.876	683.88
898.05	705.58
898.224	708.49
898.399	720.5
898.573	649.39
898.747	572.67
898.921	651.91
899.096	562.01
899.27	558.72
899.444	554.26
899.618	563.37
899.792	598.44
899.967	612.97
900.141	619.75
900.315	595.53
900.489	579.45
900.663	609.67
900.837	590.3
901.011	535.28
901.185	638.35
901.359	595.53
901.533	617.42
901.707	630.02
901.881	584.68
902.055	558.91
902.229	600.37
902.403	642.8
902.576	581.77
902.75	600.57
902.924	713.14
903.098	630.79
903.272	711.78
903.446	713.52
903.619	722.82
903.793	770.48
903.967	731.73
904.14	750.33
904.314	729.02
904.488	742.39
904.661	780.95
904.835	762.15
905.009	763.32
905.182	796.45
905.356	772.23
905.529	771.26
905.703	703.25
905.876	745.1
906.05	701.51
906.223	685.43
906.397	611.81
906.57	588.75
906.744	571.31
906.917	598.82
907.09	609.09
907.264	588.94
907.437	528.69
907.61	520.16
907.784	550.97
907.957	569.18
908.13	545.93
908.304	568.21
908.477	497.88
908.65	560.07
908.823	507.96
908.996	600.18
909.17	527.33
909.343	516.29
909.516	505.83
909.689	539.34
909.862	489.36
910.035	507.18
910.208	494.01
910.381	480.06
910.554	583.71
910.727	512.41
910.9	513.96
911.073	496.53
911.246	551.36
911.419	577.51
911.592	546.32
911.765	537.6
911.938	488.39
912.11	534.89
912.283	529.66
912.456	564.72
912.629	549.61
912.802	485.48
912.974	432.2
913.147	418.25
913.32	351.22
913.493	431.23
913.665	453.9
913.838	467.08
914.01	456.81
914.183	476.57
914.356	454.68
914.528	468.24
914.701	522.1
914.873	508.73
915.046	446.54
915.218	405.27
915.391	369.04
915.563	372.53
915.736	437.43
915.908	440.34
916.081	456.61
916.253	423.87
916.425	445.57
916.598	475.41
916.77	477.34
916.942	398.68
917.115	374.08
917.287	406.63
917.459	416.51
917.632	368.46
917.804	359.93
917.976	418.25
918.148	413.02
918.32	404.3
918.493	439.18
918.665	478.31
918.837	451.77
919.009	494.59
919.181	525.59
919.353	468.43
919.525	490.91
919.697	488.58
919.869	469.21
920.041	520.36
920.213	588.36
920.385	522.88
920.557	488.58
920.729	525.39
920.901	515.9
921.073	451.19
921.244	486.64
921.416	522.1
921.588	477.15
921.76	462.81
921.932	526.17
922.103	474.44
922.275	486.64
922.447	507.76
922.619	419.41
922.79	472.69
922.962	442.08
923.134	472.69
923.305	426.39
923.477	408.18
923.648	393.26
923.82	431.62
923.991	380.66
924.163	386.48
924.335	412.25
924.506	386.09
924.677	453.32
924.849	406.63
925.02	422.32
925.192	421.55
925.363	424.65
925.535	446.93
925.706	410.11
925.877	468.04
926.049	386.09
926.22	421.74
926.391	375.05
926.562	404.11
926.734	383.38
926.905	436.46
927.076	353.54
927.247	367.49
927.419	354.51
927.59	320.6
927.761	319.63
927.932	312.47
928.103	325.45
928.274	294.83
928.445	260.93
928.616	285.73
928.787	313.24
928.958	302.97
929.129	272.55
929.3	276.43
929.471	235.74
929.642	209.2
929.813	163.09
929.984	226.25
930.155	172
930.326	219.08
930.496	203.77
930.667	162.89
930.838	173.36
931.009	154.95
931.18	140.81
931.35	133.64
931.521	172.97
931.692	113.68
931.863	89.27
932.033	129.37
932.204	120.46
932.374	121.04
932.545	79.97
932.716	120.27
932.886	122.01
933.057	38.31
933.227	97.79
933.398	143.52
933.568	68.34
933.739	10.61
933.909	30.95
934.08	109.03
934.25	-10.9
934.421	50.13
934.591	49.94
934.761	33.66
934.932	-12.06
935.102	45.09
935.272	60.21
935.443	41.41
935.613	7.51
935.783	46.26
935.953	7.9
936.123	166.57
936.294	33.47
936.464	9.83
936.634	45.48
936.804	12.55
936.974	-1.21
937.144	42.38
937.314	39.67
937.484	23.2
937.655	-7.99
937.825	64.28
937.995	15.65
938.165	93.53
938.334	38.12
938.504	56.91
938.674	38.51
938.844	59.43
939.014	134.61
939.184	120.07
939.354	153.79
939.524	107.29
939.694	81.91
939.863	91.59
940.033	140.61
940.203	129.37
940.373	121.04
940.542	134.02
940.712	92.76
940.882	137.9
941.051	99.93
941.221	135.19
941.391	135.19
941.56	91.21
941.73	77.64
941.899	179.36
942.069	54.39
942.238	107.87
942.408	82.49
942.577	100.7
942.747	96.63
942.916	33.08
943.086	52.84
943.255	117.56
943.425	90.04
943.594	52.07
943.763	7.7
943.933	17.58
944.102	13.13
944.271	65.83
944.441	83.46
944.61	38.12
944.779	80.55
944.948	144.68
945.117	28.24
945.287	43.16
945.456	26.11
945.625	40.25
945.794	61.56
945.963	23.98
946.132	100.31
946.301	53.62
946.47	85.59
946.639	-9.93
946.808	62.53
946.977	70.48
947.146	90.63
947.315	62.34
947.484	72.61
947.653	52.26
947.822	34.24
947.991	21.26
948.16	121.62
948.329	109.03
948.498	75.51
948.666	75.9
948.835	91.21
949.004	24.56
949.173	42.96
949.341	66.99
949.51	63.31
949.679	98.96
949.847	65.44
950.016	149.33
950.185	93.34
950.353	65.24
950.522	60.4
950.69	102.64
950.859	45.09
951.028	78.81
951.196	80.36
951.365	52.65
951.533	60.21
951.701	96.24
951.87	79.39
952.038	44.51
952.207	70.48
952.375	109.22
952.543	74.35
952.712	67.18
952.88	44.51
953.048	116.39
953.217	72.8
953.385	83.07
953.553	116.59
953.721	49.55
953.89	62.53
954.058	31.14
954.226	38.12
954.394	77.06
954.562	28.63
954.73	76.87
954.898	64.47
955.067	100.51
955.235	49.94
955.403	114.26
955.571	128.6
955.739	81.52
955.907	49.74
956.075	53.43
956.243	20.49
956.41	84.62
956.578	25.53
956.746	40.06
956.914	34.24
957.082	103.99
957.25	84.23
957.418	49.16
957.585	75.51
957.753	121.82
957.921	52.84
958.089	56.72
958.256	83.46
958.424	86.36
958.592	88.49
958.759	50.91
958.927	107.09
959.095	24.17
959.262	86.94
959.43	78.81
959.597	65.24
959.765	62.73
959.932	12.16
960.1	127.82
960.267	73.19
960.435	53.62
960.602	77.06
960.77	41.61
960.937	37.54
961.104	78.42
961.272	57.11
961.439	61.18
961.606	86.17
961.774	91.59
961.941	77.45
962.108	103.61
962.275	45.68
962.443	108.06
962.61	118.33
962.777	147.97
962.944	94.89
963.111	81.71
963.278	108.84
963.446	105.16
963.613	82.1
963.78	74.54
963.947	99.93
964.114	73.96
964.281	176.65
964.448	94.69
964.615	72.61
964.782	107.48
964.949	139.45
965.116	137.12
965.282	123.17
965.449	101.48
965.616	43.35
965.783	122.79
965.95	66.41
966.117	76.68
966.283	94.5
966.45	85.98
966.617	101.48
966.784	121.82
966.95	135.57
967.117	134.22
967.284	92.56
967.45	79.19
967.617	147.39
967.784	108.45
967.95	166.38
968.117	103.99
968.283	151.66
968.45	214.43
968.616	109.42
968.783	161.34
968.949	128.79
969.116	164.64
969.282	115.04
969.449	118.52
969.615	135.77
969.781	63.89
969.948	98.76
970.114	78.42
970.28	165.02
970.447	106.71
970.613	159.21
970.779	140.81
970.945	157.08
971.112	118.33
971.278	107.68
971.444	115.81
971.61	148.75
971.776	99.15
971.942	179.94
972.108	122.01
972.275	108.45
972.441	116.2
972.607	189.82
972.773	79.58
972.939	122.98
973.105	114.07
973.271	52.07
973.437	76.29
973.602	84.43
973.768	150.3
973.934	85.2
974.1	109.42
974.266	38.12
974.432	90.43
974.598	80.16
974.763	119.88
974.929	89.66
975.095	183.82
975.261	68.34
975.426	68.54
975.592	109.42
975.758	158.82
975.923	46.06
976.089	78.03
976.255	94.89
976.42	134.61
976.586	122.59
976.751	95.47
976.917	179.75
977.082	124.14
977.248	70.67
977.413	50.91
977.579	77.06
977.744	96.63
977.91	66.02
978.075	76.09
978.24	126.86
978.406	111.55
978.571	82.1
978.736	95.47
978.902	115.81
979.067	58.27
979.232	36.76
979.397	86.94
979.563	136.74
979.728	65.83
979.893	89.46
980.058	53.23
980.223	134.8
980.388	103.61
980.554	100.12
980.719	98.38
980.884	90.24
981.049	128.41
981.214	74.54
981.379	118.52
981.544	98.76
981.709	76.09
981.874	103.03
982.039	105.93
982.204	110.97
982.368	90.63
982.533	78.23
982.698	143.13
982.863	144.68
983.028	61.37
983.193	102.83
983.357	99.54
983.522	102.44
983.687	85.01
983.852	49.55
984.016	81.52
984.181	107.29
984.346	97.99
984.51	105.16
984.675	94.89
984.839	119.49
985.004	104.19
985.168	119.11
985.333	87.53
985.498	83.26
985.662	112.13
985.827	89.46
985.991	94.5
986.155	65.24
986.32	125.89
986.484	144.29
986.649	94.31
986.813	41.8
986.977	84.23
987.142	107.29
987.306	61.95
987.47	72.03
987.634	104.58
987.799	107.48
987.963	98.38
988.127	118.14
988.291	161.15
988.455	101.28
988.62	64.86
988.784	108.26
988.948	133.06
989.112	97.6
989.276	130.54
989.44	96.83
989.604	80.94
989.768	91.01
989.932	160.37
990.096	51.68
990.26	65.44
990.424	53.81
990.588	86.36
990.752	145.07
990.915	116.59
991.079	88.49
991.243	71.25
991.407	85.78
991.571	88.3
991.734	131.31
991.898	105.93
992.062	155.14
992.226	74.16
992.389	59.04
992.553	59.24
992.717	69.51
992.88	64.86
993.044	96.24
993.207	110
993.371	114.65
993.535	94.5
993.698	58.27
993.862	127.05
994.025	118.14
994.189	90.82
994.352	91.21
994.515	82.1
994.679	127.24
994.842	61.37
995.006	90.82
995.169	42.38
995.332	55.36
995.496	98.38
995.659	28.04
995.822	96.63
995.985	92.18
996.149	135.77
996.312	108.45
996.475	144.49
996.638	69.12
996.801	126.86
996.964	136.93
997.128	106.32
997.291	59.43
997.454	69.31
997.617	31.34
997.78	113.1
997.943	57.11
998.106	96.44
998.269	45.68
998.432	73.96
998.595	69.51
998.758	41.03
998.92	39.67
999.083	28.43
999.246	45.68
999.409	46.26
999.572	15.84
999.735	60.01
999.897	66.79
1000.06	56.53
1000.223	44.9
1000.386	104.38
1000.548	108.26
1000.711	88.69
1000.874	94.89
1001.036	4.02
1001.199	94.31
1001.361	44.71
1001.524	70.67
1001.687	73.96
1001.849	48.39
1002.012	83.84
1002.174	74.16
1002.337	100.7
1002.499	42.38
1002.661	83.65
1002.824	44.51
1002.986	37.54
1003.149	59.43
1003.311	27.85
1003.473	123.95
1003.636	48
1003.798	82.1
1003.96	80.16
1004.123	60.59
1004.285	39.09
1004.447	59.04
1004.609	48
1004.771	127.24
1004.933	6.35
1005.096	22.81
1005.258	-9.15
1005.42	49.74
1005.582	106.13
1005.744	41.99
1005.906	24.36
1006.068	52.26
1006.23	40.83
1006.392	-13.61
1006.554	50.91
1006.716	69.51
1006.878	88.69
1007.04	-18.65
1007.202	31.92
1007.363	46.06
1007.525	28.24
1007.687	56.33
1007.849	84.43
1008.011	14.48
1008.172	19.52
1008.334	66.79
1008.496	47.23
1008.658	9.25
1008.819	38.31
1008.981	41.8
1009.143	1.89
1009.304	60.4
1009.466	48.97
1009.627	82.49
1009.789	137.12
1009.95	54.2
1010.112	32.31
1010.273	58.46
1010.435	28.63
1010.596	28.82
1010.758	34.83
1010.919	23.98
1011.081	5.38
1011.242	23.59
1011.403	51.1
1011.565	38.12
1011.726	33.28
1011.887	19.52
1012.049	20.3
1012.21	67.96
1012.371	78.03
1012.532	-19.42
1012.693	31.34
1012.855	7.31
1013.016	30.76
1013.177	56.53
1013.338	32.89
1013.499	85.39
1013.66	59.43
1013.821	42.58
1013.982	46.06
1014.143	76.68
1014.304	8.86
1014.465	36.38
1014.626	65.24
1014.787	29.4
1014.948	99.93
1015.109	-4.5
1015.27	69.7
1015.431	7.51
1015.592	24.75
1015.752	99.34
1015.913	40.64
1016.074	59.82
1016.235	31.53
1016.395	48.58
1016.556	42.77
1016.717	28.63
1016.877	77.06
1017.038	30.18
1017.199	42.38
1017.359	28.63
1017.52	62.92
1017.681	31.14
1017.841	30.18
1018.002	30.56
1018.162	51.29
1018.323	70.48
1018.483	16.61
1018.644	10.03
1018.804	-21.36
1018.964	-0.24
1019.125	29.21
1019.285	28.04
1019.446	11.77
1019.606	-3.34
1019.766	-12.45
1019.926	49.36
1020.087	47.61
1020.247	-2.95
1020.407	44.32
1020.567	55.94
1020.728	21.07
1020.888	-7.41
1021.048	26.11
1021.208	1.5
1021.368	-1.21
1021.528	52.46
1021.688	18.55
1021.848	46.06
1022.008	19.71
1022.168	7.9
1022.328	44.51
1022.488	50.52
1022.648	-2.18
1022.808	7.9
1022.968	35.21
1023.128	18.55
1023.288	45.09
1023.448	17
1023.608	38.51
1023.767	48.58
1023.927	4.99
1024.087	5.96
1024.247	-17.87
1024.406	13.71
1024.566	2.66
1024.726	-26.59
1024.885	13.9
1025.045	54.2
1025.205	36.38
1025.364	17
1025.524	46.64
1025.683	-3.73
1025.843	65.05
1026.003	-7.6
1026.162	77.06
1026.321	44.71
1026.481	25.33
1026.64	-12.64
1026.8	19.71
1026.959	26.69
1027.119	24.56
1027.278	3.83
1027.437	-14.39
1027.597	26.3
1027.756	29.59
1027.915	20.68
1028.074	56.33
1028.234	-6.83
1028.393	21.84
1028.552	25.91
1028.711	-62.24
1028.87	66.21
1029.03	19.52
1029.189	-1.02
1029.348	-28.72
1029.507	-6.25
1029.666	17.2
1029.825	-26.2
1029.984	-22.91
1030.143	36.57
1030.302	-7.6
1030.461	-33.57
1030.62	30.95
1030.779	38.31
1030.938	-14
1031.097	-16.52
1031.255	33.47
1031.414	72.99
1031.573	47.03
1031.732	-32.21
1031.891	25.53
1032.049	48.58
1032.208	29.79
1032.367	7.51
1032.525	9.06
1032.684	4.21
1032.843	41.8
1033.001	-59.14
1033.16	129.76
1033.319	53.62
1033.477	44.13
1033.636	24.36
1033.794	-10.51
1033.953	39.28
1034.111	47.81
1034.27	-31.24
1034.428	12.16
1034.587	-13.8
1034.745	19.91
1034.903	31.92
1035.062	34.44
1035.22	-37.05
1035.378	23.39
1035.537	3.05
1035.695	13.9
1035.853	-4.89
1036.011	45.68
1036.17	40.64
1036.328	-23.1
1036.486	23.59
1036.644	23.2
1036.802	-69.99
1036.96	-5.28
1037.119	1.5
1037.277	-45.58
1037.435	-28.92
1037.593	22.23
1037.751	12.93
1037.909	39.48
1038.067	39.48
