Data from oakcork_FLMT105791__168__17-31-41-058.txt Node

Date: Mon Mar 20 17:31:41 GMT 2023
User: antho
Spectrometer: FLMT10579
Trigger mode: 0
Integration Time (sec): 1.000000E-1
Scans to average: 10
Electric dark correction enabled: true
Nonlinearity correction enabled: false
Boxcar width: 0
XAxis mode: Wavelengths
Number of Pixels in Spectrum: 3648
>>>>>Begin Spectral Data<<<<<
345.248	-157.82
345.464	-157.82
345.681	-157.82
345.898	-155.5
346.114	-150.27
346.331	-32.47
346.548	34.96
346.764	-0.5
346.981	-3.21
347.197	-10.19
347.414	28.76
347.631	-18.33
347.847	56.85
348.064	4.34
348.28	16.36
348.497	-59.98
348.713	-16.58
348.93	28.17
349.146	49.1
349.363	-10.38
349.579	9.96
349.796	-4.18
350.012	2.21
350.229	48.91
350.445	11.9
350.661	3.57
350.878	-1.28
351.094	17.32
351.311	34.76
351.527	11.51
351.743	-12.9
351.96	14.22
352.176	60.72
352.392	35.73
352.609	35.34
352.825	0.86
353.041	6.86
353.257	23.52
353.474	21.39
353.69	22.75
353.906	18.1
354.122	1.63
354.339	81.07
354.555	15
354.771	-7.48
354.987	63.05
355.203	40.57
355.42	14.61
355.636	5.31
355.852	-11.54
356.068	9.57
356.284	-34.79
356.5	58.59
356.716	27.21
356.932	19.46
357.148	45.61
357.364	-6.31
357.58	54.91
357.796	57.62
358.012	43.29
358.228	36.89
358.444	-47.19
358.66	40.38
358.876	43.09
359.092	-11.35
359.308	17.91
359.524	31.27
359.74	6.47
359.956	-8.83
360.172	-11.93
360.388	50.46
360.604	18.87
360.819	74.48
361.035	39.41
361.251	34.57
361.467	1.82
361.683	60.53
361.898	25.07
362.114	27.01
362.33	11.51
362.546	46.58
362.762	-10.77
362.977	18.1
363.193	0.66
363.409	35.15
363.624	2.02
363.84	-28.79
364.056	-4.18
364.271	41.35
364.487	-4.57
364.703	18.29
364.918	-8.64
365.134	-12.13
365.35	-0.5
365.565	98.5
365.781	25.46
365.996	31.66
366.212	68.86
366.427	24.3
366.643	8.8
366.858	35.34
367.074	-23.75
367.289	73.12
367.505	73.9
367.72	-1.86
367.936	20.04
368.151	50.26
368.367	27.79
368.582	38.06
368.798	-6.7
369.013	67.31
369.228	12.67
369.444	21.39
369.659	84.17
369.874	30.11
370.09	52.59
370.305	-39.64
370.52	-7.67
370.736	55.49
370.951	39.41
371.166	77.58
371.381	93.08
371.597	49.1
371.812	-18.52
372.027	15.97
372.242	12.29
372.458	55.69
372.673	0.86
372.888	7.44
373.103	23.52
373.318	93.66
373.533	40.77
373.749	47.74
373.964	-36.54
374.179	55.69
374.394	-2.83
374.609	29.92
374.824	-28.79
375.039	60.72
375.254	-3.99
375.469	54.52
375.684	5.51
375.899	52.39
376.114	20.62
376.329	10.93
376.544	67.12
376.759	61.69
376.974	15.19
377.189	13.06
377.404	1.63
377.619	46.77
377.834	-40.61
378.049	-28.4
378.264	-8.44
378.478	30.89
378.693	-5.73
378.908	42.9
379.123	21.2
379.338	56.07
379.553	46.58
379.767	41.16
379.982	47.94
380.197	49.29
380.412	17.32
380.626	28.95
380.841	80.87
381.056	28.37
381.271	84.17
381.485	26.04
381.7	-9.99
381.915	43.29
382.129	24.49
382.344	20.81
382.559	17.71
382.773	64.6
382.988	-25.3
383.202	51.42
383.417	-23.75
383.632	98.31
383.846	38.44
384.061	48.32
384.275	8.02
384.49	36.31
384.704	50.84
384.919	32.63
385.133	21.59
385.348	46.19
385.562	-17.94
385.777	47.94
385.991	19.26
386.206	3.37
386.42	15.58
386.634	56.46
386.849	57.04
387.063	44.84
387.277	-3.02
387.492	-1.28
387.706	-4.18
387.92	13.26
388.135	32.24
388.349	25.27
388.563	18.87
388.778	22.94
388.992	45.03
389.206	23.14
389.42	95.6
389.635	43.67
389.849	58.98
390.063	48.52
390.277	44.84
390.491	98.89
390.706	26.24
390.92	53.17
391.134	25.85
391.348	40.38
391.562	-17.94
391.776	25.07
391.99	-4.76
392.205	35.54
392.419	10.74
392.633	7.83
392.847	70.8
393.061	12.48
393.275	77
393.489	20.23
393.703	39.22
393.917	91.53
394.131	22.75
394.345	53.75
394.559	51.81
394.773	4.92
394.986	21.39
395.2	30.31
395.414	33.21
395.628	-7.48
395.842	29.34
396.056	6.09
396.27	-21.81
396.484	42.32
396.697	28.17
396.911	84.17
397.125	31.47
397.339	53.75
397.553	41.54
397.766	78.55
397.98	58.79
398.194	63.44
398.408	5.51
398.621	47.55
398.835	42.12
399.049	32.44
399.262	55.3
399.476	27.98
399.69	48.32
399.903	110.32
400.117	24.49
400.331	50.26
400.544	17.32
400.758	116.72
400.971	60.14
401.185	66.15
401.398	12.87
401.612	78.94
401.826	40.38
402.039	48.52
402.253	16.74
402.466	45.22
402.68	26.04
402.893	32.05
403.106	45.22
403.32	39.61
403.533	43.48
403.747	64.99
403.96	43.48
404.174	51.04
404.387	18.29
404.6	50.84
404.814	71.38
405.027	34.18
405.24	40.77
405.454	6.67
405.667	63.05
405.88	-40.22
406.094	59.75
406.307	59.56
406.52	35.15
406.733	-17.36
406.947	-31.11
407.16	110.71
407.373	86.1
407.586	-2.83
407.799	5.89
408.012	89.2
408.226	56.85
408.439	53.55
408.652	-1.47
408.865	33.6
409.078	71.96
409.291	55.88
409.504	9.96
409.717	38.06
409.93	30.31
410.143	55.88
410.357	-6.7
410.57	0.08
410.783	23.72
410.996	41.16
411.209	13.45
411.421	66.34
411.634	42.32
411.847	23.33
412.06	33.02
412.273	44.26
412.486	33.6
412.699	105.48
412.912	19.46
413.125	62.85
413.338	39.99
413.55	76.8
413.763	29.34
413.976	28.37
414.189	6.28
414.402	27.4
414.615	86.49
414.827	8.41
415.04	61.11
415.253	67.89
415.466	57.82
415.678	84.36
415.891	45.22
416.104	45.03
416.316	39.99
416.529	26.24
416.742	73.32
416.954	59.75
417.167	19.26
417.38	20.23
417.592	90.37
417.805	0.27
418.017	-22.39
418.23	53.94
418.442	32.44
418.655	35.34
418.868	43.09
419.08	56.65
419.293	56.27
419.505	32.82
419.718	32.63
419.93	82.62
420.142	20.04
420.355	89.2
420.567	97.92
420.78	47.36
420.992	51.04
421.205	110.9
421.417	-20.07
421.629	47.74
421.842	-20.07
422.054	0.08
422.266	81.45
422.479	75.64
422.691	41.16
422.903	49.29
423.115	24.11
423.328	49.29
423.54	58.2
423.752	41.35
423.964	29.53
424.177	68.47
424.389	23.72
424.601	126.4
424.813	52
425.025	73.32
425.238	83.2
425.45	31.27
425.662	37.47
425.874	337.01
426.086	34.96
426.298	66.92
426.51	59.37
426.722	67.12
426.934	43.09
427.146	64.4
427.358	8.99
427.57	89.2
427.782	62.08
427.994	69.05
428.206	32.24
428.418	1.05
428.63	39.22
428.842	83.2
429.054	35.92
429.266	71.77
429.478	23.52
429.69	48.91
429.902	22.36
430.114	90.95
430.325	52.59
430.537	46.58
430.749	65.37
430.961	12.48
431.173	50.65
431.384	87.65
431.596	-26.46
431.808	30.69
432.02	64.79
432.231	64.02
432.443	68.67
432.655	41.16
432.867	-13.09
433.078	54.91
433.29	106.64
433.502	83.97
433.713	80.68
433.925	57.04
434.136	82.23
434.348	25.07
434.56	3.37
434.771	113.62
434.983	36.7
435.194	11.51
435.406	26.43
435.617	71.57
435.829	80.1
436.04	68.09
436.252	64.6
436.463	78.55
436.675	71.77
436.886	61.89
437.098	57.43
437.309	91.14
437.521	56.27
437.732	53.36
437.943	56.27
438.155	64.21
438.366	6.47
438.578	120.98
438.789	58.01
439	80.1
439.211	44.06
439.423	81.07
439.634	58.98
439.845	70.6
440.057	65.95
440.268	91.53
440.479	40.38
440.69	64.6
440.902	63.24
441.113	47.74
441.324	36.31
441.535	72.54
441.746	83.97
441.957	12.09
442.168	21.2
442.38	68.47
442.591	72.15
442.802	42.51
443.013	18.68
443.224	51.23
443.435	25.27
443.646	66.73
443.857	64.99
444.068	21.97
444.279	30.5
444.49	116.91
444.701	43.09
444.912	159.73
445.123	77.58
445.334	86.3
445.545	61.3
445.756	50.07
445.967	36.12
446.178	85.72
446.388	92.89
446.599	91.72
446.81	80.87
447.021	55.88
447.232	105.87
447.443	98.12
447.653	32.05
447.864	79.52
448.075	54.91
448.286	70.6
448.496	46.39
448.707	88.24
448.918	58.79
449.129	131.83
449.339	38.25
449.55	96.76
449.761	75.06
449.971	97.92
450.182	44.64
450.393	99.67
450.603	62.66
450.814	90.37
451.024	51.04
451.235	107.22
451.446	118.85
451.656	114.2
451.867	72.74
452.077	96.37
452.288	126.99
452.498	119.82
452.709	38.64
452.919	106.06
453.13	49.87
453.34	109.35
453.55	50.65
453.761	129.7
453.971	98.89
454.182	136.48
454.392	99.86
454.602	132.99
454.813	94.82
455.023	134.35
455.233	43.09
455.444	87.27
455.654	40.96
455.864	87.65
456.075	52.97
456.285	60.14
456.495	73.7
456.705	63.63
456.916	117.49
457.126	138.22
457.336	89.2
457.546	45.81
457.756	52.97
457.967	121.56
458.177	69.05
458.387	76.42
458.597	53.94
458.807	76.22
459.017	90.37
459.227	72.15
459.437	65.76
459.647	110.9
459.857	115.17
460.068	62.27
460.278	110.52
460.488	101.99
460.698	123.89
460.908	64.21
461.117	48.52
461.327	51.42
461.537	78.35
461.747	91.34
461.957	72.54
462.167	183.37
462.377	99.67
462.587	94.82
462.797	131.44
463.007	97.15
463.216	115.75
463.426	119.62
463.636	133.77
463.846	41.54
464.056	91.53
464.265	144.62
464.475	57.43
464.685	78.35
464.895	110.52
465.104	93.85
465.314	124.85
465.524	79.32
465.733	86.49
465.943	152.37
466.153	140.93
466.362	116.14
466.572	94.44
466.782	74.87
466.991	84.36
467.201	119.62
467.41	36.51
467.62	104.9
467.829	86.88
468.039	110.32
468.249	88.24
468.458	73.51
468.668	121.17
468.877	119.04
469.086	142.29
469.296	128.34
469.505	64.4
469.715	179.88
469.924	104.7
470.134	132.8
470.343	147.72
470.552	93.08
470.762	105.87
470.971	80.87
471.18	113.42
471.39	103.35
471.599	66.34
471.808	133.38
472.018	91.92
472.227	129.89
472.436	129.7
472.645	113.04
472.855	56.65
473.064	135.51
473.273	96.18
473.482	113.81
473.691	131.25
473.901	149.85
474.11	107.8
474.319	193.05
474.528	137.25
474.737	144.81
474.946	111.68
475.155	132.22
475.364	130.86
475.573	133.19
475.783	113.42
475.992	128.15
476.201	153.72
476.41	122.34
476.619	109.94
476.828	144.23
477.037	87.07
477.245	139
477.454	134.54
477.663	96.57
477.872	97.15
478.081	183.17
478.29	71.38
478.499	197.51
478.708	120.01
478.917	144.03
479.125	149.85
479.334	148.3
479.543	103.54
479.752	129.5
479.961	137.25
480.169	144.81
480.378	108.77
480.587	207
480.796	137.64
481.004	148.1
481.213	134.93
481.422	147.13
481.63	100.83
481.839	124.08
482.048	174.84
482.256	119.24
482.465	150.43
482.674	168.45
482.882	150.04
483.091	211.65
483.299	151.98
483.508	178.52
483.716	151.59
483.925	174.84
484.134	144.03
484.342	142.1
484.551	178.52
484.759	171.55
484.967	163.02
485.176	178.33
485.384	164.18
485.593	208.75
485.801	172.52
486.01	163.41
486.218	179.88
486.426	111.29
486.635	143.65
486.843	142.87
487.051	155.47
487.26	139
487.468	187.82
487.676	191.12
487.885	137.84
488.093	143.65
488.301	147.72
488.509	155.85
488.717	197.32
488.926	171.55
489.134	142.48
489.342	138.42
489.55	166.7
489.758	154.5
489.967	139.58
490.175	244.2
490.383	152.75
490.591	209.33
490.799	129.31
491.007	185.69
491.215	169.42
491.423	168.83
491.631	184.14
491.839	200.42
492.047	186.85
492.255	134.93
492.463	117.49
492.671	145
492.879	210.49
493.087	159.53
493.295	182.01
493.503	221.92
493.711	191.7
493.919	202.35
494.127	223.47
494.334	234.13
494.542	155.85
494.75	170.97
494.958	199.45
495.166	207.39
495.374	186.66
495.581	188.02
495.789	173.29
495.997	254.66
496.205	207.39
496.412	178.72
496.62	180.85
496.828	213.98
497.035	169.8
497.243	214.75
497.451	174.84
497.658	202.55
497.866	199.83
498.074	230.06
498.281	146.55
498.489	285.86
498.696	185.69
498.904	212.62
499.112	177.94
499.319	256.8
499.527	173.1
499.734	225.6
499.942	163.02
500.149	199.06
500.357	185.69
500.564	185.88
500.771	226.38
500.979	208.94
501.186	198.28
501.394	222.12
501.601	203.9
501.808	256.41
502.016	207.78
502.223	173.1
502.43	225.8
502.638	186.27
502.845	187.43
503.052	269.39
503.26	197.51
503.467	278.5
503.674	198.67
503.881	219.6
504.089	273.26
504.296	225.22
504.503	208.55
504.71	247.69
504.917	194.6
505.125	236.45
505.332	237.42
505.539	250.01
505.746	273.26
505.953	259.31
506.16	205.07
506.367	276.36
506.574	267.45
506.781	255.63
506.988	214.37
507.195	253.31
507.402	215.92
507.609	266.48
507.816	227.15
508.023	217.85
508.23	256.02
508.437	193.44
508.644	271.52
508.851	286.25
509.058	267.65
509.265	263.58
509.472	270.94
509.679	348.05
509.885	245.95
510.092	266.68
510.299	243.04
510.506	269.58
510.713	255.05
510.92	259.31
511.126	287.6
511.333	296.71
511.54	273.26
511.746	308.72
511.953	277.33
512.16	271.13
512.367	236.26
512.573	276.36
512.78	256.21
512.987	275.98
513.193	267.26
513.4	224.05
513.606	257.57
513.813	264.93
514.02	275.78
514.226	342.43
514.433	322.67
514.639	237.61
514.846	247.3
515.052	272.1
515.259	304.26
515.465	301.94
515.672	257.18
515.878	360.64
516.085	255.44
516.291	278.88
516.497	249.24
516.704	279.66
516.91	249.63
517.117	254.08
517.323	237.81
517.529	269.2
517.736	291.28
517.942	282.18
518.148	275.78
518.354	284.5
518.561	289.35
518.767	279.85
518.973	320.15
519.179	293.61
519.386	255.63
519.592	262.61
519.798	292.25
520.004	325.58
520.21	278.88
520.417	306.01
520.623	303.88
520.829	344.95
521.035	335.07
521.241	355.99
521.447	313.37
521.653	429.62
521.859	321.31
522.065	353.67
522.271	403.46
522.477	352.89
522.683	402.3
522.889	376.14
523.095	365.29
523.301	374.21
523.507	344.18
523.713	392.23
523.919	336.23
524.125	410.24
524.331	352.51
524.537	428.84
524.742	377.11
524.948	404.04
525.154	377.11
525.36	487.74
525.566	374.01
525.772	459.84
525.977	350.57
526.183	399.98
526.389	420.32
526.595	384.86
526.8	410.63
527.006	376.92
527.212	358.71
527.417	338.94
527.623	350.38
527.829	404.82
528.034	417.22
528.24	404.04
528.446	372.46
528.651	436.21
528.857	430.39
529.062	463.14
529.268	408.69
529.473	415.86
529.679	382.73
529.884	469.53
530.09	460.62
530.295	498.98
530.501	466.62
530.706	450.35
530.912	394.55
531.117	458.29
531.323	436.98
531.528	464.69
531.733	428.84
531.939	440.66
532.144	438.14
532.35	466.62
532.555	488.71
532.76	459.84
532.966	476.51
533.171	465.85
533.376	465.07
533.581	410.05
533.787	464.69
533.992	447.06
534.197	505.95
534.402	458.87
534.607	452.48
534.813	541.41
535.018	465.66
535.223	428.84
535.428	500.53
535.633	500.92
535.838	461.39
536.043	463.14
536.249	531.34
536.454	501.3
536.659	511.77
536.864	458.68
537.069	473.21
537.274	513.9
537.479	475.34
537.684	523.2
537.889	446.67
538.094	550.13
538.299	504.21
538.504	510.99
538.708	514.87
538.913	526.69
539.118	498.79
539.323	506.34
539.528	485.03
539.733	539.09
539.938	513.7
540.142	544.51
540.347	486.77
540.552	467.21
540.757	507.89
540.962	511.19
541.166	480.38
541.371	453.64
541.576	509.83
541.781	440.47
541.985	514.29
542.19	520.49
542.395	520.68
542.599	567.37
542.804	546.45
543.008	526.3
543.213	504.6
543.418	484.84
543.622	530.37
543.827	485.22
544.031	559.43
544.236	536.37
544.44	524.75
544.645	607.87
544.849	502.66
545.054	534.82
545.258	601.67
545.463	572.41
545.667	520.1
545.872	558.07
546.076	560.98
546.281	552.65
546.485	533.85
546.689	554
546.894	570.09
547.098	523.2
547.302	509.64
547.507	554
547.711	547.22
547.915	561.17
548.119	530.37
548.324	518.16
548.528	602.83
548.732	551.68
548.936	605.35
549.141	558.07
549.345	524.36
549.549	565.05
549.753	532.5
549.957	610
550.161	611.16
550.366	533.08
550.57	521.45
550.774	563.5
550.978	516.03
551.182	577.06
551.386	553.81
551.59	535.02
551.794	553.62
551.998	590.04
552.202	541.02
552.406	517
552.61	558.07
552.814	545.29
553.018	564.08
553.222	544.12
553.426	567.37
553.63	616.78
553.833	552.45
554.037	490.65
554.241	592.95
554.445	574.74
554.649	554.2
554.853	537.34
555.056	583.07
555.26	598.76
555.464	569.7
555.668	555.17
555.871	597.98
556.075	585.97
556.279	522.62
556.483	535.02
556.686	521.84
556.89	575.7
557.094	588.1
557.297	506.15
557.501	586.94
557.704	518.16
557.908	595.66
558.112	538.7
558.315	596.24
558.519	519.71
558.722	570.28
558.926	517.97
559.129	546.45
559.333	498.98
559.536	495.88
559.74	491.04
559.943	498.98
560.147	496.46
560.35	511.57
560.553	510.02
560.757	477.47
560.96	565.63
561.164	492.39
561.367	560.01
561.57	500.34
561.774	559.04
561.977	522.81
562.18	503.63
562.384	579.38
562.587	515.64
562.79	478.83
562.993	523.59
563.197	550.9
563.4	588.68
563.603	561.56
563.806	593.72
564.009	473.99
564.212	514.67
564.416	492.2
564.619	546.64
564.822	471.27
565.025	546.25
565.228	499.95
565.431	469.53
565.634	457.13
565.837	475.15
566.04	482.71
566.243	503.44
566.446	407.72
566.649	504.79
566.852	464.49
567.055	467.21
567.258	501.89
567.461	542.57
567.664	518.94
567.867	433.11
568.07	491.42
568.273	481.93
568.475	517.77
568.678	463.52
568.881	436.01
569.084	504.4
569.287	401.91
569.489	470.31
569.692	502.85
569.895	484.64
570.098	408.11
570.3	446.09
570.503	394.94
570.706	417.99
570.909	412.76
571.111	389.13
571.314	397.84
571.516	443.96
571.719	443.57
571.922	431.17
572.124	404.82
572.327	409.08
572.529	372.08
572.732	403.66
572.935	399.39
573.137	461.97
573.34	383.51
573.542	448.22
573.745	423.61
573.947	420.71
574.15	398.81
574.352	404.04
574.554	431.56
574.757	378.08
574.959	420.32
575.162	393.19
575.364	386.8
575.566	473.6
575.769	389.9
575.971	399.39
576.173	325.77
576.376	382.54
576.578	400.75
576.78	425.94
576.982	334.68
577.185	365.1
577.387	348.83
577.589	344.56
577.791	420.9
577.993	405.79
578.196	359.29
578.398	409.27
578.6	405.59
578.802	350.96
579.004	341.46
579.206	360.64
579.408	371.3
579.61	344.95
579.812	382.73
580.014	372.27
580.216	363.74
580.418	372.66
580.62	339.72
580.822	308.91
581.024	360.26
581.226	416.83
581.428	364.91
581.63	422.06
581.832	333.33
582.034	436.98
582.236	349.6
582.438	385.25
582.64	404.24
582.841	437.17
583.043	422.26
583.245	392.42
583.447	396.88
583.649	363.16
583.85	369.17
584.052	402.69
584.254	352.31
584.456	390.09
584.657	324.61
584.859	355.8
585.061	352.7
585.262	368.39
585.464	324.03
585.666	396.1
585.867	331.58
586.069	411.79
586.27	366.46
586.472	326.74
586.674	348.05
586.875	329.84
587.077	330.03
587.278	381.76
587.48	338.94
587.681	438.92
587.883	343.79
588.084	314.53
588.285	331.39
588.487	365.88
588.688	363.94
588.89	309.3
589.091	306.4
589.292	341.08
589.494	345.14
589.695	333.33
589.896	290.7
590.098	283.73
590.299	342.63
590.5	304.46
590.702	291.28
590.903	315.69
591.104	370.33
591.305	305.23
591.507	361.03
591.708	344.18
591.909	281.6
592.11	413.15
592.311	347.66
592.512	338.75
592.714	309.88
592.915	294.19
593.116	311.82
593.317	315.5
593.518	339.72
593.719	313.56
593.92	335.84
594.121	383.51
594.322	335.26
594.523	321.51
594.724	272.88
594.925	318.79
595.126	347.47
595.327	354.06
595.528	348.83
595.729	317.83
595.929	305.43
596.13	335.46
596.331	315.5
596.532	326.54
596.733	371.69
596.934	349.41
597.135	363.74
597.335	311.24
597.536	295.55
597.737	344.76
597.938	291.67
598.138	354.44
598.339	316.86
598.54	354.64
598.74	318.21
598.941	340.3
599.142	357.54
599.342	338.94
599.543	287.6
599.744	311.05
599.944	295.93
600.145	294.38
600.345	329.64
600.546	385.06
600.746	360.06
600.947	385.44
601.147	361.81
601.348	368.01
601.548	298.06
601.749	349.6
601.949	271.33
602.15	290.7
602.35	314.53
602.551	366.26
602.751	280.24
602.951	297.48
603.152	255.25
603.352	342.04
603.552	329.64
603.753	354.06
603.953	350.38
604.153	322.86
604.354	304.26
604.554	335.07
604.754	293.8
604.954	292.64
605.155	330.42
605.355	308.91
605.555	360.06
605.755	349.41
605.955	330.81
606.155	356.77
606.356	302.52
606.556	343.01
606.756	328.87
606.956	287.21
607.156	362.39
607.356	304.26
607.556	355.99
607.756	310.27
607.956	360.84
608.156	340.69
608.356	304.07
608.556	333.13
608.756	305.23
608.956	303.3
609.156	322.86
609.356	292.64
609.556	298.06
609.755	329.84
609.955	276.36
610.155	326.35
610.355	328.48
610.555	310.66
610.755	304.65
610.954	256.8
611.154	291.48
611.354	335.46
611.554	305.43
611.753	281.98
611.953	259.12
612.153	318.41
612.352	306.98
612.552	276.95
612.752	258.93
612.951	278.5
613.151	292.06
613.351	252.34
613.55	312.98
613.75	307.95
613.949	282.76
614.149	320.93
614.348	274.43
614.548	255.44
614.747	228.9
614.947	276.56
615.146	240.71
615.346	330.61
615.545	287.02
615.745	293.22
615.944	318.41
616.144	307.56
616.343	364.71
616.542	269.97
616.742	295.93
616.941	289.93
617.14	244.78
617.34	266.1
617.539	295.74
617.738	221.34
617.938	343.79
618.137	305.81
618.336	212.23
618.535	262.61
618.734	247.5
618.934	322.67
619.133	275.78
619.332	290.9
619.531	258.54
619.73	263.77
619.929	317.83
620.128	310.27
620.328	322.67
620.527	278.69
620.726	266.87
620.925	256.21
621.124	246.53
621.323	279.46
621.522	238
621.721	229.48
621.92	221.73
622.119	284.7
622.318	251.76
622.517	253.89
622.715	242.46
622.914	209.91
623.113	266.1
623.312	216.3
623.511	272.49
623.71	276.75
623.909	242.85
624.107	298.45
624.306	208.75
624.505	207.2
624.704	232.96
624.902	244.98
625.101	312.79
625.3	264.16
625.499	238.78
625.697	235.87
625.896	218.63
626.095	250.79
626.293	199.64
626.492	233.16
626.69	272.68
626.889	204.68
627.088	275.2
627.286	232.19
627.485	222.31
627.683	211.07
627.882	245.56
628.08	182.78
628.279	250.98
628.477	294.19
628.676	230.83
628.874	283.73
629.073	203.13
629.271	206.81
629.469	242.46
629.668	230.45
629.866	234.9
630.065	214.56
630.263	264.16
630.461	215.53
630.66	255.25
630.858	262.22
631.056	288.96
631.254	286.44
631.453	214.95
631.651	282.76
631.849	243.62
632.047	255.63
632.245	236.65
632.444	239.94
632.642	243.04
632.84	253.7
633.038	240.71
633.236	215.33
633.434	198.87
633.632	219.79
633.83	216.11
634.028	233.16
634.227	226.18
634.425	287.99
634.623	222.5
634.821	242.26
635.019	207.78
635.216	211.27
635.414	257.96
635.612	266.48
635.81	241.49
636.008	298.45
636.206	226.18
636.404	268.61
636.602	181.04
636.8	194.8
636.997	254.86
637.195	269.78
637.393	249.63
637.591	283.15
637.789	247.11
637.986	206.23
638.184	230.64
638.382	254.86
638.58	238.2
638.777	268.81
638.975	240.13
639.173	257.96
639.37	220.57
639.568	259.31
639.765	266.87
639.963	209.91
640.161	286.44
640.358	285.47
640.556	218.63
640.753	232.58
640.951	204.68
641.148	232.58
641.346	215.72
641.543	219.4
641.741	259.9
641.938	183.37
642.136	228.51
642.333	194.22
642.531	262.61
642.728	302.33
642.925	229.28
643.123	218.82
643.32	237.23
643.517	219.79
643.715	228.51
643.912	212.62
644.109	227.15
644.306	194.02
644.504	179.49
644.701	241.49
644.898	250.6
645.095	212.43
645.293	221.53
645.49	248.46
645.687	228.12
645.884	248.85
646.081	182.4
646.278	199.06
646.475	198.28
646.672	223.47
646.87	232
647.067	232.38
647.264	226.57
647.461	191.12
647.658	172.9
647.855	264.16
648.052	210.1
648.249	133.96
648.446	219.79
648.642	203.52
648.839	187.43
649.036	194.99
649.233	170.19
649.43	160.12
649.627	163.02
649.824	193.25
650.021	184.33
650.217	183.17
650.414	159.92
650.611	190.34
650.808	197.9
651.004	196.93
651.201	221.73
651.398	254.28
651.595	187.24
651.791	176.2
651.988	224.63
652.185	177.94
652.381	226.38
652.578	152.56
652.775	194.02
652.971	174.07
653.168	188.02
653.364	224.44
653.561	131.83
653.757	205.26
653.954	192.86
654.15	182.78
654.347	258.35
654.543	191.89
654.74	134.54
654.936	168.06
655.133	176.39
655.329	210.3
655.525	189.95
655.722	228.51
655.918	134.15
656.115	222.7
656.311	149.85
656.507	165.93
656.704	137.84
656.9	159.34
657.096	151.01
657.292	118.27
657.489	218.05
657.685	174.26
657.881	173.29
658.077	152.95
658.273	174.65
658.47	232
658.666	185.3
658.862	195.57
659.058	167.67
659.254	238
659.45	155.08
659.646	192.47
659.842	171.55
660.038	199.83
660.234	149.46
660.43	178.91
660.626	231.41
660.822	196.15
661.018	201.97
661.214	176.58
661.41	155.27
661.606	197.12
661.802	183.95
661.998	185.3
662.194	129.89
662.39	179.88
662.586	195.77
662.781	185.88
662.977	221.92
663.173	208.17
663.369	192.28
663.564	188.02
663.76	210.3
663.956	169.8
664.152	226.96
664.347	142.87
664.543	172.52
664.739	183.75
664.934	116.91
665.13	119.24
665.326	214.56
665.521	171.55
665.717	168.83
665.912	149.85
666.108	87.27
666.304	135.9
666.499	166.51
666.695	118.46
666.89	160.5
667.086	209.52
667.281	180.46
667.477	226.38
667.672	177.36
667.867	171.16
668.063	204.87
668.258	149.65
668.454	161.47
668.649	245.75
668.844	186.08
669.04	194.02
669.235	134.15
669.43	140.55
669.626	128.54
669.821	160.12
670.016	153.53
670.211	175.23
670.407	151.01
670.602	145.39
670.797	151.59
670.992	194.41
671.187	127.37
671.382	187.24
671.578	168.25
671.773	194.99
671.968	153.14
672.163	171.74
672.358	169.22
672.553	159.15
672.748	151.2
672.943	210.68
673.138	179.1
673.333	181.82
673.528	131.44
673.723	214.17
673.918	179.88
674.113	137.64
674.308	230.83
674.503	195.18
674.698	199.45
674.892	216.3
675.087	210.1
675.282	157.79
675.477	159.92
675.672	190.34
675.867	139
676.061	114.59
676.256	137.25
676.451	143.84
676.646	178.91
676.84	133.19
677.035	122.14
677.23	129.5
677.424	174.26
677.619	190.73
677.814	179.68
678.008	211.07
678.203	127.18
678.397	117.49
678.592	167.48
678.787	190.92
678.981	159.53
679.176	133.57
679.37	129.7
679.565	128.15
679.759	135.51
679.954	186.85
680.148	195.57
680.342	232.96
680.537	168.25
680.731	132.41
680.926	188.02
681.12	222.31
681.314	153.53
681.509	140.16
681.703	175.62
681.897	193.44
682.092	191.31
682.286	138.42
682.48	234.9
682.674	202.16
682.869	151.01
683.063	145.58
683.257	232.38
683.451	138.22
683.645	184.92
683.839	179.49
684.034	158.95
684.228	214.17
684.422	140.35
684.616	135.9
684.81	184.53
685.004	174.84
685.198	143.45
685.392	182.78
685.586	139.38
685.78	156.43
685.974	176.2
686.168	185.69
686.362	233.35
686.556	162.83
686.75	120.2
686.944	166.7
687.138	199.06
687.331	125.82
687.525	143.84
687.719	101.6
687.913	156.43
688.107	154.88
688.301	112.65
688.494	169.61
688.688	131.44
688.882	116.52
689.076	111.49
689.269	160.5
689.463	199.83
689.657	143.65
689.85	138.22
690.044	128.54
690.238	128.73
690.431	126.99
690.625	145.58
690.818	143.26
691.012	191.5
691.205	161.28
691.399	107.22
691.593	175.03
691.786	189.57
691.98	184.72
692.173	209.33
692.366	164.96
692.56	199.83
692.753	239.94
692.947	178.91
693.14	232.58
693.333	214.75
693.527	126.4
693.72	207.39
693.914	181.43
694.107	157.98
694.3	186.85
694.493	197.12
694.687	237.61
694.88	132.6
695.073	233.16
695.266	211.85
695.46	200.22
695.653	244.98
695.846	207.58
696.039	167.87
696.232	200.42
696.425	233.93
696.618	213.78
696.812	191.89
697.005	250.01
697.198	319.76
697.391	215.33
697.584	263.96
697.777	311.82
697.97	263.58
698.163	290.7
698.356	266.48
698.549	352.7
698.742	307.56
698.935	266.1
699.127	301.94
699.32	263.96
699.513	265.71
699.706	304.07
699.899	290.9
700.092	274.04
700.285	331.19
700.477	284.89
700.67	304.65
700.863	325.77
701.056	376.73
701.248	374.21
701.441	335.46
701.634	319.18
701.826	405.01
702.019	309.88
702.212	359.09
702.404	319.76
702.597	308.91
702.79	353.09
702.982	363.74
703.175	367.43
703.367	418.19
703.56	399.01
703.752	472.44
703.945	434.66
704.137	434.27
704.33	465.66
704.522	459.26
704.715	442.02
704.907	453.84
705.1	476.7
705.292	476.7
705.484	439.31
705.677	508.86
705.869	469.92
706.061	494.72
706.254	549.55
706.446	495.69
706.638	498.79
706.831	562.92
707.023	491.62
707.215	600.89
707.407	576.28
707.599	571.25
707.792	599.15
707.984	589.85
708.176	624.92
708.368	585.58
708.56	599.73
708.752	566.02
708.944	616.97
709.136	625.69
709.329	610
709.521	675.68
709.713	660.95
709.905	668.51
710.097	703.96
710.289	651.46
710.481	673.55
710.672	685.75
710.864	686.91
711.056	738.84
711.248	739.23
711.44	729.54
711.632	735.35
711.824	740.39
712.016	804.71
712.207	747.95
712.399	783.4
712.591	839.39
712.783	798.51
712.975	840.94
713.166	793.67
713.358	799.87
713.55	887.25
713.741	849.66
713.933	845.98
714.125	868.07
714.316	845.59
714.508	891.51
714.7	937.82
714.891	904.88
715.083	947.31
715.274	905.07
715.466	908.76
715.657	975.4
715.849	867.68
716.04	943.24
716.232	856.83
716.423	953.12
716.615	893.26
716.806	897.71
716.998	895.39
717.189	866.32
717.381	800.64
717.572	805.88
717.763	850.82
717.955	842.69
718.146	815.37
718.337	780.3
718.528	753.95
718.72	729.15
718.911	800.26
719.102	737.87
719.293	818.47
719.485	787.28
719.676	781.27
719.867	760.93
720.058	765.19
720.249	765.38
720.44	803.36
720.632	839.59
720.823	851.02
721.014	932.2
721.205	954.48
721.396	973.27
721.587	1053.87
721.778	1068.02
721.969	1044.77
722.16	1096.11
722.351	1067.43
722.542	1182.33
722.733	1209.06
722.924	1115.1
723.115	1160.05
723.305	1174.77
723.496	1180.2
723.687	1110.83
723.878	1133.5
724.069	1122.46
724.26	1142.8
724.45	1117.23
724.641	1123.23
724.832	1109.86
725.023	1126.91
725.213	1124.01
725.404	1136.8
725.595	1124.78
725.785	1159.08
725.976	1202.09
726.167	1144.16
726.357	1155.98
726.548	1244.52
726.739	1207.51
726.929	1273.19
727.12	1255.56
727.31	1289.47
727.501	1236.77
727.691	1262.15
727.882	1285.79
728.072	1321.63
728.263	1277.26
728.453	1333.26
728.644	1341.97
728.834	1317.17
729.024	1355.15
729.215	1345.85
729.405	1360.57
729.596	1420.05
729.786	1428.58
729.976	1454.15
730.167	1484.38
730.357	1441.17
730.547	1429.94
730.737	1451.83
730.928	1509.57
731.118	1561.49
731.308	1487.87
731.498	1472.37
731.688	1594.23
731.879	1572.92
732.069	1611.09
732.259	1637.24
732.449	1652.36
732.639	1710.68
732.829	1724.24
733.019	1765.51
733.209	1787.4
733.399	1784.88
733.589	1846.1
733.779	1852.89
733.969	1869.55
734.159	1903.26
734.349	1963.9
734.539	2009.43
734.729	2002.46
734.919	2005.36
735.109	2050.9
735.299	1990.45
735.488	2033.65
735.678	2067.36
735.868	1985.8
736.058	2041.98
736.248	2039.46
736.437	1982.11
736.627	2018.93
736.817	2119.29
737.007	2083.06
737.196	2122.39
737.386	2058.84
737.576	2095.46
737.765	2156.87
737.955	2189.04
738.144	2245.42
738.334	2219.07
738.524	2161.33
738.713	2198.72
738.903	2162.3
739.092	2229.34
739.282	2245.22
739.471	2269.25
739.661	2249.1
739.85	2282.62
740.04	2300.64
740.229	2297.73
740.419	2325.05
740.608	2355.85
740.797	2351.59
740.987	2376.58
741.176	2392.67
741.365	2300.25
741.555	2349.07
741.744	2403.71
741.933	2399.45
742.123	2429.67
742.312	2442.07
742.501	2468.61
742.69	2472.49
742.88	2420.95
743.069	2521.31
743.258	2483.73
743.447	2490.9
743.636	2497.87
743.825	2478.88
744.014	2491.86
744.204	2534.29
744.393	2467.06
744.582	2577.89
744.771	2606.56
744.96	2535.07
745.149	2575.37
745.338	2546.69
745.527	2598.42
745.716	2544.37
745.905	2551.93
746.094	2609.47
746.283	2604.43
746.471	2618.38
746.66	2649.19
746.849	2605.4
747.038	2684.45
747.227	2589.71
747.416	2662.56
747.604	2606.56
747.793	2646.09
747.982	2649.57
748.171	2624.77
748.359	2679.99
748.548	2641.44
748.737	2660.23
748.926	2625.16
749.114	2579.05
749.303	2655.39
749.491	2682.9
749.68	2579.83
749.869	2700.53
750.057	2633.69
750.246	2667.4
750.434	2645.89
750.623	2649.57
750.811	2591.84
751	2690.26
751.188	2635.24
751.377	2649.57
751.565	2608.11
751.754	2619.93
751.942	2586.02
752.131	2701.89
752.319	2590.09
752.507	2574.01
752.696	2664.49
752.884	2717.77
753.072	2655.39
753.261	2671.08
753.449	2649.19
753.637	2648.22
753.825	2716.42
754.014	2604.62
754.202	2667.98
754.39	2719.52
754.578	2685.8
754.766	2615.67
754.955	2620.32
755.143	2710.8
755.331	2631.17
755.519	2623.42
755.707	2649.38
755.895	2627.1
756.083	2659.46
756.271	2602.11
756.459	2629.62
756.647	2669.92
756.835	2600.36
757.023	2652.67
757.211	2626.91
757.399	2607.14
757.587	2602.49
757.775	2561.61
757.963	2597.84
758.151	2574.59
758.339	2562.19
758.526	2621.48
758.714	2556.96
758.902	2474.62
759.09	2410.68
759.278	2267.5
759.465	2090.61
759.653	1784.11
759.841	1637.05
760.028	1382.08
760.216	1181.94
760.404	1182.33
760.591	969.01
760.779	757.63
760.967	703.96
761.154	576.09
761.342	618.13
761.529	595.47
761.717	671.8
761.905	641.19
762.092	704.93
762.28	636.73
762.467	654.37
762.655	572.02
762.842	619.1
763.029	616.2
763.217	629.76
763.404	618.91
763.592	644.48
763.779	589.07
763.966	640.61
764.154	661.34
764.341	748.33
764.528	714.43
764.716	770.42
764.903	837.07
765.09	860.12
765.277	906.43
765.465	1031.98
765.652	1086.23
765.839	1154.43
766.026	1270.09
766.213	1268.93
766.4	1350.69
766.588	1522.55
766.775	1537.66
766.962	1616.9
767.149	1645.19
767.336	1782.56
767.523	1778.87
767.71	1879.43
767.897	1937.17
768.084	2018.15
768.271	2028.81
768.458	2061.94
768.645	2150.48
768.832	2120.26
769.019	2153.77
769.206	2138.28
769.392	2244.06
769.579	2312.65
769.766	2291.53
769.953	2252.97
770.14	2315.17
770.327	2286.88
770.513	2338.03
770.7	2363.6
770.887	2321.37
771.073	2367.28
771.26	2381.43
771.447	2295.21
771.634	2349.46
771.82	2449.24
772.007	2328.92
772.193	2357.02
772.38	2417.85
772.567	2362.25
772.753	2353.53
772.94	2423.47
773.126	2421.53
773.313	2371.35
773.499	2406.62
773.686	2425.8
773.872	2376
774.059	2376.97
774.245	2350.04
774.432	2355.66
774.618	2279.9
774.804	2370
774.991	2302.96
775.177	2365.93
775.363	2340.93
775.55	2371.74
775.736	2281.26
775.922	2342.1
776.109	2361.08
776.295	2366.7
776.481	2374.65
776.667	2363.02
776.853	2328.92
777.04	2331.44
777.226	2308.77
777.412	2365.35
777.598	2297.34
777.784	2322.72
777.97	2245.22
778.156	2307.42
778.342	2320.2
778.528	2299.67
778.715	2257.04
778.901	2286.1
779.087	2321.17
779.272	2247.16
779.458	2192.52
779.644	2238.44
779.83	2222.56
780.016	2325.43
780.202	2220.23
780.388	2240.38
780.574	2145.25
780.76	2213.45
780.946	2239.6
781.131	2246.19
781.317	2189.81
781.503	2184.77
781.689	2185.94
781.874	2275.06
782.06	2166.95
782.246	2209.57
782.432	2177.99
782.617	2221.78
782.803	2266.54
782.989	2172.37
783.174	2199.69
783.36	2124.91
783.545	2172.57
783.731	2155.91
783.916	2067.94
784.102	2160.75
784.288	2106.89
784.473	2140.6
784.659	2116.58
784.844	2150.09
785.029	2111.54
785.215	2090.81
785.4	2072.4
785.586	2164.82
785.771	2054
785.956	2078.21
786.142	2094.1
786.327	2071.63
786.512	2067.94
786.698	2030.36
786.883	2034.81
787.068	2016.02
787.254	2063.49
787.439	2041.21
787.624	2069.49
787.809	2006.91
787.994	2007.69
788.18	2070.27
788.365	2004.01
788.55	2012.92
788.735	1989.09
788.92	2017.96
789.105	1963.52
789.29	2028.42
789.475	1938.91
789.66	1945.5
789.845	1945.3
790.03	1965.07
790.215	1968.36
790.4	2007.11
790.585	2023.38
790.77	1940.46
790.955	1891.83
791.14	1934.84
791.325	2004.4
791.51	1854.82
791.695	1905
791.879	1897.25
792.064	1859.47
792.249	1975.53
792.434	1892.02
792.618	1933.48
792.803	1944.72
792.988	1886.79
793.173	1929.61
793.357	1939.68
793.542	1884.47
793.727	1947.05
793.911	1960.61
794.096	1914.88
794.281	1944.53
794.465	2002.85
794.65	1943.56
794.834	1963.9
795.019	1985.02
795.203	2020.28
795.388	1999.94
795.572	2016.02
795.757	1966.23
795.941	1976.5
796.126	1963.9
796.31	1905.39
796.494	1976.5
796.679	1903.84
796.863	1923.02
797.048	1990.83
797.232	1970.88
797.416	1963.13
797.601	1958.09
797.785	1968.94
797.969	2004.59
798.153	1954.8
798.338	1938.91
798.522	2015.05
798.706	2007.3
798.89	1995.68
799.074	2060
799.258	2002.65
799.443	1979.4
799.627	1959.25
799.811	2029.97
799.995	1995.87
800.179	1950.15
800.363	1979.79
800.547	1981.73
800.731	2032.49
800.915	1926.51
801.099	1939.88
801.283	1986.38
801.467	1949.37
801.651	1949.37
801.835	2015.44
802.019	1979.4
802.202	1973.4
802.386	1891.25
802.57	1898.42
802.754	1932.71
802.938	1895.51
803.121	1929.42
803.305	1984.44
803.489	1960.03
803.673	1990.25
803.856	1958.28
804.04	1949.76
804.224	1980.37
804.407	1938.13
804.591	1915.66
804.775	1959.06
804.958	1952.86
805.142	2056.9
805.326	1978.24
805.509	1956.93
805.693	1985.02
805.876	2022.41
806.06	1993.16
806.243	1970.49
806.427	2046.63
806.61	2047.6
806.794	1962.74
806.977	2003.43
807.16	1982.11
807.344	1982.7
807.527	1960.22
807.71	1934.45
807.894	1959.45
808.077	2008.27
808.26	1940.85
808.444	1951.12
808.627	2026.68
808.81	1961.58
808.993	1908.1
809.177	1890.08
809.36	1913.72
809.543	1916.05
809.726	1816.07
809.909	1864.32
810.092	1807.55
810.276	1841.65
810.459	1870.32
810.642	1850.95
810.825	1798.06
811.008	1806.39
811.191	1724.43
811.374	1755.62
811.557	1745.16
811.74	1824.79
811.923	1734.12
812.106	1740.32
812.289	1688.98
812.472	1670.76
812.654	1745.55
812.837	1681.61
813.02	1634.14
813.203	1620.39
813.386	1555.68
813.569	1506.47
813.751	1519.83
813.934	1549.86
814.117	1513.63
814.3	1477.6
814.482	1422.38
814.665	1405.52
814.848	1365.42
815.03	1312.52
815.213	1353.79
815.396	1349.53
815.578	1329.57
815.761	1255.95
815.943	1332.09
816.126	1299.54
816.309	1232.12
816.491	1226.31
816.674	1096.11
816.856	1211.78
817.039	1186.78
817.221	1245.49
817.403	1211
817.586	1192.98
817.768	1225.92
817.951	1151.33
818.133	1155.78
818.315	1181.94
818.498	1188.14
818.68	1292.76
818.862	1231.73
819.045	1286.37
819.227	1237.16
819.409	1219.91
819.591	1252.46
819.774	1292.18
819.956	1199.76
820.138	1292.57
820.32	1261.96
820.502	1291.21
820.684	1352.05
820.866	1358.83
821.048	1383.82
821.231	1393.7
821.413	1387.31
821.595	1384.99
821.777	1405.33
821.959	1381.89
822.141	1439.62
822.323	1321.63
822.505	1267.19
822.686	1264.28
822.868	1182.13
823.05	1100.76
823.232	1085.26
823.414	1040.7
823.596	1125.95
823.778	1078.87
823.96	1109.86
824.141	1100.76
824.323	1121.49
824.505	1186.2
824.687	1264.28
824.868	1254.79
825.05	1356.31
825.232	1353.02
825.413	1420.05
825.595	1351.27
825.777	1304
825.958	1371.81
826.14	1346.24
826.321	1353.99
826.503	1339.26
826.685	1358.06
826.866	1416.76
827.048	1373.55
827.229	1329.57
827.411	1290.44
827.592	1276.1
827.773	1242.97
827.955	1213.91
828.136	1206.74
828.318	1210.61
828.499	1262.54
828.68	1160.63
828.862	1204.8
829.043	1240.84
829.224	1238.13
829.406	1201.12
829.587	1193.56
829.768	1191.43
829.949	1222.04
830.131	1211
830.312	1276.87
830.493	1211.39
830.674	1234.06
830.855	1209.06
831.036	1208.87
831.218	1278.62
831.399	1271.84
831.58	1233.28
831.761	1267.77
831.942	1232.51
832.123	1211.78
832.304	1172.45
832.485	1193.76
832.666	1207.51
832.847	1248.59
833.028	1222.63
833.209	1228.44
833.389	1196.47
833.57	1155.59
833.751	1184.07
833.932	1246.26
834.113	1212.55
834.294	1230.96
834.475	1245.68
834.655	1273.58
834.836	1249.36
835.017	1249.94
835.198	1237.74
835.378	1243.55
835.559	1285.4
835.74	1265.25
835.92	1258.08
836.101	1182.91
836.281	1267.96
836.462	1255.18
836.643	1274.55
836.823	1289.86
837.004	1337.52
837.184	1333.84
837.365	1272.03
837.545	1307.49
837.726	1242.97
837.906	1323.18
838.087	1276.49
838.267	1276.87
838.448	1250.72
838.628	1274.74
838.808	1271.64
838.989	1336.94
839.169	1261.18
839.349	1304.39
839.53	1307.29
839.71	1310.2
839.89	1290.63
840.07	1356.89
840.251	1277.65
840.431	1313.11
840.611	1288.69
840.791	1249.56
840.971	1291.02
841.151	1265.64
841.332	1244.71
841.512	1308.84
841.692	1219.33
841.872	1306.71
842.052	1295.86
842.232	1281.72
842.412	1219.53
842.592	1223.98
842.772	1274.36
842.952	1295.28
843.132	1245.88
843.312	1284.04
843.492	1252.27
843.672	1299.16
843.851	1200.34
844.031	1219.53
844.211	1249.36
844.391	1210.61
844.571	1257.89
844.751	1251.49
844.93	1271.06
845.11	1241.42
845.29	1250.72
845.47	1250.14
845.649	1240.64
845.829	1267.58
846.009	1246.46
846.188	1275.71
846.368	1244.33
846.547	1270.48
846.727	1265.64
846.907	1206.93
847.086	1235.99
847.266	1242
847.445	1233.86
847.625	1215.84
847.804	1232.31
847.984	1233.28
848.163	1204.99
848.343	1189.49
848.522	1234.64
848.701	1242.19
848.881	1200.93
849.06	1222.82
849.239	1196.66
849.419	1231.93
849.598	1154.43
849.777	1157.33
849.957	1153.85
850.136	1116.26
850.315	1084.29
850.494	1100.95
850.674	1106.76
850.853	1157.33
851.032	1112.58
851.211	1150.55
851.39	1161.6
851.569	1079.64
851.748	1090.1
851.927	1140.28
852.107	1135.05
852.286	1106.96
852.465	1068.98
852.644	1143.19
852.823	1141.83
853.002	1096.11
853.181	1118.97
853.359	1125.36
853.538	1069.76
853.717	1155.78
853.896	1058.52
854.075	1019.77
854.254	982.57
854.433	941.11
854.611	1006.21
854.79	934.52
854.969	1011.44
855.148	1037.4
855.327	959.52
855.505	990.52
855.684	1025
855.863	1035.47
856.041	980.05
856.22	1028.68
856.399	1009.89
856.577	1081.58
856.756	1089.72
856.934	1185.43
857.113	1157.72
857.291	1099.21
857.47	1052.52
857.648	1069.57
857.827	1089.91
858.005	1098.24
858.184	1052.13
858.362	1144.74
858.541	1073.83
858.719	1104.05
858.898	1062.01
859.076	1065.5
859.254	1123.23
859.433	1083.52
859.611	1045.54
859.789	1030.82
859.967	1097.85
860.146	1152.3
860.324	1032.75
860.502	1069.57
860.68	1018.61
860.859	1011.05
861.037	1030.23
861.215	1055.42
861.393	1026.17
861.571	1031.78
861.749	1016.09
861.927	1038.18
862.105	1001.37
862.283	1028.68
862.461	1025
862.639	1012.22
862.817	985.67
862.995	1033.33
863.173	1025.58
863.351	1005.82
863.529	1020.16
863.707	1057.36
863.885	1051.74
864.063	948.09
864.241	983.15
864.418	1046.7
864.596	987.03
864.774	961.07
864.952	985.67
865.129	1017.64
865.307	960.68
865.485	942.47
865.663	1006.99
865.84	916.12
866.018	931.42
866.196	865.55
866.373	863.42
866.551	870.01
866.728	803.74
866.906	853.54
867.084	863.22
867.261	917.28
867.439	877.37
867.616	943.63
867.794	932.97
867.971	940.14
868.149	925.61
868.326	961.45
868.503	960.49
868.681	901.78
868.858	865.16
869.035	876.98
869.213	947.89
869.39	907.4
869.567	961.26
869.745	895.97
869.922	926.39
870.099	960.29
870.276	959.13
870.454	966.3
870.631	939.17
870.808	929.49
870.985	944.6
871.162	1008.73
871.339	906.24
871.517	860.51
871.694	915.54
871.871	903.33
872.048	904.69
872.225	876.79
872.402	938.01
872.579	852.37
872.756	907.79
872.933	860.12
873.11	899.46
873.287	913.02
873.463	898.1
873.64	853.34
873.817	922.71
873.994	863.22
874.171	834.74
874.348	919.99
874.524	833
874.701	863.22
874.878	813.04
875.055	874.85
875.231	845.98
875.408	887.44
875.585	831.45
875.762	860.12
875.938	823.89
876.115	837.46
876.291	815.18
876.468	831.64
876.645	801.42
876.821	829.71
876.998	845.79
877.174	860.9
877.351	824.28
877.527	788.63
877.704	851.02
877.88	836.68
878.057	809.94
878.233	860.32
878.409	820.79
878.586	826.41
878.762	818.47
878.938	820.41
879.115	761.31
879.291	822.73
879.467	757.63
879.644	789.21
879.82	823.51
879.996	759.76
880.172	754.92
880.349	756.86
880.525	809.17
880.701	776.81
880.877	758.6
881.053	802
881.229	766.93
881.405	814.4
881.581	765.96
881.757	764.99
881.933	777.01
882.109	823.51
882.285	803.36
882.461	727.21
882.637	790.96
882.813	728.57
882.989	747.56
883.165	811.11
883.341	756.86
883.517	822.34
883.693	811.49
883.869	816.73
884.044	742.33
884.22	773.91
884.396	827.19
884.572	812.08
884.747	827.96
884.923	808.98
885.099	817.11
885.275	820.41
885.45	795.61
885.626	734.38
885.801	746.59
885.977	788.05
886.153	739.42
886.328	765.19
886.504	733.61
886.679	765.38
886.855	748.14
887.03	778.17
887.206	772.74
887.381	779.33
887.557	772.36
887.732	796.19
887.908	772.55
888.083	775.46
888.258	787.86
888.434	748.33
888.609	749.69
888.784	825.83
888.96	785.53
889.135	767.13
889.31	742.33
889.485	780.3
889.661	755.89
889.836	808.59
890.011	768.87
890.186	778.17
890.361	755.89
890.537	771.97
890.712	783.59
890.887	754.53
891.062	744.46
891.237	807.81
891.412	733.22
891.587	777.59
891.762	793.09
891.937	823.12
892.112	724.89
892.287	748.91
892.462	731.48
892.637	688.66
892.812	692.92
892.987	696.41
893.161	689.24
893.336	695.44
893.511	701.83
893.686	699.9
893.861	691.56
894.035	718.69
894.21	692.92
894.385	645.65
894.56	682.07
894.734	648.94
894.909	613.1
895.084	640.8
895.258	638.28
895.433	655.92
895.608	605.35
895.782	565.05
895.957	581.71
896.131	589.46
896.306	551.29
896.48	544.32
896.655	533.08
896.829	521.45
897.004	499.37
897.178	499.37
897.353	479.02
897.527	555.94
897.701	489.87
897.876	461.39
898.05	563.11
898.224	525.72
898.399	566.79
898.573	510.22
898.747	431.36
898.921	483.48
899.096	392.81
899.27	421.09
899.444	421.09
899.618	442.99
899.792	439.31
899.967	450.35
900.141	470.69
900.315	436.59
900.489	400.17
900.663	473.6
900.837	449.96
901.011	400.36
901.185	510.22
901.359	466.24
901.533	430.78
901.707	468.37
901.881	455.19
902.055	404.43
902.229	451.12
902.403	495.88
902.576	426.13
902.75	438.34
902.924	550.71
903.098	490.84
903.272	514.29
903.446	540.83
903.619	521.65
903.793	569.5
903.967	529.59
904.14	601.86
904.314	572.6
904.488	572.99
904.661	560.59
904.835	560.2
905.009	596.24
905.182	634.8
905.356	573.77
905.529	572.41
905.703	571.05
905.876	532.5
906.05	518.35
906.223	517.39
906.397	444.54
906.57	455.77
906.744	420.32
906.917	448.41
907.09	460.04
907.264	449.77
907.437	413.73
907.61	400.94
907.784	403.46
907.957	429.81
908.13	393
908.304	447.25
908.477	370.33
908.65	412.37
908.823	371.69
908.996	457.91
909.17	389.13
909.343	377.69
909.516	406.37
909.689	422.64
909.862	356.77
910.035	397.46
910.208	404.62
910.381	381.96
910.554	466.43
910.727	409.66
910.9	363.94
911.073	392.23
911.246	444.73
911.419	432.72
911.592	426.91
911.765	381.57
911.938	373.43
912.11	381.38
912.283	381.18
912.456	427.49
912.629	384.09
912.802	402.3
912.974	341.46
913.147	330.42
913.32	318.6
913.493	300.2
913.665	318.99
913.838	342.24
914.01	336.23
914.183	328.68
914.356	335.65
914.528	385.25
914.701	411.02
914.873	405.59
915.046	344.37
915.218	320.34
915.391	269.58
915.563	271.33
915.736	346.5
915.908	355.99
916.081	353.86
916.253	335.07
916.425	324.8
916.598	327.32
916.77	330.61
916.942	305.23
917.115	252.73
917.287	342.43
917.459	303.3
917.632	307.75
917.804	245.75
917.976	339.14
918.148	317.05
918.32	340.49
918.493	339.72
918.665	366.84
918.837	351.73
919.009	384.86
919.181	364.71
919.353	362.97
919.525	347.47
919.697	362.39
919.869	324.03
920.041	395.91
920.213	457.52
920.385	387.77
920.557	355.99
920.729	390.09
920.901	377.69
921.073	342.04
921.244	336.43
921.416	410.82
921.588	371.11
921.76	312.6
921.932	415.86
922.103	326.93
922.275	353.67
922.447	371.88
922.619	304.26
922.79	351.34
922.962	332.36
923.134	361.23
923.305	314.53
923.477	295.74
923.648	297.48
923.82	341.08
923.991	273.46
924.163	271.13
924.335	308.53
924.506	288.38
924.677	346.11
924.849	277.91
925.02	312.98
925.192	318.02
925.363	320.54
925.535	310.66
925.706	286.83
925.877	362.39
926.049	289.93
926.22	311.05
926.391	290.9
926.562	336.04
926.734	283.73
926.905	320.54
927.076	267.84
927.247	268.42
927.419	235.48
927.59	244.4
927.761	256.41
927.932	235.29
928.103	264.35
928.274	225.8
928.445	196.35
928.616	200.8
928.787	219.98
928.958	232.77
929.129	232.19
929.3	212.04
929.471	166.51
929.642	126.79
929.813	111.49
929.984	200.61
930.155	116.14
930.326	189.95
930.496	163.8
930.667	112.26
930.838	151.98
931.009	97.92
931.18	101.41
931.35	118.07
931.521	122.14
931.692	97.92
931.863	37.09
932.033	107.8
932.204	88.62
932.374	101.22
932.545	51.62
932.716	112.07
932.886	111.29
933.057	42.51
933.227	44.64
933.398	126.79
933.568	18.87
933.739	4.34
933.909	21.59
934.08	54.14
934.25	-12.71
934.421	11.32
934.591	45.42
934.761	31.08
934.932	-16.58
935.102	59.56
935.272	21.59
935.443	58.59
935.613	21.01
935.783	37.28
935.953	15.58
936.123	171.55
936.294	0.86
936.464	-4.38
936.634	33.79
936.804	6.47
936.974	1.24
937.144	53.94
937.314	39.22
937.484	13.26
937.655	20.81
937.825	61.3
937.995	-4.18
938.165	84.75
938.334	26.62
938.504	41.93
938.674	38.44
938.844	49.1
939.014	104.12
939.184	63.63
939.354	133.19
939.524	89.4
939.694	50.46
939.863	45.22
940.033	111.29
940.203	109.55
940.373	85.14
940.542	93.66
940.712	59.17
940.882	75.25
941.051	101.41
941.221	106.25
941.391	120.4
941.56	36.89
941.73	57.82
941.899	145.78
942.069	58.79
942.238	81.07
942.408	58.79
942.577	102.38
942.747	92.11
942.916	30.31
943.086	44.64
943.255	91.14
943.425	48.13
943.594	71.77
943.763	-3.6
943.933	22.75
944.102	0.08
944.271	35.54
944.441	79.13
944.61	42.9
944.779	49.29
944.948	144.81
945.117	-1.28
945.287	27.4
945.456	0.86
945.625	35.15
945.794	52.59
945.963	40.38
946.132	72.35
946.301	46.39
946.47	62.27
946.639	-26.46
946.808	28.76
946.977	76.22
947.146	72.15
947.315	37.28
947.484	73.51
947.653	43.29
947.822	25.66
947.991	16.74
948.16	96.37
948.329	100.25
948.498	42.9
948.666	44.06
948.835	96.95
949.004	28.17
949.173	29.34
949.341	54.33
949.51	59.37
949.679	80.29
949.847	77.97
950.016	123.3
950.185	108
950.353	57.43
950.522	46.39
950.69	97.34
950.859	30.89
951.028	71.38
951.196	37.67
951.365	35.54
951.533	59.75
951.701	75.45
951.87	88.43
952.038	34.76
952.207	62.27
952.375	98.5
952.543	46
952.712	40.77
952.88	36.89
953.048	105.48
953.217	55.69
953.385	50.65
953.553	90.37
953.721	31.47
953.89	51.04
954.058	19.46
954.226	21.97
954.394	61.11
954.562	6.47
954.73	60.34
954.898	38.83
955.067	86.1
955.235	51.62
955.403	83.97
955.571	113.04
955.739	101.41
955.907	16.36
956.075	25.66
956.243	27.98
956.41	87.46
956.578	21.78
956.746	11.9
956.914	24.3
957.082	87.07
957.25	77.97
957.418	29.34
957.585	77.97
957.753	82.62
957.921	28.17
958.089	62.85
958.256	73.51
958.424	52.39
958.592	64.99
958.759	45.22
958.927	65.76
959.095	28.95
959.262	71.96
959.43	51.81
959.597	38.25
959.765	37.47
959.932	46.77
960.1	75.84
960.267	59.37
960.435	32.05
960.602	79.52
960.77	29.72
960.937	4.15
961.104	74.09
961.272	0.27
961.439	43.09
961.606	65.95
961.774	62.47
961.941	47.55
962.108	72.74
962.275	64.6
962.443	77.58
962.61	87.46
962.777	111.29
962.944	54.33
963.111	78.35
963.278	100.44
963.446	105.09
963.613	48.13
963.78	88.43
963.947	82.42
964.114	62.85
964.281	120.79
964.448	80.49
964.615	50.07
964.782	82.62
964.949	97.34
965.116	109.16
965.282	122.53
965.449	73.9
965.616	78.55
965.783	85.91
965.95	94.44
966.117	23.14
966.283	54.72
966.45	75.06
966.617	89.2
966.784	111.49
966.95	93.47
967.117	107.42
967.284	40.77
967.45	38.44
967.617	109.55
967.784	109.74
967.95	146.36
968.117	51.23
968.283	131.05
968.45	175.03
968.616	76.22
968.783	123.11
968.949	76.42
969.116	123.11
969.282	90.37
969.449	104.12
969.615	79.52
969.781	53.94
969.948	81.26
970.114	21.39
970.28	137.06
970.447	90.17
970.613	109.55
970.779	89.98
970.945	104.12
971.112	76.8
971.278	93.66
971.444	70.99
971.61	97.92
971.776	66.54
971.942	103.15
972.108	98.12
972.275	72.74
972.441	99.86
972.607	133.57
972.773	58.98
972.939	111.1
973.105	67.7
973.271	31.66
973.437	89.59
973.602	69.05
973.768	96.95
973.934	93.27
974.1	87.27
974.266	27.01
974.432	97.92
974.598	75.64
974.763	99.09
974.929	67.7
975.095	132.8
975.261	71.57
975.426	46.97
975.592	55.49
975.758	123.5
975.923	53.94
976.089	42.12
976.255	132.02
976.42	70.02
976.586	74.09
976.751	89.98
976.917	141.32
977.082	72.35
977.248	66.92
977.413	25.85
977.579	78.16
977.744	75.25
977.91	37.09
978.075	55.1
978.24	88.04
978.406	67.5
978.571	54.72
978.736	73.12
978.902	98.12
979.067	27.79
979.232	20.42
979.397	53.17
979.563	108.97
979.728	37.09
979.893	53.94
980.058	52.59
980.223	78.55
980.388	101.41
980.554	54.33
980.719	42.12
980.884	75.84
981.049	108.19
981.214	80.29
981.379	96.76
981.544	41.54
981.709	63.44
981.874	64.02
982.039	77
982.204	88.43
982.368	60.72
982.533	38.83
982.698	101.41
982.863	101.22
983.028	62.08
983.193	84.75
983.357	70.99
983.522	105.87
983.687	46.77
983.852	46.97
984.016	42.12
984.181	78.16
984.346	98.5
984.51	84.55
984.675	87.65
984.839	93.27
985.004	73.7
985.168	87.27
985.333	90.95
985.498	77
985.662	95.21
985.827	80.1
985.991	64.6
986.155	66.92
986.32	99.09
986.484	134.35
986.649	89.2
986.813	33.41
986.977	59.75
987.142	89.2
987.306	27.59
987.47	24.88
987.634	47.55
987.799	81.45
987.963	75.25
988.127	104.12
988.291	158.37
988.455	70.41
988.62	62.08
988.784	90.37
988.948	101.6
989.112	74.29
989.276	89.79
989.44	74.48
989.604	63.63
989.768	70.6
989.932	139.19
990.096	29.14
990.26	46.39
990.424	35.92
990.588	45.61
990.752	135.32
990.915	82.62
991.079	50.84
991.243	62.66
991.407	84.55
991.571	80.29
991.734	84.94
991.898	82.81
992.062	149.46
992.226	54.14
992.389	42.9
992.553	-7.48
992.717	48.71
992.88	58.01
993.044	67.12
993.207	45.22
993.371	81.26
993.535	84.17
993.698	58.98
993.862	92.89
994.025	112.26
994.189	59.17
994.352	74.67
994.515	63.44
994.679	95.6
994.842	50.65
995.006	105.09
995.169	48.91
995.332	42.51
995.496	81.26
995.659	25.46
995.822	67.7
995.985	54.33
996.149	93.08
996.312	51.62
996.475	124.47
996.638	45.22
996.801	125.24
996.964	112.84
997.128	71.38
997.291	75.84
997.454	78.74
997.617	42.9
997.78	89.4
997.943	53.17
998.106	92.3
998.269	35.73
998.432	46.19
998.595	71.96
998.758	11.12
998.92	22.17
999.083	1.05
999.246	56.46
999.409	5.12
999.572	10.74
999.735	48.32
999.897	85.14
1000.06	53.94
1000.223	65.76
1000.386	93.85
1000.548	67.89
1000.711	52.2
1000.874	58.79
1001.036	12.48
1001.199	76.61
1001.361	19.84
1001.524	57.82
1001.687	102.19
1001.849	33.6
1002.012	56.65
1002.174	77.77
1002.337	75.45
1002.499	79.13
1002.661	103.93
1002.824	7.83
1002.986	7.44
1003.149	62.08
1003.311	41.93
1003.473	79.71
1003.636	44.84
1003.798	43.09
1003.96	47.94
1004.123	53.17
1004.285	24.88
1004.447	38.25
1004.609	40.77
1004.771	101.99
1004.933	21.2
1005.096	12.87
1005.258	-1.47
1005.42	35.15
1005.582	89.59
1005.744	48.13
1005.906	-7.67
1006.068	64.4
1006.23	11.9
1006.392	-28.4
1006.554	13.64
1006.716	71.77
1006.878	64.4
1007.04	18.49
1007.202	39.02
1007.363	45.42
1007.525	63.63
1007.687	64.99
1007.849	80.68
1008.011	31.86
1008.172	12.87
1008.334	40.77
1008.496	64.02
1008.658	-8.83
1008.819	26.82
1008.981	-7.28
1009.143	11.71
1009.304	32.63
1009.466	50.65
1009.627	94.63
1009.789	144.81
1009.95	52.97
1010.112	23.33
1010.273	40.96
1010.435	18.49
1010.596	28.56
1010.758	19.65
1010.919	28.37
1011.081	-11.35
1011.242	35.73
1011.403	39.61
1011.565	46.97
1011.726	52.59
1011.887	-9.99
1012.049	16.36
1012.21	67.5
1012.371	94.24
1012.532	-31.31
1012.693	37.28
1012.855	25.27
1013.016	34.76
1013.177	69.05
1013.338	39.41
1013.499	82.62
1013.66	70.6
1013.821	64.79
1013.982	50.46
1014.143	35.15
1014.304	29.53
1014.465	54.52
1014.626	54.72
1014.787	16.55
1014.948	117.88
1015.109	-50.49
1015.27	89.01
1015.431	10.16
1015.592	21.01
1015.752	87.85
1015.913	26.04
1016.074	64.79
1016.235	29.53
1016.395	8.61
1016.556	52.59
1016.717	3.18
1016.877	70.41
1017.038	13.84
1017.199	41.93
1017.359	12.29
1017.52	41.54
1017.681	0.66
1017.841	33.79
1018.002	0.27
1018.162	12.29
1018.323	80.1
1018.483	32.82
1018.644	13.84
1018.804	-20.46
1018.964	0.47
1019.125	34.37
1019.285	50.84
1019.446	8.99
1019.606	42.71
1019.766	-9.8
1019.926	31.47
1020.087	42.12
1020.247	-7.67
1020.407	47.55
1020.567	65.95
1020.728	12.09
1020.888	-4.18
1021.048	2.6
1021.208	-17.94
1021.368	-2.83
1021.528	61.11
1021.688	29.92
1021.848	45.22
1022.008	29.53
1022.168	0.47
1022.328	17.71
1022.488	42.9
1022.648	3.57
1022.808	21.39
1022.968	39.99
1023.128	6.47
1023.288	13.06
1023.448	16.74
1023.608	60.34
1023.767	21.59
1023.927	9.19
1024.087	2.21
1024.247	-25.49
1024.406	-7.86
1024.566	-6.31
1024.726	-29.95
1024.885	28.56
1025.045	35.34
1025.205	1.05
1025.364	-10.77
1025.524	24.3
1025.683	-11.93
1025.843	13.26
1026.003	21.97
1026.162	59.75
1026.321	39.8
1026.481	23.14
1026.64	3.37
1026.8	31.66
1026.959	6.67
1027.119	20.23
1027.278	13.64
1027.437	-0.5
1027.597	36.51
1027.756	28.17
1027.915	40.77
1028.074	23.33
1028.234	-12.51
1028.393	18.68
1028.552	8.02
1028.711	-46.81
1028.87	49.87
1029.03	9.96
1029.189	18.87
1029.348	-24.72
1029.507	-27.04
1029.666	18.29
1029.825	2.99
1029.984	3.96
1030.143	32.05
1030.302	-10.77
1030.461	-32.66
1030.62	40.96
1030.779	26.24
1030.938	4.54
1031.097	-32.08
1031.255	54.52
1031.414	47.16
1031.573	79.9
1031.732	-9.99
1031.891	3.57
1032.049	74.67
1032.208	44.45
1032.367	-10.58
1032.525	11.32
1032.684	29.34
1032.843	28.17
1033.001	-9.8
1033.16	116.52
1033.319	48.32
1033.477	34.18
1033.636	-13.29
1033.794	-22.98
1033.953	56.85
1034.111	31.47
1034.27	-7.86
1034.428	32.24
1034.587	-13.68
1034.745	5.12
1034.903	2.79
1035.062	47.36
1035.22	-34.21
1035.378	61.11
1035.537	-1.28
1035.695	29.72
1035.853	-21.81
1036.011	59.17
1036.17	35.34
1036.328	-31.69
1036.486	6.86
1036.644	34.96
1036.802	-61.53
1036.96	-15.61
1037.119	26.82
1037.277	-2.24
1037.435	-26.85
1037.593	-17.55
1037.751	14.03
1037.909	56.85
1038.067	56.85
