Data from oakcork_FLMT105791__267__17-34-13-053.txt Node

Date: Mon Mar 20 17:34:13 GMT 2023
User: antho
Spectrometer: FLMT10579
Trigger mode: 0
Integration Time (sec): 1.000000E-1
Scans to average: 10
Electric dark correction enabled: true
Nonlinearity correction enabled: false
Boxcar width: 0
XAxis mode: Wavelengths
Number of Pixels in Spectrum: 3648
>>>>>Begin Spectral Data<<<<<
345.248	-152.01
345.464	-152.01
345.681	-152.01
345.898	-164.22
346.114	-152.79
346.331	-35.57
346.548	2.6
346.764	4.54
346.981	-3.02
347.197	-20.26
347.414	7.64
347.631	-16
347.847	66.34
348.064	-1.08
348.28	41.35
348.497	-41.19
348.713	-5.34
348.93	33.41
349.146	23.52
349.363	-5.93
349.579	20.23
349.796	-8.25
350.012	-8.06
350.229	24.69
350.445	8.8
350.661	-13.29
350.878	10.54
351.094	1.63
351.311	15.19
351.527	6.47
351.743	4.15
351.96	4.15
352.176	67.7
352.392	17.52
352.609	21.78
352.825	-0.69
353.041	2.6
353.257	-17.74
353.474	-3.21
353.69	25.27
353.906	0.27
354.122	-15.42
354.339	43.67
354.555	10.35
354.771	-4.96
354.987	55.1
355.203	45.22
355.42	-20.46
355.636	-12.32
355.852	8.61
356.068	21.39
356.284	-8.44
356.5	57.04
356.716	15.97
356.932	3.76
357.148	37.67
357.364	28.37
357.58	36.12
357.796	35.73
358.012	62.66
358.228	25.27
358.444	-42.93
358.66	55.49
358.876	38.06
359.092	2.02
359.308	10.35
359.524	24.3
359.74	-4.18
359.956	1.44
360.172	34.37
360.388	24.69
360.604	7.83
360.819	86.3
361.035	6.09
361.251	31.27
361.467	-52.81
361.683	49.29
361.898	23.52
362.114	37.47
362.33	9.77
362.546	44.84
362.762	29.14
362.977	0.66
363.193	-0.11
363.409	18.68
363.624	-7.48
363.84	-18.71
364.056	0.86
364.271	55.49
364.487	19.65
364.703	15.39
364.918	2.6
365.134	7.83
365.35	-2.24
365.565	94.82
365.781	20.81
365.996	48.52
366.212	90.17
366.427	33.41
366.643	-16
366.858	-1.66
367.074	8.8
367.289	27.79
367.505	98.12
367.72	0.47
367.936	19.26
368.151	51.04
368.367	46.77
368.582	28.95
368.798	17.71
369.013	63.63
369.228	14.22
369.444	22.94
369.659	53.17
369.874	33.02
370.09	35.34
370.305	-28.79
370.52	7.44
370.736	61.11
370.951	17.32
371.166	72.54
371.381	77.19
371.597	60.72
371.812	-27.82
372.027	1.82
372.242	14.42
372.458	70.22
372.673	15.77
372.888	3.96
373.103	31.47
373.318	93.27
373.533	28.95
373.749	36.12
373.964	-22.98
374.179	29.14
374.394	-9.8
374.609	57.43
374.824	2.6
375.039	58.59
375.254	2.99
375.469	57.82
375.684	30.89
375.899	67.31
376.114	35.34
376.329	6.47
376.544	36.31
376.759	31.47
376.974	-7.28
377.189	6.86
377.404	23.14
377.619	39.8
377.834	-61.34
378.049	-6.7
378.264	-13.09
378.478	52.59
378.693	-0.89
378.908	52.78
379.123	25.66
379.338	42.32
379.553	49.29
379.767	7.44
379.982	28.37
380.197	61.69
380.412	12.87
380.626	61.89
380.841	87.85
381.056	31.66
381.271	98.31
381.485	18.49
381.7	-19.68
381.915	23.52
382.129	-8.06
382.344	43.48
382.559	-3.99
382.773	41.74
382.988	-25.88
383.202	24.3
383.417	11.9
383.632	112.26
383.846	23.33
384.061	28.37
384.275	25.46
384.49	30.5
384.704	51.81
384.919	18.49
385.133	34.76
385.348	71.77
385.562	-8.44
385.777	66.34
385.991	39.02
386.206	38.64
386.42	9.77
386.634	50.65
386.849	16.36
387.063	62.27
387.277	-20.65
387.492	22.17
387.706	14.22
387.92	10.35
388.135	58.79
388.349	20.23
388.563	51.62
388.778	37.67
388.992	34.37
389.206	36.89
389.42	77.97
389.635	58.4
389.849	59.95
390.063	71.38
390.277	53.94
390.491	70.22
390.706	65.95
390.92	46.97
391.134	53.75
391.348	51.04
391.562	9.77
391.776	29.14
391.99	-6.7
392.205	66.54
392.419	9.96
392.633	34.76
392.847	59.37
393.061	18.29
393.275	89.59
393.489	27.59
393.703	38.83
393.917	84.36
394.131	49.1
394.345	38.25
394.559	84.17
394.773	7.25
394.986	58.2
395.2	43.48
395.414	59.95
395.628	43.67
395.842	50.46
396.056	19.46
396.27	-6.31
396.484	39.61
396.697	43.67
396.911	76.8
397.125	64.4
397.339	55.69
397.553	59.75
397.766	115.17
397.98	66.73
398.194	74.67
398.408	36.31
398.621	51.62
398.835	51.23
399.049	71.77
399.262	93.47
399.476	81.65
399.69	91.92
399.903	121.17
400.117	46.77
400.331	59.37
400.544	28.95
400.758	149.65
400.971	82.04
401.185	82.42
401.398	27.98
401.612	100.83
401.826	69.64
402.039	94.05
402.253	22.36
402.466	66.54
402.68	45.42
402.893	42.32
403.106	69.83
403.32	64.99
403.533	68.67
403.747	63.24
403.96	101.8
404.174	93.85
404.387	30.5
404.6	56.27
404.814	85.91
405.027	47.16
405.24	59.17
405.454	49.29
405.667	89.59
405.88	22.36
406.094	61.11
406.307	95.4
406.52	89.4
406.733	53.55
406.947	38.44
407.16	126.21
407.373	120.59
407.586	46.97
407.799	62.08
408.012	82.23
408.226	86.3
408.439	124.66
408.652	31.27
408.865	56.46
409.078	115.17
409.291	92.3
409.504	26.82
409.717	73.51
409.93	81.45
410.143	114
410.357	32.24
410.57	56.07
410.783	62.08
410.996	88.62
411.209	96.37
411.421	108.19
411.634	72.74
411.847	44.84
412.06	81.65
412.273	67.7
412.486	56.27
412.699	161.47
412.912	85.72
413.125	106.25
413.338	68.28
413.55	109.55
413.763	100.05
413.976	89.2
414.189	34.57
414.402	65.18
414.615	113.81
414.827	57.24
415.04	93.08
415.253	113.23
415.466	100.64
415.678	125.63
415.891	83.2
416.104	77
416.316	77
416.529	46.77
416.742	109.74
416.954	116.52
417.167	86.1
417.38	81.26
417.592	110.9
417.805	61.89
418.017	35.73
418.23	112.07
418.442	74.29
418.655	58.4
418.868	80.29
419.08	115.36
419.293	119.82
419.505	110.9
419.718	99.09
419.93	131.05
420.142	85.52
420.355	118.85
420.567	122.53
420.78	119.24
420.992	79.13
421.205	136.29
421.417	41.93
421.629	54.14
421.842	45.81
422.054	41.93
422.266	86.1
422.479	97.73
422.691	80.29
422.903	123.89
423.115	69.25
423.328	75.64
423.54	121.95
423.752	75.84
423.964	88.04
424.177	130.09
424.389	116.52
424.601	151.78
424.813	113.23
425.025	129.7
425.238	117.3
425.45	78.94
425.662	73.7
425.874	344.56
426.086	103.54
426.298	104.7
426.51	121.75
426.722	101.41
426.934	66.34
427.146	126.21
427.358	32.44
427.57	134.15
427.782	84.55
427.994	89.4
428.206	51.81
428.418	63.05
428.63	113.42
428.842	137.84
429.054	101.02
429.266	143.84
429.478	74.09
429.69	94.82
429.902	44.06
430.114	110.9
430.325	101.99
430.537	98.12
430.749	84.94
430.961	54.14
431.173	85.91
431.384	130.28
431.596	47.55
431.808	78.74
432.02	113.42
432.231	125.44
432.443	129.89
432.655	99.09
432.867	67.12
433.078	138.03
433.29	150.23
433.502	119.24
433.713	120.01
433.925	103.93
434.136	144.23
434.348	55.69
434.56	65.57
434.771	176.97
434.983	77.58
435.194	91.53
435.406	92.5
435.617	150.82
435.829	168.25
436.04	139.77
436.252	135.12
436.463	166.7
436.675	129.12
436.886	113.42
437.098	120.79
437.309	180.85
437.521	124.47
437.732	113.04
437.943	117.3
438.155	107.42
438.366	100.44
438.578	184.92
438.789	119.82
439	128.92
439.211	119.24
439.423	138.03
439.634	147.72
439.845	142.1
440.057	157.21
440.268	159.92
440.479	95.99
440.69	117.69
440.902	99.28
441.113	119.62
441.324	110.52
441.535	147.91
441.746	191.89
441.957	88.82
442.168	102.77
442.38	168.83
442.591	163.02
442.802	123.89
443.013	117.49
443.224	138.8
443.435	119.24
443.646	123.3
443.857	139.97
444.068	95.21
444.279	98.89
444.49	180.85
444.701	130.28
444.912	225.99
445.123	163.41
445.334	157.98
445.545	136.09
445.756	160.7
445.967	127.57
446.178	161.28
446.388	200.8
446.599	190.15
446.81	151.98
447.021	140.35
447.232	177.55
447.443	196.54
447.653	118.65
447.864	165.54
448.075	156.05
448.286	164.96
448.496	156.05
448.707	205.65
448.918	132.8
449.129	232.58
449.339	134.93
449.55	171.93
449.761	149.46
449.971	178.33
450.182	145.58
450.393	173.1
450.603	160.5
450.814	189.37
451.024	180.27
451.235	203.52
451.446	211.85
451.656	220.37
451.867	163.6
452.077	185.88
452.288	226.96
452.498	229.67
452.709	178.33
452.919	202.35
453.13	141.9
453.34	225.02
453.55	142.1
453.761	196.93
453.971	160.5
454.182	209.13
454.392	166.7
454.602	232
454.813	184.72
455.023	220.37
455.233	166.12
455.444	191.7
455.654	120.59
455.864	184.33
456.075	166.51
456.285	163.6
456.495	153.72
456.705	208.36
456.916	209.52
457.126	231.8
457.336	167.87
457.546	114.78
457.756	156.24
457.967	215.53
458.177	138.8
458.387	192.86
458.597	138.42
458.807	163.41
459.017	160.31
459.227	183.37
459.437	172.32
459.647	223.67
459.857	215.33
460.068	145.97
460.278	219.4
460.488	194.41
460.698	251.76
460.908	178.52
461.117	152.56
461.327	138.22
461.537	184.92
461.747	208.94
461.957	201.19
462.167	274.04
462.377	226.57
462.587	187.82
462.797	219.98
463.007	186.08
463.216	211.07
463.426	224.44
463.636	217.27
463.846	173.48
464.056	207.2
464.265	226.76
464.475	183.75
464.685	168.83
464.895	223.86
465.104	188.98
465.314	236.26
465.524	195.38
465.733	189.37
465.943	275.78
466.153	263.58
466.362	214.37
466.572	200.03
466.782	188.98
466.991	211.27
467.201	250.79
467.41	172.9
467.62	206.23
467.829	179.3
468.039	245.36
468.249	210.88
468.458	199.45
468.668	218.63
468.877	227.54
469.086	254.28
469.296	243.62
469.505	179.1
469.715	261.64
469.924	231.22
470.134	279.08
470.343	254.86
470.552	213.78
470.762	219.98
470.971	200.03
471.18	245.36
471.39	223.67
471.599	193.63
471.808	228.51
472.018	184.92
472.227	281.21
472.436	252.34
472.645	232
472.855	193.25
473.064	272.68
473.273	229.28
473.482	254.86
473.691	261.64
473.901	255.44
474.11	268.81
474.319	307.95
474.528	226.57
474.737	289.35
474.946	290.31
475.155	271.91
475.364	311.24
475.573	267.06
475.783	286.05
475.992	292.64
476.201	310.46
476.41	256.99
476.619	224.63
476.828	258.73
477.037	259.31
477.245	247.69
477.454	299.03
477.663	253.89
477.872	271.91
478.081	342.43
478.29	232.19
478.499	337.98
478.708	282.37
478.917	349.21
479.125	284.89
479.334	308.72
479.543	248.46
479.752	314.14
479.961	312.79
480.169	306.4
480.378	283.73
480.587	391.64
480.796	312.21
481.004	289.73
481.213	323.64
481.422	302.71
481.63	318.79
481.839	327.51
482.048	362.97
482.256	312.98
482.465	317.44
482.674	354.44
482.882	336.23
483.091	393
483.299	347.47
483.508	359.09
483.716	336.62
483.925	357.54
484.134	293.22
484.342	302.33
484.551	370.53
484.759	362.78
484.967	348.83
485.176	381.38
485.384	380.79
485.593	380.21
485.801	356.19
486.01	350.76
486.218	344.76
486.426	272.3
486.635	336.81
486.843	315.31
487.051	324.22
487.26	326.54
487.468	337.39
487.676	369.56
487.885	331.97
488.093	363.36
488.301	359.68
488.509	387.77
488.717	368.78
488.926	377.5
489.134	346.11
489.342	353.86
489.55	347.47
489.758	365.68
489.967	334.1
490.175	477.67
490.383	338.94
490.591	428.26
490.799	356.19
491.007	414.31
491.215	430.39
491.423	368.78
491.631	386.61
491.839	368.2
492.047	412.57
492.255	374.21
492.463	347.47
492.671	382.34
492.879	408.5
493.087	402.11
493.295	390.09
493.503	407.14
493.711	407.72
493.919	439.89
494.127	417.41
494.334	448.41
494.542	358.71
494.75	419.93
494.958	416.06
495.166	492
495.374	432.52
495.581	438.72
495.789	412.37
495.997	480.57
496.205	425.94
496.412	410.44
496.62	397.84
496.828	424.19
497.035	403.85
497.243	454.03
497.451	432.91
497.658	453.26
497.866	436.59
498.074	473.99
498.281	412.37
498.489	506.15
498.696	450.35
498.904	449.77
499.112	432.52
499.319	508.47
499.527	417.02
499.734	484.64
499.942	404.24
500.149	421.29
500.357	444.15
500.564	395.13
500.771	423.03
500.979	420.71
501.186	443.76
501.394	455.39
501.601	452.87
501.808	481.93
502.016	435.24
502.223	447.64
502.43	462.17
502.638	442.79
502.845	390.29
503.052	526.3
503.26	430.39
503.467	516.22
503.674	427.68
503.881	473.02
504.089	522.42
504.296	482.12
504.503	399.39
504.71	473.41
504.917	434.07
505.125	465.46
505.332	477.86
505.539	480.57
505.746	537.92
505.953	512.74
506.16	490.45
506.367	520.1
506.574	538.5
506.781	542.96
506.988	444.34
507.195	487.55
507.402	455.58
507.609	501.11
507.816	456.36
508.023	467.59
508.23	469.72
508.437	449.77
508.644	491.62
508.851	548.77
509.058	525.72
509.265	528.24
509.472	521.45
509.679	578.61
509.885	494.91
510.092	516.42
510.299	505.57
510.506	522.23
510.713	543.74
510.92	538.12
511.126	513.51
511.333	552.65
511.54	546.45
511.746	575.12
511.953	579.77
512.16	575.9
512.367	525.52
512.573	522.62
512.78	542.38
512.987	572.6
513.193	517.97
513.4	466.82
513.606	510.22
513.813	555.75
514.02	519.32
514.226	573.19
514.433	564.85
514.639	495.1
514.846	559.24
515.052	543.35
515.259	568.92
515.465	579.19
515.672	553.04
515.878	624.53
516.085	539.09
516.291	595.85
516.497	542.38
516.704	530.75
516.91	506.73
517.117	484.45
517.323	470.11
517.529	518.94
517.736	519.9
517.942	532.69
518.148	502.47
518.354	522.81
518.561	512.74
518.767	566.6
518.973	573.57
519.179	577.06
519.386	537.34
519.592	518.55
519.798	536.76
520.004	627.43
520.21	557.49
520.417	617.36
520.623	619.3
520.829	620.07
521.035	594.69
521.241	608.45
521.447	617.17
521.653	687.5
521.859	573.19
522.065	586.36
522.271	700.67
522.477	634.8
522.683	698.73
522.889	641.77
523.095	653.78
523.301	647.97
523.507	613.68
523.713	667.93
523.919	615.81
524.125	703.96
524.331	633.83
524.537	702.61
524.742	687.88
524.948	722.18
525.154	681.49
525.36	765.38
525.566	706.48
525.772	740.39
525.977	685.17
526.183	719.27
526.389	716.36
526.595	689.43
526.8	645.07
527.006	617.55
527.212	637.7
527.417	632.28
527.623	602.44
527.829	678
528.034	695.63
528.24	694.08
528.446	655.53
528.651	729.93
528.857	733.8
529.062	760.15
529.268	708.81
529.473	750.46
529.679	725.08
529.884	829.51
530.09	767.32
530.295	789.99
530.501	795.03
530.706	773.33
530.912	713.65
531.117	776.43
531.323	760.73
531.528	752.79
531.733	758.02
531.939	767.51
532.144	759.76
532.35	766.74
532.555	798.32
532.76	809.56
532.966	790.38
533.171	780.49
533.376	727.41
533.581	737.29
533.787	769.26
533.992	791.93
534.197	831.64
534.402	762.28
534.607	796.77
534.813	872.33
535.018	760.93
535.223	779.72
535.428	777.98
535.633	841.91
535.838	820.02
536.043	812.85
536.249	863.42
536.454	804.52
536.659	814.01
536.864	794.44
537.069	783.98
537.274	825.83
537.479	825.64
537.684	834.16
537.889	781.85
538.094	884.92
538.299	832.61
538.504	843.27
538.708	848.69
538.913	869.42
539.118	832.42
539.323	857.02
539.528	809.94
539.733	813.24
539.938	823.12
540.142	868.26
540.347	794.64
540.552	807.81
540.757	821.57
540.962	835.71
541.166	803.16
541.371	776.04
541.576	819.05
541.781	763.06
541.985	809.56
542.19	820.79
542.395	908.37
542.599	879.11
542.804	867.1
543.008	873.49
543.213	820.41
543.418	788.44
543.622	862.45
543.827	815.76
544.031	892.87
544.236	931.23
544.44	845.21
544.645	918.83
544.849	816.73
545.054	871.17
545.258	918.83
545.463	950.41
545.667	834.16
545.872	880.86
546.076	862.84
546.281	863.42
546.485	863.42
546.689	886.67
546.894	898.1
547.098	893.64
547.302	849.47
547.507	858.96
547.711	867.29
547.915	886.09
548.119	839.01
548.324	858.57
548.528	933.94
548.732	869.23
548.936	890.74
549.141	888.41
549.345	852.96
549.549	909.34
549.753	885.7
549.957	956.61
550.161	923.09
550.366	870.59
550.57	859.35
550.774	868.46
550.978	901.97
551.182	895.58
551.386	881.24
551.59	880.66
551.794	839.97
551.998	915.54
552.202	889.19
552.406	848.69
552.61	881.24
552.814	888.22
553.018	957.19
553.222	892.29
553.426	851.6
553.63	938.59
553.833	881.82
554.037	838.81
554.241	924.06
554.445	897.91
554.649	892.09
554.853	897.71
555.056	909.72
555.26	898.87
555.464	903.91
555.668	909.14
555.871	929.87
556.075	922.12
556.279	872.72
556.483	827.77
556.686	895
556.89	890.16
557.094	874.27
557.297	858.77
557.501	921.35
557.704	811.88
557.908	913.02
558.112	847.34
558.315	881.05
558.519	853.92
558.722	883.57
558.926	819.24
559.129	816.53
559.333	836.1
559.536	821.96
559.74	813.82
559.943	816.34
560.147	778.17
560.35	825.25
560.553	841.14
560.757	764.8
560.96	889.77
561.164	833.39
561.367	890.74
561.57	811.3
561.774	807.62
561.977	823.12
562.18	807.43
562.384	884.54
562.587	810.91
562.79	803.36
562.993	797.16
563.197	877.76
563.4	901.39
563.603	878.14
563.806	936.27
564.009	819.44
564.212	822.15
564.416	790.76
564.619	834.55
564.822	778.17
565.025	840.36
565.228	797.54
565.431	790.96
565.634	719.46
565.837	810.14
566.04	781.66
566.243	777.39
566.446	677.42
566.649	834.16
566.852	721.21
567.055	755.69
567.258	810.72
567.461	852.57
567.664	821.57
567.867	729.54
568.07	804.71
568.273	774.1
568.475	782.04
568.678	767.71
568.881	758.41
569.084	793.48
569.287	684.01
569.489	715.2
569.692	744.85
569.895	757.05
570.098	730.7
570.3	703
570.503	661.34
570.706	691.37
570.909	701.83
571.111	661.53
571.314	678
571.516	676.45
571.719	707.65
571.922	690.01
572.124	668.31
572.327	698.35
572.529	643.32
572.732	667.73
572.935	685.17
573.137	728.96
573.34	670.45
573.542	735.55
573.745	708.61
573.947	694.47
574.15	649.52
574.352	664.63
574.554	735.74
574.757	662.12
574.959	696.6
575.162	642.55
575.364	643.9
575.566	760.34
575.769	642.93
575.971	696.41
576.173	598.57
576.376	647.78
576.578	692.34
576.78	697.76
576.982	580.16
577.185	637.9
577.387	608.25
577.589	625.3
577.791	701.64
577.993	648.17
578.196	651.07
578.398	704.74
578.6	676.45
578.802	581.32
579.004	587.91
579.206	618.52
579.408	660.76
579.61	636.35
579.812	643.13
580.014	599.15
580.216	644.29
580.418	635.18
580.62	613.87
580.822	584.03
581.024	626.27
581.226	665.99
581.428	603.8
581.63	713.07
581.832	601.28
582.034	670.45
582.236	670.06
582.438	655.14
582.64	687.88
582.841	686.14
583.043	712.1
583.245	647.78
583.447	659.21
583.649	642.55
583.85	621.43
584.052	671.41
584.254	623.56
584.456	676.84
584.657	621.23
584.859	631.7
585.061	604.77
585.262	605.73
585.464	614.45
585.666	648.75
585.867	595.85
586.069	666.76
586.27	643.13
586.472	612.9
586.674	609.03
586.875	631.5
587.077	603.99
587.278	640.22
587.48	598.18
587.681	713.46
587.883	625.11
588.084	574.74
588.285	597.02
588.487	586.36
588.688	601.67
588.89	560.59
589.091	507.7
589.292	596.24
589.494	542.77
589.695	545.09
589.896	502.66
590.098	515.45
590.299	548.39
590.5	516.03
590.702	501.89
590.903	569.5
591.104	579.58
591.305	590.43
591.507	623.37
591.708	584.42
591.909	552.45
592.11	648.36
592.311	580.35
592.512	566.21
592.714	518.94
592.915	524.17
593.116	533.27
593.317	548.19
593.518	542.77
593.719	552.45
593.92	584.62
594.121	610
594.322	543.35
594.523	563.89
594.724	503.44
594.925	556.14
595.126	549.35
595.327	570.47
595.528	575.7
595.729	554.97
595.929	567.18
596.13	568.15
596.331	564.47
596.532	554.2
596.733	596.82
596.934	604.57
597.135	590.04
597.335	608.25
597.536	526.88
597.737	564.27
597.938	562.14
598.138	593.72
598.339	564.47
598.54	565.05
598.74	556.14
598.941	588.68
599.142	609.8
599.342	571.83
599.543	564.27
599.744	565.63
599.944	530.56
600.145	542.57
600.345	530.56
600.546	609.61
600.746	594.11
600.947	626.66
601.147	563.69
601.348	575.51
601.548	526.69
601.749	568.54
601.949	529.79
602.15	535.99
602.35	555.17
602.551	603.8
602.751	503.05
602.951	526.69
603.152	487.74
603.352	560.79
603.552	562.34
603.753	580.93
603.953	567.95
604.153	541.99
604.354	560.4
604.554	548.58
604.754	546.06
604.954	514.09
605.155	582.68
605.355	557.49
605.555	572.02
605.755	605.93
605.955	578.03
606.155	608.06
606.356	550.13
606.556	566.4
606.756	582.87
606.956	492
607.156	583.45
607.356	540.25
607.556	568.54
607.756	519.13
607.956	591.59
608.156	570.09
608.356	548.77
608.556	591.78
608.756	568.34
608.956	506.73
609.156	548
609.356	533.66
609.556	524.55
609.755	578.61
609.955	499.95
610.155	537.73
610.355	522.23
610.555	534.63
610.755	533.47
610.954	489.68
611.154	527.27
611.354	572.99
611.554	505.57
611.753	525.72
611.953	468.17
612.153	548.58
612.352	502.66
612.552	494.72
612.752	424.39
612.951	536.37
613.151	502.66
613.351	463.52
613.55	493.17
613.75	523.97
613.949	522.62
614.149	517.97
614.348	521.07
614.548	493.17
614.747	460.42
614.947	494.91
615.146	457.52
615.346	537.34
615.545	508.67
615.745	488.13
615.944	526.88
616.144	460.23
616.343	524.75
616.542	481.16
616.742	468.95
616.941	478.64
617.14	452.67
617.34	490.45
617.539	477.86
617.738	478.83
617.938	499.17
618.137	487.36
618.336	458.49
618.535	503.63
618.734	475.92
618.934	502.85
619.133	494.14
619.332	486
619.531	451.71
619.73	482.9
619.929	521.26
620.128	495.88
620.328	539.28
620.527	443.18
620.726	470.5
620.925	468.37
621.124	476.31
621.323	469.53
621.522	446.47
621.721	446.47
621.92	476.12
622.119	466.62
622.318	441.44
622.517	451.12
622.715	477.09
622.914	401.91
623.113	449.57
623.312	394.55
623.511	463.14
623.71	461.39
623.909	443.18
624.107	516.8
624.306	430.01
624.505	415.28
624.704	465.07
624.902	443.37
625.101	498.79
625.3	475.73
625.499	416.25
625.697	418.57
625.896	401.14
626.095	475.73
626.293	400.56
626.492	412.18
626.69	444.73
626.889	423.22
627.088	461.39
627.286	381.18
627.485	400.17
627.683	436.98
627.882	447.06
628.08	380.6
628.279	406.95
628.477	463.91
628.676	387.38
628.874	427.68
629.073	412.76
629.271	397.65
629.469	420.9
629.668	398.81
629.866	390.87
630.065	408.31
630.263	440.27
630.461	393.39
630.66	438.34
630.858	437.17
631.056	447.06
631.254	460.81
631.453	374.98
631.651	449.77
631.849	417.02
632.047	429.62
632.245	397.46
632.444	442.21
632.642	430.2
632.84	432.14
633.038	404.62
633.236	384.48
633.434	368.01
633.632	369.36
633.83	382.93
634.028	454.81
634.227	426.71
634.425	474.37
634.623	416.44
634.821	427.49
635.019	397.26
635.216	388.93
635.414	467.01
635.612	427.29
635.81	411.21
636.008	474.96
636.206	406.76
636.404	441.63
636.602	364.91
636.8	421.09
636.997	418.19
637.195	449.96
637.393	407.14
637.591	461.78
637.789	442.99
637.986	413.73
638.184	422.64
638.382	443.96
638.58	455.97
638.777	459.46
638.975	437.76
639.173	425.36
639.37	447.83
639.568	433.11
639.765	454.03
639.963	403.85
640.161	460.81
640.358	445.31
640.556	411.02
640.753	382.15
640.951	381.18
641.148	422.26
641.346	391.06
641.543	410.05
641.741	426.52
641.938	416.64
642.136	401.72
642.333	390.09
642.531	457.13
642.728	447.64
642.925	417.99
643.123	411.79
643.32	422.64
643.517	403.66
643.715	438.53
643.912	373.82
644.109	410.63
644.306	422.84
644.504	396.88
644.701	425.16
644.898	418.96
645.095	370.72
645.293	401.52
645.49	420.71
645.687	378.47
645.884	433.69
646.081	341.27
646.278	368.01
646.475	379.83
646.672	373.43
646.87	400.75
647.067	391.45
647.264	378.47
647.461	350.96
647.658	347.28
647.855	379.63
648.052	357.54
648.249	286.25
648.446	352.12
648.642	351.93
648.839	349.99
649.036	337.98
649.233	326.93
649.43	300.78
649.627	307.17
649.824	347.28
650.021	348.63
650.217	308.72
650.414	355.22
650.611	362.19
650.808	369.56
651.004	358.71
651.201	377.11
651.398	390.48
651.595	366.46
651.791	325.19
651.988	380.02
652.185	346.69
652.381	367.62
652.578	317.83
652.775	364.13
652.971	327.9
653.168	326.35
653.364	400.36
653.561	301.16
653.757	323.44
653.954	354.64
654.15	310.46
654.347	391.06
654.543	339.33
654.74	322.86
654.936	314.14
655.133	331.19
655.329	356.77
655.525	330.61
655.722	389.32
655.918	300.58
656.115	358.32
656.311	301.75
656.507	281.6
656.704	272.49
656.9	280.63
657.096	270.75
657.292	287.21
657.489	314.92
657.685	331
657.881	290.12
658.077	295.74
658.273	300.2
658.47	362.19
658.666	294.96
658.862	347.66
659.058	305.62
659.254	329.45
659.45	300.2
659.646	345.73
659.842	305.04
660.038	369.94
660.234	271.13
660.43	305.04
660.626	371.88
660.822	347.08
661.018	349.6
661.214	331
661.41	311.05
661.606	340.11
661.802	343.4
661.998	300
662.194	321.31
662.39	331
662.586	337.2
662.781	350.57
662.977	334.29
663.173	354.64
663.369	350.57
663.564	307.95
663.76	359.68
663.956	324.8
664.152	374.59
664.347	301.75
664.543	307.75
664.739	316.86
664.934	255.25
665.13	261.06
665.326	316.86
665.521	336.81
665.717	279.27
665.912	266.68
666.108	225.41
666.304	300.78
666.499	312.01
666.695	245.17
666.89	296.32
667.086	331.39
667.281	307.36
667.477	351.34
667.672	328.09
667.867	313.76
668.063	333.13
668.258	273.26
668.454	285.86
668.649	329.45
668.844	312.6
669.04	303.3
669.235	314.14
669.43	295.74
669.626	276.17
669.821	305.43
670.016	278.88
670.211	298.06
670.407	287.6
670.602	289.15
670.797	310.27
670.992	333.13
671.187	262.8
671.382	305.62
671.578	291.86
671.773	293.61
671.968	250.4
672.163	300.78
672.358	313.76
672.553	281.01
672.748	246.72
672.943	355.41
673.138	250.4
673.333	298.65
673.528	247.3
673.723	300.78
673.918	292.83
674.113	220.57
674.308	354.25
674.503	318.21
674.698	295.55
674.892	304.26
675.087	318.99
675.282	343.79
675.477	277.33
675.672	311.82
675.867	266.29
676.061	263.19
676.256	228.7
676.451	260.67
676.646	282.76
676.84	268.42
677.035	240.71
677.23	258.93
677.424	282.37
677.619	295.16
677.814	331.19
678.008	329.64
678.203	228.12
678.397	279.66
678.592	261.06
678.787	323.64
678.981	284.89
679.176	307.95
679.37	288.96
679.565	225.99
679.759	267.45
679.954	291.09
680.148	328.48
680.342	337.2
680.537	282.95
680.731	253.89
680.926	299.61
681.12	301.55
681.314	226.76
681.509	272.88
681.703	294.38
681.897	318.21
682.092	269.78
682.286	246.33
682.48	346.69
682.674	301.75
682.869	263
683.063	263.96
683.257	354.25
683.451	266.1
683.645	300.39
683.839	303.3
684.034	275.2
684.228	330.61
684.422	251.95
684.616	230.45
684.81	288.18
685.004	274.43
685.198	267.65
685.392	300.58
685.586	252.15
685.78	303.68
685.974	282.56
686.168	293.22
686.362	309.11
686.556	273.46
686.75	238.39
686.944	253.89
687.138	290.51
687.331	197.7
687.525	245.36
687.719	178.52
687.913	217.27
688.107	201.97
688.301	204.68
688.494	261.83
688.688	226.76
688.882	162.05
689.076	190.73
689.269	228.51
689.463	294.38
689.657	215.33
689.85	214.75
690.044	237.03
690.238	252.34
690.431	230.06
690.625	240.91
690.818	219.79
691.012	246.14
691.205	251.18
691.399	205.65
691.593	266.48
691.786	286.63
691.98	261.06
692.173	305.04
692.366	298.65
692.56	282.56
692.753	349.02
692.947	242.07
693.14	335.07
693.333	333.71
693.527	246.14
693.72	311.24
693.914	279.46
694.107	291.09
694.3	282.76
694.493	269.39
694.687	323.25
694.88	283.15
695.073	364.91
695.266	336.04
695.46	287.21
695.653	356.96
695.846	347.28
696.039	267.84
696.232	291.67
696.425	340.69
696.618	349.41
696.812	296.13
697.005	399.2
697.198	438.92
697.391	341.46
697.584	399.2
697.777	431.36
697.97	401.14
698.163	420.71
698.356	405.98
698.549	463.91
698.742	440.08
698.935	410.63
699.127	421.48
699.32	377.11
699.513	373.43
699.706	434.85
699.899	470.5
700.092	406.76
700.285	459.84
700.477	365.88
700.67	432.72
700.863	453.06
701.056	517.77
701.248	499.75
701.441	510.6
701.634	476.51
701.826	537.73
702.019	449.57
702.212	515.64
702.404	474.76
702.597	469.72
702.79	500.92
702.982	504.02
703.175	536.18
703.367	538.7
703.56	534.44
703.752	588.1
703.945	563.11
704.137	561.37
704.33	602.83
704.522	590.23
704.715	603.22
704.907	610.58
705.1	594.88
705.292	616.78
705.484	614.84
705.677	644.87
705.869	614.26
706.061	640.03
706.254	680.91
706.446	616.78
706.638	646.03
706.831	716.36
707.023	657.47
707.215	715.78
707.407	681.3
707.599	675.87
707.792	747.56
707.984	712.88
708.176	769.45
708.368	702.61
708.56	710.55
708.752	712.49
708.944	739.61
709.136	772.55
709.329	717.53
709.521	832.23
709.713	820.21
709.905	834.16
710.097	820.41
710.289	781.08
710.481	808.98
710.672	804.52
710.864	825.44
711.056	863.81
711.248	878.34
711.44	844.24
711.632	859.93
711.824	849.86
712.016	908.17
712.207	925.03
712.399	930.45
712.591	950.02
712.783	932.59
712.975	953.9
713.166	900.23
713.358	940.34
713.55	974.44
713.741	950.8
713.933	1011.64
714.125	972.5
714.316	980.05
714.508	1013.96
714.7	1046.51
714.891	1013.18
715.083	1025.78
715.274	1018.42
715.466	1030.82
715.657	1074.6
715.849	942.27
716.04	991.29
716.232	1003.11
716.423	1052.32
716.615	955.06
716.806	994.59
716.998	959.9
717.189	923.87
717.381	871.56
717.572	855.47
717.763	899.65
717.955	884.73
718.146	878.34
718.337	834.16
718.528	813.04
718.72	788.05
718.911	855.09
719.102	803.74
719.293	853.34
719.485	833.97
719.676	808.78
719.867	813.24
720.058	778.56
720.249	829.51
720.44	844.43
720.632	892.67
720.823	919.99
721.014	1012.41
721.205	978.12
721.396	984.32
721.587	1077.7
721.778	1085.07
721.969	1118.78
722.16	1110.45
722.351	1098.82
722.542	1216.23
722.733	1250.33
722.924	1120.13
723.115	1204.99
723.305	1198.02
723.496	1183.49
723.687	1123.04
723.878	1122.46
724.069	1145.51
724.26	1140.28
724.45	1104.83
724.641	1094.37
724.832	1100.95
725.023	1118.39
725.213	1114.9
725.404	1133.5
725.595	1120.91
725.785	1118.78
725.976	1155.01
726.167	1148.03
726.357	1142.03
726.548	1262.93
726.739	1155.59
726.929	1235.99
727.12	1249.17
727.31	1261.96
727.501	1229.02
727.691	1211
727.882	1234.25
728.072	1277.84
728.263	1225.92
728.453	1303.61
728.644	1290.05
728.834	1293.73
729.024	1266.8
729.215	1277.84
729.405	1294.12
729.596	1351.47
729.786	1359.8
729.976	1351.47
730.167	1369.87
730.357	1311.94
730.547	1376.27
730.737	1367.94
730.928	1405.14
731.118	1438.07
731.308	1396.61
731.498	1400.87
731.688	1466.94
731.879	1449.31
732.069	1519.06
732.259	1545.6
732.449	1517.51
732.639	1629.69
732.829	1590.36
733.019	1615.74
733.209	1647.51
733.399	1680.64
733.589	1730.44
733.779	1744.19
733.969	1723.66
734.159	1758.34
734.349	1788.37
734.539	1841.07
734.729	1803.67
734.919	1850.17
735.109	1872.07
735.299	1829.83
735.488	1876.14
735.678	1845.14
735.868	1887.57
736.058	1855.99
736.248	1867.61
736.437	1807.94
736.627	1813.75
736.817	1898.03
737.007	1895.7
737.196	1905.39
737.386	1915.66
737.576	1895.51
737.765	1959.45
737.955	1883.69
738.144	2013.31
738.334	1971.85
738.524	1939.3
738.713	1959.06
738.903	1953.63
739.092	2004.59
739.282	2014.47
739.471	1980.95
739.661	1990.06
739.85	2065.43
740.04	2007.5
740.229	2030.36
740.419	2086.16
740.608	2099.53
740.797	2069.88
740.987	2126.26
741.176	2081.31
741.365	2074.34
741.555	2057.68
741.744	2147.96
741.933	2110.38
742.123	2123.16
742.312	2117.16
742.501	2151.26
742.69	2168.11
742.88	2117.16
743.069	2217.13
743.258	2142.15
743.447	2210.16
743.636	2196.4
743.825	2154.94
744.014	2177.02
744.204	2207.25
744.393	2137.31
744.582	2203.37
744.771	2216.94
744.96	2206.28
745.149	2232.44
745.338	2181.48
745.527	2226.62
745.716	2172.18
745.905	2178.38
746.094	2242.7
746.283	2252
746.471	2230.5
746.66	2284.36
746.849	2279.13
747.038	2276.03
747.227	2255.1
747.416	2281.45
747.604	2229.14
747.793	2270.41
747.982	2255.1
748.171	2257.24
748.359	2278.74
748.548	2305.67
748.737	2283.39
748.926	2234.18
749.114	2158.62
749.303	2239.99
749.491	2262.66
749.68	2215.77
749.869	2274.67
750.057	2227.59
750.246	2237.09
750.434	2208.61
750.623	2208.02
750.811	2229.72
751	2278.35
751.188	2230.5
751.377	2247.55
751.565	2205.51
751.754	2209.77
751.942	2178.96
752.131	2229.53
752.319	2186.71
752.507	2136.34
752.696	2227.01
752.884	2281.26
753.072	2191.94
753.261	2227.4
753.449	2220.62
753.637	2215.39
753.825	2265.76
754.014	2209.19
754.202	2201.82
754.39	2263.24
754.578	2231.66
754.766	2211.9
754.955	2184.19
755.143	2284.55
755.331	2175.28
755.519	2211.71
755.707	2190.78
755.895	2197.95
756.083	2218.68
756.271	2128.01
756.459	2185.94
756.647	2225.66
756.835	2178.57
757.023	2177.99
757.211	2156.87
757.399	2145.06
757.587	2130.53
757.775	2122.78
757.963	2118.71
758.151	2126.26
758.339	2127.62
758.526	2089.45
758.714	2111.34
758.902	2027.65
759.09	2002.46
759.278	1852.3
759.465	1722.49
759.653	1463.45
759.841	1373.17
760.028	1161.01
760.216	966.69
760.404	964.36
760.591	781.08
760.779	640.03
760.967	577.06
761.154	446.47
761.342	484.06
761.529	525.52
761.717	541.8
761.905	484.26
762.092	551.29
762.28	461.01
762.467	488.71
762.655	473.99
762.842	486.77
763.029	507.89
763.217	497.62
763.404	503.82
763.592	513.51
763.779	464.11
763.966	529.79
764.154	548.58
764.341	597.4
764.528	577.25
764.716	638.67
764.903	643.9
765.09	692.53
765.277	727.41
765.465	857.22
765.652	862.45
765.839	921.74
766.026	1002.14
766.213	1023.07
766.4	1113.74
766.588	1264.86
766.775	1197.44
766.962	1341.97
767.149	1305.16
767.336	1453.38
767.523	1419.28
767.71	1502.4
767.897	1570.98
768.084	1627.36
768.271	1634.53
768.458	1713
768.645	1719.01
768.832	1677.16
769.019	1716.87
769.206	1756.98
769.392	1809.1
769.579	1908.88
769.766	1850.37
769.953	1884.08
770.14	1857.15
770.327	1880.59
770.513	1910.82
770.7	1986.18
770.887	1875.75
771.073	1938.52
771.26	1957.51
771.447	1855.4
771.634	1887.95
771.82	2000.52
772.007	1867.42
772.193	1888.15
772.38	1973.4
772.567	1898.8
772.753	1913.14
772.94	1948.21
773.126	1969.52
773.313	1992.38
773.499	1958.48
773.686	1949.18
773.872	1895.12
774.059	1934.84
774.245	1896.09
774.432	1919.92
774.618	1829.25
774.804	1940.85
774.991	1863.93
775.177	1967.78
775.363	1907.52
775.55	1891.44
775.736	1879.43
775.922	1873.04
776.109	1889.7
776.295	1921.67
776.481	1925.73
776.667	1904.81
776.853	1873.23
777.04	1854.44
777.226	1846.49
777.412	1935.62
777.598	1847.27
777.784	1853.08
777.97	1852.5
778.156	1871.1
778.342	1862.19
778.528	1844.36
778.715	1773.26
778.901	1819.37
779.087	1866.64
779.272	1822.85
779.458	1752.91
779.644	1814.14
779.83	1805.22
780.016	1901.71
780.202	1820.14
780.388	1780.04
780.574	1771.12
780.76	1787.79
780.946	1839.71
781.131	1790.89
781.317	1793.79
781.503	1760.27
781.689	1755.82
781.874	1840.49
782.06	1773.26
782.246	1763.96
782.432	1758.14
782.617	1791.27
782.803	1807.35
782.989	1734.89
783.174	1764.73
783.36	1708.74
783.545	1787.21
783.731	1793.02
783.916	1680.26
784.102	1779.65
784.288	1696.14
784.473	1742.06
784.659	1699.05
784.844	1752.33
785.029	1688.2
785.215	1730.05
785.4	1660.88
785.586	1744.77
785.771	1657.78
785.956	1703.89
786.142	1694.21
786.327	1649.45
786.512	1694.21
786.698	1668.63
786.883	1605.28
787.068	1635.89
787.254	1685.29
787.439	1631.04
787.624	1628.91
787.809	1619.61
787.994	1621.75
788.18	1712.81
788.365	1579.31
788.55	1617.87
788.735	1627.75
788.92	1577.76
789.105	1602.56
789.29	1629.3
789.475	1551.03
789.66	1533.59
789.845	1557.81
790.03	1530.49
790.215	1595.4
790.4	1595.4
790.585	1606.83
790.77	1542.5
790.955	1486.7
791.14	1574.47
791.325	1581.25
791.51	1503.56
791.695	1540.18
791.879	1534.95
792.064	1492.13
792.249	1569.82
792.434	1518.48
792.618	1548.31
792.803	1541.53
792.988	1513.83
793.173	1560.13
793.357	1523.9
793.542	1512.67
793.727	1533.98
793.911	1565.95
794.096	1526.23
794.281	1560.91
794.465	1620.39
794.65	1543.28
794.834	1595.78
795.019	1619.81
795.203	1576.02
795.388	1574.66
795.572	1607.8
795.757	1535.33
795.941	1598.5
796.126	1575.63
796.31	1519.83
796.494	1556.26
796.679	1527.78
796.863	1525.84
797.048	1583.96
797.232	1560.13
797.416	1576.41
797.601	1583.58
797.785	1609.35
797.969	1588.03
798.153	1525.45
798.338	1579.51
798.522	1594.23
798.706	1606.44
798.89	1568.46
799.074	1675.61
799.258	1641.12
799.443	1586.87
799.627	1589.39
799.811	1596.36
799.995	1586.48
800.179	1568.46
800.363	1552.96
800.547	1618.45
800.731	1620.58
800.915	1531.07
801.099	1545.8
801.283	1582.22
801.467	1583.77
801.651	1530.1
801.835	1621.55
802.019	1588.61
802.202	1570.01
802.386	1516.93
802.57	1546.38
802.754	1546.38
802.938	1532.62
803.121	1540.18
803.305	1619.03
803.489	1539.6
803.673	1552.38
803.856	1593.07
804.04	1543.28
804.224	1566.14
804.407	1549.48
804.591	1532.23
804.775	1554.32
804.958	1543.47
805.142	1640.73
805.326	1553.35
805.509	1575.05
805.693	1592.68
805.876	1588.03
806.06	1587.26
806.243	1556.45
806.427	1591.33
806.61	1626.98
806.794	1559.94
806.977	1561.3
807.16	1604.89
807.344	1576.02
807.527	1580.09
807.71	1533.4
807.894	1595.98
808.077	1562.46
808.26	1544.63
808.444	1551.61
808.627	1580.67
808.81	1548.12
808.993	1530.3
809.177	1489.03
809.36	1496.2
809.543	1526.81
809.726	1461.52
809.909	1478.37
810.092	1444.66
810.276	1469.46
810.459	1463.65
810.642	1451.63
810.825	1454.54
811.008	1425.29
811.191	1376.65
811.374	1379.56
811.557	1389.64
811.74	1439.24
811.923	1357.86
812.106	1357.86
812.289	1346.43
812.472	1315.62
812.654	1365.8
812.837	1308.07
813.02	1299.54
813.203	1279.2
813.386	1204.99
813.569	1207.71
813.751	1170.51
813.934	1200.73
814.117	1174.77
814.3	1145.13
814.482	1096.5
814.665	1096.11
814.848	1042.44
815.03	1047.67
815.213	1062.59
815.396	1026.94
815.578	1030.62
815.761	1020.74
815.943	1058.52
816.126	978.31
816.309	955.25
816.491	936.46
816.674	905.66
816.856	965.14
817.039	944.02
817.221	995.55
817.403	932.97
817.586	930.65
817.768	952.15
817.951	908.17
818.133	895
818.315	925.42
818.498	934.14
818.68	1013.96
818.862	985.67
819.045	1012.02
819.227	962.23
819.409	950.41
819.591	1009.7
819.774	953.12
819.956	916.51
820.138	983.35
820.32	992.26
820.502	1017.45
820.684	1065.69
820.866	1063.75
821.048	1092.82
821.231	1098.82
821.413	1108.12
821.595	1067.63
821.777	1106.57
821.959	1089.13
822.141	1132.15
822.323	1051.55
822.505	986.45
822.686	972.89
822.868	940.14
823.05	860.51
823.232	859.16
823.414	829.9
823.596	865.55
823.778	824.28
823.96	875.04
824.141	860.12
824.323	891.51
824.505	907.59
824.687	942.08
824.868	1000.2
825.05	1076.15
825.232	1073.83
825.413	1121.88
825.595	1078.67
825.777	1014.73
825.958	1064.72
826.14	1038.18
826.321	1057.36
826.503	1066.66
826.685	1066.66
826.866	1089.33
827.048	1056.2
827.229	1054.45
827.411	1011.44
827.592	1002.72
827.773	996.14
827.955	943.63
828.136	970.17
828.318	944.02
828.499	972.5
828.68	903.33
828.862	972.3
829.043	1010.86
829.224	959.32
829.406	926.77
829.587	949.44
829.768	919.99
829.949	968.43
830.131	937.82
830.312	1008.92
830.493	949.25
830.674	949.05
830.855	934.33
831.036	943.44
831.218	1034.3
831.399	1007.37
831.58	956.61
831.761	954.09
831.942	1000.01
832.123	949.64
832.304	927.35
832.485	921.16
832.666	940.53
832.847	953.9
833.028	977.15
833.209	949.44
833.389	934.33
833.57	918.44
833.751	929.29
833.932	982.77
834.113	958.94
834.294	913.79
834.475	967.65
834.655	998.46
834.836	987.8
835.017	964.36
835.198	924.06
835.378	963.78
835.559	985.29
835.74	917.47
835.92	964.36
836.101	931.04
836.281	999.24
836.462	964.94
836.643	988.97
836.823	1013.38
837.004	1038.95
837.184	1048.83
837.365	1009.89
837.545	1012.22
837.726	991.1
837.906	1024.81
838.087	994.39
838.267	994.97
838.448	966.3
838.628	1019
838.808	1013.96
838.989	1071.89
839.169	958.94
839.349	1050
839.53	1047.28
839.71	1018.61
839.89	971.14
840.07	1058.91
840.251	1004.66
840.431	1048.25
840.611	1009.5
840.791	1006.79
840.971	1001.56
841.151	1002.14
841.332	981.02
841.512	1050
841.692	926
841.872	988.97
842.052	1011.25
842.232	1016.28
842.412	949.64
842.592	971.92
842.772	1020.93
842.952	985.87
843.132	976.37
843.312	995.36
843.492	962.23
843.672	1001.56
843.851	921.16
844.031	980.25
844.211	1003.11
844.391	947.7
844.571	1012.6
844.751	997.49
844.93	1004.85
845.11	958.16
845.29	990.9
845.47	973.27
845.649	971.14
845.829	994.39
846.009	964.75
846.188	1005.44
846.368	942.08
846.547	968.04
846.727	965.91
846.907	940.92
847.086	938.59
847.266	1023.26
847.445	957
847.625	977.15
847.804	919.22
847.984	964.17
848.163	919.8
848.343	938.2
848.522	945.18
848.701	951.38
848.881	941.69
849.06	943.24
849.239	950.8
849.419	954.87
849.598	903.33
849.777	907.01
849.957	878.72
850.136	850.63
850.315	836.1
850.494	837.84
850.674	864.39
850.853	906.24
851.032	900.04
851.211	946.15
851.39	886.67
851.569	829.71
851.748	846.37
851.927	888.99
852.107	877.95
852.286	851.21
852.465	847.34
852.644	904.11
852.823	910.5
853.002	876.01
853.181	884.34
853.359	888.8
853.538	831.84
853.717	913.21
853.896	808.01
854.075	821.76
854.254	789.6
854.433	710.75
854.611	785.92
854.79	740.39
854.969	783.98
855.148	799.29
855.327	748.72
855.505	811.49
855.684	761.89
855.863	778.75
856.041	738.65
856.22	801.03
856.399	794.06
856.577	854.89
856.756	840.75
856.934	947.31
857.113	923.67
857.291	855.09
857.47	805.1
857.648	856.44
857.827	856.06
858.005	857.8
858.184	827.19
858.362	926.39
858.541	851.41
858.719	832.23
858.898	808.59
859.076	812.66
859.254	877.76
859.433	814.79
859.611	815.76
859.789	813.04
859.967	895.39
860.146	886.86
860.324	789.02
860.502	798.51
860.68	786.69
860.859	787.08
861.037	782.82
861.215	839.59
861.393	831.84
861.571	807.62
861.749	768.48
861.927	828.35
862.105	806.07
862.283	806.46
862.461	817.31
862.639	725.28
862.817	774.1
862.995	785.34
863.173	783.59
863.351	767.51
863.529	787.66
863.707	789.99
863.885	803.55
864.063	734.38
864.241	747.36
864.418	826.8
864.596	745.23
864.774	735.74
864.952	728.18
865.129	772.36
865.307	742.91
865.485	701.25
865.663	829.32
865.84	712.88
866.018	747.36
866.196	646.23
866.373	673.93
866.551	644.87
866.728	605.35
866.906	645.65
867.084	651.07
867.261	706.68
867.439	705.51
867.616	749.5
867.794	695.05
867.971	710.36
868.149	662.5
868.326	746.98
868.503	748.14
868.681	724.5
868.858	689.82
869.035	682.26
869.213	721.98
869.39	722.76
869.567	741.94
869.745	696.8
869.922	723.34
870.099	725.47
870.276	734.38
870.454	734.38
870.631	732.83
870.808	689.24
870.985	741.94
871.162	772.36
871.339	722.76
871.517	655.53
871.694	673.74
871.871	703.77
872.048	702.61
872.225	678.39
872.402	702.22
872.579	683.81
872.756	714.23
872.933	659.02
873.11	700.28
873.287	718.69
873.463	688.85
873.64	654.37
873.817	706.48
873.994	668.51
874.171	649.33
874.348	696.41
874.524	644.68
874.701	701.45
874.878	594.11
875.055	689.63
875.231	644.48
875.408	691.18
875.585	616.2
875.762	647.39
875.938	661.15
876.115	660.57
876.291	658.63
876.468	647.97
876.645	606.51
876.821	611.93
876.998	637.51
877.174	620.85
877.351	644.68
877.527	600.7
877.704	675.87
877.88	643.32
878.057	628.79
878.233	684.59
878.409	603.8
878.586	655.33
878.762	633.83
878.938	634.99
879.115	544.32
879.291	617.36
879.467	572.41
879.644	596.82
879.82	640.22
879.996	606.51
880.172	566.79
880.349	610.97
880.525	645.26
880.701	576.28
880.877	587.72
881.053	615.62
881.229	599.92
881.405	655.53
881.581	578.03
881.757	623.17
881.933	627.43
882.109	615.42
882.285	590.04
882.461	568.54
882.637	559.82
882.813	572.41
882.989	589.46
883.165	668.9
883.341	553.81
883.517	623.17
883.693	600.12
883.869	623.75
884.044	573.57
884.22	601.47
884.396	646.23
884.572	617.75
884.747	637.32
884.923	613.48
885.099	603.99
885.275	623.37
885.45	591.2
885.626	585
885.801	563.89
885.977	583.26
886.153	532.89
886.328	602.44
886.504	566.99
886.679	594.5
886.855	544.7
887.03	592.56
887.206	616
887.381	579.19
887.557	624.72
887.732	601.86
887.908	586.17
888.083	631.7
888.258	566.4
888.434	578.8
888.609	585.97
888.784	607.67
888.96	588.68
889.135	582.68
889.31	547.22
889.485	593.92
889.661	572.8
889.836	628.6
890.011	607.28
890.186	572.02
890.361	535.4
890.537	586.94
890.712	561.37
890.887	587.33
891.062	571.25
891.237	628.4
891.412	567.18
891.587	599.92
891.762	599.34
891.937	650.88
892.112	539.47
892.287	550.13
892.462	541.6
892.637	527.46
892.812	509.64
892.987	541.8
893.161	494.72
893.336	562.34
893.511	520.49
893.686	542.77
893.861	516.61
894.035	515.64
894.21	514.67
894.385	477.47
894.56	539.09
894.734	458.68
894.909	456.94
895.084	483.87
895.258	478.83
895.433	497.43
895.608	483.09
895.782	433.49
895.957	432.33
896.131	461.39
896.306	403.27
896.48	402.49
896.655	411.99
896.829	373.63
897.004	393
897.178	402.88
897.353	347.08
897.527	427.68
897.701	388.54
897.876	346.11
898.05	411.99
898.224	409.86
898.399	428.26
898.573	356.58
898.747	302.91
898.921	355.41
899.096	325.77
899.27	322.09
899.444	333.13
899.618	308.33
899.792	335.07
899.967	329.64
900.141	379.24
900.315	298.65
900.489	305.81
900.663	386.03
900.837	334.88
901.011	314.73
901.185	396.88
901.359	342.24
901.533	333.13
901.707	329.84
901.881	331
902.055	253.7
902.229	323.83
902.403	395.91
902.576	329.26
902.75	331.97
902.924	429.81
903.098	362
903.272	385.64
903.446	414.12
903.619	389.13
903.793	401.33
903.967	393.97
904.14	448.99
904.314	424
904.488	411.99
904.661	442.99
904.835	442.02
905.009	479.22
905.182	481.16
905.356	434.46
905.529	449.77
905.703	398.62
905.876	404.43
906.05	380.99
906.223	377.5
906.397	345.14
906.57	334.68
906.744	318.99
906.917	323.25
907.09	329.84
907.264	337.98
907.437	306.78
907.61	287.6
907.784	321.51
907.957	310.85
908.13	266.68
908.304	324.41
908.477	298.06
908.65	315.89
908.823	246.14
908.996	344.95
909.17	278.3
909.343	295.16
909.516	301.36
909.689	300.78
909.862	261.25
910.035	313.56
910.208	240.13
910.381	247.69
910.554	357.16
910.727	291.48
910.9	268.23
911.073	244.4
911.246	340.3
911.419	336.62
911.592	295.35
911.765	289.54
911.938	281.98
912.11	296.13
912.283	294
912.456	322.67
912.629	281.21
912.802	273.07
912.974	216.88
913.147	234.9
913.32	198.48
913.493	234.71
913.665	246.14
913.838	265.13
914.01	230.25
914.183	252.92
914.356	223.67
914.528	279.08
914.701	304.07
914.873	269.97
915.046	235.48
915.218	234.51
915.391	163.6
915.563	214.95
915.736	229.28
915.908	254.47
916.081	238.39
916.253	214.17
916.425	252.73
916.598	246.72
916.77	243.62
916.942	232.96
917.115	174.07
917.287	231.61
917.459	225.41
917.632	236.65
917.804	141.13
917.976	208.17
918.148	224.25
918.32	218.82
918.493	249.43
918.665	289.93
918.837	248.85
919.009	300
919.181	308.14
919.353	275.78
919.525	255.44
919.697	227.15
919.869	247.3
920.041	315.31
920.213	345.34
920.385	288.76
920.557	250.98
920.729	297.48
920.901	275.98
921.073	269.97
921.244	234.51
921.416	287.21
921.588	251.56
921.76	223.28
921.932	347.08
922.103	259.7
922.275	247.3
922.447	265.13
922.619	191.5
922.79	277.14
922.962	225.8
923.134	275.98
923.305	211.07
923.477	202.55
923.648	202.35
923.82	246.91
923.991	176.97
924.163	197.12
924.335	228.9
924.506	195.38
924.677	274.23
924.849	203.32
925.02	217.85
925.192	267.65
925.363	238
925.535	240.13
925.706	207
925.877	257.57
926.049	207.58
926.22	221.34
926.391	244.4
926.562	224.63
926.734	196.93
926.905	244.01
927.076	157.79
927.247	176.58
927.419	162.25
927.59	186.08
927.761	181.62
927.932	179.1
928.103	210.49
928.274	149.65
928.445	149.46
928.616	189.76
928.787	164.18
928.958	191.31
929.129	148.1
929.3	168.25
929.471	110.9
929.642	96.95
929.813	71.19
929.984	156.05
930.155	68.86
930.326	117.3
930.496	95.99
930.667	35.92
930.838	96.57
931.009	64.02
931.18	82.42
931.35	71.96
931.521	92.11
931.692	65.18
931.863	15.77
932.033	85.72
932.204	69.05
932.374	76.42
932.545	15.58
932.716	83.59
932.886	73.7
933.057	10.93
933.227	32.24
933.398	89.79
933.568	43.87
933.739	-44.09
933.909	22.56
934.08	64.99
934.25	0.27
934.421	-0.11
934.591	45.42
934.761	11.32
934.932	-38.47
935.102	34.57
935.272	15.19
935.443	19.84
935.613	24.69
935.783	47.36
935.953	-22.2
936.123	129.89
936.294	-5.15
936.464	9.77
936.634	15.77
936.804	-21.43
936.974	-20.84
937.144	35.34
937.314	43.67
937.484	-7.86
937.655	-9.22
937.825	33.02
937.995	2.79
938.165	43.48
938.334	0.47
938.504	25.66
938.674	23.91
938.844	13.06
939.014	51.04
939.184	53.17
939.354	74.48
939.524	61.5
939.694	31.47
939.863	38.44
940.033	98.5
940.203	77.19
940.373	60.14
940.542	92.5
940.712	58.79
940.882	73.7
941.051	71.57
941.221	75.25
941.391	110.71
941.56	22.17
941.73	15.58
941.899	123.5
942.069	68.47
942.238	77
942.408	3.57
942.577	93.85
942.747	35.34
942.916	0.47
943.086	16.36
943.255	57.62
943.425	50.26
943.594	40.19
943.763	-41.77
943.933	-3.99
944.102	-33.44
944.271	21.39
944.441	54.72
944.61	4.15
944.779	27.01
944.948	103.54
945.117	-3.41
945.287	41.16
945.456	-15.23
945.625	39.41
945.794	58.2
945.963	-16.97
946.132	50.46
946.301	-6.12
946.47	45.81
946.639	-17.55
946.808	30.5
946.977	44.26
947.146	63.63
947.315	24.11
947.484	76.8
947.653	8.41
947.822	23.91
947.991	-4.76
948.16	86.1
948.329	85.14
948.498	47.74
948.666	18.49
948.835	67.5
949.004	-25.49
949.173	-1.86
949.341	41.16
949.51	40.19
949.679	93.47
949.847	69.44
950.016	108.39
950.185	83.59
950.353	16.36
950.522	49.68
950.69	66.54
950.859	15.19
951.028	81.45
951.196	31.27
951.365	33.41
951.533	17.52
951.701	70.99
951.87	46.97
952.038	-8.25
952.207	39.61
952.375	99.28
952.543	35.73
952.712	16.94
952.88	26.82
953.048	98.7
953.217	33.41
953.385	30.89
953.553	69.64
953.721	-8.64
953.89	2.79
954.058	-11.74
954.226	0.86
954.394	60.72
954.562	-5.54
954.73	34.37
954.898	21.59
955.067	58.01
955.235	23.52
955.403	62.47
955.571	92.89
955.739	49.29
955.907	9.96
956.075	27.01
956.243	26.82
956.41	50.07
956.578	-7.86
956.746	4.34
956.914	5.12
957.082	46.97
957.25	35.54
957.418	26.82
957.585	32.24
957.753	79.71
957.921	4.34
958.089	64.4
958.256	44.06
958.424	52.78
958.592	62.66
958.759	17.32
958.927	50.65
959.095	13.26
959.262	40.57
959.43	64.02
959.597	-15.42
959.765	53.75
959.932	-6.7
960.1	53.55
960.267	32.05
960.435	46.77
960.602	76.61
960.77	36.12
960.937	-16.97
961.104	34.37
961.272	-14.45
961.439	14.22
961.606	43.67
961.774	52.97
961.941	24.3
962.108	42.9
962.275	75.25
962.443	64.6
962.61	61.3
962.777	117.49
962.944	60.72
963.111	37.28
963.278	49.87
963.446	54.14
963.613	42.32
963.78	69.25
963.947	58.79
964.114	44.84
964.281	120.98
964.448	59.37
964.615	12.09
964.782	47.94
964.949	70.6
965.116	66.73
965.282	82.81
965.449	52.2
965.616	20.81
965.783	61.89
965.95	70.6
966.117	-12.13
966.283	45.03
966.45	64.21
966.617	63.05
966.784	80.49
966.95	77.19
967.117	94.44
967.284	12.67
967.45	34.76
967.617	82.04
967.784	69.83
967.95	120.98
968.117	37.67
968.283	85.33
968.45	141.9
968.616	58.79
968.783	92.5
968.949	56.46
969.116	65.18
969.282	42.32
969.449	89.4
969.615	49.29
969.781	27.01
969.948	48.13
970.114	10.93
970.28	80.87
970.447	57.04
970.613	110.9
970.779	48.32
970.945	59.95
971.112	70.22
971.278	54.14
971.444	67.5
971.61	93.85
971.776	45.03
971.942	51.04
972.108	85.14
972.275	48.52
972.441	60.92
972.607	120.2
972.773	39.22
972.939	84.17
973.105	77.77
973.271	39.02
973.437	60.14
973.602	25.27
973.768	87.85
973.934	38.64
974.1	63.82
974.266	1.44
974.432	64.21
974.598	16.36
974.763	82.04
974.929	13.84
975.095	100.83
975.261	28.17
975.426	19.46
975.592	51.23
975.758	96.18
975.923	27.4
976.089	38.83
976.255	67.5
976.42	57.24
976.586	93.66
976.751	57.43
976.917	143.07
977.082	77.77
977.248	-1.47
977.413	18.49
977.579	47.36
977.744	40.38
977.91	9.96
978.075	-1.66
978.24	87.27
978.406	64.6
978.571	37.09
978.736	37.09
978.902	33.21
979.067	42.32
979.232	-14.06
979.397	26.43
979.563	104.32
979.728	9.96
979.893	51.04
980.058	30.89
980.223	67.12
980.388	40.96
980.554	24.88
980.719	25.46
980.884	52.59
981.049	91.92
981.214	37.67
981.379	35.15
981.544	33.99
981.709	41.16
981.874	60.34
982.039	51.04
982.204	95.6
982.368	8.61
982.533	30.89
982.698	79.13
982.863	90.95
983.028	35.34
983.193	70.41
983.357	62.27
983.522	50.46
983.687	38.44
983.852	55.49
984.016	39.02
984.181	63.63
984.346	38.06
984.51	50.26
984.675	43.29
984.839	53.94
985.004	51.04
985.168	95.79
985.333	54.52
985.498	25.85
985.662	102.96
985.827	46.58
985.991	59.37
986.155	43.29
986.32	87.27
986.484	90.37
986.649	45.42
986.813	-1.47
986.977	49.1
987.142	80.87
987.306	17.91
987.47	27.21
987.634	31.86
987.799	48.71
987.963	66.92
988.127	58.79
988.291	122.14
988.455	30.89
988.62	11.12
988.784	82.23
988.948	62.85
989.112	13.45
989.276	58.2
989.44	38.06
989.604	33.02
989.768	27.01
989.932	120.01
990.096	22.36
990.26	24.88
990.424	11.9
990.588	54.33
990.752	96.57
990.915	73.51
991.079	22.94
991.243	32.24
991.407	66.34
991.571	29.53
991.734	54.72
991.898	70.6
992.062	102.57
992.226	40.96
992.389	35.92
992.553	-9.99
992.717	41.74
992.88	46
993.044	68.47
993.207	38.44
993.371	100.44
993.535	57.04
993.698	40.77
993.862	78.74
994.025	49.49
994.189	57.43
994.352	51.81
994.515	51.81
994.679	74.67
994.842	35.92
995.006	51.62
995.169	25.46
995.332	21.2
995.496	63.44
995.659	7.44
995.822	32.63
995.985	49.29
996.149	83.39
996.312	36.31
996.475	100.25
996.638	48.91
996.801	92.69
996.964	103.15
997.128	33.41
997.291	33.21
997.454	53.75
997.617	-12.71
997.78	80.1
997.943	35.73
998.106	61.5
998.269	30.31
998.432	56.85
998.595	32.24
998.758	0.66
998.92	10.74
999.083	-4.57
999.246	19.46
999.409	-12.71
999.572	-16.19
999.735	-7.09
999.897	41.93
1000.06	14.42
1000.223	-5.93
1000.386	51.62
1000.548	65.95
1000.711	35.54
1000.874	77.58
1001.036	-2.24
1001.199	64.99
1001.361	16.94
1001.524	33.02
1001.687	53.17
1001.849	-12.71
1002.012	58.59
1002.174	55.49
1002.337	45.42
1002.499	30.5
1002.661	66.15
1002.824	-8.06
1002.986	-4.18
1003.149	28.17
1003.311	19.46
1003.473	95.99
1003.636	-0.11
1003.798	55.69
1003.96	64.6
1004.123	28.95
1004.285	28.56
1004.447	26.24
1004.609	26.62
1004.771	82.42
1004.933	3.57
1005.096	1.82
1005.258	-20.84
1005.42	21.01
1005.582	51.42
1005.744	37.47
1005.906	-9.41
1006.068	24.88
1006.23	-7.67
1006.392	-22.98
1006.554	13.26
1006.716	66.92
1006.878	52.97
1007.04	-11.93
1007.202	2.21
1007.363	22.17
1007.525	29.34
1007.687	49.1
1007.849	67.7
1008.011	-21.43
1008.172	14.22
1008.334	23.52
1008.496	41.93
1008.658	-23.75
1008.819	-24.33
1008.981	-33.83
1009.143	15
1009.304	1.24
1009.466	20.23
1009.627	65.18
1009.789	129.89
1009.95	29.34
1010.112	-5.93
1010.273	50.07
1010.435	-11.35
1010.596	6.09
1010.758	-2.05
1010.919	16.74
1011.081	-7.67
1011.242	16.16
1011.403	29.53
1011.565	15
1011.726	15.39
1011.887	-0.89
1012.049	-11.16
1012.21	38.25
1012.371	60.92
1012.532	-28.98
1012.693	21.2
1012.855	-23.36
1013.016	36.89
1013.177	36.12
1013.338	14.61
1013.499	68.28
1013.66	28.76
1013.821	58.79
1013.982	-9.41
1014.143	37.09
1014.304	-3.02
1014.465	50.46
1014.626	38.06
1014.787	17.32
1014.948	92.5
1015.109	-1.86
1015.27	63.44
1015.431	-14.26
1015.592	-30.14
1015.752	60.34
1015.913	12.09
1016.074	58.01
1016.235	6.86
1016.395	13.26
1016.556	11.9
1016.717	2.41
1016.877	81.65
1017.038	-8.25
1017.199	58.01
1017.359	12.67
1017.52	21.78
1017.681	-15.81
1017.841	4.34
1018.002	9.77
1018.162	17.91
1018.323	64.02
1018.483	32.24
1018.644	1.05
1018.804	-8.25
1018.964	-16.58
1019.125	-9.41
1019.285	31.27
1019.446	6.47
1019.606	-20.46
1019.766	-41.57
1019.926	16.55
1020.087	14.61
1020.247	-27.43
1020.407	50.46
1020.567	59.17
1020.728	5.89
1020.888	-10.58
1021.048	-1.86
1021.208	-12.71
1021.368	2.02
1021.528	18.1
1021.688	49.1
1021.848	39.8
1022.008	4.54
1022.168	-4.96
1022.328	21.39
1022.488	-12.51
1022.648	-21.43
1022.808	6.47
1022.968	22.94
1023.128	-3.41
1023.288	-10.96
1023.448	-2.05
1023.608	46.19
1023.767	17.91
1023.927	-16.58
1024.087	8.41
1024.247	-9.8
1024.406	2.79
1024.566	9.38
1024.726	-30.73
1024.885	4.34
1025.045	41.93
1025.205	-4.96
1025.364	-13.87
1025.524	46.39
1025.683	23.33
1025.843	38.83
1026.003	1.82
1026.162	62.85
1026.321	27.21
1026.481	2.02
1026.64	-2.63
1026.8	14.22
1026.959	10.93
1027.119	11.12
1027.278	8.61
1027.437	8.61
1027.597	8.61
1027.756	23.33
1027.915	1.44
1028.074	31.08
1028.234	-16.39
1028.393	18.87
1028.552	0.66
1028.711	-65.79
1028.87	35.54
1029.03	-21.23
1029.189	-2.83
1029.348	-33.05
1029.507	-9.41
1029.666	-11.35
1029.825	-31.5
1029.984	-22.78
1030.143	16.16
1030.302	0.86
1030.461	-52.04
1030.62	4.34
1030.779	50.84
1030.938	-18.33
1031.097	-35.18
1031.255	18.1
1031.414	33.79
1031.573	56.85
1031.732	-48.36
1031.891	11.9
1032.049	38.06
1032.208	33.02
1032.367	-20.26
1032.525	-0.69
1032.684	3.18
1032.843	2.21
1033.001	-39.44
1033.16	123.89
1033.319	25.07
1033.477	19.46
1033.636	-13.29
1033.794	-48.74
1033.953	33.02
1034.111	31.08
1034.27	7.25
1034.428	24.69
1034.587	-44.67
1034.745	18.29
1034.903	12.48
1035.062	18.68
1035.22	-34.02
1035.378	18.29
1035.537	-18.13
1035.695	28.56
1035.853	-2.05
1036.011	18.49
1036.17	24.69
1036.328	-50.87
1036.486	28.95
1036.644	46.97
1036.802	-51.26
1036.96	-3.21
1037.119	-27.63
1037.277	-6.12
1037.435	-36.15
1037.593	-22.78
1037.751	4.73
1037.909	48.52
1038.067	48.52
