Data from oakcork_FLMT105791__177__17-31-50-057.txt Node

Date: Mon Mar 20 17:31:50 GMT 2023
User: antho
Spectrometer: FLMT10579
Trigger mode: 0
Integration Time (sec): 1.000000E-1
Scans to average: 10
Electric dark correction enabled: true
Nonlinearity correction enabled: false
Boxcar width: 0
XAxis mode: Wavelengths
Number of Pixels in Spectrum: 3648
>>>>>Begin Spectral Data<<<<<
345.248	-162.1
345.464	-162.1
345.681	-162.1
345.898	-143.31
346.114	-146.41
346.331	-39.65
346.548	20.41
346.764	2
346.981	-4
347.197	2.2
347.414	13.63
347.631	-12.14
347.847	32.42
348.064	-4.78
348.28	26.8
348.497	-23.57
348.713	-13.3
348.93	17.5
349.146	30.48
349.363	-0.32
349.579	17.11
349.796	-3.62
350.012	-10.79
350.229	44.82
350.445	-0.71
350.661	-14.66
350.878	-8.85
351.094	19.83
351.311	9.56
351.527	33.39
351.743	-34.81
351.96	20.21
352.176	36.88
352.392	27.19
352.609	40.36
352.825	-10.98
353.041	-2.84
353.257	-3.23
353.474	5.88
353.69	14.4
353.906	1.81
354.122	-19.5
354.339	32.61
354.555	-4.97
354.771	8.2
354.987	45.98
355.203	44.05
355.42	-22.8
355.636	-14.47
355.852	-1.87
356.068	0.65
356.284	-27.45
356.5	34.55
356.716	18.08
356.932	20.21
357.148	50.05
357.364	-4.59
357.58	53.35
357.796	48.31
358.012	51.02
358.228	4.91
358.444	-60.19
358.66	33.78
358.876	9.56
359.092	23.31
359.308	30.48
359.524	14.98
359.74	-15.24
359.956	14.21
360.172	31.84
360.388	33.39
360.604	14.98
360.819	92.87
361.035	-1.68
361.251	24.86
361.467	-39.46
361.683	45.79
361.898	34.55
362.114	28.93
362.33	22.73
362.546	60.32
362.762	24.67
362.977	21.38
363.193	-29
363.409	30.87
363.624	-34.42
363.84	-23.77
364.056	4.91
364.271	29.51
364.487	22.73
364.703	6.26
364.918	-14.08
365.134	29.32
365.35	2.78
365.565	87.44
365.781	27
365.996	30.1
366.212	83.18
366.427	31.65
366.643	-7.3
366.858	18.08
367.074	-19.5
367.289	76.21
367.505	130.26
367.72	-12.14
367.936	-16.02
368.151	66.33
368.367	56.64
368.582	27
368.798	10.14
369.013	49.28
369.228	54.7
369.444	17.7
369.659	23.51
369.874	38.43
370.09	58.19
370.305	-32.87
370.52	-20.86
370.736	61.87
370.951	20.21
371.166	79.89
371.381	76.59
371.597	30.68
371.812	-5.75
372.027	9.56
372.242	16.53
372.458	61.29
372.673	-3.81
372.888	29.51
373.103	35.52
373.318	71.36
373.533	55.86
373.749	27.58
373.964	-7.1
374.179	56.83
374.394	-6.72
374.609	61.68
374.824	-17.57
375.039	62.64
375.254	0.84
375.469	87.83
375.684	22.15
375.899	59.74
376.114	31.06
376.329	27.96
376.544	34.55
376.759	61.29
376.974	13.82
377.189	12.46
377.404	22.73
377.619	51.02
377.834	-41.2
378.049	-24.35
378.264	-17.37
378.478	41.72
378.693	0.26
378.908	37.85
379.123	13.43
379.338	52.57
379.553	27.96
379.767	17.89
379.982	43.85
380.197	26.03
380.412	9.17
380.626	65.16
380.841	102.17
381.056	46.95
381.271	79.5
381.485	-6.14
381.7	-0.13
381.915	36.1
382.129	13.82
382.344	31.06
382.559	40.17
382.773	37.85
382.988	-20.28
383.202	33.39
383.417	-6.33
383.632	103.72
383.846	21.76
384.061	27.58
384.275	20.8
384.49	40.17
384.704	52.18
384.919	56.64
385.133	26.22
385.348	73.69
385.562	3.36
385.777	51.8
385.991	38.43
386.206	18.86
386.42	43.27
386.634	83.76
386.849	49.86
387.063	18.47
387.277	-5.94
387.492	8.2
387.706	-10.98
387.92	21.96
388.135	53.93
388.349	42.69
388.563	58.96
388.778	25.45
388.992	76.4
389.206	49.08
389.42	91.71
389.635	49.08
389.849	43.08
390.063	68.84
390.277	42.88
390.491	103.91
390.706	74.46
390.92	43.85
391.134	38.43
391.348	65.16
391.562	6.65
391.776	31.45
391.99	-4
392.205	55.67
392.419	4.33
392.633	39.59
392.847	70.98
393.061	11.11
393.275	74.27
393.489	40.95
393.703	22.93
393.917	85.12
394.131	24.86
394.345	60.32
394.559	76.59
394.773	27.58
394.986	54.31
395.2	37.65
395.414	57.22
395.628	9.56
395.842	39.98
396.056	12.08
396.27	-7.3
396.484	60.13
396.697	63.03
396.911	57.22
397.125	69.81
397.339	85.12
397.553	46.37
397.766	114.96
397.98	80.08
398.194	73.49
398.408	43.27
398.621	81.44
398.835	76.59
399.049	89.38
399.262	93.84
399.476	75.24
399.69	82.02
399.903	148.67
400.117	44.05
400.331	80.86
400.544	45.01
400.758	172.69
400.971	96.36
401.185	115.15
401.398	17.7
401.612	102.56
401.826	82.99
402.039	101.2
402.253	58.96
402.466	91.32
402.68	80.66
402.893	72.91
403.106	70.2
403.32	73.88
403.533	100.81
403.747	84.54
403.96	97.33
404.174	104.49
404.387	53.54
404.6	89.38
404.814	109.14
405.027	64
405.24	77.76
405.454	72.91
405.667	121.35
405.88	27.96
406.094	75.63
406.307	114.76
406.52	120.58
406.733	57.22
406.947	18.47
407.16	130.84
407.373	133.75
407.586	62.06
407.799	39.4
408.012	111.47
408.226	95.39
408.439	138.79
408.652	44.82
408.865	95.97
409.078	124.06
409.291	117.28
409.504	79.89
409.717	112.83
409.93	97.71
410.143	100.62
410.357	26.41
410.57	66.91
410.783	84.54
410.996	101.98
411.209	79.5
411.421	132.78
411.634	69.23
411.847	76.59
412.06	102.56
412.273	85.51
412.486	69.81
412.699	214.54
412.912	112.44
413.125	114.57
413.338	107.79
413.55	132.78
413.763	116.7
413.976	110.5
414.189	95.58
414.402	104.3
414.615	122.32
414.827	81.24
415.04	132.98
415.253	124.64
415.466	142.47
415.678	167.85
415.891	92.09
416.104	132.01
416.316	117.28
416.529	78.14
416.742	133.36
416.954	164.75
417.167	83.96
417.38	105.85
417.592	133.94
417.805	88.61
418.017	58.38
418.23	145.18
418.442	74.27
418.655	88.8
418.868	111.28
419.08	148.47
419.293	130.07
419.505	119.41
419.718	129.49
419.93	155.45
420.142	131.43
420.355	160.1
420.567	185.29
420.78	135.69
420.992	112.24
421.205	173.66
421.417	98.29
421.629	113.79
421.842	98.1
422.054	76.01
422.266	137.04
422.479	153.9
422.691	117.67
422.903	160.87
423.115	76.79
423.328	93.64
423.54	139.76
423.752	130.46
423.964	103.33
424.177	130.26
424.389	127.94
424.601	191.29
424.813	142.28
425.025	150.02
425.238	170.56
425.45	120.58
425.662	97.13
425.874	399.18
426.086	142.08
426.298	167.85
426.51	157.39
426.722	148.28
426.934	122.9
427.146	167.85
427.358	94.81
427.57	169.21
427.782	134.53
427.994	142.66
428.206	104.88
428.418	121.16
428.63	110.5
428.842	168.04
429.054	157.58
429.266	173.66
429.478	101.2
429.69	138.4
429.902	104.11
430.114	161.26
430.325	147.12
430.537	120.58
430.749	130.07
430.961	87.06
431.173	118.25
431.384	143.44
431.596	48.89
431.808	143.83
432.02	138.01
432.231	174.24
432.443	159.32
432.655	171.53
432.867	126.39
433.078	171.53
433.29	207.76
433.502	185.67
433.713	192.26
433.925	164.75
434.136	186.64
434.348	121.93
434.56	118.83
434.771	267.44
434.983	116.12
435.194	129.29
435.406	149.06
435.617	223.65
435.829	215.51
436.04	220.74
436.252	209.51
436.463	224.04
436.675	193.42
436.886	201.76
437.098	197.3
437.309	256.78
437.521	178.12
437.732	182.38
437.943	158.36
438.155	160.49
438.366	147.89
438.578	245.35
438.789	177.34
439	185.48
439.211	166.11
439.423	195.94
439.634	204.66
439.845	205.82
440.057	197.11
440.268	209.12
440.479	180.06
440.69	208.54
440.902	202.53
441.113	198.46
441.324	180.06
441.535	204.66
441.746	232.17
441.957	150.22
442.168	190.32
442.38	225.39
442.591	231.4
442.802	164.17
443.013	210.86
443.224	254.07
443.435	182.77
443.646	215.9
443.857	203.69
444.068	187.61
444.279	214.93
444.49	252.52
444.701	210.47
444.912	302.5
445.123	260.65
445.334	250.97
445.545	224.04
445.756	216.48
445.967	195.94
446.178	218.03
446.388	249.61
446.599	259.3
446.81	250.39
447.021	231.98
447.232	267.24
447.443	260.65
447.653	211.44
447.864	265.69
448.075	243.41
448.286	281
448.496	239.92
448.707	276.15
448.918	222.68
449.129	313.94
449.339	218.61
449.55	260.85
449.761	251.94
449.971	281.19
450.182	250.58
450.393	281.77
450.603	251.16
450.814	291.65
451.024	280.42
451.235	287.39
451.446	301.73
451.656	327.69
451.867	237.02
452.077	273.44
452.288	313.16
452.498	316.65
452.709	249.8
452.919	276.15
453.13	230.04
453.34	304.83
453.55	218.03
453.761	290.3
453.971	281.58
454.182	270.73
454.392	281.39
454.602	333.89
454.813	291.65
455.023	299.99
455.233	247.87
455.444	291.85
455.654	220.36
455.864	252.52
456.075	254.65
456.285	252.71
456.495	268.21
456.705	303.47
456.916	304.44
457.126	333.89
457.336	284.87
457.546	238.18
457.756	278.48
457.967	319.75
458.177	281
458.387	312.97
458.597	275.57
458.807	273.64
459.017	263.56
459.227	265.11
459.437	279.06
459.647	314.71
459.857	328.66
460.068	261.04
460.278	311.8
460.488	295.34
460.698	348.42
460.908	309.09
461.117	256.78
461.327	264.34
461.537	276.15
461.747	308.32
461.957	311.22
462.167	372.83
462.377	327.11
462.587	288.36
462.797	336.99
463.007	294.56
463.216	331.37
463.426	367.41
463.636	362.95
463.846	271.7
464.056	282.55
464.265	342.22
464.475	294.17
464.685	291.65
464.895	342.8
465.104	316.26
465.314	340.87
465.524	283.32
465.733	293.2
465.943	348.81
466.153	377.1
466.362	342.22
466.572	341.83
466.782	319.94
466.991	335.44
467.201	343.77
467.41	272.28
467.62	353.07
467.829	334.08
468.039	365.67
468.249	346.68
468.458	292.62
468.668	351.52
468.877	368.38
469.086	372.83
469.296	402.87
469.505	347.84
469.715	422.82
469.924	394.15
470.134	382.33
470.343	395.89
470.552	359.85
470.762	356.56
470.971	306.77
471.18	365.86
471.39	343.58
471.599	335.44
471.808	400.35
472.018	340.67
472.227	395.12
472.436	379.81
472.645	349.2
472.855	369.15
473.064	408.87
473.273	397.05
473.482	391.05
473.691	418.56
473.901	381.94
474.11	391.43
474.319	446.07
474.528	400.15
474.737	425.15
474.946	416.81
475.155	436.96
475.364	426.5
475.573	434.83
475.783	428.05
475.992	433.48
476.201	449.56
476.41	400.73
476.619	374.58
476.828	399.96
477.037	409.65
477.245	420.88
477.454	444.13
477.663	412.75
477.872	423.01
478.081	510.2
478.29	413.52
478.499	506.91
478.708	451.11
478.917	480.17
479.125	459.63
479.334	479.01
479.543	443.94
479.752	458.08
479.961	440.84
480.169	488.5
480.378	451.5
480.587	574.33
480.796	475.13
481.004	462.15
481.213	483.66
481.422	493.73
481.63	492.96
481.839	504.78
482.048	546.82
482.256	482.11
482.465	512.91
482.674	523.38
482.882	501.48
483.091	569.88
483.299	516.01
483.508	522.79
483.716	494.9
483.925	529.77
484.134	494.7
484.342	517.76
484.551	562.9
484.759	556.51
484.967	552.24
485.176	540.43
485.384	565.61
485.593	589.64
485.801	530.93
486.01	524.34
486.218	511.75
486.426	446.65
486.635	477.07
486.843	501.87
487.051	505.74
487.26	489.28
487.468	518.92
487.676	539.84
487.885	542.56
488.093	532.09
488.301	529.96
488.509	528.03
488.717	556.31
488.926	553.02
489.134	514.85
489.342	546.24
489.55	559.99
489.758	566.97
489.967	541.98
490.175	651.64
490.383	579.95
490.591	622.19
490.799	547.98
491.007	636.91
491.215	586.73
491.423	585.76
491.631	586.54
491.839	590.8
492.047	635.56
492.255	547.59
492.463	550.89
492.671	598.74
492.879	643.5
493.087	601.65
493.295	625.29
493.503	635.36
493.711	671.2
493.919	649.51
494.127	659.97
494.334	654.35
494.542	592.93
494.75	631.87
494.958	628.39
495.166	680.12
495.374	656.67
495.581	617.73
495.789	661.32
495.997	684.96
496.205	620.83
496.412	626.84
496.62	633.04
496.828	684.96
497.035	644.47
497.243	663.46
497.451	641.95
497.658	634.01
497.866	695.42
498.074	708.79
498.281	633.04
498.489	686.9
498.696	668.69
498.904	659.39
499.112	672.75
499.319	708.99
499.527	661.91
499.734	683.22
499.942	634.39
500.149	646.99
500.357	693.87
500.564	646.79
500.771	687.09
500.979	658.03
501.186	652.22
501.394	670.62
501.601	689.22
501.808	715.19
502.016	671.59
502.223	663.84
502.43	685.74
502.638	645.44
502.845	630.32
503.052	721.19
503.26	706.27
503.467	718.48
503.674	698.52
503.881	692.9
504.089	739.99
504.296	732.43
504.503	672.56
504.71	691.55
504.917	665.59
505.125	671.98
505.332	705.89
505.539	706.27
505.746	782.8
505.953	752.77
506.16	721
506.367	788.03
506.574	762.07
506.781	768.66
506.988	723.13
507.195	729.52
507.402	739.21
507.609	770.98
507.816	709.18
508.023	734.17
508.23	737.66
508.437	675.66
508.644	771.76
508.851	784.93
509.058	791.13
509.265	768.85
509.472	774.47
509.679	839.57
509.885	773.5
510.092	770.02
510.299	775.44
510.506	789.39
510.713	780.09
510.92	785.71
511.126	825.43
511.333	825.04
511.54	837.25
511.746	840.54
511.953	842.48
512.16	878.32
512.367	803.53
512.573	782.42
512.78	822.33
512.987	793.46
513.193	804.12
513.4	771.18
513.606	802.95
513.813	802.37
514.02	847.13
514.226	880.06
514.433	846.74
514.639	758.58
514.846	805.47
515.052	802.57
515.259	783.19
515.465	867.47
515.672	801.02
515.878	874.64
516.085	849.84
516.291	863.79
516.497	842.87
516.704	840.15
516.91	795.78
517.117	742.5
517.323	756.26
517.529	782.42
517.736	801.79
517.942	828.92
518.148	776.02
518.354	818.65
518.561	832.79
518.767	804.5
518.973	846.93
519.179	858.95
519.386	835.7
519.592	845.96
519.798	831.05
520.004	916.49
520.21	871.93
520.417	921.91
520.623	925.21
520.829	935.09
521.035	925.4
521.241	935.48
521.447	953.88
521.653	1035.06
521.859	952.72
522.065	937.99
522.271	1031.96
522.477	971.71
522.683	1039.91
522.889	993.79
523.095	990.5
523.301	994.57
523.507	962.99
523.713	975.58
523.919	958.14
524.125	1017.82
524.331	1012.59
524.537	1087.96
524.742	1046.69
524.948	1088.73
525.154	1049.98
525.36	1133.49
525.566	1075.75
525.772	1112.75
525.977	1027.51
526.183	1072.65
526.389	1094.54
526.595	1031.96
526.8	1019.95
527.006	1002.9
527.212	980.04
527.417	970.54
527.623	986.43
527.829	1055.99
528.034	1059.28
528.24	1065.09
528.446	1038.55
528.651	1113.53
528.857	1113.14
529.062	1147.05
529.268	1112.75
529.473	1093.77
529.679	1142.01
529.884	1182.31
530.09	1173.2
530.295	1203.62
530.501	1179.02
530.706	1185.8
530.912	1133.1
531.117	1199.55
531.323	1191.61
531.528	1227.07
531.733	1197.81
531.939	1182.5
532.144	1208.08
532.35	1155.57
532.555	1205.95
532.76	1214.47
532.966	1210.21
533.171	1182.7
533.376	1165.26
533.581	1127.67
533.787	1161.77
533.992	1193.55
534.197	1258.26
534.402	1180.95
534.607	1208.66
534.813	1281.51
535.018	1186.38
535.223	1227.84
535.428	1209.43
535.633	1271.43
535.838	1281.9
536.043	1228.62
536.249	1338.66
536.454	1268.14
536.659	1305.53
536.864	1220.67
537.069	1244.12
537.274	1268.53
537.479	1266.01
537.684	1261.36
537.889	1223.38
538.094	1347
538.299	1266.01
538.504	1324.52
538.708	1265.23
538.913	1341.76
539.118	1265.23
539.323	1326.07
539.528	1267.95
539.733	1299.53
539.938	1291.58
540.142	1282.86
540.347	1241.02
540.552	1266.2
540.757	1216.6
540.962	1282.09
541.166	1208.08
541.371	1252.64
541.576	1281.51
541.781	1186.77
541.985	1278.8
542.19	1289.84
542.395	1326.65
542.599	1357.85
542.804	1334.21
543.008	1327.62
543.213	1286.16
543.418	1255.35
543.622	1330.72
543.827	1250.12
544.031	1381.29
544.236	1311.15
544.44	1313.28
544.645	1400.28
544.849	1344.67
545.054	1366.18
545.258	1395.82
545.463	1419.07
545.667	1281.51
545.872	1343.9
546.076	1336.34
546.281	1367.15
546.485	1321.23
546.689	1359.2
546.894	1397.37
547.098	1334.21
547.302	1323.94
547.507	1302.63
547.711	1321.81
547.915	1398.73
548.119	1297.01
548.324	1329.17
548.528	1382.26
548.732	1351.06
548.936	1388.07
549.141	1415.58
549.345	1341.76
549.549	1387.88
549.753	1378.19
549.957	1442.32
550.161	1447.55
550.366	1380.71
550.57	1386.71
550.774	1364.05
550.978	1365.01
551.182	1381.48
551.386	1359.78
551.59	1361.91
551.794	1367.92
551.998	1399.89
552.202	1374.51
552.406	1321.42
552.61	1394.08
552.814	1386.13
553.018	1438.64
553.222	1367.73
553.426	1360.95
553.63	1458.21
553.833	1365.98
554.037	1325.1
554.241	1420.81
554.445	1390.59
554.649	1350.48
554.853	1371.99
555.056	1402.6
555.26	1419.26
555.464	1387.49
555.668	1385.94
555.871	1419.84
556.075	1450.46
556.279	1360.17
556.483	1355.71
556.686	1389.43
556.89	1353.97
557.094	1401.63
557.297	1341.96
557.501	1375.86
557.704	1299.72
557.908	1381.48
558.112	1332.08
558.315	1373.54
558.519	1361.14
558.722	1327.04
558.926	1301.46
559.129	1268.92
559.333	1256.32
559.536	1310.96
559.74	1255.35
559.943	1282.67
560.147	1259.42
560.35	1276.28
560.553	1252.64
560.757	1262.72
560.96	1315.41
561.164	1284.8
561.367	1359.4
561.57	1281.7
561.774	1300.3
561.977	1318.51
562.18	1272.98
562.384	1355.52
562.587	1289.65
562.79	1287.13
562.993	1293.71
563.197	1308.25
563.4	1328.01
563.603	1329.17
563.806	1387.49
564.009	1254.97
564.212	1286.93
564.416	1235.78
564.619	1318.32
564.822	1213.7
565.025	1288.68
565.228	1255.35
565.431	1247.41
565.634	1165.65
565.837	1216.99
566.04	1186.57
566.243	1208.66
566.446	1124.77
566.649	1224.35
566.852	1145.69
567.055	1173.2
567.258	1214.67
567.461	1268.14
567.664	1259.81
567.867	1121.67
568.07	1187.15
568.273	1215.05
568.475	1234.43
568.678	1196.65
568.881	1142.2
569.084	1187.93
569.287	1115.66
569.489	1127.48
569.692	1157.32
569.895	1153.64
570.098	1129.42
570.3	1106.75
570.503	1034.29
570.706	1078.85
570.909	1066.06
571.111	1042.23
571.314	1073.23
571.516	1067.61
571.719	1079.62
571.922	1030.02
572.124	1079.43
572.327	1076.91
572.529	1060.64
572.732	1035.26
572.935	1073.04
573.137	1127.48
573.34	1044.36
573.542	1101.32
573.745	1095.9
573.947	1057.54
574.15	1049.4
574.352	1044.75
574.554	1126.9
574.757	1063.93
574.959	1035.06
575.162	1026.34
575.364	996.31
575.566	1126.32
575.769	1016.27
575.971	1039.32
576.173	943.42
576.376	1032.54
576.578	1065.09
576.78	1063.74
576.982	962.21
577.185	980.04
577.387	966.48
577.589	1009.29
577.791	1013.56
577.993	1015.3
578.196	984.88
578.398	998.25
578.6	1038.55
578.802	970.35
579.004	955.24
579.206	969.77
579.408	997.48
579.61	980.62
579.812	1015.88
580.014	969.77
580.216	988.18
580.418	960.66
580.62	968.41
580.822	955.24
581.024	981.39
581.226	1022.86
581.428	970.93
581.63	1046.49
581.832	923.46
582.034	1011.23
582.236	983.33
582.438	1019.18
582.64	1031.96
582.841	1041.46
583.043	1068
583.245	996.89
583.447	1037.39
583.649	991.86
583.85	1004.06
584.052	1009.29
584.254	981.59
584.456	1036.03
584.657	946.13
584.859	1022.08
585.061	978.29
585.262	948.65
585.464	944.97
585.666	998.06
585.867	965.89
586.069	1023.05
586.27	1010.07
586.472	948.65
586.674	971.51
586.875	947.1
587.077	933.34
587.278	976.94
587.48	931.99
587.681	1033.32
587.883	958.92
588.084	924.43
588.285	926.37
588.487	913.97
588.688	912.42
588.89	894.21
589.091	861.85
589.292	883.75
589.494	841.7
589.695	851.97
589.896	817.29
590.098	809.54
590.299	838.8
590.5	828.72
590.702	845.19
590.903	845.77
591.104	925.01
591.305	912.03
591.507	935.67
591.708	903.31
591.909	869.6
592.11	952.91
592.311	894.98
592.512	878.32
592.714	856.04
592.915	855.26
593.116	869.21
593.317	863.01
593.518	871.73
593.719	891.3
593.92	900.02
594.121	938.77
594.322	878.32
594.523	879.29
594.724	844.42
594.925	874.83
595.126	876.19
595.327	895.18
595.528	912.03
595.729	883.36
595.929	869.6
596.13	864.95
596.331	886.07
596.532	879.1
596.733	922.88
596.934	895.37
597.135	935.48
597.335	915.52
597.536	848.48
597.737	894.01
597.938	885.68
598.138	903.31
598.339	890.33
598.54	900.6
598.74	885.3
598.941	873.67
599.142	948.84
599.342	899.83
599.543	837.83
599.744	899.83
599.944	849.06
600.145	874.06
600.345	883.94
600.546	968.99
600.746	930.83
600.947	953.49
601.147	886.85
601.348	910.29
601.548	845
601.749	897.89
601.949	841.7
602.15	854.49
602.35	871.93
602.551	910.1
602.751	874.06
602.951	848.87
603.152	781.06
603.352	884.71
603.552	845.38
603.753	918.23
603.953	899.63
604.153	890.33
604.354	873.86
604.554	848.87
604.754	849.45
604.954	831.43
605.155	875.61
605.355	857.01
605.555	897.5
605.755	914.94
605.955	868.83
606.155	881.81
606.356	884.71
606.556	885.68
606.756	866.5
606.956	806.25
607.156	907
607.356	824.46
607.556	861.08
607.756	860.5
607.956	888.59
608.156	880.06
608.356	858.56
608.556	902.54
608.756	843.45
608.956	835.89
609.156	893.05
609.356	815.55
609.556	837.05
609.755	848.48
609.955	811.67
610.155	839.57
610.355	842.67
610.555	808.96
610.755	835.89
610.954	784.16
611.154	820.58
611.354	877.16
611.554	813.8
611.753	797.72
611.953	796.17
612.153	836.67
612.352	852.75
612.552	803.34
612.752	747.93
612.951	807.99
613.151	815.16
613.351	782.22
613.55	813.61
613.75	826.2
613.949	804.12
614.149	821.55
614.348	798.69
614.548	763.23
614.747	749.87
614.947	740.95
615.146	724.1
615.346	805.28
615.545	796.37
615.745	785.32
615.944	812.45
616.144	793.27
616.343	854.88
616.542	763.04
616.742	804.5
616.941	775.63
617.14	699.49
617.34	790.36
617.539	778.73
617.738	739.6
617.938	843.45
618.137	765.17
618.336	776.41
618.535	756.26
618.734	770.79
618.934	756.26
619.133	740.57
619.332	751.42
619.531	759.17
619.73	754.9
619.929	761.1
620.128	799.08
620.328	820.2
620.527	729.72
620.726	745.8
620.925	789.2
621.124	750.25
621.323	769.05
621.522	714.6
621.721	742.31
621.92	709.95
622.119	776.02
622.318	710.73
622.517	740.95
622.715	755.68
622.914	670.04
623.113	723.71
623.312	687.87
623.511	728.36
623.71	677.02
623.909	726.42
624.107	773.5
624.306	677.4
624.505	701.04
624.704	684.96
624.902	700.65
625.101	741.54
625.3	709.57
625.499	664.23
625.697	699.1
625.896	702.01
626.095	738.82
626.293	681.86
626.492	672.56
626.69	743.09
626.889	682.44
627.088	741.92
627.286	650.67
627.485	678.37
627.683	664.62
627.882	713.25
628.08	635.75
628.279	668.3
628.477	683.8
628.676	636.72
628.874	697.36
629.073	650.47
629.271	639.04
629.469	696.97
629.668	645.44
629.866	681.67
630.065	643.11
630.263	674.5
630.461	636.52
630.66	698.14
630.858	685.93
631.056	694.07
631.254	708.21
631.453	673.53
631.651	714.41
631.849	679.15
632.047	686.9
632.245	681.86
632.444	681.28
632.642	671.79
632.84	680.89
633.038	674.11
633.236	644.86
633.434	660.74
633.632	623.93
633.83	625.48
634.028	682.05
634.227	674.3
634.425	745.6
634.623	671.2
634.821	682.25
635.019	675.47
635.216	660.94
635.414	699.69
635.612	679.34
635.81	657.26
636.008	720.22
636.206	669.27
636.404	686.9
636.602	646.79
636.8	679.15
636.997	706.47
637.195	693.1
637.393	694.65
637.591	717.51
637.789	686.7
637.986	660.55
638.184	684.38
638.382	698.72
638.58	708.79
638.777	765.75
638.975	687.87
639.173	678.37
639.37	685.54
639.568	694.26
639.765	733.59
639.963	673.14
640.161	731.46
640.358	714.22
640.556	642.14
640.753	634.59
640.951	631.1
641.148	693.87
641.346	667.91
641.543	644.27
641.741	678.95
641.938	635.36
642.136	679.15
642.333	616.18
642.531	695.04
642.728	710.34
642.925	669.85
643.123	608.82
643.32	661.13
643.517	672.95
643.715	662.29
643.912	646.6
644.109	662.87
644.306	659.58
644.504	609.98
644.701	662.29
644.898	667.72
645.095	611.53
645.293	650.47
645.49	703.56
645.687	677.4
645.884	671.59
646.081	607.07
646.278	628.19
646.475	634.39
646.672	620.06
646.87	663.07
647.067	646.21
647.264	631.87
647.461	579.95
647.658	604.17
647.855	653.38
648.052	584.02
648.249	533.84
648.446	590.22
648.642	593.32
648.839	595.45
649.036	589.25
649.233	545.66
649.43	548.37
649.627	556.7
649.824	576.85
650.021	581.69
650.217	555.54
650.414	568.91
650.611	614.24
650.808	597.19
651.004	618.31
651.201	622.77
651.398	635.75
651.595	593.51
651.791	573.36
651.988	631.1
652.185	545.46
652.381	611.72
652.578	555.93
652.775	599.91
652.971	616.18
653.168	561.54
653.364	614.05
653.561	531.32
653.757	553.6
653.954	617.34
654.15	555.93
654.347	660.74
654.543	596.81
654.74	560.96
654.936	533.64
655.133	584.6
655.329	595.06
655.525	556.12
655.722	597.39
655.918	505.36
656.115	547.01
656.311	511.94
656.507	482.11
656.704	465.06
656.9	478.62
657.096	480.75
657.292	480.36
657.489	545.08
657.685	504.78
657.881	527.83
658.077	504.78
658.273	531.9
658.47	581.89
658.666	546.24
658.862	553.41
659.058	519.31
659.254	573.56
659.45	537.33
659.646	575.49
659.842	551.08
660.038	594.48
660.234	527.64
660.43	540.81
660.626	600.49
660.822	573.17
661.018	583.44
661.214	525.12
661.41	513.69
661.606	589.25
661.802	558.64
661.998	525.89
662.194	536.55
662.39	565.42
662.586	573.94
662.781	571.43
662.977	573.94
663.173	545.08
663.369	544.3
663.564	542.75
663.76	614.05
663.956	543.72
664.152	578.21
664.347	483.46
664.543	529.58
664.739	543.91
664.934	500.13
665.13	477.65
665.326	532.87
665.521	552.83
665.717	501.68
665.912	499.54
666.108	459.83
666.304	497.03
666.499	514.27
666.695	467.19
666.89	522.41
667.086	559.61
667.281	544.11
667.477	580.34
667.672	525.12
667.867	518.34
668.063	533.26
668.258	495.09
668.454	523.76
668.649	584.79
668.844	514.46
669.04	533.06
669.235	500.32
669.43	499.93
669.626	485.4
669.821	489.86
670.016	465.45
670.211	500.32
670.407	485.6
670.602	492.57
670.797	517.37
670.992	552.24
671.187	489.28
671.382	536.36
671.578	482.3
671.773	512.91
671.968	454.21
672.163	493.93
672.358	493.93
672.553	476.88
672.748	483.27
672.943	562.32
673.138	525.89
673.333	510.39
673.528	494.12
673.723	511.75
673.918	521.63
674.113	451.88
674.308	542.17
674.503	550.89
674.698	530.54
674.892	508.07
675.087	515.04
675.282	515.82
675.477	455.18
675.672	487.53
675.867	478.81
676.061	472.03
676.256	473.2
676.451	469.32
676.646	498.77
676.84	461.38
677.035	484.63
677.23	424.95
677.424	512.53
677.619	500.71
677.814	547.21
678.008	506.71
678.203	454.98
678.397	478.62
678.592	500.9
678.787	559.03
678.981	479.01
679.176	506.13
679.37	510.59
679.565	461.57
679.759	473.78
679.954	519.69
680.148	560.58
680.342	536.16
680.537	519.31
680.731	462.54
680.926	510.78
681.12	496.25
681.314	490.44
681.509	467.96
681.703	488.7
681.897	515.63
682.092	486.95
682.286	461.57
682.48	552.24
682.674	511.94
682.869	497.22
683.063	490.83
683.257	561.16
683.451	477.65
683.645	506.52
683.839	492.18
684.034	476.1
684.228	517.18
684.422	438.51
684.616	449.95
684.81	519.31
685.004	465.83
685.198	510.2
685.392	516.01
685.586	506.91
685.78	497.03
685.974	512.91
686.168	510.78
686.362	542.17
686.556	447.23
686.75	437.35
686.944	432.7
687.138	458.86
687.331	388.53
687.525	417.78
687.719	340.09
687.913	437.74
688.107	417.4
688.301	401.51
688.494	411.78
688.688	393.18
688.882	361.79
689.076	364.89
689.269	397.44
689.463	446.65
689.657	398.6
689.85	409.26
690.044	413.13
690.238	425.92
690.431	416.62
690.625	406.74
690.818	450.91
691.012	457.11
691.205	458.28
691.399	416.23
691.593	456.92
691.786	501.29
691.98	506.71
692.173	534.81
692.366	493.73
692.56	504.78
692.753	542.17
692.947	460.99
693.14	563.29
693.333	535.58
693.527	477.46
693.72	536.36
693.914	513.88
694.107	476.88
694.3	528.8
694.493	471.45
694.687	547.21
694.88	510.98
695.073	579.18
695.266	543.91
695.46	518.92
695.653	600.87
695.846	568.71
696.039	501.87
696.232	535.78
696.425	594.09
696.618	581.5
696.812	566.19
697.005	625.87
697.198	694.65
697.391	667.72
697.584	649.89
697.777	679.92
697.97	673.72
698.163	691.35
698.356	680.31
698.549	729.52
698.742	719.45
698.935	657.06
699.127	732.43
699.32	632.07
699.513	663.65
699.706	686.12
699.899	730.1
700.092	717.32
700.285	717.32
700.477	684.77
700.67	745.8
700.863	743.47
701.056	828.72
701.248	780.09
701.441	831.24
701.634	745.6
701.826	854.1
702.019	744.83
702.212	863.21
702.404	795.98
702.597	783.97
702.79	795.2
702.982	794.23
703.175	867.28
703.367	867.86
703.56	846.55
703.752	925.4
703.945	881.03
704.137	899.05
704.33	946.91
704.522	911.26
704.715	937.03
704.907	972.48
705.1	974.81
705.292	989.53
705.484	941.09
705.677	1015.49
705.869	1004.26
706.061	1052.11
706.254	1078.07
706.446	1039.91
706.638	1054.44
706.831	1091.64
707.023	1104.23
707.215	1154.6
707.407	1128.06
707.599	1111.59
707.792	1185.8
707.984	1153.64
708.176	1184.64
708.368	1160.8
708.56	1176.3
708.752	1181.92
708.944	1169.52
709.136	1253.61
709.329	1228.42
709.521	1348.74
709.713	1243.92
709.905	1291.97
710.097	1312.9
710.289	1273.18
710.481	1292.55
710.672	1306.7
710.864	1323.75
711.056	1380.71
711.248	1365.6
711.44	1379.35
711.632	1358.62
711.824	1415.19
712.016	1450.26
712.207	1461.69
712.399	1441.74
712.591	1519.62
712.783	1500.64
712.975	1531.06
713.166	1454.91
713.358	1505.29
713.55	1569.8
713.741	1587.05
713.933	1559.34
714.125	1560.89
714.316	1540.55
714.508	1633.16
714.7	1602.16
714.891	1610.49
715.083	1640.91
715.274	1607.59
715.466	1642.65
715.657	1676.17
715.849	1589.18
716.04	1634.9
716.232	1589.95
716.423	1643.04
716.615	1611.46
716.806	1579.49
716.998	1511.87
717.189	1499.09
717.381	1414.42
717.572	1441.16
717.763	1466.34
717.955	1430.31
718.146	1412.29
718.337	1409.77
718.528	1341.96
718.72	1309.99
718.911	1373.54
719.102	1329.75
719.293	1398.92
719.485	1366.76
719.676	1355.52
719.867	1341.18
720.058	1311.93
720.249	1340.41
720.44	1396.01
720.632	1441.54
720.823	1462.27
721.014	1535.32
721.205	1615.34
721.396	1634.52
721.587	1739.91
721.778	1742.43
721.969	1842.79
722.16	1857.33
722.351	1872.24
722.542	1972.02
722.733	1981.32
722.924	1934.44
723.115	1968.73
723.305	1924.94
723.496	1959.43
723.687	1835.82
723.878	1911.38
724.069	1895.3
724.26	1937.73
724.45	1843.38
724.641	1810.24
724.832	1897.82
725.023	1848.99
725.213	1851.71
725.404	1839.31
725.595	1879.61
725.785	1862.36
725.976	1939.86
726.167	1906.73
726.357	1918.55
726.548	2045.65
726.739	1957.88
726.929	2029.76
727.12	2026.08
727.31	2056.69
727.501	2019.49
727.691	2040.42
727.882	2043.71
728.072	2120.43
728.263	2115.2
728.453	2184.37
728.644	2145.82
728.834	2142.72
729.024	2152.21
729.215	2187.66
729.405	2181.66
729.596	2235.52
729.786	2257.22
729.976	2266.71
730.167	2312.05
730.357	2264.19
730.547	2303.72
730.737	2303.72
730.928	2347.89
731.118	2389.74
731.308	2313.6
731.498	2353.71
731.688	2499.99
731.879	2436.63
732.069	2555.01
732.259	2544.16
732.449	2608.29
732.639	2679.59
732.829	2691.41
733.019	2717.18
733.209	2814.05
733.399	2852.8
733.589	2905.69
733.779	2926.04
733.969	2898.72
734.159	2964.98
734.349	3047.9
734.539	3079.48
734.729	3072.31
734.919	3123.46
735.109	3129.86
735.299	3092.27
735.488	3133.93
735.678	3167.83
735.868	3135.86
736.058	3128.5
736.248	3128.89
736.437	3142.26
736.627	3107.77
736.817	3208.32
737.007	3206.97
737.196	3263.93
737.386	3260.44
737.576	3201.74
737.765	3335.42
737.955	3233.32
738.144	3343.95
738.334	3327.48
738.524	3294.74
738.713	3347.05
738.903	3354.99
739.092	3412.73
739.282	3423.19
739.471	3437.72
739.661	3443.73
739.85	3508.44
740.04	3472.98
740.229	3514.64
740.419	3519.1
740.608	3576.44
740.797	3555.13
740.987	3582.06
741.176	3585.55
741.365	3545.64
741.555	3490.03
741.744	3619.46
741.933	3607.06
742.123	3620.81
742.312	3652.59
742.501	3691.92
742.69	3725.24
742.88	3656.46
743.069	3735.51
743.258	3692.31
743.447	3746.94
743.636	3808.55
743.825	3744.04
744.014	3776.59
744.204	3785.5
744.393	3744.81
744.582	3862.42
744.771	3859.12
744.96	3817.47
745.149	3848.47
745.338	3790.73
745.527	3893.03
745.716	3816.69
745.905	3819.79
746.094	3899.23
746.283	3871.72
746.471	3848.08
746.66	3955.61
746.849	3904.26
747.038	3919.96
747.227	3846.92
747.416	3959.87
747.604	3860.87
747.793	3889.15
747.982	3931
748.171	3970.14
748.359	3912.01
748.548	3945.53
748.737	3917.05
748.926	3906.01
749.114	3860.09
749.303	3919.18
749.491	3913.95
749.68	3841.3
749.869	3911.05
750.057	3814.56
750.246	3859.12
750.434	3876.56
750.623	3859.51
750.811	3843.82
751	3958.32
751.188	3913.18
751.377	3886.83
751.565	3910.08
751.754	3869.78
751.942	3839.75
752.131	3955.03
752.319	3899.03
752.507	3861.83
752.696	3895.35
752.884	3900.2
753.072	3902.33
753.261	3895.35
753.449	3850.79
753.637	3820.95
753.825	3904.26
754.014	3852.53
754.202	3884.12
754.39	3925
754.578	3911.05
754.766	3846.72
754.955	3827.15
755.143	3913.37
755.331	3848.85
755.519	3856.41
755.707	3853.5
755.895	3833.16
756.083	3840.33
756.271	3773.49
756.459	3810.49
756.647	3858.73
756.835	3812.62
757.023	3828.51
757.211	3798.48
757.399	3828.51
757.587	3772.13
757.775	3731.25
757.963	3783.17
758.151	3776.39
758.339	3686.69
758.526	3718.66
758.714	3731.25
758.902	3570.63
759.09	3538.08
759.278	3296.09
759.465	3023.49
759.653	2609.26
759.841	2404.66
760.028	2016.78
760.216	1776.15
760.404	1629.67
760.591	1350.68
760.779	1125.15
760.967	1012.2
761.154	869.8
761.342	873.28
761.529	861.08
761.717	946.13
761.905	921.33
762.092	971.51
762.28	932.76
762.467	921.14
762.655	836.08
762.842	892.27
763.029	916.68
763.217	914.16
763.404	905.64
763.592	888.98
763.779	911.06
763.966	965.12
764.154	975.39
764.341	1039.32
764.528	1060.25
764.716	1097.45
764.903	1154.02
765.09	1271.24
765.277	1284.61
765.465	1489.98
765.652	1562.44
765.839	1657.38
766.026	1785.64
766.213	1832.91
766.4	1986.55
766.588	2175.65
766.775	2184.56
766.962	2326.78
767.149	2383.35
767.336	2554.62
767.523	2546.48
767.71	2657.31
767.897	2833.81
768.084	2909.95
768.271	2937.27
768.458	3001.6
768.645	3075.8
768.832	3042.28
769.019	3075.61
769.206	3156.79
769.392	3230.99
769.579	3314.3
769.766	3248.24
769.953	3280.21
770.14	3358.48
770.327	3325.54
770.513	3379.6
770.7	3456.32
770.887	3332.32
771.073	3379.4
771.26	3423.19
771.447	3349.95
771.634	3351.5
771.82	3431.72
772.007	3330.77
772.193	3408.08
772.38	3426.1
772.567	3416.6
772.753	3401.49
772.94	3432.88
773.126	3380.95
773.313	3480.93
773.499	3452.25
773.686	3452.25
773.872	3380.57
774.059	3408.47
774.245	3380.18
774.432	3368.36
774.618	3299
774.804	3420.28
774.991	3299.39
775.177	3408.66
775.363	3326.12
775.55	3430.75
775.736	3360.03
775.922	3316.63
776.109	3328.45
776.295	3320.89
776.481	3368.75
776.667	3387.73
776.853	3319.73
777.04	3293.96
777.226	3316.63
777.412	3391.42
777.598	3306.17
777.784	3336.39
777.97	3278.66
778.156	3292.22
778.342	3287.18
778.528	3257.54
778.715	3240.87
778.901	3174.61
779.087	3241.07
779.272	3250.37
779.458	3193.41
779.644	3235.64
779.83	3218.4
780.016	3336.97
780.202	3242.23
780.388	3225.57
780.574	3184.69
780.76	3198.83
780.946	3215.49
781.131	3164.73
781.317	3181.2
781.503	3115.13
781.689	3141.29
781.874	3255.79
782.06	3134.89
782.246	3163.57
782.432	3168.99
782.617	3178.88
782.803	3157.95
782.989	3092.46
783.174	3118.81
783.36	3044.8
783.545	3094.4
783.731	3075.61
783.916	3036.66
784.102	3083.16
784.288	3027.56
784.473	3061.85
784.659	3037.63
784.844	3074.45
785.029	3041.51
785.215	3033.95
785.4	2982.8
785.586	3076
785.771	3006.83
785.956	2986.29
786.142	2935.34
786.327	3003.34
786.512	2973.31
786.698	2967.69
786.883	2911.12
787.068	2941.34
787.254	2951.61
787.439	2917.51
787.624	2913.64
787.809	2904.92
787.994	2895.81
788.18	2998.88
788.365	2875.66
788.55	2850.86
788.735	2878.57
788.92	2850.09
789.105	2856.09
789.29	2865.39
789.475	2821.99
789.66	2810.95
789.845	2786.54
790.03	2758.25
790.215	2810.56
790.4	2814.05
790.585	2800.29
790.77	2779.76
790.955	2669.51
791.14	2732.87
791.325	2849.89
791.51	2712.72
791.695	2770.84
791.879	2736.36
792.064	2710.2
792.249	2803.2
792.434	2691.41
792.618	2769.49
792.803	2747.21
792.988	2729.19
793.173	2714.27
793.357	2793.12
793.542	2701.09
793.727	2758.44
793.911	2747.21
794.096	2761.54
794.281	2787.7
794.465	2842.72
794.65	2759.61
794.834	2812.31
795.019	2826.45
795.203	2817.15
795.388	2833.81
795.572	2853.77
795.757	2787.31
795.941	2837.69
796.126	2802.23
796.31	2727.83
796.494	2761.74
796.679	2745.08
796.863	2747.59
797.048	2820.06
797.232	2763.48
797.416	2788.67
797.601	2774.33
797.785	2866.75
797.969	2863.84
798.153	2776.07
798.338	2827.81
798.522	2879.34
798.706	2828.77
798.89	2836.33
799.074	2912.09
799.258	2931.65
799.443	2859.97
799.627	2846.02
799.811	2877.21
799.995	2832.26
800.179	2774.52
800.363	2808.43
800.547	2856.29
800.731	2840.59
800.915	2752.05
801.099	2765.42
801.283	2804.17
801.467	2788.47
801.651	2809.79
801.835	2823.54
802.019	2823.35
802.202	2787.89
802.386	2761.16
802.57	2733.06
802.754	2788.09
802.938	2742.36
803.121	2760.38
803.305	2835.94
803.489	2794.67
803.673	2806.11
803.856	2817.34
804.04	2736.36
804.224	2782.47
804.407	2755.34
804.591	2770.26
804.775	2787.12
804.958	2778.98
805.142	2868.1
805.326	2818.7
805.509	2834.2
805.693	2859.97
805.876	2822.19
806.06	2801.26
806.243	2836.33
806.427	2857.06
806.61	2850.09
806.794	2824.71
806.977	2868.88
807.16	2844.08
807.344	2840.98
807.527	2828
807.71	2817.15
807.894	2817.15
808.077	2843.69
808.26	2773.75
808.444	2761.74
808.627	2814.63
808.81	2759.03
808.993	2683.08
809.177	2713.11
809.36	2757.67
809.543	2765.81
809.726	2628.83
809.909	2648.59
810.092	2630.76
810.276	2597.05
810.459	2664.09
810.642	2646.65
810.825	2576.52
811.008	2605.77
811.191	2462.79
811.374	2506.38
811.557	2499.99
811.74	2582.91
811.923	2462.79
812.106	2445.74
812.289	2415.71
812.472	2451.74
812.654	2414.16
812.837	2376.18
813.02	2340.14
813.203	2305.66
813.386	2195.03
813.569	2211.69
813.751	2113.27
813.934	2164.41
814.117	2145.82
814.3	2057.66
814.482	1991.01
814.665	1986.75
814.848	1992.17
815.03	1934.63
815.213	1919.52
815.396	1853.84
815.578	1848.41
815.761	1808.5
815.943	1927.27
816.126	1788.35
816.309	1769.17
816.491	1684.7
816.674	1647.5
816.856	1717.44
817.039	1671.72
817.221	1778.66
817.403	1717.25
817.586	1712.6
817.768	1759.87
817.951	1632.19
818.133	1629.87
818.315	1669.2
818.498	1745.15
818.68	1769.95
818.862	1768.98
819.045	1766.46
819.227	1762.58
819.409	1727.9
819.591	1779.25
819.774	1750.96
819.956	1722.28
820.138	1778.28
820.32	1807.92
820.502	1872.44
820.684	1960.59
820.866	1960.98
821.048	1985
821.231	1987.33
821.413	2031.5
821.595	1986.17
821.777	2004.38
821.959	1981.13
822.141	2003.6
822.323	1877.86
822.505	1807.14
822.686	1719.18
822.868	1683.92
823.05	1578.33
823.232	1529.51
823.414	1443.48
823.596	1493.86
823.778	1534.16
823.96	1596.35
824.141	1606.04
824.323	1626.77
824.505	1725
824.687	1773.05
824.868	1769.36
825.05	1888.52
825.232	1890.26
825.413	1966.21
825.595	1930.56
825.777	1856.94
825.958	1925.52
826.14	1925.52
826.321	1932.31
826.503	1898.4
826.685	1943.74
826.866	1960.98
827.048	1960.59
827.229	1878.06
827.411	1831.56
827.592	1802.69
827.773	1815.09
827.955	1773.43
828.136	1726.16
828.318	1736.81
828.499	1732.94
828.68	1706.98
828.862	1741.85
829.043	1781.76
829.224	1708.72
829.406	1679.47
829.587	1738.17
829.768	1712.79
829.949	1762.39
830.131	1754.25
830.312	1762.97
830.493	1725.96
830.674	1789.51
830.855	1735.65
831.036	1706.4
831.218	1801.72
831.399	1820.51
831.58	1715.7
831.761	1728.48
831.942	1730.61
832.123	1756
832.304	1677.92
832.485	1730.81
832.666	1747.08
832.847	1759.29
833.028	1734.88
833.209	1735.46
833.389	1692.64
833.57	1626.57
833.751	1682.37
833.932	1772.08
834.113	1724.61
834.294	1736.62
834.475	1744.95
834.655	1834.46
834.836	1768.4
835.017	1798.62
835.198	1745.53
835.378	1760.45
835.559	1820.51
835.74	1771.69
835.92	1784.86
836.101	1762
836.281	1813.34
836.462	1802.11
836.643	1831.75
836.823	1846.86
837.004	1843.57
837.184	1872.05
837.365	1852.68
837.545	1869.14
837.726	1818.96
837.906	1880.96
838.087	1834.85
838.267	1843.76
838.448	1802.3
838.628	1817.99
838.808	1810.44
838.989	1858.29
839.169	1788.93
839.349	1831.56
839.53	1855.58
839.71	1871.47
839.89	1766.26
840.07	1907.31
840.251	1843.18
840.431	1888.13
840.611	1836.4
840.791	1805.98
840.971	1855.78
841.151	1816.25
841.332	1794.16
841.512	1863.91
841.692	1750.38
841.872	1826.33
842.052	1811.02
842.232	1822.84
842.412	1783.31
842.592	1797.07
842.772	1835.24
842.952	1847.06
843.132	1799.2
843.312	1797.46
843.492	1794.55
843.672	1832.14
843.851	1749.41
844.031	1782.35
844.211	1795.71
844.391	1742.05
844.571	1795.71
844.751	1832.53
844.93	1788.16
845.11	1741.46
845.29	1776.92
845.47	1774.79
845.649	1761.61
845.829	1819.35
846.009	1742.82
846.188	1775.95
846.368	1800.36
846.547	1773.24
846.727	1796.49
846.907	1745.92
847.086	1788.55
847.266	1793.97
847.445	1757.55
847.625	1744.95
847.804	1727.9
847.984	1740.11
848.163	1724.41
848.343	1679.47
848.522	1731.58
848.701	1748.83
848.881	1700.78
849.06	1741.08
849.239	1729.65
849.419	1721.51
849.598	1640.72
849.777	1635.87
849.957	1619.99
850.136	1582.98
850.315	1596.54
850.494	1575.04
850.674	1589.95
850.853	1638.2
851.032	1597.12
851.211	1641.3
851.39	1635.29
851.569	1566.12
851.748	1585.5
851.927	1636.45
852.107	1568.25
852.286	1589.18
852.465	1530.28
852.644	1627.15
852.823	1639.94
853.002	1581.62
853.181	1615.34
853.359	1635.48
853.538	1531.06
853.717	1608.94
853.896	1469.83
854.075	1444.64
854.254	1402.6
854.433	1361.33
854.611	1406.67
854.79	1338.28
854.969	1413.26
855.148	1415.39
855.327	1378.96
855.505	1437.28
855.684	1417.91
855.863	1463.63
856.041	1466.54
856.22	1446
856.399	1461.31
856.577	1555.47
856.756	1540.74
856.934	1630.45
857.113	1603.32
857.291	1538.61
857.47	1495.21
857.648	1544.04
857.827	1551.79
858.005	1585.3
858.184	1530.47
858.362	1626.38
858.541	1544.62
858.719	1537.64
858.898	1527.57
859.076	1524.66
859.254	1575.62
859.433	1517.49
859.611	1526.21
859.789	1490.56
859.967	1561.09
860.146	1560.7
860.324	1476.42
860.502	1511.87
860.68	1463.05
860.859	1466.15
861.037	1471.19
861.215	1499.09
861.393	1473.32
861.571	1503.54
861.749	1443.09
861.927	1486.69
862.105	1487.27
862.283	1448.33
862.461	1422.56
862.639	1435.93
862.817	1467.12
862.995	1462.66
863.173	1447.74
863.351	1472.54
863.529	1457.43
863.707	1479.32
863.885	1475.06
864.063	1405.89
864.241	1412.68
864.418	1465.18
864.596	1422.56
864.774	1363.08
864.952	1403.57
865.129	1407.06
865.307	1398.73
865.485	1339.05
865.663	1438.64
865.84	1334.4
866.018	1331.11
866.196	1242.95
866.373	1260.39
866.551	1192.58
866.728	1165.07
866.906	1204.2
867.084	1238.69
867.261	1223
867.439	1317.35
867.616	1312.7
867.794	1270.85
867.971	1301.27
868.149	1299.33
868.326	1376.25
868.503	1333.05
868.681	1330.72
868.858	1333.05
869.035	1275.31
869.213	1348.93
869.39	1311.15
869.567	1399.89
869.745	1300.11
869.922	1322.39
870.099	1333.05
870.276	1346.61
870.454	1300.3
870.631	1352.03
870.808	1329.95
870.985	1318.32
871.162	1344.86
871.339	1318.71
871.517	1274.53
871.694	1305.34
871.871	1278.99
872.048	1268.14
872.225	1273.76
872.402	1293.52
872.579	1259.81
872.756	1282.09
872.933	1262.13
873.11	1297.4
873.287	1280.93
873.463	1266.98
873.64	1244.31
873.817	1263.3
873.994	1244.89
874.171	1227.65
874.348	1251.67
874.524	1193.55
874.701	1248.96
874.878	1176.3
875.055	1270.47
875.231	1207.88
875.408	1253.22
875.585	1145.5
875.762	1211.18
875.938	1218.93
876.115	1199.55
876.291	1218.93
876.468	1169.33
876.645	1149.57
876.821	1192
876.998	1172.24
877.174	1228.42
877.351	1182.5
877.527	1164.87
877.704	1191.8
877.88	1178.44
878.057	1123.8
878.233	1197.42
878.409	1155.77
878.586	1183.09
878.762	1167.78
878.938	1167
879.115	1107.52
879.291	1149.57
879.467	1095.71
879.644	1148.79
879.82	1171.27
879.996	1122.44
880.172	1094.35
880.349	1131.94
880.525	1150.92
880.701	1092.61
880.877	1073.62
881.053	1080.21
881.229	1103.46
881.405	1138.14
881.581	1073.23
881.757	1113.53
881.933	1119.92
882.109	1132.52
882.285	1117.02
882.461	1061.8
882.637	1111.2
882.813	1079.24
882.989	1101.32
883.165	1150.15
883.341	1083.5
883.517	1151.12
883.693	1126.9
883.869	1128.45
884.044	1105.39
884.22	1106.17
884.396	1143.37
884.572	1109.27
884.747	1139.88
884.923	1132.13
885.099	1121.47
885.275	1123.99
885.45	1100.16
885.626	1108.3
885.801	1086.6
885.977	1099.39
886.153	987.4
886.328	1106.36
886.504	1068.39
886.679	1105.01
886.855	1085.82
887.03	1097.26
887.206	1108.69
887.381	1099.97
887.557	1122.64
887.732	1116.44
887.908	1131.94
888.083	1136
888.258	1115.85
888.434	1123.8
888.609	1052.89
888.784	1132.32
888.96	1103.46
889.135	1083.11
889.31	1087.18
889.485	1120.31
889.661	1086.41
889.836	1130.39
890.011	1109.07
890.186	1073.81
890.361	1061.41
890.537	1108.88
890.712	1115.27
890.887	1117.4
891.062	1095.32
891.237	1139.1
891.412	1037.58
891.587	1109.85
891.762	1091.44
891.937	1120.89
892.112	1035.64
892.287	1061.8
892.462	1037.19
892.637	1018.59
892.812	1006.97
892.987	1030.8
893.161	996.89
893.336	986.43
893.511	1010.84
893.686	975.19
893.861	1001.74
894.035	1003.87
894.21	975.78
894.385	935.67
894.56	976.94
894.734	896.92
894.909	903.31
895.084	913.97
895.258	883.55
895.433	888.4
895.608	871.93
895.782	816.13
895.957	857.4
896.131	822.52
896.306	764.98
896.48	797.14
896.655	779.51
896.829	734.17
897.004	714.99
897.178	697.55
897.353	725.65
897.527	764.59
897.701	739.21
897.876	677.4
898.05	767.88
898.224	770.6
898.399	736.5
898.573	728.75
898.747	620.64
898.921	703.17
899.096	578.79
899.27	593.12
899.444	617.92
899.618	641.37
899.792	668.11
899.967	636.52
900.141	699.1
900.315	596.22
900.489	621.22
900.663	654.35
900.837	635.17
901.011	562.51
901.185	668.49
901.359	648.73
901.533	654.35
901.707	654.35
901.881	660.94
902.055	585.57
902.229	617.15
902.403	683.22
902.576	656.48
902.75	611.53
902.924	767.69
903.098	709.57
903.272	743.67
903.446	780.67
903.619	798.5
903.793	780.09
903.967	782.42
904.14	825.62
904.314	796.95
904.488	795.01
904.661	820.58
904.835	799.27
905.009	816.71
905.182	886.26
905.356	821.94
905.529	788.81
905.703	767.5
905.876	766.33
906.05	743.67
906.223	726.04
906.397	687.87
906.57	660.94
906.744	652.61
906.917	656.09
907.09	640.98
907.264	628
907.437	594.29
907.61	589.83
907.784	596.61
907.957	611.14
908.13	555.93
908.304	585.76
908.477	530.93
908.65	566.19
908.823	527.44
908.996	623.35
909.17	550.5
909.343	563.87
909.516	556.31
909.689	554.38
909.862	541.59
910.035	556.12
910.208	507.1
910.381	524.15
910.554	641.17
910.727	561.93
910.9	567.16
911.073	551.66
911.246	606.69
911.419	606.88
911.592	597.58
911.765	557.86
911.938	532.29
912.11	571.62
912.283	551.08
912.456	597.77
912.629	563.68
912.802	514.08
912.974	505.94
913.147	460.02
913.32	441.03
913.493	444.13
913.665	459.05
913.838	496.64
914.01	475.13
914.183	515.04
914.356	496.25
914.528	504.78
914.701	559.61
914.873	527.83
915.046	476.88
915.218	461.38
915.391	408.29
915.563	403.45
915.736	466.41
915.908	483.27
916.081	490.83
916.253	483.66
916.425	469.51
916.598	518.34
916.77	513.49
916.942	477.65
917.115	386.98
917.287	453.63
917.459	430.38
917.632	395.89
917.804	389.5
917.976	468.35
918.148	472.03
918.32	461.76
918.493	498.77
918.665	530.35
918.837	490.63
919.009	549.34
919.181	564.06
919.353	522.6
919.525	489.47
919.697	526.09
919.869	517.56
920.041	560.19
920.213	629.94
920.385	547.21
920.557	522.79
920.729	527.83
920.901	523.96
921.073	526.48
921.244	514.66
921.416	534.81
921.588	515.63
921.76	512.33
921.932	547.79
922.103	542.36
922.275	531.13
922.447	532.29
922.619	448.59
922.79	528.03
922.962	506.52
923.134	539.65
923.305	483.08
923.477	456.53
923.648	415.46
923.82	479.98
923.991	432.12
924.163	407.9
924.335	450.53
924.506	421.85
924.677	510.78
924.849	414.49
925.02	440.26
925.192	468.93
925.363	441.42
925.535	446.07
925.706	457.5
925.877	473.2
926.049	406.35
926.22	438.32
926.391	453.43
926.562	487.15
926.734	415.65
926.905	458.47
927.076	404.22
927.247	418.56
927.419	373.42
927.59	361.21
927.761	360.05
927.932	367.99
928.103	377.87
928.274	300.95
928.445	296.69
928.616	317.04
928.787	319.17
928.958	355.78
929.129	341.25
929.3	292.24
929.471	262.2
929.642	228.69
929.813	189.36
929.984	296.69
930.155	220.94
930.326	283.52
930.496	205.24
930.667	154.29
930.838	195.36
931.009	166.11
931.18	180.83
931.35	163.2
931.521	172.11
931.692	128.71
931.863	72.14
932.033	143.63
932.204	141.11
932.374	132.59
932.545	97.33
932.716	124.26
932.886	133.94
933.057	64.97
933.227	93.26
933.398	145.96
933.568	68.07
933.739	38.43
933.909	34.55
934.08	78.73
934.25	25.64
934.421	24.86
934.591	61.48
934.761	38.43
934.932	33.58
935.102	62.84
935.272	48.7
935.443	44.05
935.613	22.93
935.783	73.49
935.953	27.58
936.123	175.6
936.294	28.93
936.464	36.3
936.634	49.08
936.804	-3.23
936.974	-3.04
937.144	65.94
937.314	68.65
937.484	42.5
937.655	9.95
937.825	64.97
937.995	8.98
938.165	91.13
938.334	39.4
938.504	76.4
938.674	67.68
938.844	85.89
939.014	91.71
939.184	132.98
939.354	163.59
939.524	146.92
939.694	92.48
939.863	107.79
940.033	165.14
940.203	153.71
940.373	125.42
940.542	122.9
940.712	106.82
940.882	132.39
941.051	144.02
941.221	125.03
941.391	163.39
941.56	98.68
941.73	71.17
941.899	182.77
942.069	96.94
942.238	101.2
942.408	90.16
942.577	119.8
942.747	94.42
942.916	70.39
943.086	70.78
943.255	137.82
943.425	141.69
943.594	62.45
943.763	34.16
943.933	28.74
944.102	32.03
944.271	74.85
944.441	104.3
944.61	47.34
944.779	64.19
944.948	152.74
945.117	45.4
945.287	69.43
945.456	19.83
945.625	48.89
945.794	96.74
945.963	18.08
946.132	68.26
946.301	38.43
946.47	92.48
946.639	1.61
946.808	57.22
946.977	88.03
947.146	117.48
947.315	71.94
947.484	104.88
947.653	49.86
947.822	75.04
947.991	55.48
948.16	173.27
948.329	100.62
948.498	82.79
948.666	86.86
948.835	84.93
949.004	49.08
949.173	2
949.341	62.45
949.51	71.56
949.679	113.41
949.847	88.03
950.016	123.09
950.185	148.09
950.353	71.36
950.522	90.54
950.69	132.39
950.859	56.64
951.028	126
951.196	71.94
951.365	56.45
951.533	74.46
951.701	100.62
951.87	80.47
952.038	23.31
952.207	56.83
952.375	135.3
952.543	75.82
952.712	86.09
952.88	57.8
953.048	129.49
953.217	72.14
953.385	94.03
953.553	126.39
953.721	27.19
953.89	113.41
954.058	43.46
954.226	46.95
954.394	102.94
954.562	50.83
954.73	88.99
954.898	55.86
955.067	102.17
955.235	61.68
955.403	113.99
955.571	129.88
955.739	88.03
955.907	28.35
956.075	66.91
956.243	34.75
956.41	98.68
956.578	31.06
956.746	42.11
956.914	82.99
957.082	96.36
957.25	123.68
957.418	75.24
957.585	94.23
957.753	125.23
957.921	46.18
958.089	79.89
958.256	98.49
958.424	106.82
958.592	92.48
958.759	61.48
958.927	107.21
959.095	74.85
959.262	83.18
959.43	106.63
959.597	56.25
959.765	85.89
959.932	56.83
960.1	112.24
960.267	103.33
960.435	56.25
960.602	117.67
960.77	58
960.937	73.49
961.104	89.19
961.272	45.21
961.439	75.24
961.606	70.59
961.774	100.43
961.941	86.09
962.108	101.01
962.275	97.91
962.443	130.07
962.61	111.66
962.777	161.07
962.944	102.75
963.111	86.28
963.278	101.98
963.446	116.7
963.613	113.02
963.78	96.36
963.947	85.7
964.114	108.76
964.281	168.62
964.448	149.64
964.615	76.21
964.782	111.86
964.949	137.63
965.116	140.53
965.282	144.6
965.449	101.39
965.616	63.23
965.783	135.11
965.95	99.84
966.117	54.51
966.283	66.91
966.45	110.89
966.617	97.91
966.784	148.28
966.95	145.96
967.117	169.79
967.284	72.14
967.45	89.38
967.617	163.59
967.784	155.84
967.95	187.81
968.117	127.55
968.283	169.4
968.45	212.61
968.616	124.45
968.783	193.81
968.949	126.97
969.116	167.27
969.282	130.07
969.449	151.38
969.615	153.12
969.781	124.26
969.948	112.83
970.114	108.37
970.28	164.75
970.447	136.08
970.613	183.54
970.779	135.88
970.945	168.43
971.112	152.35
971.278	144.21
971.444	115.15
971.61	167.85
971.776	117.09
971.942	120.58
972.108	139.18
972.275	115.54
972.441	158.94
972.607	179.09
972.773	80.47
972.939	121.93
973.105	125.23
973.271	92.87
973.437	107.01
973.602	87.06
973.768	152.16
973.934	114.96
974.1	125.61
974.266	62.45
974.432	150.22
974.598	98.29
974.763	145.96
974.929	102.17
975.095	150.99
975.261	88.41
975.426	95
975.592	113.21
975.758	125.23
975.923	75.24
976.089	79.5
976.255	142.66
976.42	132.39
976.586	117.28
976.751	98.88
976.917	207.37
977.082	127.36
977.248	73.49
977.413	70.2
977.579	101.39
977.744	91.32
977.91	67.29
978.075	96.16
978.24	126.19
978.406	99.84
978.571	59.35
978.736	77.56
978.902	120.38
979.067	74.66
979.232	77.37
979.397	120.19
979.563	150.8
979.728	47.73
979.893	94.61
980.058	102.94
980.223	118.06
980.388	107.4
980.554	104.11
980.719	87.64
980.884	129.29
981.049	139.95
981.214	79.5
981.379	124.84
981.544	70.39
981.709	98.68
981.874	90.74
982.039	105.08
982.204	106.63
982.368	141.69
982.533	75.63
982.698	138.98
982.863	125.81
983.028	89.38
983.193	132.01
983.357	95.97
983.522	109.73
983.687	96.36
983.852	101.39
984.016	101.98
984.181	117.86
984.346	130.84
984.51	126.19
984.675	114.96
984.839	122.51
985.004	122.71
985.168	118.06
985.333	106.04
985.498	76.01
985.662	129.29
985.827	142.86
985.991	100.62
986.155	79.5
986.32	120.38
986.484	160.1
986.649	132.01
986.813	60.13
986.977	103.53
987.142	129.68
987.306	88.8
987.47	99.65
987.634	85.31
987.799	142.47
987.963	122.13
988.127	130.84
988.291	157.19
988.455	90.16
988.62	106.63
988.784	116.7
988.948	108.76
989.112	74.27
989.276	106.24
989.44	99.26
989.604	109.53
989.768	67.29
989.932	177.92
990.096	79.69
990.26	61.09
990.424	58.38
990.588	105.46
990.752	171.72
990.915	130.26
991.079	80.28
991.243	79.69
991.407	135.11
991.571	105.46
991.734	124.26
991.898	115.54
992.062	167.66
992.226	84.34
992.389	73.49
992.553	69.43
992.717	72.72
992.88	88.03
993.044	106.82
993.207	74.85
993.371	127.36
993.535	98.1
993.698	96.16
993.862	121.35
994.025	114.18
994.189	88.99
994.352	99.07
994.515	93.64
994.679	118.64
994.842	78.92
995.006	124.26
995.169	66.33
995.332	75.24
995.496	138.21
995.659	26.61
995.822	70.2
995.985	96.74
996.149	140.53
996.312	88.03
996.475	140.14
996.638	74.27
996.801	104.88
996.964	144.79
997.128	98.68
997.291	97.71
997.454	91.32
997.617	52.57
997.78	98.29
997.943	66.52
998.106	84.15
998.269	61.48
998.432	65.94
998.595	72.91
998.758	41.91
998.92	50.63
999.083	27.19
999.246	75.04
999.409	39.98
999.572	34.16
999.735	78.73
999.897	91.9
1000.06	70.2
1000.223	57.41
1000.386	87.83
1000.548	84.15
1000.711	81.05
1000.874	105.27
1001.036	46.56
1001.199	120.58
1001.361	70.39
1001.524	67.88
1001.687	111.86
1001.849	50.05
1002.012	59.93
1002.174	81.44
1002.337	96.74
1002.499	56.83
1002.661	95.39
1002.824	23.51
1002.986	71.56
1003.149	50.44
1003.311	39.78
1003.473	120.58
1003.636	39.59
1003.798	99.65
1003.96	71.17
1004.123	75.24
1004.285	61.29
1004.447	39.59
1004.609	47.73
1004.771	91.9
1004.933	26.41
1005.096	37.65
1005.258	26.61
1005.42	39.01
1005.582	97.91
1005.744	76.59
1005.906	21.18
1006.068	54.31
1006.23	35.71
1006.392	-16.21
1006.554	53.15
1006.716	83.76
1006.878	67.49
1007.04	25.83
1007.202	37.26
1007.363	66.91
1007.525	52.57
1007.687	57.8
1007.849	94.61
1008.011	13.05
1008.172	43.46
1008.334	39.59
1008.496	67.1
1008.658	28.35
1008.819	53.73
1008.981	28.16
1009.143	30.48
1009.304	41.14
1009.466	78.73
1009.627	126.58
1009.789	139.76
1009.95	40.17
1010.112	23.31
1010.273	64.78
1010.435	28.74
1010.596	37.46
1010.758	29.9
1010.919	38.62
1011.081	0.84
1011.242	45.01
1011.403	69.62
1011.565	51.99
1011.726	73.69
1011.887	27.58
1012.049	35.91
1012.21	62.84
1012.371	80.86
1012.532	-8.65
1012.693	60.71
1012.855	25.06
1013.016	36.3
1013.177	90.74
1013.338	28.93
1013.499	94.42
1013.66	66.52
1013.821	59.16
1013.982	66.52
1014.143	35.91
1014.304	18.28
1014.465	55.67
1014.626	46.37
1014.787	33.78
1014.948	113.99
1015.109	-12.34
1015.27	81.44
1015.431	44.43
1015.592	39.4
1015.752	97.71
1015.913	43.27
1016.074	46.18
1016.235	44.05
1016.395	47.73
1016.556	21.38
1016.717	25.83
1016.877	66.33
1017.038	13.63
1017.199	31.65
1017.359	30.29
1017.52	48.11
1017.681	34.55
1017.841	21.18
1018.002	13.24
1018.162	16.73
1018.323	72.14
1018.483	27
1018.644	21.96
1018.804	10.53
1018.964	-2.84
1019.125	18.86
1019.285	28.35
1019.446	-2.26
1019.606	27.77
1019.766	-15.24
1019.926	47.53
1020.087	57.41
1020.247	-12.72
1020.407	48.5
1020.567	76.4
1020.728	20.99
1020.888	-35.2
1021.048	17.89
1021.208	-16.79
1021.368	25.83
1021.528	67.49
1021.688	64.39
1021.848	51.8
1022.008	45.21
1022.168	25.83
1022.328	26.41
1022.488	32.61
1022.648	17.89
1022.808	23.7
1022.968	39.01
1023.128	10.14
1023.288	4.13
1023.448	38.62
1023.608	59.54
1023.767	59.16
1023.927	23.9
1024.087	-10.4
1024.247	3.94
1024.406	-1.49
1024.566	-22.8
1024.726	-21.05
1024.885	21.57
1025.045	48.5
1025.205	6.85
1025.364	34.16
1025.524	31.65
1025.683	14.6
1025.843	20.41
1026.003	40.95
1026.162	87.44
1026.321	60.51
1026.481	13.43
1026.64	-11.95
1026.8	67.68
1026.959	51.6
1027.119	11.5
1027.278	3.55
1027.437	-1.87
1027.597	36.68
1027.756	5.68
1027.915	51.02
1028.074	48.11
1028.234	-4.39
1028.393	14.6
1028.552	4.33
1028.711	-61.16
1028.87	35.91
1029.03	-18.73
1029.189	15.18
1029.348	-36.17
1029.507	11.69
1029.666	23.31
1029.825	-18.73
1029.984	-20.47
1030.143	44.43
1030.302	0.65
1030.461	-35.39
1030.62	34.36
1030.779	55.67
1030.938	15.18
1031.097	-6.91
1031.255	42.88
1031.414	82.41
1031.573	60.32
1031.732	-34.81
1031.891	-2.65
1032.049	44.63
1032.208	28.93
1032.367	-11.95
1032.525	14.98
1032.684	12.46
1032.843	38.04
1033.001	-31.9
1033.16	155.45
1033.319	75.24
1033.477	35.33
1033.636	16.92
1033.794	-16.6
1033.953	44.82
1034.111	26.03
1034.27	-6.52
1034.428	46.37
1034.587	-32.29
1034.745	22.93
1034.903	32.03
1035.062	38.23
1035.22	-33.45
1035.378	70.78
1035.537	-28.42
1035.695	43.66
1035.853	-7.69
1036.011	34.36
1036.17	9.56
1036.328	-51.47
1036.486	15.56
1036.644	20.6
1036.802	-48.76
1036.96	22.35
1037.119	1.42
1037.277	-19.31
1037.435	-15.63
1037.593	-7.49
1037.751	8.98
1037.909	24.09
1038.067	24.09
