Data from oakcork_FLMT105791__216__17-32-47-055.txt Node

Date: Mon Mar 20 17:32:47 GMT 2023
User: antho
Spectrometer: FLMT10579
Trigger mode: 0
Integration Time (sec): 1.000000E-1
Scans to average: 10
Electric dark correction enabled: true
Nonlinearity correction enabled: false
Boxcar width: 0
XAxis mode: Wavelengths
Number of Pixels in Spectrum: 3648
>>>>>Begin Spectral Data<<<<<
345.248	-143.86
345.464	-143.86
345.681	-143.86
345.898	-142.69
346.114	-146.76
346.331	-32.45
346.548	16.37
346.764	-3
346.981	24.51
347.197	-25.48
347.414	9.01
347.631	7.27
347.847	38.07
348.064	8.62
348.28	-3.2
348.497	-37.68
348.713	-2.03
348.93	15.6
349.146	17.92
349.363	9.59
349.579	17.53
349.796	7.07
350.012	9.2
350.229	49.11
350.445	-5.91
350.661	-11.72
350.878	-3.78
351.094	26.25
351.311	28.58
351.527	48.53
351.743	20.63
351.96	49.31
352.176	28.77
352.392	35.17
352.609	40.78
352.825	21.02
353.041	28
353.257	2.62
353.474	18.89
353.69	55.7
353.906	19.67
354.122	-6.88
354.339	64.42
354.555	22.57
354.771	15.21
354.987	80.89
355.203	79.73
355.42	-6.49
355.636	3
355.852	10.56
356.068	8.62
356.284	-18.12
356.5	74.3
356.716	18.5
356.932	27.22
357.148	30.52
357.364	9.78
357.58	67.13
357.796	60.35
358.012	70.04
358.228	24.7
358.444	-28.38
358.66	79.92
358.876	-3.58
359.092	17.73
359.308	16.57
359.524	17.92
359.74	11.53
359.956	26.25
360.172	24.9
360.388	43.11
360.604	17.34
360.819	83.02
361.035	12.3
361.251	33.23
361.467	-7.85
361.683	53.57
361.898	29.93
362.114	34
362.33	33.42
362.546	60.93
362.762	13.47
362.977	54.15
363.193	21.02
363.409	58.41
363.624	13.66
363.84	2.81
364.056	-2.42
364.271	37.88
364.487	44.66
364.703	-7.65
364.918	-32.84
365.134	27.42
365.35	-3.78
365.565	93.48
365.781	34.78
365.996	21.41
366.212	77.4
366.427	28.97
366.643	21.22
366.858	28.38
367.074	-8.82
367.289	74.5
367.505	116.35
367.72	-3.58
367.936	4.75
368.151	44.66
368.367	34.78
368.582	37.3
368.798	0.87
369.013	80.5
369.228	15.98
369.444	56.86
369.659	51.44
369.874	36.72
370.09	80.7
370.305	-20.44
370.52	-0.68
370.736	69.07
370.951	0.29
371.166	98.91
371.381	63.06
371.597	42.92
371.812	6.88
372.027	1.07
372.242	28.77
372.458	61.51
372.673	19.47
372.888	28.77
373.103	42.72
373.318	110.92
373.533	55.9
373.749	34.58
373.964	-13.47
374.179	74.69
374.394	-9.2
374.609	82.44
374.824	7.65
375.039	80.89
375.254	17.34
375.469	77.21
375.684	30.9
375.899	85.73
376.114	39.43
376.329	56.67
376.544	57.64
376.759	61.32
376.974	15.02
377.189	42.72
377.404	18.12
377.619	63.65
377.834	-17.15
378.049	39.23
378.264	0.87
378.478	60.93
378.693	35.75
378.908	50.66
379.123	25.28
379.338	74.3
379.553	31.1
379.767	33.23
379.982	68.68
380.197	66.94
380.412	28.38
380.626	38.27
380.841	80.11
381.056	43.69
381.271	94.45
381.485	15.79
381.7	18.89
381.915	35.94
382.129	32.07
382.344	41.75
382.559	28.97
382.773	81.66
382.988	3.2
383.202	57.25
383.417	28.38
383.632	102.2
383.846	48.15
384.061	28.97
384.275	39.82
384.49	44.85
384.704	41.37
384.919	60.35
385.133	46.01
385.348	78.95
385.562	-8.04
385.777	88.25
385.991	39.23
386.206	32.26
386.42	22.96
386.634	102.78
386.849	62.87
387.063	64.03
387.277	17.53
387.492	14.05
387.706	9.2
387.92	30.32
388.135	69.65
388.349	50.28
388.563	48.34
388.778	55.31
388.992	75.66
389.206	53.76
389.42	99.68
389.635	44.27
389.849	84.96
390.063	91.55
390.277	75.08
390.491	108.6
390.706	62.29
390.92	84.96
391.134	66.94
391.348	95.42
391.562	-3.78
391.776	68.3
391.99	46.21
392.205	84.57
392.419	11.92
392.633	45.82
392.847	73.53
393.061	22.96
393.275	111.5
393.489	44.27
393.703	51.05
393.917	91.55
394.131	48.73
394.345	72.95
394.559	101.43
394.773	53.18
394.986	54.54
395.2	65.2
395.414	85.15
395.628	47.95
395.842	54.54
396.056	59.19
396.27	7.07
396.484	57.64
396.697	62.1
396.911	81.47
397.125	73.91
397.339	106.66
397.553	85.54
397.766	116.54
397.98	100.65
398.194	106.46
398.408	53.38
398.621	106.08
398.835	83.6
399.049	104.91
399.262	119.25
399.476	96
399.69	103.75
399.903	135.91
400.117	63.06
400.331	100.85
400.544	72.36
400.758	198.11
400.971	89.8
401.185	110.15
401.398	59.19
401.612	138.04
401.826	126.42
402.039	138.04
402.253	91.35
402.466	118.67
402.68	88.25
402.893	100.46
403.106	99.3
403.32	90.77
403.533	136.11
403.747	99.3
403.96	102.78
404.174	143.86
404.387	63.65
404.6	105.5
404.814	127.97
405.027	101.43
405.24	98.13
405.454	108.79
405.667	127
405.88	39.04
406.094	110.34
406.307	151.41
406.52	121.77
406.733	59.58
406.947	39.04
407.16	145.79
407.373	147.54
407.586	95.61
407.799	49.7
408.012	138.63
408.226	126.03
408.439	142.69
408.652	58.61
408.865	95.03
409.078	138.43
409.291	130.68
409.504	93.48
409.717	121.19
409.93	107.05
410.143	100.26
410.357	66.36
410.57	49.5
410.783	90.38
410.996	122.55
411.209	89.41
411.421	174.08
411.634	112.08
411.847	101.23
412.06	105.5
412.273	114.02
412.486	122.93
412.699	198.88
412.912	125.45
413.125	145.02
413.338	133.59
413.55	136.11
413.763	145.41
413.976	139.21
414.189	99.68
414.402	115.76
414.615	151.22
414.827	95.23
415.04	151.8
415.253	118.86
415.466	154.13
415.678	188.81
415.891	129.52
416.104	107.82
416.316	120.61
416.529	108.79
416.742	146.57
416.954	157.81
417.167	112.86
417.38	114.8
417.592	182.41
417.805	96.97
418.017	79.34
418.23	151.03
418.442	110.15
418.655	105.3
418.868	141.14
419.08	173.5
419.293	170.98
419.505	163.04
419.718	169.43
419.93	181.64
420.142	118.28
420.355	187.45
420.567	183.19
420.78	162.65
420.992	127.97
421.205	198.3
421.417	123.32
421.629	107.43
421.842	100.65
422.054	113.25
422.266	173.89
422.479	157.42
422.691	134.75
422.903	150.83
423.115	110.53
423.328	143.86
423.54	121.58
423.752	140.95
423.964	133.59
424.177	136.69
424.389	124.68
424.601	232.79
424.813	152.58
425.025	155.29
425.238	176.79
425.45	125.06
425.662	133.59
425.874	407.35
426.086	163.04
426.298	167.11
426.51	190.36
426.722	164.01
426.934	131.65
427.146	173.5
427.358	106.46
427.57	164.98
427.782	161.68
427.994	146.76
428.206	126.61
428.418	94.06
428.63	164.59
428.842	180.28
429.054	145.79
429.266	173.69
429.478	114.8
429.69	161.68
429.902	116.54
430.114	173.31
430.325	185.71
430.537	133.78
430.749	131.46
430.961	107.63
431.173	136.49
431.384	155.29
431.596	90.19
431.808	151.41
432.02	144.44
432.231	196.17
432.443	204.89
432.655	186.87
432.867	122.16
433.078	162.26
433.29	224.46
433.502	206.83
433.713	191.33
433.925	171.56
434.136	201.98
434.348	144.24
434.56	127.78
434.771	226.01
434.983	120.22
435.194	145.99
435.406	177.18
435.617	240.54
435.829	210.51
436.04	224.26
436.252	230.66
436.463	252.55
436.675	200.04
436.886	195.59
437.098	205.86
437.309	259.52
437.521	194.23
437.732	196.94
437.943	190.36
438.155	189.78
438.366	169.43
438.578	252.55
438.789	216.9
439	198.3
439.211	183.38
439.423	221.36
439.634	215.54
439.845	203.92
440.057	181.06
440.268	229.69
440.479	179.7
440.69	200.24
440.902	189.39
441.113	201.01
441.324	200.63
441.535	222.32
441.746	290.91
441.957	193.65
442.168	178.15
442.38	255.46
442.591	229.69
442.802	176.99
443.013	200.04
443.224	242.47
443.435	229.11
443.646	226.97
443.857	224.65
444.068	216.9
444.279	192.88
444.49	291.88
444.701	218.64
444.912	312.61
445.123	249.06
445.334	249.84
445.545	231.04
445.756	228.72
445.967	198.11
446.178	267.47
446.388	275.99
446.599	265.92
446.81	250.42
447.021	213.8
447.232	259.72
447.443	317.45
447.653	226.01
447.864	275.22
448.075	259.91
448.286	266.89
448.496	274.44
448.707	246.35
448.918	235.31
449.129	310.67
449.339	230.07
449.55	291.88
449.761	230.07
449.971	282.77
450.182	249.45
450.393	266.5
450.603	249.45
450.814	272.51
451.024	262.04
451.235	291.49
451.446	336.83
451.656	332.76
451.867	260.88
452.077	271.34
452.288	312.61
452.498	315.13
452.709	244.02
452.919	276.57
453.13	257.01
453.34	316.29
453.55	232.01
453.761	287.42
453.971	261.66
454.182	305.44
454.392	300.02
454.602	325.59
454.813	299.05
455.023	299.24
455.233	237.24
455.444	287.04
455.654	201.4
455.864	275.02
456.075	273.67
456.285	268.05
456.495	295.37
456.705	283.74
456.916	320.17
457.126	320.94
457.336	264.95
457.546	234.53
457.756	239.18
457.967	348.65
458.177	278.71
458.387	291.69
458.597	279.48
458.807	269.99
459.017	290.14
459.227	264.76
459.437	256.42
459.647	331.4
459.857	312.42
460.068	263.21
460.278	316.87
460.488	299.44
460.698	337.02
460.908	284.91
461.117	274.25
461.327	265.92
461.537	305.25
461.747	298.47
461.957	302.54
462.167	386.43
462.377	349.23
462.587	291.88
462.797	324.04
463.007	291.69
463.216	331.6
463.426	360.27
463.636	356.2
463.846	269.79
464.056	299.24
464.265	364.15
464.475	307.77
464.685	303.7
464.895	341.67
465.104	304.86
465.314	345.94
465.524	309.12
465.733	285.29
465.943	369.57
466.153	381.59
466.362	330.82
466.572	333.15
466.782	327.34
466.991	311.64
467.201	371.9
467.41	262.04
467.62	347.1
467.829	341.67
468.039	360.66
468.249	340.12
468.458	341.29
468.668	371.12
468.877	351.36
469.086	351.55
469.296	381.59
469.505	306.22
469.715	406.38
469.924	351.17
470.134	398.83
470.343	397.08
470.552	358.53
470.762	341.87
470.971	318.04
471.18	347.68
471.39	349.62
471.599	344.77
471.808	377.52
472.018	360.27
472.227	390.89
472.436	396.89
472.645	378.49
472.855	341.48
473.064	372.48
473.273	384.49
473.482	403.48
473.691	436.22
473.901	408.52
474.11	393.21
474.319	467.22
474.528	397.08
474.737	449.59
474.946	410.07
475.155	396.5
475.364	436.03
475.573	437.97
475.783	442.62
475.992	442.23
476.201	445.33
476.41	405.03
476.619	395.53
476.828	421.3
477.037	405.42
477.245	430.99
477.454	483.88
477.663	413.94
477.872	425.37
478.081	478.65
478.29	409.1
478.499	504.61
478.708	501.71
478.917	502.29
479.125	459.86
479.334	479.62
479.543	455.98
479.752	466.45
479.961	456.57
480.169	496.48
480.378	453.08
480.587	560.8
480.796	497.64
481.004	504.23
481.213	507.52
481.422	487.18
481.63	489.89
481.839	517.6
482.048	547.82
482.256	517.4
482.465	500.93
482.674	523.41
482.882	543.17
483.091	603.23
483.299	533.87
483.508	546.66
483.716	541.62
483.925	554.6
484.134	502.87
484.342	541.81
484.551	546.27
484.759	544.33
484.967	536.97
485.176	557.31
485.384	562.35
485.593	562.74
485.801	554.8
486.01	517.79
486.218	511.98
486.426	446.49
486.635	507.13
486.843	463.93
487.051	513.53
487.26	487.95
487.468	525.73
487.676	542.2
487.885	510.43
488.093	557.31
488.301	571.65
488.509	585.79
488.717	600.33
488.926	550.92
489.134	550.15
489.342	584.05
489.55	533.87
489.758	564.48
489.967	578.43
490.175	683.44
490.383	581.92
490.591	684.02
490.799	563.13
491.007	630.74
491.215	620.67
491.423	602.26
491.631	611.18
491.839	595.09
492.047	635.01
492.255	575.91
492.463	554.6
492.671	600.13
492.879	645.28
493.087	639.66
493.295	624.74
493.503	630.74
493.711	661.94
493.919	672.01
494.127	640.24
494.334	697.59
494.542	601.68
494.75	640.24
494.958	665.42
495.166	694.68
495.374	668.72
495.581	672.79
495.789	644.31
495.997	708.44
496.205	623.38
496.412	676.27
496.62	654.38
496.828	704.56
497.035	678.41
497.243	680.54
497.451	657.29
497.658	697.01
497.866	662.52
498.074	743.5
498.281	671.82
498.489	737.11
498.696	693.13
498.904	675.89
499.112	650.89
499.319	732.07
499.527	682.86
499.734	744.86
499.942	653.99
500.149	675.5
500.357	685.19
500.564	653.22
500.771	702.43
500.979	646.24
501.186	658.64
501.394	688.48
501.601	664.84
501.808	704.76
502.016	652.25
502.223	707.27
502.43	677.63
502.638	673.37
502.845	641.79
503.052	745.05
503.26	694.1
503.467	753.97
503.674	700.88
503.881	737.69
504.089	778.19
504.296	713.67
504.503	669.11
504.71	699.52
504.917	646.05
505.125	718.12
505.332	728.39
505.539	709.02
505.746	758.42
505.953	733.24
506.16	738.66
506.367	758.42
506.574	811.7
506.781	790.78
506.988	757.26
507.195	749.7
507.402	710.76
507.609	764.62
507.816	717.54
508.023	746.6
508.23	751.45
508.437	699.72
508.644	795.43
508.851	811.51
509.058	795.24
509.265	778.96
509.472	772.18
509.679	870.22
509.885	757.07
510.092	783.03
510.299	763.07
510.506	804.73
510.713	790.78
510.92	761.52
511.126	818.29
511.333	838.44
511.54	821.97
511.746	828.56
511.953	846.58
512.16	849.87
512.367	801.82
512.573	799.69
512.78	832.82
512.987	771.99
513.193	817.32
513.4	750.29
513.606	783.8
513.813	814.8
514.02	815.58
514.226	867.5
514.433	840.38
514.639	786.32
514.846	838.44
515.052	802.99
515.259	827.4
515.465	820.42
515.672	841.73
515.878	907.61
516.085	833.6
516.291	859.37
516.497	828.56
516.704	786.32
516.91	815.77
517.117	757.26
517.323	700.3
517.529	775.86
517.736	778.38
517.942	784
518.148	797.75
518.354	827.59
518.561	818.68
518.767	814.61
518.973	847.55
519.179	827.98
519.386	818.1
519.592	805.12
519.798	830.5
520.004	888.82
520.21	842.51
520.417	915.75
520.623	925.82
520.829	946.16
521.035	928.15
521.241	953.72
521.447	939.96
521.653	1002.93
521.859	908.38
522.065	933.57
522.271	1022.89
522.477	967.67
522.683	1011.26
522.889	987.05
523.095	944.61
523.301	976.78
523.507	960.11
523.713	964.18
523.919	956.82
524.125	1013.2
524.331	1003.9
524.537	1058.54
524.742	1013.59
524.948	1050.21
525.154	1025.99
525.36	1142.62
525.566	1028.89
525.772	1087.02
525.977	1001.38
526.183	1051.76
526.389	1061.44
526.595	983.36
526.8	1011.26
527.006	981.62
527.212	943.45
527.417	947.71
527.623	942.68
527.829	1035.09
528.034	1020.18
528.24	1005.84
528.446	1018.63
528.651	1085.08
528.857	1087.6
529.062	1145.34
529.268	1068.81
529.473	1108.52
529.679	1101.36
529.884	1154.06
530.09	1128.09
530.295	1190.29
530.501	1155.02
530.706	1123.06
530.912	1106.39
531.117	1105.81
531.323	1124.8
531.528	1180.4
531.733	1191.25
531.939	1132.74
532.144	1162.77
532.35	1149.21
532.555	1204.82
532.76	1171.49
532.966	1174.4
533.171	1151.92
533.376	1133.52
533.581	1136.23
533.787	1109.49
533.992	1182.34
534.197	1214.31
534.402	1130.42
534.607	1205.01
534.813	1258.1
535.018	1186.41
535.223	1161.42
535.428	1181.76
535.633	1250.15
535.838	1232.91
536.043	1197.07
536.249	1312.73
536.454	1237.95
536.659	1260.42
536.864	1229.04
537.069	1214.89
537.274	1251.12
537.479	1248.99
537.684	1222.06
537.889	1171.11
538.094	1313.51
538.299	1213.15
538.504	1257.52
538.708	1304.21
538.913	1294.72
539.118	1264.69
539.323	1276.5
539.528	1222.45
539.733	1277.08
539.938	1271.85
540.142	1277.08
540.347	1231.75
540.552	1236.79
540.757	1266.62
540.962	1240.85
541.166	1192.22
541.371	1201.33
541.576	1228.65
541.781	1164.91
541.985	1269.72
542.19	1294.13
542.395	1306.15
542.599	1318.16
542.804	1267.2
543.008	1326.49
543.213	1266.82
543.418	1234.46
543.622	1307.7
543.827	1227.1
544.031	1326.68
544.236	1347.03
544.44	1339.67
544.645	1383.06
544.849	1284.64
545.054	1348
545.258	1367.56
545.463	1358.85
545.667	1292.78
545.872	1384.42
546.076	1320.1
546.281	1308.86
546.485	1292.97
546.689	1343.93
546.894	1352.26
547.098	1368.34
547.302	1317.77
547.507	1320.1
547.711	1337.53
547.915	1409.22
548.119	1320.87
548.324	1322.03
548.528	1351.68
548.732	1315.83
548.936	1385.58
549.141	1407.28
549.345	1335.4
549.549	1332.11
549.753	1346.25
549.957	1432.08
550.161	1404.18
550.366	1389.46
550.57	1337.73
550.774	1365.82
550.978	1351.29
551.182	1373.96
551.386	1360.98
551.59	1321.26
551.794	1344.51
551.998	1374.15
552.202	1345.67
552.406	1323.39
552.61	1372.21
552.814	1391.59
553.018	1398.76
553.222	1343.15
553.426	1357.49
553.63	1427.05
553.833	1382.87
554.037	1299.75
554.241	1381.32
554.445	1378.61
554.649	1360.59
554.853	1333.27
555.056	1417.36
555.26	1414.06
555.464	1364.27
555.668	1387.13
555.871	1387.13
556.075	1412.32
556.279	1328.82
556.483	1307.12
556.686	1354
556.89	1350.71
557.094	1376.48
557.297	1323.58
557.501	1369.31
557.704	1288.9
557.908	1361.75
558.112	1313.32
558.315	1404.96
558.519	1346.64
558.722	1326.1
558.926	1331.92
559.129	1262.55
559.333	1251.32
559.536	1255.19
559.74	1226.52
559.943	1250.93
560.147	1255.19
560.35	1249.19
560.553	1257.13
560.757	1229.42
560.96	1343.73
561.164	1256.55
561.367	1334.43
561.57	1271.08
561.774	1301.5
561.977	1292.39
562.18	1273.79
562.384	1359.62
562.587	1294.52
562.79	1269.33
562.993	1288.13
563.197	1320.68
563.4	1309.25
563.603	1325.72
563.806	1372.99
564.009	1260.23
564.212	1280.38
564.416	1233.88
564.619	1255.58
564.822	1231.36
565.025	1296.27
565.228	1244.92
565.431	1262.55
565.634	1172.07
565.837	1225.74
566.04	1195.32
566.243	1212.18
566.446	1142.62
566.649	1245.12
566.852	1161.81
567.055	1196.87
567.258	1219.35
567.461	1262.36
567.664	1234.07
567.867	1132.74
568.07	1214.12
568.273	1182.34
568.475	1237.17
568.678	1179.24
568.881	1169.94
569.084	1177.69
569.287	1094.96
569.489	1091.67
569.692	1167.81
569.895	1164.71
570.098	1109.3
570.3	1105.42
570.503	1049.63
570.706	1069
570.909	1103.1
571.111	1024.83
571.314	1064.54
571.516	1053.31
571.719	1078.69
571.922	1062.41
572.124	1073.84
572.327	1072.49
572.529	1050.79
572.732	1070.55
572.935	1084.11
573.137	1093.61
573.34	1061.06
573.542	1084.89
573.745	1089.93
573.947	1064.93
574.15	1075.59
574.352	1030.06
574.554	1118.99
574.757	1014.56
574.959	1026.18
575.162	1033.16
575.364	998.28
575.566	1155.61
575.769	1030.25
575.971	1019.4
576.173	940.16
576.376	1027.15
576.578	1040.91
576.78	1072.29
576.982	939.77
577.185	996.15
577.387	1004.48
577.589	956.24
577.791	1005.06
577.993	1045.17
578.196	986.08
578.398	1002.55
578.6	1036.64
578.802	950.43
579.004	950.81
579.206	975.23
579.408	1000.61
579.61	978.71
579.812	1042.46
580.014	943.26
580.216	948.1
580.418	973.29
580.62	949.85
580.822	928.15
581.024	973.68
581.226	1008.74
581.428	979.49
581.63	1036.45
581.832	975.42
582.034	1008.94
582.236	972.32
582.438	1017.66
582.64	1010.68
582.841	1028.7
583.043	1085.47
583.245	1026.18
583.447	1020.56
583.649	977.55
583.85	971.35
584.052	1033.54
584.254	951.2
584.456	1012.62
584.657	963.41
584.859	981.43
585.061	973.87
585.262	972.13
585.464	945.2
585.666	1009.91
585.867	991.11
586.069	1020.76
586.27	993.25
586.472	973.48
586.674	939.58
586.875	966.9
587.077	959.73
587.278	979.88
587.48	970.38
587.681	1052.53
587.883	987.05
588.084	916.72
588.285	932.21
588.487	941.13
588.688	943.65
588.89	861.3
589.091	883.97
589.292	883.2
589.494	854.52
589.695	848.9
589.896	791.55
590.098	774.31
590.299	864.21
590.5	818.49
590.702	845.61
590.903	881.84
591.104	919.43
591.305	886.3
591.507	936.09
591.708	895.21
591.909	908.38
592.11	949.26
592.311	888.82
592.512	879.13
592.714	843.09
592.915	877.58
593.116	861.69
593.317	887.46
593.518	912.45
593.719	872.73
593.92	885.72
594.121	922.53
594.322	928.34
594.523	905.28
594.724	838.05
594.925	887.65
595.126	920.01
595.327	910.13
595.528	916.33
595.729	871.57
595.929	882.03
596.13	905.09
596.331	889.4
596.532	885.91
596.733	942.68
596.934	923.3
597.135	939
597.335	925.82
597.536	875.45
597.737	905.87
597.938	878.55
598.138	913.23
598.339	886.49
598.54	897.15
598.74	892.69
598.941	882.62
599.142	935.9
599.342	897.15
599.543	851.42
599.744	868.47
599.944	866.15
600.145	884.36
600.345	896.18
600.546	958.76
600.746	961.86
600.947	966.12
601.147	909.16
601.348	958.95
601.548	880.1
601.749	876.42
601.949	860.53
602.15	893.08
602.35	879.32
602.551	932.99
602.751	870.41
602.951	855.3
603.152	818.1
603.352	898.31
603.552	881.65
603.753	891.14
603.953	871.77
604.153	908.38
604.354	900.25
604.554	873.51
604.754	871.77
604.954	855.3
605.155	913.42
605.355	876.42
605.555	899.86
605.755	937.25
605.955	908.77
606.155	904.7
606.356	897.53
606.556	918.65
606.756	888.04
606.956	854.52
607.156	946.16
607.356	851.81
607.556	893.85
607.756	903.35
607.956	921.95
608.156	913.23
608.356	855.1
608.556	922.72
608.756	869.44
608.956	845.03
609.156	897.73
609.356	849.48
609.556	831.27
609.755	881.65
609.955	835.15
610.155	853.17
610.355	869.44
610.555	847.74
610.755	857.82
610.954	797.75
611.154	875.83
611.354	879.32
611.554	835.53
611.753	852.78
611.953	798.92
612.153	871.38
612.352	831.27
612.552	812.29
612.752	794.27
612.951	834.37
613.151	857.62
613.351	809.57
613.55	830.69
613.75	856.27
613.949	816.35
614.149	845.8
614.348	830.11
614.548	802.4
614.747	757.45
614.947	795.82
615.146	754.16
615.346	820.81
615.545	792.33
615.745	826.43
615.944	844.64
616.144	798.14
616.343	844.64
616.542	798.53
616.742	799.3
616.941	791.17
617.14	761.14
617.34	775.86
617.539	801.05
617.738	759
617.938	833.79
618.137	795.43
618.336	743.12
618.535	823.91
618.734	780.7
618.934	805.7
619.133	782.06
619.332	778.77
619.531	778.77
619.73	776.44
619.929	834.76
620.128	795.04
620.328	846.58
620.527	786.71
620.726	794.07
620.925	799.89
621.124	800.66
621.323	815
621.522	728.39
621.721	769.47
621.92	738.86
622.119	808.6
622.318	755.13
622.517	774.12
622.715	749.51
622.914	674.53
623.113	743.7
623.312	716.38
623.511	784.39
623.71	738.66
623.909	727.62
624.107	786.13
624.306	702.82
624.505	716.57
624.704	730.14
624.902	731.3
625.101	783.03
625.3	733.82
625.499	698.36
625.697	701.46
625.896	702.43
626.095	738.08
626.293	699.72
626.492	675.5
626.69	737.5
626.889	694.1
627.088	748.54
627.286	708.82
627.485	664.84
627.683	710.18
627.882	719.09
628.08	635.98
628.279	664.65
628.477	741.18
628.676	647.41
628.874	710.96
629.073	662.91
629.271	670.66
629.469	714.83
629.668	682.28
629.866	684.8
630.065	631.52
630.263	705.34
630.461	670.27
630.66	700.49
630.858	729.94
631.056	715.22
631.254	712.51
631.453	670.66
631.651	713.86
631.849	683.83
632.047	718.12
632.245	681.89
632.444	691.97
632.642	705.53
632.84	700.3
633.038	676.86
633.236	674.92
633.434	663.49
633.632	653.41
633.83	643.34
634.028	697.97
634.227	670.27
634.425	781.67
634.623	710.18
634.821	691.19
635.019	742.92
635.216	662.91
635.414	720.06
635.612	725.87
635.81	675.89
636.008	751.64
636.206	704.95
636.404	722.58
636.602	665.62
636.8	697.59
636.997	709.41
637.195	733.43
637.393	709.21
637.591	731.3
637.789	701.46
637.986	698.94
638.184	717.93
638.382	732.85
638.58	721.42
638.777	765.4
638.975	721.81
639.173	722.77
639.37	691
639.568	691
639.765	734.98
639.963	689.45
640.161	739.24
640.358	741.57
640.556	641.01
640.753	681.89
640.951	696.42
641.148	703.79
641.346	669.69
641.543	707.66
641.741	689.06
641.938	654.77
642.136	669.88
642.333	650.51
642.531	716.38
642.728	678.6
642.925	667.75
643.123	679.96
643.32	687.32
643.517	668.33
643.715	694.1
643.912	695.07
644.109	694.29
644.306	665.04
644.504	633.84
644.701	665.42
644.898	727.04
645.095	640.24
645.293	670.66
645.49	687.12
645.687	680.34
645.884	712.7
646.081	636.75
646.278	614.86
646.475	623.77
646.672	627.64
646.87	677.44
647.067	649.34
647.264	635.01
647.461	590.64
647.658	576.11
647.855	654.77
648.052	659.03
648.249	568.55
648.446	639.08
648.642	613.89
648.839	586.76
649.036	612.92
649.233	573.59
649.43	568.74
649.627	547.43
649.824	582.11
650.021	596.26
650.217	583.47
650.414	585.21
650.611	610.79
650.808	626.87
651.004	626.48
651.201	633.84
651.398	656.12
651.595	638.69
651.791	583.28
651.988	653.03
652.185	600.71
652.381	598.58
652.578	585.79
652.775	609.04
652.971	614.86
653.168	625.13
653.364	648.18
653.561	568.16
653.757	599.36
653.954	627.06
654.15	594.51
654.347	676.66
654.543	610.79
654.74	552.66
654.936	523.41
655.133	618.93
655.329	589.67
655.525	578.43
655.722	630.36
655.918	554.02
656.115	593.54
656.311	528.25
656.507	470.52
656.704	459.47
656.9	503.26
657.096	502.48
657.292	509.65
657.489	549.37
657.685	582.11
657.881	550.92
658.077	548.21
658.273	558.67
658.47	625.9
658.666	565.65
658.862	581.34
659.058	539.88
659.254	619.12
659.45	568.55
659.646	569.13
659.842	591.8
660.038	634.23
660.234	549.95
660.43	582.89
660.626	621.06
660.822	604.01
661.018	615.83
661.214	555.96
661.41	514.11
661.606	601.29
661.802	567
661.998	557.9
662.194	557.9
662.39	573.98
662.586	593.16
662.781	581.92
662.977	584.05
663.173	623.38
663.369	580.95
663.564	599.16
663.76	594.9
663.956	545.11
664.152	607.11
664.347	512.95
664.543	572.62
664.739	553.44
664.934	523.99
665.13	518.37
665.326	591.41
665.521	590.25
665.717	553.44
665.912	551.7
666.108	480.4
666.304	547.63
666.499	547.63
666.695	482.53
666.89	532.13
667.086	572.81
667.281	561.96
667.477	592.19
667.672	577.66
667.867	549.95
668.063	567.58
668.258	523.02
668.454	544.72
668.649	591.22
668.844	539.1
669.04	549.37
669.235	524.96
669.43	510.43
669.626	501.13
669.821	531.35
670.016	500.16
670.211	534.65
670.407	502.48
670.602	533.29
670.797	544.72
670.992	573.78
671.187	497.25
671.382	522.05
671.578	511.2
671.773	537.94
671.968	497.45
672.163	551.89
672.358	578.82
672.553	520.11
672.748	502.87
672.943	580.56
673.138	515.27
673.333	565.84
673.528	504.61
673.723	527.09
673.918	519.15
674.113	488.53
674.308	589.28
674.503	541.62
674.698	557.51
674.892	542.01
675.087	544.91
675.282	533.68
675.477	517.01
675.672	547.82
675.867	500.93
676.061	475.17
676.256	489.31
676.451	510.81
676.646	527.67
676.84	497.06
677.035	502.1
677.23	471.48
677.424	537.36
677.619	539.3
677.814	561.96
678.008	547.05
678.203	473.81
678.397	480.78
678.592	518.37
678.787	561.96
678.981	489.11
679.176	528.64
679.37	504.03
679.565	481.17
679.759	502.48
679.954	520.7
680.148	561.38
680.342	561.58
680.537	535.23
680.731	507.13
680.926	526.12
681.12	531.74
681.314	500.55
681.509	511.59
681.703	507.33
681.897	532.13
682.092	495.12
682.286	482.14
682.48	554.21
682.674	576.88
682.869	472.84
683.063	496.28
683.257	564.87
683.451	495.12
683.645	512.17
683.839	481.95
684.034	507.91
684.228	516.63
684.422	443
684.616	454.43
684.81	521.86
685.004	482.14
685.198	505.97
685.392	549.95
685.586	488.73
685.78	550.92
685.974	517.01
686.168	505.2
686.362	578.04
686.556	472.45
686.75	459.67
686.944	493.38
687.138	457.73
687.331	405.61
687.525	381.39
687.719	335.86
687.913	406.19
688.107	409.68
688.301	377.9
688.494	423.82
688.688	373.06
688.882	387.98
689.076	369.19
689.269	387.2
689.463	472.07
689.657	405.61
689.85	371.7
690.044	426.73
690.238	404.25
690.431	414.91
690.625	405.42
690.818	449.2
691.012	438.16
691.205	461.02
691.399	407.35
691.593	446.68
691.786	515.08
691.98	465.67
692.173	517.98
692.366	508.49
692.56	517.21
692.753	553.63
692.947	474.97
693.14	530.96
693.333	513.91
693.527	470.71
693.72	508.88
693.914	499.19
694.107	490.66
694.3	532.51
694.493	518.76
694.687	572.23
694.88	503.06
695.073	573.2
695.266	541.43
695.46	539.68
695.653	580.56
695.846	577.08
696.039	512.17
696.232	540.85
696.425	551.5
696.618	593.74
696.812	601.88
697.005	624.74
697.198	677.24
697.391	620.28
697.584	665.23
697.777	703.01
697.97	651.09
698.163	683.64
698.356	657.87
698.549	715.8
698.742	702.43
698.935	657.09
699.127	700.3
699.32	618.73
699.513	683.83
699.706	723.36
699.899	725.49
700.092	689.45
700.285	711.92
700.477	681.89
700.67	732.85
700.863	771.4
701.056	798.14
701.248	766.95
701.441	813.64
701.634	747.38
701.826	839.22
702.019	775.67
702.212	803.57
702.404	748.15
702.597	777.6
702.79	813.84
702.982	808.6
703.175	864.6
703.367	886.68
703.56	859.56
703.752	951.4
703.945	901.22
704.137	933.38
704.33	949.65
704.522	972.51
704.715	940.74
704.907	961.47
705.1	1001.96
705.292	998.67
705.484	973.48
705.677	1009.13
705.869	1004.1
706.061	1069.78
706.254	1086.24
706.446	1055.24
706.638	1051.37
706.831	1117.63
707.023	1072.1
707.215	1124.99
707.407	1150.76
707.599	1128.87
707.792	1166.65
707.984	1160.64
708.176	1188.35
708.368	1163.94
708.56	1183.31
708.752	1173.82
708.944	1166.46
709.136	1247.64
709.329	1206.37
709.521	1325.52
709.713	1257.9
709.905	1287.93
710.097	1319.52
710.289	1316.61
710.481	1333.85
710.672	1327.27
710.864	1327.85
711.056	1434.21
711.248	1404.57
711.44	1433.05
711.632	1407.67
711.824	1389.07
712.016	1468.12
712.207	1478.19
712.399	1431.31
712.591	1545.81
712.783	1501.06
712.975	1515.01
713.166	1462.69
713.358	1498.93
713.55	1574.49
713.741	1547.17
713.933	1580.88
714.125	1561.89
714.316	1535.16
714.508	1620.02
714.7	1637.07
714.891	1603.55
715.083	1676.4
715.274	1607.81
715.466	1634.74
715.657	1678.53
715.849	1588.24
716.04	1636.87
716.232	1558.79
716.423	1646.95
716.615	1562.09
716.806	1530.89
716.998	1502.41
717.189	1474.51
717.381	1416.58
717.572	1372.02
717.763	1445.26
717.955	1393.14
718.146	1356.52
718.337	1348.38
718.528	1339.67
718.72	1257.13
718.911	1320.68
719.102	1270.11
719.293	1326.68
719.485	1315.06
719.676	1330.17
719.867	1286
720.058	1277.86
720.249	1311.18
720.44	1344.32
720.632	1361.56
720.823	1410.58
721.014	1534.19
721.205	1526.05
721.396	1586.89
721.587	1658.96
721.778	1663.03
721.969	1724.25
722.16	1774.24
722.351	1803.5
722.542	1893.78
722.733	1906.18
722.924	1859.88
723.115	1886.61
723.305	1877.31
723.496	1885.45
723.687	1752.15
723.878	1799.23
724.069	1775.6
724.26	1798.85
724.45	1734.91
724.641	1723.48
724.832	1773.66
725.023	1758.74
725.213	1742.66
725.404	1727.35
725.595	1738.78
725.785	1754.67
725.976	1828.88
726.167	1796.71
726.357	1834.3
726.548	1895.91
726.739	1831.98
726.929	1905.21
727.12	1931.56
727.31	1921.88
727.501	1905.6
727.691	1910.06
727.882	1884.87
728.072	1950.16
728.263	1936.21
728.453	1987.75
728.644	2027.47
728.834	1965.28
729.024	1957.72
729.215	1993.95
729.405	2011
729.596	2091.99
729.786	2087.72
729.976	2094.89
730.167	2129.38
730.357	2078.81
730.547	2091.21
730.737	2131.32
730.928	2150.69
731.118	2203.39
731.308	2151.85
731.498	2151.08
731.688	2239.81
731.879	2253.18
732.069	2291.93
732.259	2336.3
732.449	2386.48
732.639	2418.64
732.829	2463.21
733.019	2467.66
733.209	2551.17
733.399	2566.67
733.589	2602.51
733.779	2643.78
733.969	2631.96
734.159	2729.41
734.349	2713.91
734.539	2784.24
734.729	2761.19
734.919	2828.81
735.109	2872.4
735.299	2780.18
735.488	2832.68
735.678	2866.01
735.868	2864.46
736.058	2844.5
736.248	2827.45
736.437	2781.14
736.627	2771.46
736.817	2940.4
737.007	2857.29
737.196	2880.92
737.386	2870.66
737.576	2898.56
737.765	2907.08
737.955	2899.33
738.144	3016.16
738.334	2955.71
738.524	2934.2
738.713	2991.55
738.903	2962.1
739.092	3014.61
739.282	3029.72
739.471	3048.9
739.661	3034.95
739.85	3074.28
740.04	3086.68
740.229	3081.65
740.419	3111.48
740.608	3133.38
740.797	3111.48
740.987	3175.81
741.176	3168.06
741.365	3130.08
741.555	3117.88
741.744	3208.36
741.933	3152.56
742.123	3198.09
742.312	3238.19
742.501	3252.92
742.69	3228.7
742.88	3199.06
743.069	3293.99
743.258	3295.54
743.447	3315.31
743.636	3335.65
743.825	3227.34
744.014	3314.72
744.204	3331.19
744.393	3250.59
744.582	3363.16
744.771	3372.27
744.96	3318.21
745.149	3373.62
745.338	3319.96
745.527	3379.44
745.716	3336.23
745.905	3321.7
746.094	3420.51
746.283	3382.92
746.471	3396.87
746.66	3396.87
746.849	3394.55
747.038	3441.44
747.227	3344.56
747.416	3430.78
747.604	3358.9
747.793	3315.31
747.982	3393.77
748.171	3385.44
748.359	3375.37
748.548	3394.16
748.737	3362
748.926	3383.7
749.114	3301.36
749.303	3377.11
749.491	3360.45
749.68	3303.1
749.869	3374.59
750.057	3350.96
750.246	3355.41
750.434	3358.32
750.623	3310.07
750.811	3296.9
751	3400.36
751.188	3357.35
751.377	3358.51
751.565	3316.86
751.754	3318.99
751.942	3299.03
752.131	3355.99
752.319	3314.53
752.507	3287.99
752.696	3374.79
752.884	3387.77
753.072	3330.03
753.261	3325.38
753.449	3322.86
753.637	3303.1
753.825	3371.1
754.014	3295.93
754.202	3274.23
754.39	3360.84
754.578	3362.39
754.766	3285.86
754.955	3274.43
755.143	3381.95
755.331	3243.81
755.519	3312.79
755.707	3280.82
755.895	3288.76
756.083	3304.46
756.271	3225.99
756.459	3254.47
756.647	3316.47
756.835	3244.78
757.023	3256.21
757.211	3238.58
757.399	3222.69
757.587	3247.88
757.775	3213.39
757.963	3227.93
758.151	3237.03
758.339	3180.07
758.526	3164.18
758.714	3173.1
758.902	3053.55
759.09	2977.6
759.278	2818.54
759.465	2584.88
759.653	2219.28
759.841	2006.54
760.028	1726
760.216	1477.03
760.404	1416.97
760.591	1156.57
760.779	977.36
760.967	859.37
761.154	709.02
761.342	749.9
761.529	756.87
761.717	795.04
761.905	771.6
762.092	825.27
762.28	758.04
762.467	770.44
762.655	710.18
762.842	753.39
763.029	758.23
763.217	756.29
763.404	774.7
763.592	784.97
763.779	754.16
763.966	797.75
764.154	816.74
764.341	877.19
764.528	892.3
764.716	966.31
764.903	988.01
765.09	1054.08
765.277	1091.28
765.465	1283.48
765.652	1338.31
765.839	1387.33
766.026	1515.98
766.213	1573.91
766.4	1660.7
766.588	1795.75
766.775	1850.38
766.962	1965.47
767.149	2016.04
767.336	2137.9
767.523	2116.59
767.71	2247.95
767.897	2370.21
768.084	2445.77
768.271	2444.02
768.458	2519.78
768.645	2595.92
768.832	2552.14
769.019	2620.33
769.206	2661.22
769.392	2713.91
769.579	2797.61
769.766	2749.56
769.953	2742.4
770.14	2829.97
770.327	2790.06
770.513	2910.37
770.7	2940.79
770.887	2817.76
771.073	2851.09
771.26	2837.14
771.447	2848.57
771.634	2844.69
771.82	2929.75
772.007	2825.9
772.193	2879.76
772.38	2913.67
772.567	2838.88
772.753	2873.95
772.94	2924.91
773.126	2908.82
773.313	2900.69
773.499	2914.64
773.686	2953
773.872	2882.67
774.059	2889.45
774.245	2861.94
774.432	2832.49
774.618	2791.8
774.804	2872.59
774.991	2800.33
775.177	2842.76
775.363	2844.89
775.55	2864.26
775.736	2782.89
775.922	2829.58
776.109	2848.76
776.295	2820.86
776.481	2828.61
776.667	2859.22
776.853	2789.67
777.04	2798.19
777.226	2803.81
777.412	2862.13
777.598	2725.54
777.784	2743.56
777.97	2765.84
778.156	2767.58
778.342	2749.37
778.528	2765.84
778.715	2744.33
778.901	2720.5
779.087	2777.27
779.272	2706.55
779.458	2691.05
779.644	2762.93
779.83	2700.74
780.016	2787.54
780.202	2722.63
780.388	2706.36
780.574	2660.44
780.76	2677.68
780.946	2696.86
781.131	2689.5
781.317	2673.42
781.503	2667.61
781.689	2661.6
781.874	2783.28
782.06	2618.59
782.246	2683.69
782.432	2623.43
782.617	2669.93
782.803	2677.68
782.989	2611.62
783.174	2586.82
783.36	2564.73
783.545	2616.85
783.731	2604.83
783.916	2475.8
784.102	2626.53
784.288	2566.47
784.473	2587.59
784.659	2549.81
784.844	2581.2
785.029	2570.54
785.215	2518.42
785.4	2487.04
785.586	2597.67
785.771	2477.35
785.956	2543.8
786.142	2511.25
786.327	2467.27
786.512	2474.44
786.698	2543.03
786.883	2441.89
787.068	2461.27
787.254	2505.83
787.439	2438.02
787.624	2446.93
787.809	2448.09
787.994	2442.28
788.18	2471.92
788.365	2374.28
788.55	2418.64
788.735	2346.38
788.92	2358
789.105	2359.55
789.29	2382.8
789.475	2340.95
789.66	2372.73
789.845	2312.66
790.03	2297.75
790.215	2359.16
790.4	2387.06
790.585	2392.88
790.77	2324.68
790.955	2264.42
791.14	2294.84
791.325	2406.82
791.51	2221.99
791.695	2318.48
791.879	2304.14
792.064	2271.98
792.249	2331.84
792.434	2294.26
792.618	2307.24
792.803	2325.84
792.988	2267.71
793.173	2301.62
793.357	2329.71
793.542	2268.88
793.727	2280.5
793.911	2341.73
794.096	2325.26
794.281	2350.64
794.465	2409.54
794.65	2353.16
794.834	2355.29
795.019	2360.52
795.203	2353.74
795.388	2367.69
795.572	2357.81
795.757	2340.95
795.941	2346.76
796.126	2322.35
796.31	2286.9
796.494	2348.51
796.679	2324.68
796.863	2294.65
797.048	2385.32
797.232	2352.38
797.416	2373.89
797.601	2305.3
797.785	2392.29
797.969	2393.26
798.153	2345.02
798.338	2367.69
798.522	2399.85
798.706	2392.49
798.89	2375.05
799.074	2464.76
799.258	2448.09
799.443	2396.75
799.627	2362.65
799.811	2416.9
799.995	2360.33
800.179	2342.31
800.363	2349.28
800.547	2357.03
800.731	2421.16
800.915	2307.63
801.099	2287.86
801.283	2327.97
801.467	2343.86
801.651	2329.91
801.835	2377.38
802.019	2355.68
802.202	2349.67
802.386	2266.36
802.57	2318.09
802.754	2354.32
802.938	2308.4
803.121	2298.91
803.305	2374.47
803.489	2320.41
803.673	2372.53
803.856	2336.11
804.04	2336.3
804.224	2345.41
804.407	2331.84
804.591	2297.75
804.775	2296.2
804.958	2341.92
805.142	2389.19
805.326	2341.14
805.509	2336.88
805.693	2399.27
805.876	2377.18
806.06	2367.11
806.243	2392.88
806.427	2400.43
806.61	2409.15
806.794	2337.08
806.977	2384.54
807.16	2385.32
807.344	2382.8
807.527	2341.73
807.71	2370.79
807.894	2369.63
808.077	2408.37
808.26	2304.91
808.444	2308.4
808.627	2363.62
808.81	2297.16
808.993	2273.14
809.177	2276.24
809.36	2282.05
809.543	2295.23
809.726	2213.85
809.909	2193.7
810.092	2168.9
810.276	2183.43
810.459	2203.39
810.642	2205.52
810.825	2159.22
811.008	2179.37
811.191	2111.36
811.374	2092.57
811.557	2155.92
811.74	2153.98
811.923	2041.42
812.106	2055.37
812.289	2016.23
812.472	2038.71
812.654	2034.64
812.837	2007.71
813.02	1909.67
813.203	1935.05
813.386	1801.17
813.569	1830.23
813.751	1790.71
813.934	1808.15
814.117	1775.98
814.3	1759.9
814.482	1710.5
814.665	1674.65
814.848	1646.37
815.03	1585.34
815.213	1562.09
815.396	1589.6
815.578	1545.62
815.761	1498.93
815.943	1589.6
816.126	1475.09
816.309	1464.63
816.491	1415.23
816.674	1366.21
816.856	1431.11
817.039	1414.84
817.221	1488.85
817.403	1403.99
817.586	1433.44
817.768	1453.39
817.951	1382.68
818.133	1376.86
818.315	1396.05
818.498	1446.61
818.68	1470.06
818.862	1433.05
819.045	1482.26
819.227	1501.44
819.409	1451.46
819.591	1486.33
819.774	1464.83
819.956	1442.35
820.138	1534.57
820.32	1502.99
820.502	1550.46
820.684	1602
820.866	1578.94
821.048	1681.82
821.231	1689.38
821.413	1662.45
821.595	1638.81
821.777	1633.19
821.959	1627.57
822.141	1691.12
822.323	1586.11
822.505	1501.64
822.686	1456.88
822.868	1383.26
823.05	1293.17
823.232	1288.52
823.414	1245.7
823.596	1274.37
823.778	1249.96
823.96	1311.96
824.141	1308.08
824.323	1334.82
824.505	1431.89
824.687	1431.5
824.868	1493.5
825.05	1590.76
825.232	1628.93
825.413	1656.83
825.595	1596.19
825.777	1545.42
825.958	1588.82
826.14	1582.24
826.321	1618.08
826.503	1558.6
826.685	1619.63
826.866	1630.87
827.048	1655.86
827.229	1577.39
827.411	1509.39
827.592	1480.91
827.773	1496.02
827.955	1476.06
828.136	1464.83
828.318	1409.8
828.499	1451.84
828.68	1411.55
828.862	1449.13
829.043	1489.63
829.224	1435.57
829.406	1420.85
829.587	1388.88
829.768	1457.66
829.949	1456.88
830.131	1438.86
830.312	1502.61
830.493	1442.35
830.674	1459.21
830.855	1412.51
831.036	1427.24
831.218	1532.25
831.399	1516.56
831.58	1461.14
831.761	1437.7
831.942	1476.06
832.123	1440.61
832.304	1400.7
832.485	1426.66
832.666	1478.19
832.847	1453.78
833.028	1434.02
833.209	1450.88
833.389	1440.03
833.57	1395.85
833.751	1413.29
833.932	1434.99
834.113	1447.78
834.294	1423.36
834.475	1471.61
834.655	1494.08
834.836	1492.53
835.017	1464.83
835.198	1430.92
835.378	1482.46
835.559	1521.98
835.74	1449.71
835.92	1458.43
836.101	1443.9
836.281	1504.93
836.462	1535.54
836.643	1516.36
836.823	1549.3
837.004	1476.84
837.184	1585.53
837.365	1583.21
837.545	1517.72
837.726	1496.6
837.906	1569.84
838.087	1526.05
838.267	1555.11
838.448	1476.26
838.628	1510.36
838.808	1493.69
838.989	1602.58
839.169	1508.61
839.349	1507.84
839.53	1567.71
839.71	1538.64
839.89	1485.75
840.07	1593.28
840.251	1518.49
840.431	1552.4
840.611	1522.56
840.791	1526.24
840.971	1515.01
841.151	1480.52
841.332	1491.37
841.512	1560.34
841.692	1420.07
841.872	1521.98
842.052	1490.21
842.232	1515.2
842.412	1477.42
842.592	1490.98
842.772	1501.06
842.952	1494.28
843.132	1480.91
843.312	1487.88
843.492	1453.2
843.672	1498.34
843.851	1408.25
844.031	1464.05
844.211	1498.54
844.391	1482.26
844.571	1462.69
844.751	1474.13
844.93	1490.59
845.11	1442.16
845.29	1477.61
845.47	1478.78
845.649	1498.93
845.829	1500.09
846.009	1457.08
846.188	1470.06
846.368	1465.99
846.547	1456.3
846.727	1469.67
846.907	1430.92
847.086	1434.6
847.266	1541.94
847.445	1435.38
847.625	1437.7
847.804	1428.21
847.984	1457.85
848.163	1413.1
848.343	1398.95
848.522	1422.01
848.701	1444.29
848.881	1415.42
849.06	1409.03
849.239	1446.61
849.419	1435.96
849.598	1332.11
849.777	1355.55
849.957	1342.38
850.136	1332.11
850.315	1295.49
850.494	1264.1
850.674	1286.58
850.853	1373.96
851.032	1323
851.211	1387.91
851.39	1347.61
851.569	1300.92
851.748	1317
851.927	1371.44
852.107	1298.78
852.286	1304.21
852.465	1292.58
852.644	1341.02
852.823	1278.25
853.002	1278.63
853.181	1338.89
853.359	1343.93
853.538	1261.59
853.717	1309.05
853.896	1225.55
854.075	1185.83
854.254	1152.12
854.433	1128.09
854.611	1165.1
854.79	1088.76
854.969	1168.01
855.148	1222.45
855.327	1141.27
855.505	1193.97
855.684	1166.84
855.863	1204.62
856.041	1182.15
856.22	1225.74
856.399	1157.35
856.577	1285.42
856.756	1250.54
856.934	1378.03
857.113	1348
857.291	1253.84
857.47	1244.34
857.648	1253.25
857.827	1267.01
858.005	1299.17
858.184	1231.94
858.362	1351.87
858.541	1237.17
858.719	1248.8
858.898	1235.43
859.076	1206.75
859.254	1339.86
859.433	1261
859.611	1203.07
859.789	1195.71
859.967	1289.48
860.146	1297.43
860.324	1208.3
860.502	1233.69
860.68	1218.38
860.859	1209.27
861.037	1229.42
861.215	1219.74
861.393	1230.78
861.571	1212.37
861.749	1211.4
861.927	1222.84
862.105	1218.38
862.283	1210.63
862.461	1202.49
862.639	1164.71
862.817	1197.65
862.995	1201.52
863.173	1187.77
863.351	1162.19
863.529	1225.16
863.707	1245.89
863.885	1229.42
864.063	1129.06
864.241	1165.49
864.418	1230.78
864.596	1147.47
864.774	1141.07
864.952	1155.61
865.129	1205.4
865.307	1148.44
865.485	1059.51
865.663	1182.54
865.84	1086.83
866.018	1113.56
866.196	1007.19
866.373	1024.44
866.551	998.86
866.728	941.9
866.906	994.99
867.084	1027.54
867.261	1053.11
867.439	1056.41
867.616	1117.63
867.794	1070.55
867.971	1085.08
868.149	1080.24
868.326	1125.96
868.503	1112.4
868.681	1062.61
868.858	1059.89
869.035	1048.46
869.213	1105.62
869.39	1078.88
869.567	1155.61
869.745	1079.27
869.922	1081.01
870.099	1097.29
870.276	1085.86
870.454	1092.83
870.631	1098.06
870.808	1084.69
870.985	1131.97
871.162	1129.26
871.339	1112.01
871.517	1034.9
871.694	1039.74
871.871	1059.12
872.048	1060.09
872.225	1044.39
872.402	1065.13
872.579	1025.21
872.756	1028.31
872.933	1023.08
873.11	1025.41
873.287	1088.18
873.463	1033.74
873.64	1019.98
873.817	1046.14
873.994	1029.86
874.171	984.72
874.348	1017.46
874.524	968.06
874.701	1026.57
874.878	947.91
875.055	997.31
875.231	1010.49
875.408	1021.73
875.585	936.28
875.762	1010.88
875.938	997.9
876.115	971.93
876.291	965.54
876.468	991.7
876.645	945.39
876.821	978.71
876.998	960.5
877.174	997.7
877.351	964.76
877.527	925.82
877.704	972.13
877.88	990.53
878.057	937.45
878.233	977.75
878.409	960.5
878.586	964.96
878.762	939.58
878.938	962.83
879.115	879.52
879.291	951.59
879.467	906.64
879.644	898.7
879.82	951.98
879.996	886.3
880.172	892.5
880.349	913.03
880.525	946.16
880.701	895.21
880.877	856.27
881.053	942.48
881.229	892.5
881.405	971.35
881.581	897.92
881.757	911.68
881.933	917.3
882.109	942.68
882.285	907.03
882.461	884.75
882.637	910.9
882.813	872.73
882.989	903.93
883.165	940.16
883.341	868.47
883.517	916.72
883.693	907.61
883.869	936.09
884.044	877.77
884.22	945.78
884.396	955.46
884.572	944.42
884.747	953.53
884.923	925.63
885.099	911.1
885.275	918.46
885.45	886.3
885.626	895.4
885.801	883
885.977	907.42
886.153	840.57
886.328	914.58
886.504	864.6
886.679	902.38
886.855	882.62
887.03	897.73
887.206	923.88
887.381	920.4
887.557	913.81
887.732	927.18
887.908	908.58
888.083	936.48
888.258	890.95
888.434	889.4
888.609	886.68
888.784	925.05
888.96	902.57
889.135	874.87
889.31	884.55
889.485	879.13
889.661	845.8
889.836	923.69
890.011	919.81
890.186	898.89
890.361	856.27
890.537	895.02
890.712	931.05
890.887	912.45
891.062	894.63
891.237	957.79
891.412	858.98
891.587	893.85
891.762	903.54
891.937	907.8
892.112	857.43
892.287	872.93
892.462	849.29
892.637	833.6
892.812	813.45
892.987	795.82
893.161	801.63
893.336	846.58
893.511	794.07
893.686	835.15
893.861	798.72
894.035	790.59
894.21	828.17
894.385	760.36
894.56	781.67
894.734	729.36
894.909	740.6
895.084	751.06
895.258	727.04
895.433	733.24
895.608	702.24
895.782	655.74
895.957	687.12
896.131	656.9
896.306	662.32
896.48	629.58
896.655	653.61
896.829	587.15
897.004	595.09
897.178	591.22
897.353	590.83
897.527	645.08
897.701	609.82
897.876	587.93
898.05	605.36
898.224	637.53
898.399	632.88
898.573	594.9
898.747	504.61
898.921	556.93
899.096	485.63
899.27	493.38
899.444	491.05
899.618	504.61
899.792	536.39
899.967	541.43
900.141	581.34
900.315	503.26
900.489	497.06
900.663	522.44
900.837	534.84
901.011	456.57
901.185	530
901.359	512.36
901.533	539.1
901.707	509.46
901.881	517.98
902.055	486.21
902.229	522.44
902.403	589.86
902.576	530.96
902.75	529.8
902.924	621.64
903.098	593.35
903.272	595.68
903.446	640.24
903.619	604.2
903.793	643.34
903.967	629.39
904.14	696.23
904.314	666.01
904.488	646.44
904.661	678.41
904.835	653.61
905.009	699.33
905.182	719.67
905.356	681.7
905.529	673.17
905.703	650.12
905.876	638.11
906.05	595.87
906.223	603.62
906.397	525.73
906.57	548.4
906.744	517.4
906.917	498.41
907.09	501.13
907.264	507.33
907.437	509.26
907.61	459.67
907.784	482.53
907.957	480.4
908.13	452.88
908.304	508.1
908.477	463.93
908.65	474
908.823	446.68
908.996	513.72
909.17	464.12
909.343	478.85
909.516	485.82
909.689	423.43
909.862	433.12
910.035	465.09
910.208	470.52
910.381	455.21
910.554	515.66
910.727	440.87
910.9	455.79
911.073	446.1
911.246	515.08
911.419	525.15
911.592	481.36
911.765	450.17
911.938	436.22
912.11	463.15
912.283	433.12
912.456	500.55
912.629	468.77
912.802	438.93
912.974	369.19
913.147	362.02
913.32	321.33
913.493	358.92
913.665	368.99
913.838	390.5
914.01	391.66
914.183	416.65
914.356	389.72
914.528	430.8
914.701	462.57
914.873	431.57
915.046	384.3
915.218	395.34
915.391	310.09
915.563	351.75
915.736	384.3
915.908	405.8
916.081	395.34
916.253	394.18
916.425	384.3
916.598	401.54
916.77	388.37
916.942	366.86
917.115	318.81
917.287	392.82
917.459	382.17
917.632	354.85
917.804	270.37
917.976	362.02
918.148	358.53
918.32	389.14
918.493	397.08
918.665	458.89
918.837	402.7
919.009	445.13
919.181	437.38
919.353	407.35
919.525	420.33
919.697	425.57
919.869	419.56
920.041	455.21
920.213	526.9
920.385	442.23
920.557	445.72
920.729	445.33
920.901	454.82
921.073	415.68
921.244	407.16
921.416	453.47
921.588	423.24
921.76	393.79
921.932	478.07
922.103	425.76
922.275	437
922.447	441.84
922.619	348.45
922.79	395.73
922.962	380.04
923.134	424.4
923.305	377.52
923.477	361.82
923.648	344.77
923.82	389.53
923.991	344.77
924.163	338.96
924.335	365.7
924.506	347.1
924.677	371.51
924.849	315.71
925.02	366.09
925.192	381.59
925.363	354.07
925.535	370.74
925.706	346.32
925.877	395.53
926.049	359.5
926.22	365.7
926.391	388.56
926.562	381.97
926.734	333.15
926.905	345.74
927.076	305.06
927.247	337.6
927.419	288.2
927.59	297.31
927.761	320.17
927.932	311.64
928.103	330.05
928.274	241.89
928.445	262.43
928.616	247.32
928.787	276.77
928.958	284.91
929.129	279.09
929.3	244.99
929.471	219.81
929.642	179.89
929.813	136.11
929.984	250.42
930.155	124.1
930.326	221.74
930.496	161.68
930.667	101.43
930.838	168.08
931.009	123.51
931.18	139.4
931.35	139.59
931.521	130.3
931.692	97.55
931.863	51.44
932.033	134.56
932.204	124.1
932.374	77.01
932.545	66.75
932.716	148.51
932.886	116.73
933.057	40.01
933.227	59
933.398	125.26
933.568	59
933.739	12.11
933.909	16.76
934.08	90.77
934.25	-1.07
934.421	39.04
934.591	65.39
934.761	45.24
934.932	5.52
935.102	56.86
935.272	47.56
935.443	38.46
935.613	45.63
935.783	44.27
935.953	23.54
936.123	166.33
936.294	18.7
936.464	16.76
936.634	20.05
936.804	11.72
936.974	2.81
937.144	56.28
937.314	44.66
937.484	38.07
937.655	42.72
937.825	71.78
937.995	10.56
938.165	82.05
938.334	27.03
938.504	62.68
938.674	66.55
938.844	40.01
939.014	124.1
939.184	82.63
939.354	148.12
939.524	118.09
939.694	62.29
939.863	81.28
940.033	139.98
940.203	135.53
940.373	106.08
940.542	90
940.712	84.96
940.882	130.1
941.051	116.35
941.221	124.1
941.391	126.03
941.56	75.27
941.73	67.13
941.899	155.68
942.069	84.38
942.238	102.59
942.408	70.62
942.577	111.11
942.747	93.29
942.916	40.59
943.086	51.25
943.255	111.11
943.425	78.95
943.594	62.29
943.763	5.72
943.933	10.95
944.102	11.72
944.271	62.1
944.441	80.11
944.61	34.2
944.779	71.78
944.948	147.34
945.117	29.35
945.287	54.73
945.456	26.83
945.625	51.05
945.794	76.63
945.963	10.37
946.132	75.46
946.301	36.52
946.47	100.07
946.639	8.43
946.808	47.18
946.977	86.12
947.146	89.22
947.315	44.08
947.484	94.26
947.653	80.11
947.822	42.92
947.991	39.82
948.16	127.39
948.329	100.07
948.498	51.25
948.666	63.06
948.835	76.63
949.004	40.4
949.173	40.01
949.341	79.92
949.51	92.13
949.679	98.71
949.847	86.9
950.016	127
950.185	136.3
950.353	44.66
950.522	59.58
950.69	112.08
950.859	49.5
951.028	119.45
951.196	93.1
951.365	39.82
951.533	77.21
951.701	97.55
951.87	102.01
952.038	39.82
952.207	55.7
952.375	117.9
952.543	45.24
952.712	68.68
952.88	52.21
953.048	92.9
953.217	69.26
953.385	70.43
953.553	109.37
953.721	41.95
953.89	52.8
954.058	38.07
954.226	49.7
954.394	78.18
954.562	34.39
954.73	61.51
954.898	82.63
955.067	88.45
955.235	46.21
955.403	99.88
955.571	147.93
955.739	62.29
955.907	39.23
956.075	35.36
956.243	55.12
956.41	106.08
956.578	44.08
956.746	16.37
956.914	79.73
957.082	95.81
957.25	83.6
957.418	54.93
957.585	73.91
957.753	103.95
957.921	68.3
958.089	63.84
958.256	76.24
958.424	73.91
958.592	75.85
958.759	58.8
958.927	70.04
959.095	32.45
959.262	92.9
959.43	64.61
959.597	55.31
959.765	67.33
959.932	54.54
960.1	82.44
960.267	85.54
960.435	59.77
960.602	95.42
960.77	59.96
960.937	25.48
961.104	84.57
961.272	55.31
961.439	42.92
961.606	86.7
961.774	85.35
961.941	67.33
962.108	111.11
962.275	82.25
962.443	93.48
962.61	80.7
962.777	135.72
962.944	119.45
963.111	90
963.278	103.17
963.446	102.4
963.613	78.76
963.78	98.52
963.947	113.25
964.114	87.86
964.281	147.93
964.448	108.21
964.615	78.18
964.782	81.08
964.949	114.41
965.116	74.5
965.282	150.64
965.449	76.63
965.616	59.38
965.783	101.23
965.95	108.6
966.117	47.18
966.283	89.41
966.45	63.65
966.617	98.52
966.784	130.3
966.95	117.51
967.117	98.91
967.284	77.6
967.45	69.85
967.617	137.27
967.784	91.74
967.95	160.33
968.117	95.03
968.283	122.16
968.45	205.28
968.616	121.38
968.783	134.75
968.949	113.05
969.116	150.64
969.282	102.78
969.449	133.2
969.615	117.31
969.781	56.86
969.948	100.26
970.114	91.55
970.28	138.24
970.447	85.54
970.613	147.73
970.779	105.11
970.945	128.36
971.112	96.97
971.278	94.65
971.444	115.76
971.61	150.64
971.776	87.67
971.942	125.06
972.108	143.08
972.275	89.22
972.441	127.39
972.607	154.71
972.773	64.61
972.939	121.96
973.105	113.25
973.271	51.25
973.437	89.03
973.602	67.52
973.768	118.86
973.934	72.17
974.1	130.3
974.266	56.67
974.432	118.86
974.598	87.48
974.763	122.16
974.929	74.5
975.095	127
975.261	79.73
975.426	65.58
975.592	79.15
975.758	155.68
975.923	91.55
976.089	68.68
976.255	88.45
976.42	126.61
976.586	80.31
976.751	102.01
976.917	173.11
977.082	101.62
977.248	26.06
977.413	46.79
977.579	92.9
977.744	84.96
977.91	43.69
978.075	79.34
978.24	128.94
978.406	72.56
978.571	77.01
978.736	75.66
978.902	100.26
979.067	62.48
979.232	29.74
979.397	90
979.563	122.93
979.728	71.78
979.893	68.88
980.058	55.7
980.223	110.15
980.388	92.32
980.554	97.36
980.719	78.76
980.884	62.1
981.049	135.72
981.214	46.4
981.379	131.07
981.544	75.66
981.709	67.91
981.874	93.68
982.039	62.29
982.204	111.7
982.368	90.58
982.533	71.59
982.698	106.46
982.863	115.38
983.028	61.51
983.193	90
983.357	102.2
983.522	97.94
983.687	109.95
983.852	65.2
984.016	56.48
984.181	114.6
984.346	95.03
984.51	104.33
984.675	111.7
984.839	127.39
985.004	92.32
985.168	136.11
985.333	112.66
985.498	83.21
985.662	112.66
985.827	123.71
985.991	71.4
986.155	87.67
986.32	129.71
986.484	148.51
986.649	82.25
986.813	37.88
986.977	117.9
987.142	124.48
987.306	73.14
987.47	44.08
987.634	92.71
987.799	100.46
987.963	91.55
988.127	124.68
988.291	163.43
988.455	81.28
988.62	86.9
988.784	124.1
988.948	110.15
989.112	56.48
989.276	95.61
989.44	88.25
989.604	71.2
989.768	87.09
989.932	156.06
990.096	33.81
990.26	54.35
990.424	34.97
990.588	74.88
990.752	136.88
990.915	124.1
991.079	76.63
991.243	74.88
991.407	123.51
991.571	84.38
991.734	84.76
991.898	107.63
992.062	169.63
992.226	77.01
992.389	60.35
992.553	22.77
992.717	67.33
992.88	60.35
993.044	85.15
993.207	106.66
993.371	98.91
993.535	109.37
993.698	68.1
993.862	107.24
994.025	131.65
994.189	90.38
994.352	64.42
994.515	106.66
994.679	130.1
994.842	60.93
995.006	108.01
995.169	62.87
995.332	62.68
995.496	79.15
995.659	15.98
995.822	74.88
995.985	33.42
996.149	110.92
996.312	81.47
996.475	145.02
996.638	45.43
996.801	103.75
996.964	125.84
997.128	83.6
997.291	54.54
997.454	81.28
997.617	29.74
997.78	119.25
997.943	66.16
998.106	91.74
998.269	59.19
998.432	64.03
998.595	81.66
998.758	36.33
998.92	18.89
999.083	6.88
999.246	80.31
999.409	28.58
999.572	25.67
999.735	55.12
999.897	76.82
1000.06	38.07
1000.223	36.91
1000.386	76.63
1000.548	75.08
1000.711	88.64
1000.874	88.06
1001.036	15.6
1001.199	86.12
1001.361	32.26
1001.524	70.23
1001.687	102.4
1001.849	23.73
1002.012	63.45
1002.174	63.65
1002.337	68.3
1002.499	68.49
1002.661	96.58
1002.824	21.22
1002.986	36.13
1003.149	77.01
1003.311	36.91
1003.473	117.31
1003.636	22.57
1003.798	65.2
1003.96	47.95
1004.123	58.03
1004.285	34.78
1004.447	47.95
1004.609	46.4
1004.771	116.15
1004.933	27.22
1005.096	14.82
1005.258	15.98
1005.42	36.13
1005.582	75.08
1005.744	48.53
1005.906	9.4
1006.068	37.68
1006.23	6.68
1006.392	10.37
1006.554	25.09
1006.716	107.24
1006.878	86.31
1007.04	3.39
1007.202	52.21
1007.363	57.83
1007.525	59
1007.687	66.94
1007.849	93.29
1008.011	8.23
1008.172	0.87
1008.334	44.27
1008.496	67.71
1008.658	14.24
1008.819	34.78
1008.981	12.88
1009.143	14.63
1009.304	52.02
1009.466	67.91
1009.627	116.93
1009.789	139.59
1009.95	46.01
1010.112	34.39
1010.273	53.76
1010.435	24.12
1010.596	29.55
1010.758	27.22
1010.919	49.5
1011.081	16.95
1011.242	35.36
1011.403	63.06
1011.565	44.66
1011.726	73.91
1011.887	18.5
1012.049	24.32
1012.21	61.13
1012.371	113.83
1012.532	-8.62
1012.693	41.17
1012.855	30.52
1013.016	46.6
1013.177	65.97
1013.338	43.88
1013.499	94.06
1013.66	61.32
1013.821	68.49
1013.982	67.33
1014.143	56.09
1014.304	37.1
1014.465	51.05
1014.626	82.05
1014.787	16.76
1014.948	119.83
1015.109	-7.85
1015.27	71.2
1015.431	33.81
1015.592	-0.48
1015.752	93.1
1015.913	56.28
1016.074	59.38
1016.235	35.94
1016.395	4.75
1016.556	50.28
1016.717	31.87
1016.877	81.28
1017.038	2.23
1017.199	71.4
1017.359	17.34
1017.52	49.31
1017.681	21.22
1017.841	29.93
1018.002	30.32
1018.162	29.16
1018.323	97.94
1018.483	37.1
1018.644	26.45
1018.804	-2.03
1018.964	-16.18
1019.125	1.65
1019.285	44.08
1019.446	-0.29
1019.606	1.84
1019.766	-0.87
1019.926	62.87
1020.087	56.48
1020.247	0.29
1020.407	50.28
1020.567	44.27
1020.728	48.92
1020.888	-35.17
1021.048	26.25
1021.208	1.07
1021.368	30.13
1021.528	51.63
1021.688	43.3
1021.848	38.65
1022.008	32.45
1022.168	14.05
1022.328	46.21
1022.488	31.68
1022.648	29.93
1022.808	43.88
1022.968	62.1
1023.128	3.39
1023.288	21.8
1023.448	31.87
1023.608	43.5
1023.767	39.62
1023.927	-2.03
1024.087	14.24
1024.247	4.55
1024.406	13.08
1024.566	6.1
1024.726	9.2
1024.885	29.74
1025.045	53.76
1025.205	6.68
1025.364	22.57
1025.524	27.42
1025.683	37.49
1025.843	25.87
1026.003	31.1
1026.162	85.35
1026.321	50.08
1026.481	32.84
1026.64	15.02
1026.8	39.62
1026.959	28
1027.119	42.53
1027.278	39.62
1027.437	4.55
1027.597	49.5
1027.756	27.42
1027.915	40.78
1028.074	57.06
1028.234	-2.62
1028.393	20.25
1028.552	15.6
1028.711	-40.78
1028.87	33.62
1029.03	-3
1029.189	4.94
1029.348	-12.88
1029.507	10.75
1029.666	-14.82
1029.825	-33.81
1029.984	1.45
1030.143	45.63
1030.302	19.47
1030.461	-44.27
1030.62	20.25
1030.779	42.33
1030.938	14.24
1031.097	-9.98
1031.255	46.79
1031.414	89.41
1031.573	54.93
1031.732	-27.61
1031.891	-1.45
1032.049	68.3
1032.208	20.44
1032.367	-19.86
1032.525	6.68
1032.684	4.75
1032.843	52.8
1033.001	-17.53
1033.16	140.37
1033.319	64.03
1033.477	31.48
1033.636	19.86
1033.794	-14.05
1033.953	48.92
1034.111	56.48
1034.27	6.3
1034.428	19.47
1034.587	-1.84
1034.745	9.98
1034.903	40.01
1035.062	27.42
1035.22	-34
1035.378	58.8
1035.537	-15.21
1035.695	25.67
1035.853	15.4
1036.011	44.66
1036.17	44.46
1036.328	-40.4
1036.486	24.7
1036.644	12.5
1036.802	-61.51
1036.96	5.72
1037.119	-6.88
1037.277	-0.87
1037.435	-21.22
1037.593	-7.85
1037.751	14.24
1037.909	56.67
1038.067	56.67
