Data from oakcork_FLMT105791__292__17-34-38-052.txt Node

Date: Mon Mar 20 17:34:38 GMT 2023
User: antho
Spectrometer: FLMT10579
Trigger mode: 0
Integration Time (sec): 1.000000E-1
Scans to average: 10
Electric dark correction enabled: true
Nonlinearity correction enabled: false
Boxcar width: 0
XAxis mode: Wavelengths
Number of Pixels in Spectrum: 3648
>>>>>Begin Spectral Data<<<<<
345.248	-153.8
345.464	-153.8
345.681	-153.8
345.898	-149.73
346.114	-154.19
346.331	-17.4
346.548	25.41
346.764	-11.01
346.981	0.61
347.197	-21.09
347.414	6.23
347.631	-18.18
347.847	62.61
348.064	4.1
348.28	32.19
348.497	-36.78
348.713	-26.7
348.93	20.96
349.146	12.24
349.363	4.88
349.579	13.01
349.796	4.29
350.012	7.98
350.229	23.67
350.445	3.13
350.661	-38.14
350.878	-19.54
351.094	11.46
351.311	17.28
351.527	-0.74
351.743	-3.46
351.96	29.29
352.176	31.03
352.392	5.84
352.609	19.6
352.825	-14.31
353.041	-17.21
353.257	-2.68
353.474	-8.88
353.69	14.56
353.906	1.97
354.122	-23.22
354.339	68.23
354.555	-4.62
354.771	21.54
354.987	56.61
355.203	44.4
355.42	-1.32
355.636	8.94
355.852	-14.31
356.068	10.69
356.284	-38.72
356.5	62.81
356.716	20.38
356.932	11.85
357.148	15.73
357.364	4.88
357.58	41.69
357.796	55.06
358.012	22.12
358.228	9.91
358.444	-28.84
358.66	49.44
358.876	21.54
359.092	-8.49
359.308	5.26
359.524	31.42
359.74	-0.16
359.956	-9.27
360.172	10.69
360.388	27.35
360.604	-18.95
360.819	81.6
361.035	23.48
361.251	35.88
361.467	-37.75
361.683	45.37
361.898	29.87
362.114	23.48
362.33	26.58
362.546	31.42
362.762	9.72
362.977	9.14
363.193	-37.55
363.409	24.44
363.624	-11.01
363.84	-16.24
364.056	-33.49
364.271	20.96
364.487	16.69
364.703	7.39
364.918	-16.63
365.134	1.39
365.35	4.49
365.565	107.95
365.781	28.51
365.996	16.31
366.212	49.83
366.427	14.37
366.643	-5.39
366.858	-20.31
367.074	-15.47
367.289	63.39
367.505	108.53
367.72	-47.44
367.936	20.76
368.151	23.86
368.367	34.33
368.582	31.61
368.798	-2.29
369.013	48.86
369.228	13.01
369.444	28.32
369.659	45.95
369.874	31.03
370.09	76.76
370.305	-43.75
370.52	-4.81
370.736	39.17
370.951	4.88
371.166	56.61
371.381	75.01
371.597	49.44
371.812	-4.42
372.027	-14.69
372.242	17.86
372.458	68.62
372.673	1
372.888	31.42
373.103	32.39
373.318	85.86
373.533	29.09
373.749	19.79
373.964	-43.56
374.179	48.66
374.394	4.68
374.609	59.32
374.824	-11.79
375.039	30.26
375.254	-14.69
375.469	57.58
375.684	20.57
375.899	70.56
376.114	1.19
376.329	6.43
376.544	30.64
376.759	42.66
376.974	-33.29
377.189	18.63
377.404	-8.49
377.619	41.3
377.834	-18.18
378.049	-11.01
378.264	-11.79
378.478	14.76
378.693	-12.95
378.908	38.01
379.123	-2.87
379.338	29.09
379.553	23.86
379.767	54.09
379.982	21.93
380.197	54.86
380.412	4.49
380.626	37.43
380.841	65.91
381.056	22.89
381.271	56.03
381.485	16.11
381.7	15.53
381.915	40.91
382.129	-5.59
382.344	7.39
382.559	11.46
382.773	56.61
382.988	-24.57
383.202	14.18
383.417	-5.97
383.632	80.63
383.846	21.73
384.061	8.56
384.275	16.69
384.49	53.31
384.704	44.21
384.919	33.16
385.133	35.49
385.348	39.36
385.562	-6.94
385.777	45.37
385.991	9.91
386.206	4.68
386.42	15.34
386.634	70.75
386.849	21.54
387.063	47.89
387.277	-14.5
387.492	-10.82
387.706	-1.13
387.92	-4.42
388.135	42.66
388.349	39.56
388.563	24.44
388.778	28.71
388.992	45.56
389.206	24.83
389.42	102.91
389.635	20.96
389.849	63
390.063	46.92
390.277	33.36
390.491	73.66
390.706	65.33
390.92	75.01
391.134	17.08
391.348	46.34
391.562	-24.38
391.776	19.6
391.99	-2.49
392.205	57.38
392.419	8.56
392.633	23.09
392.847	66.1
393.061	3.33
393.275	87.22
393.489	24.64
393.703	27.16
393.917	77.72
394.131	12.43
394.345	55.83
394.559	57.77
394.773	7.01
394.986	18.05
395.2	26.38
395.414	65.13
395.628	-23.99
395.842	12.63
396.056	16.5
396.27	-48.4
396.484	32.19
396.697	41.3
396.911	69.98
397.125	48.08
397.339	52.15
397.553	43.04
397.766	91.09
397.98	69.78
398.194	70.36
398.408	0.42
398.621	32.19
398.835	21.34
399.049	34.71
399.262	56.99
399.476	47.11
399.69	35.68
399.903	88.19
400.117	8.75
400.331	55.83
400.544	12.43
400.758	131.39
400.971	55.64
401.185	96.13
401.398	-0.16
401.612	87.99
401.826	51.76
402.039	67.26
402.253	19.41
402.466	49.83
402.68	13.21
402.893	51.18
403.106	62.61
403.32	26.96
403.533	67.46
403.747	32.97
403.96	35.1
404.174	38.39
404.387	14.76
404.6	56.61
404.814	75.79
405.027	23.86
405.24	44.59
405.454	41.88
405.667	67.07
405.88	-7.91
406.094	63.58
406.307	91.09
406.52	48.86
406.733	12.24
406.947	-10.24
407.16	91.67
407.373	79.47
407.586	32
407.799	-1.71
408.012	69.78
408.226	49.05
408.439	74.04
408.652	9.53
408.865	45.18
409.078	99.04
409.291	31.81
409.504	16.31
409.717	59.71
409.93	44.79
410.143	19.79
410.357	7.39
410.57	18.63
410.783	60.29
410.996	41.69
411.209	35.68
411.421	52.34
411.634	33.74
411.847	30.64
412.06	43.04
412.273	37.04
412.486	35.88
412.699	107.95
412.912	56.03
413.125	39.56
413.338	40.72
413.55	58.74
413.763	39.56
413.976	71.72
414.189	28.71
414.402	39.17
414.615	75.21
414.827	17.66
415.04	70.75
415.253	69.78
415.466	77.53
415.678	104.66
415.891	58.74
416.104	59.71
416.316	36.07
416.529	34.33
416.742	70.36
416.954	62.03
417.167	43.43
417.38	34.91
417.592	76.95
417.805	-7.72
418.017	13.21
418.23	69.98
418.442	38.59
418.655	68.81
418.868	73.27
419.08	79.66
419.293	94.77
419.505	84.89
419.718	63.97
419.93	97.49
420.142	25.61
420.355	89.16
420.567	106.59
420.78	92.45
420.992	35.88
421.205	90.51
421.417	-5.01
421.629	29.29
421.842	37.23
422.054	5.84
422.266	68.62
422.479	102.91
422.691	34.71
422.903	76.56
423.115	36.84
423.328	69.01
423.54	64.74
423.752	57.58
423.964	25.41
424.177	60.29
424.389	39.56
424.601	138.56
424.813	52.54
425.025	55.25
425.238	78.69
425.45	47.69
425.662	38.01
425.874	284.84
426.086	38.39
426.298	69.98
426.51	59.32
426.722	79.27
426.934	39.94
427.146	81.02
427.358	-3.07
427.57	78.69
427.782	60.87
427.994	53.89
428.206	31.81
428.418	3.13
428.63	73.27
428.842	82.18
429.054	62.42
429.266	69.2
429.478	38.59
429.69	39.94
429.902	25.61
430.114	79.08
430.325	78.31
430.537	31.23
430.749	76.56
430.961	18.24
431.173	59.9
431.384	71.33
431.596	-12.37
431.808	31.23
432.02	41.49
432.231	66.1
432.443	49.44
432.655	56.41
432.867	31.61
433.078	75.79
433.29	126.55
433.502	80.05
433.713	81.21
433.925	58.54
434.136	100.39
434.348	24.25
434.56	14.76
434.771	121.71
434.983	47.11
435.194	33.36
435.406	58.16
435.617	73.46
435.829	137.79
436.04	76.37
436.252	107.95
436.463	105.62
436.675	73.46
436.886	77.92
437.098	79.66
437.309	124.42
437.521	42.46
437.732	63.39
437.943	69.98
438.155	65.71
438.366	36.26
438.578	103.11
438.789	86.44
439	105.24
439.211	65.33
439.423	99.81
439.634	99.81
439.845	82.76
440.057	112.99
440.268	94
440.479	41.49
440.69	76.17
440.902	79.27
441.113	72.69
441.324	66.68
441.535	59.71
441.746	105.24
441.957	31.03
442.168	55.06
442.38	87.41
442.591	69.01
442.802	30.45
443.013	62.61
443.224	81.02
443.435	24.83
443.646	75.4
443.857	66.68
444.068	63.58
444.279	71.14
444.49	138.95
444.701	79.27
444.912	171.11
445.123	108.92
445.334	78.5
445.545	87.41
445.756	80.63
445.967	29.09
446.178	109.31
446.388	140.5
446.599	114.92
446.81	125
447.021	52.15
447.232	95.94
447.443	146.89
447.653	34.33
447.864	126.16
448.075	71.33
448.286	135.46
448.496	83.92
448.707	92.84
448.918	80.44
449.129	184.48
449.339	70.56
449.55	109.89
449.761	77.92
449.971	119.19
450.182	72.3
450.393	100.59
450.603	68.23
450.814	119.38
451.024	94.19
451.235	98.07
451.446	127.52
451.656	147.86
451.867	58.74
452.077	83.34
452.288	125
452.498	129.26
452.709	73.46
452.919	119.96
453.13	78.5
453.34	119.38
453.55	45.95
453.761	115.51
453.971	119.38
454.182	115.7
454.392	124.61
454.602	146.89
454.813	119.57
455.023	132.94
455.233	66.68
455.444	99.23
455.654	56.22
455.864	101.36
456.075	84.7
456.285	90.32
456.495	109.31
456.705	111.05
456.916	122.67
457.126	137.79
457.336	109.31
457.546	51.76
457.756	86.64
457.967	160.07
458.177	80.05
458.387	92.64
458.597	76.17
458.807	91.67
459.017	96.91
459.227	118.41
459.437	62.23
459.647	143.41
459.857	128.87
460.068	81.41
460.278	147.47
460.488	110.47
460.698	161.62
460.908	88.57
461.117	51.18
461.327	68.81
461.537	84.89
461.747	82.96
461.957	92.26
462.167	192.04
462.377	131.2
462.587	122.29
462.797	126.16
463.007	128.68
463.216	132.56
463.426	127.71
463.636	140.11
463.846	72.3
464.056	83.15
464.265	142.82
464.475	78.89
464.685	115.51
464.895	122.87
465.104	101.94
465.314	127.32
465.524	101.36
465.733	102.91
465.943	171.3
466.153	177.89
466.362	157.55
466.572	105.43
466.782	117.06
466.991	93.03
467.201	174.79
467.41	81.99
467.62	129.07
467.829	87.61
468.039	136.62
468.249	89.93
468.458	100.01
468.668	143.6
468.877	146.31
469.086	162.2
469.296	143.41
469.505	101.94
469.715	174.4
469.924	130.62
470.134	137.98
470.343	161.23
470.552	115.89
470.762	125.97
470.971	126.16
471.18	135.46
471.39	89.74
471.599	114.73
471.808	144.37
472.018	74.43
472.227	125.77
472.436	159.1
472.645	120.35
472.855	100.2
473.064	155.22
473.273	134.69
473.482	141.08
473.691	160.07
473.901	143.02
474.11	133.33
474.319	207.73
474.528	113.76
474.737	171.11
474.946	130.04
475.155	138.95
475.364	155.22
475.573	143.02
475.783	142.24
475.992	156.19
476.201	151.93
476.41	130.42
476.619	108.53
476.828	117.44
477.037	124.22
477.245	144.57
477.454	154.45
477.663	129.26
477.872	107.56
478.081	182.54
478.29	108.14
478.499	210.83
478.708	136.24
478.917	201.72
479.125	179.44
479.334	162.39
479.543	98.46
479.752	169.17
479.961	137.01
480.169	173.63
480.378	124.03
480.587	268.57
480.796	158.71
481.004	133.33
481.213	174.99
481.422	169.56
481.63	170.34
481.839	192.42
482.048	200.75
482.256	157.16
482.465	169.37
482.674	199.98
482.882	187.97
483.091	214.7
483.299	165.88
483.508	186.03
483.716	161.04
483.925	167.43
484.134	134.49
484.342	137.21
484.551	200.75
484.759	218
484.967	167.04
485.176	191.45
485.384	203.85
485.593	212.96
485.801	207.34
486.01	220.71
486.218	163.55
486.426	149.41
486.635	160.07
486.843	167.62
487.051	224.39
487.26	147.47
487.468	200.75
487.676	204.44
487.885	166.07
488.093	189.71
488.301	178.28
488.509	160.65
488.717	202.11
488.926	143.02
489.134	146.7
489.342	190.68
489.55	146.31
489.758	180.02
489.967	155.81
490.175	284.45
490.383	172.27
490.591	224
490.799	142.24
491.007	203.47
491.215	197.27
491.423	193
491.631	193.39
491.839	195.33
492.047	207.73
492.255	175.57
492.463	168.4
492.671	193.78
492.879	237.95
493.087	198.24
493.295	218.77
493.503	217.22
493.711	220.32
493.919	210.44
494.127	233.3
494.334	229.62
494.542	180.02
494.75	189.13
494.958	187.77
495.166	259.85
495.374	223.81
495.581	216.64
495.789	197.85
495.997	245.51
496.205	209.09
496.412	219.55
496.62	211.8
496.828	214.9
497.035	178.67
497.243	229.24
497.451	222.65
497.658	223.42
497.866	181.38
498.074	276.32
498.281	172.66
498.489	279.8
498.696	224
498.904	213.35
499.112	215.87
499.319	280.77
499.527	211.02
499.734	245.51
499.942	175.95
500.149	210.05
500.357	211.8
500.564	178.86
500.771	241.05
500.979	227.69
501.186	201.72
501.394	221.87
501.601	253.84
501.808	255.58
502.016	238.15
502.223	209.28
502.43	220.13
502.638	209.67
502.845	216.84
503.052	272.25
503.26	188.94
503.467	275.73
503.674	217.61
503.881	238.73
504.089	297.82
504.296	261.59
504.503	204.63
504.71	228.65
504.917	210.64
505.125	241.83
505.332	227.3
505.539	240.47
505.746	281.55
505.953	242.22
506.16	226.72
506.367	267.21
506.574	261.78
506.781	276.9
506.988	201.92
507.195	255
507.402	230.2
507.609	253.07
507.816	209.67
508.023	226.52
508.23	224.59
508.437	196.1
508.644	240.09
508.851	301.5
509.058	276.12
509.265	254.23
509.472	289.1
509.679	329.21
509.885	247.64
510.092	227.3
510.299	264.3
510.506	264.3
510.713	284.07
510.92	263.33
511.126	257.33
511.333	285.62
511.54	276.32
511.746	316.23
511.953	275.93
512.16	294.72
512.367	217.22
512.573	255.78
512.78	260.82
512.987	217.22
513.193	283.1
513.4	190.68
513.606	236.02
513.813	271.67
514.02	250.93
514.226	335.41
514.433	283.1
514.639	237.95
514.846	269.73
515.052	236.99
515.259	282.13
515.465	268.57
515.672	293.56
515.878	353.62
516.085	239.12
516.291	300.92
516.497	229.62
516.704	248.8
516.91	232.92
517.117	220.32
517.323	213.93
517.529	250.16
517.736	243.38
517.942	267.98
518.148	248.03
518.354	270.5
518.561	262.75
518.767	235.24
518.973	299.95
519.179	286.78
519.386	257.72
519.592	281.55
519.798	242.8
520.004	300.15
520.21	227.3
520.417	280.19
520.623	335.02
520.829	301.7
521.035	286.2
521.241	285.42
521.447	295.69
521.653	375.71
521.859	278.45
522.065	304.22
522.271	357.69
522.477	329.02
522.683	364.28
522.889	319.91
523.095	322.82
523.301	294.33
523.507	281.93
523.713	302.47
523.919	293.56
524.125	324.37
524.331	310.03
524.537	360.01
524.742	366.02
524.948	344.9
525.154	302.86
525.36	418.72
525.566	332.5
525.772	373.38
525.977	270.89
526.183	357.11
526.389	362.53
526.595	330.76
526.8	332.12
527.006	329.79
527.212	316.42
527.417	301.5
527.623	290.85
527.829	370.09
528.034	337.73
528.24	331.34
528.446	327.27
528.651	396.05
528.857	361.18
529.062	396.83
529.268	323.59
529.473	376.1
529.679	330.57
529.884	407.1
530.09	360.21
530.295	392.37
530.501	380.94
530.706	354.98
530.912	331.53
531.117	366.99
531.323	334.05
531.528	373.58
531.733	371.06
531.939	354.78
532.144	349.94
532.35	344.51
532.555	384.04
532.76	400.7
532.966	417.36
533.171	398.76
533.376	367.96
533.581	351.49
533.787	354.01
533.992	406.9
534.197	416.78
534.402	365.44
534.607	351.68
534.813	463.86
535.018	368.54
535.223	355.75
535.428	376.48
535.633	390.43
535.838	396.63
536.043	354.2
536.249	437.51
536.454	342.96
536.659	394.31
536.864	358.08
537.069	387.14
537.274	384.23
537.479	412.91
537.684	395.08
537.889	376.29
538.094	465.61
538.299	384.43
538.504	415.04
538.708	411.94
538.913	396.44
539.118	382.88
539.323	417.75
539.528	398.18
539.733	385.2
539.938	415.81
540.142	440.61
540.347	373.96
540.552	383.65
540.757	393.73
540.962	380.55
541.166	334.05
541.371	369.12
541.576	401.28
541.781	301.31
541.985	394.89
542.19	389.46
542.395	446.81
542.599	458.63
542.804	434.8
543.008	475.68
543.213	381.33
543.418	350.13
543.622	431.89
543.827	375.32
544.031	450.69
544.236	445.46
544.44	386.95
544.645	485.95
544.849	403.22
545.054	431.12
545.258	466.77
545.463	492.73
545.667	373
545.872	423.18
546.076	417.36
546.281	393.34
546.485	390.24
546.689	465.8
546.894	441
547.098	375.13
547.302	357.88
547.507	412.33
547.711	426.28
547.915	446.43
548.119	405.93
548.324	415.81
548.528	461.93
548.732	412.52
548.936	434.61
549.141	446.62
549.345	378.81
549.549	410.58
549.753	447.59
549.957	470.26
550.161	498.93
550.366	425.11
550.57	415.04
550.774	418.53
550.978	414.85
551.182	450.88
551.386	426.08
551.59	396.63
551.794	431.31
551.998	460.96
552.202	445.46
552.406	378.61
552.61	413.1
552.814	400.51
553.018	478.01
553.222	433.06
553.426	441.39
553.63	476.65
553.833	422.21
554.037	416.4
554.241	460.38
554.445	436.16
554.649	409.81
554.853	436.54
555.056	470.84
555.26	465.03
555.464	417.75
555.668	445.65
555.871	453.01
556.075	461.34
556.279	425.5
556.483	378.03
556.686	440.03
556.89	417.56
557.094	417.36
557.297	384.62
557.501	462.31
557.704	385.2
557.908	455.34
558.112	394.89
558.315	487.69
558.519	434.8
558.722	426.08
558.926	426.86
559.129	384.62
559.333	348.39
559.536	377.84
559.74	381.71
559.943	385.2
560.147	365.63
560.35	391.98
560.553	391.4
560.757	357.11
560.96	433.25
561.164	366.02
561.367	452.63
561.57	380.55
561.774	386.56
561.977	389.08
562.18	372.22
562.384	458.83
562.587	413.3
562.79	366.6
562.993	390.82
563.197	442.94
563.4	441.58
563.603	459.6
563.806	481.3
564.009	389.85
564.212	430.54
564.416	336.96
564.619	396.44
564.822	359.63
565.025	451.27
565.228	384.62
565.431	399.15
565.634	335.99
565.837	366.21
566.04	326.11
566.243	340.45
566.446	338.9
566.649	415.81
566.852	352.26
567.055	387.53
567.258	383.26
567.461	451.46
567.664	419.3
567.867	318.17
568.07	392.18
568.273	368.73
568.475	439.84
568.678	385.01
568.881	379
569.084	379.58
569.287	328.82
569.489	326.11
569.692	408.06
569.895	419.88
570.098	334.83
570.3	330.95
570.503	265.08
570.706	328.24
570.909	347.23
571.111	289.1
571.314	311.97
571.516	328.63
571.719	360.98
571.922	337.73
572.124	318.75
572.327	296.66
572.529	283.1
572.732	260.04
572.935	353.23
573.137	365.83
573.34	296.85
573.542	342.58
573.745	350.13
573.947	367.76
574.15	335.21
574.352	300.15
574.554	339.86
574.757	308.28
574.959	307.7
575.162	294.72
575.364	285.42
575.566	399.35
575.769	294.72
575.971	336.57
576.173	268.95
576.376	346.45
576.578	362.34
576.78	385.78
576.982	250.93
577.185	279.8
577.387	280.77
577.589	256.17
577.791	316.03
577.993	322.04
578.196	308.48
578.398	345.87
578.6	357.5
578.802	277.28
579.004	282.32
579.206	313.52
579.408	304.22
579.61	310.8
579.812	330.37
580.014	284.45
580.216	278.06
580.418	261.4
580.62	282.9
580.822	235.63
581.024	286.78
581.226	313.9
581.428	295.3
581.63	339.67
581.832	289.68
582.034	340.25
582.236	297.24
582.438	314.68
582.64	339.28
582.841	352.07
583.043	328.63
583.245	346.84
583.447	339.67
583.649	291.04
583.85	304.6
584.052	330.18
584.254	308.87
584.456	337.35
584.657	274.77
584.859	287.36
585.061	280.77
585.262	261.59
585.464	279.42
585.666	336.96
585.867	273.8
586.069	357.3
586.27	306.93
586.472	311.77
586.674	273.22
586.875	291.82
587.077	293.37
587.278	294.53
587.48	297.05
587.681	398.38
587.883	307.51
588.084	255.97
588.285	301.7
588.487	279.8
588.688	295.11
588.89	251.52
589.091	244.35
589.292	260.04
589.494	281.93
589.695	285.42
589.896	211.99
590.098	242.02
590.299	277.09
590.5	259.46
590.702	242.22
590.903	253.65
591.104	329.21
591.305	285.03
591.507	330.95
591.708	274.18
591.909	261.2
592.11	304.02
592.311	292.98
592.512	271.08
592.714	235.24
592.915	264.3
593.116	260.23
593.317	246.09
593.518	254.62
593.719	254.62
593.92	268.95
594.121	329.21
594.322	279.22
594.523	287.75
594.724	241.05
594.925	256.17
595.126	277.87
595.327	296.08
595.528	300.92
595.729	275.15
595.929	263.14
596.13	246.29
596.331	279.03
596.532	292.98
596.733	303.44
596.934	291.82
597.135	292.59
597.335	264.5
597.536	241.25
597.737	275.35
597.938	257.52
598.138	277.87
598.339	291.62
598.54	292.59
598.74	291.82
598.941	304.6
599.142	341.41
599.342	268.57
599.543	241.05
599.744	244.35
599.944	257.72
600.145	256.36
600.345	271.47
600.546	323.4
600.746	316.42
600.947	352.85
601.147	292.2
601.348	298.98
601.548	269.15
601.749	304.6
601.949	249.97
602.15	255
602.35	288.13
602.551	340.25
602.751	224.2
602.951	274.77
603.152	209.09
603.352	273.22
603.552	256.75
603.753	266.82
603.953	297.05
604.153	265.08
604.354	274.96
604.554	273.6
604.754	263.72
604.954	225.55
605.155	276.12
605.355	261.01
605.555	307.32
605.755	313.32
605.955	261.4
606.155	303.25
606.356	267.4
606.556	278.25
606.756	287.94
606.956	225.75
607.156	308.48
607.356	238.73
607.556	291.43
607.756	270.12
607.956	301.12
608.156	266.82
608.356	269.34
608.556	275.15
608.756	261.01
608.956	261.98
609.156	272.83
609.356	242.6
609.556	230.98
609.755	277.67
609.955	222.65
610.155	306.35
610.355	277.28
610.555	250.35
610.755	245.32
610.954	221.68
611.154	303.44
611.354	292.98
611.554	247.45
611.753	250.93
611.953	196.88
612.153	266.05
612.352	274.57
612.552	223.23
612.752	205.6
612.951	263.72
613.151	275.73
613.351	236.21
613.55	239.31
613.75	241.83
613.949	266.43
614.149	279.03
614.348	243.38
614.548	222.45
614.747	209.09
614.947	219.74
615.146	194.55
615.346	278.25
615.545	242.02
615.745	249
615.944	280.19
616.144	247.64
616.343	274.18
616.542	254.03
616.742	264.5
616.941	235.82
617.14	181.19
617.34	250.16
617.539	236.4
617.738	220.32
617.938	299.37
618.137	243.38
618.336	239.31
618.535	249.19
618.734	228.85
618.934	255.78
619.133	257.72
619.332	250.55
619.531	218.77
619.73	220.13
619.929	253.84
620.128	267.4
620.328	276.12
620.527	222.07
620.726	228.07
620.925	247.25
621.124	210.05
621.323	236.21
621.522	187.77
621.721	194.75
621.92	186.8
622.119	249.77
622.318	218.77
622.517	212.96
622.715	240.09
622.914	173.24
623.113	219.74
623.312	209.28
623.511	247.83
623.71	213.74
623.909	191.84
624.107	298.21
624.306	179.44
624.505	177.5
624.704	202.3
624.902	194.36
625.101	260.82
625.3	231.75
625.499	183.9
625.697	206.37
625.896	177.89
626.095	252.68
626.293	178.28
626.492	193.2
626.69	225.36
626.889	160.84
627.088	245.51
627.286	203.85
627.485	192.23
627.683	195.33
627.882	246.09
628.08	166.27
628.279	216.45
628.477	267.21
628.676	213.54
628.874	238.54
629.073	167.82
629.271	184.09
629.469	224.97
629.668	192.04
629.866	204.44
630.065	168.59
630.263	228.07
630.461	194.94
630.66	186.03
630.858	229.43
631.056	266.63
631.254	231.56
631.453	201.34
631.651	248.42
631.849	200.56
632.047	230.2
632.245	206.37
632.444	209.47
632.642	217.03
632.84	226.33
633.038	189.32
633.236	167.62
633.434	196.1
633.632	202.5
633.83	155.22
634.028	230.2
634.227	224
634.425	252.29
634.623	211.41
634.821	215.48
635.019	200.17
635.216	172.47
635.414	210.64
635.612	190.68
635.81	175.18
636.008	255.97
636.206	198.24
636.404	219.74
636.602	170.53
636.8	210.25
636.997	226.14
637.195	222.07
637.393	221.1
637.591	260.43
637.789	215.67
637.986	184.67
638.184	211.8
638.382	250.93
638.58	228.27
638.777	278.64
638.975	207.34
639.173	204.82
639.37	208.5
639.568	224
639.765	216.25
639.963	186.03
640.161	246.29
640.358	241.25
640.556	180.22
640.753	183.9
640.951	173.24
641.148	234.66
641.346	184.48
641.543	199.79
641.741	226.14
641.938	159.29
642.136	196.1
642.333	166.85
642.531	240.28
642.728	252.1
642.925	188.35
643.123	211.22
643.32	211.99
643.517	187.97
643.715	214.12
643.912	186.61
644.109	216.25
644.306	211.8
644.504	178.28
644.701	190.29
644.898	254.03
645.095	174.99
645.293	212.77
645.49	224.39
645.687	214.32
645.884	234.08
646.081	172.27
646.278	196.69
646.475	196.49
646.672	181.57
646.87	201.34
647.067	218.58
647.264	208.5
647.461	161.81
647.658	145.73
647.855	205.6
648.052	175.95
648.249	126.74
648.446	185.45
648.642	150.19
648.839	178.67
649.036	179.25
649.233	132.75
649.43	152.71
649.627	154.84
649.824	165.88
650.021	170.53
650.217	143.99
650.414	161.23
650.611	207.34
650.808	202.5
651.004	199.01
651.201	183.9
651.398	232.72
651.595	194.55
651.791	184.29
651.988	194.36
652.185	158.52
652.381	202.69
652.578	133.91
652.775	167.62
652.971	157.74
653.168	152.9
653.364	205.21
653.561	130.81
653.757	142.05
653.954	177.7
654.15	157.74
654.347	244.74
654.543	181.57
654.74	130.04
654.936	117.25
655.133	155.61
655.329	182.15
655.525	158.91
655.722	218
655.918	160.07
656.115	214.12
656.311	152.9
656.507	149.41
656.704	99.62
656.9	117.64
657.096	132.56
657.292	116.09
657.489	187.39
657.685	187.77
657.881	132.56
658.077	146.7
658.273	132.75
658.47	212.38
658.666	176.15
658.862	171.5
659.058	151.54
659.254	195.91
659.45	120.35
659.646	171.69
659.842	156.19
660.038	202.5
660.234	128.1
660.43	157.36
660.626	201.72
660.822	177.89
661.018	191.84
661.214	150.19
661.41	136.43
661.606	182.54
661.802	161.42
661.998	164.33
662.194	138.76
662.39	179.64
662.586	156.39
662.781	207.15
662.977	176.92
663.173	171.5
663.369	163.75
663.564	144.37
663.76	185.06
663.956	145.54
664.152	210.83
664.347	109.89
664.543	175.95
664.739	131.97
664.934	130.42
665.13	120.54
665.326	184.29
665.521	182.35
665.717	118.8
665.912	112.99
666.108	102.52
666.304	99.42
666.499	144.37
666.695	91.67
666.89	150.38
667.086	182.15
667.281	166.85
667.477	247.83
667.672	150.57
667.867	133.91
668.063	157.94
668.258	135.85
668.454	155.03
668.649	207.15
668.844	143.41
669.04	179.83
669.235	145.15
669.43	141.66
669.626	126.16
669.821	138.56
670.016	118.61
670.211	158.32
670.407	112.99
670.602	147.86
670.797	125
670.992	207.92
671.187	137.21
671.382	172.47
671.578	128.49
671.773	190.29
671.968	146.89
672.163	162.97
672.358	175.37
672.553	143.21
672.748	122.48
672.943	188.55
673.138	150.77
673.333	182.35
673.528	114.54
673.723	151.16
673.918	148.44
674.113	92.06
674.308	199.2
674.503	173.05
674.698	168.4
674.892	163.17
675.087	184.29
675.282	162.97
675.477	118.61
675.672	152.32
675.867	145.92
676.061	108.34
676.256	123.84
676.451	162.2
676.646	158.13
676.84	115.12
677.035	93.42
677.23	96.71
677.424	147.28
677.619	173.63
677.814	168.01
678.008	172.66
678.203	118.61
678.397	114.15
678.592	142.44
678.787	207.73
678.981	129.26
679.176	173.44
679.37	121.51
679.565	132.75
679.759	114.54
679.954	178.28
680.148	183.51
680.342	188.35
680.537	175.95
680.731	128.87
680.926	135.27
681.12	174.4
681.314	141.86
681.509	146.89
681.703	147.47
681.897	147.86
682.092	160.65
682.286	121.32
682.48	189.32
682.674	162.59
682.869	150.19
683.063	152.9
683.257	221.1
683.451	126.55
683.645	129.84
683.839	159.1
684.034	136.24
684.228	168.98
684.422	119.57
684.616	96.52
684.81	181.96
685.004	140.11
685.198	147.47
685.392	163.75
685.586	109.69
685.78	155.61
685.974	172.47
686.168	149.61
686.362	205.4
686.556	117.06
686.75	121.12
686.944	126.94
687.138	180.99
687.331	107.56
687.525	113.76
687.719	85.09
687.913	175.18
688.107	123.06
688.301	108.34
688.494	132.75
688.688	109.11
688.882	77.14
689.076	80.24
689.269	101.75
689.463	195.33
689.657	123.06
689.85	90.32
690.044	95.16
690.238	131.01
690.431	108.34
690.625	111.63
690.818	145.92
691.012	112.02
691.205	134.49
691.399	85.86
691.593	139.34
691.786	159.87
691.98	156.58
692.173	163.55
692.366	134.69
692.56	149.8
692.753	206.18
692.947	104.85
693.14	186.03
693.333	189.13
693.527	104.85
693.72	154.45
693.914	124.42
694.107	136.82
694.3	154.64
694.493	142.63
694.687	205.02
694.88	126.74
695.073	177.12
695.266	170.53
695.46	116.47
695.653	210.64
695.846	180.6
696.039	106.98
696.232	134.49
696.425	162
696.618	162.97
696.812	138.76
697.005	200.56
697.198	256.75
697.391	182.93
697.584	195.14
697.777	237.37
697.97	206.18
698.163	211.02
698.356	214.32
698.549	262.37
698.742	219.55
698.935	190.1
699.127	211.02
699.32	178.47
699.513	205.21
699.706	202.69
699.899	240.67
700.092	195.14
700.285	199.59
700.477	167.43
700.67	232.72
700.863	237.95
701.056	278.06
701.248	258.88
701.441	248.22
701.634	231.95
701.826	320.3
702.019	188.55
702.212	281.93
702.404	205.6
702.597	216.64
702.79	246.29
702.982	242.02
703.175	284.45
703.367	275.93
703.56	259.85
703.752	335.8
703.945	286.39
704.137	269.34
704.33	270.31
704.522	309.06
704.715	301.7
704.907	312.93
705.1	328.82
705.292	311.19
705.484	296.85
705.677	346.45
705.869	347.81
706.061	322.04
706.254	371.83
706.446	325.72
706.638	323.78
706.831	368.93
707.023	343.16
707.215	406.71
707.407	401.28
707.599	355.75
707.792	397.8
707.984	362.34
708.176	422.59
708.368	360.79
708.56	383.46
708.752	372.03
708.944	393.73
709.136	386.56
709.329	379.58
709.521	480.14
709.713	445.26
709.905	447.2
710.097	471.23
710.289	386.56
710.481	424.73
710.672	432.28
710.864	431.7
711.056	485.56
711.248	479.56
711.44	448.56
711.632	461.15
711.824	497.96
712.016	490.79
712.207	485.95
712.399	476.26
712.591	547.95
712.783	496.8
712.975	510.75
713.166	453.21
713.358	484.21
713.55	521.21
713.741	558.22
713.933	527.02
714.125	532.06
714.316	514.43
714.508	558.41
714.7	574.49
714.891	554.54
715.083	604.52
715.274	536.13
715.466	574.49
715.657	605.3
715.849	508.62
716.04	582.82
716.232	537.68
716.423	632.23
716.615	537.29
716.806	561.12
716.998	529.16
717.189	522.57
717.381	490.21
717.572	485.95
717.763	539.23
717.955	515.59
718.146	492.93
718.337	480.33
718.528	475.29
718.72	438.48
718.911	520.05
719.102	455.34
719.293	518.69
719.485	497.38
719.676	486.73
719.867	473.74
720.058	465.22
720.249	473.55
720.44	510.75
720.632	514.43
720.823	547.56
721.014	594.84
721.205	546.59
721.396	600.07
721.587	665.94
721.778	627.77
721.969	645.4
722.16	663.81
722.351	628.35
722.542	760.88
722.733	757
722.924	656.84
723.115	710.7
723.305	721.55
723.496	738.02
723.687	685.51
723.878	677.18
724.069	707.02
724.26	704.3
724.45	662.45
724.641	649.47
724.832	726.39
725.023	680.28
725.213	676.02
725.404	678.73
725.595	664.2
725.785	683.96
725.976	696.36
726.167	691.13
726.357	695.97
726.548	777.73
726.739	713.99
726.929	747.12
727.12	786.65
727.31	790.91
727.501	737.43
727.691	792.07
727.882	742.67
728.072	804.08
728.263	788
728.453	830.05
728.644	819
728.834	838.96
729.024	788
729.215	791.49
729.405	836.25
729.596	881.78
729.786	851.36
729.976	896.31
730.167	883.52
730.357	853.3
730.547	831.4
730.737	889.53
730.928	917.81
731.118	948.04
731.308	882.16
731.498	905.61
731.688	963.54
731.879	937.96
732.069	971.09
732.259	975.94
732.449	976.52
732.639	1055.95
732.829	1045.1
733.019	1068.35
733.209	1100.9
733.399	1070.87
733.589	1105.75
733.779	1143.33
733.969	1114.08
734.159	1131.71
734.349	1176.47
734.539	1211.15
734.729	1169.88
734.919	1219.09
735.109	1226.84
735.299	1193.71
735.488	1237.11
735.678	1259.39
735.868	1248.35
736.058	1236.72
736.248	1240.98
736.437	1223.16
736.627	1186.15
736.817	1280.12
737.007	1260.94
737.196	1265.01
737.386	1264.62
737.576	1230.33
737.765	1258.23
737.955	1291.55
738.144	1336.5
738.334	1328.94
738.524	1257.84
738.713	1321.39
738.903	1370.21
739.092	1360.33
739.282	1332.63
739.471	1369.83
739.661	1325.65
739.85	1358.78
740.04	1368.86
740.229	1381.26
740.419	1426.01
740.608	1411.87
740.797	1420.2
740.987	1482.78
741.176	1458.95
741.365	1412.84
741.555	1369.24
741.744	1448.29
741.933	1416.32
742.123	1456.62
742.312	1490.53
742.501	1507.39
742.69	1487.43
742.88	1455.27
743.069	1544.2
743.258	1460.89
743.447	1528.12
743.636	1516.88
743.825	1482.59
744.014	1506.22
744.204	1531.8
744.393	1482.97
744.582	1512.42
744.771	1578.49
744.96	1519.01
745.149	1529.09
745.338	1499.64
745.527	1567.25
745.716	1513.78
745.905	1539.16
746.094	1530.44
746.283	1550.79
746.471	1588.18
746.66	1623.83
746.849	1568.22
747.038	1623.44
747.227	1542.07
747.416	1603.48
747.604	1554.47
747.793	1551.56
747.982	1557.95
748.171	1600
748.359	1606.58
748.548	1581.2
748.737	1578.49
748.926	1520.95
749.114	1540.13
749.303	1552.92
749.491	1588.76
749.68	1518.24
749.869	1597.28
750.057	1568.03
750.246	1533.93
750.434	1598.83
750.623	1569.77
750.811	1567.25
751	1600.19
751.188	1597.87
751.377	1562.99
751.565	1568.42
751.754	1544
751.942	1557.37
752.131	1563.18
752.319	1555.44
752.507	1499.83
752.696	1562.22
752.884	1571.71
753.072	1546.72
753.261	1559.5
753.449	1572.29
753.637	1569.97
753.825	1620.53
754.014	1536.84
754.202	1526.76
754.39	1644.95
754.578	1584.3
754.766	1590.7
754.955	1549.82
755.143	1627.51
755.331	1510.49
755.519	1554.47
755.707	1581.59
755.895	1537.03
756.083	1584.5
756.271	1521.72
756.459	1546.14
756.647	1592.63
756.835	1557.76
757.023	1493.63
757.211	1548.65
757.399	1555.24
757.587	1541.1
757.775	1470.38
757.963	1531.8
758.151	1549.62
758.339	1465.15
758.526	1502.54
758.714	1508.94
758.902	1502.54
759.09	1447.32
759.278	1307.83
759.465	1256.1
759.653	1026.7
759.841	984.66
760.028	796.72
760.216	707.21
760.404	699.07
760.591	569.65
760.779	471.42
760.967	407.87
761.154	326.69
761.342	362.34
761.529	367.38
761.717	397.99
761.905	361.76
762.092	423.95
762.28	345.1
762.467	373.19
762.655	303.44
762.842	350.13
763.029	347.61
763.217	367.38
763.404	356.33
763.592	384.23
763.779	314.68
763.966	371.06
764.154	380.16
764.341	401.86
764.528	392.37
764.716	450.11
764.903	468.51
765.09	496.41
765.277	517.14
765.465	609.56
765.652	603.36
765.839	675.63
766.026	751.77
766.213	743.05
766.4	771.53
766.588	933.12
766.775	873.25
766.962	985.24
767.149	982.91
767.336	1054.21
767.523	988.72
767.71	1074.17
767.897	1122.8
768.084	1199.91
768.271	1216.76
768.458	1244.86
768.645	1241.37
768.832	1195.07
769.019	1222
769.206	1254.74
769.392	1316.16
769.579	1395.59
769.766	1364.21
769.953	1303.76
770.14	1353.74
770.327	1348.51
770.513	1377.96
770.7	1452.17
770.887	1342.89
771.073	1424.07
771.26	1370.21
771.447	1350.64
771.634	1378.54
771.82	1425.24
772.007	1352.58
772.193	1347.54
772.38	1433.18
772.567	1373.89
772.753	1374.67
772.94	1413.81
773.126	1423.88
773.313	1412.06
773.499	1445
773.686	1410.71
773.872	1390.36
774.059	1380.87
774.245	1344.83
774.432	1365.56
774.618	1308.99
774.804	1377.77
774.991	1341.54
775.177	1427.76
775.363	1400.05
775.55	1418.46
775.736	1353.16
775.922	1378.54
776.109	1375.06
776.295	1342.89
776.481	1349.68
776.667	1395.59
776.853	1368.08
777.04	1335.92
777.226	1353.36
777.412	1422.52
777.598	1349.68
777.784	1332.04
777.97	1341.73
778.156	1377.58
778.342	1337.86
778.528	1331.66
778.715	1303.95
778.901	1318.87
779.087	1309.57
779.272	1300.46
779.458	1305.5
779.644	1334.95
779.83	1309.38
780.016	1362.85
780.202	1334.76
780.388	1287.29
780.574	1252.8
780.76	1301.82
780.946	1317.71
781.131	1314.03
781.317	1288.26
781.503	1260.55
781.689	1291.16
781.874	1369.24
782.06	1267.14
782.246	1273.92
782.432	1295.62
782.617	1297.17
782.803	1357.62
782.989	1224.32
783.174	1275.08
783.36	1203.78
783.545	1250.09
783.731	1259.78
783.916	1203.4
784.102	1304.53
784.288	1245.44
784.473	1235.56
784.659	1236.33
784.844	1259.2
785.029	1228
785.215	1222.77
785.4	1182.08
785.586	1271.79
785.771	1209.98
785.956	1234.01
786.142	1194.87
786.327	1194.68
786.512	1207.27
786.698	1199.72
786.883	1167.36
787.068	1159.61
787.254	1190.61
787.439	1189.06
787.624	1198.17
787.809	1154.77
787.994	1206.5
788.18	1201.65
788.365	1141.01
788.55	1180.92
788.735	1165.03
788.92	1183.83
789.105	1131.52
789.29	1189.45
789.475	1134.42
789.66	1160.77
789.845	1122.02
790.03	1113.89
790.215	1174.14
790.4	1154.38
790.585	1183.25
790.77	1148.57
790.955	1102.84
791.14	1126.28
791.325	1212.89
791.51	1077.85
791.695	1097.42
791.879	1096.25
792.064	1086.76
792.249	1153.02
792.434	1088.89
792.618	1116.99
792.803	1140.82
792.988	1076.49
793.173	1090.05
793.357	1148.37
793.542	1056.34
793.727	1098.97
793.911	1118.15
794.096	1110.79
794.281	1131.52
794.465	1175.69
794.65	1138.3
794.834	1164.26
795.019	1152.25
795.203	1154.18
795.388	1127.45
795.572	1191.58
795.757	1120.28
795.941	1133.26
796.126	1130.16
796.31	1083.47
796.494	1129.77
796.679	1103.42
796.863	1050.53
797.048	1172.4
797.232	1132.68
797.416	1128.8
797.601	1076.3
797.785	1149.15
797.969	1145.27
798.153	1128.42
798.338	1148.37
798.522	1148.95
798.706	1125.9
798.89	1167.17
799.074	1206.69
799.258	1164.26
799.443	1120.47
799.627	1131.52
799.811	1148.18
799.995	1158.83
800.179	1094.32
800.363	1088.31
800.547	1153.8
800.731	1182.86
800.915	1068.16
801.099	1095.29
801.283	1134.23
801.467	1140.62
801.651	1113.5
801.835	1183.05
802.019	1123.38
802.202	1120.28
802.386	1089.86
802.57	1097.42
802.754	1104
802.938	1099.35
803.121	1071.26
803.305	1153.8
803.489	1137.72
803.673	1137.91
803.856	1128.8
804.04	1135.2
804.224	1153.02
804.407	1124.54
804.591	1096.06
804.775	1095.87
804.958	1132.1
805.142	1208.05
805.326	1092.77
805.509	1111.56
805.693	1109.24
805.876	1169.68
806.06	1116.02
806.243	1138.49
806.427	1154.77
806.61	1169.68
806.794	1115.05
806.977	1159.42
807.16	1127.25
807.344	1171.04
807.527	1141.01
807.71	1132.48
807.894	1139.65
808.077	1174.92
808.26	1128.22
808.444	1092.19
808.627	1169.68
808.81	1088.12
808.993	1077.65
809.177	1087.54
809.36	1097.61
809.543	1148.37
809.726	1064.29
809.909	1024.57
810.092	1026.12
810.276	1071.07
810.459	1090.83
810.642	1054.79
810.825	1047.43
811.008	1034.84
811.191	966.44
811.374	994.73
811.557	1018.76
811.74	1084.24
811.923	951.52
812.106	972.64
812.289	949.59
812.472	970.32
812.654	997.83
812.837	945.13
813.02	926.14
813.203	940.29
813.386	862.59
813.569	878.09
813.751	836.44
813.934	867.63
814.117	880.03
814.3	849.81
814.482	794.2
814.665	782.96
814.848	753.52
815.03	736.27
815.213	755.07
815.396	770.18
815.578	732.4
815.761	702.37
815.943	795.56
816.126	743.44
816.309	706.43
816.491	670.4
816.674	643.85
816.856	697.52
817.039	661.68
817.221	720.77
817.403	669.04
817.586	687.25
817.768	715.93
817.951	633.39
818.133	632.23
818.315	690.55
818.498	669.62
818.68	742.86
818.862	690.93
819.045	711.86
819.227	704.3
819.409	702.37
819.591	731.04
819.774	701.59
819.956	658.77
820.138	734.72
820.32	702.95
820.502	720.97
820.684	790.71
820.866	756.62
821.048	792.07
821.231	797.5
821.413	787.42
821.595	772.5
821.777	792.07
821.959	799.63
822.141	812.41
822.323	747.12
822.505	711.47
822.686	706.82
822.868	701.98
823.05	633.39
823.232	607.24
823.414	572.36
823.596	628.94
823.778	583.79
823.96	608.4
824.141	583.6
824.323	644.82
824.505	676.99
824.687	671.17
824.868	680.47
825.05	772.31
825.232	761.46
825.413	837.8
825.595	791.3
825.777	725.23
825.958	780.83
826.14	746.93
826.321	786.06
826.503	776.18
826.685	787.42
826.866	775.41
827.048	761.07
827.229	732.98
827.411	743.63
827.592	691.71
827.773	708.76
827.955	694.23
828.136	708.18
828.318	655.67
828.499	683.77
828.68	660.13
828.862	716.32
829.043	694.62
829.224	674.47
829.406	670.98
829.587	669.43
829.768	671.95
829.949	698.1
830.131	659.94
830.312	725.62
830.493	691.52
830.674	694.03
830.855	691.32
831.036	674.85
831.218	733.56
831.399	729.49
831.58	685.7
831.761	730.85
831.942	694.03
832.123	681.64
832.304	630.68
832.485	675.63
832.666	664.39
832.847	720.38
833.028	676.79
833.209	715.93
833.389	665.55
833.57	659.35
833.751	685.51
833.932	738.4
834.113	688.22
834.294	665.36
834.475	710.5
834.655	739.95
834.836	716.51
835.017	693.45
835.198	666.72
835.378	714.57
835.559	708.95
835.74	677.18
835.92	691.32
836.101	673.5
836.281	689.38
836.462	714.18
836.643	727.36
836.823	746.35
837.004	724.07
837.184	789.94
837.365	766.88
837.545	745.77
837.726	727.36
837.906	755.45
838.087	727.75
838.267	712.05
838.448	693.84
838.628	717.67
838.808	727.94
838.989	777.15
839.169	683.38
839.349	727.94
839.53	738.79
839.71	732.2
839.89	667.88
840.07	762.62
840.251	718.06
840.431	733.37
840.611	715.15
840.791	687.25
840.971	731.23
841.151	679.31
841.332	709.73
841.512	768.24
841.692	689
841.872	732.4
842.052	716.12
842.232	732.01
842.412	642.69
842.592	685.32
842.772	720.19
842.952	708.18
843.132	705.66
843.312	681.83
843.492	682.6
843.672	712.05
843.851	653.15
844.031	723.1
844.211	716.12
844.391	713.6
844.571	707.6
844.751	723.48
844.93	722.71
845.11	691.71
845.29	713.99
845.47	704.11
845.649	718.25
845.829	736.27
846.009	665.75
846.188	708.57
846.368	695.58
846.547	681.25
846.727	737.05
846.907	665.94
847.086	691.32
847.266	723.68
847.445	677.95
847.625	694.81
847.804	669.04
847.984	685.9
848.163	647.92
848.343	667.1
848.522	686.48
848.701	704.69
848.881	640.95
849.06	698.1
849.239	694.42
849.419	705.85
849.598	633.59
849.777	674.27
849.957	639.59
850.136	628.35
850.315	582.24
850.494	590.77
850.674	614.6
850.853	692.87
851.032	641.14
851.211	686.28
851.39	654.7
851.569	584.57
851.748	595.81
851.927	645.99
852.107	644.63
852.286	610.53
852.465	597.16
852.644	665.75
852.823	624.67
853.002	606.65
853.181	606.07
853.359	639.79
853.538	597.16
853.717	653.93
853.896	588.06
854.075	552.99
854.254	561.51
854.433	525.67
854.611	582.05
854.79	502.23
854.969	569.46
855.148	608.59
855.327	519.66
855.505	573.72
855.684	541.75
855.863	571.59
856.041	552.02
856.22	567.91
856.399	521.79
856.577	618.47
856.756	603.75
856.934	718.06
857.113	679.89
857.291	602
857.47	574.69
857.648	596.77
857.827	615.37
858.005	646.18
858.184	594.45
858.362	645.4
858.541	607.43
858.719	594.26
858.898	596.58
859.076	590.57
859.254	645.02
859.433	592.32
859.611	600.65
859.789	555.89
859.967	641.14
860.146	637.07
860.324	577.4
860.502	587.86
860.68	562.29
860.859	602.2
861.037	586.31
861.215	570.42
861.393	600.84
861.571	562.29
861.749	549.11
861.927	571.59
862.105	571.39
862.283	584.37
862.461	553.18
862.639	516.56
862.817	545.82
862.995	580.11
863.173	539.23
863.351	574.49
863.529	566.74
863.707	620.6
863.885	558.61
864.063	499.32
864.241	509.97
864.418	589.41
864.596	559.38
864.774	507.46
864.952	551.24
865.129	562.09
865.307	528.57
865.485	502.81
865.663	568.68
865.84	511.14
866.018	523.15
866.196	460.57
866.373	484.01
866.551	458.05
866.728	414.65
866.906	490.6
867.084	482.46
867.261	524.89
867.439	510.75
867.616	555.12
867.794	511.72
867.971	505.13
868.149	496.03
868.326	547.56
868.503	524.12
868.681	515.4
868.858	482.46
869.035	485.76
869.213	534
869.39	489.24
869.567	545.82
869.745	488.86
869.922	513.07
870.099	536.13
870.276	536.13
870.454	485.37
870.631	536.71
870.808	480.72
870.985	533.81
871.162	559.19
871.339	529.93
871.517	472.39
871.694	473.36
871.871	525.09
872.048	481.69
872.225	482.46
872.402	511.33
872.579	445.84
872.756	504.36
872.933	448.17
873.11	479.94
873.287	505.33
873.463	493.12
873.64	465.41
873.817	500.68
873.994	493.12
874.171	452.82
874.348	492.15
874.524	441.78
874.701	476.84
874.878	411.36
875.055	491.96
875.231	497.38
875.408	536.32
875.585	413.1
875.762	463.48
875.938	465.99
876.115	483.63
876.291	469.29
876.468	474.71
876.645	436.74
876.821	450.49
876.998	467.16
877.174	473.16
877.351	442.74
877.527	433.64
877.704	473.36
877.88	487.69
878.057	429.38
878.233	493.89
878.409	463.09
878.586	472.19
878.762	474.71
878.938	451.46
879.115	406.32
879.291	455.34
879.467	427.44
879.644	422.01
879.82	477.43
879.996	428.41
880.172	387.33
880.349	421.24
880.525	478.39
880.701	416.59
880.877	434.8
881.053	450.88
881.229	426.08
881.405	459.21
881.581	399.15
881.757	435.77
881.933	455.53
882.109	448.94
882.285	403.8
882.461	396.05
882.637	423.18
882.813	413.68
882.989	391.21
883.165	457.08
883.341	399.73
883.517	456.5
883.693	454.76
883.869	465.8
884.044	415.81
884.22	441.58
884.396	465.61
884.572	434.41
884.747	433.44
884.923	441.19
885.099	463.09
885.275	441.58
885.45	374.35
885.626	409.42
885.801	421.24
885.977	413.49
886.153	352.65
886.328	453.01
886.504	395.28
886.679	423.95
886.855	417.75
887.03	463.48
887.206	435.38
887.381	437.9
887.557	432.67
887.732	450.69
887.908	446.62
888.083	464.44
888.258	408.06
888.434	395.86
888.609	434.61
888.784	436.93
888.96	378.03
889.135	383.07
889.31	386.36
889.485	434.03
889.661	373.96
889.836	457.86
890.011	416.2
890.186	424.53
890.361	379.97
890.537	411.36
890.712	414.07
890.887	427.63
891.062	416.2
891.237	442.36
891.412	399.15
891.587	426.66
891.762	435.58
891.937	459.02
892.112	400.12
892.287	421.43
892.462	366.8
892.637	360.79
892.812	369.9
892.987	352.46
893.161	379
893.336	378.61
893.511	394.11
893.686	392.18
893.861	369.12
894.035	408.45
894.21	402.83
894.385	334.44
894.56	397.02
894.734	310.61
894.909	336.76
895.084	367.57
895.258	348.39
895.433	355.95
895.608	329.79
895.782	311.19
895.957	319.72
896.131	333.67
896.306	313.32
896.48	293.37
896.655	297.43
896.829	280
897.004	255.97
897.178	278.25
897.353	263.14
897.527	314.48
897.701	271.67
897.876	209.47
898.05	310.03
898.224	302.67
898.399	365.05
898.573	296.27
898.747	204.05
898.921	269.15
899.096	205.79
899.27	213.93
899.444	225.94
899.618	241.25
899.792	214.7
899.967	228.85
900.141	255.78
900.315	199.4
900.489	237.95
900.663	263.72
900.837	243.77
901.011	181.77
901.185	299.57
901.359	258.3
901.533	299.76
901.707	228.27
901.881	231.37
902.055	217.61
902.229	226.72
902.403	276.32
902.576	240.28
902.75	258.1
902.924	358.85
903.098	283.29
903.272	277.48
903.446	306.93
903.619	279.61
903.793	308.87
903.967	273.22
904.14	332.89
904.314	333.67
904.488	294.92
904.661	348.39
904.835	289.3
905.009	330.95
905.182	386.75
905.356	333.67
905.529	310.22
905.703	270.89
905.876	302.47
906.05	264.5
906.223	261.01
906.397	231.37
906.57	242.41
906.744	204.44
906.917	221.1
907.09	251.71
907.264	231.17
907.437	206.18
907.61	208.7
907.784	211.8
907.957	244.93
908.13	202.11
908.304	284.65
908.477	222.65
908.65	232.53
908.823	184.29
908.996	268.76
909.17	208.5
909.343	222.45
909.516	198.62
909.689	224
909.862	209.09
910.035	204.63
910.208	186.03
910.381	183.9
910.554	277.67
910.727	201.14
910.9	202.5
911.073	189.32
911.246	229.43
911.419	262.56
911.592	247.45
911.765	195.14
911.938	173.05
912.11	180.02
912.283	187.19
912.456	230.2
912.629	220.32
912.802	218.39
912.974	182.35
913.147	168.2
913.32	127.71
913.493	151.35
913.665	180.99
913.838	180.6
914.01	167.24
914.183	169.56
914.356	157.36
914.528	222.65
914.701	250.93
914.873	230.79
915.046	177.31
915.218	170.72
915.391	112.6
915.563	125.97
915.736	214.51
915.908	228.07
916.081	171.69
916.253	158.52
916.425	174.21
916.598	173.24
916.77	183.32
916.942	166.27
917.115	103.3
917.287	174.99
917.459	153.67
917.632	144.57
917.804	128.1
917.976	175.57
918.148	164.91
918.32	160.65
918.493	188.16
918.665	208.5
918.837	177.31
919.009	212.96
919.181	208.31
919.353	167.04
919.525	179.25
919.697	182.35
919.869	188.55
920.041	237.18
920.213	261.01
920.385	212.57
920.557	192.42
920.729	198.43
920.901	194.94
921.073	164.33
921.244	172.08
921.416	218.97
921.588	231.56
921.76	188.35
921.932	268.95
922.103	185.84
922.275	183.32
922.447	197.65
922.619	139.34
922.79	174.6
922.962	182.54
923.134	205.4
923.305	138.95
923.477	140.5
923.648	168.98
923.82	179.83
923.991	124.22
924.163	127.32
924.335	147.28
924.506	131.39
924.677	206.95
924.849	144.18
925.02	139.34
925.192	186.22
925.363	176.73
925.535	172.27
925.706	155.22
925.877	203.66
926.049	166.46
926.22	158.32
926.391	177.7
926.562	193
926.734	137.79
926.905	167.82
927.076	121.51
927.247	146.89
927.419	140.11
927.59	135.27
927.761	117.64
927.932	112.79
928.103	153.29
928.274	123.64
928.445	97.29
928.616	114.15
928.787	120.54
928.958	157.36
929.129	143.6
929.3	135.46
929.471	92.45
929.642	58.93
929.813	45.18
929.984	128.87
930.155	61.84
930.326	102.33
930.496	121.51
930.667	34.52
930.838	85.28
931.009	50.41
931.18	58.93
931.35	72.49
931.521	75.21
931.692	34.52
931.863	-10.04
932.033	60.87
932.204	77.72
932.374	45.95
932.545	25.03
932.716	85.09
932.886	78.5
933.057	2.74
933.227	36.84
933.398	115.12
933.568	8.36
933.739	-21.09
933.909	-13.53
934.08	63.19
934.25	-32.32
934.421	4.68
934.591	37.43
934.761	-0.36
934.932	-26.12
935.102	17.66
935.272	23.48
935.443	-11.01
935.613	3.71
935.783	37.81
935.953	-16.63
936.123	105.82
936.294	12.04
936.464	20.76
936.634	11.85
936.804	-48.79
936.974	-27.09
937.144	38.78
937.314	-10.43
937.484	-25.93
937.655	-19.15
937.825	61.64
937.995	-23.8
938.165	56.8
938.334	11.27
938.504	9.72
938.674	20.18
938.844	-5.59
939.014	48.47
939.184	5.26
939.354	73.07
939.524	50.6
939.694	23.67
939.863	22.89
940.033	100.78
940.203	72.49
940.373	44.98
940.542	69.2
940.712	25.99
940.882	57.38
941.051	52.93
941.221	49.44
941.391	67.07
941.56	26.19
941.73	8.94
941.899	124.61
942.069	31.61
942.238	36.07
942.408	5.07
942.577	69.39
942.747	39.75
942.916	-16.24
943.086	11.85
943.255	62.42
943.425	24.44
943.594	8.94
943.763	-36.78
943.933	-13.34
944.102	-50.54
944.271	13.98
944.441	18.83
944.61	22.31
944.779	11.46
944.948	66.68
945.117	-6.36
945.287	3.33
945.456	-25.93
945.625	-17.02
945.794	21.93
945.963	-10.24
946.132	57.77
946.301	4.29
946.47	65.13
946.639	-34.65
946.808	-5.01
946.977	56.22
947.146	40.14
947.315	15.14
947.484	49.44
947.653	3.13
947.822	10.49
947.991	4.1
948.16	89.35
948.329	58.35
948.498	19.79
948.666	20.18
948.835	48.28
949.004	5.26
949.173	-19.54
949.341	32.97
949.51	23.09
949.679	55.44
949.847	50.6
950.016	83.34
950.185	69.78
950.353	17.47
950.522	-12.56
950.69	48.28
950.859	-12.56
951.028	40.53
951.196	28.71
951.365	8.17
951.533	16.5
951.701	32.39
951.87	39.17
952.038	7.78
952.207	52.73
952.375	58.54
952.543	13.4
952.712	32.58
952.88	12.04
953.048	56.22
953.217	13.01
953.385	14.37
953.553	75.21
953.721	-15.47
953.89	19.99
954.058	-21.28
954.226	8.17
954.394	24.83
954.562	-20.5
954.73	17.28
954.898	11.27
955.067	57.77
955.235	21.15
955.403	65.91
955.571	74.62
955.739	45.37
955.907	13.98
956.075	-12.17
956.243	-18.18
956.41	47.11
956.578	-14.5
956.746	-22.05
956.914	-10.82
957.082	30.45
957.25	22.7
957.418	-10.43
957.585	15.92
957.753	72.69
957.921	6.04
958.089	16.69
958.256	44.01
958.424	17.47
958.592	39.75
958.759	0.61
958.927	53.31
959.095	1.39
959.262	29.09
959.43	33.36
959.597	12.63
959.765	26.96
959.932	-7.91
960.1	44.59
960.267	3.71
960.435	26.96
960.602	57.77
960.77	-0.16
960.937	-37.55
961.104	-2.49
961.272	-19.34
961.439	15.34
961.606	48.86
961.774	50.21
961.941	-3.65
962.108	47.31
962.275	48.86
962.443	76.17
962.61	31.81
962.777	76.95
962.944	45.37
963.111	13.59
963.278	54.09
963.446	9.33
963.613	38.78
963.78	36.07
963.947	67.65
964.114	28.51
964.281	107.56
964.448	32
964.615	3.91
964.782	43.43
964.949	72.11
965.116	45.76
965.282	76.37
965.449	7.78
965.616	-8.69
965.783	29.29
965.95	52.73
966.117	14.56
966.283	38.98
966.45	34.91
966.617	27.54
966.784	76.17
966.95	73.07
967.117	44.4
967.284	7.2
967.45	5.46
967.617	60.48
967.784	50.02
967.95	108.14
968.117	16.11
968.283	68.62
968.45	104.66
968.616	34.52
968.783	75.79
968.949	36.26
969.116	85.86
969.282	7.78
969.449	44.59
969.615	18.44
969.781	4.1
969.948	26.19
970.114	-32.71
970.28	64.74
970.447	38.59
970.613	81.41
970.779	33.36
970.945	56.8
971.112	48.08
971.278	31.42
971.444	39.56
971.61	75.4
971.776	32.97
971.942	53.7
972.108	42.08
972.275	6.62
972.441	67.46
972.607	113.57
972.773	15.14
972.939	51.96
973.105	45.37
973.271	-9.46
973.437	19.02
973.602	9.33
973.768	50.21
973.934	31.81
974.1	48.66
974.266	-28.25
974.432	42.46
974.598	7.59
974.763	56.8
974.929	32.39
975.095	71.72
975.261	8.56
975.426	-8.69
975.592	43.43
975.758	90.12
975.923	-10.24
976.089	12.43
976.255	58.16
976.42	30.84
976.586	45.95
976.751	35.49
976.917	121.71
977.082	31.61
977.248	19.6
977.413	-12.56
977.579	13.01
977.744	34.91
977.91	11.27
978.075	34.52
978.24	56.41
978.406	23.28
978.571	27.35
978.736	23.28
978.902	50.41
979.067	2.94
979.232	-23.41
979.397	45.76
979.563	68.43
979.728	-14.5
979.893	36.84
980.058	-1.32
980.223	41.11
980.388	27.16
980.554	32.97
980.719	4.88
980.884	38.59
981.049	65.52
981.214	16.11
981.379	42.27
981.544	10.88
981.709	17.08
981.874	1.97
982.039	25.41
982.204	56.99
982.368	51.57
982.533	14.95
982.698	39.75
982.863	66.29
983.028	47.11
983.193	42.85
983.357	23.09
983.522	55.64
983.687	21.54
983.852	8.56
984.016	25.41
984.181	8.17
984.346	34.91
984.51	29.09
984.675	30.84
984.839	49.83
985.004	13.59
985.168	60.68
985.333	53.89
985.498	7.2
985.662	60.87
985.827	39.36
985.991	23.48
986.155	23.48
986.32	71.72
986.484	85.09
986.649	51.76
986.813	-30
986.977	34.52
987.142	56.8
987.306	-19.15
987.47	10.11
987.634	37.81
987.799	46.53
987.963	60.29
988.127	69.39
988.291	79.47
988.455	39.94
988.62	10.3
988.784	59.51
988.948	50.02
989.112	-7.33
989.276	34.52
989.44	30.64
989.604	-1.32
989.768	32.19
989.932	105.43
990.096	13.4
990.26	-6.75
990.424	11.27
990.588	25.99
990.752	107.17
990.915	53.7
991.079	25.41
991.243	12.24
991.407	46.14
991.571	19.79
991.734	46.14
991.898	40.53
992.062	109.69
992.226	25.61
992.389	3.13
992.553	-31.94
992.717	8.94
992.88	30.64
993.044	27.74
993.207	29.09
993.371	48.28
993.535	28.9
993.698	22.7
993.862	36.84
994.025	47.89
994.189	16.69
994.352	22.7
994.515	36.84
994.679	62.03
994.842	30.45
995.006	37.62
995.169	-7.72
995.332	2.74
995.496	76.37
995.659	-39.69
995.822	18.05
995.985	27.54
996.149	55.83
996.312	38.59
996.475	83.92
996.638	13.01
996.801	54.09
996.964	83.73
997.128	37.81
997.291	40.72
997.454	48.47
997.617	-14.89
997.78	66.29
997.943	18.24
998.106	56.99
998.269	9.14
998.432	39.36
998.595	41.3
998.758	-4.42
998.92	-7.72
999.083	-11.79
999.246	12.82
999.409	-3.46
999.572	-23.8
999.735	13.21
999.897	46.34
1000.06	12.04
1000.223	1.19
1000.386	20.38
1000.548	47.31
1000.711	7.2
1000.874	48.47
1001.036	-31.16
1001.199	52.15
1001.361	5.26
1001.524	35.88
1001.687	65.91
1001.849	-0.36
1002.012	32.97
1002.174	30.26
1002.337	46.34
1002.499	3.52
1002.661	42.08
1002.824	-13.53
1002.986	-3.65
1003.149	30.84
1003.311	-3.65
1003.473	68.62
1003.636	-3.84
1003.798	40.14
1003.96	38.59
1004.123	9.53
1004.285	10.88
1004.447	37.62
1004.609	13.98
1004.771	75.79
1004.933	-4.62
1005.096	-20.7
1005.258	-41.04
1005.42	24.44
1005.582	32.58
1005.744	37.04
1005.906	-26.32
1006.068	38.98
1006.23	-0.74
1006.392	-26.7
1006.554	2.36
1006.716	76.56
1006.878	38.78
1007.04	-11.21
1007.202	-27.09
1007.363	42.46
1007.525	24.83
1007.687	38.01
1007.849	63.19
1008.011	-22.44
1008.172	-23.22
1008.334	25.22
1008.496	11.46
1008.658	-21.28
1008.819	-7.33
1008.981	-16.05
1009.143	11.66
1009.304	1.97
1009.466	45.18
1009.627	62.81
1009.789	96.13
1009.95	34.71
1010.112	-8.49
1010.273	17.08
1010.435	-4.81
1010.596	14.56
1010.758	31.03
1010.919	-5.01
1011.081	-23.02
1011.242	32.39
1011.403	28.32
1011.565	29.68
1011.726	28.13
1011.887	-3.26
1012.049	12.43
1012.21	64.55
1012.371	65.71
1012.532	-28.06
1012.693	23.86
1012.855	-2.87
1013.016	-2.87
1013.177	45.56
1013.338	1
1013.499	75.4
1013.66	40.53
1013.821	35.88
1013.982	19.6
1014.143	50.02
1014.304	18.44
1014.465	29.09
1014.626	30.06
1014.787	6.62
1014.948	78.5
1015.109	-47.82
1015.27	47.11
1015.431	-6.56
1015.592	15.92
1015.752	57.19
1015.913	40.91
1016.074	2.36
1016.235	35.49
1016.395	4.1
1016.556	3.33
1016.717	2.94
1016.877	52.93
1017.038	21.15
1017.199	35.49
1017.359	19.21
1017.52	-7.14
1017.681	9.33
1017.841	7.98
1018.002	17.47
1018.162	15.53
1018.323	56.99
1018.483	11.66
1018.644	5.26
1018.804	-44.92
1018.964	-25.54
1019.125	4.68
1019.285	8.36
1019.446	-19.73
1019.606	-16.82
1019.766	-30.39
1019.926	11.46
1020.087	44.98
1020.247	-28.06
1020.407	19.21
1020.567	37.81
1020.728	13.79
1020.888	-7.52
1021.048	-0.94
1021.208	-1.91
1021.368	5.65
1021.528	45.76
1021.688	21.15
1021.848	13.59
1022.008	-0.94
1022.168	-2.29
1022.328	14.56
1022.488	51.38
1022.648	-20.5
1022.808	19.79
1022.968	0.23
1023.128	-11.21
1023.288	-21.47
1023.448	17.86
1023.608	23.67
1023.767	23.48
1023.927	-10.24
1024.087	-22.83
1024.247	-40.46
1024.406	4.1
1024.566	-18.37
1024.726	-14.31
1024.885	-5.97
1025.045	13.59
1025.205	-1.91
1025.364	4.29
1025.524	13.21
1025.683	-15.85
1025.843	18.24
1026.003	13.01
1026.162	49.44
1026.321	34.91
1026.481	14.18
1026.64	-18.37
1026.8	-1.13
1026.959	12.82
1027.119	31.61
1027.278	13.01
1027.437	-29.03
1027.597	-8.3
1027.756	5.65
1027.915	30.45
1028.074	13.59
1028.234	-25.54
1028.393	-7.14
1028.552	-16.24
1028.711	-58.29
1028.87	34.91
1029.03	-19.15
1029.189	26.19
1029.348	-44.72
1029.507	-30.97
1029.666	-1.13
1029.825	-20.31
1029.984	-4.81
1030.143	7.2
1030.302	-42.4
1030.461	-56.54
1030.62	4.49
1030.779	39.17
1030.938	-23.41
1031.097	-13.72
1031.255	19.99
1031.414	33.74
1031.573	41.49
1031.732	-45.3
1031.891	-8.3
1032.049	35.88
1032.208	16.69
1032.367	-32.13
1032.525	16.31
1032.684	-12.17
1032.843	8.56
1033.001	-46.08
1033.16	132.56
1033.319	11.08
1033.477	34.52
1033.636	3.91
1033.794	-26.9
1033.953	44.59
1034.111	23.09
1034.27	1.58
1034.428	26.77
1034.587	-28.45
1034.745	41.11
1034.903	2.36
1035.062	34.52
1035.22	-35.23
1035.378	38.01
1035.537	-45.3
1035.695	29.68
1035.853	4.68
1036.011	34.52
1036.17	23.67
1036.328	-36.97
1036.486	15.34
1036.644	-6.94
1036.802	-71.27
1036.96	-10.62
1037.119	-12.17
1037.277	-17.21
1037.435	-43.56
1037.593	-26.32
1037.751	10.11
1037.909	14.56
1038.067	14.56
