Data from oakcork_FLMT105791__8__17-26-43-056.txt Node

Date: Mon Mar 20 17:26:43 GMT 2023
User: antho
Spectrometer: FLMT10579
Trigger mode: 0
Integration Time (sec): 1.000000E-1
Scans to average: 10
Electric dark correction enabled: true
Nonlinearity correction enabled: false
Boxcar width: 0
XAxis mode: Wavelengths
Number of Pixels in Spectrum: 3648
>>>>>Begin Spectral Data<<<<<
345.248	-158.95
345.464	-158.95
345.681	-158.95
345.898	-170.97
346.114	-166.32
346.331	-34.76
346.548	0.5
346.764	-7.83
346.981	9.41
347.197	-11.51
347.414	22.98
347.631	3.21
347.847	54.56
348.064	-16.36
348.28	27.04
348.497	-31.27
348.713	-15.97
348.93	51.65
349.146	36.34
349.363	-8.61
349.579	-4.92
349.796	-21.97
350.012	-2.79
350.229	37.31
350.445	6.12
350.661	-12.67
350.878	3.21
351.094	9.61
351.311	10.77
351.527	7.48
351.743	5.93
351.96	18.33
352.176	32.47
352.392	14.45
352.609	20.07
352.825	-1.63
353.041	12.71
353.257	-0.86
353.474	-8.8
353.69	21.62
353.906	17.74
354.122	-25.46
354.339	46.22
354.555	27.04
354.771	1.66
354.987	64.82
355.203	56.88
355.42	10.77
355.636	16.39
355.852	-6.47
356.068	4.18
356.284	-14.61
356.5	66.96
356.716	18.91
356.932	6.12
357.148	34.99
357.364	10.77
357.58	66.76
357.796	58.82
358.012	42.35
358.228	20.84
358.444	-36.7
358.66	38.86
358.876	24.53
359.092	-24.11
359.308	10.19
359.524	36.92
359.74	17.16
359.956	19.49
360.172	17.36
360.388	57.46
360.604	6.89
360.819	58.24
361.035	8.25
361.251	2.24
361.467	6.31
361.683	46.42
361.898	33.24
362.114	25.69
362.33	32.08
362.546	54.17
362.762	-4.73
362.977	8.06
363.193	-27.59
363.409	36.54
363.624	11.16
363.84	-0.86
364.056	-3.37
364.271	17.16
364.487	41.38
364.703	27.24
364.918	6.12
365.134	-3.37
365.35	5.34
365.565	107.64
365.781	18.71
365.996	36.92
366.212	81.87
366.427	33.63
366.643	17.16
366.858	43.12
367.074	-25.46
367.289	45.84
367.505	118.49
367.72	-38.64
367.936	16.39
368.151	20.07
368.367	38.09
368.582	24.53
368.798	50.87
369.013	51.84
369.228	28.4
369.444	49.32
369.659	56.49
369.874	42.54
370.09	78.19
370.305	-51.42
370.52	3.21
370.736	42.54
370.951	52.23
371.166	92.14
371.381	59.4
371.597	42.35
371.812	-20.62
372.027	-18.1
372.242	18.52
372.458	93.11
372.673	10.19
372.888	23.36
373.103	47
373.318	93.5
373.533	37.51
373.749	20.84
373.964	-28.56
374.179	81.49
374.394	-2.99
374.609	77.81
374.824	-17.91
375.039	57.66
375.254	-6.28
375.469	76.06
375.684	29.37
375.899	50.68
376.114	65.02
376.329	56.88
376.544	50.87
376.759	47.39
376.974	13.87
377.189	11.93
377.404	27.63
377.619	61.53
377.834	-6.47
378.049	-4.92
378.264	1.86
378.478	33.24
378.693	34.21
378.908	73.93
379.123	38.28
379.338	48.36
379.553	60.37
379.767	44.48
379.982	56.3
380.197	59.21
380.412	33.44
380.626	52.81
380.841	76.26
381.056	65.99
381.271	109.58
381.485	2.63
381.7	-7.64
381.915	30.53
382.129	33.05
382.344	47
382.559	32.86
382.773	49.32
382.988	-8.02
383.202	33.63
383.417	0.89
383.632	130.31
383.846	29.95
384.061	55.72
384.275	31.11
384.49	33.44
384.704	75.87
384.919	65.6
385.133	25.11
385.348	57.85
385.562	7.86
385.777	74.9
385.991	11.93
386.206	46.61
386.42	2.83
386.634	83.81
386.849	49.52
387.063	67.15
387.277	-9.57
387.492	35.76
387.706	14.06
387.92	-7.64
388.135	71.8
388.349	59.79
388.563	67.73
388.778	56.11
388.992	84.2
389.206	57.85
389.42	127.21
389.635	51.65
389.849	89.43
390.063	103.38
390.277	56.69
390.491	97.57
390.706	78.97
390.92	76.06
391.134	53.97
391.348	46.42
391.562	3.41
391.776	34.6
391.99	39.25
392.205	94.47
392.419	30.73
392.633	53.59
392.847	122.95
393.061	32.28
393.275	106.09
393.489	51.46
393.703	60.56
393.917	90.21
394.131	39.83
394.345	55.91
394.559	79.74
394.773	32.47
394.986	60.17
395.2	24.91
395.414	78.77
395.628	12.51
395.842	59.59
396.056	49.71
396.27	-8.99
396.484	89.24
396.697	47.19
396.911	81.1
397.125	75.67
397.339	92.34
397.553	65.41
397.766	118.69
397.98	80.13
398.194	82.84
398.408	50.49
398.621	97.76
398.835	90.79
399.049	88.46
399.262	114.81
399.476	148.91
399.69	126.05
399.903	143.29
400.117	77.81
400.331	98.54
400.544	59.21
400.758	200.45
400.971	120.82
401.185	122.37
401.398	54.94
401.612	145.62
401.826	108.22
402.039	120.43
402.253	87.88
402.466	129.92
402.68	90.98
402.893	119.07
403.106	102.41
403.32	94.47
403.533	80.13
403.747	102.41
403.96	118.3
404.174	126.44
404.387	58.24
404.6	96.79
404.814	126.24
405.027	110.55
405.24	92.34
405.454	94.86
405.667	150.65
405.88	55.91
406.094	102.99
406.307	124.11
406.52	100.28
406.733	87.3
406.947	85.75
407.16	188.82
407.373	173.71
407.586	91.76
407.799	72.57
408.012	143.49
408.226	113.07
408.439	149.3
408.652	67.73
408.865	121.21
409.078	165.96
409.291	139.03
409.504	85.56
409.717	150.46
409.93	136.32
410.143	114.04
410.357	59.21
410.57	75.29
410.783	102.02
410.996	138.64
411.209	113.84
411.421	170.03
411.634	134.19
411.847	90.59
412.06	107.84
412.273	105.32
412.486	124.5
412.699	189.99
412.912	123.72
413.125	143.87
413.338	125.47
413.55	143.49
413.763	110.55
413.976	155.89
414.189	83.42
414.402	145.04
414.615	174.1
414.827	123.14
415.04	143.29
415.253	150.27
415.466	149.69
415.678	196.19
415.891	151.82
416.104	146.78
416.316	118.88
416.529	118.3
416.742	131.28
416.954	168.87
417.167	141.74
417.38	145.04
417.592	178.17
417.805	114.42
418.017	85.17
418.23	156.66
418.442	128.37
418.655	117.33
418.868	144.65
419.08	167.51
419.293	176.04
419.505	168.09
419.718	143.29
419.93	175.45
420.142	132.44
420.355	181.27
420.567	201.61
420.78	168.87
420.992	130.89
421.205	193.28
421.417	109.39
421.629	129.54
421.842	112.68
422.054	100.67
422.266	162.09
422.479	180.1
422.691	133.6
422.903	181.65
423.115	114.81
423.328	143.87
423.54	158.99
423.752	157.82
423.964	128.18
424.177	158.02
424.389	161.5
424.601	241.72
424.813	171
425.025	186.5
425.238	166.93
425.45	155.11
425.662	127.21
425.874	461.04
426.086	169.64
426.298	205.68
426.51	162.09
426.722	173.9
426.934	140.77
427.146	198.51
427.358	130.31
427.57	200.64
427.782	155.3
427.994	140.19
428.206	177
428.418	134.57
428.63	184.75
428.842	221.18
429.054	210.72
429.266	174.1
429.478	149.49
429.69	146.78
429.902	122.95
430.114	204.71
430.325	189.99
430.537	130.7
430.749	143.29
430.961	104.16
431.173	122.76
431.384	182.24
431.596	64.63
431.808	139.22
432.02	187.08
432.231	203.35
432.443	242.88
432.655	211.88
432.867	146.97
433.078	194.05
433.29	252.37
433.502	203.16
433.713	240.55
433.925	203.74
434.136	191.15
434.348	145.81
434.56	119.46
434.771	290.93
434.983	147.17
435.194	193.86
435.406	186.3
435.617	242.88
435.829	274.27
436.04	226.22
436.252	234.93
436.463	266.13
436.675	257.6
436.886	232.22
437.098	257.22
437.309	277.56
437.521	199.09
437.732	259.35
437.943	228.15
438.155	230.67
438.366	160.15
438.578	256.05
438.789	231.83
439	234.35
439.211	218.08
439.423	255.28
439.634	251.02
439.845	243.85
440.057	233
440.268	246.56
440.479	197.15
440.69	220.98
440.902	229.32
441.113	233
441.324	209.75
441.535	268.26
441.746	281.82
441.957	201.8
442.168	234.35
442.38	260.32
442.591	284.73
442.802	231.64
443.013	243.85
443.224	270.97
443.435	234.16
443.646	256.83
443.857	241.52
444.068	217.3
444.279	218.66
444.49	290.54
444.701	249.08
444.912	365.33
445.123	314.56
445.334	295.77
445.545	290.15
445.756	253.34
445.967	221.37
446.178	273.88
446.388	279.5
446.599	296.35
446.81	313.01
447.021	246.75
447.232	281.05
447.443	331.81
447.653	264.97
447.864	297.52
448.075	248.3
448.286	280.85
448.496	319.8
448.707	330.06
448.918	276.98
449.129	384.7
449.339	249.27
449.55	292.87
449.761	271.36
449.971	325.8
450.182	282.21
450.393	324.45
450.603	277.56
450.814	324.45
451.024	326.58
451.235	325.41
451.446	354.28
451.656	405.24
451.867	276.2
452.077	346.34
452.288	355.45
452.498	366.88
452.709	301.39
452.919	335.68
453.13	288.99
453.34	344.98
453.55	264.77
453.761	332
453.971	326.58
454.182	335.3
454.392	326.96
454.602	384.7
454.813	330.06
455.023	372.5
455.233	273.88
455.444	322.12
455.654	269.62
455.864	315.34
456.075	279.5
456.285	316.31
456.495	310.11
456.705	331.61
456.916	371.91
457.126	398.46
457.336	332.58
457.546	273.68
457.756	296.93
457.967	356.41
458.177	323.28
458.387	334.91
458.597	326.96
458.807	339.17
459.017	320.57
459.227	323.28
459.437	319.21
459.647	370.36
459.857	376.76
460.068	321.93
460.278	385.09
460.488	365.13
460.698	392.64
460.908	336.26
461.117	310.3
461.327	322.31
461.537	339.36
461.747	378.31
461.957	338.59
462.167	435.46
462.377	377.92
462.587	352.93
462.797	379.47
463.007	350.41
463.216	365.13
463.426	406.98
463.636	440.69
463.846	324.64
464.056	340.91
464.265	382.76
464.475	336.46
464.685	365.52
464.895	370.95
465.104	357.77
465.314	387.8
465.524	365.13
465.733	339.36
465.943	440.11
466.153	448.06
466.362	412.21
466.572	383.35
466.782	383.73
466.991	380.25
467.201	419.77
467.41	326.58
467.62	398.84
467.829	386.25
468.039	404.66
468.249	368.62
468.458	387.41
468.668	397.49
468.877	407.95
469.086	440.89
469.296	445.93
469.505	412.6
469.715	472.08
469.924	416.09
470.134	458.91
470.343	444.76
470.552	365.91
470.762	434.49
470.971	394.97
471.18	420.35
471.39	389.16
471.599	402.53
471.808	442.24
472.018	401.36
472.227	480.61
472.436	468.01
472.645	406.4
472.855	390.71
473.064	484.87
473.273	467.24
473.482	444.76
473.691	488.36
473.901	455.81
474.11	452.71
474.319	502.5
474.528	459.68
474.737	521.87
474.946	487.77
475.155	471.5
475.364	498.04
475.573	475.76
475.783	509.09
475.992	507.73
476.201	514.9
476.41	479.25
476.619	447.09
476.828	489.32
477.037	459.49
477.245	484.09
477.454	520.13
477.663	514.12
477.872	480.22
478.081	568.76
478.29	473.63
478.499	604.41
478.708	533.5
478.917	579.22
479.125	515.09
479.334	535.05
479.543	509.28
479.752	556.75
479.961	554.81
480.169	565.47
480.378	529.04
480.587	656.53
480.796	607.7
481.004	572.83
481.213	571.47
481.422	591.43
481.63	593.75
481.839	624.56
482.048	649.36
482.256	590.65
482.465	612.35
482.674	628.44
482.882	612.16
483.091	679.58
483.299	637.15
483.508	642.77
483.716	651.68
483.925	617
484.134	593.17
484.342	598.99
484.551	645.29
484.759	646.07
484.967	623.4
485.176	662.92
485.384	667.77
485.593	654.2
485.801	655.95
486.01	647.23
486.218	625.53
486.426	529.82
486.635	585.81
486.843	545.71
487.051	584.26
487.26	587.55
487.468	633.47
487.676	629.6
487.885	610.22
488.093	637.93
488.301	646.07
488.509	649.55
488.717	701.87
488.926	658.08
489.134	655.75
489.342	716.01
489.55	634.44
489.758	701.28
489.967	646.45
490.175	773.36
490.383	696.44
490.591	750.3
490.799	684.43
491.007	746.23
491.215	727.63
491.423	700.32
491.631	707.48
491.839	719.88
492.047	772.2
492.255	668.15
492.463	668.35
492.671	684.23
492.879	747.4
493.087	733.45
493.295	727.83
493.503	765.03
493.711	779.75
493.919	778.4
494.127	770.84
494.334	779.95
494.542	678.42
494.75	734.61
494.958	739.26
495.166	834
495.374	775.3
495.581	776.07
495.789	766.38
495.997	828.19
496.205	780.91
496.412	713.49
496.62	745.46
496.828	796.22
497.035	760.76
497.243	814.24
497.451	795.83
497.658	769.29
497.866	767.55
498.074	821.41
498.281	774.91
498.489	871.78
498.696	797.19
498.904	766.38
499.112	803
499.319	860.16
499.527	770.45
499.734	832.64
499.942	753.01
500.149	774.33
500.357	805.52
500.564	743.52
500.771	803.2
500.979	777.23
501.186	775.3
501.394	785.37
501.601	799.9
501.808	791.57
502.016	770.84
502.223	795.25
502.43	793.12
502.638	797.58
502.845	765.22
503.052	859.58
503.26	797
503.467	863.06
503.674	810.56
503.881	844.27
504.089	893.48
504.296	854.73
504.503	774.52
504.71	813.08
504.917	781.3
505.125	841.17
505.332	841.56
505.539	840.2
505.746	923.12
505.953	869.65
506.16	861.32
506.367	905.69
506.574	923.71
506.781	909.95
506.988	877.01
507.195	868.49
507.402	862.48
507.609	902.39
507.816	845.04
508.023	817.15
508.23	836.52
508.437	822.76
508.644	880.69
508.851	926.61
509.058	913.82
509.265	883.79
509.472	906.66
509.679	995.2
509.885	872.56
510.092	891.74
510.299	880.31
510.506	882.63
510.713	896.97
510.92	919.25
511.126	926.42
511.333	948.51
511.54	952.57
511.746	984.16
511.953	968.66
512.16	970.98
512.367	922.54
512.573	913.44
512.78	917.7
512.987	918.67
513.193	928.16
513.4	874.49
513.606	913.05
513.813	939.01
514.02	912.08
514.226	956.84
514.433	977.76
514.639	877.21
514.846	943.86
515.052	931.26
515.259	926.81
515.465	951.22
515.672	923.51
515.878	1011.47
516.085	948.31
516.291	991.71
516.497	934.75
516.704	927.58
516.91	885.54
517.117	846.98
517.323	826.06
517.529	881.66
517.736	885.54
517.942	867.91
518.148	866.36
518.354	908.79
518.561	921.19
518.767	905.69
518.973	932.04
519.179	953.35
519.386	926.81
519.592	935.91
519.798	923.9
520.004	1016.9
520.21	961.87
520.417	1010.89
520.623	1025.62
520.829	1017.29
521.035	1029.3
521.241	1026
521.447	1066.89
521.653	1130.63
521.859	1031.24
522.065	1058.75
522.271	1152.33
522.477	1075.8
522.683	1115.52
522.889	1068.82
523.095	1099.24
523.301	1068.63
523.507	1035.11
523.713	1061.85
523.919	1039.57
524.125	1114.55
524.331	1092.46
524.537	1179.84
524.742	1135.86
524.948	1153.49
525.154	1154.65
525.36	1263.34
525.566	1144.58
525.772	1213.75
525.977	1091.3
526.183	1171.7
526.389	1174.8
526.595	1088.2
526.8	1127.33
527.006	1094.01
527.212	1022.52
527.417	1049.25
527.623	1049.64
527.829	1117.26
528.034	1102.15
528.24	1125.2
528.446	1086.65
528.651	1219.95
528.857	1206
529.062	1218.4
529.268	1157.56
529.473	1184.1
529.679	1211.81
529.884	1264.51
530.09	1219.17
530.295	1279.04
530.501	1242.81
530.706	1251.72
530.912	1220.91
531.117	1263.73
531.323	1222.46
531.528	1257.34
531.733	1272.84
531.939	1249.2
532.144	1267.03
532.35	1271.68
532.555	1310.04
532.76	1278.46
532.966	1282.33
533.171	1249.4
533.376	1223.63
533.581	1231.96
533.787	1259.08
533.992	1264.7
534.197	1290.08
534.402	1235.06
534.607	1280.98
534.813	1375.14
535.018	1280.39
535.223	1247.46
535.428	1297.44
535.633	1328.44
535.838	1305
536.043	1329.22
536.249	1394.51
536.454	1291.63
536.659	1335.03
536.864	1302.09
537.069	1314.49
537.274	1335.23
537.479	1306.94
537.684	1325.93
537.889	1290.66
538.094	1406.72
538.299	1315.27
538.504	1322.24
538.708	1329.99
538.913	1342.01
539.118	1349.76
539.323	1347.24
539.528	1321.47
539.733	1351.5
539.938	1341.04
540.142	1361.77
540.347	1320.89
540.552	1289.69
540.757	1298.41
540.962	1296.48
541.166	1262.96
541.371	1262.76
541.576	1314.49
541.781	1228.66
541.985	1313.53
542.19	1327.86
542.395	1385.79
542.599	1393.74
542.804	1391.41
543.008	1415.44
543.213	1344.72
543.418	1333.09
543.622	1366.42
543.827	1303.45
544.031	1404.01
544.236	1437.14
544.44	1372.62
544.645	1478.02
544.849	1372.62
545.054	1413.5
545.258	1494.1
545.463	1422.61
545.667	1368.74
545.872	1406.33
546.076	1416.21
546.281	1429
546.485	1373.78
546.689	1408.07
546.894	1449.92
547.098	1443.92
547.302	1369.52
547.507	1383.27
547.711	1390.25
547.915	1435.2
548.119	1395.67
548.324	1385.21
548.528	1426.48
548.732	1378.24
548.936	1421.25
549.141	1448.18
549.345	1407.69
549.549	1422.41
549.753	1417.37
549.957	1492.74
550.161	1475.5
550.366	1434.81
550.57	1399.16
550.774	1399.55
550.978	1403.62
551.182	1429.19
551.386	1400.13
551.59	1364.48
551.794	1406.52
551.998	1419.89
552.202	1411.56
552.406	1405.36
552.61	1437.72
552.814	1454.77
553.018	1471.24
553.222	1395.87
553.426	1399.36
553.63	1483.83
553.833	1395.48
554.037	1381.92
554.241	1448.76
554.445	1422.02
554.649	1418.73
554.853	1382.69
555.056	1460.77
555.26	1472.2
555.464	1460
555.668	1452.25
555.871	1449.15
556.075	1472.2
556.279	1422.02
556.483	1368.74
556.686	1409.24
556.89	1394.32
557.094	1414.86
557.297	1339.1
557.501	1424.16
557.704	1362.16
557.908	1450.89
558.112	1354.21
558.315	1433.46
558.519	1369.13
558.722	1403.81
558.926	1373.2
559.129	1319.53
559.333	1290.28
559.536	1313.72
559.74	1286.59
559.943	1313.91
560.147	1299.38
560.35	1289.5
560.553	1331.35
560.757	1254.82
560.96	1379.4
561.164	1326.31
561.367	1408.07
561.57	1324.57
561.774	1336.19
561.977	1321.47
562.18	1310.62
562.384	1403.04
562.587	1303.06
562.79	1302.48
562.993	1305.97
563.197	1357.12
563.4	1392.96
563.603	1374.56
563.806	1429.97
564.009	1272.84
564.212	1349.76
564.416	1280.78
564.619	1357.89
564.822	1251.91
565.025	1320.69
565.228	1271.09
565.431	1293.18
565.634	1240.1
565.837	1279.04
566.04	1225.95
566.243	1256.95
566.446	1183.71
566.649	1290.08
566.852	1232.93
567.055	1246.49
567.258	1267.61
567.461	1349.95
567.664	1313.91
567.867	1229.05
568.07	1274.19
568.273	1255.98
568.475	1293.96
568.678	1209.1
568.881	1228.86
569.084	1231.76
569.287	1146.13
569.489	1168.02
569.692	1260.24
569.895	1253.08
570.098	1164.53
570.3	1164.73
570.503	1122.1
570.706	1137.22
570.909	1130.05
571.111	1123.65
571.314	1125.78
571.516	1124.23
571.719	1148.65
571.922	1140.12
572.124	1126.95
572.327	1149.62
572.529	1072.89
572.732	1082.58
572.935	1131.4
573.137	1179.65
573.34	1107.18
573.542	1137.22
573.745	1134.89
573.947	1116.87
574.15	1131.79
574.352	1063.4
574.554	1157.56
574.757	1086.45
574.959	1083.16
575.162	1096.14
575.364	1065.53
575.566	1144.77
575.769	1070.57
575.971	1076.96
576.173	989.19
576.376	1071.15
576.578	1110.28
576.78	1113.58
576.982	1021.74
577.185	1068.24
577.387	1046.74
577.589	1029.88
577.791	1072.12
577.993	1085.48
578.196	1020.97
578.398	1092.46
578.6	1066.11
578.802	1005.47
579.004	1016.9
579.206	1022.71
579.408	1059.14
579.61	982.61
579.812	1061.46
580.014	1031.24
580.216	1041.31
580.418	1055.07
580.62	1017.48
580.822	981.83
581.024	1026.59
581.226	1066.89
581.428	1013.22
581.63	1089.55
581.832	1005.47
582.034	1104.47
582.236	1061.07
582.438	1062.62
582.64	1084.32
582.841	1088
583.043	1093.23
583.245	1063.4
583.447	1042.47
583.649	1050.22
583.85	1073.67
584.052	1110.87
584.254	1030.07
584.456	1107.96
584.657	1022.13
584.859	1060.49
585.061	1055.84
585.262	1023.68
585.464	1018.25
585.666	1075.99
585.867	1025.04
586.069	1101.18
586.27	1053.52
586.472	1055.84
586.674	1001.59
586.875	1025.62
587.077	1014.57
587.278	1033.37
587.48	992.87
587.681	1115.32
587.883	1060.1
588.084	967.69
588.285	1010.5
588.487	996.94
588.688	978.15
588.89	944.63
589.091	925.84
589.292	958.58
589.494	886.51
589.695	892.9
589.896	858.8
590.098	806.1
590.299	880.31
590.5	849.11
590.702	887.86
590.903	912.47
591.104	951.02
591.305	948.7
591.507	962.46
591.708	968.46
591.909	924.87
592.11	1005.27
592.311	959.55
592.512	937.07
592.714	916.73
592.915	936.69
593.116	915.76
593.317	925.45
593.518	919.44
593.719	912.86
593.92	939.4
594.121	975.82
594.322	970.21
594.523	951.61
594.724	936.49
594.925	933.59
595.126	908.79
595.327	937.07
595.528	955.29
595.729	913.05
595.929	910.34
596.13	927.39
596.331	926.81
596.532	963.62
596.733	975.44
596.934	985.71
597.135	953.93
597.335	982.02
597.536	915.76
597.737	946.96
597.938	901.62
598.138	930.29
598.339	917.31
598.54	960.13
598.74	926.61
598.941	934.94
599.142	976.41
599.342	960.52
599.543	902.78
599.744	934.17
599.944	884.76
600.145	901.81
600.345	927
600.546	1003.72
600.746	1001.2
600.947	993.46
601.147	934.75
601.348	982.02
601.548	896
601.749	946.37
601.949	905.49
602.15	887.86
602.35	897.36
602.551	947.34
602.751	865.97
602.951	923.9
603.152	875.66
603.352	941.92
603.552	912.66
603.753	961.29
603.953	933.2
604.153	942.89
604.354	930.29
604.554	926.42
604.754	923.71
604.954	888.25
605.155	915.57
605.355	907.82
605.555	940.95
605.755	960.52
605.955	952.38
606.155	971.56
606.356	926.03
606.556	937.46
606.756	923.71
606.956	870.43
607.156	975.24
607.356	885.34
607.556	926.22
607.756	919.25
607.956	953.74
608.156	902.98
608.356	885.73
608.556	929.71
608.756	902.2
608.956	889.99
609.156	911.31
609.356	840.01
609.556	864.61
609.755	890.58
609.955	843.3
610.155	901.81
610.355	881.28
610.555	849.11
610.755	871.2
610.954	823.73
611.154	918.67
611.354	915.57
611.554	829.16
611.753	859.19
611.953	813.08
612.153	894.64
612.352	880.31
612.552	851.83
612.752	794.28
612.951	842.14
613.151	843.3
613.351	851.83
613.55	837.29
613.75	860.93
613.949	828.77
614.149	851.63
614.348	844.27
614.548	840.59
614.747	773.94
614.947	820.05
615.146	773.55
615.346	866.36
615.545	859.77
615.745	848.92
615.944	855.31
616.144	826.83
616.343	857.06
616.542	797.58
616.742	828.77
616.941	769.68
617.14	771.23
617.34	785.76
617.539	822.38
617.738	808.23
617.938	867.91
618.137	783.82
618.336	761.73
618.535	834.78
618.734	790.21
618.934	815.98
619.133	815.6
619.332	789.25
619.531	783.24
619.73	792.35
619.929	849.31
620.128	824.89
620.328	834.58
620.527	780.53
620.726	795.25
620.925	837.88
621.124	797.19
621.323	827.22
621.522	778.2
621.721	759.6
621.92	741
622.119	792.35
622.318	769.68
622.517	783.43
622.715	782.85
622.914	735
623.113	781.5
623.312	722.4
623.511	786.15
623.71	773.36
623.909	753.6
624.107	818.89
624.306	723.95
624.505	760.18
624.704	744.88
624.902	741.2
625.101	804.75
625.3	773.36
625.499	713.88
625.697	734.61
625.896	728.99
626.095	763.09
626.293	724.53
626.492	746.62
626.69	762.7
626.889	709.03
627.088	782.66
627.286	716.01
627.485	736.35
627.683	688.3
627.882	732.87
628.08	661.57
628.279	708.65
628.477	753.98
628.676	690.43
628.874	718.53
629.073	682.1
629.271	689.66
629.469	718.14
629.668	695.86
629.866	694.7
630.065	696.44
630.263	719.11
630.461	679.78
630.66	727.83
630.858	712.91
631.056	760.38
631.254	744.49
631.453	656.92
631.651	721.43
631.849	716.01
632.047	734.22
632.245	716.78
632.444	706.9
632.642	722.6
632.84	735.38
633.038	690.43
633.236	698.96
633.434	652.07
633.632	665.44
633.83	688.3
634.028	746.62
634.227	706.9
634.425	764.64
634.623	716.2
634.821	719.88
635.019	708.45
635.216	703.8
635.414	732.48
635.612	708.07
635.81	692.76
636.008	773.75
636.206	684.23
636.404	709.81
636.602	655.37
636.8	710.2
636.997	723.95
637.195	743.71
637.393	727.25
637.591	768.9
637.789	744.88
637.986	705.55
638.184	710.58
638.382	761.93
638.58	751.08
638.777	806.49
638.975	711.36
639.173	726.47
639.37	730.15
639.568	716.98
639.765	754.37
639.963	740.61
640.161	712.13
640.358	757.47
640.556	693.92
640.753	685.59
640.951	658.27
641.148	706.52
641.346	686.56
641.543	687.92
641.741	704.97
641.938	653.82
642.136	670.87
642.333	648.78
642.531	736.55
642.728	745.65
642.925	673
643.123	681.13
643.32	699.73
643.517	679.97
643.715	695.28
643.912	648.58
644.109	685.59
644.306	714.65
644.504	654.4
644.701	693.34
644.898	694.7
645.095	636.57
645.293	692.18
645.49	719.88
645.687	680.36
645.884	715.62
646.081	649.55
646.278	631.54
646.475	623.98
646.672	657.3
646.87	686.17
647.067	663.5
647.264	636.19
647.461	591.04
647.658	595.5
647.855	663.5
648.052	629.21
648.249	568.18
648.446	628.82
648.642	623.2
648.839	594.14
649.036	615.07
649.233	569.92
649.43	591.43
649.627	582.13
649.824	604.6
650.021	591.43
650.217	592.79
650.414	562.95
650.611	615.84
650.808	623.79
651.004	605.38
651.201	635.99
651.398	669.7
651.595	619.14
651.791	596.66
651.988	646.65
652.185	586.59
652.381	665.63
652.578	569.92
652.775	602.86
652.971	586.2
653.168	607.7
653.364	605.19
653.561	544.35
653.757	619.33
653.954	593.75
654.15	575.74
654.347	638.7
654.543	585.04
654.74	554.42
654.936	551.52
655.133	591.43
655.329	602.09
655.525	603.05
655.722	595.5
655.918	556.75
656.115	592.79
656.311	522.65
656.507	501.14
656.704	516.64
656.9	536.79
657.096	525.17
657.292	495.72
657.489	566.05
657.685	581.35
657.881	518.97
658.077	510.06
658.273	528.07
658.47	619.33
658.666	567.02
658.862	552.49
659.058	542.61
659.254	613.52
659.45	541.25
659.646	569.73
659.842	539.89
660.038	614.49
660.234	542.22
660.43	571.47
660.626	631.34
660.822	585.04
661.018	599.76
661.214	584.26
661.41	524.78
661.606	581.74
661.802	606.74
661.998	563.14
662.194	543.77
662.39	572.25
662.586	608.29
662.781	585.62
662.977	584.84
663.173	595.69
663.369	562.75
663.564	539.89
663.76	632.5
663.956	535.24
664.152	608.09
664.347	484.87
664.543	591.82
664.739	559.07
664.934	515.67
665.13	485.84
665.326	592.98
665.521	590.85
665.717	536.21
665.912	544.35
666.108	483.71
666.304	507.73
666.499	534.08
666.695	465.49
666.89	554.81
667.086	577.48
667.281	568.76
667.477	599.37
667.672	538.73
667.867	527.11
668.063	563.14
668.258	507.73
668.454	534.08
668.649	590.27
668.844	535.63
669.04	530.79
669.235	505.99
669.43	551.32
669.626	503.27
669.821	506.57
670.016	515.09
670.211	525.75
670.407	530.4
670.602	543.96
670.797	520.71
670.992	575.54
671.187	505.6
671.382	572.44
671.578	524.59
671.773	530.59
671.968	499.59
672.163	517.22
672.358	526.14
672.553	492.23
672.748	500.37
672.943	561.98
673.138	490.29
673.333	538.92
673.528	504.05
673.723	540.86
673.918	513.16
674.113	467.63
674.308	560.24
674.503	534.47
674.698	552.87
674.892	519.55
675.087	555.78
675.282	516.06
675.477	492.62
675.672	572.64
675.867	514.51
676.061	468.79
676.256	453.09
676.451	486.42
676.646	510.25
676.84	487.19
677.035	439.73
677.23	479.64
677.424	497.27
677.619	553.65
677.814	555.59
678.008	532.72
678.203	433.14
678.397	448.06
678.592	500.76
678.787	583.29
678.981	460.84
679.176	514.71
679.37	499.98
679.565	456.58
679.759	479.64
679.954	528.07
680.148	549.97
680.342	545.51
680.537	525.36
680.731	512.96
680.926	534.47
681.12	536.79
681.314	476.15
681.509	472.08
681.703	507.34
681.897	509.28
682.092	469.37
682.286	466.08
682.48	563.92
682.674	532.34
682.869	465.69
683.063	499.79
683.257	563.14
683.451	471.31
683.645	504.63
683.839	460.46
684.034	488.55
684.228	512.19
684.422	449.99
684.616	425.97
684.81	509.28
685.004	486.61
685.198	499.01
685.392	523.81
685.586	478.67
685.78	490.29
685.974	524.01
686.168	493.2
686.362	576.7
686.556	470.34
686.75	451.93
686.944	456.78
687.138	485.26
687.331	384.7
687.525	418.41
687.719	350.6
687.913	384.7
688.107	430.62
688.301	387.8
688.494	400.98
688.688	362.42
688.882	338.2
689.076	337.81
689.269	387.41
689.463	472.66
689.657	397.49
689.85	404.08
690.044	417.64
690.238	396.71
690.431	438.56
690.625	392.26
690.818	406.01
691.012	427.33
691.205	458.33
691.399	407.18
691.593	428.88
691.786	473.24
691.98	523.04
692.173	513.16
692.366	487.39
692.56	489.52
692.753	517.03
692.947	428.29
693.14	532.53
693.333	499.59
693.527	445.15
693.72	474.41
693.914	496.11
694.107	496.49
694.3	510.44
694.493	490.68
694.687	522.07
694.88	459.49
695.073	565.47
695.266	537.57
695.46	495.91
695.653	553.07
695.846	559.66
696.039	426.55
696.232	470.92
696.425	564.11
696.618	574.19
696.812	545.9
697.005	597.24
697.198	683.46
697.391	570.89
697.584	602.28
697.777	663.31
697.97	622.04
698.163	618.94
698.356	622.62
698.549	691.02
698.742	696.83
698.935	611.19
699.127	664.47
699.32	589.49
699.513	604.22
699.706	667.38
699.899	625.92
700.092	629.79
700.285	673.58
700.477	614.29
700.67	668.35
700.863	699.93
701.056	764.83
701.248	724.92
701.441	723.95
701.634	674.55
701.826	780.91
702.019	673.97
702.212	745.65
702.404	694.12
702.597	727.05
702.79	709.62
702.982	765.03
703.175	780.72
703.367	752.05
703.56	804.55
703.752	885.54
703.945	803.58
704.137	819.66
704.33	868.1
704.522	851.83
704.715	828.96
704.907	861.71
705.1	866.55
705.292	918.67
705.484	850.66
705.677	905.69
705.869	872.36
706.061	933.39
706.254	949.47
706.446	896.97
706.638	927
706.831	958.77
707.023	953.74
707.215	1019.22
707.407	1008.57
707.599	1029.49
707.792	1063.79
707.984	1025.62
708.176	1058.36
708.368	1044.02
708.56	1049.45
708.752	1058.94
708.944	1039.37
709.136	1032.2
709.329	1072.7
709.521	1156.2
709.713	1126.75
709.905	1161.05
710.097	1161.24
710.289	1098.08
710.481	1123.85
710.672	1170.54
710.864	1168.99
711.056	1216.85
711.248	1203.09
711.44	1199.41
711.632	1209.29
711.824	1239.9
712.016	1283.88
712.207	1267.22
712.399	1265.48
712.591	1327.28
712.783	1282.53
712.975	1325.93
713.166	1249.4
713.358	1301.13
713.55	1356.15
713.741	1349.95
713.933	1348.98
714.125	1372.62
714.316	1323.79
714.508	1385.79
714.7	1385.02
714.891	1381.53
715.083	1456.32
715.274	1396.26
715.466	1419.89
715.657	1448.37
715.849	1327.48
716.04	1399.36
716.232	1362.16
716.423	1434.04
716.615	1380.76
716.806	1317.21
716.998	1318.56
717.189	1270.32
717.381	1246.68
717.572	1201.73
717.763	1243.2
717.955	1212.39
718.146	1177.9
718.337	1173.25
718.528	1141.09
718.72	1086.65
718.911	1191.27
719.102	1147.87
719.293	1211.03
719.485	1158.33
719.676	1171.9
719.867	1139.93
720.058	1148.07
720.249	1131.6
720.44	1181
720.632	1214.52
720.823	1248.23
721.014	1342.78
721.205	1312.56
721.396	1400.52
721.587	1462.52
721.778	1459.22
721.969	1502.43
722.16	1525.48
722.351	1559.58
722.542	1680.87
722.733	1642.31
722.924	1575.08
723.115	1666.15
723.305	1629.33
723.496	1642.7
723.687	1537.3
723.878	1530.72
724.069	1539.05
724.26	1594.46
724.45	1521.42
724.641	1538.08
724.832	1563.46
725.023	1539.63
725.213	1549.9
725.404	1504.75
725.595	1571.79
725.785	1512.12
725.976	1583.22
726.167	1595.04
726.357	1565.01
726.548	1679.9
726.739	1605.7
726.929	1658.4
727.12	1697.73
727.31	1720.2
727.501	1666.53
727.691	1697.53
727.882	1678.16
728.072	1741.32
728.263	1739.77
728.453	1789.76
728.644	1788.01
728.834	1770.38
729.024	1716.33
729.215	1745
729.405	1795.57
729.596	1854.86
729.786	1886.82
729.976	1875.78
730.167	1859.12
730.357	1855.44
730.547	1856.02
730.737	1907.17
730.928	1922.28
731.118	1953.09
731.308	1937.2
731.498	1933.52
731.688	1965.87
731.879	2003.27
732.069	2030.39
732.259	2071.66
732.449	2114.67
732.639	2162.72
732.829	2193.14
733.019	2211.16
733.209	2302.8
733.399	2287.11
733.589	2298.73
733.779	2360.54
733.969	2317.33
734.159	2406.45
734.349	2441.72
734.539	2510.3
734.729	2485.89
734.919	2505.65
735.109	2519.8
735.299	2480.66
735.488	2511.66
735.678	2545.18
735.868	2488.6
736.058	2513.21
736.248	2535.88
736.437	2495.58
736.627	2495.77
736.817	2603.11
737.007	2538.78
737.196	2588.19
737.386	2558.93
737.576	2584.12
737.765	2614.54
737.955	2631.2
738.144	2710.25
738.334	2703.66
738.524	2656.58
738.713	2667.24
738.903	2622.68
739.092	2704.05
739.282	2708.89
739.471	2727.88
739.661	2700.76
739.85	2789.88
740.04	2737.57
740.229	2794.34
740.419	2801.7
740.608	2840.83
740.797	2811
740.987	2872.8
741.176	2874.74
741.365	2817
741.555	2766.44
741.744	2884.62
741.933	2852.46
742.123	2878.23
742.312	2880.94
742.501	2928.41
742.69	2946.04
742.88	2867.96
743.069	2924.53
743.258	2942.16
743.447	2968.13
743.636	2987.11
743.825	2922.79
744.014	2988.08
744.204	2937.71
744.393	2914.27
744.582	3028.19
744.771	3049.89
744.96	2969.1
745.149	3021.99
745.338	2987.11
745.527	3056.09
745.716	2985.95
745.905	2992.15
746.094	3088.25
746.283	3027.8
746.471	3041.75
746.66	3119.83
746.849	3138.82
747.038	3114.6
747.227	3019.08
747.416	3104.72
747.604	3019.28
747.793	3055.31
747.982	3079.92
748.171	3056.09
748.359	3083.21
748.548	3056.67
748.737	3061.13
748.926	3045.63
749.114	3006.88
749.303	3089.22
749.491	3004.36
749.68	3032.45
749.869	3091.93
750.057	3033.81
750.246	3013.27
750.434	3033.03
750.623	3058.61
750.811	3050.28
751	3087.86
751.188	3012.49
751.377	3077.21
751.565	3018.69
751.754	3001.65
751.942	2999.51
752.131	3080.69
752.319	2967.55
752.507	2953.6
752.696	3034.58
752.884	3037.29
753.072	3007.07
753.261	3037.1
753.449	3004.16
753.637	2957.28
753.825	3095.81
754.014	3030.71
754.202	2998.55
754.39	3079.34
754.578	3067.52
754.766	3007.07
754.955	2994.86
755.143	3101.04
755.331	3010.17
755.519	3005.71
755.707	3029.74
755.895	2966
756.083	3015.79
756.271	2969.1
756.459	2941.58
756.647	3051.83
756.835	2964.06
757.023	2954.37
757.211	2912.13
757.399	2943.33
757.587	2913.49
757.775	2918.53
757.963	2964.64
758.151	2915.04
758.339	2910.78
758.526	2868.54
758.714	2894.31
758.902	2815.65
759.09	2761.4
759.278	2573.27
759.465	2381.65
759.653	2086
759.841	1865.12
760.028	1611.31
760.216	1424.16
760.404	1345.3
760.591	1078.9
760.779	916.92
760.967	787.5
761.154	648.39
761.342	704
761.529	693.92
761.717	742.75
761.905	714.85
762.092	796.41
762.28	723.57
762.467	724.73
762.655	668.54
762.842	717.56
763.029	722.6
763.217	720.66
763.404	729.96
763.592	745.26
763.779	680.17
763.966	712.13
764.154	780.53
764.341	836.71
764.528	852.02
764.716	885.54
764.903	951.41
765.09	974.08
765.277	1023.49
765.465	1181.39
765.652	1239.13
765.839	1278.26
766.026	1394.32
766.213	1416.21
766.4	1537.11
766.588	1725.43
766.775	1696.95
766.962	1816.11
767.149	1845.56
767.336	1982.34
767.523	1975.56
767.71	2064.49
767.897	2185
768.084	2248.74
768.271	2256.49
768.458	2327.79
768.645	2397.93
768.832	2406.07
769.019	2403.35
769.206	2428.93
769.392	2464.19
769.579	2588.77
769.766	2525.8
769.953	2482.6
770.14	2560.1
770.327	2552.54
770.513	2616.86
770.7	2679.06
770.887	2570.56
771.073	2638.95
771.26	2629.26
771.447	2590.32
771.634	2580.63
771.82	2693.2
772.007	2587.03
772.193	2609.11
772.38	2652.71
772.567	2611.24
772.753	2630.81
772.94	2673.82
773.126	2722.65
773.313	2691.26
773.499	2678.86
773.686	2669.37
773.872	2641.28
774.059	2621.32
774.245	2526.96
774.432	2602.14
774.618	2565.13
774.804	2613.76
774.991	2567.07
775.177	2625.39
775.363	2613.57
775.55	2621.13
775.736	2541.11
775.922	2570.75
776.109	2605.43
776.295	2559.32
776.481	2570.17
776.667	2622.87
776.853	2558.74
777.04	2579.86
777.226	2560.87
777.412	2642.83
777.598	2558.74
777.784	2551.57
777.97	2536.65
778.156	2553.51
778.342	2524.45
778.528	2510.3
778.715	2441.33
778.901	2493.25
779.087	2513.21
779.272	2470.58
779.458	2480.27
779.644	2481.05
779.83	2471.75
780.016	2546.92
780.202	2515.53
780.388	2446.37
780.574	2388.44
780.76	2437.45
780.946	2482.21
781.131	2446.75
781.317	2480.85
781.503	2399.48
781.689	2435.71
781.874	2553.31
782.06	2413.82
782.246	2433
782.432	2427.38
782.617	2440.55
782.803	2459.35
782.989	2362.86
783.174	2405.87
783.36	2334.57
783.545	2375.26
783.731	2373.52
783.916	2328.95
784.102	2399.09
784.288	2320.82
784.473	2374.49
784.659	2319.65
784.844	2398.9
785.029	2296.6
785.215	2306.67
785.4	2285.17
785.586	2400.45
785.771	2289.62
785.956	2356.47
786.142	2294.47
786.327	2280.91
786.512	2305.71
786.698	2303.77
786.883	2261.92
787.068	2265.21
787.254	2258.24
787.439	2280.91
787.624	2232.86
787.809	2209.8
787.994	2225.3
788.18	2263.66
788.365	2195.66
788.55	2228.79
788.735	2193.33
788.92	2199.34
789.105	2169.31
789.29	2250.1
789.475	2092.78
789.66	2141.02
789.845	2128.23
790.03	2133.27
790.215	2166.4
790.4	2172.99
790.585	2181.71
790.77	2144.12
790.955	2111.18
791.14	2115.64
791.325	2183.84
791.51	2031.75
791.695	2141.21
791.879	2089.87
792.064	2040.47
792.249	2149.35
792.434	2077.66
792.618	2101.88
792.803	2115.25
792.988	2081.15
793.173	2102.08
793.357	2157.49
793.542	2058.87
793.727	2104.21
793.911	2153.23
794.096	2089.29
794.281	2112.15
794.465	2196.24
794.65	2102.66
794.834	2145.48
795.019	2191.98
795.203	2209.41
795.388	2136.18
795.572	2205.73
795.757	2132.5
795.941	2131.91
796.126	2173.76
796.31	2094.52
796.494	2147.8
796.679	2090.84
796.863	2078.63
797.048	2180.54
797.232	2142.76
797.416	2150.71
797.601	2123
797.785	2174.15
797.969	2190.62
798.153	2133.85
798.338	2162.91
798.522	2209.61
798.706	2177.25
798.89	2192.94
799.074	2267.34
799.258	2240.02
799.443	2175.89
799.627	2176.48
799.811	2221.42
799.995	2158.46
800.179	2124.55
800.363	2142.57
800.547	2160.01
800.731	2189.84
800.915	2122.42
801.099	2139.66
801.283	2130.17
801.467	2132.88
801.651	2154.39
801.835	2172.79
802.019	2118.55
802.202	2185.19
802.386	2126.3
802.57	2122.42
802.754	2115.45
802.938	2113.7
803.121	2105.76
803.305	2175.89
803.489	2123.97
803.673	2145.09
803.856	2123.2
804.04	2127.85
804.224	2167.76
804.407	2116.41
804.591	2115.06
804.775	2134.63
804.958	2144.12
805.142	2204.76
805.326	2146.06
805.509	2138.69
805.693	2182.09
805.876	2179.38
806.06	2156.91
806.243	2187.71
806.427	2189.07
806.61	2212.71
806.794	2131.33
806.977	2189.26
807.16	2175.51
807.344	2181.32
807.527	2150.9
807.71	2128.81
807.894	2147.61
808.077	2203.41
808.26	2079.6
808.444	2107.89
808.627	2130.95
808.81	2095.49
808.993	2064.88
809.177	2057.13
809.36	2073.01
809.543	2078.25
809.726	2007.14
809.909	2020.12
810.092	2020.12
810.276	2007.92
810.459	2039.11
810.642	1994.93
810.825	1938.55
811.008	2014.12
811.191	1913.17
811.374	1925.19
811.557	1917.05
811.74	1980.4
811.923	1887.99
812.106	1884.3
812.289	1848.46
812.472	1885.85
812.654	1898.84
812.837	1832.57
813.02	1809.32
813.203	1790.53
813.386	1662.08
813.569	1699.08
813.751	1608.22
813.934	1637.86
814.117	1641.93
814.3	1623.71
814.482	1574.89
814.665	1511.34
814.848	1522.58
815.03	1430.16
815.213	1472.2
815.396	1438.3
815.578	1402.26
815.761	1403.42
815.943	1493.13
816.126	1354.21
816.309	1345.3
816.491	1329.03
816.674	1261.21
816.856	1296.28
817.039	1304.23
817.221	1398.77
817.403	1336.19
817.586	1318.18
817.768	1364.67
817.951	1276.33
818.133	1280.59
818.315	1299.38
818.498	1321.28
818.68	1379.59
818.862	1355.57
819.045	1360.41
819.227	1383.08
819.409	1318.56
819.591	1374.56
819.774	1354.6
819.956	1336.78
820.138	1391.61
820.32	1359.06
820.502	1434.42
820.684	1455.54
820.866	1480.54
821.048	1502.43
821.231	1525.68
821.413	1553.58
821.595	1509.4
821.777	1538.08
821.959	1518.9
822.141	1554.35
822.323	1425.9
822.505	1406.33
822.686	1346.85
822.868	1313.72
823.05	1199.02
823.232	1196.7
823.414	1139.15
823.596	1207.74
823.778	1175.96
823.96	1224.98
824.141	1231.57
824.323	1221.3
824.505	1293.57
824.687	1316.43
824.868	1342.2
825.05	1444.11
825.232	1487.32
825.413	1556.1
825.595	1494.29
825.777	1400.52
825.958	1467.36
826.14	1460.97
826.321	1507.66
826.503	1451.47
826.685	1480.15
826.866	1527.81
827.048	1521.03
827.229	1465.81
827.411	1415.82
827.592	1348.79
827.773	1372.04
827.955	1347.24
828.136	1332.9
828.318	1297.44
828.499	1321.86
828.68	1294.34
828.862	1340.84
829.043	1341.81
829.224	1320.31
829.406	1299.38
829.587	1314.3
829.768	1298.22
829.949	1313.33
830.131	1314.88
830.312	1339.49
830.493	1327.67
830.674	1353.82
830.855	1308.68
831.036	1290.28
831.218	1381.92
831.399	1374.56
831.58	1337.16
831.761	1337.74
831.942	1371.07
832.123	1308.68
832.304	1299.96
832.485	1288.73
832.666	1317.79
832.847	1313.72
833.028	1328.64
833.209	1324.57
833.389	1321.86
833.57	1298.22
833.751	1298.99
833.932	1351.31
834.113	1330.19
834.294	1281.75
834.475	1340.46
834.655	1361.96
834.836	1375.52
835.017	1341.43
835.198	1260.83
835.378	1364.48
835.559	1388.89
835.74	1344.72
835.92	1339.68
836.101	1316.63
836.281	1363.12
836.462	1374.36
836.643	1392.57
836.823	1383.27
837.004	1413.69
837.184	1446.82
837.365	1395.48
837.545	1430.55
837.726	1339.29
837.906	1431.13
838.087	1390.64
838.267	1397.61
838.448	1318.37
838.628	1391.61
838.808	1378.43
838.989	1422.8
839.169	1370.68
839.349	1389.47
839.53	1425.12
839.71	1408.07
839.89	1364.09
840.07	1439.85
840.251	1394.9
840.431	1398.77
840.611	1401.68
840.791	1336.97
840.971	1385.21
841.151	1379.59
841.332	1317.01
841.512	1396.06
841.692	1322.05
841.872	1402.07
842.052	1354.41
842.232	1410.4
842.412	1312.17
842.592	1356.92
842.772	1380.95
842.952	1368.55
843.132	1343.56
843.312	1321.66
843.492	1335.03
843.672	1370.49
843.851	1311.98
844.031	1376.49
844.211	1367.58
844.391	1329.03
844.571	1362.74
844.751	1411.95
844.93	1340.84
845.11	1348.59
845.29	1336
845.47	1388.51
845.649	1354.21
845.829	1377.46
846.009	1329.41
846.188	1338.13
846.368	1339.68
846.547	1292.99
846.727	1374.94
846.907	1309.65
847.086	1337.16
847.266	1359.83
847.445	1339.1
847.625	1306.55
847.804	1296.28
847.984	1322.63
848.163	1329.8
848.343	1288.14
848.522	1358.47
848.701	1325.93
848.881	1306.94
849.06	1328.25
849.239	1310.62
849.419	1316.82
849.598	1243
849.777	1231.96
849.957	1230.21
850.136	1174.41
850.315	1160.85
850.494	1195.53
850.674	1163.76
850.853	1249.98
851.032	1222.27
851.211	1256.76
851.39	1201.35
851.569	1160.66
851.748	1204.45
851.927	1265.86
852.107	1224.6
852.286	1157.56
852.465	1175.58
852.644	1244.36
852.823	1187.59
853.002	1202.12
853.181	1213.94
853.359	1199.99
853.538	1178.87
853.717	1224.98
853.896	1114.35
854.075	1103.7
854.254	1022.9
854.433	1030.27
854.611	1083.74
854.79	1020
854.969	1062.24
855.148	1072.7
855.327	1048.09
855.505	1112.22
855.684	1070.37
855.863	1121.72
856.041	1084.32
856.22	1135.86
856.399	1079.67
856.577	1194.76
856.756	1163.57
856.934	1237.58
857.113	1259.28
857.291	1167.63
857.47	1145.93
857.648	1160.47
857.827	1195.92
858.005	1189.72
858.184	1162.02
858.362	1212.97
858.541	1139.54
858.719	1141.48
858.898	1162.4
859.076	1134.5
859.254	1194.56
859.433	1125.78
859.611	1125.78
859.789	1112.22
859.967	1178.48
860.146	1191.27
860.324	1099.63
860.502	1111.45
860.68	1081.8
860.859	1100.4
861.037	1104.67
861.215	1142.64
861.393	1118.23
861.571	1116.48
861.749	1109.9
861.927	1136.25
862.105	1120.36
862.283	1089.75
862.461	1074.83
862.639	1075.02
862.817	1063.98
862.995	1106.8
863.173	1068.05
863.351	1086.45
863.529	1113.19
863.707	1113.58
863.885	1095.17
864.063	1040.54
864.241	1055.07
864.418	1111.45
864.596	1069.4
864.774	1025.81
864.952	1049.64
865.129	1061.46
865.307	1036.66
865.485	1005.08
865.663	1073.67
865.84	998.88
866.018	1013.41
866.196	912.27
866.373	925.26
866.551	890.19
866.728	816.76
866.906	911.31
867.084	922.35
867.261	963.42
867.439	980.67
867.616	997.33
867.794	981.06
867.971	994.62
868.149	966.14
868.326	1045.19
868.503	1015.54
868.681	999.65
868.858	974.47
869.035	970.59
869.213	1016.12
869.39	971.56
869.567	1037.24
869.745	982.22
869.922	998.49
870.099	1024.84
870.276	1006.44
870.454	1034.34
870.631	1030.27
870.808	1001.01
870.985	1006.82
871.162	1027.55
871.339	1018.06
871.517	941.53
871.694	954.32
871.871	994.81
872.048	980.28
872.225	955.09
872.402	966.52
872.579	953.54
872.756	992.68
872.933	918.47
873.11	983.77
873.287	948.89
873.463	902.59
873.64	893.09
873.817	941.92
873.994	952.19
874.171	912.86
874.348	944.24
874.524	877.01
874.701	948.31
874.878	855.7
875.055	909.95
875.231	919.64
875.408	938.82
875.585	841.75
875.762	925.45
875.938	909.18
876.115	863.45
876.291	875.46
876.468	889.03
876.645	839.81
876.821	873.14
876.998	869.65
877.174	891.35
877.351	863.06
877.527	858.8
877.704	909.95
877.88	889.8
878.057	861.9
878.233	902.59
878.409	879.73
878.586	887.28
878.762	849.31
878.938	882.44
879.115	827.41
879.291	861.71
879.467	787.5
879.644	829.74
879.82	883.41
879.996	854.93
880.172	784.4
880.349	828.96
880.525	860.35
880.701	813.08
880.877	785.18
881.053	876.24
881.229	840.2
881.405	853.38
881.581	805.71
881.757	820.44
881.933	838.65
882.109	888.64
882.285	831.68
882.461	790.02
882.637	836.13
882.813	815.79
882.989	840.01
883.165	845.24
883.341	797.19
883.517	851.83
883.693	835.16
883.869	862.29
884.044	811.91
884.22	812.5
884.396	867.71
884.572	837.88
884.747	845.63
884.923	830.9
885.099	855.7
885.275	886.7
885.45	829.35
885.626	809.98
885.801	807.65
885.977	809.59
886.153	754.95
886.328	840.78
886.504	787.7
886.679	845.63
886.855	790.99
887.03	834.58
887.206	853.76
887.381	798.55
887.557	805.33
887.732	820.83
887.908	848.34
888.083	839.62
888.258	812.69
888.434	809.2
888.609	800.48
888.784	844.46
888.96	812.3
889.135	787.5
889.31	774.33
889.485	809.59
889.661	816.56
889.836	856.48
890.011	843.3
890.186	822.57
890.361	772.97
890.537	818.11
890.712	794.67
890.887	821.99
891.062	795.25
891.237	895.42
891.412	811.33
891.587	816.95
891.762	820.25
891.937	859.38
892.112	778.2
892.287	804.16
892.462	787.5
892.637	729.77
892.812	751.46
892.987	769.1
893.161	706.9
893.336	748.36
893.511	735.58
893.686	772.39
893.861	754.56
894.035	758.25
894.21	758.63
894.385	677.84
894.56	734.8
894.734	679.58
894.909	676.29
895.084	682.88
895.258	657.11
895.433	673.97
895.608	650.72
895.782	608.09
895.957	637.54
896.131	655.17
896.306	554.04
896.48	550.74
896.655	617.78
896.829	516.84
897.004	551.52
897.178	551.52
897.353	527.3
897.527	587.94
897.701	553.46
897.876	498.24
898.05	612.55
898.224	573.99
898.399	601.7
898.573	566.24
898.747	455.42
898.921	500.37
899.096	415.51
899.27	432.56
899.444	406.59
899.618	455.23
899.792	510.83
899.967	463.75
900.141	539.7
900.315	434.88
900.489	473.82
900.663	484.09
900.837	479.44
901.011	443.02
901.185	542.22
901.359	484.48
901.533	491.46
901.707	483.32
901.881	483.51
902.055	434.88
902.229	456.97
902.403	540.09
902.576	463.17
902.75	500.17
902.924	598.79
903.098	535.63
903.272	572.83
903.446	598.99
903.619	553.07
903.793	593.56
903.967	560.04
904.14	627.85
904.314	604.22
904.488	605.19
904.661	635.99
904.835	607.51
905.009	656.14
905.182	692.18
905.356	638.32
905.529	613.9
905.703	566.44
905.876	561.59
906.05	560.43
906.223	539.51
906.397	490.29
906.57	478.86
906.744	464.53
906.917	471.69
907.09	468.79
907.264	465.69
907.437	455.42
907.61	426.16
907.784	419.19
907.957	440.31
908.13	423.84
908.304	468.01
908.477	392.26
908.65	429.65
908.823	375.4
908.996	498.43
909.17	412.21
909.343	415.89
909.516	433.53
909.689	403.49
909.862	386.44
910.035	394.39
910.208	395.36
910.381	419.96
910.554	475.37
910.727	402.33
910.9	411.24
911.073	369.01
911.246	451.54
911.419	451.54
911.592	446.51
911.765	415.12
911.938	420.93
912.11	413.18
912.283	424.81
912.456	470.53
912.629	404.66
912.802	383.73
912.974	360.48
913.147	349.05
913.32	298.29
913.493	326.96
913.665	359.71
913.838	352.35
914.01	369.01
914.183	363
914.356	361.65
914.528	387.22
914.701	419.58
914.873	392.06
915.046	362.81
915.218	331.42
915.391	297.32
915.563	303.52
915.736	357.38
915.908	381.41
916.081	381.41
916.253	344.6
916.425	337.62
916.598	393.81
916.77	380.25
916.942	342.08
917.115	262.25
917.287	368.43
917.459	326.96
917.632	298.68
917.804	256.44
917.976	342.08
918.148	359.71
918.32	332.58
918.493	396.13
918.665	401.36
918.837	369.78
919.009	413.38
919.181	407.56
919.353	386.44
919.525	375.98
919.697	375.98
919.869	382.18
920.041	449.22
920.213	498.04
920.385	420.54
920.557	381.8
920.729	414.15
920.901	404.46
921.073	406.4
921.244	358.16
921.416	424.03
921.588	387.99
921.76	384.9
921.932	415.7
922.103	386.64
922.275	394.78
922.447	389.74
922.619	340.72
922.79	385.86
922.962	347.31
923.134	374.05
923.305	350.6
923.477	323.09
923.648	324.45
923.82	332.2
923.991	304.3
924.163	301.97
924.335	306.23
924.506	318.44
924.677	383.54
924.849	301
925.02	338.98
925.192	358.74
925.363	328.13
925.535	326.38
925.706	321.54
925.877	345.95
926.049	288.22
926.22	341.5
926.391	316.5
926.562	358.93
926.734	299.45
926.905	346.15
927.076	265.93
927.247	324.25
927.419	276.78
927.59	264.19
927.761	279.3
927.932	270.58
928.103	248.11
928.274	223.12
928.445	229.32
928.616	270.78
928.787	228.35
928.958	259.35
929.129	238.42
929.3	223.12
929.471	184.56
929.642	157.82
929.813	100.67
929.984	225.44
930.155	140
930.326	191.34
930.496	147.17
930.667	92.53
930.838	139.22
931.009	70.64
931.18	119.85
931.35	125.08
931.521	137.29
931.692	83.04
931.863	57.27
932.033	134.19
932.204	96.41
932.374	113.84
932.545	71.99
932.716	98.73
932.886	126.63
933.057	13.87
933.227	57.85
933.398	126.05
933.568	39.64
933.739	14.26
933.909	31.5
934.08	115.2
934.25	-1.05
934.421	6.12
934.591	43.71
934.761	18.91
934.932	-11.71
935.102	39.06
935.272	29.56
935.443	44.29
935.613	10.58
935.783	62.5
935.953	-2.79
936.123	164.8
936.294	-3.96
936.464	9.03
936.634	36.15
936.804	25.3
936.974	-0.08
937.144	58.82
937.314	40.61
937.484	23.17
937.655	25.3
937.825	74.12
937.995	15.42
938.165	80.13
938.334	18.91
938.504	40.99
938.674	19.1
938.844	21.04
939.014	87.11
939.184	79.74
939.354	110.36
939.524	100.09
939.694	51.07
939.863	46.61
940.033	127.4
940.203	101.44
940.373	88.46
940.542	96.02
940.712	74.32
940.882	99.12
941.051	109.19
941.221	90.01
941.391	135.15
941.56	57.66
941.73	52.04
941.899	155.3
942.069	51.07
942.238	91.17
942.408	78.19
942.577	82.84
942.747	55.91
942.916	23.94
943.086	36.34
943.255	72.38
943.425	68.7
943.594	42.16
943.763	1.86
943.933	-9.19
944.102	-14.61
944.271	41.96
944.441	88.85
944.61	48.74
944.779	38.09
944.948	157.63
945.117	20.65
945.287	34.6
945.456	7.86
945.625	37.7
945.794	74.9
945.963	28.79
946.132	56.3
946.301	31.5
946.47	95.82
946.639	4.38
946.808	26.46
946.977	84.78
947.146	87.88
947.315	32.66
947.484	89.62
947.653	27.63
947.822	44.09
947.991	24.33
948.16	131.86
948.329	78.58
948.498	40.8
948.666	55.33
948.835	73.93
949.004	14.06
949.173	8.06
949.341	62.11
949.51	69.09
949.679	75.29
949.847	90.79
950.016	126.82
950.185	125.66
950.353	32.66
950.522	16
950.69	99.12
950.859	56.88
951.028	65.99
951.196	57.66
951.365	19.29
951.533	35.96
951.701	71.61
951.87	69.86
952.038	43.51
952.207	38.28
952.375	135.15
952.543	63.27
952.712	53.2
952.88	22.59
953.048	125.08
953.217	70.64
953.385	29.37
953.553	94.66
953.721	31.11
953.89	47.39
954.058	19.88
954.226	15.23
954.394	51.46
954.562	13.48
954.73	47.39
954.898	42.35
955.067	78.39
955.235	26.27
955.403	77.61
955.571	129.34
955.739	66.96
955.907	13.68
956.075	23.56
956.243	22.59
956.41	73.93
956.578	11.16
956.746	13.87
956.914	41.96
957.082	77.42
957.25	71.22
957.418	27.24
957.585	66.18
957.753	116.75
957.921	40.41
958.089	58.43
958.256	56.49
958.424	53.59
958.592	80.91
958.759	9.99
958.927	73.54
959.095	26.85
959.262	40.61
959.43	61.72
959.597	40.8
959.765	49.71
959.932	30.14
960.1	80.91
960.267	63.27
960.435	63.08
960.602	98.34
960.77	4.76
960.937	28.4
961.104	52.42
961.272	4.38
961.439	35.18
961.606	83.04
961.774	79.16
961.941	45.64
962.108	86.91
962.275	69.09
962.443	98.54
962.61	56.11
962.777	146.78
962.944	71.8
963.111	83.23
963.278	86.14
963.446	55.33
963.613	78.19
963.78	90.21
963.947	87.3
964.114	79.16
964.281	138.06
964.448	86.52
964.615	47.19
964.782	77.81
964.949	91.95
965.116	77.81
965.282	117.91
965.449	62.89
965.616	36.92
965.783	87.69
965.95	76.84
966.117	15.42
966.283	63.86
966.45	84.01
966.617	77.22
966.784	120.24
966.95	112.29
967.117	98.34
967.284	73.35
967.45	63.08
967.617	128.18
967.784	103.38
967.95	112.29
968.117	55.14
968.283	103.77
968.45	179.72
968.616	100.86
968.783	119.85
968.949	108.81
969.116	103.19
969.282	70.06
969.449	100.09
969.615	110.16
969.781	40.22
969.948	73.16
970.114	47.97
970.28	159.57
970.447	87.11
970.613	110.16
970.779	74.32
970.945	97.37
971.112	92.72
971.278	94.27
971.444	85.56
971.61	112.1
971.776	68.12
971.942	115.97
972.108	105.9
972.275	86.14
972.441	109.19
972.607	133.41
972.773	62.11
972.939	90.21
973.105	89.82
973.271	62.11
973.437	63.27
973.602	52.62
973.768	94.47
973.934	76.45
974.1	96.6
974.266	22.01
974.432	75.67
974.598	49.91
974.763	90.4
974.929	57.66
975.095	127.02
975.261	45.84
975.426	52.62
975.592	72.77
975.758	134.19
975.923	35.57
976.089	63.08
976.255	127.21
976.42	79.94
976.586	75.67
976.751	92.92
976.917	169.06
977.082	108.42
977.248	42.74
977.413	17.36
977.579	55.91
977.744	100.28
977.91	55.52
978.075	64.44
978.24	79.74
978.406	59.59
978.571	58.43
978.736	55.52
978.902	114.81
979.067	31.89
979.232	32.66
979.397	83.81
979.563	118.3
979.728	36.54
979.893	65.99
980.058	32.86
980.223	145.23
980.388	67.73
980.554	66.37
980.719	46.42
980.884	80.52
981.049	115.78
981.214	50.68
981.379	96.41
981.544	42.16
981.709	57.85
981.874	59.01
982.039	71.99
982.204	94.86
982.368	79.74
982.533	42.16
982.698	113.84
982.863	108.22
983.028	34.6
983.193	74.12
983.357	56.3
983.522	68.31
983.687	75.09
983.852	72.77
984.016	53.01
984.181	80.52
984.346	108.22
984.51	102.02
984.675	70.06
984.839	111.71
985.004	85.75
985.168	103.96
985.333	84.39
985.498	59.59
985.662	105.9
985.827	84.78
985.991	84.78
986.155	60.56
986.32	92.72
986.484	129.73
986.649	88.27
986.813	22.01
986.977	82.65
987.142	103.57
987.306	44.87
987.47	42.16
987.634	69.67
987.799	81.49
987.963	96.02
988.127	87.88
988.291	145.42
988.455	68.7
988.62	57.07
988.784	106.09
988.948	99.89
989.112	25.88
989.276	77.22
989.44	57.07
989.604	28.4
989.768	59.01
989.932	143.29
990.096	70.64
990.26	25.49
990.424	24.33
990.588	73.54
990.752	108.42
990.915	80.71
991.079	59.59
991.243	32.47
991.407	96.41
991.571	70.64
991.734	69.86
991.898	95.82
992.062	154.14
992.226	52.23
992.389	37.12
992.553	41.77
992.717	51.07
992.88	18.52
993.044	59.21
993.207	53.01
993.371	81.49
993.535	93.31
993.698	74.9
993.862	100.67
994.025	81.49
994.189	35.18
994.352	73.35
994.515	94.86
994.679	109.77
994.842	60.56
995.006	102.61
995.169	22.78
995.332	38.67
995.496	92.92
995.659	8.06
995.822	54.17
995.985	63.47
996.149	116.36
996.312	47.39
996.475	107.45
996.638	45.45
996.801	127.6
996.964	117.72
997.128	79.94
997.291	55.72
997.454	71.99
997.617	27.82
997.78	94.86
997.943	25.88
998.106	92.14
998.269	42.16
998.432	57.07
998.595	53.97
998.758	-0.08
998.92	29.37
999.083	3.21
999.246	24.91
999.409	-1.82
999.572	-16.55
999.735	-1.24
999.897	43.32
1000.06	43.32
1000.223	36.15
1000.386	74.51
1000.548	96.02
1000.711	72.57
1000.874	50.68
1001.036	-4.54
1001.199	95.63
1001.361	40.02
1001.524	41.19
1001.687	84.97
1001.849	37.31
1002.012	64.24
1002.174	42.54
1002.337	67.54
1002.499	36.34
1002.661	72.57
1002.824	12.32
1002.986	6.89
1003.149	28.79
1003.311	20.07
1003.473	103.77
1003.636	36.73
1003.798	66.18
1003.96	60.76
1004.123	34.6
1004.285	6.7
1004.447	46.42
1004.609	44.48
1004.771	107.26
1004.933	11.93
1005.096	20.26
1005.258	-0.86
1005.42	18.71
1005.582	72.77
1005.744	61.14
1005.906	10.19
1006.068	25.69
1006.23	2.24
1006.392	-21.01
1006.554	19.1
1006.716	65.21
1006.878	40.41
1007.04	-46
1007.202	-1.24
1007.363	19.49
1007.525	25.69
1007.687	48.74
1007.849	90.21
1008.011	-23.91
1008.172	13.09
1008.334	32.86
1008.496	55.52
1008.658	-24.49
1008.819	22.98
1008.981	3.02
1009.143	2.63
1009.304	-6.47
1009.466	60.17
1009.627	89.04
1009.789	80.32
1009.95	28.98
1010.112	2.83
1010.273	45.64
1010.435	9.22
1010.596	12.51
1010.758	30.14
1010.919	24.53
1011.081	-15.77
1011.242	43.51
1011.403	56.49
1011.565	20.26
1011.726	35.76
1011.887	-15.77
1012.049	23.75
1012.21	67.54
1012.371	106.48
1012.532	-43.48
1012.693	19.88
1012.855	-4.15
1013.016	35.96
1013.177	75.29
1013.338	26.46
1013.499	78.58
1013.66	48.74
1013.821	48.36
1013.982	22.59
1014.143	26.08
1014.304	0.11
1014.465	49.13
1014.626	51.26
1014.787	2.24
1014.948	87.11
1015.109	-31.27
1015.27	62.11
1015.431	16.97
1015.592	-11.12
1015.752	55.91
1015.913	48.74
1016.074	24.33
1016.235	29.95
1016.395	32.47
1016.556	19.88
1016.717	22.98
1016.877	82.26
1017.038	-4.15
1017.199	48.74
1017.359	13.48
1017.52	42.54
1017.681	19.29
1017.841	0.69
1018.002	24.72
1018.162	8.25
1018.323	71.61
1018.483	47
1018.644	-4.15
1018.804	-11.71
1018.964	-10.35
1019.125	14.06
1019.285	22.98
1019.446	-4.15
1019.606	13.87
1019.766	-57.24
1019.926	28.79
1020.087	32.47
1020.247	-14.22
1020.407	46.03
1020.567	51.26
1020.728	29.37
1020.888	-9.38
1021.048	10.38
1021.208	-7.25
1021.368	-17.71
1021.528	62.89
1021.688	50.29
1021.848	52.04
1022.008	-9.77
1022.168	12.9
1022.328	33.44
1022.488	40.8
1022.648	22.98
1022.808	12.71
1022.968	41.19
1023.128	-1.24
1023.288	-21.59
1023.448	17.55
1023.608	46.22
1023.767	44.29
1023.927	15.03
1024.087	-22.17
1024.247	-4.34
1024.406	12.13
1024.566	-21.01
1024.726	-40.77
1024.885	11.16
1025.045	54.94
1025.205	6.51
1025.364	24.91
1025.524	1.08
1025.683	16.97
1025.843	7.48
1026.003	2.63
1026.162	88.46
1026.321	42.54
1026.481	7.86
1026.64	-4.34
1026.8	19.29
1026.959	32.66
1027.119	28.98
1027.278	9.03
1027.437	-30.31
1027.597	6.89
1027.756	23.17
1027.915	39.06
1028.074	33.44
1028.234	-16.55
1028.393	-5.12
1028.552	1.66
1028.711	-66.92
1028.87	48.74
1029.03	-9.57
1029.189	-16.94
1029.348	-48.32
1029.507	20.26
1029.666	-3.18
1029.825	-47.36
1029.984	-15.58
1030.143	9.61
1030.302	2.83
1030.461	-35.92
1030.62	23.36
1030.779	32.47
1030.938	-15.58
1031.097	-11.9
1031.255	35.18
1031.414	36.92
1031.573	51.46
1031.732	-48.13
1031.891	0.89
1032.049	49.71
1032.208	29.95
1032.367	0.5
1032.525	18.33
1032.684	-29.34
1032.843	6.89
1033.001	-42.51
1033.16	137.48
1033.319	56.11
1033.477	40.99
1033.636	-29.72
1033.794	-29.92
1033.953	42.16
1034.111	35.96
1034.27	-8.99
1034.428	8.83
1034.587	-27.79
1034.745	26.46
1034.903	14.64
1035.062	22.39
1035.22	-30.89
1035.378	27.24
1035.537	-31.86
1035.695	35.57
1035.853	5.54
1036.011	36.15
1036.17	27.63
1036.328	-54.72
1036.486	9.41
1036.644	2.24
1036.802	-61.11
1036.96	3.02
1037.119	-7.06
1037.277	-26.24
1037.435	-29.72
1037.593	-17.13
1037.751	5.93
1037.909	33.44
1038.067	33.44
