Data from oakcork_FLMT105791__17__17-26-52-067.txt Node

Date: Mon Mar 20 17:26:52 GMT 2023
User: antho
Spectrometer: FLMT10579
Trigger mode: 0
Integration Time (sec): 1.000000E-1
Scans to average: 10
Electric dark correction enabled: true
Nonlinearity correction enabled: false
Boxcar width: 0
XAxis mode: Wavelengths
Number of Pixels in Spectrum: 3648
>>>>>Begin Spectral Data<<<<<
345.248	-152.87
345.464	-152.87
345.681	-152.87
345.898	-185.8
346.114	-169.53
346.331	-37.01
346.548	33.52
346.764	-2.13
346.981	-4.65
347.197	-3.49
347.414	30.61
347.631	-26.54
347.847	84.67
348.064	-5.62
348.28	20.15
348.497	-69.94
348.713	-19.57
348.93	9.88
349.146	18.79
349.363	-14.34
349.579	7.75
349.796	-12.21
350.012	-7.56
350.229	16.86
350.445	-5.23
350.661	-33.91
350.878	-17.44
351.094	15.11
351.311	9.3
351.527	-1.16
351.743	-23.83
351.96	-0.97
352.176	28.87
352.392	29.26
352.609	23.06
352.825	3.68
353.041	5.23
353.257	2.32
353.474	-20.54
353.69	42.82
353.906	16.27
354.122	-9.88
354.339	38.17
354.555	21.31
354.771	-27.71
354.987	61.42
355.203	65.87
355.42	-15.5
355.636	-10.66
355.852	-22.67
356.068	24.22
356.284	-43.4
356.5	49.02
356.716	0.58
356.932	21.89
357.148	31
357.364	-12.79
357.58	63.16
357.796	70.14
358.012	47.08
358.228	13.76
358.444	-58.12
358.66	62.39
358.876	18.41
359.092	-31.77
359.308	46.5
359.524	25.57
359.74	-7.75
359.956	-11.62
360.172	-0.19
360.388	44.56
360.604	2.52
360.819	76.92
361.035	9.88
361.251	43.01
361.467	-35.65
361.683	45.14
361.898	4.07
362.114	16.08
362.33	14.14
362.546	36.04
362.762	16.47
362.977	27.32
363.193	-28.67
363.409	16.47
363.624	-49.21
363.84	-18.21
364.056	3.87
364.271	20.34
364.487	49.21
364.703	4.65
364.918	-18.79
365.134	-0.77
365.35	25.38
365.565	117.02
365.781	13.37
365.996	31.19
366.212	71.88
366.427	37.59
366.643	9.11
366.858	4.46
367.074	-2.71
367.289	69.17
367.505	103.07
367.72	-20.54
367.936	11.62
368.151	33.71
368.367	36.23
368.582	20.15
368.798	12.98
369.013	87.77
369.228	22.09
369.444	1.94
369.659	72.85
369.874	49.21
370.09	59.87
370.305	-66.07
370.52	-13.37
370.736	77.11
370.951	41.27
371.166	64.91
371.381	71.3
371.597	26.35
371.812	-18.21
372.027	-30.61
372.242	18.79
372.458	74.4
372.673	28.09
372.888	19.76
373.103	46.69
373.318	123.22
373.533	26.16
373.749	26.35
373.964	-12.4
374.179	4.46
374.394	-9.11
374.609	72.07
374.824	2.13
375.039	72.27
375.254	-10.66
375.469	69.56
375.684	34.87
375.899	63.16
376.114	19.37
376.329	57.54
376.544	69.94
376.759	39.52
376.974	11.04
377.189	18.21
377.404	22.28
377.619	52.89
377.834	-28.87
378.049	-10.27
378.264	-4.07
378.478	57.16
378.693	-5.42
378.908	55.8
379.123	28.87
379.338	68.2
379.553	20.54
379.767	53.86
379.982	33.91
380.197	58.51
380.412	16.86
380.626	48.24
380.841	108.3
381.056	33.91
381.271	107.92
381.485	-3.87
381.7	-7.36
381.915	31.58
382.129	15.31
382.344	33.71
382.559	32.74
382.773	72.85
382.988	-30.22
383.202	31.39
383.417	-0.19
383.632	112.18
383.846	26.74
384.061	22.09
384.275	39.91
384.49	23.06
384.704	49.79
384.919	30.22
385.133	22.67
385.348	55.41
385.562	0.19
385.777	56.96
385.991	22.09
386.206	16.47
386.42	10.27
386.634	110.82
386.849	45.92
387.063	60.45
387.277	-3.1
387.492	13.76
387.706	2.71
387.92	5.23
388.135	62.58
388.349	62.97
388.563	39.14
388.778	35.07
388.992	64.91
389.206	52.89
389.42	109.85
389.635	44.95
389.849	72.85
390.063	82.73
390.277	55.99
390.491	95.9
390.706	58.9
390.92	90.29
391.134	61.81
391.348	80.99
391.562	-3.1
391.776	24.22
391.99	16.66
392.205	69.36
392.419	30.22
392.633	44.37
392.847	84.09
393.061	16.08
393.275	101.33
393.489	45.34
393.703	51.54
393.917	83.51
394.131	26.35
394.345	80.41
394.559	99.39
394.773	26.74
394.986	39.72
395.2	79.24
395.414	68.01
395.628	16.08
395.842	61.61
396.056	59.29
396.27	9.69
396.484	53.86
396.697	65.87
396.911	98.04
397.125	78.47
397.339	71.88
397.553	74.79
397.766	101.33
397.98	100.75
398.194	101.52
398.408	57.54
398.621	83.31
398.835	95.32
399.049	72.27
399.262	131.75
399.476	100.36
399.69	112.37
399.903	125.55
400.117	93.97
400.331	81.76
400.544	81.18
400.758	211.38
400.971	59.48
401.185	106.56
401.398	58.9
401.612	129.81
401.826	144.73
402.039	139.69
402.253	79.05
402.466	121.29
402.68	94.35
402.893	124.39
403.106	110.82
403.32	76.34
403.533	110.82
403.747	80.99
403.96	94.94
404.174	129.81
404.387	65.29
404.6	99.59
404.814	133.88
405.027	94.94
405.24	84.67
405.454	80.6
405.667	136.2
405.88	38.94
406.094	99.78
406.307	121.87
406.52	118.38
406.733	63.36
406.947	60.06
407.16	160.62
407.373	151.51
407.586	72.85
407.799	55.02
408.012	99
408.226	121.67
408.439	156.94
408.652	92.22
408.865	115.47
409.078	140.85
409.291	117.02
409.504	56.38
409.717	128.07
409.93	109.47
410.143	107.14
410.357	57.93
410.57	68.59
410.783	91.25
410.996	139.11
411.209	92.22
411.421	163.14
411.634	106.75
411.847	103.85
412.06	115.67
412.273	91.84
412.486	111.79
412.699	204.4
412.912	115.47
413.125	142.6
413.338	124.97
413.55	166.24
413.763	155.19
413.976	134.85
414.189	102.49
414.402	133.69
414.615	179.22
414.827	73.24
415.04	149.96
415.253	155.58
415.466	139.5
415.678	214.09
415.891	136.79
416.104	114.12
416.316	108.3
416.529	113.92
416.742	127.68
416.954	170.3
417.167	120.32
417.38	109.27
417.592	178.25
417.805	94.35
418.017	98.81
418.23	148.02
418.442	104.04
418.655	119.54
418.868	130
419.08	166.43
419.293	176.12
419.505	146.67
419.718	141.44
419.93	174.76
420.142	111.6
420.355	181.54
420.567	193.55
420.78	153.64
420.992	124.39
421.205	177.47
421.417	105.79
421.629	133.3
421.842	112.95
422.054	88.93
422.266	152.87
422.479	184.45
422.691	131.75
422.903	141.44
423.115	118.57
423.328	143.95
423.54	132.33
423.752	151.12
423.964	129.81
424.177	150.74
424.389	144.73
424.601	253.23
424.813	148.6
425.025	168.37
425.238	180.77
425.45	148.99
425.662	159.84
425.874	434.58
426.086	155.19
426.298	164.3
426.51	130
426.722	125.35
426.934	166.82
427.146	186.19
427.358	126.9
427.57	192.78
427.782	174.37
427.994	131.94
428.206	142.02
428.418	114.31
428.63	188.52
428.842	177.67
429.054	140.08
429.266	177.67
429.478	124.97
429.69	155
429.902	112.76
430.114	146.86
430.325	143.76
430.537	117.8
430.749	111.99
430.961	104.82
431.173	116.25
431.384	175.15
431.596	72.27
431.808	147.64
432.02	160.42
432.231	191.81
432.443	219.52
432.655	180.96
432.867	150.74
433.078	171.27
433.29	251.1
433.502	212.35
433.713	225.33
433.925	172.05
434.136	220.87
434.348	167.59
434.56	148.6
434.771	255.17
434.983	147.64
435.194	176.31
435.406	153.84
435.617	233.47
435.829	247.22
436.04	206.53
436.252	210.02
436.463	248.77
436.675	246.06
436.886	209.05
437.098	207.5
437.309	255.75
437.521	203.43
437.732	218.74
437.943	221.26
438.155	178.63
438.366	152.48
438.578	254.97
438.789	191.42
439	238.7
439.211	198.59
439.423	218.35
439.634	241.22
439.845	221.45
440.057	234.63
440.268	251.29
440.479	192.97
440.69	211.96
440.902	224.55
441.113	188.71
441.324	161.97
441.535	231.14
441.746	275.31
441.957	220.48
442.168	205.18
442.38	256.13
442.591	259.23
442.802	233.66
443.013	244.51
443.224	244.9
443.435	233.66
443.646	227.27
443.857	261.75
444.068	219.52
444.279	198.2
444.49	287.13
444.701	263.5
444.912	335.96
445.123	262.53
445.334	262.91
445.545	257.3
445.756	235.21
445.967	227.46
446.178	241.8
446.388	262.14
446.599	255.36
446.81	280.16
447.021	243.54
447.232	307.67
447.443	312.9
447.653	261.17
447.864	280.93
448.075	244.9
448.286	314.06
448.496	272.99
448.707	298.95
448.918	270.08
449.129	345.06
449.339	246.64
449.55	293.91
449.761	285.78
449.971	278.8
450.182	275.12
450.393	293.53
450.603	263.3
450.814	334.41
451.024	283.84
451.235	327.05
451.446	340.61
451.656	366.96
451.867	270.08
452.077	307.48
452.288	343.9
452.498	335.57
452.709	269.89
452.919	321.04
453.13	275.31
453.34	298.56
453.55	241.22
453.761	298.76
453.971	279.38
454.182	323.75
454.392	319.3
454.602	341
454.813	317.94
455.023	330.92
455.233	238.7
455.444	332.08
455.654	237.53
455.864	288.88
456.075	290.62
456.285	274.54
456.495	285.97
456.705	321.04
456.916	353.59
457.126	375.48
457.336	303.41
457.546	257.3
457.756	285
457.967	389.43
458.177	303.41
458.387	310.19
458.597	275.7
458.807	289.46
459.017	297.6
459.227	289.85
459.437	286.75
459.647	337.9
459.857	333.25
460.068	303.21
460.278	345.65
460.488	319.1
460.698	403.38
460.908	321.81
461.117	251.29
461.327	321.43
461.537	338.28
461.747	330.92
461.957	309.03
462.167	403.58
462.377	345.06
462.587	324.72
462.797	343.71
463.007	339.83
463.216	369.09
463.426	337.9
463.636	365.21
463.846	298.56
464.056	299.15
464.265	381.29
464.475	291.78
464.685	331.11
464.895	369.67
465.104	327.63
465.314	371.8
465.524	358.63
465.733	288.68
465.943	388.85
466.153	402.41
466.362	367.15
466.572	354.94
466.782	353.98
466.991	360.56
467.201	399.31
467.41	312.9
467.62	380.71
467.829	346.61
468.039	361.92
468.249	356.3
468.458	365.79
468.668	367.34
468.877	371.41
469.086	409.39
469.296	407.45
469.505	363.47
469.715	431.48
469.924	385.17
470.134	399.7
470.343	418.69
470.552	358.43
470.762	349.52
470.971	335.38
471.18	396.99
471.39	396.41
471.599	341.77
471.808	399.7
472.018	344.48
472.227	416.94
472.436	396.02
472.645	409.78
472.855	387.49
473.064	441.16
473.273	402.22
473.482	430.51
473.691	464.8
473.901	440
474.11	386.91
474.319	486.31
474.528	414.81
474.737	463.64
474.946	442.13
475.155	439.81
475.364	470.22
475.573	447.17
475.783	442.32
475.992	448.72
476.201	486.11
476.41	442.52
476.619	425.86
476.828	433.61
477.037	423.34
477.245	436.51
477.454	473.52
477.663	436.13
477.872	457.44
478.081	511.11
478.29	439.81
478.499	531.06
478.708	483.4
478.917	557.02
479.125	481.66
479.334	509.17
479.543	475.07
479.752	512.46
479.961	489.02
480.169	525.44
480.378	471
480.587	607.79
480.796	508.2
481.004	517.5
481.213	545.2
481.422	543.07
481.63	524.47
481.839	554.31
482.048	595.58
482.256	525.44
482.465	566.13
482.674	553.34
482.882	587.64
483.091	613.02
483.299	551.6
483.508	588.41
483.716	595.77
483.925	564.39
484.134	525.64
484.342	565.55
484.551	586.28
484.759	594.8
484.967	597.52
485.176	617.08
485.384	587.64
485.593	627.35
485.801	566.71
486.01	557.99
486.218	549.85
486.426	508.97
486.635	512.85
486.843	515.17
487.051	550.05
487.26	540.94
487.468	560.12
487.676	601.78
487.885	546.56
488.093	597.13
488.301	590.35
488.509	569.62
488.717	632.78
488.926	624.64
489.134	586.86
489.342	600.04
489.55	576.01
489.758	621.35
489.967	586.86
490.175	699.81
490.383	626.97
490.591	703.5
490.799	614.57
491.007	694.39
491.215	640.72
491.423	635.3
491.631	665.33
491.839	639.56
492.047	669.98
492.255	605.07
492.463	620.18
492.671	620.96
492.879	671.33
493.087	643.05
493.295	688.58
493.503	699.62
493.711	680.25
493.919	703.11
494.127	701.95
494.334	721.9
494.542	616.5
494.75	689.55
494.958	691.1
495.166	720.35
495.374	715.31
495.581	705.63
495.789	689.35
495.997	771.31
496.205	687.42
496.412	714.93
496.62	688
496.828	739.53
497.035	684.7
497.243	717.06
497.451	695.55
497.658	725
497.866	694.97
498.074	760.26
498.281	687.42
498.489	776.35
498.696	724.61
498.904	696.52
499.112	700.01
499.319	766.85
499.527	714.35
499.734	775.76
499.942	693.81
500.149	736.82
500.357	736.63
500.564	696.52
500.771	709.11
500.979	690.13
501.186	695.94
501.394	739.53
501.601	717.25
501.808	716.86
502.016	742.63
502.223	688.58
502.43	735.08
502.638	729.26
502.845	683.93
503.052	756.78
503.26	716.09
503.467	796.11
503.674	690.9
503.881	760.26
504.089	828.08
504.296	783.71
504.503	702.72
504.71	747.86
504.917	694
505.125	771.89
505.332	739.53
505.539	770.73
505.746	808.89
505.953	789.13
506.16	774.21
506.367	795.14
506.574	835.44
506.781	805.21
506.988	732.36
507.195	803.47
507.402	766.08
507.609	805.21
507.816	775.76
508.023	759.68
508.23	780.8
508.437	731.59
508.644	779.45
508.851	836.41
509.058	805.79
509.265	784.29
509.472	798.04
509.679	870.12
509.885	770.53
510.092	828.08
510.299	791.84
510.506	799.79
510.713	812.96
510.92	808.51
511.126	816.64
511.333	816.45
511.54	852.88
511.746	883.68
511.953	866.44
512.16	875.35
512.367	839.89
512.573	834.08
512.78	830.79
512.987	832.34
513.193	851.33
513.4	751.55
513.606	804.24
513.813	845.32
514.02	849.78
514.226	881.94
514.433	876.32
514.639	804.24
514.846	850.94
515.052	829.43
515.259	848.61
515.465	831.56
515.672	844.54
515.878	897.82
516.085	836.41
516.291	892.79
516.497	821.88
516.704	807.54
516.91	788.55
517.117	772.47
517.323	734.69
517.529	782.55
517.736	774.02
517.942	776.73
518.148	774.02
518.354	819.74
518.561	804.63
518.767	819.36
518.973	844.74
519.179	865.47
519.386	818.39
519.592	816.45
519.798	825.56
520.004	859.85
520.21	810.25
520.417	905.57
520.623	902.28
520.829	897.24
521.035	933.86
521.241	907.71
521.447	924.56
521.653	1001.09
521.859	918.36
522.065	886.01
522.271	1043.52
522.477	943.36
522.683	972.22
522.889	933.47
523.095	950.14
523.301	910.22
523.507	918.94
523.713	952.46
523.919	888.33
524.125	966.02
524.331	953.24
524.537	1024.15
524.742	1025.7
524.948	993.73
525.154	1016.59
525.36	1081.69
525.566	998.96
525.772	1072.97
525.977	959.24
526.183	1023.18
526.389	1053.79
526.595	987.92
526.8	973.97
527.006	939.87
527.212	936.77
527.417	912.55
527.623	880.19
527.829	986.95
528.034	977.84
528.24	987.72
528.446	974.74
528.651	1019.3
528.857	1049.72
529.062	1079.37
529.268	1009.81
529.473	1051.08
529.679	1023.18
529.884	1111.92
530.09	1084.02
530.295	1073.55
530.501	1099.32
530.706	1048.37
530.912	1017.75
531.117	1097.77
531.323	1061.35
531.528	1109.01
531.733	1092.73
531.939	1066.19
532.144	1134.97
532.35	1104.17
532.555	1127.03
532.76	1085.95
532.966	1120.83
533.171	1106.3
533.376	1066
533.581	1044.69
533.787	1097.97
533.992	1116.95
534.197	1125.28
534.402	1089.05
534.607	1103.97
534.813	1207.05
535.018	1125.09
535.223	1119.08
535.428	1120.25
535.633	1190
535.838	1167.71
536.043	1149.89
536.249	1221
536.454	1160.74
536.659	1139.62
536.864	1139.43
537.069	1134.97
537.274	1138.26
537.479	1148.53
537.684	1175.46
537.889	1124.7
538.094	1227.78
538.299	1150.28
538.504	1182.83
538.708	1138.07
538.913	1183.8
539.118	1174.3
539.323	1150.08
539.528	1109.01
539.733	1143.88
539.938	1203.95
540.142	1170.81
540.347	1165.78
540.552	1125.48
540.757	1124.51
540.962	1127.22
541.166	1101.84
541.371	1094.09
541.576	1141.36
541.781	1039.45
541.985	1132.45
542.19	1134.78
542.395	1208.21
542.599	1240.95
542.804	1171.78
543.008	1215.57
543.213	1149.89
543.418	1146.01
543.622	1196.58
543.827	1144.27
544.031	1237.66
544.236	1212.66
544.44	1155.9
544.645	1259.94
544.849	1158.03
545.054	1212.66
545.258	1268.85
545.463	1267.3
545.667	1148.92
545.872	1202.2
546.076	1185.54
546.281	1193.48
546.485	1193.48
546.689	1228.74
546.894	1242.5
547.098	1206.66
547.302	1168.1
547.507	1167.91
547.711	1240.76
547.915	1258
548.119	1173.72
548.324	1190.96
548.528	1234.75
548.732	1211.5
548.936	1224.48
549.141	1265.75
549.345	1176.43
549.549	1228.55
549.753	1224.48
549.957	1325.23
550.161	1281.25
550.366	1243.47
550.57	1234.17
550.774	1205.11
550.978	1183.21
551.182	1238.24
551.386	1207.24
551.59	1179.92
551.794	1196.39
551.998	1226.23
552.202	1205.88
552.406	1159.77
552.61	1217.51
552.814	1220.41
553.018	1271.37
553.222	1230.88
553.426	1204.53
553.63	1325.23
553.833	1219.64
554.037	1170.04
554.241	1233.2
554.445	1182.25
554.649	1197.75
554.853	1213.25
555.056	1282.22
555.26	1245.99
555.464	1227
555.668	1227.78
555.871	1264.98
556.075	1277.76
556.279	1176.43
556.483	1179.53
556.686	1237.66
556.89	1160.35
557.094	1244.83
557.297	1173.53
557.501	1214.02
557.704	1161.51
557.908	1205.11
558.112	1188.83
558.315	1277.18
558.519	1191.16
558.722	1182.44
558.926	1196.39
559.129	1123.54
559.333	1135.55
559.536	1132.26
559.74	1139.04
559.943	1106.49
560.147	1098.74
560.35	1119.08
560.553	1111.72
560.757	1067.35
560.96	1184.76
561.164	1135.55
561.367	1218.86
561.57	1161.51
561.774	1159.96
561.977	1125.87
562.18	1126.45
562.384	1241.34
562.587	1165.58
562.79	1121.22
562.993	1109.78
563.197	1165.39
563.4	1228.55
563.603	1178.18
563.806	1207.82
564.009	1113.85
564.212	1154.73
564.416	1075.3
564.619	1148.73
564.822	1062.32
565.025	1195.23
565.228	1124.9
565.431	1138.26
565.634	1042.94
565.837	1100.48
566.04	1077.23
566.243	1079.17
566.446	983.46
566.649	1133.23
566.852	1027.64
567.055	1062.32
567.258	1088.67
567.461	1117.73
567.664	1129.35
567.867	1027.64
568.07	1088.28
568.273	1122.77
568.475	1130.71
568.678	1062.32
568.881	1050.5
569.084	1047.01
569.287	977.84
569.489	983.65
569.692	1070.84
569.895	1050.88
570.098	1006.71
570.3	981.91
570.503	946.84
570.706	962.34
570.909	975.71
571.111	924.37
571.314	919.14
571.516	952.27
571.719	1010.59
571.922	973.58
572.124	965.25
572.327	985.98
572.529	949.36
572.732	935.8
572.935	987.72
573.137	1054.37
573.34	955.37
573.542	1001.67
573.745	980.75
573.947	978.62
574.15	951.49
574.352	949.94
574.554	1017.37
574.757	950.33
574.959	957.31
575.162	940.64
575.364	946.26
575.566	1038.87
575.769	932.51
575.971	930.57
576.173	883.29
576.376	925.14
576.578	953.82
576.78	1018.92
576.982	863.53
577.185	910.61
577.387	900.34
577.589	894.34
577.791	944.91
577.993	922.24
578.196	882.32
578.398	928.82
578.6	974.35
578.802	855.39
579.004	892.79
579.206	893.95
579.408	910.22
579.61	892.01
579.812	939.87
580.014	883.29
580.216	874.19
580.418	870.51
580.62	904.22
580.822	820.33
581.024	896.66
581.226	917.2
581.428	861.01
581.63	961.57
581.832	888.91
582.034	925.14
582.236	905.38
582.438	930.57
582.64	947.04
582.841	945.29
583.043	992.18
583.245	919.72
583.447	925.72
583.649	935.22
583.85	920.11
584.052	940.45
584.254	883.29
584.456	965.05
584.657	893.17
584.859	932.7
585.061	914.87
585.262	888.14
585.464	860.04
585.666	937.93
585.867	873.8
586.069	961.18
586.27	916.04
586.472	889.88
586.674	865.28
586.875	860.04
587.077	868.96
587.278	911.39
587.48	860.63
587.681	980.94
587.883	896.08
588.084	809.48
588.285	861.79
588.487	857.91
588.688	874.19
588.89	819.55
589.091	790.88
589.292	799.59
589.494	787.19
589.695	833.89
589.896	753.87
590.098	735.27
590.299	766.08
590.5	742.05
590.702	773.63
590.903	762.01
591.104	875.54
591.305	827.49
591.507	860.63
591.708	829.24
591.909	810.83
592.11	871.86
592.311	834.08
592.512	794.36
592.714	769.76
592.915	769.37
593.116	807.54
593.317	819.94
593.518	810.25
593.719	779.83
593.92	831.76
594.121	838.93
594.322	812.96
594.523	817.61
594.724	777.31
594.925	811.61
595.126	805.6
595.327	810.83
595.528	824.01
595.729	807.54
595.929	805.02
596.13	809.28
596.331	799.79
596.532	805.21
596.733	855.78
596.934	846.09
597.135	852.29
597.335	812.58
597.536	775.38
597.737	832.53
597.938	788.36
598.138	841.44
598.339	805.79
598.54	825.75
598.74	796.88
598.941	811.22
599.142	864.11
599.342	836.79
599.543	794.75
599.744	800.37
599.944	780.8
600.145	792.81
600.345	832.34
600.546	840.86
600.746	840.48
600.947	858.11
601.147	820.33
601.348	860.82
601.548	804.24
601.749	827.11
601.949	753.1
602.15	776.15
602.35	790.29
602.551	870.89
602.751	791.26
602.951	807.73
603.152	715.31
603.352	822.65
603.552	793.98
603.753	803.28
603.953	803.86
604.153	789.52
604.354	823.23
604.554	810.25
604.754	784.48
604.954	766.46
605.155	822.65
605.355	773.25
605.555	835.44
605.755	858.49
605.955	770.73
606.155	830.98
606.356	832.73
606.556	804.63
606.756	821.49
606.956	759.88
607.156	860.24
607.356	768.4
607.556	825.94
607.756	778.09
607.956	844.16
608.156	801.73
608.356	787.19
608.556	819.74
608.756	775.96
608.956	775.18
609.156	821.1
609.356	748.45
609.556	735.85
609.755	793.98
609.955	762.59
610.155	784.48
610.355	789.52
610.555	737.6
610.755	791.07
610.954	715.9
611.154	789.52
611.354	803.66
611.554	743.02
611.753	737.79
611.953	706.21
612.153	795.91
612.352	760.07
612.552	703.88
612.752	692.26
612.951	747.09
613.151	757.75
613.351	714.15
613.55	754.65
613.75	778.86
613.949	753.87
614.149	769.56
614.348	739.53
614.548	717.06
614.747	691.87
614.947	725.2
615.146	687.42
615.346	750.58
615.545	737.01
615.745	757.36
615.944	753.29
616.144	718.22
616.343	735.66
616.542	697.3
616.742	740.31
616.941	728.49
617.14	668.23
617.34	706.98
617.539	707.95
617.738	694.2
617.938	780.22
618.137	715.12
618.336	671.72
618.535	734.88
618.734	711.63
618.934	761.81
619.133	723.26
619.332	725.39
619.531	688.77
619.73	691.1
619.929	756.2
620.128	741.86
620.328	750.58
620.527	728.68
620.726	690.13
620.925	714.73
621.124	709.5
621.323	689.93
621.522	700.98
621.721	662.62
621.92	651.38
622.119	688.19
622.318	680.05
622.517	670.17
622.715	681.99
622.914	669.98
623.113	678.5
623.312	638.78
623.511	708.34
623.71	698.07
623.909	662.42
624.107	735.08
624.306	626
624.505	643.63
624.704	651.57
624.902	675.79
625.101	714.35
625.3	677.92
625.499	653.51
625.697	656.61
625.896	632.97
626.095	662.23
626.293	594.22
626.492	662.62
626.69	673.47
626.889	620.57
627.088	702.14
627.286	659.9
627.485	660.48
627.683	625.22
627.882	646.73
628.08	559.74
628.279	615.73
628.477	667.65
628.676	603.33
628.874	625.22
629.073	600.42
629.271	569.42
629.469	646.15
629.668	615.34
629.866	629.87
630.065	590.15
630.263	645.18
630.461	583.76
630.66	641.69
630.858	653.9
631.056	673.08
631.254	645.18
631.453	583.95
631.651	632.39
631.849	650.6
632.047	645.76
632.245	632
632.444	637.43
632.642	633.36
632.84	652.15
633.038	616.7
633.236	616.31
633.434	618.25
633.632	558.57
633.83	589.38
634.028	651.57
634.227	636.65
634.425	685.67
634.623	630.45
634.821	626.97
635.019	628.13
635.216	609.72
635.414	657.38
635.612	619.22
635.81	630.26
636.008	680.44
636.206	617.28
636.404	644.21
636.602	590.15
636.8	607.59
636.997	636.65
637.195	624.64
637.393	633.75
637.591	685.87
637.789	620.96
637.986	620.77
638.184	617.08
638.382	679.67
638.58	631.42
638.777	687.22
638.975	627.55
639.173	616.12
639.37	625.61
639.568	644.21
639.765	646.15
639.963	630.07
640.161	694.78
640.358	682.18
640.556	627.35
640.753	580.08
640.951	599.45
641.148	612.63
641.346	584.92
641.543	610.69
641.741	627.55
641.938	595.97
642.136	613.21
642.333	579.11
642.531	640.33
642.728	670.56
642.925	613.21
643.123	573.1
643.32	610.5
643.517	594.61
643.715	611.08
643.912	604.49
644.109	593.45
644.306	607.79
644.504	596.16
644.701	607.98
644.898	656.8
645.095	597.52
645.293	599.65
645.49	625.8
645.687	617.86
645.884	615.73
646.081	565.16
646.278	567.1
646.475	594.22
646.672	571.94
646.87	629.48
647.067	578.92
647.264	596.74
647.461	538.81
647.658	512.27
647.855	596.74
648.052	590.54
648.249	493.47
648.446	564.97
648.642	547.34
648.839	540.75
649.036	522.54
649.233	510.14
649.43	534.94
649.627	501.61
649.824	534.74
650.021	524.09
650.217	536.49
650.414	531.45
650.611	544.43
650.808	555.09
651.004	572.14
651.201	570.78
651.398	610.89
651.595	542.88
651.791	556.44
651.988	543.65
652.185	511.88
652.381	572.14
652.578	503.55
652.775	506.46
652.971	522.92
653.168	528.54
653.364	555.86
653.561	509.17
653.757	526.6
653.954	553.34
654.15	522.54
654.347	567.68
654.543	557.22
654.74	483.79
654.936	478.36
655.133	497.54
655.329	551.79
655.525	538.23
655.722	537.45
655.918	488.82
656.115	540.17
656.311	459.76
656.507	459.96
656.704	421.01
656.9	458.21
657.096	451.82
657.292	454.53
657.489	503.55
657.685	511.69
657.881	480.3
658.077	450.66
658.273	471.77
658.47	562.06
658.666	503.74
658.862	509.94
659.058	474.68
659.254	552.76
659.45	468.87
659.646	522.54
659.842	508.59
660.038	534.74
660.234	490.37
660.43	525.05
660.626	582.99
660.822	534.16
661.018	553.92
661.214	508.39
661.41	499.87
661.606	537.26
661.802	541.72
661.998	496.96
662.194	486.89
662.39	533.77
662.586	545.59
662.781	519.63
662.977	534.74
663.173	525.25
663.369	518.27
663.564	514.01
663.76	564.58
663.956	513.24
664.152	535.52
664.347	459.57
664.543	516.92
664.739	511.3
664.934	432.64
665.13	443.29
665.326	526.41
665.521	505.1
665.717	458.99
665.912	459.18
666.108	425.08
666.304	450.46
666.499	489.79
666.695	426.05
666.89	481.85
667.086	540.36
667.281	524.09
667.477	525.25
667.672	464.41
667.867	504.32
668.063	493.09
668.258	443.29
668.454	473.32
668.649	547.53
668.844	488.05
669.04	526.8
669.235	481.46
669.43	490.18
669.626	439.03
669.821	458.02
670.016	460.92
670.211	493.86
670.407	452.4
670.602	497.16
670.797	479.33
670.992	511.69
671.187	429.73
671.382	515.95
671.578	473.13
671.773	481.27
671.968	425.86
672.163	474.29
672.358	484.37
672.553	463.25
672.748	468.48
672.943	542.3
673.138	474.1
673.333	506.46
673.528	445.81
673.723	519.44
673.918	471.77
674.113	451.24
674.308	516.72
674.503	462.86
674.698	508.2
674.892	485.72
675.087	500.45
675.282	508.78
675.477	462.67
675.672	477.59
675.867	481.85
676.061	433.22
676.256	403.58
676.451	421.21
676.646	479.72
676.84	430.7
677.035	414.23
677.23	402.03
677.424	508.39
677.619	496.77
677.814	499.48
678.008	504.13
678.203	391.56
678.397	417.33
678.592	443.68
678.787	506.84
678.981	450.27
679.176	455.31
679.37	449.88
679.565	424.11
679.759	454.72
679.954	455.69
680.148	467.9
680.342	485.92
680.537	485.92
680.731	439.22
680.926	445.23
681.12	489.02
681.314	410.36
681.509	462.47
681.703	463.64
681.897	460.34
682.092	446.2
682.286	441.74
682.48	512.85
682.674	467.71
682.869	426.63
683.063	462.86
683.257	529.7
683.451	443.68
683.645	468.09
683.839	460.54
684.034	458.6
684.228	470.81
684.422	418.88
684.616	406.68
684.81	470.42
685.004	449.11
685.198	425.08
685.392	448.33
685.586	422.95
685.78	429.93
685.974	433.8
686.168	445.62
686.362	470.81
686.556	421.01
686.75	388.85
686.944	404.35
687.138	393.31
687.331	342.93
687.525	327.82
687.719	298.37
687.913	324.91
688.107	365.21
688.301	313.68
688.494	384.78
688.688	338.48
688.882	334.8
689.076	335.96
689.269	311.55
689.463	403.96
689.657	355.33
689.85	346.61
690.044	371.8
690.238	333.44
690.431	316.78
690.625	342.35
690.818	384.01
691.012	409
691.205	396.21
691.399	341.58
691.593	388.08
691.786	445.42
691.98	427.79
692.173	441.16
692.366	413.26
692.56	419.08
692.753	464.41
692.947	374.71
693.14	477.2
693.333	466.54
693.527	365.99
693.72	432.64
693.914	370.44
694.107	417.14
694.3	408.81
694.493	412.1
694.687	464.22
694.88	418.11
695.073	478.36
695.266	471.97
695.46	437.48
695.653	503.16
695.846	457.63
696.039	398.34
696.232	423.73
696.425	497.16
696.618	463.83
696.812	445.81
697.005	502.19
697.198	589.19
697.391	516.53
697.584	507.42
697.777	553.15
697.97	523.12
698.163	538.62
698.356	505.29
698.549	578.34
698.742	555.47
698.935	529.9
699.127	557.22
699.32	526.99
699.513	513.04
699.706	567.68
699.899	570.39
700.092	546.75
700.285	572.33
700.477	536.68
700.67	582.4
700.863	589.77
701.056	642.08
701.248	623.48
701.441	621.35
701.634	587.25
701.826	675.6
702.019	543.65
702.212	636.65
702.404	593.45
702.597	571.36
702.79	617.47
702.982	651.18
703.175	661.26
703.367	682.18
703.56	643.05
703.752	743.8
703.945	670.75
704.137	690.9
704.33	717.64
704.522	717.64
704.715	721.9
704.907	757.55
705.1	766.85
705.292	785.84
705.484	727.71
705.677	781.77
705.869	759.3
706.061	785.65
706.254	856.94
706.446	802.69
706.638	781.96
706.831	869.34
707.023	816.26
707.215	900.54
707.407	830.79
707.599	845.51
707.792	887.36
707.984	856.36
708.176	883.29
708.368	839.89
708.56	896.86
708.752	881.55
708.944	870.7
709.136	922.62
709.329	884.65
709.521	989.66
709.713	964.09
709.905	967.38
710.097	1008.07
710.289	928.63
710.481	969.9
710.672	1002.06
710.864	971.64
711.056	1042.36
711.248	1030.35
711.44	1021.82
711.632	1047.59
711.824	1037.13
712.016	1097.77
712.207	1105.52
712.399	1084.79
712.591	1115.79
712.783	1098.35
712.975	1136.71
713.166	1094.48
713.358	1091.38
713.55	1171.78
713.741	1168.68
713.933	1161.32
714.125	1174.3
714.316	1133.62
714.508	1183.21
714.7	1216.15
714.891	1195.23
715.083	1268.27
715.274	1200.46
715.466	1206.27
715.657	1267.3
715.849	1156.48
716.04	1243.28
716.232	1168.3
716.423	1261.88
716.615	1170.62
716.806	1182.05
716.998	1132.84
717.189	1101.26
717.381	1064.83
717.572	1050.11
717.763	1082.08
717.955	1054.18
718.146	1058.83
718.337	1008.45
718.528	992.95
718.72	972.8
718.911	1011.36
719.102	981.91
719.293	1042.94
719.485	1010.78
719.676	1001.09
719.867	966.22
720.058	978.23
720.249	979.39
720.44	984.43
720.632	1031.9
720.823	1102.23
721.014	1163.84
721.205	1166.75
721.396	1217.9
721.587	1290.94
721.778	1285.9
721.969	1303.73
722.16	1362.62
722.351	1364.56
722.542	1460.08
722.733	1451.94
722.924	1350.81
723.115	1453.69
723.305	1449.42
723.496	1468.22
723.687	1372.7
723.878	1384.71
724.069	1355.46
724.26	1416.68
724.45	1311.67
724.641	1347.32
724.832	1339.37
725.023	1336.08
725.213	1362.82
725.404	1342.28
725.595	1372.7
725.785	1372.51
725.976	1371.15
726.167	1376.57
726.357	1391.11
726.548	1500.38
726.739	1392.46
726.929	1486.23
727.12	1497.47
727.31	1522.27
727.501	1442.06
727.691	1547.27
727.882	1501.15
728.072	1563.15
728.263	1543.78
728.453	1569.93
728.644	1582.72
728.834	1561.6
729.024	1562.96
729.215	1546.49
729.405	1570.52
729.596	1661.38
729.786	1644.33
729.976	1689.48
730.167	1691.22
730.357	1632.9
730.547	1673.59
730.737	1700.91
730.928	1733.26
731.118	1791.58
731.308	1675.33
731.498	1725.51
731.688	1826.65
731.879	1795.07
732.069	1860.17
732.259	1865.59
732.449	1839.82
732.639	1980.29
732.829	1963.63
733.019	2001.41
733.209	2036.67
733.399	2045.39
733.589	2094.02
733.779	2160.67
733.969	2098.86
734.159	2152.92
734.349	2206.39
734.539	2249.99
734.729	2218.41
734.919	2266.84
735.109	2297.07
735.299	2190.31
735.488	2278.85
735.678	2282.73
735.868	2286.8
736.058	2262.97
736.248	2282.15
736.437	2241.07
736.627	2254.64
736.817	2358.29
737.007	2302.49
737.196	2356.35
737.386	2312.37
737.576	2295.13
737.765	2385.42
737.955	2376.89
738.144	2473.38
738.334	2459.43
738.524	2443.15
738.713	2416.42
738.903	2415.25
739.092	2472.21
739.282	2474.73
739.471	2496.05
739.661	2455.55
739.85	2486.55
740.04	2526.08
740.229	2541.58
740.419	2538.28
740.608	2572.19
740.797	2550.29
740.987	2645.23
741.176	2631.28
741.365	2588.66
741.555	2563.47
741.744	2652.4
741.933	2582.26
742.123	2611.13
742.312	2640.77
742.501	2704.71
742.69	2662.86
742.88	2629.15
743.069	2735.71
743.258	2650.46
743.447	2738.23
743.636	2716.92
743.825	2674.1
744.014	2691.73
744.204	2751.4
744.393	2652.4
744.582	2756.83
744.771	2773.3
744.96	2705.29
745.149	2749.27
745.338	2728.15
745.527	2814.37
745.716	2769.81
745.905	2755.67
746.094	2832.39
746.283	2764
746.471	2761.29
746.66	2851.57
746.849	2825.42
747.038	2871.72
747.227	2812.43
747.416	2831.81
747.604	2772.72
747.793	2809.92
747.982	2839.95
748.171	2845.37
748.359	2776.01
748.548	2837.23
748.737	2788.02
748.926	2801
749.114	2736.68
749.303	2799.84
749.491	2804.88
749.68	2784.34
749.869	2874.43
750.057	2797.32
750.246	2775.43
750.434	2802.75
750.623	2799.84
750.811	2809.14
751	2835.88
751.188	2803.91
751.377	2822.12
751.565	2776.59
751.754	2754.5
751.942	2751.79
752.131	2810.11
752.319	2762.25
752.507	2722.73
752.696	2802.36
752.884	2848.86
753.072	2779.3
753.261	2813.79
753.449	2798.68
753.637	2772.91
753.825	2846.92
754.014	2788.6
754.202	2800.62
754.39	2865.52
754.578	2809.72
754.766	2770
754.955	2760.12
755.143	2827.35
755.331	2773.1
755.519	2772.72
755.707	2761.67
755.895	2750.24
756.083	2748.69
756.271	2730.09
756.459	2756.64
756.647	2811.66
756.835	2750.05
757.023	2739.78
757.211	2689.99
757.399	2717.3
757.587	2705.29
757.775	2660.34
757.963	2707.62
758.151	2734.16
758.339	2686.69
758.526	2670.61
758.714	2681.66
758.902	2603.58
759.09	2531.89
759.278	2351.51
759.465	2165.71
759.653	1859.39
759.841	1748.96
760.028	1440.7
760.216	1278.73
760.404	1238.24
760.591	1024.73
760.779	818.19
760.967	732.56
761.154	624.06
761.342	633.17
761.529	615.15
761.717	681.22
761.905	634.91
762.092	690.9
762.28	670.56
762.467	699.04
762.655	604.69
762.842	621.73
763.029	662.03
763.217	655.64
763.404	650.22
763.592	652.15
763.779	623.28
763.966	664.94
764.154	724.23
764.341	760.46
764.528	750.58
764.716	814.71
764.903	867.79
765.09	945.49
765.277	948.59
765.465	1096.03
765.652	1126.06
765.839	1207.63
766.026	1326.59
766.213	1348.67
766.4	1411.06
766.588	1604.81
766.775	1587.76
766.962	1652.28
767.149	1719.12
767.336	1868.3
767.523	1805.92
767.71	1914.42
767.897	2033.38
768.084	2105.64
768.271	2097.89
768.458	2144.78
768.645	2157.57
768.832	2193.41
769.019	2204.84
769.206	2224.22
769.392	2334.07
769.579	2387.35
769.766	2359.07
769.953	2372.82
770.14	2395.1
770.327	2402.27
770.513	2436.18
770.7	2497.4
770.887	2449.74
771.073	2417.77
771.26	2446.64
771.447	2392.78
771.634	2397.23
771.82	2513.68
772.007	2394.33
772.193	2422.03
772.38	2488.68
772.567	2424.75
772.753	2433.47
772.94	2516.97
773.126	2514.06
773.313	2493.91
773.499	2445.09
773.686	2484.61
773.872	2427.65
774.059	2462.91
774.245	2403.24
774.432	2409.63
774.618	2358.49
774.804	2408.67
774.991	2353.06
775.177	2427.07
775.363	2388.13
775.55	2412.54
775.736	2353.25
775.922	2378.44
776.109	2419.13
776.295	2390.45
776.481	2451.48
776.667	2453.42
776.853	2377.86
777.04	2353.25
777.226	2367.78
777.412	2440.05
777.598	2348.41
777.784	2296.68
777.97	2376.5
778.156	2366.04
778.342	2342.4
778.528	2364.3
778.715	2286.41
778.901	2326.13
779.087	2365.27
779.272	2324.97
779.458	2289.7
779.644	2329.42
779.83	2281.76
780.016	2391.23
780.202	2326.52
780.388	2312.57
780.574	2231.39
780.76	2235.26
780.946	2281.37
781.131	2261.22
781.317	2261.42
781.503	2273.62
781.689	2250.37
781.874	2358.87
782.06	2254.06
782.246	2235.65
782.432	2230.81
782.617	2274.79
782.803	2308.5
782.989	2192.44
783.174	2231
783.36	2146.53
783.545	2174.23
783.731	2208.14
783.916	2107
784.102	2255.22
784.288	2156.6
784.473	2182.18
784.659	2172.88
784.844	2222.86
785.029	2151.95
785.215	2165.71
785.4	2100.41
785.586	2195.16
785.771	2112.62
785.956	2174.04
786.142	2117.46
786.327	2097.12
786.512	2122.89
786.698	2113.2
786.883	2053.72
787.068	2087.43
787.254	2071.55
787.439	2082.01
787.624	2090.15
787.809	2066.9
787.994	2022.33
788.18	2085.88
788.365	2020.4
788.55	2052.95
788.735	1990.75
788.92	2011.87
789.105	2015.36
789.29	2036.48
789.475	1949.87
789.66	2028.73
789.845	1930.5
790.03	1968.86
790.215	2019.43
790.4	2037.83
790.585	2013.81
790.77	1997.53
790.955	1925.85
791.14	1991.92
791.325	2008.97
791.51	1885.94
791.695	1954.91
791.879	1929.33
792.064	1939.02
792.249	2010.32
792.434	1972.35
792.618	1944.45
792.803	1967.12
792.988	1930.11
793.173	1931.66
793.357	1987.07
793.542	1922.75
793.727	1923.72
793.911	1970.6
794.096	1937.47
794.281	1964.6
794.465	2055.66
794.65	1954.13
794.834	2004.7
795.019	2019.23
795.203	2029.89
795.388	2002.77
795.572	2042.87
795.757	2005.87
795.941	2019.43
796.126	1969.25
796.31	1929.33
796.494	1978.16
796.679	1968.86
796.863	1932.24
797.048	2011.48
797.232	2009.93
797.416	1972.15
797.601	1959.56
797.785	2044.23
797.969	2035.31
798.153	1968.08
798.338	2000.44
798.522	2042.68
798.706	2015.36
798.89	2022.14
799.074	2072.71
799.258	2071.74
799.443	2019.23
799.627	1981.65
799.811	2104.09
799.995	1977.38
800.179	1977.77
800.363	1989.59
800.547	1991.14
800.731	2050.62
800.915	1911.32
801.099	1984.75
801.283	1970.41
801.467	1987.46
801.651	1946
801.835	2032.99
802.019	2002.96
802.202	2006.83
802.386	1954.91
802.57	1963.05
802.754	1985.13
802.938	1936.31
803.121	1923.72
803.305	2037.64
803.489	1943.48
803.673	2017.3
803.856	2000.83
804.04	1985.13
804.224	1972.35
804.407	1955.49
804.591	1953.17
804.775	1937.08
804.958	1988.23
805.142	2065.93
805.326	1975.83
805.509	1990.37
805.693	2034.35
805.876	2016.71
806.06	1989.78
806.243	2024.27
806.427	2052.75
806.61	2040.93
806.794	1983.97
806.977	2027.76
807.16	1991.53
807.344	1995.02
807.527	1986.1
807.71	1979.9
807.894	1961.88
808.077	2057.01
808.26	1961.5
808.444	1960.72
808.627	2027.18
808.81	1944.45
808.993	1888.45
809.177	1939.02
809.36	1930.5
809.543	1974.09
809.726	1859.78
809.909	1883.42
810.092	1881.87
810.276	1856.87
810.459	1873.92
810.642	1862.69
810.825	1821.22
811.008	1825.29
811.191	1766.39
811.374	1789.26
811.557	1791.19
811.74	1853.77
811.923	1718.34
812.106	1705.75
812.289	1693.93
812.472	1704.98
812.654	1734.81
812.837	1668.16
813.02	1629.61
813.203	1640.07
813.386	1562.77
813.569	1546.49
813.751	1525.37
813.934	1547.85
814.117	1510.07
814.3	1464.15
814.482	1462.99
814.665	1399.82
814.848	1403.89
815.03	1355.26
815.213	1374.25
815.396	1387.42
815.578	1356.23
815.761	1283.96
815.943	1351.19
816.126	1275.44
816.309	1258
816.491	1209.18
816.674	1139.62
816.856	1211.89
817.039	1232.04
817.221	1262.26
817.403	1233.01
817.586	1226.23
817.768	1248.12
817.951	1144.46
818.133	1151.63
818.315	1204.33
818.498	1208.21
818.68	1306.05
818.862	1257.61
819.045	1266.33
819.227	1259.36
819.409	1218.86
819.591	1248.31
819.774	1227.58
819.956	1201.43
820.138	1301.4
820.32	1281.44
820.502	1336.27
820.684	1352.16
820.866	1363.59
821.048	1400.02
821.231	1386.65
821.413	1405.64
821.595	1375.61
821.777	1395.17
821.959	1369.21
822.141	1406.8
822.323	1328.33
822.505	1263.04
822.686	1213.05
822.868	1214.6
823.05	1090.02
823.232	1117.34
823.414	1030.35
823.596	1126.64
823.778	1090.02
823.96	1104.75
824.141	1118.7
824.323	1130.32
824.505	1170.23
824.687	1233.01
824.868	1258.58
825.05	1366.5
825.232	1367.47
825.413	1437.8
825.595	1361.27
825.777	1298.88
825.958	1367.47
826.14	1345.57
826.321	1373.86
826.503	1349.64
826.685	1379.48
826.866	1380.84
827.048	1368.82
827.229	1339.96
827.411	1297.91
827.592	1267.3
827.773	1269.63
827.955	1226.42
828.136	1252.19
828.318	1220.22
828.499	1271.76
828.68	1199.68
828.862	1248.51
829.043	1278.93
829.224	1229.13
829.406	1198.71
829.587	1200.26
829.768	1182.63
829.949	1227
830.131	1205.3
830.312	1274.28
830.493	1230.29
830.674	1239.01
830.855	1215.18
831.036	1243.66
831.218	1290.36
831.399	1268.27
831.58	1234.94
831.761	1249.09
831.942	1269.24
832.123	1232.62
832.304	1187.48
832.485	1203.56
832.666	1235.14
832.847	1236.11
833.028	1212.66
833.209	1235.72
833.389	1211.11
833.57	1159.77
833.751	1195.42
833.932	1255.09
834.113	1242.69
834.294	1176.63
834.475	1267.3
834.655	1269.82
834.836	1289
835.017	1304.5
835.198	1236.3
835.378	1236.11
835.559	1270.01
835.74	1255.68
835.92	1246.76
836.101	1233.01
836.281	1264.78
836.462	1263.81
836.643	1297.53
836.823	1265.36
837.004	1293.26
837.184	1372.7
837.365	1294.81
837.545	1303.34
837.726	1284.54
837.906	1351.77
838.087	1290.36
838.267	1288.23
838.448	1245.21
838.628	1300.04
838.808	1290.74
838.989	1295.01
839.169	1261.88
839.349	1309.15
839.53	1294.62
839.71	1286.48
839.89	1236.3
840.07	1336.27
840.251	1256.84
840.431	1289.19
840.611	1266.14
840.791	1255.68
840.971	1298.49
841.151	1278.34
841.332	1243.08
841.512	1303.53
841.692	1238.63
841.872	1295.01
842.052	1262.26
842.232	1302.56
842.412	1216.35
842.592	1262.46
842.772	1299.46
842.952	1273.89
843.132	1259.55
843.312	1226.61
843.492	1219.06
843.672	1279.7
843.851	1191.93
844.031	1241.34
844.211	1246.38
844.391	1211.5
844.571	1269.43
844.751	1284.16
844.93	1261.68
845.11	1213.05
845.29	1264.59
845.47	1263.23
845.649	1241.73
845.829	1222.55
846.009	1223.13
846.188	1257.03
846.368	1208.21
846.547	1242.11
846.727	1250.83
846.907	1171.59
847.086	1226.23
847.266	1261.68
847.445	1238.24
847.625	1215.18
847.804	1222.35
847.984	1214.99
848.163	1214.41
848.343	1177.01
848.522	1166.94
848.701	1233.59
848.881	1160.74
849.06	1183.21
849.239	1233.2
849.419	1196.2
849.598	1164.03
849.777	1171.98
849.957	1177.79
850.136	1100.68
850.315	1088.08
850.494	1082.66
850.674	1113.66
850.853	1148.73
851.032	1148.15
851.211	1153.57
851.39	1115.98
851.569	1090.22
851.748	1115.4
851.927	1141.95
852.107	1136.91
852.286	1065.61
852.465	1072.58
852.644	1157.25
852.823	1154.35
853.002	1120.63
853.181	1119.08
853.359	1120.05
853.538	1075.88
853.717	1150.86
853.896	1036.35
854.075	981.72
854.254	994.12
854.433	916.62
854.611	1013.1
854.79	920.49
854.969	976.87
855.148	1017.17
855.327	949.56
855.505	1011.55
855.684	943.74
855.863	1026.47
856.041	1011.94
856.22	1043.33
856.399	1002.84
856.577	1085.18
856.756	1060.18
856.934	1163.65
857.113	1152.6
857.291	1080.92
857.47	1045.27
857.648	1086.15
857.827	1084.98
858.005	1089.63
858.184	1050.69
858.362	1130.71
858.541	1066.77
858.719	1074.91
858.898	1059.99
859.076	1064.25
859.254	1117.92
859.433	1019.69
859.611	1064.64
859.789	1028.22
859.967	1115.6
860.146	1110.17
860.324	1047.79
860.502	1029.57
860.68	972.03
860.859	1010.97
861.037	1028.41
861.215	1042.17
861.393	1023.18
861.571	1035.19
861.749	997.99
861.927	1055.73
862.105	1043.33
862.283	1024.15
862.461	1002.45
862.639	967.38
862.817	1018.14
862.995	987.92
863.173	1031.9
863.351	1002.84
863.529	1018.72
863.707	1051.85
863.885	1023.57
864.063	938.32
864.241	979.78
864.418	1052.43
864.596	961.95
864.774	926.5
864.952	980.36
865.129	999.74
865.307	925.14
865.485	932.89
865.663	987.34
865.84	898.99
866.018	975.32
866.196	828.66
866.373	902.67
866.551	819.16
866.728	779.45
866.906	816.64
867.084	880.58
867.261	879.03
867.439	896.86
867.616	917.78
867.794	894.14
867.971	911.58
868.149	881.16
868.326	953.04
868.503	918.75
868.681	935.22
868.858	908.67
869.035	913.13
869.213	920.49
869.39	907.71
869.567	994.7
869.745	890.66
869.922	930.96
870.099	944.13
870.276	969.32
870.454	926.89
870.631	934.64
870.808	885.04
870.985	931.34
871.162	993.92
871.339	923.79
871.517	889.69
871.694	866.05
871.871	902.86
872.048	902.28
872.225	881.94
872.402	925.92
872.579	848.03
872.756	916.23
872.933	855.39
873.11	894.72
873.287	899.96
873.463	869.34
873.64	867.99
873.817	887.75
873.994	885.23
874.171	841.64
874.348	899.57
874.524	767.43
874.701	866.63
874.878	815.09
875.055	870.31
875.231	827.69
875.408	867.79
875.585	768.4
875.762	842.41
875.938	837.96
876.115	857.53
876.291	835.63
876.468	813.35
876.645	810.06
876.821	795.53
876.998	813.93
877.174	835.05
877.351	804.83
877.527	799.79
877.704	839.89
877.88	832.73
878.057	796.3
878.233	847.64
878.409	814.51
878.586	819.36
878.762	804.83
878.938	776.35
879.115	751.55
879.291	766.85
879.467	759.49
879.644	746.31
879.82	834.28
879.996	753.68
880.172	731.01
880.349	792.62
880.525	800.76
880.701	740.7
880.877	741.47
881.053	805.41
881.229	761.81
881.405	806.57
881.581	750.38
881.757	769.18
881.933	760.26
882.109	781.19
882.285	792.43
882.461	750
882.637	750
882.813	729.85
882.989	771.89
883.165	808.31
883.341	736.82
883.517	814.32
883.693	778.48
883.869	809.86
884.044	764.33
884.22	752.71
884.396	839.12
884.572	772.28
884.747	790.88
884.923	757.94
885.099	775.57
885.275	802.5
885.45	756.39
885.626	756
885.801	762.4
885.977	750
886.153	732.36
886.328	772.86
886.504	735.27
886.679	766.27
886.855	766.27
887.03	769.76
887.206	776.54
887.381	773.63
887.557	780.41
887.732	755.03
887.908	783.51
888.083	798.43
888.258	758.52
888.434	737.98
888.609	755.03
888.784	798.82
888.96	749.22
889.135	759.88
889.31	711.05
889.485	755.03
889.661	745.35
889.836	807.34
890.011	778.86
890.186	745.15
890.361	737.01
890.537	772.86
890.712	779.64
890.887	750.19
891.062	777.51
891.237	830.79
891.412	691.87
891.587	780.61
891.762	768.98
891.937	772.86
892.112	690.13
892.287	741.08
892.462	720.35
892.637	691.68
892.812	668.04
892.987	698.85
893.161	683.73
893.336	716.48
893.511	698.07
893.686	722.87
893.861	694.97
894.035	703.88
894.21	680.25
894.385	594.61
894.56	681.6
894.734	633.55
894.909	663.39
895.084	611.47
895.258	627.93
895.433	626.19
895.608	612.82
895.782	588.99
895.957	592.29
896.131	576.98
896.306	531.06
896.48	571.55
896.655	539.2
896.829	461.7
897.004	480.3
897.178	515.76
897.353	474.68
897.527	551.02
897.701	503.55
897.876	492.51
898.05	545.98
898.224	527.77
898.399	568.26
898.573	500.06
898.747	399.7
898.921	473.13
899.096	389.24
899.27	405.32
899.444	423.73
899.618	427.21
899.792	466.35
899.967	449.3
900.141	480.69
900.315	416.75
900.489	416.75
900.663	442.91
900.837	441.55
901.011	413.26
901.185	485.72
901.359	444.65
901.533	452.4
901.707	458.41
901.881	450.66
902.055	392.73
902.229	430.7
902.403	491.92
902.576	457.82
902.75	436.13
902.924	538.62
903.098	467.51
903.272	511.69
903.446	567.29
903.619	524.47
903.793	539.39
903.967	547.53
904.14	583.57
904.314	573.49
904.488	552.76
904.661	580.85
904.835	537.45
905.009	583.76
905.182	616.5
905.356	573.49
905.529	538.04
905.703	508.97
905.876	520.41
906.05	517.11
906.223	486.11
906.397	449.88
906.57	451.43
906.744	433.8
906.917	442.91
907.09	437.48
907.264	413.46
907.437	425.86
907.61	375.68
907.784	380.13
907.957	423.73
908.13	386.72
908.304	443.49
908.477	382.84
908.65	383.23
908.823	365.41
908.996	435.54
909.17	374.32
909.343	355.72
909.516	387.69
909.689	397.18
909.862	369.67
910.035	411.91
910.208	363.08
910.381	360.95
910.554	432.06
910.727	351.46
910.9	384.01
911.073	391.18
911.246	401.06
911.419	424.11
911.592	414.62
911.765	354.75
911.938	361.73
912.11	381.88
912.283	385.75
912.456	410.36
912.629	384.98
912.802	358.82
912.974	327.82
913.147	331.7
913.32	284.61
913.493	315.03
913.665	325.5
913.838	337.7
914.01	312.32
914.183	336.54
914.356	331.7
914.528	380.13
914.701	412.1
914.873	391.18
915.046	322.01
915.218	295.85
915.391	254.78
915.563	261.75
915.736	313.1
915.908	326.85
916.081	335.18
916.253	336.93
916.425	337.51
916.598	348.16
916.77	325.11
916.942	294.69
917.115	248.97
917.287	362.69
917.459	291.01
917.632	254.2
917.804	225.52
917.976	325.3
918.148	301.28
918.32	326.66
918.493	356.49
918.665	383.43
918.837	334.02
919.009	382.46
919.181	368.89
919.353	372.96
919.525	354.36
919.697	314.26
919.869	336.93
920.041	404.35
920.213	462.86
920.385	377.23
920.557	342.35
920.729	367.54
920.901	376.26
921.073	339.45
921.244	336.93
921.416	406.68
921.588	343.71
921.76	353.2
921.932	405.13
922.103	349.13
922.275	346.61
922.447	359.59
922.619	304.96
922.79	342.55
922.962	327.24
923.134	355.14
923.305	300.89
923.477	290.23
923.648	246.45
923.82	335.57
923.991	256.72
924.163	244.12
924.335	277.45
924.506	274.73
924.677	346.23
924.849	264.08
925.02	309.61
925.192	312.9
925.363	328.98
925.535	296.82
925.706	286.36
925.877	339.83
926.049	272.8
926.22	286.55
926.391	314.65
926.562	305.54
926.734	267.95
926.905	311.35
927.076	219.13
927.247	267.95
927.419	250.52
927.59	222.62
927.761	255.17
927.932	224.36
928.103	254.58
928.274	210.22
928.445	188.13
928.616	216.8
928.787	208.47
928.958	225.91
929.129	228.04
929.3	183.67
929.471	178.05
929.642	141.82
929.813	107.72
929.984	192
930.155	113.15
930.326	174.57
930.496	150.35
930.667	70.72
930.838	146.86
931.009	82.92
931.18	137.56
931.35	113.15
931.521	117.02
931.692	82.73
931.863	43.59
932.033	105.79
932.204	85.06
932.374	86.22
932.545	57.16
932.716	94.35
932.886	98.81
933.057	34.1
933.227	21.89
933.398	95.13
933.568	49.99
933.739	-12.4
933.909	18.6
934.08	75.76
934.25	9.11
934.421	10.27
934.591	50.96
934.761	35.26
934.932	1.36
935.102	19.37
935.272	33.71
935.443	3.29
935.613	12.59
935.783	51.92
935.953	5.42
936.123	161.59
936.294	3.29
936.464	12.4
936.634	30.81
936.804	-13.76
936.974	-3.49
937.144	41.27
937.314	14.72
937.484	21.51
937.655	16.08
937.825	50.96
937.995	28.48
938.165	49.02
938.334	12.4
938.504	52.51
938.674	24.41
938.844	14.14
939.014	57.74
939.184	77.89
939.354	119.54
939.524	94.55
939.694	65.68
939.863	64.13
940.033	96.29
940.203	102.3
940.373	83.12
940.542	109.66
940.712	42.24
940.882	80.21
941.051	113.34
941.221	95.52
941.391	111.21
941.56	23.44
941.73	64.71
941.899	158.1
942.069	68.01
942.238	78.27
942.408	41.27
942.577	76.53
942.747	66.84
942.916	19.76
943.086	39.14
943.255	79.05
943.425	62.19
943.594	41.46
943.763	-2.91
943.933	2.91
944.102	9.3
944.271	41.27
944.441	76.72
944.61	31.19
944.779	18.41
944.948	128.45
945.117	-2.32
945.287	39.52
945.456	-4.07
945.625	26.35
945.794	31.77
945.963	-1.55
946.132	54.06
946.301	25.96
946.47	75.37
946.639	6.39
946.808	48.63
946.977	48.24
947.146	86.22
947.315	37.59
947.484	61.03
947.653	39.14
947.822	27.51
947.991	9.69
948.16	103.27
948.329	73.04
948.498	29.84
948.666	30.42
948.835	76.14
949.004	-18.79
949.173	4.26
949.341	49.99
949.51	59.67
949.679	101.33
949.847	84.67
950.016	137.95
950.185	111.79
950.353	40.69
950.522	53.67
950.69	76.34
950.859	43.79
951.028	72.66
951.196	52.31
951.365	55.99
951.533	41.07
951.701	74.59
951.87	86.61
952.038	20.34
952.207	50.76
952.375	93.39
952.543	15.11
952.712	29.26
952.88	25.77
953.048	88.15
953.217	36.23
953.385	61.42
953.553	104.43
953.721	24.41
953.89	19.76
954.058	0.58
954.226	24.22
954.394	62.19
954.562	7.36
954.73	51.92
954.898	51.15
955.067	68.39
955.235	18.02
955.403	82.73
955.571	102.3
955.739	68.39
955.907	4.46
956.075	34.29
956.243	20.73
956.41	57.54
956.578	2.91
956.746	-0.19
956.914	31.39
957.082	49.21
957.25	78.66
957.418	21.51
957.585	52.51
957.753	95.32
957.921	21.51
958.089	50.18
958.256	66.84
958.424	53.67
958.592	64.52
958.759	22.28
958.927	68.39
959.095	27.71
959.262	26.93
959.43	64.32
959.597	13.56
959.765	38.56
959.932	15.11
960.1	48.82
960.267	45.34
960.435	34.49
960.602	65.29
960.77	45.92
960.937	32.74
961.104	67.62
961.272	10.66
961.439	18.99
961.606	74.4
961.774	81.76
961.941	13.76
962.108	67.81
962.275	48.44
962.443	67.42
962.61	58.51
962.777	124.77
962.944	96.49
963.111	65.68
963.278	107.92
963.446	61.22
963.613	56.96
963.78	96.49
963.947	83.89
964.114	72.85
964.281	126.13
964.448	77.69
964.615	45.53
964.782	82.92
964.949	86.41
965.116	80.79
965.282	99.39
965.449	56.38
965.616	16.86
965.783	82.54
965.95	67.42
966.117	31.58
966.283	87.19
966.45	81.37
966.617	59.29
966.784	106.75
966.95	79.24
967.117	85.25
967.284	35.84
967.45	27.71
967.617	113.73
967.784	96.1
967.95	116.44
968.117	70.52
968.283	128.84
968.45	176.89
968.616	86.99
968.783	110.44
968.949	86.61
969.116	104.04
969.282	93.77
969.449	79.24
969.615	93.19
969.781	39.14
969.948	41.85
970.114	19.76
970.28	142.02
970.447	73.04
970.613	117.6
970.779	71.69
970.945	106.56
971.112	87.19
971.278	80.41
971.444	68.01
971.61	140.27
971.776	87.77
971.942	91.25
972.108	69.75
972.275	78.86
972.441	84.67
972.607	153.84
972.773	65.1
972.939	79.05
973.105	61.22
973.271	39.91
973.437	63.94
973.602	47.08
973.768	102.88
973.934	79.24
974.1	84.28
974.266	-14.92
974.432	88.15
974.598	62.97
974.763	94.74
974.929	26.54
975.095	121.48
975.261	66.26
975.426	38.75
975.592	56.57
975.758	130.59
975.923	29.45
976.089	65.87
976.255	70.52
976.42	93.97
976.586	82.73
976.751	64.32
976.917	153.84
977.082	99.59
977.248	9.11
977.413	9.49
977.579	73.43
977.744	92.22
977.91	37.97
978.075	54.25
978.24	69.75
978.406	44.95
978.571	62.39
978.736	49.6
978.902	82.73
979.067	36.62
979.232	1.74
979.397	62
979.563	112.37
979.728	24.8
979.893	54.64
980.058	45.14
980.223	89.32
980.388	58.51
980.554	66.84
980.719	64.13
980.884	74.59
981.049	105.98
981.214	58.71
981.379	71.49
981.544	36.62
981.709	65.68
981.874	60.06
982.039	80.99
982.204	87.96
982.368	72.85
982.533	27.71
982.698	103.27
982.863	104.04
983.028	59.48
983.193	83.51
983.357	103.27
983.522	63.55
983.687	50.57
983.852	52.12
984.016	35.65
984.181	85.64
984.346	70.91
984.51	63.74
984.675	49.21
984.839	84.86
985.004	88.35
985.168	89.9
985.333	82.15
985.498	50.96
985.662	99
985.827	81.18
985.991	67.42
986.155	53.28
986.32	89.32
986.484	106.37
986.649	78.27
986.813	30.22
986.977	68.59
987.142	86.22
987.306	15.11
987.47	64.32
987.634	56.57
987.799	53.28
987.963	83.51
988.127	97.84
988.291	135.24
988.455	71.3
988.62	69.56
988.784	82.15
988.948	53.09
989.112	23.06
989.276	63.74
989.44	70.72
989.604	74.21
989.768	60.45
989.932	125.94
990.096	31.19
990.26	49.41
990.424	19.96
990.588	42.82
990.752	149.38
990.915	82.92
991.079	86.02
991.243	23.83
991.407	100.94
991.571	30.42
991.734	94.35
991.898	97.84
992.062	130
992.226	56.19
992.389	34.87
992.553	8.14
992.717	44.56
992.88	45.92
993.044	42.43
993.207	56.96
993.371	38.56
993.535	55.61
993.698	56.96
993.862	102.49
994.025	104.43
994.189	59.67
994.352	73.24
994.515	87.38
994.679	118.77
994.842	62.39
995.006	104.43
995.169	23.06
995.332	42.62
995.496	92.22
995.659	13.56
995.822	26.54
995.985	44.76
996.149	84.67
996.312	41.46
996.475	102.88
996.638	43.98
996.801	113.54
996.964	121.67
997.128	47.66
997.291	17.44
997.454	61.61
997.617	18.21
997.78	94.16
997.943	9.88
998.106	75.56
998.269	6.78
998.432	41.46
998.595	58.12
998.758	48.05
998.92	2.32
999.083	-2.13
999.246	21.51
999.409	16.08
999.572	-15.31
999.735	14.53
999.897	58.71
1000.06	37.2
1000.223	20.92
1000.386	69.75
1000.548	69.94
1000.711	43.98
1000.874	78.66
1001.036	19.76
1001.199	56.19
1001.361	32.16
1001.524	50.57
1001.687	77.89
1001.849	34.29
1002.012	46.69
1002.174	53.47
1002.337	70.33
1002.499	22.47
1002.661	86.22
1002.824	3.68
1002.986	4.84
1003.149	46.5
1003.311	44.95
1003.473	95.71
1003.636	28.09
1003.798	24.61
1003.96	62.19
1004.123	43.21
1004.285	14.14
1004.447	39.14
1004.609	31.58
1004.771	95.13
1004.933	-18.21
1005.096	3.68
1005.258	-9.3
1005.42	22.28
1005.582	58.12
1005.744	38.36
1005.906	-7.36
1006.068	25.38
1006.23	-0.97
1006.392	-18.99
1006.554	14.92
1006.716	77.69
1006.878	25.77
1007.04	-32.36
1007.202	37.78
1007.363	51.34
1007.525	46.69
1007.687	42.24
1007.849	89.9
1008.011	-11.82
1008.172	5.42
1008.334	21.31
1008.496	30.22
1008.658	-21.7
1008.819	17.63
1008.981	-23.83
1009.143	18.79
1009.304	14.34
1009.466	40.88
1009.627	76.92
1009.789	126.13
1009.95	41.85
1010.112	3.1
1010.273	49.99
1010.435	10.66
1010.596	12.01
1010.758	32.55
1010.919	25.57
1011.081	-12.79
1011.242	8.33
1011.403	41.27
1011.565	54.25
1011.726	39.91
1011.887	4.65
1012.049	8.33
1012.21	51.54
1012.371	94.35
1012.532	-59.87
1012.693	20.73
1012.855	3.29
1013.016	38.75
1013.177	74.01
1013.338	15.69
1013.499	92.42
1013.66	45.92
1013.821	52.12
1013.982	28.48
1014.143	17.44
1014.304	15.89
1014.465	48.24
1014.626	41.07
1014.787	16.08
1014.948	82.73
1015.109	-47.27
1015.27	45.92
1015.431	-2.52
1015.592	6.01
1015.752	65.49
1015.913	36.62
1016.074	20.92
1016.235	21.51
1016.395	2.32
1016.556	-0.97
1016.717	23.44
1016.877	67.04
1017.038	13.37
1017.199	28.87
1017.359	24.8
1017.52	26.74
1017.681	-3.68
1017.841	-0.58
1018.002	12.4
1018.162	-0.77
1018.323	47.47
1018.483	21.31
1018.644	12.01
1018.804	-19.76
1018.964	-2.32
1019.125	-4.07
1019.285	36.62
1019.446	2.32
1019.606	-3.68
1019.766	-40.88
1019.926	2.52
1020.087	29.26
1020.247	-14.34
1020.407	22.86
1020.567	53.09
1020.728	17.44
1020.888	-17.44
1021.048	-10.27
1021.208	-25.57
1021.368	-16.08
1021.528	53.09
1021.688	31.58
1021.848	13.95
1022.008	-5.81
1022.168	-7.75
1022.328	28.09
1022.488	17.05
1022.648	-0.58
1022.808	1.74
1022.968	7.75
1023.128	-14.34
1023.288	-21.31
1023.448	22.67
1023.608	37.59
1023.767	43.98
1023.927	-5.23
1024.087	-42.43
1024.247	-28.29
1024.406	11.62
1024.566	-19.96
1024.726	-19.37
1024.885	2.91
1025.045	14.53
1025.205	-7.56
1025.364	5.23
1025.524	19.76
1025.683	12.21
1025.843	34.29
1026.003	-15.5
1026.162	62.97
1026.321	69.36
1026.481	14.34
1026.64	8.72
1026.8	35.84
1026.959	25.77
1027.119	-1.94
1027.278	-24.99
1027.437	0
1027.597	23.06
1027.756	18.41
1027.915	22.67
1028.074	32.16
1028.234	-13.95
1028.393	-1.74
1028.552	3.49
1028.711	-68.39
1028.87	41.07
1029.03	-30.42
1029.189	4.26
1029.348	-54.64
1029.507	18.99
1029.666	-19.37
1029.825	-30.03
1029.984	-25.96
1030.143	16.27
1030.302	20.73
1030.461	-33.91
1030.62	15.31
1030.779	18.21
1030.938	-10.66
1031.097	-33.52
1031.255	25.96
1031.414	51.73
1031.573	34.29
1031.732	-54.44
1031.891	10.46
1032.049	48.05
1032.208	30.03
1032.367	-30.81
1032.525	-4.07
1032.684	4.46
1032.843	39.14
1033.001	-63.36
1033.16	130.97
1033.319	40.88
1033.477	18.6
1033.636	-24.8
1033.794	-39.91
1033.953	23.06
1034.111	11.04
1034.27	-6.78
1034.428	43.4
1034.587	-0
1034.745	15.89
1034.903	4.26
1035.062	2.71
1035.22	-46.69
1035.378	42.82
1035.537	-21.89
1035.695	49.99
1035.853	-16.08
1036.011	12.59
1036.17	10.85
1036.328	-46.31
1036.486	20.54
1036.644	-12.59
1036.802	-90.48
1036.96	-23.83
1037.119	-15.89
1037.277	-24.22
1037.435	-18.41
1037.593	-24.22
1037.751	10.66
1037.909	36.62
1038.067	36.62
