Data from oakcork_FLMT105791__37__17-27-12-066.txt Node

Date: Mon Mar 20 17:27:12 GMT 2023
User: antho
Spectrometer: FLMT10579
Trigger mode: 0
Integration Time (sec): 1.000000E-1
Scans to average: 10
Electric dark correction enabled: true
Nonlinearity correction enabled: false
Boxcar width: 0
XAxis mode: Wavelengths
Number of Pixels in Spectrum: 3648
>>>>>Begin Spectral Data<<<<<
345.248	-162.28
345.464	-162.28
345.681	-162.28
345.898	-153.37
346.114	-152.59
346.331	-40.02
346.548	5.89
346.764	-5.34
346.981	18.49
347.197	-9.41
347.414	14.03
347.631	-19.88
347.847	47.16
348.064	4.54
348.28	25.85
348.497	-30.92
348.713	-10.38
348.93	59.17
349.146	30.5
349.363	2.02
349.579	23.91
349.796	-10.19
350.012	-2.44
350.229	52.59
350.445	26.43
350.661	3.96
350.878	15.58
351.094	27.01
351.311	35.34
351.527	26.04
351.743	-27.04
351.96	33.21
352.176	49.29
352.392	28.76
352.609	41.16
352.825	-12.13
353.041	-3.41
353.257	15
353.474	19.26
353.69	22.94
353.906	18.49
354.122	7.06
354.339	44.26
354.555	9.38
354.771	-12.9
354.987	68.67
355.203	59.95
355.42	-1.28
355.636	9.96
355.852	5.31
356.068	9.77
356.284	-40.22
356.5	75.45
356.716	11.51
356.932	19.84
357.148	36.51
357.364	9.57
357.58	56.07
357.796	71.38
358.012	27.79
358.228	27.59
358.444	-72.38
358.66	74.48
358.876	20.42
359.092	-11.93
359.308	14.61
359.524	14.61
359.74	-16.97
359.956	-7.86
360.172	2.02
360.388	60.34
360.604	0.86
360.819	78.94
361.035	7.64
361.251	41.16
361.467	2.99
361.683	50.07
361.898	46
362.114	43.87
362.33	36.31
362.546	48.91
362.762	24.11
362.977	26.24
363.193	-6.51
363.409	45.22
363.624	15.39
363.84	-11.54
364.056	5.7
364.271	28.76
364.487	38.06
364.703	15.97
364.918	0.66
365.134	11.51
365.35	25.85
365.565	81.65
365.781	20.62
365.996	30.31
366.212	101.6
366.427	27.4
366.643	2.99
366.858	19.65
367.074	11.12
367.289	38.64
367.505	112.84
367.72	-9.99
367.936	33.79
368.151	72.74
368.367	22.94
368.582	24.49
368.798	14.03
369.013	88.62
369.228	23.72
369.444	57.24
369.659	83.2
369.874	13.84
370.09	92.89
370.305	-27.43
370.52	-7.09
370.736	82.81
370.951	9.57
371.166	91.34
371.381	76.61
371.597	65.76
371.812	-4.18
372.027	2.79
372.242	27.01
372.458	100.25
372.673	35.15
372.888	40.19
373.103	45.42
373.318	131.83
373.533	61.89
373.749	21.59
373.964	-1.86
374.179	70.8
374.394	12.48
374.609	51.04
374.824	-15.42
375.039	46.39
375.254	16.74
375.469	75.25
375.684	36.7
375.899	81.07
376.114	34.57
376.329	47.74
376.544	69.25
376.759	58.79
376.974	7.44
377.189	14.22
377.404	16.94
377.619	74.48
377.834	-15.61
378.049	-11.35
378.264	-7.67
378.478	20.42
378.693	16.36
378.908	56.27
379.123	26.62
379.338	86.3
379.553	81.65
379.767	45.22
379.982	36.7
380.197	53.94
380.412	41.16
380.626	55.49
380.841	96.18
381.056	64.99
381.271	83.59
381.485	35.54
381.7	22.56
381.915	52.78
382.129	13.64
382.344	62.08
382.559	5.89
382.773	53.17
382.988	-8.83
383.202	46.58
383.417	11.9
383.632	152.75
383.846	27.59
384.061	58.79
384.275	29.34
384.49	66.73
384.704	71.38
384.919	40.96
385.133	8.02
385.348	80.1
385.562	-19.68
385.777	51.42
385.991	63.05
386.206	54.52
386.42	24.69
386.634	80.49
386.849	65.76
387.063	44.64
387.277	21.78
387.492	2.02
387.706	22.17
387.92	7.06
388.135	70.02
388.349	73.32
388.563	46.58
388.778	62.47
388.992	70.41
389.206	71.38
389.42	108.77
389.635	38.06
389.849	88.24
390.063	94.44
390.277	58.79
390.491	108.19
390.706	74.87
390.92	73.12
391.134	55.49
391.348	87.65
391.562	17.91
391.776	47.16
391.99	30.11
392.205	92.11
392.419	15.97
392.633	58.98
392.847	92.89
393.061	41.54
393.275	105.87
393.489	32.05
393.703	66.54
393.917	86.49
394.131	28.17
394.345	66.15
394.559	78.16
394.773	39.99
394.986	57.62
395.2	70.8
395.414	64.6
395.628	27.21
395.842	77.58
396.056	36.51
396.27	8.41
396.484	79.71
396.697	47.16
396.911	103.74
397.125	55.3
397.339	97.15
397.553	92.3
397.766	110.9
397.98	88.04
398.194	91.92
398.408	48.71
398.621	93.08
398.835	131.83
399.049	79.13
399.262	111.1
399.476	106.84
399.69	117.88
399.903	160.12
400.117	65.37
400.331	101.41
400.544	78.55
400.758	200.22
400.971	93.66
401.185	136.29
401.398	53.36
401.612	142.68
401.826	146.17
402.039	109.74
402.253	88.24
402.466	135.12
402.68	98.7
402.893	98.89
403.106	100.25
403.32	73.7
403.533	103.15
403.747	121.95
403.96	93.27
404.174	134.74
404.387	52.78
404.6	94.05
404.814	122.92
405.027	96.76
405.24	108.39
405.454	91.92
405.667	126.4
405.88	64.4
406.094	128.73
406.307	142.48
406.52	144.42
406.733	107.61
406.947	60.34
407.16	144.03
407.373	166.9
407.586	70.41
407.799	62.47
408.012	135.9
408.226	112.45
408.439	174.07
408.652	56.46
408.865	133.96
409.078	150.23
409.291	146.17
409.504	70.8
409.717	102.96
409.93	127.57
410.143	132.22
410.357	70.8
410.57	80.87
410.783	103.54
410.996	126.6
411.209	103.35
411.421	137.06
411.634	108.58
411.847	89.2
412.06	119.82
412.273	95.79
412.486	124.66
412.699	200.8
412.912	124.66
413.125	168.64
413.338	131.44
413.55	150.62
413.763	128.15
413.976	130.86
414.189	107.42
414.402	114.39
414.615	193.83
414.827	90.56
415.04	159.34
415.253	132.8
415.466	180.27
415.678	165.54
415.891	120.98
416.104	147.52
416.316	137.06
416.529	107.22
416.742	135.9
416.954	193.05
417.167	127.76
417.38	102.77
417.592	185.88
417.805	91.72
418.017	89.59
418.23	136.09
418.442	116.91
418.655	87.46
418.868	153.72
419.08	169.61
419.293	174.26
419.505	144.81
419.718	145.78
419.93	187.05
420.142	126.6
420.355	182.98
420.567	190.53
420.78	151.4
420.992	142.1
421.205	207.2
421.417	96.18
421.629	119.62
421.842	105.09
422.054	118.85
422.266	158.76
422.479	198.87
422.691	140.35
422.903	194.41
423.115	110.52
423.328	148.3
423.54	146.75
423.752	147.33
423.964	122.14
424.177	181.82
424.389	170
424.601	268.61
424.813	155.47
425.025	174.84
425.238	161.67
425.45	152.75
425.662	135.9
425.874	447.64
426.086	161.08
426.298	184.53
426.51	203.71
426.722	163.41
426.934	153.53
427.146	136.87
427.358	117.3
427.57	178.33
427.782	169.42
427.994	140.16
428.206	139.97
428.418	127.57
428.63	196.73
428.842	213.01
429.054	152.95
429.266	179.49
429.478	116.33
429.69	190.15
429.902	119.04
430.114	175.62
430.325	172.32
430.537	124.85
430.749	170.38
430.961	81.26
431.173	135.12
431.384	180.27
431.596	79.13
431.808	141.71
432.02	167.09
432.231	195.38
432.443	220.57
432.655	158.18
432.867	181.82
433.078	218.63
433.29	234.13
433.502	231.22
433.713	217.27
433.925	201
434.136	215.72
434.348	169.42
434.56	115.55
434.771	286.05
434.983	135.7
435.194	156.24
435.406	183.17
435.617	221.73
435.829	284.31
436.04	204.1
436.252	204.87
436.463	270.55
436.675	231.8
436.886	209.33
437.098	231.22
437.309	247.3
437.521	210.49
437.732	211.27
437.943	216.3
438.155	247.11
438.366	139
438.578	251.37
438.789	227.54
439	218.05
439.211	204.48
439.423	209.52
439.634	242.65
439.845	239.55
440.057	228.51
440.268	265.51
440.479	210.3
440.69	241.1
440.902	201.77
441.113	199.83
441.324	187.43
441.535	237.81
441.746	282.37
441.957	206.23
442.168	210.49
442.38	285.86
442.591	272.49
442.802	214.17
443.013	230.45
443.224	257.57
443.435	228.12
443.646	256.6
443.857	222.5
444.068	248.66
444.279	222.31
444.49	312.21
444.701	243.43
444.912	345.73
445.123	296.71
445.334	249.82
445.545	280.82
445.756	258.54
445.967	209.52
446.178	249.63
446.388	283.73
446.599	271.13
446.81	287.41
447.021	216.69
447.232	279.85
447.443	332.74
447.653	251.95
447.864	283.15
448.075	260.48
448.286	304.07
448.496	282.76
448.707	336.04
448.918	257.96
449.129	376.14
449.339	245.17
449.55	294
449.761	241.1
449.971	322.67
450.182	281.6
450.393	332.74
450.603	278.3
450.814	312.6
451.024	287.99
451.235	324.8
451.446	334.29
451.656	358.13
451.867	283.15
452.077	294.19
452.288	349.99
452.498	350.96
452.709	275.78
452.919	326.54
453.13	269.78
453.34	334.49
453.55	222.5
453.761	335.26
453.971	298.26
454.182	347.28
454.392	297.1
454.602	387.19
454.813	326.35
455.023	362.19
455.233	276.56
455.444	315.5
455.654	243.62
455.864	310.85
456.075	295.74
456.285	301.94
456.495	304.46
456.705	327.71
456.916	364.71
457.126	376.73
457.336	314.14
457.546	277.33
457.756	302.91
457.967	391.64
458.177	307.95
458.387	339.14
458.597	301.36
458.807	289.93
459.017	300.58
459.227	319.18
459.437	282.95
459.647	351.15
459.857	341.66
460.068	291.09
460.278	356.19
460.488	328.87
460.698	390.68
460.908	306.78
461.117	302.52
461.327	304.46
461.537	315.5
461.747	334.68
461.957	349.6
462.167	397.46
462.377	369.94
462.587	351.93
462.797	384.09
463.007	330.81
463.216	360.06
463.426	400.56
463.636	347.08
463.846	270.94
464.056	351.54
464.265	381.57
464.475	279.46
464.685	353.86
464.895	364.71
465.104	353.86
465.314	380.21
465.524	313.37
465.733	326.35
465.943	411.02
466.153	387.38
466.362	394.16
466.572	372.27
466.782	333.91
466.991	368.2
467.201	389.51
467.41	347.86
467.62	385.25
467.829	369.36
468.039	371.11
468.249	363.16
468.458	357.74
468.668	376.53
468.877	385.25
469.086	410.82
469.296	405.4
469.505	362.97
469.715	449.19
469.924	402.69
470.134	442.41
470.343	410.44
470.552	384.28
470.762	367.04
470.971	351.15
471.18	417.8
471.39	375.18
471.599	362
471.808	420.32
472.018	389.13
472.227	435.62
472.436	427.1
472.645	408.89
472.855	381.38
473.064	457.32
473.273	444.92
473.482	439.11
473.691	468.56
473.901	443.18
474.11	395.13
474.319	520.49
474.528	441.44
474.737	484.06
474.946	438.72
475.155	456.36
475.364	485.42
475.573	450.35
475.783	440.47
475.992	506.54
476.201	498.01
476.41	461.01
476.619	457.71
476.828	432.91
477.037	431.94
477.245	463.14
477.454	529.01
477.663	454.61
477.872	457.71
478.081	534.05
478.29	431.36
478.499	554.39
478.708	486.19
478.917	568.54
479.125	504.02
479.334	498.2
479.543	491.42
479.752	559.43
479.961	544.32
480.169	585.58
480.378	523.97
480.587	633.05
480.796	532.11
481.004	535.6
481.213	575.9
481.422	515.84
481.63	530.17
481.839	576.28
482.048	595.27
482.256	561.37
482.465	569.31
482.674	574.35
482.882	583.65
483.091	622.98
483.299	578.42
483.508	635.57
483.716	582.87
483.925	618.52
484.134	553.81
484.342	581.71
484.551	647.2
484.759	602.63
484.967	612.13
485.176	627.82
485.384	612.32
485.593	620.85
485.801	617.17
486.01	601.47
486.218	546.45
486.426	535.6
486.635	552.26
486.843	533.47
487.051	570.86
487.26	561.56
487.468	584.23
487.676	627.24
487.885	595.08
488.093	614.26
488.301	640.8
488.509	630.73
488.717	657.66
488.926	620.46
489.134	623.17
489.342	648.75
489.55	592.37
489.758	604.96
489.967	628.21
490.175	714.43
490.383	642.35
490.591	738.26
490.799	616.58
491.007	716.36
491.215	651.46
491.423	656.3
491.631	659.21
491.839	669.67
492.047	694.08
492.255	627.63
492.463	624.53
492.671	631.89
492.879	687.11
493.087	656.5
493.295	677.03
493.503	695.05
493.711	698.15
493.919	733.61
494.127	726.83
494.334	756.47
494.542	635.57
494.75	694.08
494.958	698.54
495.166	728.18
495.374	736.13
495.581	715.01
495.789	690.6
495.997	778.36
496.205	716.36
496.412	702.22
496.62	736.9
496.828	777.59
497.035	745.43
497.243	752.4
497.451	742.71
497.658	740.78
497.866	740
498.074	800.45
498.281	722.18
498.489	826.99
498.696	757.63
498.904	724.11
499.112	709.97
499.319	804.33
499.527	741.55
499.734	771.19
499.942	719.85
500.149	721.79
500.357	739.42
500.564	723.15
500.771	763.25
500.979	704.93
501.186	710.75
501.394	739.03
501.601	748.14
501.808	758.79
502.016	746.01
502.223	732.06
502.43	749.5
502.638	761.51
502.845	728.57
503.052	818.28
503.26	721.4
503.467	815.37
503.674	761.51
503.881	762.09
504.089	847.92
504.296	798.71
504.503	692.15
504.71	761.51
504.917	715.01
505.125	776.81
505.332	768.87
505.539	780.88
505.746	835.52
505.953	827.58
506.16	814.79
506.367	845.21
506.574	844.43
506.781	844.62
506.988	795.99
507.195	829.71
507.402	793.28
507.609	841.14
507.816	810.53
508.023	790.96
508.23	803.55
508.437	788.63
508.644	828.16
508.851	853.34
509.058	851.6
509.265	819.63
509.472	861.09
509.679	917.86
509.885	862.26
510.092	847.92
510.299	852.76
510.506	836.49
510.713	855.47
510.92	859.93
511.126	848.5
511.333	903.33
511.54	899.07
511.746	925.8
511.953	888.8
512.16	928.71
512.367	853.92
512.573	872.72
512.78	875.43
512.987	876.4
513.193	891.32
513.4	803.94
513.606	845.4
513.813	884.34
514.02	870.78
514.226	918.83
514.433	905.27
514.639	844.82
514.846	888.61
515.052	839.59
515.259	886.86
515.465	882.99
515.672	901.39
515.878	957
516.085	890.54
516.291	922.51
516.497	860.51
516.704	861.67
516.91	854.7
517.117	828.35
517.323	771.78
517.529	842.11
517.736	801.81
517.942	840.75
518.148	831.26
518.354	866.52
518.561	862.06
518.767	847.72
518.973	903.72
519.179	902.94
519.386	873.49
519.592	882.6
519.798	880.27
520.004	943.82
520.21	889.96
520.417	980.83
520.623	959.71
520.829	950.41
521.035	996.72
521.241	980.64
521.447	982.77
521.653	1088.55
521.859	972.3
522.065	1006.99
522.271	1080.61
522.477	1045.54
522.683	1079.64
522.889	1022.68
523.095	1026.94
523.301	1012.41
523.507	988.19
523.713	1013.57
523.919	979.86
524.125	1075.18
524.331	1046.12
524.537	1097.27
524.742	1085.84
524.948	1118.2
525.154	1110.64
525.36	1159.85
525.566	1089.33
525.772	1161.4
525.977	1055.03
526.183	1135.05
526.389	1135.63
526.595	1051.93
526.8	1042.63
527.006	1028.49
527.212	993.81
527.417	984.12
527.623	990.52
527.829	1050.38
528.034	1059.1
528.24	1093.01
528.446	1048.25
528.651	1117.81
528.857	1103.28
529.062	1185.81
529.268	1135.25
529.473	1128.08
529.679	1146.87
529.884	1215.65
530.09	1171.28
530.295	1209.45
530.501	1196.08
530.706	1204.8
530.912	1130.98
531.117	1178.84
531.323	1155.4
531.528	1245.68
531.733	1212.94
531.939	1160.24
532.144	1185.04
532.35	1154.81
532.555	1230.18
532.76	1199.96
532.966	1204.22
533.171	1212.74
533.376	1173.22
533.581	1195.11
533.787	1189.69
533.992	1227.28
534.197	1251.88
534.402	1201.89
534.607	1227.86
534.813	1297.99
535.018	1221.27
535.223	1235.22
535.428	1224.37
535.633	1277.84
535.838	1261.57
536.043	1276.49
536.249	1345.85
536.454	1262.34
536.659	1248.01
536.864	1260.99
537.069	1285.98
537.274	1284.82
537.479	1271.26
537.684	1263.31
537.889	1247.43
538.094	1347.98
538.299	1283.66
538.504	1303.03
538.708	1280.94
538.913	1297.99
539.118	1298.38
539.323	1290.44
539.528	1227.28
539.733	1296.25
539.938	1286.95
540.142	1290.44
540.347	1294.31
540.552	1250.72
540.757	1280.94
540.962	1263.31
541.166	1206.54
541.371	1238.9
541.576	1224.18
541.781	1152.49
541.985	1282.11
542.19	1231.34
542.395	1313.11
542.599	1344.3
542.804	1295.67
543.008	1324.73
543.213	1275.71
543.418	1250.53
543.622	1324.54
543.827	1235.61
544.031	1336.74
544.236	1326.28
544.44	1312.52
544.645	1385.76
544.849	1282.69
545.054	1352.24
545.258	1412.69
545.463	1355.15
545.667	1307.49
545.872	1353.02
546.076	1335
546.281	1346.04
546.485	1296.06
546.689	1347.59
546.894	1358.06
547.098	1351.08
547.302	1314.46
547.507	1311.36
547.711	1335
547.915	1373.94
548.119	1300.71
548.324	1313.88
548.528	1387.89
548.732	1346.04
548.936	1365.42
549.141	1341.78
549.345	1342.94
549.549	1341.39
549.753	1357.28
549.957	1383.05
550.161	1428.97
550.366	1376.85
550.57	1322.21
550.774	1358.44
550.978	1360.19
551.182	1377.43
551.386	1305.16
551.59	1316.79
551.794	1363.87
551.998	1375.49
552.202	1338.29
552.406	1317.76
552.61	1379.75
552.814	1390.22
553.018	1421.41
553.222	1314.46
553.426	1322.99
553.63	1434.2
553.833	1367.16
554.037	1305.55
554.241	1350.11
554.445	1342.17
554.649	1322.99
554.853	1337.13
555.056	1363.29
555.26	1406.3
555.464	1370.65
555.668	1381.69
555.871	1414.63
556.075	1402.42
556.279	1355.92
556.483	1300.71
556.686	1320.86
556.89	1323.76
557.094	1366.77
557.297	1294.31
557.501	1364.64
557.704	1303.42
557.908	1363.09
558.112	1262.93
558.315	1367.55
558.519	1341.97
558.722	1321.82
558.926	1315.43
559.129	1264.48
559.333	1257.69
559.536	1260.79
559.74	1277.26
559.943	1250.33
560.147	1242.58
560.35	1302.26
560.553	1239.29
560.757	1231.73
560.96	1348.95
561.164	1249.56
561.367	1359.8
561.57	1241.42
561.774	1290.24
561.977	1264.28
562.18	1265.44
562.384	1342.94
562.587	1258.47
562.79	1267.38
562.993	1263.51
563.197	1322.99
563.4	1325.12
563.603	1310.59
563.806	1330.54
564.009	1239.68
564.212	1293.92
564.416	1209.45
564.619	1276.49
564.822	1234.83
565.025	1312.33
565.228	1235.41
565.431	1244.52
565.634	1159.66
565.837	1203.83
566.04	1217.39
566.243	1187.36
566.446	1124.01
566.649	1214.1
566.852	1167.6
567.055	1186.98
567.258	1223.4
567.461	1247.43
567.664	1237.16
567.867	1135.44
568.07	1231.34
568.273	1216.23
568.475	1227.08
568.678	1187.75
568.881	1158.11
569.084	1189.3
569.287	1099.21
569.489	1090.68
569.692	1172.25
569.895	1146.68
570.098	1117.61
570.3	1101.92
570.503	1042.44
570.706	1087.2
570.909	1126.53
571.111	1071.7
571.314	1067.24
571.516	1072.47
571.719	1108.31
571.922	1068.79
572.124	1062.4
572.327	1108.7
572.529	1062.4
572.732	1068.02
572.935	1079.45
573.137	1144.16
573.34	1057.94
573.542	1118.2
573.745	1076.35
573.947	1099.02
574.15	1063.75
574.352	1043.8
574.554	1116.65
574.757	1048.45
574.959	1043.6
575.162	1017.45
575.364	1029.46
575.566	1112
575.769	1015.12
575.971	1035.66
576.173	945.76
576.376	1035.85
576.578	1054.84
576.78	1100.56
576.982	960.49
577.185	992.65
577.387	969.01
577.589	968.04
577.791	1007.18
577.993	1040.5
578.196	987.03
578.398	1049.8
578.6	1018.61
578.802	958.74
579.004	968.24
579.206	958.16
579.408	980.64
579.61	944.02
579.812	1012.6
580.014	957.77
580.216	978.5
580.418	980.83
580.62	985.09
580.822	922.12
581.024	1020.55
581.226	1016.28
581.428	947.31
581.63	1065.88
581.832	952.35
582.034	1034.5
582.236	979.09
582.438	1018.61
582.64	1061.82
582.841	1062.59
583.043	1129.43
583.245	1035.47
583.447	1008.92
583.649	1018.42
583.85	1016.67
584.052	1045.73
584.254	985.29
584.456	1063.37
584.657	975.4
584.859	1006.02
585.061	978.31
585.262	994.97
585.464	957.39
585.666	1015.51
585.867	981.22
586.069	1043.22
586.27	972.69
586.472	992.07
586.674	967.27
586.875	982.38
587.077	965.91
587.278	1005.44
587.48	962.23
587.681	1061.04
587.883	991.87
588.084	921.35
588.285	945.76
588.487	971.92
588.688	938.4
588.89	867.1
589.091	895.77
589.292	913.6
589.494	855.09
589.695	841.14
589.896	784.18
590.098	821.57
590.299	894.22
590.5	826.03
590.702	821.38
590.903	871.56
591.104	925.42
591.305	907.21
591.507	953.51
591.708	910.11
591.909	853.34
592.11	945.76
592.311	902.17
592.512	885.31
592.714	865.55
592.915	860.12
593.116	860.71
593.317	903.72
593.518	891.51
593.719	882.79
593.92	909.53
594.121	934.72
594.322	890.93
594.523	905.07
594.724	842.11
594.925	881.63
595.126	891.9
595.327	925.61
595.528	890.74
595.729	896.94
595.929	907.79
596.13	884.54
596.331	907.21
596.532	874.66
596.733	933.36
596.934	939.17
597.135	922.71
597.335	886.86
597.536	852.37
597.737	901.59
597.938	842.49
598.138	907.59
598.339	831.64
598.54	888.8
598.74	870.01
598.941	878.72
599.142	928.52
599.342	921.93
599.543	843.27
599.744	892.29
599.944	879.11
600.145	876.98
600.345	886.67
600.546	974.63
600.746	912.05
600.947	957
601.147	889.77
601.348	901.97
601.548	862.26
601.749	893.64
601.949	847.53
602.15	845.01
602.35	870.2
602.551	928.32
602.751	855.86
602.951	869.04
603.152	813.43
603.352	907.01
603.552	852.76
603.753	880.86
603.953	907.79
604.153	893.45
604.354	871.75
604.554	887.06
604.754	900.04
604.954	853.92
605.155	893.06
605.355	869.42
605.555	890.93
605.755	933.94
605.955	862.45
606.155	917.28
606.356	867.49
606.556	917.47
606.756	896.16
606.956	828.35
607.156	943.24
607.356	865.36
607.556	899.26
607.756	893.64
607.956	899.46
608.156	859.93
608.356	825.06
608.556	885.51
608.756	847.34
608.956	824.48
609.156	895.19
609.356	814.98
609.556	815.18
609.755	859.93
609.955	839.59
610.155	856.25
610.355	844.04
610.555	834.74
610.755	870.2
610.954	779.72
611.154	858.57
611.354	874.27
611.554	800.84
611.753	823.31
611.953	803.74
612.153	839.39
612.352	820.02
612.552	796.19
612.752	720.05
612.951	814.98
613.151	839.59
613.351	762.48
613.55	821.18
613.75	812.85
613.949	814.59
614.149	842.49
614.348	797.74
614.548	763.83
614.747	753.37
614.947	797.35
615.146	722.76
615.346	809.94
615.545	834.55
615.745	801.61
615.944	860.9
616.144	783.59
616.343	806.46
616.542	756.28
616.742	793.48
616.941	753.95
617.14	737.48
617.34	764.22
617.539	773.52
617.738	777.2
617.938	825.06
618.137	777.39
618.336	734.19
618.535	800.26
618.734	767.32
618.934	782.82
619.133	736.32
619.332	804.13
619.531	744.85
619.73	776.62
619.929	774.29
620.128	812.85
620.328	819.83
620.527	743.1
620.726	736.13
620.925	799.87
621.124	721.01
621.323	771.39
621.522	696.21
621.721	719.08
621.92	729.15
622.119	757.44
622.318	753.76
622.517	727.41
622.715	722.37
622.914	700.67
623.113	715.01
623.312	696.99
623.511	743.68
623.71	720.43
623.909	712.68
624.107	770.81
624.306	703
624.505	698.15
624.704	725.28
624.902	709.78
625.101	756.47
625.3	726.44
625.499	675.1
625.697	729.35
625.896	686.14
626.095	743.68
626.293	642.16
626.492	686.72
626.69	723.34
626.889	664.83
627.088	753.18
627.286	696.02
627.485	671.22
627.683	655.14
627.882	711.91
628.08	659.6
628.279	626.08
628.477	756.86
628.676	659.6
628.874	700.86
629.073	673.35
629.271	647
629.469	681.1
629.668	647.2
629.866	664.05
630.065	648.36
630.263	706.1
630.461	670.83
630.66	673.16
630.858	702.41
631.056	708.23
631.254	719.85
631.453	633.05
631.651	682.65
631.849	647.78
632.047	685.95
632.245	657.66
632.444	680.13
632.642	677.42
632.84	685.56
633.038	663.86
633.236	649.91
633.434	622.2
633.632	623.75
633.83	667.35
634.028	691.18
634.227	683.23
634.425	737.68
634.623	658.43
634.821	682.26
635.019	706.48
635.216	631.5
635.414	699.31
635.612	659.02
635.81	672.77
636.008	745.62
636.206	670.45
636.404	693.5
636.602	675.68
636.8	657.08
636.997	693.7
637.195	686.72
637.393	672.77
637.591	734.38
637.789	660.57
637.986	679.94
638.184	688.27
638.382	732.83
638.58	726.44
638.777	733.8
638.975	673.74
639.173	678.78
639.37	688.85
639.568	699.31
639.765	720.43
639.963	679.94
640.161	733.8
640.358	699.7
640.556	631.12
640.753	643.9
640.951	634.22
641.148	663.28
641.346	628.79
641.543	664.83
641.741	688.46
641.938	624.72
642.136	654.37
642.333	623.37
642.531	714.62
642.728	714.81
642.925	638.28
643.123	625.3
643.32	683.04
643.517	661.15
643.715	674.71
643.912	654.95
644.109	640.03
644.306	640.22
644.504	633.63
644.701	664.83
644.898	662.31
645.095	616.2
645.293	632.08
645.49	671.22
645.687	643.71
645.884	659.21
646.081	582.1
646.278	640.42
646.475	586.75
646.672	637.9
646.87	640.22
647.067	615.03
647.264	613.29
647.461	572.22
647.658	561.56
647.855	621.23
648.052	589.65
648.249	531.53
648.446	591.59
648.642	606.12
648.839	585.58
649.036	596.43
649.233	551.49
649.43	534.44
649.627	552.45
649.824	568.54
650.021	573.19
650.217	528.24
650.414	522.81
650.611	616.39
650.808	606.12
651.004	599.53
651.201	621.43
651.398	637.51
651.595	589.27
651.791	562.53
651.988	602.25
652.185	541.22
652.381	594.11
652.578	529.98
652.775	561.75
652.971	579.97
653.168	585.39
653.364	572.22
653.561	529.01
653.757	593.33
653.954	579.19
654.15	544.9
654.347	611.93
654.543	556.33
654.74	524.36
654.936	520.68
655.133	566.6
655.329	593.72
655.525	527.85
655.722	568.15
655.918	511.77
656.115	563.89
656.311	496.07
656.507	468.17
656.704	453.64
656.9	473.02
657.096	486.77
657.292	469.92
657.489	524.36
657.685	527.46
657.881	514.48
658.077	526.88
658.273	519.71
658.47	561.95
658.666	525.52
658.862	544.9
659.058	525.14
659.254	569.12
659.45	492.78
659.646	551.49
659.842	530.37
660.038	561.56
660.234	496.65
660.43	525.91
660.626	587.91
660.822	582.68
661.018	578.03
661.214	529.98
661.41	517.77
661.606	576.28
661.802	576.09
661.998	558.07
662.194	520.87
662.39	524.94
662.586	583.26
662.781	548.19
662.977	581.9
663.173	556.91
663.369	546.06
663.564	553.62
663.76	590.43
663.956	544.12
664.152	603.8
664.347	490.07
664.543	517.58
664.739	504.4
664.934	470.89
665.13	477.09
665.326	536.95
665.521	530.37
665.717	493.94
665.912	497.43
666.108	457.71
666.304	511.57
666.499	507.7
666.695	450.74
666.89	511.19
667.086	540.44
667.281	531.34
667.477	574.74
667.672	517.97
667.867	519.71
668.063	546.25
668.258	489.1
668.454	511.38
668.649	587.91
668.844	530.75
669.04	555.17
669.235	498.2
669.43	490.45
669.626	436.79
669.821	488.52
670.016	474.18
670.211	527.46
670.407	480.38
670.602	497.82
670.797	500.92
670.992	519.32
671.187	482.51
671.382	540.44
671.578	509.25
671.773	519.32
671.968	442.6
672.163	473.99
672.358	510.22
672.553	495.88
672.748	499.75
672.943	550.13
673.138	491.23
673.333	489.49
673.528	493.55
673.723	522.42
673.918	471.86
674.113	464.69
674.308	568.92
674.503	514.67
674.698	523.97
674.892	510.41
675.087	507.5
675.282	514.09
675.477	468.37
675.672	496.46
675.867	470.5
676.061	469.72
676.256	441.24
676.451	484.84
676.646	478.06
676.84	452.09
677.035	433.49
677.23	468.95
677.424	500.72
677.619	510.99
677.814	520.87
678.008	519.13
678.203	434.27
678.397	451.32
678.592	471.27
678.787	533.08
678.981	476.7
679.176	484.84
679.37	463.33
679.565	437.37
679.759	443.96
679.954	515.25
680.148	556.33
680.342	520.29
680.537	483.48
680.731	455.77
680.926	478.83
681.12	484.45
681.314	412.96
681.509	451.32
681.703	452.09
681.897	498.01
682.092	478.64
682.286	423.42
682.48	540.25
682.674	509.05
682.869	450.16
683.063	458.49
683.257	560.59
683.451	422.45
683.645	504.99
683.839	464.11
684.034	464.11
684.228	496.07
684.422	466.24
684.616	446.47
684.81	476.31
685.004	461.39
685.198	474.37
685.392	510.6
685.586	438.92
685.78	472.05
685.974	509.83
686.168	480.38
686.362	538.89
686.556	419.74
686.75	396.1
686.944	400.17
687.138	424.77
687.331	352.7
687.525	381.76
687.719	322.67
687.913	377.89
688.107	363.16
688.301	315.31
688.494	420.12
688.688	364.52
688.882	338.94
689.076	341.08
689.269	383.89
689.463	461.2
689.657	382.73
689.85	401.14
690.044	390.29
690.238	367.43
690.431	407.34
690.625	382.73
690.818	411.79
691.012	413.34
691.205	429.04
691.399	388.74
691.593	439.11
691.786	472.24
691.98	479.22
692.173	505.37
692.366	468.95
692.56	470.89
692.753	532.11
692.947	407.92
693.14	516.61
693.333	476.7
693.527	428.65
693.72	490.45
693.914	454.81
694.107	474.57
694.3	485.22
694.493	486.97
694.687	490.26
694.88	481.54
695.073	539.28
695.266	508.67
695.46	479.61
695.653	543.15
695.846	555.94
696.039	435.43
696.232	470.69
696.425	550.71
696.618	565.24
696.812	519.9
697.005	591.01
697.198	641.19
697.391	530.56
697.584	588.3
697.777	636.15
697.97	602.44
698.163	621.43
698.356	583.45
698.549	705.51
698.742	635.57
698.935	603.99
699.127	648.55
699.32	570.86
699.513	600.12
699.706	603.8
699.899	648.36
700.092	605.73
700.285	658.43
700.477	589.07
700.67	647.39
700.863	654.17
701.056	706.87
701.248	706.87
701.441	723.15
701.634	661.73
701.826	764.99
702.019	659.98
702.212	723.34
702.404	687.3
702.597	668.51
702.79	692.15
702.982	732.25
703.175	735.55
703.367	732.06
703.56	755.31
703.752	849.86
703.945	810.91
704.137	806.84
704.33	816.34
704.522	805.68
704.715	863.03
704.907	836.1
705.1	875.82
705.292	871.17
705.484	825.25
705.677	857.61
705.869	882.6
706.061	884.73
706.254	927.35
706.446	869.62
706.638	882.99
706.831	993.23
707.023	900.42
707.215	986.64
707.407	981.6
707.599	988.97
707.792	1012.8
707.984	1011.44
708.176	1025.97
708.368	995.55
708.56	1029.46
708.752	1006.99
708.944	983.54
709.136	1062.2
709.329	1019.58
709.521	1170.31
709.713	1098.24
709.905	1076.54
710.097	1137.96
710.289	1078.67
710.481	1108.7
710.672	1117.42
710.864	1156.56
711.056	1184.26
711.248	1201.12
711.44	1174
711.632	1148.61
711.824	1182.52
712.016	1240.26
712.207	1216.43
712.399	1225.14
712.591	1266.61
712.783	1257.31
712.975	1269.9
713.166	1239.68
713.358	1253.43
713.55	1323.18
713.741	1310.2
713.933	1311.36
714.125	1303.22
714.316	1305.36
714.508	1331.32
714.7	1363.67
714.891	1331.12
715.083	1388.09
715.274	1369.49
715.466	1378.79
715.657	1417.92
715.849	1328.02
716.04	1382.27
716.232	1328.8
716.423	1412.11
716.615	1323.37
716.806	1293.15
716.998	1303.03
717.189	1258.86
717.381	1178.65
717.572	1168.76
717.763	1201.12
717.955	1200.54
718.146	1218.94
718.337	1114.32
718.528	1111.61
718.72	1073.63
718.911	1121.88
719.102	1110.45
719.293	1173.22
719.485	1137.38
719.676	1111.41
719.867	1074.22
720.058	1115.29
720.249	1069.95
720.44	1124.2
720.632	1160.24
720.823	1192.4
721.014	1276.1
721.205	1308.07
721.396	1351.08
721.587	1467.33
721.778	1457.25
721.969	1450.08
722.16	1522.35
722.351	1511.12
722.542	1629.11
722.733	1619.61
722.924	1531.85
723.115	1589.78
723.305	1597.72
723.496	1608.96
723.687	1505.5
723.878	1501.04
724.069	1519.25
724.26	1514.8
724.45	1470.62
724.641	1508.21
724.832	1517.9
725.023	1534.95
725.213	1462.48
725.404	1479.34
725.595	1505.3
725.785	1463.07
725.976	1551.61
726.167	1542.89
726.357	1541.92
726.548	1640.34
726.739	1573.7
726.929	1636.47
727.12	1659.53
727.31	1653.33
727.501	1631.24
727.691	1672.12
727.882	1649.45
728.072	1676.96
728.263	1681.61
728.453	1708.93
728.644	1740.12
728.834	1721.52
729.024	1681.03
729.215	1702.73
729.405	1694.59
729.596	1797.47
729.786	1787.01
729.976	1823.82
730.167	1802.51
730.357	1798.44
730.547	1813.75
730.737	1839.9
730.928	1860.64
731.118	1905.78
731.308	1881.56
731.498	1847.07
731.688	1924.57
731.879	1989.67
732.069	2035.2
732.259	1997.23
732.449	2041.21
732.639	2089.64
732.829	2113.48
733.019	2132.46
733.209	2207.25
733.399	2212.09
733.589	2289.2
733.779	2286.49
733.969	2273.7
734.159	2307.03
734.349	2373.48
734.539	2405.07
734.729	2372.71
734.919	2437.23
735.109	2487.21
735.299	2429.09
735.488	2460.09
735.678	2461.06
735.868	2438.39
736.058	2472.3
736.248	2483.73
736.437	2412.81
736.627	2449.43
736.817	2519.38
737.007	2499.81
737.196	2527.13
737.386	2531
737.576	2524.03
737.765	2560.06
737.955	2525.58
738.144	2633.88
738.334	2611.41
738.524	2546.11
738.713	2611.41
738.903	2611.6
739.092	2632.14
739.282	2646.67
739.471	2642.21
739.661	2627.29
739.85	2672.05
740.04	2674.57
740.229	2705.37
740.419	2723.59
740.608	2733.85
740.797	2756.72
740.987	2791.98
741.176	2802.63
741.365	2727.85
741.555	2729.59
741.744	2806.12
741.933	2763.3
742.123	2773.38
742.312	2842.93
742.501	2833.25
742.69	2899.7
742.88	2774.93
743.069	2900.67
743.258	2843.52
743.447	2887.3
743.636	2898.93
743.825	2891.76
744.014	2901.83
744.204	2874.71
744.393	2847.58
744.582	2897.76
744.771	2941.94
744.96	2915.4
745.149	2952.21
745.338	2894.08
745.527	2982.04
745.716	2953.56
745.905	2921.4
746.094	2965.38
746.283	2965.58
746.471	3003.16
746.66	3018.47
746.849	2997.35
747.038	3032.42
747.227	2954.73
747.416	3032.61
747.604	2938.06
747.793	2959.57
747.982	2943.29
748.171	3008.01
748.359	3011.49
748.548	3014.01
748.737	2981.27
748.926	3000.64
749.114	2894.28
749.303	2950.27
749.491	2956.47
749.68	2933.8
749.869	2997.93
750.057	2984.37
750.246	2979.53
750.434	2955.5
750.623	2958.6
750.811	2931.86
751	3029.51
751.188	2975.46
751.377	2982.04
751.565	2926.83
751.754	2898.35
751.942	2959.57
752.131	2988.63
752.319	2947.56
752.507	2910.94
752.696	2971.97
752.884	2957.44
753.072	2961.31
753.261	2959.76
753.449	2987.28
753.637	2986.11
753.825	3041.52
754.014	2918.69
754.202	2960.54
754.39	2998.9
754.578	2997.54
754.766	2956.08
754.955	2905.13
755.143	2961.7
755.331	2939.81
755.519	2931.67
755.707	2892.34
755.895	2955.11
756.083	2919.46
756.271	2897.18
756.459	2895.44
756.647	2935.54
756.835	2913.65
757.023	2931.67
757.211	2872.96
757.399	2908.81
757.587	2878.78
757.775	2822.59
757.963	2885.36
758.151	2833.05
758.339	2824.92
758.526	2815.23
758.714	2874.32
758.902	2760.4
759.09	2658.29
759.278	2535.65
759.465	2302.96
759.653	2000.13
759.841	1869.35
760.028	1578.54
760.216	1377.43
760.404	1307.29
760.591	1034.69
760.779	901.2
760.967	791.54
761.154	643.9
761.342	667.54
761.529	646.62
761.717	723.34
761.905	694.08
762.092	787.66
762.28	677.81
762.467	740.2
762.655	646.42
762.842	687.3
763.029	684.59
763.217	708.81
763.404	712.68
763.592	740
763.779	679.16
763.966	727.21
764.154	746.2
764.341	820.41
764.528	823.31
764.716	895.77
764.903	893.26
765.09	983.54
765.277	1004.27
765.465	1159.46
765.652	1205.96
765.839	1263.31
766.026	1377.04
766.213	1383.82
766.4	1486.32
766.588	1679.48
766.775	1663.79
766.962	1819.56
767.149	1843.59
767.336	1952.67
767.523	1917.6
767.71	2021.25
767.897	2122.19
768.084	2193.11
768.271	2208.8
768.458	2267.89
768.645	2310.71
768.832	2283.2
769.019	2318.46
769.206	2326.79
769.392	2439.36
769.579	2499.03
769.766	2488.57
769.953	2474.43
770.14	2533.71
770.327	2499.03
770.513	2584.09
770.7	2610.44
770.887	2502.33
771.073	2602.49
771.26	2558.13
771.447	2542.24
771.634	2554.44
771.82	2646.09
772.007	2554.25
772.193	2587.38
772.38	2631.56
772.567	2570.33
772.753	2579.05
772.94	2600.94
773.126	2628.65
773.313	2679.02
773.499	2635.43
773.686	2609.08
773.872	2580.6
774.059	2583.7
774.245	2522.09
774.432	2570.72
774.618	2499.03
774.804	2578.08
774.991	2525.96
775.177	2595.71
775.363	2528.87
775.55	2579.63
775.736	2489.35
775.922	2525.38
776.109	2531.19
776.295	2559.09
776.481	2554.64
776.667	2556.58
776.853	2521.31
777.04	2504.46
777.226	2500
777.412	2601.33
777.598	2489.73
777.784	2476.36
777.97	2468.03
778.156	2513.56
778.342	2477.53
778.528	2436.84
778.715	2409.72
778.901	2417.85
779.087	2429.09
779.272	2419.01
779.458	2439.75
779.644	2451.56
779.83	2405.45
780.016	2497.87
780.202	2394.41
780.388	2421.53
780.574	2358.95
780.76	2444.59
780.946	2439.55
781.131	2403.9
781.317	2369.61
781.503	2368.64
781.689	2389.37
781.874	2475.78
782.06	2335.12
782.246	2397.32
782.432	2390.15
782.617	2379.49
782.803	2412.23
782.989	2330.08
783.174	2316.14
783.36	2314.59
783.545	2343.45
783.731	2344.42
783.916	2270.02
784.102	2326.98
784.288	2283
784.473	2326.79
784.659	2284.55
784.844	2338.03
785.029	2270.99
785.215	2273.12
785.4	2219.84
785.586	2355.27
785.771	2224.49
785.956	2273.12
786.142	2270.6
786.327	2238.05
786.512	2228.56
786.698	2229.53
786.883	2171.79
787.068	2190.2
787.254	2222.17
787.439	2184.39
787.624	2214.42
787.809	2195.62
787.994	2154.16
788.18	2244.64
788.365	2112.89
788.55	2158.62
788.735	2148.93
788.92	2169.66
789.105	2160.75
789.29	2160.56
789.475	2100.3
789.66	2133.43
789.845	2078.41
790.03	2021.83
790.215	2122.58
790.4	2119.29
790.585	2160.36
790.77	2092.94
790.955	2026.29
791.14	2096.04
791.325	2139.05
791.51	2001.68
791.695	2073.37
791.879	2042.37
792.064	2000.33
792.249	2096.81
792.434	2045.86
792.618	2074.53
792.803	2095.26
792.988	2072.59
793.173	2113.28
793.357	2056.51
793.542	2031.33
793.727	2034.62
793.911	2104.18
794.096	2050.9
794.281	2092.94
794.465	2152.81
794.65	2080.34
794.834	2081.89
795.019	2097.2
795.203	2109.99
795.388	2131.69
795.572	2160.56
795.757	2110.57
795.941	2103.59
796.126	2115.22
796.31	2036.56
796.494	2062.33
796.679	2055.55
796.863	2065.04
797.048	2108.44
797.232	2104.18
797.416	2091.78
797.601	2050.9
797.785	2142.15
797.969	2213.45
798.153	2075.69
798.338	2126.07
798.522	2128.78
798.706	2137.11
798.89	2151.26
799.074	2201.63
799.258	2163.27
799.443	2108.24
799.627	2145.83
799.811	2162.11
799.995	2114.44
800.179	2091.78
800.363	2110.76
800.547	2138.86
800.731	2105.73
800.915	2059.81
801.099	2075.11
801.283	2092.36
801.467	2144.48
801.651	2076.86
801.835	2145.64
802.019	2089.06
802.202	2109.99
802.386	2055.55
802.57	2063.68
802.754	2072.98
802.938	2084.03
803.121	2066.98
803.305	2141.18
803.489	2070.85
803.673	2085.19
803.856	2061.16
804.04	2094.88
804.224	2115.99
804.407	2066.39
804.591	2063.1
804.775	2096.43
804.958	2099.72
805.142	2177.22
805.326	2076.47
805.509	2126.46
805.693	2135.76
805.876	2133.04
806.06	2153.77
806.243	2100.49
806.427	2183.03
806.61	2152.81
806.794	2058.26
806.977	2124.13
807.16	2145.44
807.344	2127.43
807.527	2134.79
807.71	2089.06
807.894	2096.23
808.077	2107.66
808.26	2070.66
808.444	2074.92
808.627	2143.31
808.81	2040.82
808.993	2030.94
809.177	2037.33
809.36	2017.18
809.543	2052.64
809.726	1941.82
809.909	1995.68
810.092	1962.55
810.276	1928.64
810.459	1991.41
810.642	1964.1
810.825	1926.7
811.008	1978.24
811.191	1831.38
811.374	1892.8
811.557	1892.8
811.74	1951.31
811.923	1849.79
812.106	1836.8
812.289	1821.89
812.472	1820.53
812.654	1851.92
812.837	1760.47
813.02	1764.15
813.203	1733.54
813.386	1609.35
813.569	1600.43
813.751	1585.13
813.934	1646.35
814.117	1593.65
814.3	1574.86
814.482	1542.7
814.665	1519.06
814.848	1484.18
815.03	1445.05
815.213	1442.92
815.396	1416.18
815.578	1417.73
815.761	1380.53
815.943	1419.47
816.126	1313.88
816.309	1314.46
816.491	1297.99
816.674	1243.94
816.856	1261.96
817.039	1277.07
817.221	1349.92
817.403	1295.09
817.586	1328.22
817.768	1313.3
817.951	1235.22
818.133	1255.76
818.315	1283.66
818.498	1284.82
818.68	1363.87
818.862	1319.89
819.045	1336.94
819.227	1347.98
819.409	1330.16
819.591	1334.42
819.774	1329.19
819.956	1291.41
820.138	1361.74
820.32	1356.12
820.502	1390.99
820.684	1452.22
820.866	1458.42
821.048	1459.38
821.231	1501.82
821.413	1466.94
821.595	1477.21
821.777	1479.34
821.959	1461.52
822.141	1534.95
822.323	1392.93
822.505	1329.96
822.686	1312.91
822.868	1248.01
823.05	1203.06
823.232	1166.44
823.414	1101.53
823.596	1174
823.778	1163.92
823.96	1191.63
824.141	1192.21
824.323	1183.68
824.505	1253.24
824.687	1354.18
824.868	1348.56
825.05	1418.12
825.232	1438.46
825.413	1543.47
825.595	1481.08
825.777	1405.91
825.958	1431.87
826.14	1443.11
826.321	1446.6
826.503	1420.83
826.685	1484.96
826.866	1480.7
827.048	1477.4
827.229	1390.41
827.411	1347.01
827.592	1338.1
827.773	1349.14
827.955	1309.62
828.136	1337.32
828.318	1306.71
828.499	1317.56
828.68	1290.05
828.862	1306.91
829.043	1317.76
829.224	1285.59
829.406	1287.34
829.587	1270.09
829.768	1269.9
829.949	1310.97
830.131	1319.5
830.312	1330.74
830.493	1311.94
830.674	1266.03
830.855	1290.05
831.036	1300.12
831.218	1346.24
831.399	1365.61
831.58	1304.97
831.761	1305.74
831.942	1319.69
832.123	1276.87
832.304	1266.61
832.485	1248.01
832.666	1285.79
832.847	1299.16
833.028	1274.74
833.209	1315.43
833.389	1278.23
833.57	1241.23
833.751	1253.04
833.932	1360.19
834.113	1313.49
834.294	1276.49
834.475	1312.33
834.655	1354.37
834.836	1359.41
835.017	1345.27
835.198	1270.68
835.378	1324.54
835.559	1368.9
835.74	1301.87
835.92	1306.91
836.101	1279.01
836.281	1369.1
836.462	1362.51
836.643	1373.36
836.823	1355.92
837.004	1366.39
837.184	1409.59
837.365	1366.77
837.545	1360.77
837.726	1337.71
837.906	1415.79
838.087	1378.2
838.267	1378.59
838.448	1310.01
838.628	1341.39
838.808	1355.92
838.989	1400.87
839.169	1289.27
839.349	1373.75
839.53	1407.07
839.71	1392.54
839.89	1357.28
840.07	1390.8
840.251	1347.21
840.431	1339.07
840.611	1361.93
840.791	1308.65
840.971	1361.74
841.151	1339.07
841.332	1344.3
841.512	1359.22
841.692	1274.36
841.872	1333.26
842.052	1333.84
842.232	1363.87
842.412	1286.56
842.592	1333.45
842.772	1354.18
842.952	1335.58
843.132	1310.39
843.312	1308.26
843.492	1293.54
843.672	1373.17
843.851	1266.99
844.031	1304
844.211	1330.35
844.391	1277.65
844.571	1285.98
844.751	1341.01
844.93	1322.79
845.11	1303.22
845.29	1310.59
845.47	1342.17
845.649	1323.76
845.829	1367.35
846.009	1314.27
846.188	1325.31
846.368	1322.41
846.547	1309.81
846.727	1357.86
846.907	1263.12
847.086	1282.88
847.266	1325.51
847.445	1287.53
847.625	1286.56
847.804	1269.32
847.984	1300.9
848.163	1302.64
848.343	1280.94
848.522	1311.56
848.701	1308.07
848.881	1242.58
849.06	1276.68
849.239	1261.96
849.419	1270.29
849.598	1224.18
849.777	1230.57
849.957	1237.35
850.136	1173.03
850.315	1138.15
850.494	1194.92
850.674	1179.23
850.853	1237.35
851.032	1189.49
851.211	1276.29
851.39	1179.23
851.569	1153.07
851.748	1176.9
851.927	1241.81
852.107	1172.45
852.286	1167.6
852.465	1129.05
852.644	1164.5
852.823	1226.89
853.002	1194.34
853.181	1219.14
853.359	1191.43
853.538	1165.47
853.717	1208.68
853.896	1113.74
854.075	1033.92
854.254	1044.18
854.433	1022.87
854.611	1075.77
854.79	996.72
854.969	1037.4
855.148	1050.77
855.327	1033.14
855.505	1082.74
855.684	1031.4
855.863	1075.57
856.041	1030.82
856.22	1083.52
856.399	1035.47
856.577	1145.71
856.756	1141.25
856.934	1239.09
857.113	1238.51
857.291	1148.03
857.47	1132.15
857.648	1140.48
857.827	1138.73
858.005	1179.42
858.184	1125.17
858.362	1206.54
858.541	1123.81
858.719	1147.65
858.898	1106.96
859.076	1101.53
859.254	1178.84
859.433	1121.1
859.611	1108.31
859.789	1032.56
859.967	1201.31
860.146	1188.33
860.324	1048.83
860.502	1073.63
860.68	1047.48
860.859	1064.72
861.037	1103.86
861.215	1123.23
861.393	1101.34
861.571	1102.89
861.749	1097.08
861.927	1119.16
862.105	1078.28
862.283	1073.05
862.461	1083.71
862.639	1049.03
862.817	1059.49
862.995	1093.4
863.173	1065.88
863.351	1093.4
863.529	1064.33
863.707	1115.1
863.885	1073.05
864.063	983.35
864.241	1045.93
864.418	1115.1
864.596	1015.51
864.774	1019.19
864.952	1043.22
865.129	1057.75
865.307	1034.88
865.485	981.8
865.663	1072.08
865.84	980.05
866.018	1000.4
866.196	861.87
866.373	929.49
866.551	890.35
866.728	857.22
866.906	895.97
867.084	920.57
867.261	957.77
867.439	971.14
867.616	950.6
867.794	973.27
867.971	969.59
868.149	948.47
868.326	1020.16
868.503	977.73
868.681	960.29
868.858	930.26
869.035	949.05
869.213	978.7
869.39	959.71
869.567	1047.87
869.745	949.64
869.922	971.14
870.099	1003.5
870.276	1000.79
870.454	1018.42
870.631	994.78
870.808	943.82
870.985	1013.77
871.162	1055.81
871.339	990.52
871.517	895.39
871.694	919.99
871.871	978.89
872.048	958.55
872.225	915.73
872.402	971.53
872.579	894.61
872.756	975.02
872.933	895.97
873.11	938.79
873.287	952.54
873.463	930.45
873.64	877.37
873.817	949.25
873.994	907.4
874.171	890.93
874.348	914.96
874.524	845.01
874.701	894.42
874.878	850.63
875.055	918.25
875.231	915.15
875.408	931.42
875.585	827.58
875.762	904.49
875.938	883.96
876.115	885.51
876.291	887.44
876.468	860.32
876.645	870.78
876.821	849.86
876.998	851.79
877.174	878.92
877.351	876.98
877.527	851.21
877.704	872.91
877.88	885.7
878.057	829.71
878.233	926
878.409	857.99
878.586	869.62
878.762	833.97
878.938	831.26
879.115	782.24
879.291	848.89
879.467	759.96
879.644	824.48
879.82	861.29
879.996	843.85
880.172	778.56
880.349	794.83
880.525	852.18
880.701	796.38
880.877	799.09
881.053	851.79
881.229	814.59
881.405	830.29
881.581	805.88
881.757	823.31
881.933	834.16
882.109	840.56
882.285	834.94
882.461	785.53
882.637	790.76
882.813	804.52
882.989	803.16
883.165	858.19
883.341	791.34
883.517	832.81
883.693	804.52
883.869	810.14
884.044	796.58
884.22	833.39
884.396	852.37
884.572	826.61
884.747	826.99
884.923	837.84
885.099	829.32
885.275	850.05
885.45	809.36
885.626	779.14
885.801	785.92
885.977	818.28
886.153	750.66
886.328	838.42
886.504	771
886.679	812.85
886.855	780.3
887.03	802.19
887.206	849.08
887.381	810.91
887.557	821.76
887.732	832.61
887.908	822.54
888.083	818.28
888.258	785.92
888.434	808.98
888.609	785.34
888.784	858.96
888.96	775.46
889.135	807.81
889.31	772.16
889.485	800.45
889.661	787.28
889.836	865.36
890.011	829.9
890.186	833.39
890.361	763.44
890.537	825.64
890.712	804.52
890.887	799.29
891.062	794.25
891.237	837.46
891.412	763.25
891.587	808.59
891.762	843.66
891.937	852.18
892.112	733.41
892.287	766.16
892.462	742.52
892.637	740.39
892.812	722.18
892.987	730.9
893.161	704.16
893.336	734.58
893.511	758.41
893.686	754.34
893.861	715.78
894.035	707.65
894.21	718.11
894.385	708.81
894.56	715.98
894.734	677.61
894.909	666.57
895.084	656.11
895.258	671.22
895.433	665.41
895.608	650.3
895.782	603.22
895.957	616.97
896.131	621.62
896.306	566.21
896.48	573.19
896.655	593.92
896.829	532.5
897.004	528.82
897.178	556.52
897.353	537.15
897.527	557.88
897.701	525.33
897.876	477.86
898.05	571.83
898.224	547.61
898.399	582.29
898.573	514.48
898.747	435.24
898.921	517.58
899.096	427.68
899.27	415.47
899.444	440.66
899.618	461.39
899.792	493.36
899.967	460.81
900.141	485.42
900.315	432.52
900.489	484.26
900.663	473.6
900.837	485.03
901.011	421.87
901.185	535.99
901.359	464.69
901.533	465.27
901.707	509.25
901.881	472.05
902.055	417.61
902.229	468.76
902.403	535.99
902.576	455.77
902.75	477.09
902.924	556.14
903.098	514.67
903.272	545.87
903.446	568.15
903.619	570.47
903.793	575.51
903.967	593.33
904.14	630.53
904.314	599.34
904.488	603.99
904.661	604.77
904.835	603.41
905.009	628.98
905.182	667.93
905.356	621.62
905.529	602.63
905.703	552.26
905.876	568.92
906.05	554
906.223	534.05
906.397	501.3
906.57	455.97
906.744	454.61
906.917	490.26
907.09	464.11
907.264	446.09
907.437	455
907.61	403.66
907.784	444.92
907.957	430.2
908.13	405.59
908.304	472.24
908.477	435.04
908.65	423.81
908.823	369.94
908.996	480.96
909.17	399.98
909.343	420.12
909.516	409.86
909.689	426.32
909.862	385.83
910.035	406.17
910.208	390.48
910.381	384.86
910.554	471.66
910.727	413.73
910.9	400.36
911.073	405.79
911.246	433.69
911.419	479.41
911.592	423.22
911.765	394.55
911.938	394.94
912.11	431.56
912.283	431.94
912.456	449.57
912.629	412.37
912.802	403.27
912.974	362.58
913.147	360.64
913.32	274.62
913.493	337.98
913.665	360.64
913.838	373.43
914.01	348.63
914.183	377.31
914.356	347.28
914.528	399.2
914.701	426.71
914.873	405.01
915.046	328.48
915.218	316.28
915.391	265.13
915.563	280.24
915.736	348.44
915.908	387.38
916.081	334.29
916.253	368.2
916.425	359.48
916.598	375.18
916.77	379.24
916.942	317.63
917.115	277.91
917.287	336.23
917.459	335.65
917.632	304.65
917.804	259.9
917.976	339.14
918.148	319.96
918.32	324.99
918.493	377.69
918.665	362.39
918.837	364.52
919.009	400.36
919.181	411.99
919.353	393.19
919.525	382.54
919.697	360.64
919.869	377.31
920.041	425.16
920.213	467.01
920.385	415.28
920.557	373.82
920.729	410.82
920.901	399.59
921.073	372.85
921.244	388.93
921.416	417.41
921.588	370.53
921.76	339.14
921.932	428.07
922.103	368.98
922.275	389.71
922.447	402.49
922.619	319.76
922.79	374.21
922.962	352.31
923.134	375.18
923.305	315.5
923.477	297.48
923.648	301.55
923.82	345.73
923.991	283.92
924.163	266.68
924.335	319.18
924.506	301.94
924.677	362.19
924.849	289.35
925.02	314.92
925.192	347.28
925.363	318.6
925.535	318.02
925.706	314.92
925.877	354.64
926.049	287.02
926.22	326.35
926.391	333.33
926.562	345.73
926.734	298.65
926.905	319.76
927.076	272.68
927.247	309.88
927.419	269.39
927.59	264.35
927.761	254.28
927.932	250.01
928.103	283.92
928.274	214.95
928.445	222.7
928.616	238
928.787	231.22
928.958	272.68
929.129	231.22
929.3	231.41
929.471	188.98
929.642	172.9
929.813	132.6
929.984	211.85
930.155	138.03
930.326	190.92
930.496	154.11
930.667	111.29
930.838	144.42
931.009	129.5
931.18	146.94
931.35	123.11
931.521	147.13
931.692	78.35
931.863	64.99
932.033	114.59
932.204	111.1
932.374	120.01
932.545	63.63
932.716	129.89
932.886	119.24
933.057	37.47
933.227	59.75
933.398	158.37
933.568	29.14
933.739	15.97
933.909	24.88
934.08	97.54
934.25	20.62
934.421	-4.18
934.591	19.46
934.761	41.35
934.932	-3.02
935.102	24.49
935.272	30.11
935.443	35.34
935.613	47.36
935.783	31.47
935.953	5.7
936.123	153.92
936.294	23.52
936.464	34.37
936.634	41.54
936.804	-3.6
936.974	3.18
937.144	55.49
937.314	51.42
937.484	32.24
937.655	34.76
937.825	61.89
937.995	17.91
938.165	74.87
938.334	37.47
938.504	47.94
938.674	16.36
938.844	29.92
939.014	88.04
939.184	90.37
939.354	112.84
939.524	97.92
939.694	82.81
939.863	64.4
940.033	132.8
940.203	94.63
940.373	101.22
940.542	102.38
940.712	75.45
940.882	102.77
941.051	123.3
941.221	89.59
941.391	102.57
941.56	65.57
941.73	65.57
941.899	144.42
942.069	54.72
942.238	93.27
942.408	46.58
942.577	103.74
942.747	81.65
942.916	12.09
943.086	25.66
943.255	125.82
943.425	69.64
943.594	41.16
943.763	-17.36
943.933	35.54
944.102	-8.06
944.271	65.37
944.441	55.69
944.61	56.27
944.779	50.46
944.948	149.85
945.117	33.99
945.287	55.49
945.456	8.22
945.625	40.38
945.794	87.27
945.963	22.75
946.132	89.79
946.301	39.02
946.47	65.95
946.639	8.99
946.808	17.71
946.977	61.3
947.146	118.85
947.315	47.74
947.484	78.94
947.653	49.29
947.822	33.79
947.991	24.69
948.16	101.99
948.329	91.53
948.498	68.47
948.666	48.13
948.835	80.49
949.004	39.61
949.173	40.57
949.341	47.55
949.51	73.7
949.679	112.65
949.847	66.92
950.016	118.46
950.185	109.94
950.353	66.92
950.522	63.24
950.69	82.23
950.859	51.81
951.028	72.74
951.196	70.41
951.365	31.27
951.533	44.64
951.701	100.05
951.87	92.69
952.038	30.69
952.207	68.28
952.375	124.47
952.543	45.22
952.712	46
952.88	37.47
953.048	131.83
953.217	79.9
953.385	51.23
953.553	98.5
953.721	31.66
953.89	58.59
954.058	18.68
954.226	26.24
954.394	99.09
954.562	5.12
954.73	41.74
954.898	50.26
955.067	83
955.235	27.01
955.403	82.81
955.571	104.12
955.739	72.93
955.907	10.93
956.075	27.98
956.243	37.47
956.41	63.05
956.578	-17.55
956.746	42.12
956.914	58.01
957.082	81.26
957.25	70.6
957.418	33.21
957.585	69.83
957.753	88.82
957.921	24.49
958.089	41.35
958.256	80.68
958.424	84.17
958.592	66.73
958.759	42.32
958.927	79.13
959.095	37.28
959.262	47.94
959.43	66.92
959.597	38.64
959.765	73.12
959.932	27.4
960.1	86.3
960.267	53.36
960.435	52.78
960.602	115.17
960.77	35.34
960.937	18.1
961.104	73.7
961.272	19.65
961.439	53.55
961.606	53.75
961.774	90.95
961.941	35.73
962.108	65.18
962.275	79.71
962.443	121.75
962.61	92.3
962.777	130.67
962.944	99.86
963.111	82.81
963.278	78.94
963.446	77.97
963.613	77.58
963.78	70.6
963.947	102.38
964.114	49.87
964.281	157.6
964.448	92.89
964.615	70.8
964.782	65.57
964.949	98.31
965.116	99.86
965.282	111.87
965.449	51.23
965.616	26.43
965.783	99.47
965.95	86.88
966.117	50.07
966.283	93.47
966.45	59.17
966.617	83.59
966.784	96.37
966.95	108.77
967.117	121.95
967.284	61.89
967.45	64.6
967.617	115.94
967.784	109.16
967.95	107.61
968.117	85.14
968.283	112.45
968.45	188.98
968.616	109.35
968.783	113.23
968.949	91.72
969.116	107.22
969.282	78.94
969.449	117.1
969.615	68.67
969.781	36.89
969.948	50.65
970.114	25.85
970.28	128.92
970.447	93.27
970.613	137.25
970.779	86.49
970.945	126.02
971.112	95.02
971.278	92.11
971.444	80.68
971.61	115.17
971.776	80.49
971.942	70.02
972.108	136.09
972.275	76.61
972.441	89.2
972.607	160.12
972.773	76.61
972.939	97.54
973.105	90.95
973.271	44.06
973.437	92.89
973.602	40.96
973.768	77
973.934	99.09
974.1	94.24
974.266	28.17
974.432	58.79
974.598	74.29
974.763	98.89
974.929	54.52
975.095	113.23
975.261	50.84
975.426	52
975.592	61.11
975.758	137.25
975.923	35.73
976.089	51.42
976.255	92.69
976.42	125.24
976.586	88.62
976.751	72.74
976.917	146.17
977.082	115.94
977.248	79.9
977.413	17.52
977.579	69.83
977.744	99.86
977.91	38.06
978.075	65.18
978.24	106.84
978.406	78.94
978.571	47.36
978.736	83.2
978.902	124.85
979.067	32.44
979.232	10.74
979.397	80.29
979.563	116.33
979.728	10.54
979.893	63.63
980.058	34.57
980.223	115.17
980.388	90.56
980.554	67.5
980.719	66.92
980.884	83.59
981.049	122.53
981.214	49.68
981.379	91.72
981.544	56.65
981.709	100.44
981.874	72.93
982.039	93.27
982.204	107.03
982.368	75.64
982.533	59.17
982.698	131.64
982.863	116.72
983.028	87.65
983.193	82.81
983.357	64.21
983.522	67.12
983.687	71.77
983.852	45.03
984.016	51.04
984.181	85.33
984.346	90.56
984.51	79.52
984.675	75.25
984.839	84.75
985.004	84.94
985.168	119.43
985.333	94.24
985.498	46
985.662	108
985.827	74.09
985.991	107.42
986.155	50.07
986.32	99.09
986.484	107.42
986.649	100.25
986.813	25.27
986.977	81.65
987.142	94.24
987.306	42.9
987.47	55.3
987.634	77.77
987.799	103.93
987.963	92.5
988.127	96.37
988.291	168.25
988.455	103.93
988.62	73.7
988.784	107.8
988.948	98.31
989.112	24.69
989.276	68.86
989.44	70.99
989.604	70.41
989.768	72.74
989.932	140.55
990.096	52.39
990.26	33.99
990.424	13.06
990.588	58.4
990.752	152.56
990.915	117.3
991.079	55.1
991.243	41.74
991.407	107.22
991.571	62.08
991.734	76.03
991.898	101.6
992.062	166.9
992.226	100.64
992.389	41.54
992.553	33.6
992.717	27.79
992.88	51.81
993.044	59.56
993.207	60.53
993.371	73.7
993.535	68.47
993.698	56.85
993.862	104.7
994.025	81.84
994.189	77.77
994.352	46.19
994.515	85.72
994.679	93.27
994.842	45.81
995.006	101.6
995.169	37.67
995.332	39.02
995.496	101.02
995.659	19.65
995.822	61.5
995.985	41.16
996.149	71.77
996.312	55.1
996.475	129.7
996.638	58.98
996.801	139.77
996.964	115.36
997.128	71.38
997.291	60.72
997.454	89.98
997.617	15.77
997.78	101.22
997.943	41.16
998.106	94.24
998.269	40.38
998.432	59.37
998.595	56.65
998.758	-8.25
998.92	12.67
999.083	7.64
999.246	46.77
999.409	20.62
999.572	-10.96
999.735	47.16
999.897	54.52
1000.06	31.27
1000.223	56.27
1000.386	40.57
1000.548	85.33
1000.711	77.19
1000.874	65.18
1001.036	16.16
1001.199	73.51
1001.361	35.15
1001.524	67.89
1001.687	102.19
1001.849	12.09
1002.012	48.13
1002.174	67.5
1002.337	73.9
1002.499	49.1
1002.661	93.66
1002.824	4.73
1002.986	39.8
1003.149	54.72
1003.311	6.28
1003.473	106.84
1003.636	33.02
1003.798	58.4
1003.96	89.98
1004.123	54.14
1004.285	51.23
1004.447	46.39
1004.609	51.42
1004.771	79.32
1004.933	-0.11
1005.096	-0.89
1005.258	-8.83
1005.42	7.64
1005.582	72.93
1005.744	52.59
1005.906	14.22
1006.068	60.34
1006.23	13.84
1006.392	3.76
1006.554	-0.69
1006.716	76.22
1006.878	45.03
1007.04	-13.87
1007.202	40.77
1007.363	56.85
1007.525	40.19
1007.687	51.42
1007.849	97.54
1008.011	-19.49
1008.172	18.29
1008.334	18.87
1008.496	54.72
1008.658	-11.54
1008.819	-3.99
1008.981	-6.12
1009.143	-2.05
1009.304	-6.31
1009.466	31.86
1009.627	80.1
1009.789	131.05
1009.95	48.52
1010.112	30.11
1010.273	50.46
1010.435	10.35
1010.596	16.74
1010.758	-14.45
1010.919	2.6
1011.081	1.44
1011.242	34.37
1011.403	55.1
1011.565	26.43
1011.726	49.1
1011.887	-13.87
1012.049	-2.05
1012.21	58.2
1012.371	99.28
1012.532	-68.51
1012.693	29.72
1012.855	15.58
1013.016	34.96
1013.177	79.52
1013.338	34.76
1013.499	89.59
1013.66	46.58
1013.821	49.68
1013.982	53.36
1014.143	33.99
1014.304	14.61
1014.465	36.51
1014.626	49.49
1014.787	12.09
1014.948	103.35
1015.109	-31.89
1015.27	65.95
1015.431	14.03
1015.592	21.59
1015.752	74.29
1015.913	29.53
1016.074	29.34
1016.235	8.8
1016.395	18.29
1016.556	17.52
1016.717	19.26
1016.877	70.8
1017.038	21.01
1017.199	23.33
1017.359	25.07
1017.52	14.22
1017.681	2.99
1017.841	33.6
1018.002	19.26
1018.162	4.34
1018.323	55.69
1018.483	10.35
1018.644	7.44
1018.804	-28.21
1018.964	-5.54
1019.125	20.23
1019.285	30.89
1019.446	3.96
1019.606	-30.53
1019.766	-39.44
1019.926	53.55
1020.087	48.71
1020.247	-57.27
1020.407	43.67
1020.567	51.62
1020.728	4.15
1020.888	-17.36
1021.048	6.47
1021.208	1.05
1021.368	-22.39
1021.528	52.78
1021.688	40.96
1021.848	48.13
1022.008	11.71
1022.168	22.56
1022.328	34.37
1022.488	49.68
1022.648	-33.63
1022.808	37.47
1022.968	49.49
1023.128	6.67
1023.288	12.67
1023.448	33.79
1023.608	25.46
1023.767	35.73
1023.927	20.81
1024.087	8.8
1024.247	-49.71
1024.406	20.42
1024.566	-7.09
1024.726	-5.34
1024.885	27.98
1025.045	20.04
1025.205	15.19
1025.364	23.33
1025.524	24.88
1025.683	-0.11
1025.843	12.29
1026.003	8.99
1026.162	87.27
1026.321	45.03
1026.481	39.02
1026.64	22.56
1026.8	-3.79
1026.959	20.42
1027.119	14.61
1027.278	12.67
1027.437	16.94
1027.597	22.56
1027.756	51.81
1027.915	31.47
1028.074	15.19
1028.234	-11.35
1028.393	22.75
1028.552	16.36
1028.711	-36.73
1028.87	51.23
1029.03	-36.92
1029.189	9.96
1029.348	-57.46
1029.507	-7.28
1029.666	8.02
1029.825	-12.13
1029.984	-8.25
1030.143	27.59
1030.302	5.89
1030.461	-52.62
1030.62	14.22
1030.779	48.32
1030.938	-17.74
1031.097	-21.04
1031.255	49.29
1031.414	56.07
1031.573	50.46
1031.732	-50.29
1031.891	9.57
1032.049	53.17
1032.208	34.76
1032.367	6.86
1032.525	-0.5
1032.684	-15.23
1032.843	15.39
1033.001	-28.4
1033.16	149.65
1033.319	58.98
1033.477	20.42
1033.636	-3.99
1033.794	-31.89
1033.953	25.85
1034.111	48.71
1034.27	16.94
1034.428	37.67
1034.587	-0.31
1034.745	17.71
1034.903	38.25
1035.062	37.47
1035.22	-22.78
1035.378	38.44
1035.537	-21.23
1035.695	42.9
1035.853	-3.02
1036.011	22.75
1036.17	14.03
1036.328	-40.99
1036.486	0.86
1036.644	18.1
1036.802	-79.94
1036.96	-12.71
1037.119	18.49
1037.277	8.41
1037.435	-13.87
1037.593	-25.49
1037.751	3.96
1037.909	43.67
1038.067	43.67
