Data from oakcork_FLMT105791__221__17-32-52-055.txt Node

Date: Mon Mar 20 17:32:52 GMT 2023
User: antho
Spectrometer: FLMT10579
Trigger mode: 0
Integration Time (sec): 1.000000E-1
Scans to average: 10
Electric dark correction enabled: true
Nonlinearity correction enabled: false
Boxcar width: 0
XAxis mode: Wavelengths
Number of Pixels in Spectrum: 3648
>>>>>Begin Spectral Data<<<<<
345.248	-143.29
345.464	-143.29
345.681	-143.29
345.898	-166.15
346.114	-159.18
346.331	-46.42
346.548	33.79
346.764	5.12
346.981	-9.22
347.197	-16.97
347.414	2.6
347.631	-11.54
347.847	57.62
348.064	9.38
348.28	24.88
348.497	-26.08
348.713	-23.17
348.93	12.48
349.146	29.72
349.363	-2.05
349.579	-2.44
349.796	-13.48
350.012	-12.32
350.229	51.62
350.445	-3.02
350.661	-14.26
350.878	15
351.094	30.69
351.311	-5.34
351.527	17.52
351.743	3.96
351.96	45.03
352.176	25.46
352.392	32.63
352.609	28.17
352.825	-16.39
353.041	-19.68
353.257	0.08
353.474	17.13
353.69	13.26
353.906	27.98
354.122	-21.04
354.339	55.3
354.555	-5.54
354.771	4.92
354.987	64.99
355.203	50.46
355.42	-4.18
355.636	-13.68
355.852	-26.66
356.068	-5.73
356.284	-22.98
356.5	60.14
356.716	20.23
356.932	-15.61
357.148	39.61
357.364	-17.16
357.58	37.67
357.796	42.71
358.012	28.56
358.228	23.52
358.444	-65.79
358.66	55.88
358.876	20.81
359.092	-31.11
359.308	16.16
359.524	5.12
359.74	28.76
359.956	-9.41
360.172	-9.03
360.388	36.12
360.604	-4.18
360.819	79.52
361.035	9.38
361.251	22.17
361.467	0.08
361.683	36.89
361.898	34.57
362.114	24.69
362.33	39.8
362.546	58.98
362.762	12.87
362.977	20.42
363.193	-1.08
363.409	49.49
363.624	-21.62
363.84	2.21
364.056	-1.28
364.271	-3.6
364.487	42.51
364.703	-10.38
364.918	-17.16
365.134	-3.41
365.35	-3.99
365.565	96.76
365.781	45.03
365.996	31.47
366.212	53.94
366.427	22.17
366.643	-6.51
366.858	-12.13
367.074	-5.93
367.289	62.08
367.505	99.86
367.72	-18.52
367.936	4.73
368.151	40.19
368.367	35.54
368.582	32.05
368.798	-23.17
369.013	64.99
369.228	10.16
369.444	32.05
369.659	59.75
369.874	43.29
370.09	61.11
370.305	-18.52
370.52	8.99
370.736	69.64
370.951	17.71
371.166	46.97
371.381	57.43
371.597	45.61
371.812	-9.8
372.027	1.63
372.242	26.82
372.458	61.11
372.673	8.99
372.888	36.12
373.103	28.17
373.318	94.05
373.533	31.66
373.749	26.04
373.964	-24.91
374.179	64.99
374.394	2.6
374.609	53.36
374.824	-4.18
375.039	69.83
375.254	1.05
375.469	74.87
375.684	44.84
375.899	59.75
376.114	28.95
376.329	20.62
376.544	67.7
376.759	62.85
376.974	6.47
377.189	7.06
377.404	34.57
377.619	50.46
377.834	-27.82
378.049	-51.26
378.264	-7.48
378.478	30.11
378.693	-5.34
378.908	19.84
379.123	3.76
379.338	61.3
379.553	35.15
379.767	13.06
379.982	35.34
380.197	30.31
380.412	18.1
380.626	42.51
380.841	71.19
381.056	36.31
381.271	76.61
381.485	4.54
381.7	7.64
381.915	30.5
382.129	6.67
382.344	53.75
382.559	21.78
382.773	68.47
382.988	-5.54
383.202	29.34
383.417	2.6
383.632	124.66
383.846	43.09
384.061	31.47
384.275	5.7
384.49	41.16
384.704	45.42
384.919	29.34
385.133	43.09
385.348	43.29
385.562	-15.61
385.777	71.77
385.991	14.42
386.206	27.21
386.42	7.06
386.634	70.22
386.849	55.3
387.063	27.98
387.277	2.21
387.492	1.82
387.706	14.81
387.92	12.29
388.135	58.59
388.349	45.03
388.563	35.54
388.778	26.24
388.992	42.71
389.206	66.34
389.42	89.2
389.635	46.97
389.849	82.23
390.063	85.52
390.277	50.84
390.491	106.25
390.706	46.39
390.92	57.24
391.134	33.41
391.348	80.68
391.562	-3.6
391.776	19.07
391.99	15.77
392.205	79.9
392.419	19.84
392.633	36.89
392.847	90.17
393.061	10.16
393.275	96.18
393.489	40.19
393.703	40.38
393.917	58.01
394.131	8.02
394.345	49.68
394.559	60.92
394.773	30.89
394.986	45.03
395.2	50.46
395.414	79.52
395.628	17.32
395.842	57.82
396.056	58.79
396.27	-6.51
396.484	65.95
396.697	42.12
396.911	98.31
397.125	56.27
397.339	90.17
397.553	65.37
397.766	120.59
397.98	99.28
398.194	99.67
398.408	57.82
398.621	77.77
398.835	91.53
399.049	61.69
399.262	102.96
399.476	89.59
399.69	104.32
399.903	121.75
400.117	66.54
400.331	78.16
400.544	44.26
400.758	154.11
400.971	83.2
401.185	110.52
401.398	54.72
401.612	131.64
401.826	88.43
402.039	95.4
402.253	57.82
402.466	95.79
402.68	69.64
402.893	69.25
403.106	92.69
403.32	58.79
403.533	108.97
403.747	72.54
403.96	95.79
404.174	110.52
404.387	74.09
404.6	80.87
404.814	113.04
405.027	65.76
405.24	91.92
405.454	104.32
405.667	131.83
405.88	30.31
406.094	92.89
406.307	118.27
406.52	93.85
406.733	59.37
406.947	50.65
407.16	127.57
407.373	122.72
407.586	63.44
407.799	58.2
408.012	116.33
408.226	78.16
408.439	147.33
408.652	75.84
408.865	72.93
409.078	115.17
409.291	128.92
409.504	66.92
409.717	101.8
409.93	115.36
410.143	63.44
410.357	56.85
410.57	48.52
410.783	79.32
410.996	110.9
411.209	80.29
411.421	127.37
411.634	118.46
411.847	72.15
412.06	95.99
412.273	133.77
412.486	113.62
412.699	182.01
412.912	91.53
413.125	130.28
413.338	90.17
413.55	147.91
413.763	136.87
413.976	127.57
414.189	91.34
414.402	86.3
414.615	174.07
414.827	67.89
415.04	132.6
415.253	113.42
415.466	128.34
415.678	168.06
415.891	132.6
416.104	117.49
416.316	123.11
416.529	89.98
416.742	117.88
416.954	183.56
417.167	100.44
417.38	124.47
417.592	146.94
417.805	83.78
418.017	67.89
418.23	137.84
418.442	83.78
418.655	124.66
418.868	121.37
419.08	147.91
419.293	165.54
419.505	154.88
419.718	147.91
419.93	152.17
420.142	111.29
420.355	184.72
420.567	170.38
420.78	163.6
420.992	117.49
421.205	182.2
421.417	112.07
421.629	107.8
421.842	82.62
422.054	96.95
422.266	145.2
422.479	149.27
422.691	118.27
422.903	155.27
423.115	96.18
423.328	128.92
423.54	147.13
423.752	135.12
423.964	111.49
424.177	151.4
424.389	130.67
424.601	228.12
424.813	144.81
425.025	158.18
425.238	163.6
425.45	133.38
425.662	121.17
425.874	418.77
426.086	145
426.298	183.37
426.51	156.24
426.722	145
426.934	111.49
427.146	157.79
427.358	84.94
427.57	156.24
427.782	143.84
427.994	124.66
428.206	123.69
428.418	96.37
428.63	173.29
428.842	146.17
429.054	170.77
429.266	178.33
429.478	142.29
429.69	145.78
429.902	99.47
430.114	182.01
430.325	132.8
430.537	141.32
430.749	110.9
430.961	67.7
431.173	125.44
431.384	145.78
431.596	86.3
431.808	132.99
432.02	171.74
432.231	176.2
432.443	188.79
432.655	168.83
432.867	117.49
433.078	183.17
433.29	216.88
433.502	184.92
433.713	202.35
433.925	178.33
434.136	215.53
434.348	133.96
434.56	122.72
434.771	266.87
434.983	116.14
435.194	145.78
435.406	193.63
435.617	197.32
435.829	216.69
436.04	214.75
436.252	219.02
436.463	243.23
436.675	222.5
436.886	200.03
437.098	219.4
437.309	227.73
437.521	189.37
437.732	217.66
437.943	219.02
438.155	187.24
438.366	171.93
438.578	242.07
438.789	194.22
439	209.91
439.211	176.97
439.423	225.8
439.634	235.29
439.845	201.77
440.057	220.18
440.268	240.52
440.479	207
440.69	223.86
440.902	198.48
441.113	221.92
441.324	238
441.535	213.59
441.746	269.58
441.957	201
442.168	211.46
442.38	224.25
442.591	256.41
442.802	214.95
443.013	199.25
443.224	236.26
443.435	221.34
443.646	218.24
443.857	228.7
444.068	223.08
444.279	216.88
444.49	286.44
444.701	213.4
444.912	323.83
445.123	266.87
445.334	250.21
445.545	261.06
445.756	231.22
445.967	210.3
446.178	260.09
446.388	274.81
446.599	242.85
446.81	245.56
447.021	234.51
447.232	274.43
447.443	288.76
447.653	221.53
447.864	282.18
448.075	251.76
448.286	286.83
448.496	259.51
448.707	291.67
448.918	252.53
449.129	353.09
449.339	254.66
449.55	277.53
449.761	266.1
449.971	301.55
450.182	247.69
450.393	291.48
450.603	251.56
450.814	317.24
451.024	312.21
451.235	319.38
451.446	333.52
451.656	339.14
451.867	290.12
452.077	296.71
452.288	368.39
452.498	337.98
452.709	307.56
452.919	314.53
453.13	260.28
453.34	297.68
453.55	254.86
453.761	338.94
453.971	284.31
454.182	312.21
454.392	299.03
454.602	377.5
454.813	330.61
455.023	332.36
455.233	270.16
455.444	315.31
455.654	244.01
455.864	291.48
456.075	305.43
456.285	276.95
456.495	288.96
456.705	321.31
456.916	331.19
457.126	381.18
457.336	305.81
457.546	248.46
457.756	311.05
457.967	342.82
458.177	294.96
458.387	294.96
458.597	293.61
458.807	324.41
459.017	286.44
459.227	326.16
459.437	283.92
459.647	333.71
459.857	341.46
460.068	286.25
460.278	349.21
460.488	331
460.698	377.31
460.908	315.89
461.117	284.7
461.327	313.95
461.537	322.09
461.747	337.2
461.957	333.33
462.167	445.89
462.377	372.46
462.587	370.72
462.797	380.6
463.007	334.29
463.216	361.61
463.426	417.41
463.636	380.21
463.846	312.79
464.056	320.73
464.265	384.86
464.475	294.38
464.685	369.75
464.895	368.98
465.104	352.7
465.314	379.83
465.524	358.13
465.733	313.37
465.943	426.91
466.153	395.33
466.362	388.93
466.572	365.88
466.782	354.44
466.991	382.93
467.201	407.14
467.41	307.17
467.62	367.62
467.829	372.27
468.039	376.34
468.249	353.28
468.458	367.04
468.668	386.22
468.877	379.05
469.086	415.67
469.296	394.74
469.505	371.3
469.715	430.78
469.924	382.15
470.134	411.99
470.343	419.16
470.552	370.33
470.762	370.91
470.971	350.38
471.18	377.69
471.39	402.11
471.599	371.49
471.808	419.93
472.018	394.94
472.227	440.47
472.436	448.8
472.645	430.01
472.855	409.27
473.064	473.41
473.273	427.68
473.482	443.57
473.691	472.24
473.901	458.1
474.11	431.75
474.319	532.89
474.528	426.91
474.737	504.6
474.946	479.02
475.155	463.72
475.364	491.81
475.573	474.57
475.783	469.72
475.992	493.55
476.201	517.58
476.41	475.92
476.619	441.63
476.828	472.05
477.037	462.56
477.245	476.51
477.454	517.58
477.663	489.68
477.872	450.74
478.081	504.02
478.29	453.45
478.499	551.68
478.708	537.34
478.917	574.15
479.125	534.24
479.334	546.06
479.543	530.56
479.752	556.52
479.961	528.24
480.169	568.34
480.378	520.68
480.587	652.82
480.796	586.75
481.004	560.01
481.213	573.57
481.422	555.55
481.63	562.92
481.839	599.15
482.048	647.78
482.256	597.6
482.465	571.44
482.674	601.86
482.882	607.09
483.091	645.84
483.299	593.72
483.508	613.29
483.716	623.17
483.925	612.52
484.134	589.65
484.342	587.33
484.551	646.42
484.759	642.35
484.967	640.03
485.176	676.45
485.384	648.17
485.593	645.45
485.801	618.72
486.01	634.99
486.218	569.5
486.426	560.79
486.635	589.07
486.843	553.62
487.051	583.07
487.26	574.93
487.468	599.73
487.676	650.3
487.885	582.1
488.093	650.68
488.301	643.52
488.509	669.48
488.717	695.63
488.926	628.79
489.134	645.07
489.342	656.5
489.55	640.22
489.758	650.1
489.967	625.5
490.175	773.13
490.383	663.86
490.591	749.88
490.799	700.67
491.007	730.7
491.215	701.25
491.423	682.85
491.631	718.69
491.839	690.01
492.047	753.76
492.255	665.99
492.463	687.69
492.671	693.11
492.879	744.26
493.087	719.85
493.295	747.17
493.503	735.93
493.711	759.57
493.919	768.48
494.127	782.63
494.334	789.02
494.542	729.35
494.75	770.03
494.958	764.8
495.166	822.34
495.374	767.32
495.581	778.75
495.789	753.18
495.997	832.81
496.205	762.67
496.412	785.14
496.62	794.06
496.828	785.92
497.035	777.78
497.243	808.59
497.451	782.04
497.658	812.66
497.866	772.55
498.074	859.74
498.281	752.4
498.489	868.46
498.696	802
498.904	762.28
499.112	774.29
499.319	868.65
499.527	809.75
499.734	840.94
499.942	767.71
500.149	814.21
500.357	810.14
500.564	762.67
500.771	830.68
500.979	758.6
501.186	800.26
501.394	821.57
501.601	768.48
501.808	826.41
502.016	802.58
502.223	788.63
502.43	784.37
502.638	803.94
502.845	795.03
503.052	882.6
503.26	800.26
503.467	919.41
503.674	830.09
503.881	819.63
504.089	904.69
504.296	855.28
504.503	804.71
504.71	800.45
504.917	773.71
505.125	872.72
505.332	824.48
505.539	876.98
505.746	960.68
505.953	902.36
506.16	889.96
506.367	944.99
506.574	947.89
506.781	940.14
506.988	872.91
507.195	905.46
507.402	894.61
507.609	920.96
507.816	891.9
508.023	901.78
508.23	854.7
508.437	858.38
508.644	925.8
508.851	940.92
509.058	944.99
509.265	932.39
509.472	955.84
509.679	1019
509.885	938.2
510.092	936.07
510.299	929.29
510.506	937.43
510.713	931.04
510.92	970.56
511.126	972.5
511.333	1001.95
511.54	952.54
511.746	1045.73
511.953	998.46
512.16	1028.1
512.367	995.55
512.573	955.84
512.78	998.65
512.987	966.69
513.193	957.97
513.4	935.69
513.606	980.25
513.813	979.67
514.02	1002.34
514.226	1037.79
514.433	1036.24
514.639	967.65
514.846	988.77
515.052	962.62
515.259	1021.52
515.465	985.29
515.672	979.09
515.878	1093.59
516.085	1013.96
516.291	1066.47
516.497	1003.69
516.704	969.59
516.91	974.44
517.117	952.93
517.323	893.26
517.529	931.42
517.736	943.05
517.942	971.34
518.148	944.4
518.354	1001.75
518.561	969.59
518.767	958.55
518.973	977.34
519.179	1011.25
519.386	997.69
519.592	987.03
519.798	1030.43
520.004	1068.02
520.21	1051.93
520.417	1106.76
520.623	1103.66
520.829	1105.8
521.035	1082.35
521.241	1123.23
521.447	1151.13
521.653	1243.16
521.859	1151.71
522.065	1166.83
522.271	1220.11
522.477	1189.88
522.683	1194.14
522.889	1183.68
523.095	1165.86
523.301	1155.01
523.507	1180.78
523.713	1217.01
523.919	1154.04
524.125	1252.46
524.331	1190.27
524.537	1301.09
524.742	1265.83
524.948	1276.1
525.154	1255.95
525.36	1367.55
525.566	1252.85
525.772	1298.77
525.977	1251.69
526.183	1271.84
526.389	1287.92
526.595	1254.59
526.8	1243.74
527.006	1170.9
527.212	1174.38
527.417	1187.75
527.623	1150.16
527.829	1231.15
528.034	1222.43
528.24	1267.19
528.446	1237.54
528.651	1316.4
528.857	1310.97
529.062	1375.1
529.268	1345.27
529.473	1335.97
529.679	1348.76
529.884	1411.53
530.09	1402.42
530.295	1400.68
530.501	1360.57
530.706	1421.41
530.912	1363.29
531.117	1357.67
531.323	1397.19
531.528	1456.67
531.733	1430.71
531.939	1371.62
532.144	1433.62
532.35	1415.02
532.555	1439.43
532.76	1431.49
532.966	1416.95
533.171	1387.89
533.376	1378.4
533.581	1357.47
533.787	1386.73
533.992	1412.3
534.197	1452.02
534.402	1405.52
534.607	1438.27
534.813	1529.91
535.018	1419.67
535.223	1438.46
535.428	1496.78
535.633	1468.49
535.838	1511.5
536.043	1491.55
536.249	1551.41
536.454	1516.35
536.659	1547.93
536.864	1484.77
537.069	1460.16
537.274	1490.19
537.479	1511.31
537.684	1520.22
537.889	1445.44
538.094	1590.94
538.299	1554.71
538.504	1549.09
538.708	1512.08
538.913	1553.74
539.118	1521
539.323	1561.68
539.528	1488.25
539.733	1528.94
539.938	1509.18
540.142	1534.56
540.347	1495.23
540.552	1468.1
540.757	1488.45
540.962	1461.52
541.166	1418.12
541.371	1460.93
541.576	1517.12
541.781	1409.79
541.985	1539.79
542.19	1526.81
542.395	1593.26
542.599	1605.28
542.804	1574.08
543.008	1601.79
543.213	1525.45
543.418	1503.37
543.622	1574.66
543.827	1526.81
544.031	1603.53
544.236	1606.83
544.44	1607.21
544.645	1614.19
544.849	1564.4
545.054	1626.01
545.258	1669.41
545.463	1661.66
545.667	1584.16
545.872	1582.22
546.076	1592.49
546.281	1577.38
546.485	1606.44
546.689	1609.35
546.894	1635.11
547.098	1615.16
547.302	1575.63
547.507	1624.84
547.711	1575.63
547.915	1658.36
548.119	1562.07
548.324	1625.81
548.528	1673.09
548.732	1608.96
548.936	1663.01
549.141	1696.73
549.345	1608.76
549.549	1621.55
549.753	1647.13
549.957	1686.84
550.161	1714.36
550.366	1661.66
550.57	1624.26
550.774	1643.64
550.978	1638.6
551.182	1694.01
551.386	1643.06
551.59	1637.44
551.794	1631.04
551.998	1651.78
552.202	1629.11
552.406	1590.55
552.61	1646.54
552.814	1661.46
553.018	1708.54
553.222	1665.14
553.426	1612.06
553.63	1705.44
553.833	1625.04
554.037	1620.2
554.241	1666.69
554.445	1697.5
554.649	1664.18
554.853	1657.59
555.056	1707.19
555.26	1694.4
555.464	1683.16
555.668	1701.96
555.871	1689.75
556.075	1717.46
556.279	1625.81
556.483	1605.28
556.686	1640.93
556.89	1636.28
557.094	1671.54
557.297	1583.19
557.501	1655.26
557.704	1600.05
557.908	1653.33
558.112	1560.91
558.315	1671.15
558.519	1601.6
558.722	1611.67
558.926	1580.28
559.129	1534.75
559.333	1532.43
559.536	1560.13
559.74	1524.48
559.943	1540.37
560.147	1535.92
560.35	1546.18
560.553	1543.66
560.757	1492.52
560.96	1606.25
561.164	1545.21
561.367	1655.84
561.57	1537.66
561.774	1575.25
561.977	1557.81
562.18	1533.2
562.384	1611.67
562.587	1561.1
562.79	1526.23
562.993	1506.85
563.197	1577.18
563.4	1595.59
563.603	1595.2
563.806	1638.21
564.009	1510.53
564.212	1549.86
564.416	1507.24
564.619	1538.63
564.822	1471.01
565.025	1526.62
565.228	1503.17
565.431	1526.81
565.634	1433.04
565.837	1470.82
566.04	1461.71
566.243	1451.83
566.446	1356.7
566.649	1472.37
566.852	1419.47
567.055	1417.73
567.258	1460.93
567.461	1513.44
567.664	1523.52
567.867	1407.85
568.07	1497.75
568.273	1470.82
568.475	1521.58
568.678	1411.34
568.881	1389.25
569.084	1420.44
569.287	1332.87
569.489	1379.17
569.692	1431.68
569.895	1413.66
570.098	1355.34
570.3	1389.44
570.503	1298.19
570.706	1322.02
570.909	1331.71
571.111	1261.57
571.314	1284.82
571.516	1298.77
571.719	1331.71
571.922	1291.79
572.124	1308.26
572.327	1355.92
572.529	1269.71
572.732	1298.19
572.935	1315.43
573.137	1399.71
573.34	1280.94
573.542	1344.69
573.745	1326.28
573.947	1316.01
574.15	1302.06
574.352	1286.37
574.554	1359.61
574.757	1288.5
574.959	1286.56
575.162	1264.48
575.364	1252.08
575.566	1386.73
575.769	1251.3
575.971	1277.65
576.173	1170.31
576.376	1238.51
576.578	1249.94
576.78	1309.62
576.982	1152.1
577.185	1215.26
577.387	1213.52
577.589	1227.86
577.791	1256.92
577.993	1272.81
578.196	1210.42
578.398	1242.19
578.6	1261.38
578.802	1185.81
579.004	1185.23
579.206	1206.35
579.408	1240.26
579.61	1198.02
579.812	1228.83
580.014	1198.41
580.216	1223.79
580.418	1207.9
580.62	1175.93
580.822	1155.59
581.024	1224.37
581.226	1272.42
581.428	1198.99
581.63	1290.24
581.832	1213.33
582.034	1271.26
582.236	1240.26
582.438	1270.68
582.64	1256.34
582.841	1295.86
583.043	1304.58
583.245	1243.36
583.447	1241.23
583.649	1224.18
583.85	1260.41
584.052	1311.36
584.254	1203.25
584.456	1295.47
584.657	1203.83
584.859	1196.66
585.061	1223.01
585.262	1201.7
585.464	1182.91
585.666	1269.13
585.867	1197.83
586.069	1264.09
586.27	1204.99
586.472	1213.13
586.674	1200.93
586.875	1194.34
587.077	1191.82
587.278	1192.98
587.48	1172.83
587.681	1312.72
587.883	1205.58
588.084	1125.17
588.285	1150.16
588.487	1168.38
588.688	1181.94
588.89	1065.11
589.091	1080.22
589.292	1072.28
589.494	1052.9
589.695	1029.46
589.896	972.89
590.098	1014.93
590.299	1031.2
590.5	1014.35
590.702	1049.61
590.903	1052.71
591.104	1131.95
591.305	1099.98
591.507	1140.09
591.708	1117.81
591.909	1082.93
592.11	1169.54
592.311	1105.41
592.512	1069.18
592.714	1027.52
592.915	1068.02
593.116	1098.82
593.317	1099.6
593.518	1061.62
593.719	1116.06
593.92	1123.23
594.121	1121.88
594.322	1094.95
594.523	1100.56
594.724	1036.82
594.925	1051.74
595.126	1079.06
595.327	1071.31
595.528	1093.01
595.729	1074.6
595.929	1072.08
596.13	1082.16
596.331	1094.37
596.532	1112.19
596.733	1142.03
596.934	1124.4
597.135	1120.13
597.335	1136.8
597.536	1037.21
597.737	1091.27
597.938	1079.45
598.138	1102.7
598.339	1070.34
598.54	1134.08
598.74	1074.41
598.941	1075.18
599.142	1159.27
599.342	1113.93
599.543	1077.9
599.744	1084.29
599.944	1084.87
600.145	1062.78
600.345	1062.98
600.546	1145.9
600.746	1143.96
600.947	1192.21
601.147	1120.52
601.348	1133.31
601.548	1074.41
601.749	1117.81
601.949	1071.12
602.15	1072.47
602.35	1082.74
602.551	1119.16
602.751	1038.57
602.951	1092.82
603.152	1033.92
603.352	1127.5
603.552	1108.7
603.753	1131.18
603.953	1142.8
604.153	1069.37
604.354	1112.96
604.554	1100.95
604.754	1064.14
604.954	1058.52
605.155	1115.48
605.355	1096.88
605.555	1131.76
605.755	1129.05
605.955	1076.15
606.155	1118.39
606.356	1097.66
606.556	1122.26
606.756	1091.07
606.956	1047.48
607.156	1132.53
607.356	1067.63
607.556	1092.43
607.756	1092.62
607.956	1115.29
608.156	1088.55
608.356	1054.26
608.556	1091.07
608.756	1098.24
608.956	1040.89
609.156	1106.18
609.356	1054.26
609.556	1003.11
609.755	1061.62
609.955	1033.14
610.155	1059.1
610.355	1089.13
610.555	1013.57
610.755	1057.94
610.954	1027.72
611.154	1080.61
611.354	1066.66
611.554	1015.12
611.753	1014.35
611.953	984.7
612.153	1060.65
612.352	1056.78
612.552	999.43
612.752	980.05
612.951	1030.62
613.151	1018.8
613.351	1007.37
613.55	986.25
613.75	1026.36
613.949	979.86
614.149	1006.02
614.348	998.07
614.548	976.37
614.747	944.79
614.947	944.21
615.146	926.97
615.346	1028.68
615.545	1004.47
615.745	986.45
615.944	1011.25
616.144	985.09
616.343	1024.03
616.542	937.24
616.742	952.35
616.941	952.15
617.14	905.66
617.34	951.57
617.539	946.73
617.738	914.76
617.938	1012.41
618.137	962.81
618.336	944.02
618.535	985.87
618.734	953.32
618.934	985.87
619.133	973.47
619.332	988.58
619.531	948.86
619.73	945.76
619.929	979.09
620.128	983.35
620.328	975.02
620.527	924.26
620.726	936.65
620.925	981.22
621.124	977.92
621.323	1000.79
621.522	933.75
621.721	893.26
621.92	910.69
622.119	973.27
622.318	888.61
622.517	957.77
622.715	927.94
622.914	876.01
623.113	921.74
623.312	859.93
623.511	934.72
623.71	910.31
623.909	888.02
624.107	963.2
624.306	848.89
624.505	876.21
624.704	908.17
624.902	882.21
625.101	930.65
625.3	897.13
625.499	911.66
625.697	848.11
625.896	869.81
626.095	901.59
626.293	852.37
626.492	861.87
626.69	880.08
626.889	889.19
627.088	955.25
627.286	861.29
627.485	865.36
627.683	841.52
627.882	881.05
628.08	765.58
628.279	838.04
628.477	897.32
628.676	795.8
628.874	857.41
629.073	809.94
629.271	790.57
629.469	846.56
629.668	841.14
629.866	835.13
630.065	803.74
630.263	832.23
630.461	806.46
630.66	848.69
630.858	860.12
631.056	876.01
631.254	888.61
631.453	816.14
631.651	863.61
631.849	835.33
632.047	856.64
632.245	816.92
632.444	848.89
632.642	858.38
632.84	844.82
633.038	835.91
633.236	791.73
633.434	819.44
633.632	839.97
633.83	839.39
634.028	876.79
634.227	834.36
634.425	904.69
634.623	844.43
634.821	864.19
635.019	863.03
635.216	816.14
635.414	869.81
635.612	870.78
635.81	846.17
636.008	908.37
636.206	829.51
636.404	864.77
636.602	834.16
636.8	860.71
636.997	896.16
637.195	896.36
637.393	865.55
637.591	907.59
637.789	852.37
637.986	868.65
638.184	883.96
638.382	894.81
638.58	906.24
638.777	907.4
638.975	871.36
639.173	874.66
639.37	844.62
639.568	893.26
639.765	892.29
639.963	845.98
640.161	891.12
640.358	854.7
640.556	843.46
640.753	813.82
640.951	807.04
641.148	873.69
641.346	788.63
641.543	831.45
641.741	846.56
641.938	814.79
642.136	826.41
642.333	804.91
642.531	851.79
642.728	887.64
642.925	862.26
643.123	820.99
643.32	854.31
643.517	810.53
643.715	827.38
643.912	810.53
644.109	830.29
644.306	837.26
644.504	792.31
644.701	818.08
644.898	860.12
645.095	803.94
645.293	832.81
645.49	839.78
645.687	826.99
645.884	841.72
646.081	780.11
646.278	796.96
646.475	773.52
646.672	802
646.87	805.49
647.067	805.68
647.264	789.79
647.461	721.01
647.658	725.47
647.855	789.21
648.052	758.6
648.249	733.22
648.446	747.17
648.642	739.23
648.839	715.01
649.036	754.73
649.233	734.38
649.43	731.67
649.627	699.12
649.824	743.88
650.021	696.21
650.217	735.55
650.414	716.95
650.611	761.31
650.808	779.33
651.004	774.49
651.201	776.62
651.398	778.94
651.595	748.91
651.791	710.36
651.988	742.13
652.185	722.56
652.381	747.95
652.578	700.28
652.775	734.19
652.971	725.47
653.168	715.01
653.364	757.83
653.561	693.5
653.757	754.14
653.954	725.66
654.15	701.64
654.347	797.35
654.543	751.82
654.74	691.18
654.936	696.41
655.133	695.25
655.329	706.68
655.525	690.4
655.722	746.01
655.918	670.06
656.115	701.83
656.311	594.11
656.507	592.17
656.704	563.89
656.9	624.72
657.096	603.41
657.292	609.61
657.489	673.55
657.685	630.53
657.881	654.37
658.077	647.2
658.273	662.7
658.47	706.1
658.666	629.18
658.862	673.35
659.058	661.53
659.254	705.9
659.45	646.03
659.646	689.82
659.842	666.76
660.038	754.92
660.234	635.38
660.43	670.64
660.626	747.17
660.822	737.87
661.018	720.82
661.214	668.9
661.41	680.13
661.606	701.06
661.802	743.68
661.998	687.11
662.194	665.6
662.39	679.36
662.586	695.25
662.781	694.28
662.977	707.45
663.173	679.16
663.369	686.72
663.564	709.97
663.76	688.85
663.956	674.32
664.152	701.06
664.347	638.67
664.543	664.05
664.739	653.4
664.934	625.11
665.13	626.08
665.326	697.38
665.521	696.41
665.717	610
665.912	647.97
666.108	582.87
666.304	625.88
666.499	644.29
666.695	556.14
666.89	642.16
667.086	684.4
667.281	648.94
667.477	684.98
667.672	632.67
667.867	630.34
668.063	656.88
668.258	610.38
668.454	640.22
668.649	698.15
668.844	628.4
669.04	653.78
669.235	628.6
669.43	625.5
669.626	594.3
669.821	619.3
670.016	598.95
670.211	629.57
670.407	586.36
670.602	615.03
670.797	576.48
670.992	622.01
671.187	594.11
671.382	637.7
671.578	606.7
671.773	612.9
671.968	578.8
672.163	597.21
672.358	626.85
672.553	573.77
672.748	629.18
672.943	681.88
673.138	611.74
673.333	616.2
673.528	560.98
673.723	621.43
673.918	609.8
674.113	569.7
674.308	654.75
674.503	628.6
674.698	638.67
674.892	594.3
675.087	612.32
675.282	626.27
675.477	576.28
675.672	634.41
675.867	570.28
676.061	588.88
676.256	565.44
676.451	578.03
676.646	604.18
676.84	565.05
677.035	545.09
677.23	573.96
677.424	615.81
677.619	610.58
677.814	625.5
678.008	604.96
678.203	536.57
678.397	590.43
678.592	584.42
678.787	642.35
678.981	583.65
679.176	598.37
679.37	601.86
679.565	564.66
679.759	578.8
679.954	580.55
680.148	606.32
680.342	627.24
680.537	615.42
680.731	597.21
680.926	599.73
681.12	623.56
681.314	545.29
681.509	601.08
681.703	577.06
681.897	584.03
682.092	571.25
682.286	552.65
682.48	637.9
682.674	628.79
682.869	570.86
683.063	580.16
683.257	618.72
683.451	550.71
683.645	612.9
683.839	573.57
684.034	575.32
684.228	615.42
684.422	572.6
684.616	576.28
684.81	602.63
685.004	577.25
685.198	593.72
685.392	600.31
685.586	556.52
685.78	607.09
685.974	583.65
686.168	597.21
686.362	635.57
686.556	540.64
686.75	489.87
686.944	499.75
687.138	505.37
687.331	458.87
687.525	461.2
687.719	395.71
687.913	450.54
688.107	457.13
688.301	435.82
688.494	497.04
688.688	437.76
688.882	412.96
689.076	415.47
689.269	444.15
689.463	534.82
689.657	430.97
689.85	460.62
690.044	470.31
690.238	478.25
690.431	500.72
690.625	488.52
690.818	527.46
691.012	535.99
691.205	545.48
691.399	509.25
691.593	515.84
691.786	578.42
691.98	595.27
692.173	610.58
692.366	579.58
692.56	604.77
692.753	630.15
692.947	567.76
693.14	616.97
693.333	593.53
693.527	553.62
693.72	611.74
693.914	602.25
694.107	596.63
694.3	596.24
694.493	610.38
694.687	650.1
694.88	580.16
695.073	675.87
695.266	664.63
695.46	636.35
695.653	682.46
695.846	699.12
696.039	619.3
696.232	648.36
696.425	678.78
696.618	725.47
696.812	698.93
697.005	782.24
697.198	802.39
697.391	787.28
697.584	739.23
697.777	787.66
697.97	784.95
698.163	787.66
698.356	795.61
698.549	865.36
698.742	849.47
698.935	804.91
699.127	827.96
699.32	795.61
699.513	803.16
699.706	829.32
699.899	853.34
700.092	870.78
700.285	874.27
700.477	808.01
700.67	857.8
700.863	885.12
701.056	962.42
701.248	907.59
701.441	908.56
701.634	888.22
701.826	996.33
702.019	883.96
702.212	960.68
702.404	920.38
702.597	891.12
702.79	950.02
702.982	972.11
703.175	987.42
703.367	1007.37
703.56	1014.54
703.752	1066.66
703.945	1049.61
704.137	1087.78
704.33	1100.76
704.522	1096.3
704.715	1093.59
704.907	1104.25
705.1	1163.73
705.292	1143.77
705.484	1129.43
705.677	1161.98
705.869	1180.97
706.061	1216.04
706.254	1214.68
706.446	1171.86
706.638	1194.73
706.831	1284.43
707.023	1229.02
707.215	1333.64
707.407	1314.66
707.599	1299.35
707.792	1331.32
707.984	1326.28
708.176	1381.11
708.368	1335
708.56	1344.69
708.752	1335.97
708.944	1348.56
709.136	1366.77
709.329	1378.79
709.521	1486.32
709.713	1421.41
709.905	1451.05
710.097	1460.93
710.289	1430.52
710.481	1449.7
710.672	1487.48
710.864	1484.18
711.056	1553.16
711.248	1535.14
711.44	1550.64
711.632	1533.78
711.824	1583.19
712.016	1610.9
712.207	1594.23
712.399	1587.26
712.591	1660.3
712.783	1652.55
712.975	1669.21
713.166	1651.58
713.358	1621.75
713.55	1699.83
713.741	1695.95
713.933	1710.09
714.125	1714.55
714.316	1648.29
714.508	1753.3
714.7	1776.16
714.891	1705.64
715.083	1870.71
715.274	1759.31
715.466	1779.84
715.657	1835.45
715.849	1735.28
716.04	1783.72
716.232	1729.27
716.423	1777.91
716.615	1697.5
716.806	1678.51
716.998	1654.49
717.189	1591.71
717.381	1514.99
717.572	1511.12
717.763	1555.1
717.955	1513.05
718.146	1481.08
718.337	1441.17
718.528	1442.34
718.72	1346.82
718.911	1407.46
719.102	1373.36
719.293	1438.07
719.485	1424.7
719.676	1390.99
719.867	1356.7
720.058	1366
720.249	1395.45
720.44	1429.94
720.632	1450.47
720.823	1511.12
721.014	1617.87
721.205	1599.85
721.396	1715.91
721.587	1791.86
721.778	1839.13
721.969	1836.61
722.16	1883.3
722.351	1898.61
722.542	2018.54
722.733	2014.86
722.924	1938.91
723.115	2008.08
723.305	1976.69
723.496	1994.71
723.687	1872.65
723.878	1883.11
724.069	1899.58
724.26	1924.18
724.45	1866.84
724.641	1844.94
724.832	1867.42
725.023	1874.2
725.213	1839.52
725.404	1881.56
725.595	1889.31
725.785	1851.92
725.976	1904.03
726.167	1917.6
726.357	1920.5
726.548	2031.91
726.739	1937.36
726.929	2000.91
727.12	2036.36
727.31	2029.39
727.501	1982.7
727.691	2017.38
727.882	2066.78
728.072	2040.05
728.263	2077.63
728.453	2142.54
728.644	2117.74
728.834	2087.9
729.024	2043.53
729.215	2092.55
729.405	2108.44
729.596	2184.19
729.786	2182.06
729.976	2194.46
730.167	2203.76
730.357	2175.09
730.547	2197.95
730.737	2231.27
730.928	2253.75
731.118	2289.2
731.308	2254.72
731.498	2272.54
731.688	2327.37
731.879	2354.5
732.069	2427.15
732.259	2485.08
732.449	2488.76
732.639	2534.49
732.829	2597.65
733.019	2587.96
733.209	2654.22
733.399	2671.08
733.589	2733.85
733.779	2766.79
733.969	2774.93
734.159	2829.95
734.349	2883.23
734.539	2922.56
734.729	2896.99
734.919	2946.98
735.109	2944.26
735.299	2921.21
735.488	2923.92
735.678	2968.09
735.868	2917.33
736.058	2944.84
736.248	2886.53
736.437	2910.94
736.627	2935.93
736.817	3002.39
737.007	2993.28
737.196	3011.3
737.386	2993.48
737.576	2972.74
737.765	3093.64
737.955	3035.52
738.144	3166.3
738.334	3120.96
738.524	3040.94
738.713	3131.81
738.903	3136.85
739.092	3165.72
739.282	3115.92
739.471	3115.73
739.661	3160.68
739.85	3197.1
740.04	3235.27
740.229	3215.9
740.419	3232.75
740.608	3287.39
740.797	3246.12
740.987	3275.96
741.176	3269.95
741.365	3268.4
741.555	3207.76
741.744	3355.01
741.933	3293.98
742.123	3313.35
742.312	3327.69
742.501	3397.83
742.69	3385.23
742.88	3305.41
743.069	3423.98
743.258	3371.67
743.447	3386.78
743.636	3409.06
743.825	3425.14
744.014	3444.71
744.204	3406.74
744.393	3371.48
744.582	3496.06
744.771	3464.47
744.96	3451.11
745.149	3453.24
745.338	3405.77
745.527	3476.49
745.716	3425.53
745.905	3443.55
746.094	3502.26
746.283	3512.14
746.471	3471.45
746.66	3559.6
746.849	3507.1
747.038	3543.91
747.227	3512.52
747.416	3513.11
747.604	3477.84
747.793	3508.26
747.982	3536.74
748.171	3524.92
748.359	3528.22
748.548	3502.06
748.737	3490.44
748.926	3535.19
749.114	3420.3
749.303	3520.27
749.491	3452.85
749.68	3427.66
749.869	3508.65
750.057	3466.8
750.246	3500.12
750.434	3470.67
750.623	3459.63
750.811	3448.01
751	3502.26
751.188	3462.34
751.377	3471.84
751.565	3421.85
751.754	3445.1
751.942	3342.22
752.131	3473.58
752.319	3417.98
752.507	3392.4
752.696	3482.69
752.884	3487.92
753.072	3417.39
753.261	3402.67
753.449	3424.76
753.637	3406.35
753.825	3505.36
754.014	3432.12
754.202	3425.14
754.39	3490.63
754.578	3480.94
754.766	3456.34
754.955	3338.54
755.143	3485.79
755.331	3386.78
755.519	3391.63
755.707	3377.68
755.895	3361.79
756.083	3389.69
756.271	3348.61
756.459	3363.15
756.647	3430.38
756.835	3359.46
757.023	3337.38
757.211	3379.61
757.399	3345.51
757.587	3312
757.775	3297.08
757.963	3334.47
758.151	3280.22
758.339	3276.54
758.526	3233.33
758.714	3273.63
758.902	3189.74
759.09	3074.66
759.278	2862.31
759.465	2661.2
759.653	2270.41
759.841	2120.45
760.028	1769.57
760.216	1550.06
760.404	1417.15
760.591	1191.43
760.779	992.45
760.967	863.03
761.154	726.44
761.342	747.56
761.529	741.36
761.717	812.08
761.905	799.09
762.092	813.63
762.28	778.56
762.467	814.21
762.655	716.17
762.842	772.74
763.029	769.64
763.217	771
763.404	760.93
763.592	795.61
763.779	773.71
763.966	779.91
764.154	847.14
764.341	865.36
764.528	876.59
764.716	975.4
764.903	1022.68
765.09	1063.75
765.277	1114.51
765.465	1298.19
765.652	1326.86
765.839	1431.87
766.026	1545.8
766.213	1578.93
766.4	1695.18
766.588	1880.98
766.775	1929.22
766.962	2031.33
767.149	2088.29
767.336	2208.99
767.523	2203.57
767.71	2314.2
767.897	2453.7
768.084	2460.67
768.271	2507.94
768.458	2628.26
768.645	2689.49
768.832	2631.56
769.019	2714.09
769.206	2737.34
769.392	2803.99
769.579	2879.16
769.766	2820.27
769.953	2834.99
770.14	2894.28
770.327	2905.32
770.513	2951.04
770.7	2984.56
770.887	2915.2
771.073	2989.41
771.26	2964.03
771.447	2921.79
771.634	2901.45
771.82	3008.59
772.007	2866.57
772.193	2966.54
772.38	3037.26
772.567	2942.13
772.753	2900.67
772.94	3003.94
773.126	2960.34
773.313	2997.54
773.499	2969.84
773.686	3025.25
773.872	2938.06
774.059	2969.45
774.245	2927.21
774.432	2959.57
774.618	2885.56
774.804	2953.95
774.991	2884.78
775.177	3002
775.363	2900.48
775.55	2933.41
775.736	2878.39
775.922	2900.09
776.109	2908.03
776.295	2901.64
776.481	2953.18
776.667	2965.19
776.853	2883.43
777.04	2906.68
777.226	2897.76
777.412	2948.91
777.598	2877.61
777.784	2882.46
777.97	2827.82
778.156	2929.54
778.342	2879.16
778.528	2834.41
778.715	2810
778.901	2812.9
779.087	2842.35
779.272	2776.67
779.458	2803.22
779.644	2816.97
779.83	2815.23
780.016	2914.04
780.202	2838.28
780.388	2827.63
780.574	2702.85
780.76	2785.58
780.946	2794.69
781.131	2765.63
781.317	2775.32
781.503	2725.72
781.689	2741.6
781.874	2862.31
782.06	2732.89
782.246	2740.44
782.432	2705.37
782.617	2753.62
782.803	2802.25
782.989	2666.43
783.174	2689.87
783.36	2686.58
783.545	2645.51
783.731	2671.27
783.916	2641.05
784.102	2690.07
784.288	2646.28
784.473	2685.8
784.659	2636.59
784.844	2640.08
785.029	2600.94
785.215	2619.16
785.4	2623.61
785.586	2662.17
785.771	2581.18
785.956	2591.06
786.142	2610.05
786.327	2574.98
786.512	2601.33
786.698	2554.64
786.883	2520.54
787.068	2549.21
787.254	2546.89
787.439	2527.13
787.624	2506.78
787.809	2518.79
787.994	2491.48
788.18	2567.62
788.365	2432.96
788.55	2473.26
788.735	2495.16
788.92	2435.48
789.105	2471.52
789.29	2485.47
789.475	2392.28
789.66	2409.52
789.845	2375.81
790.03	2388.21
790.215	2427.15
790.4	2418.43
790.585	2456.99
790.77	2434.32
790.955	2332.6
791.14	2393.83
791.325	2457.18
791.51	2303.74
791.695	2392.67
791.879	2350.04
792.064	2296.76
792.249	2415.33
792.434	2336.09
792.618	2374.26
792.803	2437.03
792.988	2361.28
793.173	2380.27
793.357	2414.17
793.542	2334.93
793.727	2365.35
793.911	2373.87
794.096	2399.25
794.281	2408.17
794.465	2453.7
794.65	2390.73
794.834	2444.59
795.019	2436.06
795.203	2464.93
795.388	2415.33
795.572	2426.76
795.757	2446.72
795.941	2426.76
796.126	2423.86
796.31	2355.47
796.494	2412.23
796.679	2392.08
796.863	2373.48
797.048	2448.66
797.232	2432.19
797.416	2414.95
797.601	2430.06
797.785	2502.33
797.969	2465.32
798.153	2378.13
798.338	2438
798.522	2427.35
798.706	2473.07
798.89	2482.76
799.074	2598.81
799.258	2518.99
799.443	2462.03
799.627	2459.51
799.811	2495.93
799.995	2436.06
800.179	2459.31
800.363	2395.77
800.547	2427.54
800.731	2485.08
800.915	2370.19
801.099	2414.56
801.283	2421.73
801.467	2467.65
801.651	2428.12
801.835	2486.25
802.019	2409.52
802.202	2459.9
802.386	2369.61
802.57	2377.36
802.754	2388.6
802.938	2361.28
803.121	2357.4
803.305	2444.98
803.489	2375.62
803.673	2436.84
803.856	2424.05
804.04	2427.73
804.224	2395.38
804.407	2356.24
804.591	2399.83
804.775	2396.15
804.958	2423.47
805.142	2474.04
805.326	2399.64
805.509	2406.23
805.693	2471.13
805.876	2434.13
806.06	2411.07
806.243	2481.6
806.427	2465.32
806.61	2520.34
806.794	2451.76
806.977	2477.91
807.16	2434.51
807.344	2473.26
807.527	2428.12
807.71	2420.37
807.894	2452.15
808.077	2437.23
808.26	2377.36
808.444	2387.43
808.627	2454.08
808.81	2371.93
808.993	2342.29
809.177	2345.39
809.36	2351.01
809.543	2381.43
809.726	2283.78
809.909	2262.66
810.092	2264.02
810.276	2242.12
810.459	2275.64
810.642	2248.71
810.825	2217.32
811.008	2212.87
811.191	2156.29
811.374	2162.49
811.557	2175.67
811.74	2223.33
811.923	2113.67
812.106	2126.07
812.289	2060.78
812.472	2042.18
812.654	2097.01
812.837	2046.44
813.02	1981.15
813.203	1963.32
813.386	1933.68
813.569	1867.03
813.751	1849.2
813.934	1888.73
814.117	1835.25
814.3	1801.35
814.482	1731.21
814.665	1711.84
814.848	1688.78
815.03	1666.31
815.213	1617.29
815.396	1605.66
815.578	1624.46
815.761	1566.72
815.943	1591.13
816.126	1529.13
816.309	1501.82
816.491	1461.13
816.674	1381.5
816.856	1490.38
817.039	1435.55
817.221	1501.62
817.403	1474.5
817.586	1446.4
817.768	1485.54
817.951	1396.22
818.133	1407.85
818.315	1403
818.498	1464.23
818.68	1518.87
818.862	1475.08
819.045	1529.33
819.227	1498.13
819.409	1475.08
819.591	1529.91
819.774	1495.23
819.956	1499.1
820.138	1558.2
820.32	1562.65
820.502	1602.95
820.684	1657.78
820.866	1669.99
821.048	1702.73
821.231	1730.63
821.413	1706.99
821.595	1683.36
821.777	1703.31
821.959	1689.17
822.141	1742.84
822.323	1591.91
822.505	1540.56
822.686	1510.73
822.868	1437.69
823.05	1348.95
823.232	1335.97
823.414	1288.5
823.596	1307.68
823.778	1327.44
823.96	1350.11
824.141	1347.01
824.323	1363.67
824.505	1457.83
824.687	1490
824.868	1542.31
825.05	1585.9
825.232	1654.29
825.413	1681.61
825.595	1682.58
825.777	1634.34
825.958	1635.31
826.14	1625.81
826.321	1673.09
826.503	1659.53
826.685	1657.39
826.866	1694.59
827.048	1654.1
827.229	1627.94
827.411	1552.38
827.592	1544.44
827.773	1576.8
827.955	1484.57
828.136	1487.87
828.318	1479.34
828.499	1495.03
828.68	1460.93
828.862	1472.17
829.043	1506.08
829.224	1480.7
829.406	1443.3
829.587	1451.83
829.768	1477.79
829.949	1477.02
830.131	1475.08
830.312	1532.23
830.493	1477.02
830.674	1480.5
830.855	1485.54
831.036	1481.47
831.218	1536.11
831.399	1577.96
831.58	1524.48
831.761	1525.26
831.942	1497.36
832.123	1505.11
832.304	1440.59
832.485	1465.58
832.666	1496.78
832.847	1548.7
833.028	1518.48
833.209	1502.01
833.389	1466.17
833.57	1434.2
833.751	1419.28
833.932	1503.95
834.113	1489.22
834.294	1467.72
834.475	1522.93
834.655	1535.33
834.836	1541.34
835.017	1511.89
835.198	1498.72
835.378	1508.79
835.559	1576.41
835.74	1498.52
835.92	1502.78
836.101	1499.68
836.281	1573.5
836.462	1569.43
836.643	1554.13
836.823	1578.73
837.004	1564.98
837.184	1612.25
837.365	1581.45
837.545	1568.08
837.726	1526.23
837.906	1617.29
838.087	1576.41
838.267	1527.97
838.448	1526.42
838.628	1562.07
838.808	1568.66
838.989	1604.5
839.169	1512.67
839.349	1574.47
839.53	1606.83
839.71	1590.16
839.89	1596.75
840.07	1609.73
840.251	1545.6
840.431	1604.31
840.611	1542.89
840.791	1533.98
840.971	1562.26
841.151	1538.05
841.332	1497.75
841.512	1555.1
841.692	1492.32
841.872	1537.46
842.052	1539.4
842.232	1575.05
842.412	1489.42
842.592	1552
842.772	1547.35
842.952	1544.83
843.132	1497.94
843.312	1506.27
843.492	1482.25
843.672	1552
843.851	1459.97
844.031	1541.34
844.211	1504.33
844.391	1474.69
844.571	1516.93
844.751	1545.02
844.93	1531.27
845.11	1520.8
845.29	1469.27
845.47	1494.84
845.649	1503.95
845.829	1545.99
846.009	1492.13
846.188	1509.95
846.368	1527.58
846.547	1511.89
846.727	1555.68
846.907	1465.97
847.086	1525.84
847.266	1517.51
847.445	1501.82
847.625	1470.04
847.804	1459.97
847.984	1478.18
848.163	1475.27
848.343	1461.32
848.522	1467.91
848.701	1503.17
848.881	1425.29
849.06	1478.37
849.239	1466.94
849.419	1484.96
849.598	1399.9
849.777	1405.52
849.957	1381.5
850.136	1324.34
850.315	1318.53
850.494	1342.75
850.674	1348.17
850.853	1422.96
851.032	1354.37
851.211	1433.23
851.39	1391.77
851.569	1339.26
851.748	1344.11
851.927	1390.41
852.107	1360.38
852.286	1305.74
852.465	1291.41
852.644	1388.47
852.823	1369.1
853.002	1370.26
853.181	1342.17
853.359	1366
853.538	1301.48
853.717	1371.62
853.896	1293.92
854.075	1205.58
854.254	1202.28
854.433	1122.65
854.611	1214.29
854.79	1141.83
854.969	1184.65
855.148	1216.23
855.327	1187.17
855.505	1217.98
855.684	1191.24
855.863	1273.97
856.041	1196.08
856.22	1286.17
856.399	1240.26
856.577	1330.54
856.756	1288.69
856.934	1427.42
857.113	1404.55
857.291	1295.09
857.47	1275.52
857.648	1316.79
857.827	1276.49
858.005	1347.98
858.184	1282.3
858.362	1409.79
858.541	1339.07
858.719	1301.29
858.898	1286.56
859.076	1290.44
859.254	1363.67
859.433	1282.69
859.611	1275.91
859.789	1223.4
859.967	1316.21
860.146	1331.9
860.324	1242
860.502	1288.89
860.68	1234.06
860.859	1247.81
861.037	1265.64
861.215	1263.12
861.393	1255.95
861.571	1256.53
861.749	1221.08
861.927	1281.91
862.105	1262.54
862.283	1224.18
862.461	1247.43
862.639	1245.1
862.817	1204.8
862.995	1229.79
863.173	1197.44
863.351	1271.06
863.529	1244.91
863.707	1259.83
863.885	1254.21
864.063	1153.85
864.241	1198.21
864.418	1236.38
864.596	1215.84
864.774	1153.26
864.952	1188.91
865.129	1248.98
865.307	1182.71
865.485	1117.03
865.663	1208.87
865.84	1112.96
866.018	1120.52
866.196	1038.57
866.373	1074.22
866.551	996.72
866.728	981.6
866.906	1026.75
867.084	1052.13
867.261	1080.8
867.439	1073.05
867.616	1116.06
867.794	1087.97
867.971	1111.41
868.149	1094.75
868.326	1142.03
868.503	1143.58
868.681	1112.19
868.858	1110.83
869.035	1082.55
869.213	1156.36
869.39	1108.51
869.567	1179.42
869.745	1097.08
869.922	1102.5
870.099	1163.92
870.276	1095.92
870.454	1161.6
870.631	1131.56
870.808	1117.81
870.985	1150.94
871.162	1171.09
871.339	1131.76
871.517	1074.6
871.694	1051.55
871.871	1087.39
872.048	1089.72
872.225	1055.42
872.402	1103.28
872.579	1050.97
872.756	1058.52
872.933	1054.26
873.11	1045.54
873.287	1080.42
873.463	1056.39
873.64	1057.55
873.817	1095.33
873.994	1018.8
874.171	1036.63
874.348	1063.17
874.524	991.87
874.701	1037.21
874.878	981.41
875.055	1066.47
875.231	1018.42
875.408	1027.33
875.585	1002.34
875.762	1034.88
875.938	1004.08
876.115	997.1
876.291	980.44
876.468	992.45
876.645	976.95
876.821	973.66
876.998	980.05
877.174	997.69
877.351	969.4
877.527	973.08
877.704	1023.26
877.88	984.32
878.057	953.32
878.233	1025.39
878.409	973.27
878.586	1004.66
878.762	962.23
878.938	933.36
879.115	911.66
879.291	954.67
879.467	942.66
879.644	934.52
879.82	994.78
879.996	934.91
880.172	896.55
880.349	944.4
880.525	960.68
880.701	909.34
880.877	903.72
881.053	932.59
881.229	923.48
881.405	973.85
881.581	895.19
881.757	907.4
881.933	911.47
882.109	934.91
882.285	965.91
882.461	882.21
882.637	940.14
882.813	906.04
882.989	881.24
883.165	988.39
883.341	911.47
883.517	948.28
883.693	952.35
883.869	967.65
884.044	890.54
884.22	923.48
884.396	955.06
884.572	967.27
884.747	959.9
884.923	958.55
885.099	936.85
885.275	970.75
885.45	897.32
885.626	931.81
885.801	884.73
885.977	915.54
886.153	871.56
886.328	945.76
886.504	900.42
886.679	931.81
886.855	905.85
887.03	922.9
887.206	970.37
887.381	962.23
887.557	929.68
887.732	936.65
887.908	923.87
888.083	962.81
888.258	893.84
888.434	913.41
888.609	921.54
888.784	973.85
888.96	934.91
889.135	884.73
889.31	899.46
889.485	910.31
889.661	918.83
889.836	945.95
890.011	903.14
890.186	900.81
890.361	897.13
890.537	910.11
890.712	924.64
890.887	918.06
891.062	920.57
891.237	974.05
891.412	885.31
891.587	914.96
891.762	950.22
891.937	976.76
892.112	862.45
892.287	894.42
892.462	849.27
892.637	856.64
892.812	841.91
892.987	840.17
893.161	809.56
893.336	813.63
893.511	852.57
893.686	841.33
893.861	816.73
894.035	844.62
894.21	833.58
894.385	805.68
894.56	819.05
894.734	756.47
894.909	730.51
895.084	772.16
895.258	734.96
895.433	736.9
895.608	734.58
895.782	664.63
895.957	705.13
896.131	713.07
896.306	650.68
896.48	663.86
896.655	633.44
896.829	614.84
897.004	606.7
897.178	587.13
897.353	585.97
897.527	666.18
897.701	618.52
897.876	566.4
898.05	652.62
898.224	622.59
898.399	666.18
898.573	613.48
898.747	499.56
898.921	553.81
899.096	459.07
899.27	505.57
899.444	484.45
899.618	516.8
899.792	493.75
899.967	538.89
900.141	560.01
900.315	504.79
900.489	490.84
900.663	505.57
900.837	523.78
901.011	506.73
901.185	580.74
901.359	518.35
901.533	529.01
901.707	550.52
901.881	552.26
902.055	485.03
902.229	495.88
902.403	580.93
902.576	531.53
902.75	536.37
902.924	611.35
903.098	594.3
903.272	598.37
903.446	676.65
903.619	634.6
903.793	670.25
903.967	659.79
904.14	684.98
904.314	685.95
904.488	651.27
904.661	666.18
904.835	682.07
905.009	675.48
905.182	740.2
905.356	714.04
905.529	641.77
905.703	652.43
905.876	667.54
906.05	606.9
906.223	611.93
906.397	520.1
906.57	541.99
906.744	516.03
906.917	511.19
907.09	521.65
907.264	481.93
907.437	495.69
907.61	452.48
907.784	490.84
907.957	502.27
908.13	447.83
908.304	499.17
908.477	462.56
908.65	484.45
908.823	436.59
908.996	511.19
909.17	457.13
909.343	440.27
909.516	466.04
909.689	462.75
909.862	451.51
910.035	456.74
910.208	421.09
910.381	457.13
910.554	517.19
910.727	434.85
910.9	466.43
911.073	439.11
911.246	486.39
911.419	481.93
911.592	510.02
911.765	450.74
911.938	441.44
912.11	460.62
912.283	432.72
912.456	506.34
912.629	494.72
912.802	432.33
912.974	384.67
913.147	359.09
913.32	312.6
913.493	343.98
913.665	393
913.838	383.31
914.01	366.84
914.183	389.71
914.356	405.79
914.528	460.62
914.701	461.97
914.873	430.78
915.046	370.53
915.218	343.4
915.391	310.08
915.563	348.44
915.736	390.09
915.908	392.03
916.081	390.09
916.253	364.13
916.425	387.19
916.598	418.57
916.77	401.52
916.942	368.98
917.115	323.25
917.287	388.74
917.459	380.41
917.632	329.64
917.804	302.71
917.976	340.88
918.148	364.71
918.32	368.59
918.493	395.52
918.665	437.37
918.837	383.51
919.009	461.2
919.181	456.36
919.353	394.55
919.525	432.33
919.697	420.32
919.869	414.89
920.041	465.07
920.213	513.7
920.385	462.56
920.557	443.96
920.729	468.17
920.901	440.66
921.073	441.05
921.244	400.17
921.416	482.32
921.588	420.51
921.76	403.46
921.932	457.91
922.103	425.94
922.275	424.39
922.447	410.63
922.619	364.13
922.79	395.52
922.962	366.65
923.134	415.67
923.305	373.04
923.477	398.04
923.648	361.42
923.82	391.26
923.991	328.29
924.163	311.24
924.335	383.89
924.506	352.12
924.677	402.88
924.849	343.21
925.02	378.86
925.192	384.28
925.363	348.05
925.535	356.77
925.706	343.79
925.877	393.39
926.049	352.7
926.22	375.18
926.391	362.19
926.562	397.07
926.734	340.88
926.905	398.81
927.076	314.73
927.247	325.96
927.419	308.53
927.59	282.95
927.761	295.35
927.932	298.26
928.103	289.15
928.274	233.55
928.445	270.36
928.616	244.2
928.787	244.2
928.958	292.64
929.129	283.92
929.3	252.73
929.471	205.26
929.642	150.43
929.813	128.92
929.984	224.44
930.155	114.97
930.326	203.32
930.496	163.02
930.667	106.06
930.838	146.36
931.009	117.69
931.18	157.02
931.35	126.4
931.521	144.62
931.692	100.25
931.863	34.96
932.033	139
932.204	120.59
932.374	97.73
932.545	62.66
932.716	128.15
932.886	121.17
933.057	35.73
933.227	67.7
933.398	135.51
933.568	44.45
933.739	13.45
933.909	47.16
934.08	78.74
934.25	32.82
934.421	17.13
934.591	84.94
934.761	6.67
934.932	-5.15
935.102	49.49
935.272	12.67
935.443	40.96
935.613	32.63
935.783	49.49
935.953	7.64
936.123	166.7
936.294	11.71
936.464	21.97
936.634	35.15
936.804	9.19
936.974	-13.09
937.144	69.83
937.314	10.74
937.484	-12.32
937.655	0.86
937.825	59.17
937.995	1.24
938.165	54.52
938.334	0.47
938.504	58.79
938.674	35.92
938.844	54.91
939.014	94.44
939.184	74.09
939.354	133.19
939.524	131.44
939.694	47.36
939.863	48.52
940.033	133.57
940.203	133.77
940.373	98.31
940.542	116.91
940.712	59.56
940.882	111.87
941.051	107.03
941.221	90.37
941.391	115.17
941.56	75.64
941.73	32.24
941.899	166.12
942.069	63.82
942.238	91.72
942.408	46.19
942.577	125.44
942.747	108.97
942.916	31.27
943.086	30.31
943.255	106.84
943.425	62.85
943.594	54.52
943.763	8.02
943.933	30.31
944.102	-34.21
944.271	34.18
944.441	74.67
944.61	40.77
944.779	54.14
944.948	113.81
945.117	30.11
945.287	24.49
945.456	-12.32
945.625	41.74
945.794	52.2
945.963	21.59
946.132	85.14
946.301	33.41
946.47	85.14
946.639	-19.1
946.808	48.32
946.977	93.66
947.146	93.66
947.315	52.59
947.484	52.78
947.653	53.17
947.822	37.67
947.991	31.27
948.16	117.69
948.329	87.85
948.498	54.52
948.666	43.87
948.835	68.86
949.004	-0.89
949.173	34.76
949.341	46.58
949.51	79.71
949.679	105.29
949.847	93.08
950.016	120.4
950.185	117.88
950.353	37.28
950.522	61.5
950.69	108.97
950.859	41.54
951.028	92.3
951.196	60.72
951.365	28.56
951.533	62.66
951.701	81.65
951.87	75.45
952.038	14.61
952.207	55.49
952.375	120.4
952.543	62.08
952.712	61.3
952.88	51.42
953.048	107.22
953.217	65.57
953.385	55.88
953.553	91.92
953.721	1.63
953.89	55.3
954.058	36.51
954.226	39.61
954.394	52.78
954.562	10.16
954.73	55.69
954.898	35.15
955.067	103.35
955.235	40.57
955.403	65.18
955.571	96.95
955.739	72.54
955.907	40.96
956.075	50.84
956.243	25.46
956.41	77.97
956.578	13.64
956.746	15.77
956.914	49.68
957.082	70.8
957.25	72.74
957.418	19.46
957.585	77
957.753	105.09
957.921	36.51
958.089	54.14
958.256	86.88
958.424	73.51
958.592	61.89
958.759	36.31
958.927	65.18
959.095	19.65
959.262	51.04
959.43	63.44
959.597	49.1
959.765	76.8
959.932	22.75
960.1	96.76
960.267	58.59
960.435	65.95
960.602	107.42
960.77	44.84
960.937	14.03
961.104	57.04
961.272	24.88
961.439	40.96
961.606	55.1
961.774	81.45
961.941	64.4
962.108	81.26
962.275	78.35
962.443	97.92
962.61	91.34
962.777	134.54
962.944	110.13
963.111	92.5
963.278	70.22
963.446	90.95
963.613	69.83
963.78	103.15
963.947	86.88
964.114	88.24
964.281	175.42
964.448	90.56
964.615	60.92
964.782	81.45
964.949	81.65
965.116	94.44
965.282	107.03
965.449	78.74
965.616	35.92
965.783	113.81
965.95	95.02
966.117	39.8
966.283	57.82
966.45	100.44
966.617	103.35
966.784	126.4
966.95	105.09
967.117	109.94
967.284	46
967.45	61.69
967.617	142.48
967.784	105.29
967.95	145.58
968.117	80.49
968.283	113.04
968.45	186.27
968.616	81.84
968.783	104.51
968.949	100.44
969.116	119.62
969.282	95.02
969.449	80.1
969.615	74.87
969.781	62.47
969.948	109.16
970.114	62.47
970.28	145.39
970.447	90.75
970.613	135.32
970.779	106.64
970.945	129.31
971.112	85.72
971.278	124.08
971.444	86.88
971.61	114.59
971.776	83.78
971.942	121.37
972.108	117.1
972.275	92.89
972.441	122.14
972.607	147.91
972.773	61.5
972.939	111.49
973.105	102.57
973.271	68.86
973.437	98.89
973.602	61.69
973.768	101.22
973.934	74.48
974.1	78.55
974.266	24.49
974.432	90.37
974.598	42.9
974.763	107.8
974.929	70.22
975.095	126.21
975.261	78.94
975.426	55.1
975.592	68.28
975.758	145.97
975.923	29.72
976.089	72.15
976.255	102.19
976.42	103.54
976.586	121.95
976.751	111.29
976.917	141.52
977.082	89.4
977.248	48.71
977.413	48.32
977.579	66.73
977.744	84.36
977.91	57.82
978.075	74.09
978.24	107.8
978.406	77.19
978.571	58.59
978.736	46.19
978.902	93.66
979.067	60.14
979.232	28.56
979.397	98.89
979.563	137.06
979.728	47.74
979.893	69.83
980.058	64.6
980.223	134.35
980.388	95.6
980.554	64.4
980.719	64.4
980.884	108.39
981.049	92.89
981.214	66.54
981.379	104.7
981.544	63.05
981.709	76.03
981.874	75.45
982.039	56.27
982.204	93.08
982.368	78.35
982.533	46.77
982.698	120.59
982.863	96.76
983.028	84.75
983.193	95.21
983.357	92.5
983.522	99.67
983.687	83.78
983.852	63.44
984.016	75.84
984.181	63.44
984.346	63.05
984.51	129.89
984.675	89.4
984.839	88.62
985.004	91.34
985.168	123.3
985.333	75.45
985.498	86.69
985.662	116.91
985.827	100.44
985.991	60.34
986.155	49.49
986.32	108.19
986.484	145.97
986.649	91.53
986.813	29.34
986.977	74.09
987.142	84.36
987.306	51.81
987.47	49.68
987.634	51.04
987.799	92.11
987.963	95.02
988.127	93.66
988.291	122.53
988.455	79.52
988.62	69.25
988.784	98.7
988.948	109.35
989.112	36.12
989.276	85.91
989.44	79.71
989.604	63.63
989.768	76.8
989.932	150.82
990.096	55.88
990.26	55.3
990.424	31.27
990.588	94.82
990.752	122.34
990.915	96.95
991.079	58.59
991.243	64.02
991.407	105.87
991.571	60.14
991.734	76.8
991.898	94.82
992.062	156.63
992.226	61.3
992.389	45.22
992.553	45.03
992.717	56.85
992.88	55.1
993.044	69.64
993.207	55.88
993.371	98.31
993.535	93.66
993.698	66.34
993.862	107.61
994.025	82.42
994.189	64.21
994.352	75.25
994.515	77
994.679	73.12
994.842	30.89
995.006	115.94
995.169	33.79
995.332	60.53
995.496	91.72
995.659	27.21
995.822	74.09
995.985	46.19
996.149	87.27
996.312	46.39
996.475	120.01
996.638	54.91
996.801	104.9
996.964	122.72
997.128	43.09
997.291	69.83
997.454	73.32
997.617	20.23
997.78	88.62
997.943	51.81
998.106	59.75
998.269	58.2
998.432	45.22
998.595	61.5
998.758	13.06
998.92	35.54
999.083	3.76
999.246	49.68
999.409	23.72
999.572	2.6
999.735	38.83
999.897	74.29
1000.06	29.72
1000.223	43.67
1000.386	81.45
1000.548	81.07
1000.711	73.9
1000.874	58.79
1001.036	10.35
1001.199	86.88
1001.361	47.55
1001.524	71.19
1001.687	64.02
1001.849	22.36
1002.012	57.43
1002.174	62.27
1002.337	52.59
1002.499	38.83
1002.661	89.59
1002.824	20.04
1002.986	18.49
1003.149	62.08
1003.311	38.06
1003.473	119.62
1003.636	33.02
1003.798	78.55
1003.96	70.8
1004.123	64.6
1004.285	29.92
1004.447	44.45
1004.609	39.02
1004.771	85.14
1004.933	10.54
1005.096	7.83
1005.258	-8.44
1005.42	24.88
1005.582	88.62
1005.744	58.79
1005.906	0.86
1006.068	62.85
1006.23	25.46
1006.392	-5.34
1006.554	18.87
1006.716	88.82
1006.878	57.24
1007.04	13.26
1007.202	37.28
1007.363	55.3
1007.525	36.89
1007.687	57.62
1007.849	95.99
1008.011	-18.52
1008.172	-1.08
1008.334	16.55
1008.496	40.96
1008.658	-21.04
1008.819	19.26
1008.981	7.44
1009.143	-7.48
1009.304	56.07
1009.466	26.82
1009.627	102.96
1009.789	132.99
1009.95	53.55
1010.112	25.85
1010.273	49.87
1010.435	9.57
1010.596	24.69
1010.758	18.29
1010.919	-1.08
1011.081	-3.79
1011.242	28.56
1011.403	39.61
1011.565	32.24
1011.726	53.36
1011.887	9.77
1012.049	1.82
1012.21	75.84
1012.371	111.68
1012.532	-39.64
1012.693	16.36
1012.855	-9.61
1013.016	19.46
1013.177	57.43
1013.338	16.55
1013.499	103.93
1013.66	54.72
1013.821	60.72
1013.982	31.66
1014.143	46.19
1014.304	28.95
1014.465	27.01
1014.626	59.95
1014.787	3.37
1014.948	105.48
1015.109	-61.92
1015.27	63.24
1015.431	32.63
1015.592	21.97
1015.752	70.22
1015.913	30.69
1016.074	12.48
1016.235	21.97
1016.395	21.01
1016.556	11.9
1016.717	31.08
1016.877	66.15
1017.038	13.26
1017.199	43.09
1017.359	25.66
1017.52	30.5
1017.681	6.28
1017.841	38.83
1018.002	27.21
1018.162	-3.21
1018.323	65.95
1018.483	40.96
1018.644	9.96
1018.804	-37.7
1018.964	2.41
1019.125	22.36
1019.285	37.28
1019.446	-15.81
1019.606	-16
1019.766	-9.8
1019.926	41.16
1020.087	27.4
1020.247	-9.03
1020.407	21.97
1020.567	76.61
1020.728	58.2
1020.888	-5.54
1021.048	-19.88
1021.208	-17.36
1021.368	-4.57
1021.528	73.9
1021.688	27.79
1021.848	39.61
1022.008	2.21
1022.168	-13.09
1022.328	15.39
1022.488	31.66
1022.648	-5.34
1022.808	27.79
1022.968	18.68
1023.128	-12.71
1023.288	10.74
1023.448	35.34
1023.608	35.34
1023.767	34.57
1023.927	6.09
1024.087	-4.57
1024.247	-30.73
1024.406	-1.47
1024.566	-18.91
1024.726	-11.93
1024.885	14.22
1025.045	29.53
1025.205	5.31
1025.364	-0.31
1025.524	12.87
1025.683	9.96
1025.843	19.26
1026.003	32.63
1026.162	65.57
1026.321	39.99
1026.481	12.29
1026.64	-16.58
1026.8	31.08
1026.959	21.01
1027.119	22.17
1027.278	12.67
1027.437	-18.33
1027.597	31.08
1027.756	33.21
1027.915	35.54
1028.074	29.53
1028.234	-10.19
1028.393	-1.66
1028.552	18.29
1028.711	-58.62
1028.87	28.17
1029.03	-9.61
1029.189	28.76
1029.348	-41.19
1029.507	-2.63
1029.666	1.05
1029.825	-28.4
1029.984	-5.54
1030.143	24.11
1030.302	14.42
1030.461	-8.25
1030.62	21.39
1030.779	3.76
1030.938	-1.28
1031.097	-6.51
1031.255	27.98
1031.414	47.36
1031.573	61.69
1031.732	-39.44
1031.891	-19.68
1032.049	61.3
1032.208	-4.57
1032.367	-6.51
1032.525	-10.77
1032.684	-10.96
1032.843	3.96
1033.001	-45.64
1033.16	137.84
1033.319	68.28
1033.477	33.6
1033.636	21.97
1033.794	-38.47
1033.953	37.28
1034.111	21.78
1034.27	-21.81
1034.428	14.03
1034.587	-15.42
1034.745	21.97
1034.903	21.2
1035.062	38.06
1035.22	-53.39
1035.378	53.94
1035.537	-40.61
1035.695	30.69
1035.853	18.68
1036.011	24.49
1036.17	40.96
1036.328	-27.82
1036.486	-2.63
1036.644	-1.08
1036.802	-58.43
1036.96	-7.86
1037.119	-4.57
1037.277	-19.88
1037.435	-37.7
1037.593	-19.1
1037.751	-6.51
1037.909	29.53
1038.067	29.53
